Data from AgNPs_UA_50uM_CRN_500uM_SU_RamanShift__62__14-06-10-325.txt Node

Date: Thu Aug 04 14:06:10 BST 2022
User: TCL
Spectrometer: QEP01345
Trigger mode: 4
Integration Time (sec): 1.000000E0
Scans to average: 10
Electric dark correction enabled: true
Nonlinearity correction enabled: false
Boxcar width: 0
XAxis mode: Raman Shifts
Number of Pixels in Spectrum: 1044
>>>>>Begin Spectral Data<<<<<
46.04893	1.3625
50.45542	-1.1375
54.85868	0.0625
59.25871	-1.6375
63.6555	19.2625
68.04907	15.9625
72.43941	19.4625
76.82654	19.6625
81.21044	20.9625
85.59113	22.6625
89.96862	21.6625
94.34289	22.9625
98.71396	23.3625
103.08183	23.9625
107.4465	24.5625
111.80798	23.8625
116.16626	26.1625
120.52136	28.7625
124.87327	28.7625
129.222	32.5625
133.56755	33.6625
137.90993	38.5625
142.24913	39.2625
146.58517	46.6625
150.91804	54.5625
155.24774	66.4625
159.57429	86.6625
163.89768	108.9625
168.21792	151.1625
172.53501	207.1625
176.84895	292.4625
181.15975	414.6625
185.46741	589.1625
189.77193	816.8625
194.07331	1095.9625
198.37157	1412.8625
202.6667	1749.5625
206.9587	2098.8625
211.24758	2429.3625
215.53334	2771.1625
219.81599	3152.5625
224.09553	3568.9625
228.37195	4012.3625
232.64527	4505.1625
236.91549	4976.6625
241.18261	5382.4625
245.44663	5712.6625
249.70755	5956.3625
253.96539	6202.8625
258.22014	6390.3625
262.4718	6575.8625
266.72039	6700.7625
270.96589	6726.6625
275.20832	6711.6625
279.44768	6582.6625
283.68397	6510.8625
287.91719	6403.6625
292.14735	6424.0625
296.37445	6539.8625
300.59849	6770.2625
304.81948	7078.1625
309.03742	7350.0625
313.25231	7505.0625
317.46415	7409.7625
321.67296	7053.5625
325.87872	6711.1625
330.08145	6513.5625
334.28114	6522.4625
338.47781	6617.1625
342.67145	6765.1625
346.86207	7005.9625
351.04966	7315.0625
355.23424	7628.5625
359.4158	7856.0625
363.59435	7938.0625
367.76989	7951.6625
371.94243	7911.9625
376.11196	7862.2625
380.27849	7827.2625
384.44203	7823.7625
388.60257	7825.3625
392.76012	7885.1625
396.91468	7981.3625
401.06626	8117.0625
405.21485	8140.6625
409.36047	8012.6625
413.50311	7703.0625
417.64277	7403.4625
421.77947	7223.4625
425.9132	7153.4625
430.04396	7139.5625
434.17176	7200.8625
438.2966	7298.8625
442.41849	7464.6625
446.53742	7650.6625
450.6534	7838.5625
454.76644	7942.8625
458.87653	7965.6625
462.98368	7947.3625
467.08789	7871.3625
471.18916	7698.5625
475.2875	7480.3625
479.38291	7295.6625
483.4754	7214.6625
487.56496	7149.1625
491.6516	7108.2625
495.73531	7078.5625
499.81612	7095.7625
503.89401	7162.6625
507.96899	7207.1625
512.04106	7251.9625
516.11023	7337.3625
520.1765	7396.9625
524.23987	7430.4625
528.30034	7411.6625
532.35792	7375.5625
536.41261	7295.8625
540.46441	7192.3625
544.51333	7164.9625
548.55936	7211.2625
552.60252	7308.8625
556.64279	7484.5625
560.6802	7556.4625
564.71473	7655.5625
568.7464	7817.7625
572.7752	7802.3625
576.80114	7544.8625
580.82422	7355.2625
584.84444	7283.0625
588.86181	7349.6625
592.87633	7482.6625
596.888	7641.3625
600.89682	7990.1625
604.9028	9028.9625
608.90594	11274.8625
612.90624	13482.1625
616.90371	12260.0625
620.89834	9158.4625
624.89015	7982.1625
628.87913	7888.7625
632.86528	7972.7625
636.84862	7939.7625
640.82913	7661.9625
644.80683	7308.8625
648.78172	7140.0625
652.75379	7176.9625
656.72306	7440.2625
660.68952	7736.8625
664.65319	7685.2625
668.61405	7476.5625
672.57211	7470.4625
676.52738	7440.9625
680.47986	7304.9625
684.42955	7149.6625
688.37646	7145.0625
692.32058	7223.4625
696.26192	7360.6625
700.20048	7494.0625
704.13626	7477.1625
708.06928	7390.8625
711.99952	7305.8625
715.927	7309.4625
719.85171	7351.4625
723.77365	7372.8625
727.69284	7294.3625
731.60928	7221.1625
735.52295	7207.5625
739.43388	7260.0625
743.34206	7292.3625
747.24749	7319.0625
751.15017	7320.2625
755.05012	7426.6625
758.94733	7761.8625
762.8418	8576.3625
766.73354	9785.7625
770.62254	10724.5625
774.50882	10884.4625
778.39237	10329.3625
782.27321	9381.6625
786.15132	8422.4625
790.02671	7809.5625
793.89938	7515.6625
797.76935	7366.5625
801.6366	7310.2625
805.50115	7245.3625
809.36299	7220.1625
813.22213	7183.8625
817.07857	7177.6625
820.93231	7177.1625
824.78336	7196.7625
828.63172	7226.6625
832.47738	7238.3625
836.32036	7218.6625
840.16066	7223.9625
843.99827	7214.9625
847.8332	7205.8625
851.66546	7187.2625
855.49504	7200.4625
859.32195	7192.7625
863.1462	7153.2625
866.96777	7148.5625
870.78668	7151.7625
874.60293	7152.8625
878.41652	7192.0625
882.22745	7252.0625
886.03573	7264.2625
889.84136	7261.3625
893.64433	7232.1625
897.44466	7204.2625
901.24235	7196.3625
905.0374	7177.4625
908.8298	7143.5625
912.61957	7114.9625
916.40671	7142.6625
920.19121	7193.8625
923.97308	7292.8625
927.75233	7415.4625
931.52895	7494.0625
935.30295	7401.3625
939.07433	7212.8625
942.84309	7096.5625
946.60924	7034.7625
950.37278	7028.9625
954.13371	6989.4625
957.89203	6954.9625
961.64774	6946.5625
965.40086	6918.7625
969.15137	6918.5625
972.89929	6922.6625
976.64461	6914.6625
980.38733	6923.9625
984.12747	6932.6625
987.86502	6969.6625
991.59999	7069.4625
995.33237	7188.7625
999.06217	7379.4625
1002.78939	7589.0625
1006.51404	7693.1625
1010.23611	7788.7625
1013.95561	7852.8625
1017.67255	7887.8625
1021.38692	7878.5625
1025.09872	7862.4625
1028.80796	7916.2625
1032.51465	8067.7625
1036.21877	8202.1625
1039.92035	8192.7625
1043.61937	8101.3625
1047.31584	7941.9625
1051.00976	7784.1625
1054.70114	7708.8625
1058.38998	7716.5625
1062.07627	7712.8625
1065.76003	7747.1625
1069.44126	7785.7625
1073.11995	7912.4625
1076.79611	8015.9625
1080.46974	8165.4625
1084.14085	8327.7625
1087.80943	8417.5625
1091.47549	8436.4625
1095.13903	8323.1625
1098.80005	8203.3625
1102.45857	8181.5625
1106.11456	8147.8625
1109.76805	8151.0625
1113.41903	8209.2625
1117.06751	8357.5625
1120.71348	8561.3625
1124.35696	8826.7625
1127.99793	8992.3625
1131.63641	8817.2625
1135.2724	8492.9625
1138.90589	8205.7625
1142.5369	8048.8625
1146.16542	7939.9625
1149.79145	7860.0625
1153.415	7791.4625
1157.03607	7802.1625
1160.65467	7886.4625
1164.27079	8102.5625
1167.88443	8429.9625
1171.49561	8956.9625
1175.10432	9730.1625
1178.71056	10761.3625
1182.31434	11597.0625
1185.91565	11860.7625
1189.51451	11678.1625
1193.11091	11178.8625
1196.70485	10638.5625
1200.29634	10205.2625
1203.88538	9825.0625
1207.47197	9335.7625
1211.05612	8934.5625
1214.63782	8666.0625
1218.21708	8535.9625
1221.79391	8508.8625
1225.36829	8550.6625
1228.94024	8544.1625
1232.50976	8458.5625
1236.07685	8397.0625
1239.6415	8405.3625
1243.20374	8410.9625
1246.76355	8480.8625
1250.32093	8622.2625
1253.8759	8808.8625
1257.42845	9080.2625
1260.97859	9359.5625
1264.52631	9673.4625
1268.07163	9859.7625
1271.61453	10020.3625
1275.15503	10153.1625
1278.69312	10238.5625
1282.22882	10381.6625
1285.76211	10555.1625
1289.29301	10769.5625
1292.82151	10958.8625
1296.34761	11229.8625
1299.87133	11715.2625
1303.39266	12565.9625
1306.9116	13849.8625
1310.42815	15186.2625
1313.94233	15705.4625
1317.45412	15052.9625
1320.96354	13966.4625
1324.47058	12877.8625
1327.97525	12021.8625
1331.47754	11463.3625
1334.97747	11320.9625
1338.47502	11444.9625
1341.97022	11845.0625
1345.46305	12506.1625
1348.95352	13400.1625
1352.44163	14419.1625
1355.92738	15675.5625
1359.41078	17310.3625
1362.89183	18467.0625
1366.37053	17451.6625
1369.84688	14785.3625
1373.32088	12438.2625
1376.79254	11116.6625
1380.26186	10455.3625
1383.72883	10154.7625
1387.19347	9786.0625
1390.65578	9441.7625
1394.11575	9130.6625
1397.57339	8955.0625
1401.0287	8907.5625
1404.48168	8900.6625
1407.93234	8989.1625
1411.38068	9132.7625
1414.82669	9283.7625
1418.27039	9337.6625
1421.71177	9271.0625
1425.15083	9154.7625
1428.58758	9135.9625
1432.02203	9263.6625
1435.45416	9404.8625
1438.88399	9370.0625
1442.31151	9318.6625
1445.73673	9290.8625
1449.15965	9301.7625
1452.58027	9182.6625
1455.9986	9058.2625
1459.41463	9006.1625
1462.82837	9104.9625
1466.23982	9257.1625
1469.64898	9426.0625
1473.05586	9580.8625
1476.46045	9719.3625
1479.86276	9835.5625
1483.26279	9983.0625
1486.66054	10213.0625
1490.05602	10530.4625
1493.44922	11013.4625
1496.84016	11783.8625
1500.22882	12899.6625
1503.61521	14313.4625
1506.99934	15750.8625
1510.38121	16671.8625
1513.76081	16489.5625
1517.13816	15176.7625
1520.51324	13459.9625
1523.88607	11956.7625
1527.25665	11062.9625
1530.62498	10569.0625
1533.99105	10279.5625
1537.35488	10141.9625
1540.71647	9985.3625
1544.07581	9870.1625
1547.4329	9755.5625
1550.78776	9633.1625
1554.14038	9618.5625
1557.49077	9636.3625
1560.83892	9805.3625
1564.18484	10069.7625
1567.52853	10362.3625
1570.86999	10521.7625
1574.20922	10541.1625
1577.54624	10312.8625
1580.88103	9843.1625
1584.2136	9359.1625
1587.54395	9133.0625
1590.87208	9304.3625
1594.19801	9881.2625
1597.52172	10511.0625
1600.84321	10765.0625
1604.16251	10563.7625
1607.47959	10111.6625
1610.79447	9564.6625
1614.10715	8983.2625
1617.41763	8446.0625
1620.7259	8103.1625
1624.03199	7963.2625
1627.33587	7955.2625
1630.63757	8176.8625
1633.93707	8595.2625
1637.23439	9276.1625
1640.52951	10252.4625
1643.82246	11493.2625
1647.11321	12696.8625
1650.40179	13065.2625
1653.68819	12258.9625
1656.97241	10640.1625
1660.25446	9100.0625
1663.53433	8084.3625
1666.81203	7484.1625
1670.08756	7126.9625
1673.36092	6904.0625
1676.63211	6770.4625
1679.90115	6658.5625
1683.16801	6607.1625
1686.43272	6534.8625
1689.69527	6490.3625
1692.95567	6429.2625
1696.2139	6417.2625
1699.46999	6402.9625
1702.72392	6417.6625
1705.97571	6417.1625
1709.22535	6388.2625
1712.47284	6400.4625
1715.71819	6410.0625
1718.96139	6383.8625
1722.20246	6372.9625
1725.44139	6338.3625
1728.67818	6281.6625
1731.91284	6246.8625
1735.14537	6228.4625
1738.37576	6210.1625
1741.60403	6189.2625
1744.83017	6159.1625
1748.05418	6149.4625
1751.27607	6132.1625
1754.49584	6095.2625
1757.71349	6091.1625
1760.92903	6076.5625
1764.14244	6093.6625
1767.35375	6073.8625
1770.56294	6055.1625
1773.77002	6050.5625
1776.97499	6020.7625
1780.17785	6008.9625
1783.37861	5977.8625
1786.57727	5972.6625
1789.77382	5963.9625
1792.96828	5962.5625
1796.16064	5943.9625
1799.3509	5935.9625
1802.53907	5932.4625
1805.72514	5916.7625
1808.90913	5910.4625
1812.09102	5868.8625
1815.27083	5866.2625
1818.44856	5862.2625
1821.6242	5841.4625
1824.79776	5832.3625
1827.96924	5808.8625
1831.13864	5795.7625
1834.30597	5793.9625
1837.47122	5762.1625
1840.6344	5774.7625
1843.7955	5785.3625
1846.95454	5756.6625
1850.11151	5760.0625
1853.26642	5757.4625
1856.41926	5744.6625
1859.57004	5768.0625
1862.71876	5765.0625
1865.86542	5746.5625
1869.01003	5738.4625
1872.15258	5739.1625
1875.29308	5718.8625
1878.43152	5730.0625
1881.56792	5723.9625
1884.70227	5708.1625
1887.83457	5711.2625
1890.96482	5688.3625
1894.09304	5676.7625
1897.21921	5669.2625
1900.34335	5670.2625
1903.46544	5638.5625
1906.58551	5636.3625
1909.70353	5632.6625
1912.81953	5614.8625
1915.93349	5624.4625
1919.04543	5621.1625
1922.15534	5599.3625
1925.26322	5603.9625
1928.36908	5599.6625
1931.47292	5579.4625
1934.57473	5573.2625
1937.67453	5548.9625
1940.77232	5528.6625
1943.86808	5508.4625
1946.96184	5491.3625
1950.05358	5479.2625
1953.14331	5467.4625
1956.23103	5449.1625
1959.31675	5415.9625
1962.40046	5412.5625
1965.48217	5400.3625
1968.56188	5392.4625
1971.63959	5367.9625
1974.7153	5365.8625
1977.78901	5342.5625
1980.86073	5323.9625
1983.93046	5308.4625
1986.99819	5290.6625
1990.06394	5279.7625
1993.1277	5261.5625
1996.18947	5220.0625
1999.24925	5218.3625
2002.30706	5195.2625
2005.36288	5172.5625
2008.41672	5158.5625
2011.46859	5149.8625
2014.51848	5129.7625
2017.56639	5138.5625
2020.61233	5100.3625
2023.6563	5095.9625
2026.6983	5057.4625
2029.73833	5052.3625
2032.7764	5031.0625
2035.8125	5018.8625
2038.84664	5020.8625
2041.87881	5022.0625
2044.90903	5001.2625
2047.93729	4994.6625
2050.96359	4980.7625
2053.98794	4976.8625
2057.01034	4986.9625
2060.03078	4987.8625
2063.04927	4966.4625
2066.06582	4974.2625
2069.08042	4984.4625
2072.09307	4939.2625
2075.10378	4917.2625
2078.11255	4923.3625
2081.11938	4935.9625
2084.12426	4922.0625
2087.12722	4926.2625
2090.12824	4926.4625
2093.12732	4925.1625
2096.12447	4927.1625
2099.11969	4930.0625
2102.11299	4928.5625
2105.10435	4934.6625
2108.09379	4918.7625
2111.08131	4916.5625
2114.0669	4920.1625
2117.05057	4941.6625
2120.03233	4918.8625
2123.01216	4927.8625
2125.99008	4930.1625
2128.96609	4949.0625
2131.94018	4942.4625
2134.91236	4937.8625
2137.88263	4940.1625
2140.851	4935.1625
2143.81746	4958.6625
2146.78201	4935.7625
2149.74466	4930.4625
2152.7054	4930.7625
2155.66425	4940.8625
2158.6212	4929.9625
2161.57625	4922.1625
2164.52941	4910.5625
2167.48067	4926.0625
2170.43004	4915.2625
2173.37752	4921.7625
2176.32311	4924.5625
2179.26681	4913.9625
2182.20863	4911.2625
2185.14856	4918.6625
2188.08661	4914.8625
2191.02278	4917.8625
2193.95707	4883.5625
2196.88948	4900.0625
2199.82001	4887.1625
2202.74867	4877.0625
2205.67545	4872.0625
2208.60037	4884.0625
2211.52341	4881.6625
2214.44458	4870.9625
2217.36388	4869.5625
2220.28132	4858.8625
2223.1969	4830.8625
2226.11061	4831.3625
2229.02246	4815.9625
2231.93245	4815.2625
2234.84058	4806.8625
2237.74686	4778.1625
2240.65128	4796.2625
2243.55385	4773.1625
2246.45456	4755.3625
2249.35343	4767.4625
2252.25044	4753.5625
2255.14561	4754.7625
2258.03893	4753.0625
2260.93041	4740.3625
2263.82004	4750.1625
2266.70783	4731.3625
2269.59378	4712.0625
2272.4779	4694.3625
2275.36017	4687.1625
2278.24061	4669.4625
2281.11922	4663.9625
2283.996	4643.6625
2286.87094	4629.1625
2289.74405	4647.0625
2292.61534	4622.6625
2295.4848	4635.8625
2298.35243	4638.8625
2301.21824	4619.7625
2304.08223	4616.2625
2306.94439	4614.0625
2309.80474	4621.3625
2312.66327	4620.7625
2315.51999	4632.0625
2318.37489	4623.7625
2321.22797	4629.2625
2324.07925	4600.1625
2326.92871	4589.8625
2329.77637	4595.7625
2332.62222	4587.6625
2335.46626	4585.7625
2338.3085	4575.2625
2341.14893	4574.4625
2343.98756	4584.8625
2346.8244	4586.3625
2349.65943	4571.2625
2352.49267	4567.2625
2355.32411	4567.3625
2358.15376	4572.5625
2360.98161	4564.7625
2363.80768	4574.1625
2366.63195	4547.8625
2369.45444	4557.4625
2372.27514	4543.1625
2375.09405	4531.5625
2377.91118	4533.4625
2380.72652	4496.4625
2383.54009	4483.8625
2386.35187	4499.3625
2389.16188	4481.1625
2391.97011	4463.9625
2394.77657	4474.6625
2397.58125	4440.5625
2400.38416	4437.2625
2403.18529	4432.2625
2405.98466	4436.5625
2408.78226	4418.6625
2411.57809	4403.9625
2414.37216	4377.1625
2417.16446	4382.7625
2419.955	4372.1625
2422.74378	4379.8625
2425.5308	4374.8625
2428.31606	4359.3625
2431.09956	4357.8625
2433.88131	4357.0625
2436.6613	4361.3625
2439.43954	4372.6625
2442.21603	4363.4625
2444.99077	4354.5625
2447.76377	4356.6625
2450.53501	4327.0625
2453.30451	4345.6625
2456.07226	4346.0625
2458.83827	4328.3625
2461.60254	4320.2625
2464.36507	4322.9625
2467.12586	4316.0625
2469.88492	4316.2625
2472.64224	4312.5625
2475.39782	4313.2625
2478.15167	4305.2625
2480.90379	4318.6625
2483.65417	4320.1625
2486.40283	4316.3625
2489.14976	4337.0625
2491.89497	4334.3625
2494.63845	4318.0625
2497.3802	4311.8625
2500.12024	4328.4625
2502.85855	4322.2625
2505.59514	4300.2625
2508.33002	4290.6625
2511.06318	4273.2625
2513.79462	4271.3625
2516.52435	4237.3625
2519.25237	4260.6625
2521.97867	4243.0625
2524.70327	4239.2625
2527.42616	4234.4625
2530.14734	4229.9625
2532.86681	4231.2625
2535.58458	4238.9625
2538.30065	4234.0625
2541.01501	4223.3625
2543.72768	4225.2625
2546.43864	4217.7625
2549.14791	4206.2625
2551.85548	4201.3625
2554.56136	4200.7625
2557.26554	4189.6625
2559.96803	4180.1625
2562.66883	4181.5625
2565.36794	4173.2625
2568.06536	4163.9625
2570.7611	4147.8625
2573.45514	4146.7625
2576.14751	4131.2625
2578.83819	4125.1625
2581.52719	4120.4625
2584.21451	4119.2625
2586.90015	4121.2625
2589.58411	4119.4625
2592.2664	4131.0625
2594.94701	4107.1625
2597.62594	4115.8625
2600.30321	4110.9625
2602.9788	4095.6625
2605.65273	4082.3625
2608.32498	4097.9625
2610.99557	4099.4625
2613.66449	4109.0625
2616.33175	4087.8625
2618.99734	4080.9625
2621.66128	4084.1625
2624.32355	4067.7625
2626.98416	4072.4625
2629.64311	4059.7625
2632.30041	4073.4625
2634.95605	4065.3625
2637.61004	4031.7625
2640.26238	4039.1625
2642.91306	4037.3625
2645.56209	4021.4625
2648.20948	4028.3625
2650.85521	4039.4625
2653.4993	4024.4625
2656.14175	4010.7625
2658.78255	4016.0625
2661.42171	4018.2625
2664.05923	4023.2625
2666.6951	4030.5625
2669.32934	4033.2625
2671.96194	4018.0625
2674.59291	4009.0625
2677.22224	4026.9625
2679.84993	4024.6625
2682.476	4007.1625
2685.10043	4009.0625
2687.72324	4004.7625
2690.34441	3993.7625
2692.96396	3994.6625
2695.58188	3992.1625
2698.19818	3974.9625
2700.81285	3984.7625
2703.4259	3991.2625
2706.03733	3982.9625
2708.64714	3976.5625
2711.25533	3972.8625
2713.86191	3959.8625
2716.46687	3957.7625
2719.07021	3973.1625
2721.67194	3978.9625
2724.27206	3962.6625
2726.87057	3966.1625
2729.46747	3965.8625
2732.06276	3971.6625
2734.65644	3957.8625
2737.24852	3958.9625
2739.83899	3964.2625
2742.42786	3957.2625
2745.01513	3945.5625
2747.60079	3951.7625
2750.18486	3943.1625
2752.76733	3935.9625
2755.3482	3921.6625
2757.92747	3909.7625
2760.50515	3914.4625
2763.08123	3913.6625
2765.65573	3904.9625
2768.22863	3893.3625
2770.79994	3881.2625
2773.36967	3896.6625
2775.9378	3875.6625
2778.50435	3883.7625
2781.06932	3889.5625
2783.6327	3886.1625
2786.1945	3878.1625
2788.75471	3867.8625
2791.31335	3859.1625
2793.87041	3870.4625
2796.42589	3855.2625
2798.97979	3845.9625
2801.53212	3851.0625
2804.08288	3845.3625
2806.63206	3827.2625
2809.17967	3812.9625
2811.72571	3807.0625
2814.27018	3797.7625
2816.81308	3799.7625
2819.35442	3789.9625
2821.89419	3776.9625
2824.43239	3778.4625
2826.96904	3775.7625
2829.50412	3787.5625
2832.03763	3764.8625
2834.56959	3750.9625
2837.1	3762.8625
2839.62884	3747.5625
2842.15613	3737.8625
2844.68186	3738.3625
2847.20604	3733.0625
2849.72867	3728.1625
2852.24974	3728.7625
2854.76927	3717.2625
2857.28724	3712.7625
2859.80367	3726.4625
2862.31855	3707.5625
2864.83189	3711.3625
2867.34368	3699.8625
2869.85393	3695.8625
2872.36264	3686.1625
2874.8698	3687.4625
2877.37543	3707.4625
2879.87952	3685.6625
2882.38207	3675.3625
2884.88308	3670.8625
2887.38256	3669.1625
2889.88051	3677.8625
2892.37692	3656.5625
2894.8718	3650.4625
2897.36515	3660.1625
2899.85698	3651.9625
2902.34727	3661.3625
2904.83604	3661.2625
2907.32328	3671.1625
2909.809	3675.2625
2912.29319	3681.2625
2914.77587	3693.1625
2917.25702	3680.5625
2919.73665	3693.0625
2922.21476	3674.8625
2924.69136	3681.7625
2927.16644	3658.6625
2929.64	3668.9625
2932.11205	3645.4625
2934.58258	3636.4625
2937.05161	3641.3625
2939.51912	3641.2625
2941.98513	3638.7625
2944.44962	3620.8625
2946.91261	3602.3625
2949.37409	3612.4625
2951.83407	3614.6625
2954.29254	3624.7625
2956.74951	3602.0625
2959.20498	3616.3625
2961.65895	3596.5625
2964.11142	3592.6625
2966.56239	3579.9625
2969.01186	3585.2625
2971.45984	3589.5625
2973.90632	3588.1625
2976.35131	3566.5625
2978.7948	3558.4625
2981.23681	3549.2625
2983.67732	3561.7625
2986.11635	3540.7625
2988.55388	3537.3625
2990.98993	3533.7625
2993.4245	3522.1625
2995.85758	3500.5625
2998.28917	3510.7625
3000.71928	3512.4625
3003.14791	3502.0625
3005.57506	3478.7625
3008.00073	3459.8625
3010.42493	3463.5625
3012.84764	3463.2625
3015.26888	3452.1625
3017.68865	3439.2625
3020.10694	3430.6625
3022.52376	3423.2625
3024.9391	3420.9625
3027.35298	3396.6625
3029.76539	3394.8625
3032.17632	3392.2625
3034.5858	3378.3625
3036.9938	3365.4625
3039.40034	3379.2625
3041.80542	3361.5625
3044.20903	3367.7625
3046.61118	3353.1625
3049.01187	3348.7625
3051.4111	3334.4625
3053.80888	3322.1625
3056.20519	3330.3625
3058.60005	3321.4625
3060.99345	3312.2625
3063.3854	3293.9625
3065.7759	3300.0625
3068.16494	3276.4625
3070.55254	3276.4625
3072.93868	3262.5625
3075.32338	3255.1625
3077.70662	3240.5625
3080.08842	3236.3625
3082.46878	3218.0625
3084.84769	3215.1625
3087.22515	3209.4625
3089.60118	3219.3625
3091.97576	3216.7625
3094.3489	3219.4625
3096.72061	3202.8625
3099.09087	3204.5625
3101.4597	3195.9625
3103.82709	3202.4625
3106.19305	3206.5625
3108.55757	3195.3625
3110.92066	3171.8625
3113.28232	3189.8625
3115.64255	3175.2625
3118.00134	3165.5625
3120.35871	3165.7625
