Data from AgNPs_UA_10uM_CRN_500uM_SU_RamanShift__155__13-31-10-284.txt Node

Date: Thu Aug 04 13:31:10 BST 2022
User: TCL
Spectrometer: QEP01345
Trigger mode: 4
Integration Time (sec): 1.000000E0
Scans to average: 10
Electric dark correction enabled: true
Nonlinearity correction enabled: false
Boxcar width: 0
XAxis mode: Raman Shifts
Number of Pixels in Spectrum: 1044
>>>>>Begin Spectral Data<<<<<
46.04893	-0.1875
50.45542	-0.5875
54.85868	1.0125
59.25871	0.5125
63.6555	15.3125
68.04907	15.2125
72.43941	15.1125
76.82654	16.2125
81.21044	16.2125
85.59113	18.9125
89.96862	18.8125
94.34289	17.8125
98.71396	18.2125
103.08183	20.4125
107.4465	20.0125
111.80798	20.9125
116.16626	21.3125
120.52136	23.2125
124.87327	23.1125
129.222	25.2125
133.56755	25.9125
137.90993	26.9125
142.24913	33.9125
146.58517	34.9125
150.91804	40.6125
155.24774	51.0125
159.57429	61.3125
163.89768	79.0125
168.21792	106.0125
172.53501	143.6125
176.84895	200.8125
181.15975	284.9125
185.46741	398.2125
189.77193	553.5125
194.07331	735.7125
198.37157	941.9125
202.6667	1173.6125
206.9587	1387.6125
211.24758	1605.7125
215.53334	1824.5125
219.81599	2049.0125
224.09553	2312.3125
228.37195	2599.1125
232.64527	2899.9125
236.91549	3221.3125
241.18261	3541.0125
245.44663	3781.6125
249.70755	4010.3125
253.96539	4214.8125
258.22014	4400.3125
262.4718	4550.1125
266.72039	4657.7125
270.96589	4700.5125
275.20832	4701.6125
279.44768	4652.6125
283.68397	4582.2125
287.91719	4517.2125
292.14735	4523.8125
296.37445	4572.2125
300.59849	4643.3125
304.81948	4765.4125
309.03742	4839.5125
313.25231	4871.8125
317.46415	4808.2125
321.67296	4673.2125
325.87872	4573.2125
330.08145	4537.7125
334.28114	4558.9125
338.47781	4610.4125
342.67145	4692.7125
346.86207	4807.6125
351.04966	4962.8125
355.23424	5122.9125
359.4158	5256.2125
363.59435	5337.7125
367.76989	5393.6125
371.94243	5430.5125
376.11196	5475.3125
380.27849	5516.6125
384.44203	5539.6125
388.60257	5558.0125
392.76012	5608.6125
396.91468	5683.5125
401.06626	5792.6125
405.21485	5866.9125
409.36047	5839.9125
413.50311	5730.2125
417.64277	5595.8125
421.77947	5537.4125
425.9132	5525.7125
430.04396	5584.4125
434.17176	5688.3125
438.2966	5868.9125
442.41849	6110.4125
446.53742	6396.8125
450.6534	6675.1125
454.76644	6848.0125
458.87653	6821.2125
462.98368	6645.0125
467.08789	6408.4125
471.18916	6192.4125
475.2875	5955.1125
479.38291	5763.8125
483.4754	5639.4125
487.56496	5545.2125
491.6516	5490.4125
495.73531	5448.7125
499.81612	5471.6125
503.89401	5490.4125
507.96899	5524.9125
512.04106	5531.1125
516.11023	5593.3125
520.1765	5628.9125
524.23987	5679.3125
528.30034	5709.3125
532.35792	5704.9125
536.41261	5619.9125
540.46441	5545.2125
544.51333	5530.1125
548.55936	5581.2125
552.60252	5645.8125
556.64279	5746.0125
560.6802	5746.7125
564.71473	5701.2125
568.7464	5726.5125
572.7752	5761.9125
576.80114	5712.5125
580.82422	5740.6125
584.84444	5861.9125
588.86181	6072.7125
592.87633	6349.0125
596.888	6499.2125
600.89682	6688.8125
604.9028	7226.9125
608.90594	8312.6125
612.90624	9176.5125
616.90371	8383.7125
620.89834	6815.3125
624.89015	6243.8125
628.87913	6159.7125
632.86528	6085.4125
636.84862	5985.9125
640.82913	5827.6125
644.80683	5647.3125
648.78172	5567.9125
652.75379	5598.9125
656.72306	5788.1125
660.68952	5939.1125
664.65319	5900.3125
668.61405	5815.4125
672.57211	5829.0125
676.52738	5821.4125
680.47986	5735.4125
684.42955	5651.7125
688.37646	5665.2125
692.32058	5716.6125
696.26192	5815.8125
700.20048	5927.4125
704.13626	5938.1125
708.06928	5822.2125
711.99952	5753.4125
715.927	5762.1125
719.85171	5812.9125
723.77365	5779.0125
727.69284	5723.4125
731.60928	5696.3125
735.52295	5731.1125
739.43388	5774.0125
743.34206	5854.9125
747.24749	5875.3125
751.15017	5907.6125
755.05012	5982.8125
758.94733	6159.4125
762.8418	6546.1125
766.73354	7137.3125
770.62254	7677.3125
774.50882	7907.9125
778.39237	7596.3125
782.27321	6998.2125
786.15132	6441.6125
790.02671	6084.6125
793.89938	5936.6125
797.76935	5870.9125
801.6366	5833.3125
805.50115	5810.6125
809.36299	5776.6125
813.22213	5746.4125
817.07857	5738.7125
820.93231	5749.7125
824.78336	5742.7125
828.63172	5748.1125
832.47738	5777.8125
836.32036	5777.6125
840.16066	5819.6125
843.99827	5803.7125
847.8332	5796.1125
851.66546	5767.2125
855.49504	5779.2125
859.32195	5773.2125
863.1462	5759.0125
866.96777	5752.1125
870.78668	5735.7125
874.60293	5765.0125
878.41652	5786.7125
882.22745	5834.3125
886.03573	5857.1125
889.84136	5858.7125
893.64433	5810.8125
897.44466	5798.9125
901.24235	5778.7125
905.0374	5759.5125
908.8298	5756.4125
912.61957	5756.7125
916.40671	5812.6125
920.19121	5837.8125
923.97308	5895.9125
927.75233	5940.2125
931.52895	5984.8125
935.30295	5937.0125
939.07433	5823.6125
942.84309	5746.1125
946.60924	5761.5125
950.37278	5698.2125
954.13371	5676.6125
957.89203	5660.7125
961.64774	5655.7125
965.40086	5631.7125
969.15137	5612.0125
972.89929	5609.4125
976.64461	5621.0125
980.38733	5656.2125
984.12747	5678.2125
987.86502	5730.1125
991.59999	5794.7125
995.33237	5939.2125
999.06217	6170.5125
1002.78939	6394.6125
1006.51404	6502.9125
1010.23611	6568.6125
1013.95561	6707.9125
1017.67255	6770.2125
1021.38692	6714.0125
1025.09872	6624.1125
1028.80796	6650.8125
1032.51465	6769.7125
1036.21877	6851.0125
1039.92035	6854.7125
1043.61937	6748.6125
1047.31584	6592.6125
1051.00976	6453.7125
1054.70114	6404.6125
1058.38998	6401.1125
1062.07627	6431.8125
1065.76003	6441.5125
1069.44126	6492.4125
1073.11995	6555.4125
1076.79611	6624.6125
1080.46974	6697.6125
1084.14085	6757.8125
1087.80943	6811.7125
1091.47549	6808.7125
1095.13903	6708.3125
1098.80005	6579.9125
1102.45857	6524.9125
1106.11456	6516.4125
1109.76805	6548.9125
1113.41903	6629.4125
1117.06751	6729.4125
1120.71348	6876.0125
1124.35696	6998.3125
1127.99793	7074.6125
1131.63641	7001.0125
1135.2724	6852.5125
1138.90589	6703.3125
1142.5369	6625.6125
1146.16542	6542.9125
1149.79145	6500.6125
1153.415	6499.9125
1157.03607	6569.0125
1160.65467	6658.7125
1164.27079	6831.4125
1167.88443	7105.8125
1171.49561	7532.5125
1175.10432	8170.1125
1178.71056	8941.4125
1182.31434	9714.2125
1185.91565	10241.1125
1189.51451	10375.2125
1193.11091	10108.3125
1196.70485	9536.4125
1200.29634	8957.3125
1203.88538	8440.3125
1207.47197	8029.2125
1211.05612	7720.0125
1214.63782	7565.4125
1218.21708	7560.5125
1221.79391	7588.0125
1225.36829	7651.0125
1228.94024	7626.2125
1232.50976	7603.0125
1236.07685	7618.4125
1239.6415	7697.0125
1243.20374	7751.1125
1246.76355	7775.5125
1250.32093	7846.7125
1253.8759	7989.3125
1257.42845	8262.7125
1260.97859	8531.9125
1264.52631	8746.8125
1268.07163	8947.2125
1271.61453	9055.4125
1275.15503	9147.4125
1278.69312	9276.2125
1282.22882	9504.8125
1285.76211	9741.4125
1289.29301	9985.8125
1292.82151	10257.5125
1296.34761	10553.3125
1299.87133	10844.6125
1303.39266	11377.1125
1306.9116	12134.0125
1310.42815	12861.4125
1313.94233	13179.2125
1317.45412	12966.8125
1320.96354	12509.7125
1324.47058	12066.3125
1327.97525	11828.4125
1331.47754	11901.9125
1334.97747	12130.4125
1338.47502	12387.2125
1341.97022	12550.2125
1345.46305	12720.2125
1348.95352	13036.7125
1352.44163	13515.6125
1355.92738	14107.1125
1359.41078	14817.6125
1362.89183	15038.7125
1366.37053	14204.3125
1369.84688	12739.2125
1373.32088	11351.4125
1376.79254	10515.0125
1380.26186	10149.7125
1383.72883	9886.5125
1387.19347	9609.2125
1390.65578	9225.2125
1394.11575	8921.4125
1397.57339	8759.1125
1401.0287	8826.5125
1404.48168	9051.5125
1407.93234	9368.0125
1411.38068	9624.2125
1414.82669	9666.3125
1418.27039	9532.9125
1421.71177	9326.5125
1425.15083	9306.0125
1428.58758	9435.1125
1432.02203	9700.1125
1435.45416	9846.0125
1438.88399	9845.6125
1442.31151	9718.4125
1445.73673	9650.1125
1449.15965	9565.7125
1452.58027	9387.2125
1455.9986	9239.4125
1459.41463	9188.6125
1462.82837	9311.0125
1466.23982	9510.3125
1469.64898	9741.6125
1473.05586	9926.1125
1476.46045	10098.3125
1479.86276	10210.1125
1483.26279	10272.2125
1486.66054	10329.0125
1490.05602	10441.9125
1493.44922	10654.7125
1496.84016	10920.8125
1500.22882	11379.5125
1503.61521	11886.8125
1506.99934	12414.9125
1510.38121	12591.5125
1513.76081	12285.5125
1517.13816	11581.9125
1520.51324	10818.3125
1523.88607	10354.3125
1527.25665	10117.8125
1530.62498	10131.9125
1533.99105	10173.4125
1537.35488	10220.5125
1540.71647	10211.0125
1544.07581	10094.6125
1547.4329	9956.2125
1550.78776	9693.8125
1554.14038	9418.1125
1557.49077	9171.2125
1560.83892	9104.3125
1564.18484	9104.0125
1567.52853	9158.9125
1570.86999	9213.2125
1574.20922	9219.5125
1577.54624	9135.1125
1580.88103	8896.1125
1584.2136	8706.0125
1587.54395	8760.9125
1590.87208	9181.5125
1594.19801	10002.5125
1597.52172	10989.6125
1600.84321	11651.7125
1604.16251	11618.3125
1607.47959	10956.0125
1610.79447	9988.9125
1614.10715	9024.1125
1617.41763	8310.6125
1620.7259	7867.7125
1624.03199	7645.9125
1627.33587	7643.5125
1630.63757	7836.5125
1633.93707	8300.9125
1637.23439	9043.2125
1640.52951	9995.4125
1643.82246	10976.9125
1647.11321	11590.4125
1650.40179	11334.8125
1653.68819	10258.1125
1656.97241	8900.4125
1660.25446	7808.4125
1663.53433	7115.4125
1666.81203	6656.8125
1670.08756	6404.0125
1673.36092	6211.7125
1676.63211	6128.4125
1679.90115	6015.9125
1683.16801	5943.0125
1686.43272	5872.1125
1689.69527	5841.6125
1692.95567	5815.3125
1696.2139	5773.6125
1699.46999	5785.3125
1702.72392	5758.0125
1705.97571	5750.3125
1709.22535	5739.8125
1712.47284	5747.1125
1715.71819	5740.6125
1718.96139	5743.0125
1722.20246	5729.0125
1725.44139	5727.0125
1728.67818	5673.0125
1731.91284	5658.1125
1735.14537	5620.1125
1738.37576	5599.0125
1741.60403	5574.0125
1744.83017	5551.8125
1748.05418	5552.3125
1751.27607	5539.0125
1754.49584	5522.0125
1757.71349	5542.4125
1760.92903	5530.7125
1764.14244	5506.7125
1767.35375	5495.5125
1770.56294	5510.5125
1773.77002	5489.4125
1776.97499	5483.2125
1780.17785	5471.7125
1783.37861	5462.4125
1786.57727	5456.2125
1789.77382	5447.9125
1792.96828	5461.9125
1796.16064	5436.8125
1799.3509	5432.0125
1802.53907	5425.4125
1805.72514	5427.5125
1808.90913	5413.9125
1812.09102	5391.7125
1815.27083	5381.9125
1818.44856	5362.8125
1821.6242	5342.0125
1824.79776	5350.5125
1827.96924	5347.8125
1831.13864	5317.9125
1834.30597	5340.1125
1837.47122	5316.5125
1840.6344	5318.5125
1843.7955	5322.5125
1846.95454	5316.4125
1850.11151	5317.5125
1853.26642	5300.1125
1856.41926	5319.1125
1859.57004	5332.7125
1862.71876	5339.0125
1865.86542	5329.6125
1869.01003	5335.2125
1872.15258	5315.1125
1875.29308	5307.1125
1878.43152	5290.4125
1881.56792	5305.6125
1884.70227	5297.0125
1887.83457	5274.1125
1890.96482	5279.2125
1894.09304	5267.2125
1897.21921	5264.4125
1900.34335	5263.8125
1903.46544	5260.2125
1906.58551	5265.5125
1909.70353	5257.2125
1912.81953	5251.6125
1915.93349	5245.1125
1919.04543	5245.0125
1922.15534	5237.4125
1925.26322	5221.7125
1928.36908	5219.7125
1931.47292	5210.7125
1934.57473	5208.6125
1937.67453	5204.5125
1940.77232	5196.2125
1943.86808	5168.4125
1946.96184	5176.6125
1950.05358	5162.9125
1953.14331	5151.2125
1956.23103	5135.6125
1959.31675	5106.1125
1962.40046	5081.0125
1965.48217	5064.3125
1968.56188	5050.9125
1971.63959	5035.1125
1974.7153	5027.0125
1977.78901	5032.0125
1980.86073	5020.1125
1983.93046	4982.7125
1986.99819	4976.2125
1990.06394	4976.6125
1993.1277	4953.7125
1996.18947	4915.9125
1999.24925	4907.5125
2002.30706	4902.4125
2005.36288	4893.1125
2008.41672	4861.6125
2011.46859	4842.7125
2014.51848	4857.8125
2017.56639	4839.8125
2020.61233	4820.2125
2023.6563	4815.4125
2026.6983	4797.1125
2029.73833	4785.6125
2032.7764	4770.8125
2035.8125	4770.5125
2038.84664	4749.3125
2041.87881	4751.3125
2044.90903	4751.1125
2047.93729	4727.0125
2050.96359	4729.0125
2053.98794	4743.2125
2057.01034	4722.0125
2060.03078	4727.4125
2063.04927	4726.1125
2066.06582	4706.7125
2069.08042	4708.8125
2072.09307	4707.8125
2075.10378	4701.4125
2078.11255	4680.6125
2081.11938	4689.2125
2084.12426	4672.3125
2087.12722	4681.6125
2090.12824	4671.2125
2093.12732	4671.8125
2096.12447	4671.8125
2099.11969	4687.3125
2102.11299	4685.9125
2105.10435	4671.6125
2108.09379	4677.2125
2111.08131	4675.7125
2114.0669	4673.9125
2117.05057	4691.4125
2120.03233	4693.4125
2123.01216	4695.5125
2125.99008	4702.8125
2128.96609	4689.8125
2131.94018	4700.3125
2134.91236	4677.6125
2137.88263	4669.7125
2140.851	4693.7125
2143.81746	4689.8125
2146.78201	4687.9125
2149.74466	4677.6125
2152.7054	4677.3125
2155.66425	4680.3125
2158.6212	4672.8125
2161.57625	4668.4125
2164.52941	4675.7125
2167.48067	4678.5125
2170.43004	4669.7125
2173.37752	4655.8125
2176.32311	4664.4125
2179.26681	4677.0125
2182.20863	4676.5125
2185.14856	4674.4125
2188.08661	4678.0125
2191.02278	4678.8125
2193.95707	4681.0125
2196.88948	4673.7125
2199.82001	4677.7125
2202.74867	4668.3125
2205.67545	4689.6125
2208.60037	4676.5125
2211.52341	4656.6125
2214.44458	4649.5125
2217.36388	4648.4125
2220.28132	4648.0125
2223.1969	4626.4125
2226.11061	4592.3125
2229.02246	4599.2125
2231.93245	4603.7125
2234.84058	4573.0125
2237.74686	4576.8125
2240.65128	4578.4125
2243.55385	4561.6125
2246.45456	4559.9125
2249.35343	4535.0125
2252.25044	4545.0125
2255.14561	4550.3125
2258.03893	4539.1125
2260.93041	4541.3125
2263.82004	4525.2125
2266.70783	4516.4125
2269.59378	4499.5125
2272.4779	4481.7125
2275.36017	4464.0125
2278.24061	4466.8125
2281.11922	4446.8125
2283.996	4428.0125
2286.87094	4438.0125
2289.74405	4445.6125
2292.61534	4432.9125
2295.4848	4413.8125
2298.35243	4415.4125
2301.21824	4415.9125
2304.08223	4418.8125
2306.94439	4413.3125
2309.80474	4438.1125
2312.66327	4443.6125
2315.51999	4421.8125
2318.37489	4432.3125
2321.22797	4420.7125
2324.07925	4398.7125
2326.92871	4403.9125
2329.77637	4400.4125
2332.62222	4394.6125
2335.46626	4388.8125
2338.3085	4385.1125
2341.14893	4394.3125
2343.98756	4408.8125
2346.8244	4401.4125
2349.65943	4404.7125
2352.49267	4396.2125
2355.32411	4382.5125
2358.15376	4400.2125
2360.98161	4375.5125
2363.80768	4387.4125
2366.63195	4365.8125
2369.45444	4366.4125
2372.27514	4357.8125
2375.09405	4346.6125
2377.91118	4336.6125
2380.72652	4323.8125
2383.54009	4328.1125
2386.35187	4319.4125
2389.16188	4305.6125
2391.97011	4296.2125
2394.77657	4283.0125
2397.58125	4270.7125
2400.38416	4272.9125
2403.18529	4254.5125
2405.98466	4257.4125
2408.78226	4256.1125
2411.57809	4228.6125
2414.37216	4217.6125
2417.16446	4221.7125
2419.955	4211.4125
2422.74378	4212.2125
2425.5308	4211.1125
2428.31606	4195.5125
2431.09956	4211.4125
2433.88131	4210.5125
2436.6613	4210.4125
2439.43954	4198.6125
2442.21603	4184.8125
2444.99077	4197.8125
2447.76377	4202.7125
2450.53501	4180.2125
2453.30451	4197.8125
2456.07226	4183.4125
2458.83827	4153.9125
2461.60254	4161.4125
2464.36507	4167.7125
2467.12586	4154.1125
2469.88492	4151.8125
2472.64224	4166.8125
2475.39782	4164.1125
2478.15167	4157.8125
2480.90379	4152.7125
2483.65417	4164.0125
2486.40283	4159.5125
2489.14976	4166.8125
2491.89497	4155.4125
2494.63845	4178.7125
2497.3802	4176.3125
2500.12024	4164.8125
2502.85855	4167.7125
2505.59514	4169.7125
2508.33002	4171.6125
2511.06318	4144.6125
2513.79462	4121.7125
2516.52435	4124.4125
2519.25237	4137.9125
2521.97867	4110.0125
2524.70327	4114.0125
2527.42616	4121.0125
2530.14734	4104.5125
2532.86681	4106.4125
2535.58458	4122.4125
2538.30065	4112.2125
2541.01501	4110.4125
2543.72768	4105.6125
2546.43864	4103.9125
2549.14791	4104.9125
2551.85548	4104.3125
2554.56136	4080.6125
2557.26554	4086.7125
2559.96803	4081.3125
2562.66883	4075.3125
2565.36794	4076.5125
2568.06536	4056.3125
2570.7611	4050.6125
2573.45514	4048.1125
2576.14751	4038.8125
2578.83819	4036.6125
2581.52719	4051.5125
2584.21451	4043.1125
2586.90015	4041.4125
2589.58411	4040.1125
2592.2664	4037.9125
2594.94701	4038.5125
2597.62594	4045.1125
2600.30321	4024.5125
2602.9788	4020.3125
2605.65273	4038.1125
2608.32498	4040.2125
2610.99557	4021.1125
2613.66449	4029.3125
2616.33175	4015.2125
2618.99734	4020.2125
2621.66128	4033.1125
2624.32355	4019.9125
2626.98416	4026.5125
2629.64311	4023.0125
2632.30041	4024.7125
2634.95605	4015.5125
2637.61004	4013.0125
2640.26238	3999.2125
2642.91306	4003.7125
2645.56209	4002.7125
2648.20948	3983.5125
2650.85521	3995.6125
2653.4993	4002.3125
2656.14175	3990.9125
2658.78255	3995.2125
2661.42171	3981.8125
2664.05923	3999.2125
2666.6951	4004.6125
2669.32934	4015.2125
2671.96194	4007.3125
2674.59291	4009.0125
2677.22224	3996.6125
2679.84993	4010.4125
2682.476	4006.5125
2685.10043	4010.2125
2687.72324	4016.1125
2690.34441	4014.2125
2692.96396	4001.8125
2695.58188	4002.2125
2698.19818	3996.3125
2700.81285	3993.2125
2703.4259	3987.0125
2706.03733	3988.9125
2708.64714	3978.9125
2711.25533	3987.9125
2713.86191	3983.0125
2716.46687	3998.7125
2719.07021	3992.8125
2721.67194	4003.7125
2724.27206	3989.9125
2726.87057	4002.6125
2729.46747	4002.0125
2732.06276	4012.7125
2734.65644	4008.2125
2737.24852	3997.4125
2739.83899	3978.0125
2742.42786	3992.7125
2745.01513	3971.0125
2747.60079	3972.3125
2750.18486	3974.9125
2752.76733	3972.6125
2755.3482	3984.1125
2757.92747	3971.9125
2760.50515	3968.5125
2763.08123	3957.1125
2765.65573	3970.3125
2768.22863	3947.0125
2770.79994	3949.5125
2773.36967	3945.6125
2775.9378	3951.0125
2778.50435	3945.6125
2781.06932	3945.5125
2783.6327	3947.9125
2786.1945	3954.3125
2788.75471	3950.8125
2791.31335	3938.4125
2793.87041	3930.2125
2796.42589	3925.7125
2798.97979	3910.0125
2801.53212	3902.8125
2804.08288	3900.8125
2806.63206	3885.4125
2809.17967	3894.9125
2811.72571	3879.2125
2814.27018	3887.9125
2816.81308	3865.4125
2819.35442	3851.2125
2821.89419	3865.1125
2824.43239	3871.7125
2826.96904	3866.1125
2829.50412	3859.2125
2832.03763	3834.0125
2834.56959	3842.0125
2837.1	3834.2125
2839.62884	3808.1125
2842.15613	3837.0125
2844.68186	3837.8125
2847.20604	3833.2125
2849.72867	3823.0125
2852.24974	3824.8125
2854.76927	3806.7125
2857.28724	3805.9125
2859.80367	3792.6125
2862.31855	3788.1125
2864.83189	3791.9125
2867.34368	3783.7125
2869.85393	3777.1125
2872.36264	3778.7125
2874.8698	3774.6125
2877.37543	3767.9125
2879.87952	3755.0125
2882.38207	3762.7125
2884.88308	3757.2125
2887.38256	3762.3125
2889.88051	3763.3125
2892.37692	3757.4125
2894.8718	3760.3125
2897.36515	3746.0125
2899.85698	3751.3125
2902.34727	3755.4125
2904.83604	3752.2125
2907.32328	3767.6125
2909.809	3755.6125
2912.29319	3758.9125
2914.77587	3765.0125
2917.25702	3771.0125
2919.73665	3756.4125
2922.21476	3748.5125
2924.69136	3743.7125
2927.16644	3754.5125
2929.64	3745.1125
2932.11205	3736.7125
2934.58258	3723.3125
2937.05161	3726.8125
2939.51912	3723.8125
2941.98513	3738.7125
2944.44962	3720.7125
2946.91261	3709.7125
2949.37409	3721.3125
2951.83407	3708.0125
2954.29254	3701.0125
2956.74951	3714.4125
2959.20498	3704.0125
2961.65895	3684.9125
2964.11142	3700.7125
2966.56239	3693.8125
2969.01186	3688.5125
2971.45984	3691.1125
2973.90632	3675.3125
2976.35131	3662.3125
2978.7948	3655.7125
2981.23681	3659.6125
2983.67732	3628.1125
2986.11635	3640.5125
2988.55388	3624.6125
2990.98993	3608.9125
2993.4245	3583.7125
2995.85758	3590.9125
2998.28917	3569.4125
3000.71928	3561.4125
3003.14791	3552.8125
3005.57506	3551.2125
3008.00073	3535.5125
3010.42493	3519.7125
3012.84764	3527.2125
3015.26888	3525.8125
3017.68865	3521.8125
3020.10694	3510.3125
3022.52376	3491.9125
3024.9391	3483.9125
3027.35298	3465.2125
3029.76539	3472.2125
3032.17632	3469.9125
3034.5858	3447.0125
3036.9938	3448.5125
3039.40034	3441.3125
3041.80542	3442.9125
3044.20903	3442.5125
3046.61118	3419.7125
3049.01187	3419.8125
3051.4111	3414.2125
3053.80888	3403.6125
3056.20519	3385.6125
3058.60005	3370.7125
3060.99345	3367.1125
3063.3854	3363.2125
3065.7759	3345.1125
3068.16494	3341.7125
3070.55254	3329.6125
3072.93868	3323.7125
3075.32338	3311.4125
3077.70662	3294.2125
3080.08842	3286.9125
3082.46878	3286.9125
3084.84769	3272.9125
3087.22515	3268.6125
3089.60118	3269.8125
3091.97576	3266.5125
3094.3489	3261.8125
3096.72061	3260.0125
3099.09087	3244.2125
3101.4597	3262.0125
3103.82709	3240.5125
3106.19305	3234.3125
3108.55757	3233.4125
3110.92066	3224.8125
3113.28232	3224.5125
3115.64255	3208.8125
3118.00134	3217.4125
3120.35871	3191.5125
3122.71466	3188.7125
