Data from AgNPs_UA_5uM_CRN_500uM_SU_RamanShift__1__11-29-33-138.txt Node

Date: Thu Aug 04 11:29:33 BST 2022
User: TCL
Spectrometer: QEP01345
Trigger mode: 4
Integration Time (sec): 1.000000E0
Scans to average: 10
Electric dark correction enabled: true
Nonlinearity correction enabled: false
Boxcar width: 0
XAxis mode: Raman Shifts
Number of Pixels in Spectrum: 1044
>>>>>Begin Spectral Data<<<<<
46.04893	-0.55
50.45542	0.15
54.85868	0.55
59.25871	-1.05
63.6555	-55.45
68.04907	-36.35
72.43941	-68.15
76.82654	-54.85
81.21044	-53.75
85.59113	-46.45
89.96862	-70.95
94.34289	-52.55
98.71396	-73.65
103.08183	-53.05
107.4465	-45.95
111.80798	-50.25
116.16626	-38.55
120.52136	-69.75
124.87327	-43.05
129.222	-55.65
133.56755	-40.35
137.90993	-52.75
142.24913	-37.85
146.58517	-25.55
150.91804	-18.55
155.24774	-5.85
159.57429	27.25
163.89768	44.05
168.21792	107.25
172.53501	164.35
176.84895	284.65
181.15975	484.25
185.46741	726.35
189.77193	1024.05
194.07331	1466.45
198.37157	1922.85
202.6667	2402.65
206.9587	2926.25
211.24758	3496.05
215.53334	4118.45
219.81599	4865.45
224.09553	5694.45
228.37195	6573.15
232.64527	7381.75
236.91549	8056.95
241.18261	8379.95
245.44663	8443.25
249.70755	8398.25
253.96539	8368.85
258.22014	8435.35
262.4718	8491.45
266.72039	8475.15
270.96589	8254.65
275.20832	7894.55
279.44768	7538.75
283.68397	7292.35
287.91719	7218.85
292.14735	7389.05
296.37445	7960.85
300.59849	8952.45
304.81948	10344.15
309.03742	11962.15
313.25231	13122.95
317.46415	12973.45
321.67296	11376.85
325.87872	9469.05
330.08145	8371.25
334.28114	8121.05
338.47781	8436.35
342.67145	9023.95
346.86207	10032.45
351.04966	11557.85
355.23424	13067.05
359.4158	13661.45
363.59435	13143.25
367.76989	12201.85
371.94243	11293.55
376.11196	10540.85
380.27849	10010.75
384.44203	9569.45
388.60257	9332.25
392.76012	9361.35
396.91468	9702.15
401.06626	10079.05
405.21485	10137.95
409.36047	9471.25
413.50311	8295.25
417.64277	7258.65
421.77947	6584.75
425.9132	6302.15
430.04396	6162.55
434.17176	6111.95
438.2966	6246.95
442.41849	6447.15
446.53742	6678.35
450.6534	6784.95
454.76644	6776.45
458.87653	6664.35
462.98368	6510.65
467.08789	6348.05
471.18916	6144.25
475.2875	5836.75
479.38291	5570.25
483.4754	5426.75
487.56496	5359.65
491.6516	5283.85
495.73531	5299.15
499.81612	5351.95
503.89401	5548.25
507.96899	5752.55
512.04106	6043.15
516.11023	6334.75
520.1765	6571.65
524.23987	6658.75
528.30034	6610.75
532.35792	6465.95
536.41261	6292.95
540.46441	6033.25
544.51333	5857.25
548.55936	5850.05
552.60252	5984.55
556.64279	6231.25
560.6802	6667.65
564.71473	7700.15
568.7464	9010.15
572.7752	8972.45
576.80114	7263.55
580.82422	5892.15
584.84444	5306.95
588.86181	5128.35
592.87633	5121.05
596.888	5359.35
600.89682	6177.45
604.9028	8911.35
608.90594	15985.05
612.90624	24569.25
616.90371	22289.85
620.89834	11663.95
624.89015	6978.45
628.87913	6469.25
632.86528	7119.05
636.84862	7415.75
640.82913	6618.85
644.80683	5495.55
648.78172	4994.45
652.75379	5144.55
656.72306	5957.65
660.68952	6756.05
664.65319	6330.15
668.61405	5247.55
672.57211	4793.85
676.52738	4801.75
680.47986	4739.95
684.42955	4573.55
688.37646	4505.55
692.32058	4486.85
696.26192	4573.55
700.20048	4728.05
704.13626	4762.55
708.06928	4654.35
711.99952	4637.85
715.927	4690.15
719.85171	4889.75
723.77365	5059.25
727.69284	4919.65
731.60928	4755.35
735.52295	4697.55
739.43388	4788.05
743.34206	4823.05
747.24749	4839.25
751.15017	4862.95
755.05012	5195.55
758.94733	6573.15
762.8418	9712.85
766.73354	13813.55
770.62254	15828.75
774.50882	14956.65
778.39237	13440.05
782.27321	11110.95
786.15132	8063.25
790.02671	6039.65
793.89938	5093.65
797.76935	4810.15
801.6366	4642.25
805.50115	4554.75
809.36299	4510.15
813.22213	4483.15
817.07857	4483.75
820.93231	4526.45
824.78336	4626.15
828.63172	4757.45
832.47738	4807.05
836.32036	4713.95
840.16066	4479.65
843.99827	4333.95
847.8332	4302.95
851.66546	4293.15
855.49504	4284.65
859.32195	4265.05
863.1462	4220.45
866.96777	4205.25
870.78668	4183.25
874.60293	4226.45
878.41652	4318.15
882.22745	4459.05
886.03573	4537.75
889.84136	4523.55
893.64433	4495.85
897.44466	4488.55
901.24235	4506.75
905.0374	4419.05
908.8298	4225.75
912.61957	4104.85
916.40671	4008.25
920.19121	4063.25
923.97308	4277.35
927.75233	4716.85
931.52895	5159.45
935.30295	4913.75
939.07433	4288.25
942.84309	3870.25
946.60924	3734.25
950.37278	3644.35
954.13371	3649.25
957.89203	3625.05
961.64774	3645.45
965.40086	3628.25
969.15137	3595.25
972.89929	3611.75
976.64461	3587.75
980.38733	3577.85
984.12747	3564.85
987.86502	3581.95
991.59999	3609.45
995.33237	3687.75
999.06217	3799.55
1002.78939	3980.05
1006.51404	4309.35
1010.23611	4460.95
1013.95561	4286.45
1017.67255	4083.35
1021.38692	3921.75
1025.09872	3759.85
1028.80796	3680.95
1032.51465	3736.45
1036.21877	3780.75
1039.92035	3858.75
1043.61937	3930.55
1047.31584	3996.75
1051.00976	4012.85
1054.70114	3934.95
1058.38998	3869.65
1062.07627	3840.65
1065.76003	3848.95
1069.44126	3893.45
1073.11995	3993.55
1076.79611	4286.65
1080.46974	4820.95
1084.14085	5589.85
1087.80943	6233.65
1091.47549	6186.05
1095.13903	5546.05
1098.80005	4869.35
1102.45857	4496.45
1106.11456	4449.85
1109.76805	4588.25
1113.41903	5010.45
1117.06751	5679.25
1120.71348	6782.05
1124.35696	8424.55
1127.99793	9617.15
1131.63641	8780.85
1135.2724	7039.65
1138.90589	5856.65
1142.5369	5210.85
1146.16542	4805.95
1149.79145	4526.15
1153.415	4449.65
1157.03607	4513.35
1160.65467	4724.75
1164.27079	5151.25
1167.88443	5749.15
1171.49561	6770.75
1175.10432	8581.35
1178.71056	11104.15
1182.31434	12903.75
1185.91565	12614.65
1189.51451	10981.35
1193.11091	9230.45
1196.70485	8143.35
1200.29634	7736.05
1203.88538	7207.25
1207.47197	6173.05
1211.05612	5187.85
1214.63782	4581.85
1218.21708	4314.35
1221.79391	4208.95
1225.36829	4199.25
1228.94024	4216.15
1232.50976	4193.25
1236.07685	4193.35
1239.6415	4252.25
1243.20374	4373.45
1246.76355	4542.45
1250.32093	4751.75
1253.8759	5039.95
1257.42845	5547.15
1260.97859	6209.45
1264.52631	6874.45
1268.07163	7210.45
1271.61453	7252.15
1275.15503	7034.35
1278.69312	6775.95
1282.22882	6954.95
1285.76211	7910.55
1289.29301	9221.95
1292.82151	10056.05
1296.34761	10421.95
1299.87133	11253.25
1303.39266	13420.85
1306.9116	17520.05
1310.42815	22515.85
1313.94233	24282.05
1317.45412	20465.75
1320.96354	14845.75
1324.47058	10720.45
1327.97525	8178.25
1331.47754	6907.75
1334.97747	6527.45
1338.47502	6716.45
1341.97022	7671.15
1345.46305	9872.95
1348.95352	12949.05
1352.44163	16090.75
1355.92738	19986.65
1359.41078	26865.45
1362.89183	34484.75
1366.37053	32973.15
1369.84688	22581.65
1373.32088	13937.85
1376.79254	10213.05
1380.26186	8581.55
1383.72883	7328.05
1387.19347	6147.05
1390.65578	5276.15
1394.11575	4796.75
1397.57339	4570.15
1401.0287	4425.65
1404.48168	4248.85
1407.93234	4166.15
1411.38068	4258.95
1414.82669	4620.35
1418.27039	5069.95
1421.71177	5144.35
1425.15083	4932.25
1428.58758	4979.05
1432.02203	5463.45
1435.45416	5848.55
1438.88399	5590.05
1442.31151	5213.55
1445.73673	5158.95
1449.15965	5124.85
1452.58027	5016.85
1455.9986	4820.95
1459.41463	4667.25
1462.82837	4682.45
1466.23982	4928.45
1469.64898	5295.75
1473.05586	5424.85
1476.46045	5371.15
1479.86276	5391.45
1483.26279	5657.85
1486.66054	6267.55
1490.05602	7244.75
1493.44922	8837.85
1496.84016	11375.65
1500.22882	15350.25
1503.61521	20969.55
1506.99934	28133.25
1510.38121	35329.65
1513.76081	38181.85
1517.13816	33775.75
1520.51324	25102.25
1523.88607	17175.15
1527.25665	12149.95
1530.62498	9310.85
1533.99105	7665.05
1537.35488	6623.55
1540.71647	5999.75
1544.07581	5773.95
1547.4329	5772.65
1550.78776	5967.45
1554.14038	6290.45
1557.49077	6829.55
1560.83892	7745.65
1564.18484	9204.35
1567.52853	10846.05
1570.86999	11897.45
1574.20922	12072.15
1577.54624	11430.25
1580.88103	9509.85
1584.2136	7129.55
1587.54395	5790.15
1590.87208	5449.95
1594.19801	5854.75
1597.52172	6553.45
1600.84321	6587.25
1604.16251	5757.05
1607.47959	4992.65
1610.79447	4573.95
1614.10715	4229.05
1617.41763	3976.15
1620.7259	3875.75
1624.03199	3915.85
1627.33587	4098.65
1630.63757	4469.25
1633.93707	5133.55
1637.23439	6332.25
1640.52951	8537.05
1643.82246	12329.55
1647.11321	17532.65
1650.40179	21805.35
1653.68819	21598.45
1656.97241	16887.35
1660.25446	11272.15
1663.53433	7420.85
1666.81203	5323.65
1670.08756	4264.65
1673.36092	3682.85
1676.63211	3308.35
1679.90115	3087.95
1683.16801	2938.85
1686.43272	2807.55
1689.69527	2748.15
1692.95567	2661.25
1696.2139	2625.35
1699.46999	2559.85
1702.72392	2561.15
1705.97571	2555.55
1709.22535	2542.55
1712.47284	2598.45
1715.71819	2617.45
1718.96139	2633.85
1722.20246	2603.25
1725.44139	2546.15
1728.67818	2483.25
1731.91284	2402.15
1735.14537	2348.05
1738.37576	2313.15
1741.60403	2293.05
1744.83017	2264.95
1748.05418	2246.95
1751.27607	2231.25
1754.49584	2180.95
1757.71349	2115.55
1760.92903	2089.55
1764.14244	2031.65
1767.35375	2010.05
1770.56294	1961.95
1773.77002	1923.55
1776.97499	1910.55
1780.17785	1860.35
1783.37861	1845.15
1786.57727	1850.45
1789.77382	1782.35
1792.96828	1821.55
1796.16064	1825.65
1799.3509	1812.85
1802.53907	1816.85
1805.72514	1795.65
1808.90913	1760.25
1812.09102	1765.55
1815.27083	1754.15
1818.44856	1732.65
1821.6242	1730.95
1824.79776	1716.25
1827.96924	1695.05
1831.13864	1679.55
1834.30597	1673.75
1837.47122	1642.65
1840.6344	1608.85
1843.7955	1583.45
1846.95454	1574.65
1850.11151	1579.25
1853.26642	1536.55
1856.41926	1544.15
1859.57004	1548.75
1862.71876	1554.05
1865.86542	1569.15
1869.01003	1568.25
1872.15258	1547.85
1875.29308	1577.15
1878.43152	1591.05
1881.56792	1571.35
1884.70227	1540.35
1887.83457	1546.55
1890.96482	1517.35
1894.09304	1511.95
1897.21921	1508.15
1900.34335	1518.35
1903.46544	1500.65
1906.58551	1512.45
1909.70353	1499.95
1912.81953	1508.65
1915.93349	1497.15
1919.04543	1489.35
1922.15534	1460.95
1925.26322	1467.05
1928.36908	1426.95
1931.47292	1420.65
1934.57473	1408.05
1937.67453	1370.15
1940.77232	1330.65
1943.86808	1321.85
1946.96184	1334.65
1950.05358	1309.35
1953.14331	1300.55
1956.23103	1311.85
1959.31675	1296.45
1962.40046	1282.15
1965.48217	1323.85
1968.56188	1335.75
1971.63959	1345.25
1974.7153	1368.25
1977.78901	1355.85
1980.86073	1319.55
1983.93046	1279.35
1986.99819	1192.05
1990.06394	1204.45
1993.1277	1226.85
1996.18947	1208.95
1999.24925	1165.95
2002.30706	1178.05
2005.36288	1186.85
2008.41672	1156.95
2011.46859	1145.95
2014.51848	1141.45
2017.56639	1120.45
2020.61233	1121.45
2023.6563	1125.85
2026.6983	1088.45
2029.73833	1096.05
2032.7764	1110.75
2035.8125	1063.75
2038.84664	1083.15
2041.87881	1073.75
2044.90903	1089.05
2047.93729	1086.55
2050.96359	1053.85
2053.98794	1054.75
2057.01034	1060.95
2060.03078	1030.45
2063.04927	1030.95
2066.06582	1022.05
2069.08042	996.25
2072.09307	1004.85
2075.10378	1008.75
2078.11255	994.15
2081.11938	996.25
2084.12426	996.45
2087.12722	996.55
2090.12824	993.95
2093.12732	995.55
2096.12447	1003.15
2099.11969	997.15
2102.11299	982.55
2105.10435	1006.45
2108.09379	1003.85
2111.08131	997.45
2114.0669	1007.75
2117.05057	1018.65
2120.03233	1007.05
2123.01216	1042.45
2125.99008	1054.45
2128.96609	1067.05
2131.94018	1073.45
2134.91236	1046.35
2137.88263	1013.15
2140.851	1011.25
2143.81746	1016.35
2146.78201	983.05
2149.74466	961.65
2152.7054	958.05
2155.66425	943.25
2158.6212	932.55
2161.57625	910.15
2164.52941	888.95
2167.48067	915.65
2170.43004	910.75
2173.37752	935.05
2176.32311	925.75
2179.26681	936.45
2182.20863	938.35
2185.14856	935.05
2188.08661	932.45
2191.02278	933.35
2193.95707	901.45
2196.88948	888.55
2199.82001	894.55
2202.74867	883.75
2205.67545	888.65
2208.60037	898.75
2211.52341	884.15
2214.44458	878.05
2217.36388	881.55
2220.28132	862.65
2223.1969	847.65
2226.11061	860.65
2229.02246	845.65
2231.93245	842.35
2234.84058	838.85
2237.74686	832.85
2240.65128	832.35
2243.55385	846.15
2246.45456	828.55
2249.35343	861.55
2252.25044	856.95
2255.14561	892.95
2258.03893	913.25
2260.93041	924.95
2263.82004	943.35
2266.70783	946.45
2269.59378	930.25
2272.4779	915.95
2275.36017	933.15
2278.24061	915.15
2281.11922	892.15
2283.996	902.85
2286.87094	878.75
2289.74405	875.85
2292.61534	857.55
2295.4848	847.55
2298.35243	828.75
2301.21824	821.75
2304.08223	814.55
2306.94439	833.45
2309.80474	823.05
2312.66327	827.35
2315.51999	815.65
2318.37489	817.55
2321.22797	793.95
2324.07925	800.35
2326.92871	796.05
2329.77637	785.35
2332.62222	792.75
2335.46626	780.85
2338.3085	787.55
2341.14893	805.75
2343.98756	815.45
2346.8244	802.55
2349.65943	809.05
2352.49267	822.65
2355.32411	832.45
2358.15376	842.95
2360.98161	861.95
2363.80768	867.15
2366.63195	890.65
2369.45444	912.65
2372.27514	914.15
2375.09405	926.15
2377.91118	888.55
2380.72652	885.15
2383.54009	873.95
2386.35187	866.75
2389.16188	844.05
2391.97011	837.05
2394.77657	811.65
2397.58125	810.65
2400.38416	803.55
2403.18529	781.05
2405.98466	760.95
2408.78226	773.85
2411.57809	768.75
2414.37216	760.55
2417.16446	757.85
2419.955	744.25
2422.74378	765.85
2425.5308	752.05
2428.31606	768.45
2431.09956	778.65
2433.88131	763.95
2436.6613	796.75
2439.43954	794.45
2442.21603	795.45
2444.99077	800.15
2447.76377	818.55
2450.53501	816.25
2453.30451	811.15
2456.07226	827.75
2458.83827	821.35
2461.60254	783.55
2464.36507	819.35
2467.12586	800.75
2469.88492	817.55
2472.64224	815.35
2475.39782	810.95
2478.15167	830.65
2480.90379	842.35
2483.65417	885.65
2486.40283	900.65
2489.14976	922.15
2491.89497	911.95
2494.63845	919.75
2497.3802	900.05
2500.12024	891.95
2502.85855	879.15
2505.59514	868.35
2508.33002	838.85
2511.06318	796.35
2513.79462	784.95
2516.52435	723.95
2519.25237	694.35
2521.97867	686.85
2524.70327	684.55
2527.42616	673.55
2530.14734	682.65
2532.86681	660.25
2535.58458	671.75
2538.30065	667.05
2541.01501	691.45
2543.72768	681.35
2546.43864	689.95
2549.14791	696.25
2551.85548	699.35
2554.56136	699.65
2557.26554	722.65
2559.96803	717.35
2562.66883	721.75
2565.36794	709.95
2568.06536	697.75
2570.7611	726.65
2573.45514	712.85
2576.14751	711.85
2578.83819	706.45
2581.52719	691.15
2584.21451	690.25
2586.90015	670.35
2589.58411	658.45
2592.2664	673.55
2594.94701	681.55
2597.62594	677.85
2600.30321	624.95
2602.9788	651.05
2605.65273	648.55
2608.32498	663.15
2610.99557	687.25
2613.66449	658.65
2616.33175	681.15
2618.99734	681.75
2621.66128	686.45
2624.32355	673.35
2626.98416	654.05
2629.64311	642.55
2632.30041	639.65
2634.95605	621.85
2637.61004	610.15
2640.26238	587.75
2642.91306	588.05
2645.56209	610.05
2648.20948	602.25
2650.85521	585.45
2653.4993	610.65
2656.14175	605.85
2658.78255	606.85
2661.42171	586.95
2664.05923	627.25
2666.6951	637.45
2669.32934	646.85
2671.96194	668.95
2674.59291	649.25
2677.22224	656.25
2679.84993	649.95
2682.476	642.05
2685.10043	633.85
2687.72324	623.75
2690.34441	620.65
2692.96396	617.65
2695.58188	633.45
2698.19818	617.45
2700.81285	601.35
2703.4259	599.75
2706.03733	567.45
2708.64714	582.15
2711.25533	619.45
2713.86191	616.35
2716.46687	619.75
2719.07021	622.75
2721.67194	621.15
2724.27206	632.55
2726.87057	604.45
2729.46747	592.85
2732.06276	592.05
2734.65644	580.15
2737.24852	580.35
2739.83899	554.65
2742.42786	568.65
2745.01513	572.65
2747.60079	548.95
2750.18486	527.85
2752.76733	540.05
2755.3482	528.25
2757.92747	524.75
2760.50515	505.55
2763.08123	506.65
2765.65573	507.15
2768.22863	493.85
2770.79994	493.45
2773.36967	491.85
2775.9378	495.95
2778.50435	494.95
2781.06932	494.75
2783.6327	485.65
2786.1945	515.15
2788.75471	505.45
2791.31335	507.55
2793.87041	521.05
2796.42589	510.65
2798.97979	516.15
2801.53212	528.95
2804.08288	554.55
2806.63206	551.55
2809.17967	545.25
2811.72571	574.25
2814.27018	592.45
2816.81308	594.55
2819.35442	579.45
2821.89419	625.25
2824.43239	618.65
2826.96904	648.25
2829.50412	626.85
2832.03763	633.55
2834.56959	617.85
2837.1	610.25
2839.62884	598.35
2842.15613	588.85
2844.68186	598.75
2847.20604	574.55
2849.72867	590.75
2852.24974	605.55
2854.76927	592.75
2857.28724	560.05
2859.80367	638.75
2862.31855	660.75
2864.83189	663.75
2867.34368	694.05
2869.85393	717.05
2872.36264	692.05
2874.8698	707.95
2877.37543	705.75
2879.87952	690.55
2882.38207	661.05
2884.88308	656.75
2887.38256	651.35
2889.88051	638.65
2892.37692	629.25
2894.8718	608.95
2897.36515	625.95
2899.85698	628.45
2902.34727	630.85
2904.83604	649.95
2907.32328	670.45
2909.809	686.85
2912.29319	703.25
2914.77587	712.85
2917.25702	727.05
2919.73665	715.25
2922.21476	694.75
2924.69136	688.15
2927.16644	644.65
2929.64	631.55
2932.11205	610.15
2934.58258	614.85
2937.05161	595.95
2939.51912	600.15
2941.98513	615.35
2944.44962	605.75
2946.91261	583.85
2949.37409	596.15
2951.83407	591.55
2954.29254	600.05
2956.74951	606.75
2959.20498	593.45
2961.65895	595.35
2964.11142	585.65
2966.56239	584.85
2969.01186	585.65
2971.45984	578.05
2973.90632	566.95
2976.35131	587.55
2978.7948	583.35
2981.23681	576.75
2983.67732	591.05
2986.11635	591.35
2988.55388	572.85
2990.98993	585.85
2993.4245	588.05
2995.85758	579.95
2998.28917	588.25
3000.71928	583.65
3003.14791	584.55
3005.57506	582.95
3008.00073	575.05
3010.42493	518.55
3012.84764	575.25
3015.26888	576.65
3017.68865	570.15
3020.10694	526.35
3022.52376	547.85
3024.9391	542.85
3027.35298	530.45
3029.76539	506.75
3032.17632	503.25
3034.5858	487.15
3036.9938	486.25
3039.40034	472.75
3041.80542	456.85
3044.20903	439.45
3046.61118	429.55
3049.01187	442.95
3051.4111	425.75
3053.80888	426.85
3056.20519	416.75
3058.60005	409.35
3060.99345	439.25
3063.3854	416.75
3065.7759	408.25
3068.16494	404.55
3070.55254	394.25
3072.93868	416.75
3075.32338	404.45
3077.70662	397.35
3080.08842	390.55
3082.46878	377.25
3084.84769	404.95
3087.22515	379.15
3089.60118	392.15
3091.97576	373.15
3094.3489	383.65
3096.72061	375.05
3099.09087	364.55
3101.4597	375.05
3103.82709	369.65
3106.19305	356.65
3108.55757	369.35
3110.92066	355.65
3113.28232	370.65
3115.64255	377.35
3118.00134	380.15
3120.35871	364.85
3122.71466	354.75
3125.06917	369.55
3127.42226	364.15
3129.77393	347.45
3132.12417	366.65
3134.47299	376.35
3136.82039	358.95
3139.16636	341.05
3141.51092	371.45
3143.85406	373.55
3146.19579	352.05
3148.53609	359.15
3150.87499	368.35
3153.21246	362.05
3155.54853	375.45
3157.88318	372.85
3160.21642	375.85
3162.54826	366.35
3164.87868	376.75
3167.2077	337.45
3169.5353	354.75
3171.86151	361.85
3174.18631	339.05
3176.5097	336.25
3178.83169	334.25
3181.15228	331.15
3183.47147	314.25
3185.78926	300.45
3188.10565	314.85
3190.42065	293.75
3192.73424	303.75
3195.04645	299.95
3197.35725	294.05
3199.66667	307.95
3201.97469	300.85
3204.28132	294.95
3206.58656	310.65
3208.8904	321.65
3211.19287	315.35
3213.49394	305.45
3215.79363	308.85
3218.09193	322.05
3220.38884	317.25
3222.68438	320.65
3224.97853	297.35
3227.2713	320.65
3229.56269	306.15
3231.8527	307.85
3234.14133	293.85
3236.42858	296.65
3238.71446	277.35
3240.99896	297.35
3243.28209	279.15
3245.56384	295.95
3247.84423	285.95
3250.12324	296.25
3252.40088	287.35
3254.67715	285.15
3256.95205	276.95
3259.22558	289.75
3261.49775	288.05
3263.76855	279.85
3266.03799	287.45
3268.30606	295.65
3270.57277	296.45
3272.83812	286.05
3275.10211	290.25
3277.36474	315.35
3279.62601	315.55
3281.88593	303.45
3284.14448	290.65
3286.40168	322.45
3288.65753	315.35
3290.91202	327.65
3293.16516	320.45
3295.41695	357.55
3297.66738	367.55
3299.91647	354.05
3302.16421	374.15
3304.4106	344.95
3306.65564	379.15
3308.89933	353.85
3311.14169	361.85
3313.38269	364.45
3315.62236	359.15
3317.86068	367.05
3320.09766	381.35
3322.3333	366.75
3324.5676	379.25
3326.80056	375.65
3329.03219	392.95
3331.26248	-1.15
3333.49143	-0.65
3335.71905	1.25
