Data from AgNPs_UA_5uM_CRN_500uM_SU_RamanShift__221__12-06-13-184.txt Node

Date: Thu Aug 04 12:06:13 BST 2022
User: TCL
Spectrometer: QEP01345
Trigger mode: 4
Integration Time (sec): 1.000000E0
Scans to average: 10
Electric dark correction enabled: true
Nonlinearity correction enabled: false
Boxcar width: 0
XAxis mode: Raman Shifts
Number of Pixels in Spectrum: 1044
>>>>>Begin Spectral Data<<<<<
46.04893	0.575
50.45542	-0.325
54.85868	-0.625
59.25871	-0.125
63.6555	-59.225
68.04907	-41.225
72.43941	-70.525
76.82654	-57.825
81.21044	-55.925
85.59113	-50.025
89.96862	-78.125
94.34289	-57.425
98.71396	-79.425
103.08183	-58.525
107.4465	-52.125
111.80798	-58.325
116.16626	-44.525
120.52136	-73.225
124.87327	-50.225
129.222	-63.625
133.56755	-51.125
137.90993	-64.825
142.24913	-52.925
146.58517	-44.625
150.91804	-41.525
155.24774	-31.225
159.57429	-11.725
163.89768	-9.925
168.21792	38.375
172.53501	53.875
176.84895	136.775
181.15975	264.975
185.46741	418.475
189.77193	596.975
194.07331	883.275
198.37157	1168.375
202.6667	1448.775
206.9587	1767.075
211.24758	2084.875
215.53334	2394.875
219.81599	2749.575
224.09553	3156.675
228.37195	3593.475
232.64527	4042.075
236.91549	4517.375
241.18261	4864.075
245.44663	5152.775
249.70755	5304.875
253.96539	5433.775
258.22014	5523.375
262.4718	5598.275
266.72039	5652.275
270.96589	5607.875
275.20832	5528.475
279.44768	5411.475
283.68397	5318.475
287.91719	5237.975
292.14735	5291.275
296.37445	5460.475
300.59849	5750.075
304.81948	6087.775
309.03742	6457.775
313.25231	6703.375
317.46415	6670.375
321.67296	6266.375
325.87872	5878.875
330.08145	5661.575
334.28114	5623.775
338.47781	5678.375
342.67145	5823.075
346.86207	6044.575
351.04966	6415.275
355.23424	6798.675
359.4158	7054.275
363.59435	7100.775
367.76989	7041.475
371.94243	6932.275
376.11196	6785.775
380.27849	6721.975
384.44203	6637.275
388.60257	6590.675
392.76012	6617.975
396.91468	6741.675
401.06626	6886.875
405.21485	6902.675
409.36047	6763.175
413.50311	6437.175
417.64277	6146.875
421.77947	5944.575
425.9132	5868.775
430.04396	5868.375
434.17176	5887.775
438.2966	5967.875
442.41849	6054.975
446.53742	6177.775
450.6534	6279.975
454.76644	6365.175
458.87653	6349.175
462.98368	6322.575
467.08789	6265.375
471.18916	6182.175
475.2875	6059.675
479.38291	5934.075
483.4754	5861.275
487.56496	5807.475
491.6516	5764.675
495.73531	5775.075
499.81612	5795.275
503.89401	5895.975
507.96899	5959.875
512.04106	6032.675
516.11023	6144.375
520.1765	6204.175
524.23987	6234.075
528.30034	6240.575
532.35792	6157.875
536.41261	6106.075
540.46441	6006.875
544.51333	5968.275
548.55936	5999.575
552.60252	6155.975
556.64279	6239.475
560.6802	6359.075
564.71473	6482.975
568.7464	6686.975
572.7752	6658.475
576.80114	6341.475
580.82422	6124.575
584.84444	6025.675
588.86181	6008.375
592.87633	6041.475
596.888	6148.675
600.89682	6513.475
604.9028	7484.875
608.90594	9584.075
612.90624	11945.675
616.90371	11075.975
620.89834	7986.175
624.89015	6653.975
628.87913	6432.575
632.86528	6611.075
636.84862	6754.875
640.82913	6631.475
644.80683	6270.075
648.78172	6092.075
652.75379	6136.375
656.72306	6345.275
660.68952	6605.475
664.65319	6513.575
668.61405	6277.975
672.57211	6209.675
676.52738	6185.475
680.47986	6107.675
684.42955	6005.775
688.37646	5956.375
692.32058	5968.675
696.26192	6042.575
700.20048	6133.075
704.13626	6189.875
708.06928	6134.575
711.99952	6116.375
715.927	6076.175
719.85171	6106.075
723.77365	6181.575
727.69284	6131.075
731.60928	6109.375
735.52295	6100.175
739.43388	6129.175
743.34206	6156.475
747.24749	6167.175
751.15017	6206.975
755.05012	6260.575
758.94733	6643.675
762.8418	7488.875
766.73354	8848.175
770.62254	9866.375
774.50882	9939.475
778.39237	9425.075
782.27321	8470.275
786.15132	7419.875
790.02671	6741.375
793.89938	6358.975
797.76935	6231.375
801.6366	6148.275
805.50115	6095.375
809.36299	6081.775
813.22213	6086.775
817.07857	6083.775
820.93231	6070.675
824.78336	6106.875
828.63172	6131.975
832.47738	6131.775
836.32036	6131.375
840.16066	6102.375
843.99827	6082.175
847.8332	6076.075
851.66546	6087.075
855.49504	6104.075
859.32195	6123.875
863.1462	6122.275
866.96777	6109.775
870.78668	6083.475
874.60293	6126.975
878.41652	6122.675
882.22745	6204.475
886.03573	6254.575
889.84136	6235.375
893.64433	6238.675
897.44466	6219.775
901.24235	6214.475
905.0374	6225.175
908.8298	6156.375
912.61957	6121.375
916.40671	6085.775
920.19121	6136.475
923.97308	6233.275
927.75233	6286.375
931.52895	6339.975
935.30295	6314.775
939.07433	6173.775
942.84309	6060.875
946.60924	6017.375
950.37278	5983.575
954.13371	5967.975
957.89203	5978.075
961.64774	6003.775
965.40086	5969.475
969.15137	5964.675
972.89929	5984.375
976.64461	5982.175
980.38733	5989.375
984.12747	5989.175
987.86502	6004.875
991.59999	6025.175
995.33237	6109.275
999.06217	6169.075
1002.78939	6242.875
1006.51404	6377.475
1010.23611	6485.875
1013.95561	6547.475
1017.67255	6531.075
1021.38692	6522.275
1025.09872	6452.975
1028.80796	6390.075
1032.51465	6355.075
1036.21877	6368.175
1039.92035	6418.775
1043.61937	6435.375
1047.31584	6496.075
1051.00976	6539.075
1054.70114	6531.975
1058.38998	6531.375
1062.07627	6545.675
1065.76003	6567.275
1069.44126	6626.475
1073.11995	6720.875
1076.79611	6849.275
1080.46974	6995.175
1084.14085	7185.975
1087.80943	7293.675
1091.47549	7324.675
1095.13903	7250.675
1098.80005	7107.375
1102.45857	7015.075
1106.11456	6988.275
1109.76805	6936.775
1113.41903	7050.075
1117.06751	7217.175
1120.71348	7472.675
1124.35696	7847.975
1127.99793	8163.775
1131.63641	8001.775
1135.2724	7577.275
1138.90589	7298.675
1142.5369	7076.275
1146.16542	6972.275
1149.79145	6867.175
1153.415	6833.275
1157.03607	6833.675
1160.65467	6923.875
1164.27079	7121.675
1167.88443	7396.875
1171.49561	7799.675
1175.10432	8437.475
1178.71056	9354.775
1182.31434	10140.175
1185.91565	10409.875
1189.51451	10245.175
1193.11091	9998.575
1196.70485	9749.975
1200.29634	9502.275
1203.88538	9226.475
1207.47197	8764.475
1211.05612	8307.375
1214.63782	7894.575
1218.21708	7637.475
1221.79391	7457.875
1225.36829	7402.475
1228.94024	7407.475
1232.50976	7404.075
1236.07685	7424.875
1239.6415	7453.675
1243.20374	7494.375
1246.76355	7523.975
1250.32093	7584.575
1253.8759	7649.275
1257.42845	7840.075
1260.97859	8007.175
1264.52631	8276.075
1268.07163	8426.775
1271.61453	8554.475
1275.15503	8607.875
1278.69312	8603.675
1282.22882	8691.075
1285.76211	8896.975
1289.29301	9123.475
1292.82151	9393.875
1296.34761	9612.075
1299.87133	10036.475
1303.39266	10729.675
1306.9116	11875.675
1310.42815	13116.975
1313.94233	13554.475
1317.45412	12762.675
1320.96354	11623.775
1324.47058	10604.575
1327.97525	9850.475
1331.47754	9435.675
1334.97747	9340.375
1338.47502	9452.775
1341.97022	9821.275
1345.46305	10561.975
1348.95352	11629.875
1352.44163	12972.575
1355.92738	14323.775
1359.41078	16015.875
1362.89183	17515.475
1366.37053	16905.875
1369.84688	14069.675
1373.32088	11324.575
1376.79254	9899.875
1380.26186	9215.575
1383.72883	8790.575
1387.19347	8405.275
1390.65578	8041.075
1394.11575	7801.175
1397.57339	7635.275
1401.0287	7526.875
1404.48168	7473.275
1407.93234	7513.775
1411.38068	7505.475
1414.82669	7595.375
1418.27039	7665.875
1421.71177	7661.275
1425.15083	7549.475
1428.58758	7493.175
1432.02203	7534.375
1435.45416	7605.175
1438.88399	7604.375
1442.31151	7591.975
1445.73673	7643.375
1449.15965	7713.075
1452.58027	7702.375
1455.9986	7713.375
1459.41463	7717.475
1462.82837	7831.875
1466.23982	7994.975
1469.64898	8233.975
1473.05586	8355.975
1476.46045	8448.775
1479.86276	8555.175
1483.26279	8652.075
1486.66054	8842.575
1490.05602	9110.875
1493.44922	9681.275
1496.84016	10563.975
1500.22882	11945.675
1503.61521	13706.775
1506.99934	15501.375
1510.38121	16720.575
1513.76081	16589.275
1517.13816	14977.075
1520.51324	12821.575
1523.88607	11113.675
1527.25665	10123.475
1530.62498	9603.975
1533.99105	9390.275
1537.35488	9260.275
1540.71647	9163.875
1544.07581	9014.675
1547.4329	8924.075
1550.78776	8771.275
1554.14038	8668.075
1557.49077	8663.275
1560.83892	8745.075
1564.18484	9002.775
1567.52853	9318.075
1570.86999	9654.375
1574.20922	9798.875
1577.54624	9691.275
1580.88103	9171.475
1584.2136	8483.475
1587.54395	8096.675
1590.87208	8028.975
1594.19801	8177.975
1597.52172	8560.575
1600.84321	8685.275
1604.16251	8550.875
1607.47959	8358.875
1610.79447	8172.975
1614.10715	7902.775
1617.41763	7585.875
1620.7259	7328.975
1624.03199	7172.175
1627.33587	7086.575
1630.63757	7153.675
1633.93707	7369.775
1637.23439	7786.075
1640.52951	8481.675
1643.82246	9459.575
1647.11321	10624.675
1650.40179	11375.475
1653.68819	11019.675
1656.97241	9783.775
1660.25446	8386.675
1663.53433	7381.275
1666.81203	6767.475
1670.08756	6439.675
1673.36092	6230.375
1676.63211	6109.475
1679.90115	6018.275
1683.16801	5926.875
1686.43272	5827.175
1689.69527	5805.175
1692.95567	5736.475
1696.2139	5719.775
1699.46999	5666.275
1702.72392	5652.075
1705.97571	5672.275
1709.22535	5651.675
1712.47284	5688.075
1715.71819	5692.275
1718.96139	5695.775
1722.20246	5689.775
1725.44139	5638.075
1728.67818	5619.775
1731.91284	5565.475
1735.14537	5537.775
1738.37576	5503.075
1741.60403	5480.075
1744.83017	5473.875
1748.05418	5467.575
1751.27607	5476.775
1754.49584	5422.575
1757.71349	5372.175
1760.92903	5397.775
1764.14244	5348.475
1767.35375	5362.575
1770.56294	5353.675
1773.77002	5316.675
1776.97499	5334.575
1780.17785	5319.175
1783.37861	5317.575
1786.57727	5317.775
1789.77382	5244.075
1792.96828	5269.375
1796.16064	5274.875
1799.3509	5258.175
1802.53907	5272.675
1805.72514	5230.275
1808.90913	5204.275
1812.09102	5207.375
1815.27083	5205.175
1818.44856	5190.875
1821.6242	5187.475
1824.79776	5155.575
1827.96924	5153.075
1831.13864	5115.675
1834.30597	5140.275
1837.47122	5118.075
1840.6344	5096.875
1843.7955	5093.675
1846.95454	5097.475
1850.11151	5114.775
1853.26642	5071.675
1856.41926	5073.275
1859.57004	5074.275
1862.71876	5054.475
1865.86542	5064.775
1869.01003	5061.275
1872.15258	5028.375
1875.29308	5050.975
1878.43152	5050.175
1881.56792	5035.875
1884.70227	5007.475
1887.83457	4997.775
1890.96482	4992.075
1894.09304	4980.475
1897.21921	4981.375
1900.34335	4974.775
1903.46544	4946.375
1906.58551	4975.875
1909.70353	4975.275
1912.81953	4962.075
1915.93349	4943.375
1919.04543	4932.075
1922.15534	4932.275
1925.26322	4928.675
1928.36908	4902.775
1931.47292	4897.975
1934.57473	4914.975
1937.67453	4870.175
1940.77232	4843.175
1943.86808	4837.175
1946.96184	4843.075
1950.05358	4805.475
1953.14331	4806.175
1956.23103	4795.675
1959.31675	4765.975
1962.40046	4723.375
1965.48217	4753.975
1968.56188	4728.475
1971.63959	4727.275
1974.7153	4710.775
1977.78901	4699.575
1980.86073	4676.575
1983.93046	4644.275
1986.99819	4560.875
1990.06394	4581.675
1993.1277	4600.975
1996.18947	4568.275
1999.24925	4554.375
2002.30706	4562.375
2005.36288	4555.175
2008.41672	4518.075
2011.46859	4492.775
2014.51848	4499.675
2017.56639	4475.375
2020.61233	4450.375
2023.6563	4454.975
2026.6983	4415.575
2029.73833	4423.075
2032.7764	4418.675
2035.8125	4371.875
2038.84664	4379.975
2041.87881	4370.175
2044.90903	4366.975
2047.93729	4356.575
2050.96359	4333.475
2053.98794	4352.975
2057.01034	4341.875
2060.03078	4328.075
2063.04927	4314.575
2066.06582	4324.175
2069.08042	4303.175
2072.09307	4311.675
2075.10378	4299.875
2078.11255	4286.975
2081.11938	4301.975
2084.12426	4296.175
2087.12722	4293.275
2090.12824	4284.175
2093.12732	4289.375
2096.12447	4283.975
2099.11969	4271.775
2102.11299	4269.475
2105.10435	4295.175
2108.09379	4281.575
2111.08131	4280.475
2114.0669	4272.975
2117.05057	4280.275
2120.03233	4284.175
2123.01216	4302.675
2125.99008	4288.075
2128.96609	4286.475
2131.94018	4310.775
2134.91236	4300.775
2137.88263	4298.875
2140.851	4308.875
2143.81746	4309.675
2146.78201	4299.775
2149.74466	4273.875
2152.7054	4297.875
2155.66425	4287.875
2158.6212	4282.175
2161.57625	4248.875
2164.52941	4224.275
2167.48067	4257.675
2170.43004	4248.275
2173.37752	4258.975
2176.32311	4239.575
2179.26681	4251.475
2182.20863	4268.175
2185.14856	4262.175
2188.08661	4251.175
2191.02278	4255.275
2193.95707	4227.675
2196.88948	4213.775
2199.82001	4233.275
2202.74867	4223.375
2205.67545	4207.075
2208.60037	4228.275
2211.52341	4211.775
2214.44458	4196.075
2217.36388	4176.375
2220.28132	4170.475
2223.1969	4145.575
2226.11061	4155.475
2229.02246	4141.375
2231.93245	4134.975
2234.84058	4110.175
2237.74686	4103.575
2240.65128	4096.275
2243.55385	4107.175
2246.45456	4069.875
2249.35343	4102.875
2252.25044	4081.775
2255.14561	4084.675
2258.03893	4088.375
2260.93041	4060.875
2263.82004	4072.575
2266.70783	4061.575
2269.59378	4036.675
2272.4779	4012.475
2275.36017	4037.475
2278.24061	4020.975
2281.11922	3977.575
2283.996	3984.775
2286.87094	3963.775
2289.74405	3985.275
2292.61534	3974.275
2295.4848	3948.275
2298.35243	3962.675
2301.21824	3947.275
2304.08223	3921.675
2306.94439	3934.775
2309.80474	3947.575
2312.66327	3942.875
2315.51999	3922.575
2318.37489	3915.175
2321.22797	3899.475
2324.07925	3895.175
2326.92871	3888.775
2329.77637	3887.075
2332.62222	3877.975
2335.46626	3836.375
2338.3085	3844.775
2341.14893	3867.275
2343.98756	3867.775
2346.8244	3842.175
2349.65943	3824.575
2352.49267	3831.675
2355.32411	3836.875
2358.15376	3824.575
2360.98161	3832.575
2363.80768	3828.675
2366.63195	3820.175
2369.45444	3835.275
2372.27514	3825.275
2375.09405	3846.475
2377.91118	3803.975
2380.72652	3797.175
2383.54009	3784.875
2386.35187	3796.375
2389.16188	3758.275
2391.97011	3759.475
2394.77657	3751.675
2397.58125	3746.975
2400.38416	3737.475
2403.18529	3721.675
2405.98466	3711.375
2408.78226	3704.675
2411.57809	3695.575
2414.37216	3684.175
2417.16446	3689.275
2419.955	3669.675
2422.74378	3675.575
2425.5308	3661.575
2428.31606	3678.375
2431.09956	3676.175
2433.88131	3661.175
2436.6613	3650.375
2439.43954	3660.375
2442.21603	3651.375
2444.99077	3643.175
2447.76377	3645.475
2450.53501	3627.475
2453.30451	3628.575
2456.07226	3623.375
2458.83827	3622.075
2461.60254	3588.375
2464.36507	3610.075
2467.12586	3604.375
2469.88492	3600.675
2472.64224	3600.775
2475.39782	3573.175
2478.15167	3603.775
2480.90379	3592.275
2483.65417	3601.075
2486.40283	3598.975
2489.14976	3612.375
2491.89497	3592.875
2494.63845	3590.275
2497.3802	3584.775
2500.12024	3590.575
2502.85855	3580.675
2505.59514	3569.675
2508.33002	3570.375
2511.06318	3536.775
2513.79462	3538.975
2516.52435	3509.875
2519.25237	3489.175
2521.97867	3493.175
2524.70327	3488.875
2527.42616	3486.575
2530.14734	3499.175
2532.86681	3474.575
2535.58458	3463.775
2538.30065	3451.975
2541.01501	3467.975
2543.72768	3456.775
2546.43864	3461.175
2549.14791	3448.175
2551.85548	3422.775
2554.56136	3420.675
2557.26554	3436.075
2559.96803	3426.075
2562.66883	3427.975
2565.36794	3410.175
2568.06536	3371.875
2570.7611	3402.275
2573.45514	3388.275
2576.14751	3371.875
2578.83819	3356.875
2581.52719	3359.075
2584.21451	3353.475
2586.90015	3339.775
2589.58411	3327.975
2592.2664	3328.075
2594.94701	3314.475
2597.62594	3320.175
2600.30321	3256.575
2602.9788	3277.575
2605.65273	3279.875
2608.32498	3279.075
2610.99557	3301.475
2613.66449	3261.975
2616.33175	3278.075
2618.99734	3270.675
2621.66128	3282.375
2624.32355	3249.175
2626.98416	3241.475
2629.64311	3228.175
2632.30041	3230.875
2634.95605	3216.775
2637.61004	3207.175
2640.26238	3183.675
2642.91306	3191.275
2645.56209	3199.275
2648.20948	3196.575
2650.85521	3182.475
2653.4993	3223.675
2656.14175	3199.775
2658.78255	3179.275
2661.42171	3151.075
2664.05923	3188.275
2666.6951	3192.975
2669.32934	3206.075
2671.96194	3216.475
2674.59291	3197.475
2677.22224	3197.175
2679.84993	3200.575
2682.476	3184.175
2685.10043	3184.575
2687.72324	3168.375
2690.34441	3178.175
2692.96396	3172.275
2695.58188	3192.075
2698.19818	3177.975
2700.81285	3173.975
2703.4259	3134.775
2706.03733	3116.775
2708.64714	3131.175
2711.25533	3148.075
2713.86191	3149.375
2716.46687	3157.275
2719.07021	3159.775
2721.67194	3156.175
2724.27206	3166.775
2726.87057	3148.375
2729.46747	3146.175
2732.06276	3140.775
2734.65644	3124.075
2737.24852	3122.475
2739.83899	3111.375
2742.42786	3120.975
2745.01513	3123.875
2747.60079	3099.475
2750.18486	3086.675
2752.76733	3082.575
2755.3482	3088.675
2757.92747	3088.975
2760.50515	3065.175
2763.08123	3058.375
2765.65573	3076.075
2768.22863	3062.575
2770.79994	3043.975
2773.36967	3042.775
2775.9378	3037.175
2778.50435	3025.975
2781.06932	3040.975
2783.6327	3013.075
2786.1945	3034.375
2788.75471	3023.375
2791.31335	3011.775
2793.87041	2992.475
2796.42589	2989.675
2798.97979	2996.775
2801.53212	2977.875
2804.08288	2995.775
2806.63206	2979.975
2809.17967	2951.175
2811.72571	2984.975
2814.27018	2976.975
2816.81308	2956.475
2819.35442	2933.075
2821.89419	2936.075
2824.43239	2925.975
2826.96904	2950.475
2829.50412	2917.575
2832.03763	2927.975
2834.56959	2934.375
2837.1	2918.575
2839.62884	2912.875
2842.15613	2911.875
2844.68186	2920.175
2847.20604	2893.675
2849.72867	2893.675
2852.24974	2888.775
2854.76927	2867.175
2857.28724	2817.175
2859.80367	2882.475
2862.31855	2880.475
2864.83189	2870.475
2867.34368	2880.375
2869.85393	2880.475
2872.36264	2858.975
2874.8698	2862.475
2877.37543	2869.275
2879.87952	2859.775
2882.38207	2834.575
2884.88308	2838.075
2887.38256	2854.175
2889.88051	2836.075
2892.37692	2839.975
2894.8718	2828.575
2897.36515	2837.075
2899.85698	2831.375
2902.34727	2825.375
2904.83604	2826.175
2907.32328	2850.475
2909.809	2843.075
2912.29319	2842.175
2914.77587	2850.875
2917.25702	2860.775
2919.73665	2861.575
2922.21476	2854.775
2924.69136	2863.775
2927.16644	2837.075
2929.64	2852.075
2932.11205	2829.675
2934.58258	2833.375
2937.05161	2805.675
2939.51912	2817.975
2941.98513	2839.975
2944.44962	2812.075
2946.91261	2785.275
2949.37409	2789.875
2951.83407	2797.175
2954.29254	2780.275
2956.74951	2765.275
2959.20498	2770.775
2961.65895	2761.575
2964.11142	2761.175
2966.56239	2750.375
2969.01186	2755.175
2971.45984	2741.375
2973.90632	2746.275
2976.35131	2756.975
2978.7948	2748.075
2981.23681	2738.675
2983.67732	2725.175
2986.11635	2731.575
2988.55388	2701.175
2990.98993	2704.575
2993.4245	2692.875
2995.85758	2682.275
2998.28917	2683.875
3000.71928	2666.675
3003.14791	2665.075
3005.57506	2657.975
3008.00073	2643.675
3010.42493	2592.475
3012.84764	2644.275
3015.26888	2635.575
3017.68865	2622.175
3020.10694	2579.475
3022.52376	2605.075
3024.9391	2607.975
3027.35298	2582.775
3029.76539	2566.475
3032.17632	2568.875
3034.5858	2553.375
3036.9938	2573.075
3039.40034	2559.075
3041.80542	2548.075
3044.20903	2542.475
3046.61118	2527.575
3049.01187	2541.575
3051.4111	2542.975
3053.80888	2512.875
3056.20519	2513.875
3058.60005	2501.475
3060.99345	2520.875
3063.3854	2479.175
3065.7759	2480.575
3068.16494	2469.375
3070.55254	2460.575
3072.93868	2478.575
3075.32338	2460.375
3077.70662	2450.275
3080.08842	2448.575
3082.46878	2434.375
3084.84769	2449.575
3087.22515	2429.475
3089.60118	2443.575
3091.97576	2413.775
3094.3489	2438.575
3096.72061	2421.775
3099.09087	2404.675
3101.4597	2425.475
3103.82709	2403.875
3106.19305	2399.475
3108.55757	2412.575
3110.92066	2399.375
3113.28232	2401.175
3115.64255	2384.575
3118.00134	2408.075
3120.35871	2369.775
3122.71466	2360.475
3125.06917	2363.375
3127.42226	2349.275
3129.77393	2338.475
3132.12417	2352.875
3134.47299	2344.975
3136.82039	2334.475
3139.16636	2310.675
3141.51092	2337.675
3143.85406	2335.775
3146.19579	2316.175
3148.53609	2323.075
3150.87499	2317.275
3153.21246	2309.175
3155.54853	2319.275
3157.88318	2322.375
3160.21642	2322.975
3162.54826	2321.375
3164.87868	2316.575
3167.2077	2276.975
3169.5353	2304.475
3171.86151	2298.275
3174.18631	2297.775
3176.5097	2291.675
3178.83169	2278.175
3181.15228	2289.775
3183.47147	2261.875
3185.78926	2248.375
3188.10565	2265.475
3190.42065	2242.975
3192.73424	2246.175
3195.04645	2245.875
3197.35725	2225.675
3199.66667	2244.075
3201.97469	2227.575
3204.28132	2214.075
3206.58656	2236.975
3208.8904	2232.775
3211.19287	2228.475
3213.49394	2215.875
3215.79363	2224.775
3218.09193	2235.675
3220.38884	2216.075
3222.68438	2218.175
3224.97853	2204.175
3227.2713	2222.375
3229.56269	2214.675
3231.8527	2205.675
3234.14133	2199.675
