Data from AgNPs_UA_5uM_CRN_500uM_SU_RamanShift__76__11-42-03-147.txt Node

Date: Thu Aug 04 11:42:03 BST 2022
User: TCL
Spectrometer: QEP01345
Trigger mode: 4
Integration Time (sec): 1.000000E0
Scans to average: 10
Electric dark correction enabled: true
Nonlinearity correction enabled: false
Boxcar width: 0
XAxis mode: Raman Shifts
Number of Pixels in Spectrum: 1044
>>>>>Begin Spectral Data<<<<<
46.04893	0.2375
50.45542	0.3375
54.85868	-1.0625
59.25871	-1.2625
63.6555	-59.0625
68.04907	-43.0625
72.43941	-73.3625
76.82654	-57.9625
81.21044	-57.6625
85.59113	-51.1625
89.96862	-76.4625
94.34289	-55.8625
98.71396	-79.3625
103.08183	-62.1625
107.4465	-50.8625
111.80798	-57.8625
116.16626	-47.7625
120.52136	-77.5625
124.87327	-51.1625
129.222	-67.2625
133.56755	-53.1625
137.90993	-66.3625
142.24913	-54.2625
146.58517	-47.1625
150.91804	-46.7625
155.24774	-34.8625
159.57429	-17.4625
163.89768	-18.2625
168.21792	24.8375
172.53501	37.0375
176.84895	109.0375
181.15975	233.4375
185.46741	361.9375
189.77193	515.1375
194.07331	767.9375
198.37157	1017.9375
202.6667	1262.9375
206.9587	1545.3375
211.24758	1830.0375
215.53334	2111.5375
219.81599	2438.2375
224.09553	2804.7375
228.37195	3191.8375
232.64527	3576.7375
236.91549	3949.4375
241.18261	4238.1375
245.44663	4466.7375
249.70755	4648.1375
253.96539	4813.0375
258.22014	4954.3375
262.4718	5075.0375
266.72039	5159.5375
270.96589	5135.8375
275.20832	5050.6375
279.44768	4936.6375
283.68397	4839.6375
287.91719	4773.9375
292.14735	4781.6375
296.37445	4919.7375
300.59849	5156.1375
304.81948	5485.7375
309.03742	5868.8375
313.25231	6148.1375
317.46415	6115.0375
321.67296	5693.4375
325.87872	5224.5375
330.08145	4984.3375
334.28114	4944.7375
338.47781	5043.0375
342.67145	5207.6375
346.86207	5493.0375
351.04966	5908.7375
355.23424	6329.4375
359.4158	6527.8375
363.59435	6455.7375
367.76989	6300.4375
371.94243	6116.4375
376.11196	5967.1375
380.27849	5867.3375
384.44203	5791.1375
388.60257	5777.5375
392.76012	5822.5375
396.91468	5930.2375
401.06626	6077.2375
405.21485	6102.7375
409.36047	5950.4375
413.50311	5671.9375
417.64277	5422.9375
421.77947	5242.0375
425.9132	5179.1375
430.04396	5142.1375
434.17176	5195.8375
438.2966	5238.7375
442.41849	5315.7375
446.53742	5408.5375
450.6534	5487.5375
454.76644	5547.6375
458.87653	5554.7375
462.98368	5525.4375
467.08789	5463.3375
471.18916	5421.6375
475.2875	5361.9375
479.38291	5298.8375
483.4754	5247.2375
487.56496	5226.4375
491.6516	5229.8375
495.73531	5229.1375
499.81612	5274.5375
503.89401	5339.3375
507.96899	5397.1375
512.04106	5463.1375
516.11023	5564.8375
520.1765	5635.7375
524.23987	5656.1375
528.30034	5682.3375
532.35792	5613.6375
536.41261	5619.2375
540.46441	5533.2375
544.51333	5496.8375
548.55936	5501.2375
552.60252	5580.8375
556.64279	5657.3375
560.6802	5808.4375
564.71473	6043.5375
568.7464	6355.2375
572.7752	6332.9375
576.80114	5928.6375
580.82422	5607.1375
584.84444	5469.4375
588.86181	5431.5375
592.87633	5475.1375
596.888	5560.0375
600.89682	5830.3375
604.9028	6634.9375
608.90594	8507.4375
612.90624	10760.8375
616.90371	10050.4375
620.89834	7287.9375
624.89015	6078.2375
628.87913	5923.9375
632.86528	6134.0375
636.84862	6238.2375
640.82913	6041.0375
644.80683	5742.6375
648.78172	5611.8375
652.75379	5665.2375
656.72306	5883.5375
660.68952	6131.4375
664.65319	6034.4375
668.61405	5777.8375
672.57211	5695.1375
676.52738	5742.1375
680.47986	5692.9375
684.42955	5656.4375
688.37646	5633.4375
692.32058	5648.8375
696.26192	5689.3375
700.20048	5767.5375
704.13626	5771.2375
708.06928	5750.7375
711.99952	5760.6375
715.927	5768.3375
719.85171	5823.6375
723.77365	5871.0375
727.69284	5825.1375
731.60928	5800.3375
735.52295	5783.2375
739.43388	5830.0375
743.34206	5849.4375
747.24749	5881.6375
751.15017	5918.5375
755.05012	5970.6375
758.94733	6340.8375
762.8418	7126.3375
766.73354	8209.7375
770.62254	8824.9375
774.50882	8635.8375
778.39237	8264.5375
782.27321	7652.4375
786.15132	6873.4375
790.02671	6322.8375
793.89938	6045.2375
797.76935	5977.2375
801.6366	5907.0375
805.50115	5890.9375
809.36299	5891.8375
813.22213	5884.2375
817.07857	5890.7375
820.93231	5914.1375
824.78336	5947.2375
828.63172	5983.4375
832.47738	5992.2375
836.32036	5985.0375
840.16066	5957.0375
843.99827	5903.7375
847.8332	5916.6375
851.66546	5907.7375
855.49504	5906.3375
859.32195	5933.4375
863.1462	5914.5375
866.96777	5931.4375
870.78668	5914.1375
874.60293	5966.0375
878.41652	5992.4375
882.22745	6049.9375
886.03573	6081.1375
889.84136	6059.9375
893.64433	6075.7375
897.44466	6078.0375
901.24235	6052.7375
905.0374	6058.9375
908.8298	6010.5375
912.61957	5990.6375
916.40671	5916.9375
920.19121	5952.0375
923.97308	6038.4375
927.75233	6117.3375
931.52895	6195.6375
935.30295	6195.3375
939.07433	6032.6375
942.84309	5923.7375
946.60924	5889.5375
950.37278	5852.0375
954.13371	5840.9375
957.89203	5856.5375
961.64774	5863.0375
965.40086	5840.4375
969.15137	5804.3375
972.89929	5846.6375
976.64461	5830.5375
980.38733	5844.9375
984.12747	5826.3375
987.86502	5840.3375
991.59999	5833.2375
995.33237	5909.6375
999.06217	5940.7375
1002.78939	6000.2375
1006.51404	6100.2375
1010.23611	6153.3375
1013.95561	6144.1375
1017.67255	6105.0375
1021.38692	6092.0375
1025.09872	6030.1375
1028.80796	5977.5375
1032.51465	6012.7375
1036.21877	6006.4375
1039.92035	6040.3375
1043.61937	6061.1375
1047.31584	6106.6375
1051.00976	6128.2375
1054.70114	6136.0375
1058.38998	6104.1375
1062.07627	6108.7375
1065.76003	6115.4375
1069.44126	6170.8375
1073.11995	6229.7375
1076.79611	6325.8375
1080.46974	6498.5375
1084.14085	6672.0375
1087.80943	6813.9375
1091.47549	6824.8375
1095.13903	6710.6375
1098.80005	6561.7375
1102.45857	6501.1375
1106.11456	6471.7375
1109.76805	6428.3375
1113.41903	6531.4375
1117.06751	6688.9375
1120.71348	6943.5375
1124.35696	7347.1375
1127.99793	7628.4375
1131.63641	7419.3375
1135.2724	7004.6375
1138.90589	6704.9375
1142.5369	6520.0375
1146.16542	6412.4375
1149.79145	6330.8375
1153.415	6297.1375
1157.03607	6277.4375
1160.65467	6349.8375
1164.27079	6464.1375
1167.88443	6628.7375
1171.49561	6955.4375
1175.10432	7470.0375
1178.71056	8171.8375
1182.31434	8694.1375
1185.91565	8698.8375
1189.51451	8349.8375
1193.11091	7939.7375
1196.70485	7671.5375
1200.29634	7533.2375
1203.88538	7338.3375
1207.47197	7031.9375
1211.05612	6728.2375
1214.63782	6535.7375
1218.21708	6452.0375
1221.79391	6406.8375
1225.36829	6364.0375
1228.94024	6367.5375
1232.50976	6393.0375
1236.07685	6397.0375
1239.6415	6422.8375
1243.20374	6449.4375
1246.76355	6508.3375
1250.32093	6579.7375
1253.8759	6658.9375
1257.42845	6812.4375
1260.97859	7002.7375
1264.52631	7211.7375
1268.07163	7308.5375
1271.61453	7368.1375
1275.15503	7314.4375
1278.69312	7270.3375
1282.22882	7289.2375
1285.76211	7507.7375
1289.29301	7776.7375
1292.82151	7986.2375
1296.34761	8088.3375
1299.87133	8315.5375
1303.39266	8872.4375
1306.9116	9899.7375
1310.42815	11115.1375
1313.94233	11605.5375
1317.45412	10739.3375
1320.96354	9517.9375
1324.47058	8502.2375
1327.97525	7853.7375
1331.47754	7452.8375
1334.97747	7309.0375
1338.47502	7334.0375
1341.97022	7625.7375
1345.46305	8212.5375
1348.95352	9090.0375
1352.44163	9935.3375
1355.92738	10854.4375
1359.41078	12445.4375
1362.89183	14169.0375
1366.37053	13830.3375
1369.84688	11286.8375
1373.32088	9090.6375
1376.79254	8037.1375
1380.26186	7577.2375
1383.72883	7227.5375
1387.19347	6847.2375
1390.65578	6570.0375
1394.11575	6419.5375
1397.57339	6330.6375
1401.0287	6278.0375
1404.48168	6211.3375
1407.93234	6237.6375
1411.38068	6232.3375
1414.82669	6361.2375
1418.27039	6484.6375
1421.71177	6498.7375
1425.15083	6446.2375
1428.58758	6423.2375
1432.02203	6498.1375
1435.45416	6585.9375
1438.88399	6531.6375
1442.31151	6420.2375
1445.73673	6398.8375
1449.15965	6388.9375
1452.58027	6362.1375
1455.9986	6331.1375
1459.41463	6283.7375
1462.82837	6302.2375
1466.23982	6383.5375
1469.64898	6470.3375
1473.05586	6518.7375
1476.46045	6572.6375
1479.86276	6591.6375
1483.26279	6678.1375
1486.66054	6881.0375
1490.05602	7141.9375
1493.44922	7581.9375
1496.84016	8282.8375
1500.22882	9326.2375
1503.61521	10702.5375
1506.99934	12453.6375
1510.38121	14084.5375
1513.76081	14610.0375
1517.13816	13454.5375
1520.51324	11339.7375
1523.88607	9485.7375
1527.25665	8303.3375
1530.62498	7620.9375
1533.99105	7244.6375
1537.35488	6964.9375
1540.71647	6844.6375
1544.07581	6789.3375
1547.4329	6777.7375
1550.78776	6815.6375
1554.14038	6904.5375
1557.49077	7006.9375
1560.83892	7243.0375
1564.18484	7613.4375
1567.52853	7987.0375
1570.86999	8238.2375
1574.20922	8288.5375
1577.54624	8152.1375
1580.88103	7689.0375
1584.2136	7088.9375
1587.54395	6767.7375
1590.87208	6693.0375
1594.19801	6797.1375
1597.52172	7021.6375
1600.84321	7062.0375
1604.16251	6863.0375
1607.47959	6649.2375
1610.79447	6501.7375
1614.10715	6382.2375
1617.41763	6256.4375
1620.7259	6159.6375
1624.03199	6140.7375
1627.33587	6148.3375
1630.63757	6248.0375
1633.93707	6417.4375
1637.23439	6787.6375
1640.52951	7390.4375
1643.82246	8357.6375
1647.11321	9615.3375
1650.40179	10570.3375
1653.68819	10403.4375
1656.97241	9188.4375
1660.25446	7795.9375
1663.53433	6867.3375
1666.81203	6325.1375
1670.08756	6062.0375
1673.36092	5905.0375
1676.63211	5811.9375
1679.90115	5757.9375
1683.16801	5697.3375
1686.43272	5624.6375
1689.69527	5615.7375
1692.95567	5570.3375
1696.2139	5564.8375
1699.46999	5531.7375
1702.72392	5531.8375
1705.97571	5567.0375
1709.22535	5525.3375
1712.47284	5587.5375
1715.71819	5589.1375
1718.96139	5595.6375
1722.20246	5575.6375
1725.44139	5561.4375
1728.67818	5549.8375
1731.91284	5519.8375
1735.14537	5482.0375
1738.37576	5474.1375
1741.60403	5485.0375
1744.83017	5439.1375
1748.05418	5438.1375
1751.27607	5453.3375
1754.49584	5394.8375
1757.71349	5381.9375
1760.92903	5385.2375
1764.14244	5358.4375
1767.35375	5353.9375
1770.56294	5345.4375
1773.77002	5319.2375
1776.97499	5340.6375
1780.17785	5326.2375
1783.37861	5333.6375
1786.57727	5338.1375
1789.77382	5265.0375
1792.96828	5307.8375
1796.16064	5320.7375
1799.3509	5296.8375
1802.53907	5324.5375
1805.72514	5286.1375
1808.90913	5260.2375
1812.09102	5268.6375
1815.27083	5280.5375
1818.44856	5256.5375
1821.6242	5239.7375
1824.79776	5229.9375
1827.96924	5225.9375
1831.13864	5208.3375
1834.30597	5205.4375
1837.47122	5200.1375
1840.6344	5172.4375
1843.7955	5170.8375
1846.95454	5156.0375
1850.11151	5192.1375
1853.26642	5140.4375
1856.41926	5161.9375
1859.57004	5175.5375
1862.71876	5163.1375
1865.86542	5168.2375
1869.01003	5167.5375
1872.15258	5145.7375
1875.29308	5156.4375
1878.43152	5149.5375
1881.56792	5119.2375
1884.70227	5106.1375
1887.83457	5109.6375
1890.96482	5086.5375
1894.09304	5093.4375
1897.21921	5085.6375
1900.34335	5084.9375
1903.46544	5069.6375
1906.58551	5082.5375
1909.70353	5072.6375
1912.81953	5078.1375
1915.93349	5049.9375
1919.04543	5055.7375
1922.15534	5027.5375
1925.26322	5027.4375
1928.36908	5025.0375
1931.47292	5005.5375
1934.57473	5008.3375
1937.67453	4975.9375
1940.77232	4958.3375
1943.86808	4948.1375
1946.96184	4933.2375
1950.05358	4914.5375
1953.14331	4893.6375
1956.23103	4899.3375
1959.31675	4865.3375
1962.40046	4832.8375
1965.48217	4846.0375
1968.56188	4834.3375
1971.63959	4828.7375
1974.7153	4828.8375
1977.78901	4824.7375
1980.86073	4793.4375
1983.93046	4745.3375
1986.99819	4660.4375
1990.06394	4708.7375
1993.1277	4730.2375
1996.18947	4708.9375
1999.24925	4698.4375
2002.30706	4669.6375
2005.36288	4661.1375
2008.41672	4660.9375
2011.46859	4624.4375
2014.51848	4618.9375
2017.56639	4601.3375
2020.61233	4589.0375
2023.6563	4595.3375
2026.6983	4545.7375
2029.73833	4551.3375
2032.7764	4560.9375
2035.8125	4524.2375
2038.84664	4519.7375
2041.87881	4510.5375
2044.90903	4506.2375
2047.93729	4503.5375
2050.96359	4481.1375
2053.98794	4475.1375
2057.01034	4491.3375
2060.03078	4473.6375
2063.04927	4464.7375
2066.06582	4469.6375
2069.08042	4452.0375
2072.09307	4448.1375
2075.10378	4450.7375
2078.11255	4439.0375
2081.11938	4439.0375
2084.12426	4436.4375
2087.12722	4440.8375
2090.12824	4441.1375
2093.12732	4440.8375
2096.12447	4460.2375
2099.11969	4443.6375
2102.11299	4436.3375
2105.10435	4461.4375
2108.09379	4443.7375
2111.08131	4442.0375
2114.0669	4439.8375
2117.05057	4443.8375
2120.03233	4435.0375
2123.01216	4454.0375
2125.99008	4471.1375
2128.96609	4464.4375
2131.94018	4474.0375
2134.91236	4461.2375
2137.88263	4474.3375
2140.851	4476.3375
2143.81746	4491.0375
2146.78201	4477.4375
2149.74466	4458.9375
2152.7054	4488.8375
2155.66425	4474.9375
2158.6212	4480.5375
2161.57625	4450.8375
2164.52941	4433.2375
2167.48067	4436.1375
2170.43004	4438.0375
2173.37752	4461.1375
2176.32311	4449.1375
2179.26681	4439.0375
2182.20863	4453.2375
2185.14856	4457.3375
2188.08661	4440.9375
2191.02278	4454.6375
2193.95707	4429.0375
2196.88948	4424.7375
2199.82001	4436.6375
2202.74867	4425.6375
2205.67545	4432.8375
2208.60037	4418.6375
2211.52341	4401.2375
2214.44458	4391.7375
2217.36388	4386.0375
2220.28132	4370.7375
2223.1969	4360.1375
2226.11061	4360.2375
2229.02246	4354.8375
2231.93245	4348.9375
2234.84058	4319.0375
2237.74686	4325.4375
2240.65128	4323.7375
2243.55385	4321.0375
2246.45456	4289.0375
2249.35343	4317.7375
2252.25044	4297.5375
2255.14561	4310.1375
2258.03893	4326.0375
2260.93041	4294.1375
2263.82004	4290.8375
2266.70783	4287.7375
2269.59378	4267.1375
2272.4779	4256.2375
2275.36017	4250.6375
2278.24061	4242.7375
2281.11922	4198.1375
2283.996	4212.8375
2286.87094	4189.0375
2289.74405	4217.1375
2292.61534	4192.8375
2295.4848	4199.7375
2298.35243	4194.7375
2301.21824	4162.0375
2304.08223	4162.2375
2306.94439	4162.5375
2309.80474	4164.8375
2312.66327	4161.0375
2315.51999	4142.9375
2318.37489	4148.1375
2321.22797	4134.0375
2324.07925	4135.5375
2326.92871	4117.8375
2329.77637	4105.4375
2332.62222	4097.8375
2335.46626	4085.3375
2338.3085	4080.9375
2341.14893	4084.1375
2343.98756	4094.8375
2346.8244	4064.0375
2349.65943	4048.3375
2352.49267	4077.6375
2355.32411	4072.5375
2358.15376	4050.7375
2360.98161	4063.2375
2363.80768	4039.8375
2366.63195	4069.4375
2369.45444	4059.2375
2372.27514	4053.9375
2375.09405	4077.0375
2377.91118	4034.8375
2380.72652	4015.5375
2383.54009	4023.9375
2386.35187	4020.2375
2389.16188	4000.2375
2391.97011	4003.6375
2394.77657	3994.6375
2397.58125	3995.4375
2400.38416	3977.6375
2403.18529	3943.4375
2405.98466	3942.9375
2408.78226	3954.8375
2411.57809	3940.3375
2414.37216	3927.4375
2417.16446	3917.8375
2419.955	3912.1375
2422.74378	3930.4375
2425.5308	3900.3375
2428.31606	3912.5375
2431.09956	3914.3375
2433.88131	3889.6375
2436.6613	3908.4375
2439.43954	3902.3375
2442.21603	3889.9375
2444.99077	3877.5375
2447.76377	3889.8375
2450.53501	3890.8375
2453.30451	3870.0375
2456.07226	3879.6375
2458.83827	3859.8375
2461.60254	3825.6375
2464.36507	3845.6375
2467.12586	3822.8375
2469.88492	3841.3375
2472.64224	3844.8375
2475.39782	3822.5375
2478.15167	3835.3375
2480.90379	3828.2375
2483.65417	3827.2375
2486.40283	3842.0375
2489.14976	3839.1375
2491.89497	3822.9375
2494.63845	3830.2375
2497.3802	3811.5375
2500.12024	3798.4375
2502.85855	3790.0375
2505.59514	3785.3375
2508.33002	3784.0375
2511.06318	3760.1375
2513.79462	3766.1375
2516.52435	3724.0375
2519.25237	3706.5375
2521.97867	3700.5375
2524.70327	3719.0375
2527.42616	3710.0375
2530.14734	3710.5375
2532.86681	3691.9375
2535.58458	3700.1375
2538.30065	3679.8375
2541.01501	3717.7375
2543.72768	3684.0375
2546.43864	3686.3375
2549.14791	3664.3375
2551.85548	3657.6375
2554.56136	3648.2375
2557.26554	3660.5375
2559.96803	3648.0375
2562.66883	3648.7375
2565.36794	3629.2375
2568.06536	3598.2375
2570.7611	3614.9375
2573.45514	3599.1375
2576.14751	3599.8375
2578.83819	3579.4375
2581.52719	3569.1375
2584.21451	3583.4375
2586.90015	3555.0375
2589.58411	3546.3375
2592.2664	3544.8375
2594.94701	3548.1375
2597.62594	3557.6375
2600.30321	3480.4375
2602.9788	3507.5375
2605.65273	3486.1375
2608.32498	3489.3375
2610.99557	3502.9375
2613.66449	3468.9375
2616.33175	3491.3375
2618.99734	3495.0375
2621.66128	3481.5375
2624.32355	3463.1375
2626.98416	3436.2375
2629.64311	3447.1375
2632.30041	3445.3375
2634.95605	3426.0375
2637.61004	3395.6375
2640.26238	3406.8375
2642.91306	3397.3375
2645.56209	3414.7375
2648.20948	3404.1375
2650.85521	3396.7375
2653.4993	3411.4375
2656.14175	3389.3375
2658.78255	3398.1375
2661.42171	3349.4375
2664.05923	3396.3375
2666.6951	3398.8375
2669.32934	3393.3375
2671.96194	3405.6375
2674.59291	3393.2375
2677.22224	3390.2375
2679.84993	3389.9375
2682.476	3371.7375
2685.10043	3387.8375
2687.72324	3375.0375
2690.34441	3370.2375
2692.96396	3367.2375
2695.58188	3386.2375
2698.19818	3382.4375
2700.81285	3367.4375
2703.4259	3358.5375
2706.03733	3315.2375
2708.64714	3322.7375
2711.25533	3350.7375
2713.86191	3357.1375
2716.46687	3360.4375
2719.07021	3349.2375
2721.67194	3348.0375
2724.27206	3346.6375
2726.87057	3347.1375
2729.46747	3350.7375
2732.06276	3328.5375
2734.65644	3319.9375
2737.24852	3318.1375
2739.83899	3310.8375
2742.42786	3319.0375
2745.01513	3332.2375
2747.60079	3301.3375
2750.18486	3289.4375
2752.76733	3290.0375
2755.3482	3284.7375
2757.92747	3287.9375
2760.50515	3253.1375
2763.08123	3255.9375
2765.65573	3263.2375
2768.22863	3247.6375
2770.79994	3228.3375
2773.36967	3225.4375
2775.9378	3229.0375
2778.50435	3220.3375
2781.06932	3221.4375
2783.6327	3208.0375
2786.1945	3224.1375
2788.75471	3208.6375
2791.31335	3198.1375
2793.87041	3208.6375
2796.42589	3177.3375
2798.97979	3158.2375
2801.53212	3157.0375
2804.08288	3174.2375
2806.63206	3164.0375
2809.17967	3135.3375
2811.72571	3145.6375
2814.27018	3142.9375
2816.81308	3134.2375
2819.35442	3099.1375
2821.89419	3112.9375
2824.43239	3097.0375
2826.96904	3135.2375
2829.50412	3106.7375
2832.03763	3113.3375
2834.56959	3107.4375
2837.1	3095.1375
2839.62884	3090.8375
2842.15613	3086.3375
2844.68186	3112.2375
2847.20604	3067.2375
2849.72867	3072.0375
2852.24974	3071.5375
2854.76927	3038.8375
2857.28724	2999.2375
2859.80367	3070.7375
2862.31855	3061.9375
2864.83189	3052.5375
2867.34368	3041.5375
2869.85393	3057.5375
2872.36264	3019.0375
2874.8698	3034.2375
2877.37543	3045.2375
2879.87952	3026.8375
2882.38207	3013.0375
2884.88308	3024.8375
2887.38256	3024.3375
2889.88051	3007.2375
2892.37692	3021.3375
2894.8718	2988.1375
2897.36515	3018.7375
2899.85698	3000.4375
2902.34727	2987.7375
2904.83604	2995.9375
2907.32328	3003.7375
2909.809	3010.1375
2912.29319	3004.2375
2914.77587	3015.0375
2917.25702	3018.0375
2919.73665	3026.1375
2922.21476	3022.8375
2924.69136	3014.8375
2927.16644	2997.0375
2929.64	2995.1375
2932.11205	2979.3375
2934.58258	2970.3375
2937.05161	2963.4375
2939.51912	2974.6375
2941.98513	2977.1375
2944.44962	2981.9375
2946.91261	2967.0375
2949.37409	2956.7375
2951.83407	2949.0375
2954.29254	2951.8375
2956.74951	2954.3375
2959.20498	2938.7375
2961.65895	2939.4375
2964.11142	2934.8375
2966.56239	2944.0375
2969.01186	2944.0375
2971.45984	2944.0375
2973.90632	2923.7375
2976.35131	2950.1375
2978.7948	2933.5375
2981.23681	2920.9375
2983.67732	2933.6375
2986.11635	2927.4375
2988.55388	2910.8375
2990.98993	2908.9375
2993.4245	2897.6375
2995.85758	2880.5375
2998.28917	2886.1375
3000.71928	2874.6375
3003.14791	2865.8375
3005.57506	2864.5375
3008.00073	2858.5375
3010.42493	2788.4375
3012.84764	2851.6375
3015.26888	2848.1375
3017.68865	2831.8375
3020.10694	2792.3375
3022.52376	2808.8375
3024.9391	2817.9375
3027.35298	2798.0375
3029.76539	2787.0375
3032.17632	2788.4375
3034.5858	2778.0375
3036.9938	2783.5375
3039.40034	2772.8375
3041.80542	2770.9375
3044.20903	2755.2375
3046.61118	2750.0375
3049.01187	2756.2375
3051.4111	2740.3375
3053.80888	2728.8375
3056.20519	2717.7375
3058.60005	2694.7375
3060.99345	2729.3375
3063.3854	2693.9375
3065.7759	2690.9375
3068.16494	2684.9375
3070.55254	2675.4375
3072.93868	2675.1375
3075.32338	2678.9375
3077.70662	2659.2375
3080.08842	2645.3375
3082.46878	2640.5375
3084.84769	2659.9375
3087.22515	2652.7375
3089.60118	2649.2375
3091.97576	2642.4375
3094.3489	2660.7375
3096.72061	2647.8375
3099.09087	2624.3375
3101.4597	2645.2375
3103.82709	2648.7375
3106.19305	2632.2375
3108.55757	2642.6375
3110.92066	2622.5375
3113.28232	2640.6375
3115.64255	2650.8375
3118.00134	2628.1375
3120.35871	2593.1375
3122.71466	2574.5375
3125.06917	2603.2375
