Data from AgNPs_UA_5uM_CRN_500uM_SU_RamanShift__2__11-29-43-138.txt Node

Date: Thu Aug 04 11:29:43 BST 2022
User: TCL
Spectrometer: QEP01345
Trigger mode: 4
Integration Time (sec): 1.000000E0
Scans to average: 10
Electric dark correction enabled: true
Nonlinearity correction enabled: false
Boxcar width: 0
XAxis mode: Raman Shifts
Number of Pixels in Spectrum: 1044
>>>>>Begin Spectral Data<<<<<
46.04893	-0.175
50.45542	0.025
54.85868	1.825
59.25871	-0.075
63.6555	-55.375
68.04907	-37.175
72.43941	-68.875
76.82654	-54.975
81.21044	-53.675
85.59113	-47.775
89.96862	-72.275
94.34289	-51.075
98.71396	-73.275
103.08183	-55.575
107.4465	-45.475
111.80798	-51.175
116.16626	-40.875
120.52136	-68.875
124.87327	-43.075
129.222	-56.875
133.56755	-41.375
137.90993	-49.975
142.24913	-38.875
146.58517	-27.475
150.91804	-19.575
155.24774	-5.175
159.57429	24.825
163.89768	44.125
168.21792	109.025
172.53501	156.625
176.84895	281.725
181.15975	481.125
185.46741	718.425
189.77193	1009.625
194.07331	1449.025
198.37157	1893.425
202.6667	2371.825
206.9587	2913.225
211.24758	3456.425
215.53334	4076.725
219.81599	4798.025
224.09553	5621.425
228.37195	6482.725
232.64527	7290.225
236.91549	7940.625
241.18261	8281.825
245.44663	8372.225
249.70755	8288.325
253.96539	8267.025
258.22014	8330.825
262.4718	8374.825
266.72039	8368.425
270.96589	8159.125
275.20832	7805.425
279.44768	7443.525
283.68397	7193.825
287.91719	7121.825
292.14735	7329.625
296.37445	7845.925
300.59849	8844.925
304.81948	10237.025
309.03742	11814.925
313.25231	12996.525
317.46415	12857.325
321.67296	11248.725
325.87872	9358.525
330.08145	8272.925
334.28114	8008.325
338.47781	8310.125
342.67145	8912.425
346.86207	9899.425
351.04966	11406.425
355.23424	12923.025
359.4158	13503.625
363.59435	12998.925
367.76989	12041.625
371.94243	11138.325
376.11196	10438.525
380.27849	9877.125
384.44203	9470.225
388.60257	9218.325
392.76012	9245.925
396.91468	9569.825
401.06626	9971.725
405.21485	10002.625
409.36047	9344.925
413.50311	8214.325
417.64277	7161.325
421.77947	6509.425
425.9132	6198.225
430.04396	6063.125
434.17176	6020.025
438.2966	6167.025
442.41849	6370.525
446.53742	6590.725
450.6534	6711.125
454.76644	6703.025
458.87653	6579.725
462.98368	6447.625
467.08789	6275.925
471.18916	6072.125
475.2875	5761.425
479.38291	5503.325
483.4754	5372.025
487.56496	5305.525
491.6516	5219.325
495.73531	5219.125
499.81612	5301.125
503.89401	5470.425
507.96899	5670.625
512.04106	5971.925
516.11023	6244.725
520.1765	6476.025
524.23987	6572.025
528.30034	6551.425
532.35792	6355.025
536.41261	6199.725
540.46441	5963.825
544.51333	5782.825
548.55936	5780.125
552.60252	5925.525
556.64279	6149.225
560.6802	6604.525
564.71473	7631.325
568.7464	8933.425
572.7752	8859.225
576.80114	7182.425
580.82422	5798.025
584.84444	5246.225
588.86181	5067.525
592.87633	5069.625
596.888	5283.825
600.89682	6101.725
604.9028	8811.125
608.90594	15808.325
612.90624	24314.025
616.90371	22072.725
620.89834	11499.825
624.89015	6898.125
628.87913	6383.525
632.86528	7040.725
636.84862	7324.125
640.82913	6546.925
644.80683	5422.725
648.78172	4916.225
652.75379	5095.125
656.72306	5895.925
660.68952	6688.725
664.65319	6243.125
668.61405	5192.325
672.57211	4749.625
676.52738	4742.625
680.47986	4678.625
684.42955	4534.625
688.37646	4434.225
692.32058	4434.425
696.26192	4522.625
700.20048	4664.325
704.13626	4695.925
708.06928	4608.225
711.99952	4581.725
715.927	4623.725
719.85171	4853.925
723.77365	5011.525
727.69284	4883.525
731.60928	4711.225
735.52295	4647.125
739.43388	4727.925
743.34206	4762.525
747.24749	4771.225
751.15017	4792.425
755.05012	5138.525
758.94733	6499.525
762.8418	9603.725
766.73354	13639.325
770.62254	15660.425
774.50882	14823.925
778.39237	13308.125
782.27321	10986.825
786.15132	7985.625
790.02671	5957.325
793.89938	5029.025
797.76935	4728.125
801.6366	4583.325
805.50115	4488.325
809.36299	4454.525
813.22213	4435.125
817.07857	4423.225
820.93231	4476.125
824.78336	4585.425
828.63172	4696.425
832.47738	4750.525
836.32036	4655.325
840.16066	4410.025
843.99827	4283.525
847.8332	4255.725
851.66546	4246.325
855.49504	4228.425
859.32195	4211.525
863.1462	4160.325
866.96777	4148.525
870.78668	4138.325
874.60293	4192.325
878.41652	4246.125
882.22745	4414.425
886.03573	4492.325
889.84136	4463.725
893.64433	4437.225
897.44466	4442.625
901.24235	4454.525
905.0374	4375.625
908.8298	4174.125
912.61957	4047.925
916.40671	3959.325
920.19121	4025.425
923.97308	4222.925
927.75233	4672.925
931.52895	5079.025
935.30295	4853.425
939.07433	4226.825
942.84309	3830.625
946.60924	3678.325
950.37278	3606.325
954.13371	3603.825
957.89203	3587.525
961.64774	3604.125
965.40086	3561.925
969.15137	3547.525
972.89929	3568.625
976.64461	3542.225
980.38733	3543.425
984.12747	3528.825
987.86502	3531.825
991.59999	3558.425
995.33237	3642.025
999.06217	3731.625
1002.78939	3940.425
1006.51404	4247.425
1010.23611	4405.025
1013.95561	4260.425
1017.67255	4032.725
1021.38692	3867.025
1025.09872	3717.725
1028.80796	3631.325
1032.51465	3682.825
1036.21877	3726.125
1039.92035	3802.525
1043.61937	3879.825
1047.31584	3949.025
1051.00976	3963.925
1054.70114	3882.225
1058.38998	3822.425
1062.07627	3792.125
1065.76003	3795.625
1069.44126	3842.125
1073.11995	3942.425
1076.79611	4220.425
1080.46974	4744.825
1084.14085	5528.725
1087.80943	6177.625
1091.47549	6117.225
1095.13903	5461.325
1098.80005	4809.425
1102.45857	4430.425
1106.11456	4405.725
1109.76805	4523.625
1113.41903	4928.025
1117.06751	5598.425
1120.71348	6687.625
1124.35696	8335.425
1127.99793	9497.825
1131.63641	8680.525
1135.2724	6953.725
1138.90589	5790.825
1142.5369	5132.525
1146.16542	4741.525
1149.79145	4454.325
1153.415	4376.925
1157.03607	4453.125
1160.65467	4670.625
1164.27079	5087.625
1167.88443	5683.925
1171.49561	6697.125
1175.10432	8489.825
1178.71056	10974.025
1182.31434	12753.925
1185.91565	12478.225
1189.51451	10849.225
1193.11091	9124.025
1196.70485	8059.925
1200.29634	7637.725
1203.88538	7114.025
1207.47197	6081.225
1211.05612	5135.725
1214.63782	4522.125
1218.21708	4255.225
1221.79391	4156.825
1225.36829	4122.125
1228.94024	4152.225
1232.50976	4134.225
1236.07685	4154.725
1239.6415	4193.325
1243.20374	4311.125
1246.76355	4484.725
1250.32093	4679.725
1253.8759	4966.725
1257.42845	5464.425
1260.97859	6144.725
1264.52631	6789.425
1268.07163	7121.325
1271.61453	7155.325
1275.15503	6941.225
1278.69312	6673.925
1282.22882	6879.525
1285.76211	7807.725
1289.29301	9089.425
1292.82151	9960.225
1296.34761	10288.825
1299.87133	11135.725
1303.39266	13252.725
1306.9116	17325.325
1310.42815	22263.825
1313.94233	24025.225
1317.45412	20168.125
1320.96354	14706.025
1324.47058	10566.525
1327.97525	8075.825
1331.47754	6829.225
1334.97747	6428.425
1338.47502	6631.225
1341.97022	7587.525
1345.46305	9729.525
1348.95352	12805.025
1352.44163	15915.525
1355.92738	19767.725
1359.41078	26556.525
1362.89183	34098.325
1366.37053	32616.625
1369.84688	22253.025
1373.32088	13729.625
1376.79254	10075.725
1380.26186	8480.225
1383.72883	7254.025
1387.19347	6056.825
1390.65578	5211.525
1394.11575	4735.225
1397.57339	4512.525
1401.0287	4367.325
1404.48168	4202.325
1407.93234	4112.125
1411.38068	4191.825
1414.82669	4567.625
1418.27039	5005.825
1421.71177	5084.425
1425.15083	4868.725
1428.58758	4924.125
1432.02203	5399.925
1435.45416	5768.725
1438.88399	5524.925
1442.31151	5155.625
1445.73673	5111.625
1449.15965	5079.125
1452.58027	4946.725
1455.9986	4779.325
1459.41463	4621.825
1462.82837	4627.125
1466.23982	4886.625
1469.64898	5233.425
1473.05586	5349.325
1476.46045	5318.325
1479.86276	5323.925
1483.26279	5584.025
1486.66054	6189.325
1490.05602	7159.125
1493.44922	8736.325
1496.84016	11255.225
1500.22882	15156.025
1503.61521	20680.825
1506.99934	27800.225
1510.38121	34873.725
1513.76081	37746.425
1517.13816	33413.825
1520.51324	24786.125
1523.88607	16992.125
1527.25665	11997.625
1530.62498	9201.225
1533.99105	7574.525
1537.35488	6543.925
1540.71647	5936.025
1544.07581	5689.425
1547.4329	5694.825
1550.78776	5896.925
1554.14038	6208.325
1557.49077	6733.625
1560.83892	7639.025
1564.18484	9077.525
1567.52853	10732.525
1570.86999	11777.625
1574.20922	11937.825
1577.54624	11298.825
1580.88103	9383.825
1584.2136	7082.225
1587.54395	5729.925
1590.87208	5363.025
1594.19801	5788.425
1597.52172	6473.825
1600.84321	6487.025
1604.16251	5674.425
1607.47959	4943.925
1610.79447	4492.525
1614.10715	4150.025
1617.41763	3940.125
1620.7259	3820.925
1624.03199	3873.425
1627.33587	4051.125
1630.63757	4400.825
1633.93707	5082.825
1637.23439	6241.725
1640.52951	8439.825
1643.82246	12159.425
1647.11321	17314.025
1650.40179	21550.925
1653.68819	21377.825
1656.97241	16674.025
1660.25446	11177.625
1663.53433	7341.625
1666.81203	5252.125
1670.08756	4206.425
1673.36092	3643.025
1676.63211	3268.025
1679.90115	3065.525
1683.16801	2905.225
1686.43272	2776.125
1689.69527	2711.925
1692.95567	2628.525
1696.2139	2595.925
1699.46999	2526.125
1702.72392	2523.325
1705.97571	2536.625
1709.22535	2519.525
1712.47284	2568.825
1715.71819	2588.625
1718.96139	2596.425
1722.20246	2569.025
1725.44139	2516.125
1728.67818	2441.225
1731.91284	2368.425
1735.14537	2320.225
1738.37576	2280.425
1741.60403	2259.025
1744.83017	2221.525
1748.05418	2220.525
1751.27607	2197.725
1754.49584	2153.125
1757.71349	2090.925
1760.92903	2064.725
1764.14244	2002.225
1767.35375	1984.725
1770.56294	1937.925
1773.77002	1896.625
1776.97499	1889.825
1780.17785	1846.825
1783.37861	1816.325
1786.57727	1820.925
1789.77382	1758.325
1792.96828	1796.125
1796.16064	1806.325
1799.3509	1784.325
1802.53907	1795.925
1805.72514	1769.325
1808.90913	1732.625
1812.09102	1737.325
1815.27083	1735.725
1818.44856	1716.325
1821.6242	1707.925
1824.79776	1689.125
1827.96924	1672.425
1831.13864	1648.125
1834.30597	1645.825
1837.47122	1619.625
1840.6344	1600.825
1843.7955	1557.025
1846.95454	1546.025
1850.11151	1565.925
1853.26642	1526.025
1856.41926	1534.525
1859.57004	1543.625
1862.71876	1534.325
1865.86542	1548.025
1869.01003	1544.325
1872.15258	1527.625
1875.29308	1561.825
1878.43152	1564.925
1881.56792	1544.825
1884.70227	1534.025
1887.83457	1526.625
1890.96482	1496.725
1894.09304	1492.625
1897.21921	1493.925
1900.34335	1501.125
1903.46544	1478.525
1906.58551	1494.825
1909.70353	1492.725
1912.81953	1483.225
1915.93349	1479.725
1919.04543	1468.025
1922.15534	1449.125
1925.26322	1440.925
1928.36908	1415.225
1931.47292	1400.025
1934.57473	1395.125
1937.67453	1350.325
1940.77232	1324.525
1943.86808	1308.725
1946.96184	1318.325
1950.05358	1291.225
1953.14331	1285.525
1956.23103	1304.425
1959.31675	1282.025
1962.40046	1255.425
1965.48217	1301.425
1968.56188	1330.325
1971.63959	1329.225
1974.7153	1348.825
1977.78901	1330.125
1980.86073	1308.425
1983.93046	1257.125
1986.99819	1174.825
1990.06394	1187.425
1993.1277	1205.625
1996.18947	1198.625
1999.24925	1159.325
2002.30706	1169.525
2005.36288	1169.125
2008.41672	1155.125
2011.46859	1123.825
2014.51848	1122.425
2017.56639	1106.925
2020.61233	1102.125
2023.6563	1109.425
2026.6983	1075.625
2029.73833	1087.625
2032.7764	1103.625
2035.8125	1056.625
2038.84664	1074.225
2041.87881	1056.825
2044.90903	1073.425
2047.93729	1060.325
2050.96359	1041.525
2053.98794	1044.925
2057.01034	1043.625
2060.03078	1021.825
2063.04927	1005.925
2066.06582	1005.325
2069.08042	989.025
2072.09307	990.325
2075.10378	989.925
2078.11255	985.225
2081.11938	990.725
2084.12426	997.125
2087.12722	982.325
2090.12824	979.025
2093.12732	978.925
2096.12447	991.025
2099.11969	977.425
2102.11299	967.925
2105.10435	1000.725
2108.09379	989.325
2111.08131	981.425
2114.0669	993.725
2117.05057	1002.525
2120.03233	998.825
2123.01216	1028.525
2125.99008	1038.425
2128.96609	1047.625
2131.94018	1054.925
2134.91236	1035.125
2137.88263	1009.825
2140.851	1004.025
2143.81746	1005.225
2146.78201	973.625
2149.74466	956.125
2152.7054	959.625
2155.66425	932.425
2158.6212	919.425
2161.57625	891.325
2164.52941	878.425
2167.48067	895.225
2170.43004	897.125
2173.37752	912.525
2176.32311	917.325
2179.26681	924.925
2182.20863	933.425
2185.14856	923.125
2188.08661	924.425
2191.02278	931.725
2193.95707	889.025
2196.88948	875.025
2199.82001	884.125
2202.74867	874.825
2205.67545	866.825
2208.60037	881.625
2211.52341	877.825
2214.44458	868.525
2217.36388	866.325
2220.28132	852.725
2223.1969	844.025
2226.11061	843.725
2229.02246	839.425
2231.93245	837.125
2234.84058	824.525
2237.74686	822.525
2240.65128	816.925
2243.55385	833.825
2246.45456	815.425
2249.35343	852.125
2252.25044	850.525
2255.14561	873.325
2258.03893	902.825
2260.93041	919.525
2263.82004	922.925
2266.70783	931.725
2269.59378	920.125
2272.4779	912.725
2275.36017	924.125
2278.24061	915.525
2281.11922	883.225
2283.996	892.825
2286.87094	857.725
2289.74405	858.225
2292.61534	846.925
2295.4848	830.425
2298.35243	828.125
2301.21824	805.325
2304.08223	807.825
2306.94439	814.325
2309.80474	812.125
2312.66327	813.625
2315.51999	805.625
2318.37489	800.325
2321.22797	780.925
2324.07925	786.825
2326.92871	788.725
2329.77637	776.425
2332.62222	785.525
2335.46626	760.025
2338.3085	769.625
2341.14893	799.825
2343.98756	801.525
2346.8244	791.025
2349.65943	792.125
2352.49267	809.325
2355.32411	827.325
2358.15376	841.125
2360.98161	859.725
2363.80768	856.725
2366.63195	884.325
2369.45444	899.525
2372.27514	903.225
2375.09405	912.525
2377.91118	882.725
2380.72652	875.925
2383.54009	871.825
2386.35187	864.025
2389.16188	831.225
2391.97011	821.325
2394.77657	803.125
2397.58125	805.525
2400.38416	797.325
2403.18529	772.625
2405.98466	754.825
2408.78226	763.325
2411.57809	757.725
2414.37216	748.025
2417.16446	756.525
2419.955	742.825
2422.74378	759.025
2425.5308	746.925
2428.31606	763.825
2431.09956	768.525
2433.88131	755.825
2436.6613	777.925
2439.43954	781.625
2442.21603	782.725
2444.99077	785.925
2447.76377	803.225
2450.53501	807.325
2453.30451	803.225
2456.07226	819.525
2458.83827	807.425
2461.60254	772.825
2464.36507	810.625
2467.12586	792.225
2469.88492	803.125
2472.64224	809.825
2475.39782	801.225
2478.15167	821.025
2480.90379	839.725
2483.65417	874.125
2486.40283	890.125
2489.14976	906.325
2491.89497	898.025
2494.63845	908.025
2497.3802	889.425
2500.12024	889.325
2502.85855	869.025
2505.59514	854.225
2508.33002	837.025
2511.06318	787.825
2513.79462	781.825
2516.52435	722.625
2519.25237	689.125
2521.97867	680.925
2524.70327	674.725
2527.42616	669.625
2530.14734	671.025
2532.86681	655.525
2535.58458	658.825
2538.30065	656.425
2541.01501	676.125
2543.72768	669.525
2546.43864	678.825
2549.14791	689.625
2551.85548	688.025
2554.56136	690.625
2557.26554	704.225
2559.96803	709.325
2562.66883	716.325
2565.36794	707.625
2568.06536	692.225
2570.7611	721.425
2573.45514	707.825
2576.14751	697.625
2578.83819	690.025
2581.52719	685.725
2584.21451	683.225
2586.90015	667.625
2589.58411	652.125
2592.2664	665.925
2594.94701	668.725
2597.62594	672.825
2600.30321	624.625
2602.9788	642.225
2605.65273	639.725
2608.32498	654.225
2610.99557	680.625
2613.66449	646.725
2616.33175	674.125
2618.99734	669.825
2621.66128	669.725
2624.32355	663.725
2626.98416	646.525
2629.64311	635.625
2632.30041	628.225
2634.95605	611.725
2637.61004	595.025
2640.26238	581.225
2642.91306	578.225
2645.56209	598.625
2648.20948	589.625
2650.85521	577.525
2653.4993	598.025
2656.14175	596.725
2658.78255	602.325
2661.42171	571.025
2664.05923	619.225
2666.6951	625.625
2669.32934	642.125
2671.96194	659.525
2674.59291	638.825
2677.22224	646.425
2679.84993	643.325
2682.476	626.325
2685.10043	625.725
2687.72324	616.225
2690.34441	609.025
2692.96396	610.625
2695.58188	616.525
2698.19818	609.125
2700.81285	595.125
2703.4259	588.525
2706.03733	566.525
2708.64714	574.525
2711.25533	606.125
2713.86191	615.925
2716.46687	609.825
2719.07021	606.825
2721.67194	610.025
2724.27206	621.425
2726.87057	600.125
2729.46747	588.325
2732.06276	587.925
2734.65644	570.125
2737.24852	573.925
2739.83899	548.325
2742.42786	557.725
2745.01513	565.525
2747.60079	533.125
2750.18486	523.625
2752.76733	525.425
2755.3482	519.125
2757.92747	516.925
2760.50515	504.125
2763.08123	494.425
2765.65573	498.625
2768.22863	493.025
2770.79994	490.325
2773.36967	491.925
2775.9378	481.525
2778.50435	494.425
2781.06932	488.225
2783.6327	486.325
2786.1945	507.125
2788.75471	498.425
2791.31335	508.625
2793.87041	509.825
2796.42589	506.025
2798.97979	500.725
2801.53212	523.725
2804.08288	544.125
2806.63206	538.525
2809.17967	540.425
2811.72571	572.225
2814.27018	580.025
2816.81308	587.725
2819.35442	573.225
2821.89419	610.325
2824.43239	607.625
2826.96904	643.625
2829.50412	617.325
2832.03763	618.425
2834.56959	620.325
2837.1	597.625
2839.62884	592.425
2842.15613	585.825
2844.68186	591.725
2847.20604	577.125
2849.72867	579.925
2852.24974	596.325
2854.76927	587.025
2857.28724	555.025
2859.80367	631.825
2862.31855	656.825
2864.83189	656.025
2867.34368	682.625
2869.85393	705.525
2872.36264	691.725
2874.8698	698.925
2877.37543	699.325
2879.87952	688.725
2882.38207	652.525
2884.88308	658.525
2887.38256	647.525
2889.88051	628.225
2892.37692	624.925
2894.8718	600.825
2897.36515	621.025
2899.85698	618.025
2902.34727	614.225
2904.83604	638.725
2907.32328	659.125
2909.809	672.825
2912.29319	687.225
2914.77587	708.625
2917.25702	718.725
2919.73665	710.125
2922.21476	692.525
2924.69136	674.525
2927.16644	634.425
2929.64	626.725
2932.11205	601.625
2934.58258	607.125
2937.05161	597.525
2939.51912	598.725
2941.98513	607.225
2944.44962	592.625
2946.91261	573.225
2949.37409	583.825
2951.83407	579.725
2954.29254	590.225
2956.74951	595.925
2959.20498	587.025
2961.65895	585.325
2964.11142	586.925
2966.56239	581.825
2969.01186	575.225
2971.45984	568.025
2973.90632	559.925
2976.35131	577.925
2978.7948	573.525
2981.23681	572.025
2983.67732	579.225
2986.11635	584.925
2988.55388	561.925
2990.98993	579.725
2993.4245	573.025
2995.85758	571.125
2998.28917	570.725
3000.71928	575.325
3003.14791	579.625
3005.57506	574.225
3008.00073	558.425
3010.42493	506.125
3012.84764	569.325
3015.26888	563.325
3017.68865	559.325
3020.10694	517.925
3022.52376	535.625
3024.9391	538.525
3027.35298	523.025
3029.76539	503.525
3032.17632	501.925
3034.5858	483.525
3036.9938	482.125
3039.40034	465.225
3041.80542	449.025
3044.20903	428.125
3046.61118	424.025
3049.01187	438.225
3051.4111	423.925
3053.80888	418.825
3056.20519	420.425
3058.60005	402.225
3060.99345	432.425
3063.3854	412.725
3065.7759	403.225
3068.16494	400.725
3070.55254	396.325
3072.93868	406.325
3075.32338	400.225
3077.70662	393.725
3080.08842	388.025
3082.46878	369.225
3084.84769	397.525
3087.22515	372.925
3089.60118	389.425
3091.97576	368.225
3094.3489	380.825
3096.72061	372.025
3099.09087	355.425
3101.4597	372.625
3103.82709	360.225
3106.19305	347.125
3108.55757	362.925
3110.92066	355.125
3113.28232	369.925
3115.64255	374.825
3118.00134	369.225
3120.35871	359.225
3122.71466	352.725
3125.06917	357.625
3127.42226	361.425
3129.77393	343.825
3132.12417	362.325
3134.47299	372.425
3136.82039	356.525
3139.16636	331.325
3141.51092	360.425
3143.85406	369.325
3146.19579	354.025
3148.53609	354.625
3150.87499	363.925
3153.21246	359.725
3155.54853	371.825
3157.88318	372.925
3160.21642	367.825
3162.54826	366.325
3164.87868	371.225
3167.2077	328.325
3169.5353	346.325
3171.86151	358.725
3174.18631	338.425
3176.5097	329.225
3178.83169	335.225
3181.15228	327.125
3183.47147	307.525
3185.78926	293.225
3188.10565	306.525
3190.42065	289.025
3192.73424	300.925
3195.04645	298.425
3197.35725	288.725
3199.66667	306.425
3201.97469	301.225
3204.28132	289.525
3206.58656	307.325
3208.8904	318.225
3211.19287	307.425
3213.49394	304.525
3215.79363	303.925
3218.09193	314.725
3220.38884	316.325
3222.68438	311.725
3224.97853	296.325
3227.2713	314.825
3229.56269	302.525
3231.8527	305.325
3234.14133	293.525
3236.42858	291.925
3238.71446	275.725
3240.99896	296.025
3243.28209	272.425
3245.56384	291.625
3247.84423	280.325
3250.12324	295.625
3252.40088	283.925
3254.67715	278.825
3256.95205	271.925
3259.22558	281.925
3261.49775	281.425
3263.76855	279.725
3266.03799	284.225
3268.30606	289.725
3270.57277	289.425
3272.83812	280.025
3275.10211	290.025
3277.36474	312.525
3279.62601	311.525
3281.88593	295.225
