Data from AgNPs_UA_5uM_CRN_500uM_SU_RamanShift__285__12-16-53-196.txt Node

Date: Thu Aug 04 12:16:53 BST 2022
User: TCL
Spectrometer: QEP01345
Trigger mode: 4
Integration Time (sec): 1.000000E0
Scans to average: 10
Electric dark correction enabled: true
Nonlinearity correction enabled: false
Boxcar width: 0
XAxis mode: Raman Shifts
Number of Pixels in Spectrum: 1044
>>>>>Begin Spectral Data<<<<<
46.04893	0.725
50.45542	0.125
54.85868	0.625
59.25871	-2.175
63.6555	-59.275
68.04907	-39.675
72.43941	-71.275
76.82654	-57.975
81.21044	-57.675
85.59113	-51.175
89.96862	-76.275
94.34289	-55.375
98.71396	-79.275
103.08183	-57.375
107.4465	-49.775
111.80798	-57.775
116.16626	-44.975
120.52136	-75.775
124.87327	-49.975
129.222	-64.275
133.56755	-51.375
137.90993	-62.975
142.24913	-52.975
146.58517	-44.075
150.91804	-40.975
155.24774	-29.875
159.57429	-9.175
163.89768	-6.075
168.21792	37.825
172.53501	56.725
176.84895	142.325
181.15975	274.225
185.46741	419.625
189.77193	597.225
194.07331	894.825
198.37157	1182.025
202.6667	1463.425
206.9587	1776.825
211.24758	2101.025
215.53334	2421.125
219.81599	2798.025
224.09553	3173.325
228.37195	3614.625
232.64527	4080.125
236.91549	4549.925
241.18261	4905.025
245.44663	5170.525
249.70755	5352.225
253.96539	5470.525
258.22014	5568.425
262.4718	5642.325
266.72039	5675.625
270.96589	5670.425
275.20832	5563.425
279.44768	5454.325
283.68397	5360.925
287.91719	5303.625
292.14735	5358.425
296.37445	5514.425
300.59849	5820.525
304.81948	6163.425
309.03742	6544.225
313.25231	6786.925
317.46415	6745.225
321.67296	6369.625
325.87872	5940.725
330.08145	5730.825
334.28114	5687.625
338.47781	5746.925
342.67145	5863.025
346.86207	6126.425
351.04966	6490.425
355.23424	6858.225
359.4158	7094.525
363.59435	7167.325
367.76989	7135.025
371.94243	6971.525
376.11196	6842.525
380.27849	6774.625
384.44203	6685.125
388.60257	6670.525
392.76012	6689.425
396.91468	6789.225
401.06626	6952.725
405.21485	6975.625
409.36047	6812.125
413.50311	6485.425
417.64277	6164.425
421.77947	5967.325
425.9132	5907.725
430.04396	5901.125
434.17176	5916.225
438.2966	6021.725
442.41849	6104.125
446.53742	6215.725
450.6534	6316.725
454.76644	6402.825
458.87653	6379.125
462.98368	6351.125
467.08789	6273.525
471.18916	6170.225
475.2875	6051.325
479.38291	5933.525
483.4754	5867.425
487.56496	5802.925
491.6516	5780.725
495.73531	5792.225
499.81612	5812.425
503.89401	5904.425
507.96899	5959.425
512.04106	6050.825
516.11023	6140.425
520.1765	6213.425
524.23987	6246.625
528.30034	6255.825
532.35792	6159.425
536.41261	6096.125
540.46441	5996.825
544.51333	5944.525
548.55936	6017.125
552.60252	6135.925
556.64279	6257.025
560.6802	6374.125
564.71473	6487.625
568.7464	6675.625
572.7752	6668.825
576.80114	6343.125
580.82422	6143.125
584.84444	6039.925
588.86181	6016.525
592.87633	6042.225
596.888	6161.825
600.89682	6522.125
604.9028	7529.925
608.90594	9702.425
612.90624	12089.625
616.90371	11180.825
620.89834	8045.625
624.89015	6652.025
628.87913	6430.625
632.86528	6597.125
636.84862	6751.125
640.82913	6608.525
644.80683	6280.425
648.78172	6079.825
652.75379	6081.925
656.72306	6327.325
660.68952	6573.625
664.65319	6473.925
668.61405	6230.725
672.57211	6168.725
676.52738	6167.025
680.47986	6059.025
684.42955	5968.725
688.37646	5906.825
692.32058	5934.125
696.26192	6006.725
700.20048	6101.925
704.13626	6142.725
708.06928	6091.725
711.99952	6037.125
715.927	6030.925
719.85171	6084.125
723.77365	6122.725
727.69284	6092.225
731.60928	6071.725
735.52295	6046.625
739.43388	6098.525
743.34206	6088.225
747.24749	6129.825
751.15017	6155.425
755.05012	6231.125
758.94733	6614.125
762.8418	7506.225
766.73354	8889.925
770.62254	9962.225
774.50882	10050.725
778.39237	9479.625
782.27321	8510.325
786.15132	7419.525
790.02671	6714.725
793.89938	6335.525
797.76935	6181.525
801.6366	6080.525
805.50115	6049.325
809.36299	6030.525
813.22213	6028.225
817.07857	6017.525
820.93231	6012.625
824.78336	6049.825
828.63172	6076.225
832.47738	6072.525
836.32036	6055.125
840.16066	6031.825
843.99827	6007.825
847.8332	5999.825
851.66546	6012.325
855.49504	6012.725
859.32195	6045.025
863.1462	6038.725
866.96777	6042.425
870.78668	6014.825
874.60293	6035.725
878.41652	6044.825
882.22745	6141.025
886.03573	6164.525
889.84136	6145.225
893.64433	6178.025
897.44466	6144.925
901.24235	6142.025
905.0374	6162.225
908.8298	6074.925
912.61957	6055.325
916.40671	6014.725
920.19121	6064.125
923.97308	6145.825
927.75233	6228.225
931.52895	6284.125
935.30295	6232.925
939.07433	6076.525
942.84309	5956.325
946.60924	5930.825
950.37278	5894.725
954.13371	5909.325
957.89203	5884.225
961.64774	5908.725
965.40086	5887.425
969.15137	5869.025
972.89929	5903.725
976.64461	5899.525
980.38733	5899.425
984.12747	5897.825
987.86502	5909.325
991.59999	5936.925
995.33237	6014.125
999.06217	6080.625
1002.78939	6171.925
1006.51404	6275.925
1010.23611	6401.925
1013.95561	6446.225
1017.67255	6440.925
1021.38692	6421.825
1025.09872	6350.825
1028.80796	6263.225
1032.51465	6265.425
1036.21877	6248.625
1039.92035	6314.025
1043.61937	6334.125
1047.31584	6394.825
1051.00976	6450.825
1054.70114	6439.525
1058.38998	6435.625
1062.07627	6458.425
1065.76003	6466.825
1069.44126	6553.325
1073.11995	6632.525
1076.79611	6776.725
1080.46974	6922.125
1084.14085	7100.125
1087.80943	7236.425
1091.47549	7284.825
1095.13903	7158.325
1098.80005	7044.725
1102.45857	6934.225
1106.11456	6918.125
1109.76805	6856.825
1113.41903	6981.125
1117.06751	7163.025
1120.71348	7427.325
1124.35696	7824.425
1127.99793	8105.625
1131.63641	7953.825
1135.2724	7530.425
1138.90589	7215.625
1142.5369	7017.625
1146.16542	6912.825
1149.79145	6785.825
1153.415	6730.625
1157.03607	6754.225
1160.65467	6849.525
1164.27079	7070.225
1167.88443	7357.825
1171.49561	7806.825
1175.10432	8444.025
1178.71056	9390.325
1182.31434	10224.225
1185.91565	10520.225
1189.51451	10351.425
1193.11091	10077.425
1196.70485	9840.425
1200.29634	9550.625
1203.88538	9250.825
1207.47197	8770.825
1211.05612	8256.925
1214.63782	7835.625
1218.21708	7559.525
1221.79391	7429.425
1225.36829	7341.725
1228.94024	7343.525
1232.50976	7356.125
1236.07685	7382.825
1239.6415	7405.925
1243.20374	7416.825
1246.76355	7462.625
1250.32093	7529.125
1253.8759	7603.725
1257.42845	7773.625
1260.97859	7993.025
1264.52631	8222.525
1268.07163	8398.225
1271.61453	8536.125
1275.15503	8598.625
1278.69312	8593.025
1282.22882	8670.025
1285.76211	8871.025
1289.29301	9128.725
1292.82151	9396.525
1296.34761	9616.025
1299.87133	10025.625
1303.39266	10781.325
1306.9116	11972.625
1310.42815	13234.025
1313.94233	13679.025
1317.45412	12879.725
1320.96354	11710.725
1324.47058	10690.325
1327.97525	9867.525
1331.47754	9440.325
1334.97747	9315.725
1338.47502	9417.125
1341.97022	9819.625
1345.46305	10587.825
1348.95352	11740.825
1352.44163	13122.425
1355.92738	14580.625
1359.41078	16339.025
1362.89183	17901.925
1366.37053	17287.225
1369.84688	14326.725
1373.32088	11498.025
1376.79254	9959.425
1380.26186	9236.425
1383.72883	8791.525
1387.19347	8376.625
1390.65578	8000.325
1394.11575	7744.025
1397.57339	7565.025
1401.0287	7442.125
1404.48168	7395.725
1407.93234	7415.325
1411.38068	7457.825
1414.82669	7505.525
1418.27039	7605.325
1421.71177	7588.225
1425.15083	7477.625
1428.58758	7400.725
1432.02203	7425.625
1435.45416	7513.025
1438.88399	7508.625
1442.31151	7480.925
1445.73673	7529.425
1449.15965	7604.425
1452.58027	7613.425
1455.9986	7617.325
1459.41463	7644.725
1462.82837	7741.425
1466.23982	7952.225
1469.64898	8157.925
1473.05586	8299.225
1476.46045	8405.525
1479.86276	8508.125
1483.26279	8605.425
1486.66054	8809.825
1490.05602	9145.325
1493.44922	9726.425
1496.84016	10640.025
1500.22882	12076.425
1503.61521	13927.425
1506.99934	15824.425
1510.38121	17061.425
1513.76081	16871.925
1517.13816	15226.825
1520.51324	13001.625
1523.88607	11215.825
1527.25665	10178.825
1530.62498	9655.625
1533.99105	9457.625
1537.35488	9329.125
1540.71647	9194.125
1544.07581	9070.025
1547.4329	8915.425
1550.78776	8760.025
1554.14038	8693.425
1557.49077	8657.825
1560.83892	8744.525
1564.18484	8999.225
1567.52853	9347.625
1570.86999	9699.425
1574.20922	9886.125
1577.54624	9730.825
1580.88103	9186.325
1584.2136	8456.225
1587.54395	8067.425
1590.87208	7985.325
1594.19801	8139.725
1597.52172	8516.125
1600.84321	8667.525
1604.16251	8517.225
1607.47959	8307.325
1610.79447	8103.525
1614.10715	7829.625
1617.41763	7525.525
1620.7259	7220.425
1624.03199	7066.625
1627.33587	7010.425
1630.63757	7057.825
1633.93707	7268.125
1637.23439	7702.125
1640.52951	8418.825
1643.82246	9448.825
1647.11321	10664.025
1650.40179	11405.325
1653.68819	11096.925
1656.97241	9817.125
1660.25446	8349.425
1663.53433	7308.725
1666.81203	6655.025
1670.08756	6309.725
1673.36092	6125.025
1676.63211	5980.925
1679.90115	5864.925
1683.16801	5797.825
1686.43272	5710.925
1689.69527	5676.225
1692.95567	5626.925
1696.2139	5607.625
1699.46999	5543.625
1702.72392	5527.925
1705.97571	5543.825
1709.22535	5525.125
1712.47284	5570.325
1715.71819	5576.925
1718.96139	5568.925
1722.20246	5547.725
1725.44139	5526.725
1728.67818	5482.325
1731.91284	5443.425
1735.14537	5416.725
1738.37576	5372.225
1741.60403	5372.325
1744.83017	5323.625
1748.05418	5336.425
1751.27607	5315.725
1754.49584	5285.625
1757.71349	5251.325
1760.92903	5259.925
1764.14244	5195.425
1767.35375	5225.425
1770.56294	5204.525
1773.77002	5189.325
1776.97499	5201.725
1780.17785	5174.325
1783.37861	5160.925
1786.57727	5171.525
1789.77382	5109.825
1792.96828	5137.425
1796.16064	5149.525
1799.3509	5132.825
1802.53907	5129.025
1805.72514	5100.025
1808.90913	5079.225
1812.09102	5077.225
1815.27083	5062.225
1818.44856	5038.725
1821.6242	5045.325
1824.79776	5005.725
1827.96924	5017.925
1831.13864	4993.725
1834.30597	5004.125
1837.47122	4985.825
1840.6344	4962.725
1843.7955	4958.925
1846.95454	4950.025
1850.11151	4972.425
1853.26642	4935.225
1856.41926	4920.025
1859.57004	4933.225
1862.71876	4922.225
1865.86542	4933.825
1869.01003	4901.125
1872.15258	4880.925
1875.29308	4906.925
1878.43152	4920.425
1881.56792	4898.625
1884.70227	4874.725
1887.83457	4878.925
1890.96482	4843.325
1894.09304	4859.525
1897.21921	4841.925
1900.34335	4852.625
1903.46544	4824.925
1906.58551	4835.225
1909.70353	4840.525
1912.81953	4816.525
1915.93349	4815.825
1919.04543	4802.225
1922.15534	4793.825
1925.26322	4793.425
1928.36908	4756.825
1931.47292	4762.125
1934.57473	4771.125
1937.67453	4734.725
1940.77232	4711.025
1943.86808	4700.425
1946.96184	4706.225
1950.05358	4682.025
1953.14331	4674.925
1956.23103	4656.025
1959.31675	4626.925
1962.40046	4591.425
1965.48217	4601.725
1968.56188	4600.625
1971.63959	4583.225
1974.7153	4581.925
1977.78901	4563.525
1980.86073	4540.025
1983.93046	4511.625
1986.99819	4448.925
1990.06394	4470.725
1993.1277	4482.225
1996.18947	4451.725
1999.24925	4415.425
2002.30706	4422.525
2005.36288	4413.525
2008.41672	4396.525
2011.46859	4375.725
2014.51848	4365.825
2017.56639	4334.325
2020.61233	4330.225
2023.6563	4323.625
2026.6983	4291.425
2029.73833	4290.825
2032.7764	4299.625
2035.8125	4233.625
2038.84664	4243.125
2041.87881	4228.725
2044.90903	4239.325
2047.93729	4234.225
2050.96359	4207.725
2053.98794	4203.225
2057.01034	4217.225
2060.03078	4198.225
2063.04927	4183.525
2066.06582	4193.225
2069.08042	4164.925
2072.09307	4162.125
2075.10378	4163.225
2078.11255	4166.325
2081.11938	4177.525
2084.12426	4156.825
2087.12722	4149.225
2090.12824	4150.425
2093.12732	4153.325
2096.12447	4159.525
2099.11969	4154.625
2102.11299	4146.325
2105.10435	4169.925
2108.09379	4150.325
2111.08131	4160.325
2114.0669	4151.825
2117.05057	4139.625
2120.03233	4137.525
2123.01216	4167.125
2125.99008	4151.525
2128.96609	4158.025
2131.94018	4193.325
2134.91236	4163.125
2137.88263	4172.925
2140.851	4168.925
2143.81746	4184.625
2146.78201	4169.025
2149.74466	4155.525
2152.7054	4164.825
2155.66425	4151.825
2158.6212	4136.525
2161.57625	4126.825
2164.52941	4107.925
2167.48067	4113.225
2170.43004	4120.625
2173.37752	4134.325
2176.32311	4120.625
2179.26681	4107.125
2182.20863	4126.325
2185.14856	4122.625
2188.08661	4113.025
2191.02278	4127.325
2193.95707	4097.525
2196.88948	4082.425
2199.82001	4112.025
2202.74867	4082.925
2205.67545	4083.625
2208.60037	4094.825
2211.52341	4078.025
2214.44458	4061.325
2217.36388	4043.725
2220.28132	4044.425
2223.1969	4012.325
2226.11061	4023.125
2229.02246	4006.925
2231.93245	4003.225
2234.84058	3985.825
2237.74686	3987.725
2240.65128	3966.025
2243.55385	3968.825
2246.45456	3951.725
2249.35343	3976.225
2252.25044	3939.725
2255.14561	3974.925
2258.03893	3971.925
2260.93041	3940.225
2263.82004	3931.225
2266.70783	3932.125
2269.59378	3926.325
2272.4779	3884.825
2275.36017	3906.425
2278.24061	3890.725
2281.11922	3843.725
2283.996	3860.425
2286.87094	3846.825
2289.74405	3861.825
2292.61534	3835.825
2295.4848	3849.925
2298.35243	3833.625
2301.21824	3814.525
2304.08223	3825.325
2306.94439	3830.225
2309.80474	3826.025
2312.66327	3817.025
2315.51999	3805.125
2318.37489	3798.525
2321.22797	3765.225
2324.07925	3762.325
2326.92871	3764.925
2329.77637	3746.025
2332.62222	3761.225
2335.46626	3712.625
2338.3085	3705.825
2341.14893	3722.825
2343.98756	3738.225
2346.8244	3717.225
2349.65943	3714.325
2352.49267	3702.025
2355.32411	3728.825
2358.15376	3703.925
2360.98161	3717.725
2363.80768	3702.025
2366.63195	3703.825
2369.45444	3724.925
2372.27514	3716.225
2375.09405	3726.525
2377.91118	3687.325
2380.72652	3683.225
2383.54009	3671.025
2386.35187	3677.825
2389.16188	3657.025
2391.97011	3647.625
2394.77657	3637.525
2397.58125	3620.925
2400.38416	3630.425
2403.18529	3606.225
2405.98466	3601.725
2408.78226	3596.025
2411.57809	3596.025
2414.37216	3584.425
2417.16446	3571.625
2419.955	3553.925
2422.74378	3575.025
2425.5308	3538.825
2428.31606	3555.225
2431.09956	3556.025
2433.88131	3539.425
2436.6613	3543.525
2439.43954	3536.325
2442.21603	3520.725
2444.99077	3524.125
2447.76377	3534.325
2450.53501	3520.125
2453.30451	3519.525
2456.07226	3525.825
2458.83827	3503.425
2461.60254	3474.425
2464.36507	3503.025
2467.12586	3501.625
2469.88492	3503.825
2472.64224	3498.725
2475.39782	3448.125
2478.15167	3487.825
2480.90379	3469.225
2483.65417	3490.725
2486.40283	3503.125
2489.14976	3486.425
2491.89497	3485.425
2494.63845	3474.625
2497.3802	3478.625
2500.12024	3476.225
2502.85855	3457.825
2505.59514	3463.025
2508.33002	3459.425
2511.06318	3427.625
2513.79462	3422.225
2516.52435	3394.225
2519.25237	3375.225
2521.97867	3373.725
2524.70327	3371.425
2527.42616	3377.125
2530.14734	3394.825
2532.86681	3356.225
2535.58458	3362.225
2538.30065	3357.825
2541.01501	3364.925
2543.72768	3340.025
2546.43864	3340.125
2549.14791	3331.025
2551.85548	3315.325
2554.56136	3320.025
2557.26554	3326.225
2559.96803	3328.625
2562.66883	3313.825
2565.36794	3293.125
2568.06536	3274.025
2570.7611	3284.025
2573.45514	3274.225
2576.14751	3266.725
2578.83819	3251.925
2581.52719	3238.925
2584.21451	3244.925
2586.90015	3224.425
2589.58411	3200.125
2592.2664	3230.725
2594.94701	3217.525
2597.62594	3230.525
2600.30321	3153.525
2602.9788	3174.025
2605.65273	3164.725
2608.32498	3178.325
2610.99557	3187.825
2613.66449	3161.725
2616.33175	3167.125
2618.99734	3170.025
2621.66128	3176.025
2624.32355	3155.425
2626.98416	3135.925
2629.64311	3128.425
2632.30041	3129.025
2634.95605	3115.825
2637.61004	3102.525
2640.26238	3086.025
2642.91306	3084.025
2645.56209	3091.125
2648.20948	3090.025
2650.85521	3078.525
2653.4993	3100.425
2656.14175	3099.825
2658.78255	3083.525
2661.42171	3056.325
2664.05923	3091.925
2666.6951	3100.525
2669.32934	3100.325
2671.96194	3110.225
2674.59291	3097.925
2677.22224	3101.225
2679.84993	3098.725
2682.476	3069.725
2685.10043	3088.425
2687.72324	3072.425
2690.34441	3057.425
2692.96396	3063.325
2695.58188	3082.725
2698.19818	3077.525
2700.81285	3058.025
2703.4259	3047.425
2706.03733	3024.425
2708.64714	3033.825
2711.25533	3051.825
2713.86191	3059.625
2716.46687	3050.825
2719.07021	3055.225
2721.67194	3053.725
2724.27206	3068.425
2726.87057	3045.425
2729.46747	3049.425
2732.06276	3044.925
2734.65644	3035.125
2737.24852	3029.725
2739.83899	3008.525
2742.42786	3019.025
2745.01513	3020.625
2747.60079	3011.225
2750.18486	2982.825
2752.76733	3000.825
2755.3482	2982.025
2757.92747	2983.425
2760.50515	2966.625
2763.08123	2973.225
2765.65573	2979.025
2768.22863	2954.125
2770.79994	2935.325
2773.36967	2950.425
2775.9378	2940.425
2778.50435	2922.925
2781.06932	2929.025
2783.6327	2923.025
2786.1945	2923.925
2788.75471	2923.725
2791.31335	2916.825
2793.87041	2927.125
2796.42589	2900.925
2798.97979	2890.625
2801.53212	2888.425
2804.08288	2904.725
2806.63206	2885.025
2809.17967	2871.225
2811.72571	2870.725
2814.27018	2864.825
2816.81308	2859.125
2819.35442	2829.325
2821.89419	2848.225
2824.43239	2825.525
2826.96904	2869.925
2829.50412	2834.425
2832.03763	2843.225
2834.56959	2835.225
2837.1	2821.525
2839.62884	2829.225
2842.15613	2817.125
2844.68186	2843.225
2847.20604	2794.025
2849.72867	2791.025
2852.24974	2804.725
2854.76927	2775.925
2857.28724	2741.825
2859.80367	2791.625
2862.31855	2794.625
2864.83189	2788.625
2867.34368	2785.425
2869.85393	2806.425
2872.36264	2771.825
2874.8698	2776.825
2877.37543	2779.325
2879.87952	2772.725
2882.38207	2756.725
2884.88308	2761.825
2887.38256	2763.525
2889.88051	2746.525
2892.37692	2755.825
2894.8718	2721.725
2897.36515	2753.225
2899.85698	2745.825
2902.34727	2746.525
2904.83604	2742.325
2907.32328	2771.725
2909.809	2764.925
2912.29319	2770.625
2914.77587	2765.925
2917.25702	2784.825
2919.73665	2780.925
2922.21476	2778.625
2924.69136	2786.225
2927.16644	2768.525
2929.64	2761.025
2932.11205	2745.225
2934.58258	2747.425
2937.05161	2738.525
2939.51912	2737.125
2941.98513	2751.725
2944.44962	2726.025
2946.91261	2689.525
2949.37409	2715.225
2951.83407	2701.625
2954.29254	2703.725
2956.74951	2692.125
2959.20498	2680.025
2961.65895	2681.625
2964.11142	2671.725
2966.56239	2673.725
2969.01186	2679.325
2971.45984	2676.025
2973.90632	2674.625
2976.35131	2664.025
2978.7948	2655.625
2981.23681	2646.625
2983.67732	2655.725
2986.11635	2654.225
2988.55388	2626.425
2990.98993	2613.625
2993.4245	2608.925
2995.85758	2617.825
2998.28917	2597.525
3000.71928	2591.225
3003.14791	2590.225
3005.57506	2567.325
3008.00073	2559.525
3010.42493	2496.525
3012.84764	2552.825
3015.26888	2563.425
3017.68865	2553.525
3020.10694	2512.125
3022.52376	2518.025
3024.9391	2522.225
3027.35298	2515.025
3029.76539	2496.625
3032.17632	2504.625
3034.5858	2492.725
3036.9938	2497.825
3039.40034	2483.225
3041.80542	2476.725
3044.20903	2461.625
3046.61118	2454.725
3049.01187	2464.325
3051.4111	2455.125
3053.80888	2434.325
3056.20519	2440.825
3058.60005	2407.625
3060.99345	2450.025
3063.3854	2412.125
3065.7759	2393.025
3068.16494	2396.625
3070.55254	2392.325
3072.93868	2412.025
3075.32338	2388.325
3077.70662	2380.225
3080.08842	2357.625
3082.46878	2352.025
3084.84769	2373.325
3087.22515	2346.225
3089.60118	2380.925
3091.97576	2345.125
3094.3489	2362.225
3096.72061	2345.125
3099.09087	2342.725
3101.4597	2352.725
3103.82709	2343.625
3106.19305	2326.625
3108.55757	2338.225
3110.92066	2317.625
3113.28232	2328.325
3115.64255	2330.625
3118.00134	2310.725
3120.35871	2305.125
3122.71466	2291.525
3125.06917	2293.725
3127.42226	2279.425
3129.77393	2265.925
3132.12417	2282.125
3134.47299	2280.825
3136.82039	2266.225
3139.16636	2240.625
3141.51092	2255.925
3143.85406	2267.525
3146.19579	2246.725
3148.53609	2246.925
3150.87499	2249.525
3153.21246	2244.825
3155.54853	2251.325
3157.88318	2253.725
3160.21642	2242.925
3162.54826	2247.625
3164.87868	2235.025
3167.2077	2196.025
3169.5353	2222.425
3171.86151	2231.025
3174.18631	2230.225
3176.5097	2209.025
3178.83169	2228.625
3181.15228	2211.625
3183.47147	2206.525
3185.78926	2184.425
3188.10565	2181.725
3190.42065	2173.125
3192.73424	2193.525
3195.04645	2184.725
3197.35725	2159.625
3199.66667	2169.125
3201.97469	2173.525
3204.28132	2152.625
3206.58656	2173.325
3208.8904	2171.625
3211.19287	2165.425
3213.49394	2151.925
3215.79363	2154.625
3218.09193	2164.525
3220.38884	2141.425
3222.68438	2157.325
3224.97853	2122.225
3227.2713	2156.525
3229.56269	2139.125
3231.8527	2134.525
3234.14133	2125.625
