Data from AgNPs_UA_5uM_CRN_500uM_SU_RamanShift__164__11-56-43-172.txt Node

Date: Thu Aug 04 11:56:43 BST 2022
User: TCL
Spectrometer: QEP01345
Trigger mode: 4
Integration Time (sec): 1.000000E0
Scans to average: 10
Electric dark correction enabled: true
Nonlinearity correction enabled: false
Boxcar width: 0
XAxis mode: Raman Shifts
Number of Pixels in Spectrum: 1044
>>>>>Begin Spectral Data<<<<<
46.04893	-0.175
50.45542	0.025
54.85868	0.625
59.25871	-0.675
63.6555	-58.675
68.04907	-39.875
72.43941	-72.075
76.82654	-57.475
81.21044	-56.875
85.59113	-49.175
89.96862	-75.975
94.34289	-53.775
98.71396	-77.675
103.08183	-57.575
107.4465	-51.175
111.80798	-54.175
116.16626	-44.175
120.52136	-72.275
124.87327	-50.475
129.222	-62.775
133.56755	-50.575
137.90993	-63.975
142.24913	-53.675
146.58517	-43.075
150.91804	-41.375
155.24774	-29.875
159.57429	-9.075
163.89768	-7.375
168.21792	39.025
172.53501	59.725
176.84895	141.325
181.15975	276.425
185.46741	425.325
189.77193	612.425
194.07331	902.325
198.37157	1191.025
202.6667	1481.825
206.9587	1805.025
211.24758	2129.525
215.53334	2450.025
219.81599	2819.725
224.09553	3222.325
228.37195	3662.525
232.64527	4115.725
236.91549	4602.625
241.18261	4969.625
245.44663	5254.325
249.70755	5458.225
253.96539	5586.525
258.22014	5673.425
262.4718	5755.325
266.72039	5775.825
270.96589	5766.125
275.20832	5650.525
279.44768	5537.625
283.68397	5430.525
287.91719	5370.525
292.14735	5390.525
296.37445	5538.325
300.59849	5850.825
304.81948	6188.625
309.03742	6542.525
313.25231	6789.725
317.46415	6727.325
321.67296	6335.925
325.87872	5933.225
330.08145	5751.625
334.28114	5709.925
338.47781	5770.125
342.67145	5937.025
346.86207	6168.625
351.04966	6531.625
355.23424	6924.325
359.4158	7189.025
363.59435	7241.725
367.76989	7151.325
371.94243	7034.525
376.11196	6920.225
380.27849	6848.725
384.44203	6768.525
388.60257	6738.925
392.76012	6738.025
396.91468	6855.125
401.06626	7015.325
405.21485	7058.725
409.36047	6894.825
413.50311	6581.125
417.64277	6314.925
421.77947	6100.825
425.9132	6027.025
430.04396	6006.325
434.17176	6068.825
438.2966	6158.225
442.41849	6233.625
446.53742	6339.425
450.6534	6468.825
454.76644	6542.125
458.87653	6559.125
462.98368	6504.225
467.08789	6455.025
471.18916	6374.425
475.2875	6289.225
479.38291	6177.025
483.4754	6045.525
487.56496	6041.925
491.6516	5975.925
495.73531	5977.325
499.81612	5999.325
503.89401	6098.525
507.96899	6143.525
512.04106	6244.625
516.11023	6353.725
520.1765	6454.125
524.23987	6457.925
528.30034	6464.825
532.35792	6377.825
536.41261	6343.925
540.46441	6234.925
544.51333	6189.325
548.55936	6237.725
552.60252	6339.925
556.64279	6472.325
560.6802	6608.125
564.71473	6716.925
568.7464	6913.325
572.7752	6899.625
576.80114	6570.225
580.82422	6328.025
584.84444	6212.325
588.86181	6229.825
592.87633	6256.325
596.888	6378.425
600.89682	6724.925
604.9028	7674.825
608.90594	9739.925
612.90624	12064.925
616.90371	11206.225
620.89834	8180.525
624.89015	6879.925
628.87913	6680.325
632.86528	6840.225
636.84862	6981.925
640.82913	6888.025
644.80683	6537.725
648.78172	6353.125
652.75379	6384.125
656.72306	6626.225
660.68952	6856.025
664.65319	6766.225
668.61405	6553.325
672.57211	6469.425
676.52738	6488.925
680.47986	6376.025
684.42955	6299.925
688.37646	6258.125
692.32058	6242.325
696.26192	6322.125
700.20048	6425.525
704.13626	6465.125
708.06928	6427.625
711.99952	6372.825
715.927	6355.625
719.85171	6395.525
723.77365	6468.425
727.69284	6409.425
731.60928	6402.025
735.52295	6390.225
739.43388	6422.425
743.34206	6450.825
747.24749	6462.625
751.15017	6466.325
755.05012	6548.725
758.94733	6926.225
762.8418	7732.925
766.73354	9052.125
770.62254	9992.025
774.50882	10097.625
778.39237	9600.325
782.27321	8710.025
786.15132	7664.225
790.02671	7020.325
793.89938	6639.425
797.76935	6530.225
801.6366	6423.725
805.50115	6381.125
809.36299	6375.025
813.22213	6377.225
817.07857	6386.725
820.93231	6371.925
824.78336	6424.325
828.63172	6431.425
832.47738	6452.625
836.32036	6439.225
840.16066	6402.525
843.99827	6391.125
847.8332	6382.125
851.66546	6384.725
855.49504	6403.225
859.32195	6446.025
863.1462	6424.625
866.96777	6407.025
870.78668	6410.725
874.60293	6440.625
878.41652	6472.925
882.22745	6543.325
886.03573	6572.125
889.84136	6550.025
893.64433	6574.825
897.44466	6535.825
901.24235	6523.825
905.0374	6543.825
908.8298	6472.925
912.61957	6462.425
916.40671	6414.625
920.19121	6471.825
923.97308	6557.525
927.75233	6584.125
931.52895	6682.425
935.30295	6655.025
939.07433	6487.725
942.84309	6362.325
946.60924	6350.925
950.37278	6301.125
954.13371	6316.825
957.89203	6318.025
961.64774	6299.125
965.40086	6291.025
969.15137	6268.425
972.89929	6322.125
976.64461	6293.625
980.38733	6340.925
984.12747	6327.425
987.86502	6348.325
991.59999	6379.425
995.33237	6455.625
999.06217	6518.625
1002.78939	6602.225
1006.51404	6723.425
1010.23611	6849.425
1013.95561	6886.325
1017.67255	6903.925
1021.38692	6886.725
1025.09872	6808.525
1028.80796	6735.425
1032.51465	6734.525
1036.21877	6712.125
1039.92035	6777.525
1043.61937	6795.325
1047.31584	6856.225
1051.00976	6871.325
1054.70114	6885.025
1058.38998	6863.025
1062.07627	6894.225
1065.76003	6923.525
1069.44126	7019.025
1073.11995	7085.325
1076.79611	7194.225
1080.46974	7365.325
1084.14085	7503.625
1087.80943	7629.625
1091.47549	7668.725
1095.13903	7604.925
1098.80005	7479.625
1102.45857	7401.125
1106.11456	7346.125
1109.76805	7275.525
1113.41903	7392.125
1117.06751	7563.825
1120.71348	7799.225
1124.35696	8183.925
1127.99793	8465.925
1131.63641	8300.625
1135.2724	7903.625
1138.90589	7622.825
1142.5369	7420.825
1146.16542	7329.525
1149.79145	7210.025
1153.415	7174.525
1157.03607	7168.025
1160.65467	7264.125
1164.27079	7440.725
1167.88443	7669.825
1171.49561	8077.025
1175.10432	8681.625
1178.71056	9537.525
1182.31434	10298.125
1185.91565	10548.425
1189.51451	10388.525
1193.11091	10175.025
1196.70485	9932.425
1200.29634	9735.225
1203.88538	9439.125
1207.47197	9014.025
1211.05612	8596.725
1214.63782	8195.325
1218.21708	7962.725
1221.79391	7830.525
1225.36829	7733.125
1228.94024	7749.225
1232.50976	7731.925
1236.07685	7751.125
1239.6415	7776.925
1243.20374	7807.425
1246.76355	7841.225
1250.32093	7918.525
1253.8759	8007.125
1257.42845	8187.725
1260.97859	8378.025
1264.52631	8617.625
1268.07163	8765.525
1271.61453	8873.125
1275.15503	8913.825
1278.69312	8915.625
1282.22882	8977.825
1285.76211	9201.425
1289.29301	9439.725
1292.82151	9697.325
1296.34761	9912.125
1299.87133	10288.825
1303.39266	10994.225
1306.9116	12099.025
1310.42815	13328.325
1313.94233	13755.925
1317.45412	12945.725
1320.96354	11850.725
1324.47058	10825.725
1327.97525	10106.525
1331.47754	9723.125
1334.97747	9638.125
1338.47502	9751.425
1341.97022	10086.325
1345.46305	10799.525
1348.95352	11861.725
1352.44163	13079.925
1355.92738	14375.125
1359.41078	15919.425
1362.89183	17405.525
1366.37053	16744.625
1369.84688	13981.225
1373.32088	11404.325
1376.79254	10083.825
1380.26186	9479.325
1383.72883	9070.825
1387.19347	8691.725
1390.65578	8323.925
1394.11575	8120.125
1397.57339	7989.825
1401.0287	7860.325
1404.48168	7809.125
1407.93234	7850.125
1411.38068	7865.325
1414.82669	7951.925
1418.27039	8031.425
1421.71177	8025.225
1425.15083	7922.925
1428.58758	7844.925
1432.02203	7893.125
1435.45416	7962.425
1438.88399	7974.825
1442.31151	7954.825
1445.73673	8013.525
1449.15965	8065.825
1452.58027	8091.425
1455.9986	8071.625
1459.41463	8093.225
1462.82837	8203.025
1466.23982	8374.625
1469.64898	8586.725
1473.05586	8713.925
1476.46045	8806.125
1479.86276	8854.225
1483.26279	8949.025
1486.66054	9135.225
1490.05602	9403.125
1493.44922	9928.725
1496.84016	10768.425
1500.22882	12072.225
1503.61521	13739.225
1506.99934	15449.125
1510.38121	16621.925
1513.76081	16517.325
1517.13816	14985.325
1520.51324	12937.425
1523.88607	11265.425
1527.25665	10305.725
1530.62498	9789.125
1533.99105	9609.425
1537.35488	9479.425
1540.71647	9380.025
1544.07581	9315.125
1547.4329	9196.325
1550.78776	9072.425
1554.14038	8992.725
1557.49077	8958.525
1560.83892	9050.125
1564.18484	9270.125
1567.52853	9569.725
1570.86999	9873.525
1574.20922	10006.725
1577.54624	9913.725
1580.88103	9415.025
1584.2136	8761.925
1587.54395	8433.625
1590.87208	8381.925
1594.19801	8525.325
1597.52172	8906.425
1600.84321	9044.025
1604.16251	8925.725
1607.47959	8713.625
1610.79447	8542.025
1614.10715	8233.025
1617.41763	7948.925
1620.7259	7667.125
1624.03199	7520.725
1627.33587	7448.825
1630.63757	7500.225
1633.93707	7733.725
1637.23439	8130.025
1640.52951	8828.525
1643.82246	9779.425
1647.11321	10899.925
1650.40179	11573.825
1653.68819	11256.425
1656.97241	10023.325
1660.25446	8695.125
1663.53433	7707.425
1666.81203	7137.625
1670.08756	6784.725
1673.36092	6616.425
1676.63211	6469.825
1679.90115	6388.225
1683.16801	6317.125
1686.43272	6224.525
1689.69527	6161.925
1692.95567	6111.025
1696.2139	6086.125
1699.46999	6023.125
1702.72392	6045.025
1705.97571	6047.125
1709.22535	6025.225
1712.47284	6068.625
1715.71819	6077.625
1718.96139	6051.525
1722.20246	6056.025
1725.44139	6010.425
1728.67818	5979.425
1731.91284	5951.025
1735.14537	5908.525
1738.37576	5872.025
1741.60403	5872.325
1744.83017	5838.125
1748.05418	5845.225
1751.27607	5847.525
1754.49584	5818.225
1757.71349	5779.525
1760.92903	5783.525
1764.14244	5705.825
1767.35375	5745.325
1770.56294	5723.225
1773.77002	5715.525
1776.97499	5707.425
1780.17785	5678.725
1783.37861	5687.325
1786.57727	5687.025
1789.77382	5634.625
1792.96828	5670.225
1796.16064	5646.225
1799.3509	5654.025
1802.53907	5647.125
1805.72514	5621.125
1808.90913	5595.625
1812.09102	5601.725
1815.27083	5594.725
1818.44856	5569.425
1821.6242	5564.125
1824.79776	5544.625
1827.96924	5523.125
1831.13864	5515.925
1834.30597	5541.825
1837.47122	5490.725
1840.6344	5484.425
1843.7955	5473.925
1846.95454	5461.125
1850.11151	5498.025
1853.26642	5460.125
1856.41926	5449.625
1859.57004	5440.825
1862.71876	5435.725
1865.86542	5450.625
1869.01003	5432.325
1872.15258	5403.325
1875.29308	5435.925
1878.43152	5432.725
1881.56792	5405.625
1884.70227	5366.625
1887.83457	5392.225
1890.96482	5360.625
1894.09304	5354.625
1897.21921	5360.625
1900.34335	5352.725
1903.46544	5314.925
1906.58551	5360.225
1909.70353	5339.825
1912.81953	5336.525
1915.93349	5330.925
1919.04543	5303.225
1922.15534	5290.725
1925.26322	5286.325
1928.36908	5271.725
1931.47292	5291.525
1934.57473	5275.525
1937.67453	5255.925
1940.77232	5220.525
1943.86808	5219.725
1946.96184	5208.825
1950.05358	5167.525
1953.14331	5167.125
1956.23103	5186.625
1959.31675	5130.725
1962.40046	5093.525
1965.48217	5121.125
1968.56188	5113.025
1971.63959	5082.525
1974.7153	5070.825
1977.78901	5065.425
1980.86073	5055.325
1983.93046	4993.025
1986.99819	4927.925
1990.06394	4947.625
1993.1277	4969.125
1996.18947	4949.725
1999.24925	4904.325
2002.30706	4920.225
2005.36288	4917.125
2008.41672	4885.725
2011.46859	4843.625
2014.51848	4831.625
2017.56639	4827.925
2020.61233	4804.225
2023.6563	4829.625
2026.6983	4765.525
2029.73833	4768.725
2032.7764	4777.525
2035.8125	4728.625
2038.84664	4731.325
2041.87881	4727.825
2044.90903	4705.525
2047.93729	4713.425
2050.96359	4681.825
2053.98794	4697.325
2057.01034	4701.625
2060.03078	4657.625
2063.04927	4664.325
2066.06582	4668.825
2069.08042	4654.425
2072.09307	4658.925
2075.10378	4656.025
2078.11255	4640.825
2081.11938	4657.725
2084.12426	4638.325
2087.12722	4622.325
2090.12824	4634.625
2093.12732	4635.225
2096.12447	4639.125
2099.11969	4623.925
2102.11299	4637.525
2105.10435	4637.425
2108.09379	4640.325
2111.08131	4629.425
2114.0669	4634.325
2117.05057	4626.725
2120.03233	4623.725
2123.01216	4640.725
2125.99008	4643.225
2128.96609	4632.425
2131.94018	4660.425
2134.91236	4644.425
2137.88263	4637.325
2140.851	4644.025
2143.81746	4667.825
2146.78201	4652.825
2149.74466	4644.925
2152.7054	4653.125
2155.66425	4636.725
2158.6212	4621.925
2161.57625	4603.725
2164.52941	4588.725
2167.48067	4597.625
2170.43004	4607.825
2173.37752	4604.425
2176.32311	4581.925
2179.26681	4594.725
2182.20863	4609.825
2185.14856	4599.725
2188.08661	4599.425
2191.02278	4621.525
2193.95707	4582.225
2196.88948	4577.925
2199.82001	4585.425
2202.74867	4561.125
2205.67545	4568.725
2208.60037	4575.125
2211.52341	4557.425
2214.44458	4532.325
2217.36388	4527.525
2220.28132	4521.625
2223.1969	4497.625
2226.11061	4488.025
2229.02246	4476.725
2231.93245	4477.125
2234.84058	4452.925
2237.74686	4456.325
2240.65128	4451.125
2243.55385	4430.425
2246.45456	4418.725
2249.35343	4441.325
2252.25044	4430.325
2255.14561	4424.525
2258.03893	4427.925
2260.93041	4416.925
2263.82004	4396.925
2266.70783	4391.625
2269.59378	4367.525
2272.4779	4359.925
2275.36017	4352.225
2278.24061	4355.025
2281.11922	4303.325
2283.996	4325.925
2286.87094	4306.625
2289.74405	4302.725
2292.61534	4304.225
2295.4848	4312.525
2298.35243	4288.825
2301.21824	4271.125
2304.08223	4280.525
2306.94439	4266.325
2309.80474	4279.425
2312.66327	4262.525
2315.51999	4251.525
2318.37489	4249.125
2321.22797	4222.825
2324.07925	4224.425
2326.92871	4210.725
2329.77637	4195.525
2332.62222	4191.025
2335.46626	4175.225
2338.3085	4167.425
2341.14893	4179.625
2343.98756	4187.425
2346.8244	4168.325
2349.65943	4145.725
2352.49267	4154.925
2355.32411	4157.525
2358.15376	4156.325
2360.98161	4159.525
2363.80768	4146.725
2366.63195	4147.125
2369.45444	4165.725
2372.27514	4149.425
2375.09405	4162.225
2377.91118	4117.825
2380.72652	4126.525
2383.54009	4109.525
2386.35187	4124.225
2389.16188	4077.825
2391.97011	4085.925
2394.77657	4073.525
2397.58125	4068.425
2400.38416	4070.225
2403.18529	4044.525
2405.98466	4028.825
2408.78226	4035.425
2411.57809	4021.025
2414.37216	4009.125
2417.16446	4015.725
2419.955	3987.025
2422.74378	4000.725
2425.5308	3983.925
2428.31606	3983.325
2431.09956	4000.325
2433.88131	3961.225
2436.6613	3966.625
2439.43954	3964.725
2442.21603	3954.325
2444.99077	3952.225
2447.76377	3962.725
2450.53501	3951.125
2453.30451	3925.125
2456.07226	3947.025
2458.83827	3918.825
2461.60254	3886.225
2464.36507	3922.125
2467.12586	3903.625
2469.88492	3906.325
2472.64224	3904.025
2475.39782	3902.125
2478.15167	3905.525
2480.90379	3894.125
2483.65417	3909.725
2486.40283	3902.325
2489.14976	3909.725
2491.89497	3894.125
2494.63845	3896.325
2497.3802	3877.925
2500.12024	3879.625
2502.85855	3875.225
2505.59514	3872.125
2508.33002	3855.825
2511.06318	3827.725
2513.79462	3838.825
2516.52435	3799.125
2519.25237	3785.625
2521.97867	3798.825
2524.70327	3782.525
2527.42616	3797.725
2530.14734	3804.625
2532.86681	3779.425
2535.58458	3781.625
2538.30065	3769.525
2541.01501	3786.825
2543.72768	3756.125
2546.43864	3771.525
2549.14791	3739.725
2551.85548	3725.725
2554.56136	3721.825
2557.26554	3730.125
2559.96803	3726.725
2562.66883	3722.125
2565.36794	3706.925
2568.06536	3675.225
2570.7611	3688.925
2573.45514	3682.025
2576.14751	3672.325
2578.83819	3644.825
2581.52719	3651.025
2584.21451	3642.325
2586.90015	3623.425
2589.58411	3614.925
2592.2664	3605.025
2594.94701	3620.125
2597.62594	3622.025
2600.30321	3552.625
2602.9788	3566.925
2605.65273	3558.225
2608.32498	3573.625
2610.99557	3581.725
2613.66449	3559.425
2616.33175	3576.325
2618.99734	3557.025
2621.66128	3568.425
2624.32355	3533.125
2626.98416	3521.225
2629.64311	3509.525
2632.30041	3510.325
2634.95605	3493.725
2637.61004	3476.925
2640.26238	3454.825
2642.91306	3479.825
2645.56209	3490.525
2648.20948	3491.525
2650.85521	3467.025
2653.4993	3487.925
2656.14175	3480.425
2658.78255	3451.725
2661.42171	3435.925
2664.05923	3473.425
2666.6951	3488.825
2669.32934	3480.325
2671.96194	3497.325
2674.59291	3470.625
2677.22224	3471.925
2679.84993	3473.025
2682.476	3468.325
2685.10043	3450.225
2687.72324	3440.725
2690.34441	3450.525
2692.96396	3440.325
2695.58188	3453.125
2698.19818	3439.625
2700.81285	3439.925
2703.4259	3435.025
2706.03733	3406.525
2708.64714	3414.825
2711.25533	3446.625
2713.86191	3442.725
2716.46687	3439.225
2719.07021	3425.525
2721.67194	3430.725
2724.27206	3433.325
2726.87057	3419.425
2729.46747	3419.725
2732.06276	3421.125
2734.65644	3400.625
2737.24852	3398.825
2739.83899	3385.625
2742.42786	3388.525
2745.01513	3403.725
2747.60079	3388.825
2750.18486	3371.125
2752.76733	3378.725
2755.3482	3366.225
2757.92747	3371.325
2760.50515	3339.125
2763.08123	3334.525
2765.65573	3336.225
2768.22863	3323.325
2770.79994	3312.625
2773.36967	3315.825
2775.9378	3305.425
2778.50435	3294.825
2781.06932	3305.525
2783.6327	3268.225
2786.1945	3308.225
2788.75471	3284.325
2791.31335	3280.325
2793.87041	3279.825
2796.42589	3253.125
2798.97979	3241.425
2801.53212	3256.225
2804.08288	3261.625
2806.63206	3244.425
2809.17967	3217.825
2811.72571	3227.425
2814.27018	3222.425
2816.81308	3214.625
2819.35442	3170.525
2821.89419	3206.125
2824.43239	3188.125
2826.96904	3198.425
2829.50412	3188.125
2832.03763	3180.925
2834.56959	3194.025
2837.1	3182.125
2839.62884	3169.725
2842.15613	3169.025
2844.68186	3177.425
2847.20604	3141.825
2849.72867	3132.525
2852.24974	3143.225
2854.76927	3113.425
2857.28724	3067.725
2859.80367	3141.225
2862.31855	3137.325
2864.83189	3128.725
2867.34368	3139.125
2869.85393	3143.525
2872.36264	3091.225
2874.8698	3098.825
2877.37543	3109.925
2879.87952	3107.825
2882.38207	3089.525
2884.88308	3097.225
2887.38256	3088.925
2889.88051	3089.625
2892.37692	3085.625
2894.8718	3053.225
2897.36515	3076.825
2899.85698	3082.125
2902.34727	3061.225
2904.83604	3079.925
2907.32328	3089.125
2909.809	3096.525
2912.29319	3082.125
2914.77587	3100.625
2917.25702	3088.425
2919.73665	3111.725
2922.21476	3105.425
2924.69136	3097.225
2927.16644	3091.825
2929.64	3070.425
2932.11205	3069.325
2934.58258	3071.125
2937.05161	3051.225
2939.51912	3059.925
2941.98513	3065.225
2944.44962	3049.225
2946.91261	3024.425
2949.37409	3026.025
2951.83407	3036.525
2954.29254	3024.525
2956.74951	3020.825
2959.20498	3003.225
2961.65895	3002.325
2964.11142	3001.825
2966.56239	2998.425
2969.01186	3007.925
2971.45984	2987.725
2973.90632	2967.425
2976.35131	2988.225
2978.7948	2976.125
2981.23681	2966.225
2983.67732	2973.925
2986.11635	2959.725
2988.55388	2936.125
2990.98993	2949.825
2993.4245	2933.225
2995.85758	2913.025
2998.28917	2915.525
3000.71928	2901.625
3003.14791	2897.525
3005.57506	2889.825
3008.00073	2875.125
3010.42493	2810.125
3012.84764	2863.025
3015.26888	2864.325
3017.68865	2869.925
3020.10694	2825.725
3022.52376	2824.525
3024.9391	2820.325
3027.35298	2824.725
3029.76539	2794.225
3032.17632	2802.725
3034.5858	2792.925
3036.9938	2802.425
3039.40034	2789.125
3041.80542	2779.125
3044.20903	2764.025
3046.61118	2762.925
3049.01187	2778.325
3051.4111	2753.825
3053.80888	2737.725
3056.20519	2742.325
3058.60005	2708.925
3060.99345	2741.825
3063.3854	2716.225
3065.7759	2697.525
3068.16494	2697.625
3070.55254	2677.025
3072.93868	2695.925
3075.32338	2677.325
3077.70662	2680.525
3080.08842	2667.725
3082.46878	2641.325
3084.84769	2665.725
3087.22515	2638.225
3089.60118	2645.125
3091.97576	2645.625
3094.3489	2641.525
3096.72061	2647.025
3099.09087	2623.625
3101.4597	2639.225
3103.82709	2624.625
3106.19305	2611.325
3108.55757	2602.325
3110.92066	2604.225
3113.28232	2616.425
3115.64255	2611.725
3118.00134	2597.525
3120.35871	2586.925
3122.71466	2559.025
3125.06917	2571.125
3127.42226	2569.325
3129.77393	2543.525
3132.12417	2554.025
3134.47299	2566.325
3136.82039	2539.225
3139.16636	2517.825
3141.51092	2550.525
3143.85406	2540.825
3146.19579	2530.825
3148.53609	2527.425
3150.87499	2532.625
3153.21246	2510.325
3155.54853	2525.025
3157.88318	2531.525
3160.21642	2520.625
3162.54826	2518.825
3164.87868	2519.225
3167.2077	2492.225
3169.5353	2509.725
3171.86151	2515.525
3174.18631	2500.425
3176.5097	2485.625
3178.83169	2499.725
3181.15228	2497.425
3183.47147	2470.525
3185.78926	2452.725
3188.10565	2473.025
3190.42065	2447.725
3192.73424	2450.125
3195.04645	2443.925
3197.35725	2431.725
3199.66667	2445.025
3201.97469	2432.525
3204.28132	2422.625
3206.58656	2440.625
3208.8904	2435.625
3211.19287	2433.425
3213.49394	2428.625
3215.79363	2416.925
3218.09193	2430.125
3220.38884	2421.725
3222.68438	2412.925
3224.97853	2404.425
3227.2713	2413.025
3229.56269	2409.525
3231.8527	2394.325
3234.14133	2383.125
