Data from AgNPs_UA_5uM_CRN_500uM_SU_RamanShift__3__11-29-53-138.txt Node

Date: Thu Aug 04 11:29:53 BST 2022
User: TCL
Spectrometer: QEP01345
Trigger mode: 4
Integration Time (sec): 1.000000E0
Scans to average: 10
Electric dark correction enabled: true
Nonlinearity correction enabled: false
Boxcar width: 0
XAxis mode: Raman Shifts
Number of Pixels in Spectrum: 1044
>>>>>Begin Spectral Data<<<<<
46.04893	-0.975
50.45542	-0.475
54.85868	-0.175
59.25871	-0.275
63.6555	-54.675
68.04907	-38.275
72.43941	-68.675
76.82654	-54.175
81.21044	-54.875
85.59113	-45.575
89.96862	-72.775
94.34289	-52.175
98.71396	-74.275
103.08183	-55.275
107.4465	-46.475
111.80798	-52.075
116.16626	-38.475
120.52136	-68.875
124.87327	-43.475
129.222	-53.775
133.56755	-42.175
137.90993	-53.375
142.24913	-39.875
146.58517	-27.675
150.91804	-19.275
155.24774	-3.175
159.57429	25.325
163.89768	40.325
168.21792	109.325
172.53501	162.925
176.84895	287.825
181.15975	479.725
185.46741	716.925
189.77193	1027.825
194.07331	1449.125
198.37157	1901.325
202.6667	2370.525
206.9587	2892.125
211.24758	3477.025
215.53334	4105.725
219.81599	4813.625
224.09553	5659.425
228.37195	6510.825
232.64527	7329.325
236.91549	7987.825
241.18261	8324.125
245.44663	8391.125
249.70755	8327.425
253.96539	8305.925
258.22014	8358.025
262.4718	8415.725
266.72039	8416.225
270.96589	8181.825
275.20832	7842.225
279.44768	7470.825
283.68397	7218.525
287.91719	7143.925
292.14735	7338.325
296.37445	7907.025
300.59849	8913.925
304.81948	10282.425
309.03742	11886.125
313.25231	13046.425
317.46415	12902.225
321.67296	11259.425
325.87872	9381.625
330.08145	8288.825
334.28114	8057.925
338.47781	8342.825
342.67145	8962.625
346.86207	9949.225
351.04966	11462.725
355.23424	12956.125
359.4158	13558.225
363.59435	13014.025
367.76989	12130.025
371.94243	11207.025
376.11196	10447.625
380.27849	9929.825
384.44203	9494.225
388.60257	9267.225
392.76012	9278.425
396.91468	9616.725
401.06626	10030.625
405.21485	10016.925
409.36047	9388.925
413.50311	8227.825
417.64277	7190.825
421.77947	6536.425
425.9132	6237.825
430.04396	6094.325
434.17176	6053.625
438.2966	6172.025
442.41849	6390.525
446.53742	6597.525
450.6534	6753.125
454.76644	6737.525
458.87653	6611.425
462.98368	6456.325
467.08789	6293.125
471.18916	6085.325
475.2875	5781.825
479.38291	5528.625
483.4754	5383.525
487.56496	5308.525
491.6516	5239.325
495.73531	5238.325
499.81612	5312.325
503.89401	5493.025
507.96899	5697.025
512.04106	6006.325
516.11023	6268.725
520.1765	6510.225
524.23987	6601.325
528.30034	6562.525
532.35792	6401.725
536.41261	6234.025
540.46441	5990.225
544.51333	5801.225
548.55936	5800.825
552.60252	5962.525
556.64279	6171.125
560.6802	6619.825
564.71473	7638.925
568.7464	8958.225
572.7752	8896.025
576.80114	7201.925
580.82422	5847.825
584.84444	5269.225
588.86181	5090.925
592.87633	5092.425
596.888	5300.425
600.89682	6112.825
604.9028	8860.325
608.90594	15846.425
612.90624	24420.925
616.90371	22122.525
620.89834	11538.625
624.89015	6925.325
628.87913	6400.225
632.86528	7063.425
636.84862	7369.225
640.82913	6571.325
644.80683	5432.925
648.78172	4942.425
652.75379	5117.325
656.72306	5925.825
660.68952	6717.225
664.65319	6272.125
668.61405	5199.725
672.57211	4752.725
676.52738	4747.525
680.47986	4700.925
684.42955	4550.125
688.37646	4469.125
692.32058	4460.925
696.26192	4537.625
700.20048	4671.625
704.13626	4710.225
708.06928	4634.525
711.99952	4608.325
715.927	4639.525
719.85171	4868.025
723.77365	5035.025
727.69284	4871.125
731.60928	4716.925
735.52295	4673.025
739.43388	4728.625
743.34206	4777.825
747.24749	4784.625
751.15017	4803.525
755.05012	5160.525
758.94733	6526.625
762.8418	9661.025
766.73354	13705.625
770.62254	15696.925
774.50882	14845.725
778.39237	13330.525
782.27321	11023.125
786.15132	7987.025
790.02671	5980.125
793.89938	5042.025
797.76935	4756.025
801.6366	4583.825
805.50115	4505.525
809.36299	4468.825
813.22213	4445.625
817.07857	4447.525
820.93231	4483.625
824.78336	4592.525
828.63172	4716.725
832.47738	4773.725
836.32036	4663.925
840.16066	4430.925
843.99827	4302.325
847.8332	4257.525
851.66546	4259.825
855.49504	4225.625
859.32195	4243.225
863.1462	4176.825
866.96777	4172.925
870.78668	4167.325
874.60293	4190.325
878.41652	4269.525
882.22745	4428.025
886.03573	4499.425
889.84136	4484.225
893.64433	4453.525
897.44466	4470.025
901.24235	4455.425
905.0374	4386.125
908.8298	4195.225
912.61957	4060.425
916.40671	3976.025
920.19121	4035.425
923.97308	4256.925
927.75233	4679.725
931.52895	5107.325
935.30295	4862.225
939.07433	4231.925
942.84309	3836.925
946.60924	3699.825
950.37278	3609.525
954.13371	3615.825
957.89203	3604.125
961.64774	3611.425
965.40086	3568.525
969.15137	3551.325
972.89929	3581.925
976.64461	3547.925
980.38733	3554.825
984.12747	3530.425
987.86502	3556.225
991.59999	3579.625
995.33237	3636.725
999.06217	3766.825
1002.78939	3967.125
1006.51404	4271.525
1010.23611	4418.225
1013.95561	4262.125
1017.67255	4055.725
1021.38692	3886.925
1025.09872	3734.925
1028.80796	3635.825
1032.51465	3716.525
1036.21877	3735.725
1039.92035	3820.925
1043.61937	3885.425
1047.31584	3961.025
1051.00976	3973.125
1054.70114	3896.025
1058.38998	3846.525
1062.07627	3798.025
1065.76003	3816.825
1069.44126	3862.325
1073.11995	3947.525
1076.79611	4249.425
1080.46974	4783.225
1084.14085	5535.125
1087.80943	6169.325
1091.47549	6138.225
1095.13903	5472.525
1098.80005	4810.925
1102.45857	4449.325
1106.11456	4416.325
1109.76805	4531.725
1113.41903	4951.025
1117.06751	5608.825
1120.71348	6710.025
1124.35696	8361.925
1127.99793	9525.825
1131.63641	8677.825
1135.2724	6962.925
1138.90589	5797.825
1142.5369	5161.525
1146.16542	4760.925
1149.79145	4482.025
1153.415	4400.325
1157.03607	4471.525
1160.65467	4681.125
1164.27079	5091.325
1167.88443	5705.325
1171.49561	6724.425
1175.10432	8492.525
1178.71056	10994.125
1182.31434	12776.425
1185.91565	12520.525
1189.51451	10870.225
1193.11091	9153.225
1196.70485	8069.325
1200.29634	7661.825
1203.88538	7133.725
1207.47197	6079.225
1211.05612	5132.825
1214.63782	4526.925
1218.21708	4270.725
1221.79391	4172.325
1225.36829	4144.825
1228.94024	4158.525
1232.50976	4147.825
1236.07685	4172.325
1239.6415	4209.925
1243.20374	4335.225
1246.76355	4476.725
1250.32093	4690.525
1253.8759	4985.125
1257.42845	5491.025
1260.97859	6165.525
1264.52631	6811.825
1268.07163	7139.025
1271.61453	7175.825
1275.15503	6959.225
1278.69312	6697.725
1282.22882	6887.025
1285.76211	7833.325
1289.29301	9118.225
1292.82151	9976.025
1296.34761	10323.125
1299.87133	11166.625
1303.39266	13292.925
1306.9116	17366.125
1310.42815	22330.525
1313.94233	24083.625
1317.45412	20289.725
1320.96354	14731.625
1324.47058	10593.025
1327.97525	8096.525
1331.47754	6859.425
1334.97747	6440.325
1338.47502	6636.025
1341.97022	7619.125
1345.46305	9767.225
1348.95352	12830.225
1352.44163	15959.325
1355.92738	19812.525
1359.41078	26678.325
1362.89183	34216.025
1366.37053	32758.025
1369.84688	22373.925
1373.32088	13788.925
1376.79254	10145.325
1380.26186	8510.825
1383.72883	7258.125
1387.19347	6092.225
1390.65578	5223.525
1394.11575	4760.425
1397.57339	4519.025
1401.0287	4384.125
1404.48168	4215.725
1407.93234	4125.125
1411.38068	4212.725
1414.82669	4592.625
1418.27039	5024.925
1421.71177	5116.325
1425.15083	4904.325
1428.58758	4920.625
1432.02203	5412.325
1435.45416	5798.425
1438.88399	5549.025
1442.31151	5180.625
1445.73673	5129.425
1449.15965	5086.325
1452.58027	4949.225
1455.9986	4779.525
1459.41463	4641.425
1462.82837	4645.425
1466.23982	4899.525
1469.64898	5247.625
1473.05586	5363.025
1476.46045	5313.725
1479.86276	5329.825
1483.26279	5604.425
1486.66054	6224.325
1490.05602	7175.625
1493.44922	8794.525
1496.84016	11273.325
1500.22882	15239.225
1503.61521	20762.125
1506.99934	27913.625
1510.38121	35024.525
1513.76081	37870.525
1517.13816	33544.225
1520.51324	24845.725
1523.88607	17045.625
1527.25665	12029.925
1530.62498	9223.925
1533.99105	7602.225
1537.35488	6556.625
1540.71647	5957.425
1544.07581	5727.725
1547.4329	5729.925
1550.78776	5915.725
1554.14038	6238.425
1557.49077	6768.725
1560.83892	7675.825
1564.18484	9123.825
1567.52853	10773.825
1570.86999	11812.925
1574.20922	11971.825
1577.54624	11355.525
1580.88103	9429.325
1584.2136	7090.725
1587.54395	5739.725
1590.87208	5389.925
1594.19801	5809.325
1597.52172	6513.325
1600.84321	6509.825
1604.16251	5707.925
1607.47959	4954.425
1610.79447	4522.225
1614.10715	4177.725
1617.41763	3940.825
1620.7259	3821.825
1624.03199	3887.625
1627.33587	4059.525
1630.63757	4421.525
1633.93707	5103.025
1637.23439	6277.825
1640.52951	8458.825
1643.82246	12225.725
1647.11321	17399.725
1650.40179	21616.425
1653.68819	21423.625
1656.97241	16756.925
1660.25446	11185.625
1663.53433	7390.725
1666.81203	5292.725
1670.08756	4227.925
1673.36092	3650.425
1676.63211	3291.425
1679.90115	3079.125
1683.16801	2912.825
1686.43272	2787.925
1689.69527	2706.525
1692.95567	2645.325
1696.2139	2615.025
1699.46999	2532.925
1702.72392	2537.625
1705.97571	2544.025
1709.22535	2525.425
1712.47284	2576.725
1715.71819	2604.525
1718.96139	2598.925
1722.20246	2581.625
1725.44139	2525.525
1728.67818	2445.525
1731.91284	2375.725
1735.14537	2322.625
1738.37576	2283.825
1741.60403	2272.425
1744.83017	2235.825
1748.05418	2224.425
1751.27607	2206.725
1754.49584	2169.925
1757.71349	2104.725
1760.92903	2082.225
1764.14244	2009.425
1767.35375	1986.125
1770.56294	1951.925
1773.77002	1901.425
1776.97499	1902.725
1780.17785	1852.125
1783.37861	1827.925
1786.57727	1823.425
1789.77382	1771.025
1792.96828	1800.525
1796.16064	1809.025
1799.3509	1788.025
1802.53907	1802.425
1805.72514	1761.725
1808.90913	1755.725
1812.09102	1750.625
1815.27083	1742.325
1818.44856	1727.725
1821.6242	1721.125
1824.79776	1695.425
1827.96924	1692.725
1831.13864	1657.425
1834.30597	1658.725
1837.47122	1617.825
1840.6344	1605.425
1843.7955	1571.725
1846.95454	1557.425
1850.11151	1570.525
1853.26642	1532.625
1856.41926	1539.725
1859.57004	1547.225
1862.71876	1551.425
1865.86542	1556.725
1869.01003	1559.725
1872.15258	1540.325
1875.29308	1560.625
1878.43152	1571.325
1881.56792	1550.625
1884.70227	1534.425
1887.83457	1538.325
1890.96482	1504.225
1894.09304	1502.725
1897.21921	1508.225
1900.34335	1501.525
1903.46544	1488.625
1906.58551	1506.625
1909.70353	1503.025
1912.81953	1490.225
1915.93349	1478.125
1919.04543	1481.325
1922.15534	1449.625
1925.26322	1438.025
1928.36908	1421.925
1931.47292	1407.725
1934.57473	1396.525
1937.67453	1354.625
1940.77232	1317.825
1943.86808	1320.325
1946.96184	1315.125
1950.05358	1298.825
1953.14331	1289.725
1956.23103	1309.625
1959.31675	1282.625
1962.40046	1273.925
1965.48217	1311.725
1968.56188	1328.325
1971.63959	1335.525
1974.7153	1353.825
1977.78901	1342.725
1980.86073	1313.525
1983.93046	1262.825
1986.99819	1179.825
1990.06394	1196.125
1993.1277	1214.525
1996.18947	1199.625
1999.24925	1168.925
2002.30706	1175.125
2005.36288	1171.825
2008.41672	1162.425
2011.46859	1131.425
2014.51848	1131.625
2017.56639	1116.725
2020.61233	1109.125
2023.6563	1120.725
2026.6983	1073.725
2029.73833	1090.725
2032.7764	1107.725
2035.8125	1065.425
2038.84664	1065.525
2041.87881	1067.625
2044.90903	1077.225
2047.93729	1078.525
2050.96359	1038.425
2053.98794	1046.825
2057.01034	1044.725
2060.03078	1025.625
2063.04927	1010.025
2066.06582	1002.825
2069.08042	985.925
2072.09307	991.925
2075.10378	992.325
2078.11255	987.125
2081.11938	995.225
2084.12426	990.225
2087.12722	983.225
2090.12824	986.625
2093.12732	989.425
2096.12447	999.325
2099.11969	993.225
2102.11299	977.725
2105.10435	1003.425
2108.09379	993.325
2111.08131	990.225
2114.0669	996.425
2117.05057	996.825
2120.03233	994.725
2123.01216	1031.525
2125.99008	1045.525
2128.96609	1054.525
2131.94018	1065.425
2134.91236	1033.825
2137.88263	1010.125
2140.851	1008.225
2143.81746	1003.025
2146.78201	974.625
2149.74466	953.325
2152.7054	958.925
2155.66425	925.325
2158.6212	924.725
2161.57625	902.125
2164.52941	877.725
2167.48067	901.425
2170.43004	906.525
2173.37752	927.925
2176.32311	914.325
2179.26681	930.325
2182.20863	938.525
2185.14856	928.525
2188.08661	927.525
2191.02278	923.425
2193.95707	894.025
2196.88948	876.925
2199.82001	882.225
2202.74867	868.525
2205.67545	878.525
2208.60037	888.925
2211.52341	876.125
2214.44458	871.925
2217.36388	873.325
2220.28132	860.925
2223.1969	842.525
2226.11061	852.825
2229.02246	840.625
2231.93245	847.525
2234.84058	830.825
2237.74686	819.525
2240.65128	826.125
2243.55385	837.225
2246.45456	826.225
2249.35343	856.625
2252.25044	859.425
2255.14561	882.625
2258.03893	909.125
2260.93041	920.225
2263.82004	938.125
2266.70783	942.425
2269.59378	923.525
2272.4779	915.925
2275.36017	930.525
2278.24061	909.225
2281.11922	884.325
2283.996	896.125
2286.87094	868.525
2289.74405	869.625
2292.61534	857.025
2295.4848	841.625
2298.35243	831.225
2301.21824	809.125
2304.08223	805.525
2306.94439	813.125
2309.80474	824.725
2312.66327	814.725
2315.51999	804.325
2318.37489	808.725
2321.22797	791.525
2324.07925	787.525
2326.92871	788.725
2329.77637	781.625
2332.62222	784.125
2335.46626	772.025
2338.3085	774.625
2341.14893	797.625
2343.98756	803.725
2346.8244	798.025
2349.65943	797.825
2352.49267	818.225
2355.32411	830.925
2358.15376	839.825
2360.98161	860.925
2363.80768	864.825
2366.63195	886.525
2369.45444	902.225
2372.27514	910.325
2375.09405	919.625
2377.91118	890.325
2380.72652	880.525
2383.54009	860.225
2386.35187	868.625
2389.16188	840.225
2391.97011	826.825
2394.77657	809.225
2397.58125	801.725
2400.38416	798.325
2403.18529	776.825
2405.98466	761.925
2408.78226	768.725
2411.57809	760.725
2414.37216	750.625
2417.16446	752.625
2419.955	734.425
2422.74378	762.525
2425.5308	745.425
2428.31606	759.225
2431.09956	772.825
2433.88131	764.425
2436.6613	786.025
2439.43954	780.325
2442.21603	780.625
2444.99077	791.025
2447.76377	803.125
2450.53501	808.325
2453.30451	813.825
2456.07226	828.525
2458.83827	814.825
2461.60254	778.425
2464.36507	814.825
2467.12586	795.725
2469.88492	810.825
2472.64224	808.425
2475.39782	809.125
2478.15167	829.325
2480.90379	837.125
2483.65417	878.425
2486.40283	883.825
2489.14976	916.725
2491.89497	900.225
2494.63845	917.225
2497.3802	897.325
2500.12024	884.325
2502.85855	871.025
2505.59514	866.225
2508.33002	833.725
2511.06318	796.325
2513.79462	788.125
2516.52435	722.525
2519.25237	690.025
2521.97867	683.025
2524.70327	679.425
2527.42616	673.525
2530.14734	682.125
2532.86681	658.925
2535.58458	664.625
2538.30065	662.125
2541.01501	684.725
2543.72768	676.225
2546.43864	681.525
2549.14791	688.725
2551.85548	689.725
2554.56136	693.325
2557.26554	712.125
2559.96803	719.725
2562.66883	717.525
2565.36794	710.525
2568.06536	687.325
2570.7611	730.025
2573.45514	719.325
2576.14751	710.025
2578.83819	698.725
2581.52719	683.425
2584.21451	689.625
2586.90015	667.625
2589.58411	657.125
2592.2664	665.725
2594.94701	675.725
2597.62594	674.825
2600.30321	618.625
2602.9788	650.425
2605.65273	646.125
2608.32498	658.025
2610.99557	676.725
2613.66449	655.425
2616.33175	678.525
2618.99734	681.225
2621.66128	683.225
2624.32355	671.325
2626.98416	648.725
2629.64311	641.925
2632.30041	628.325
2634.95605	616.425
2637.61004	602.325
2640.26238	582.925
2642.91306	582.125
2645.56209	603.125
2648.20948	591.525
2650.85521	582.225
2653.4993	609.525
2656.14175	607.125
2658.78255	598.225
2661.42171	580.825
2664.05923	620.325
2666.6951	633.625
2669.32934	643.625
2671.96194	658.125
2674.59291	646.225
2677.22224	651.025
2679.84993	641.125
2682.476	628.825
2685.10043	628.925
2687.72324	618.525
2690.34441	614.925
2692.96396	613.925
2695.58188	624.125
2698.19818	611.625
2700.81285	597.025
2703.4259	587.325
2706.03733	571.325
2708.64714	581.325
2711.25533	611.925
2713.86191	610.925
2716.46687	610.625
2719.07021	608.725
2721.67194	608.325
2724.27206	632.025
2726.87057	603.325
2729.46747	585.225
2732.06276	593.625
2734.65644	577.425
2737.24852	577.125
2739.83899	554.525
2742.42786	562.725
2745.01513	566.825
2747.60079	538.225
2750.18486	525.525
2752.76733	527.925
2755.3482	523.925
2757.92747	522.025
2760.50515	505.325
2763.08123	494.325
2765.65573	503.225
2768.22863	492.225
2770.79994	482.425
2773.36967	487.225
2775.9378	485.825
2778.50435	494.925
2781.06932	490.225
2783.6327	479.825
2786.1945	508.225
2788.75471	501.625
2791.31335	505.725
2793.87041	512.225
2796.42589	505.525
2798.97979	507.425
2801.53212	521.425
2804.08288	546.425
2806.63206	541.225
2809.17967	541.725
2811.72571	577.125
2814.27018	584.725
2816.81308	590.825
2819.35442	573.825
2821.89419	612.325
2824.43239	608.525
2826.96904	651.225
2829.50412	622.225
2832.03763	622.825
2834.56959	614.225
2837.1	602.425
2839.62884	591.625
2842.15613	586.225
2844.68186	593.825
2847.20604	576.825
2849.72867	579.925
2852.24974	601.325
2854.76927	586.625
2857.28724	555.625
2859.80367	632.625
2862.31855	660.325
2864.83189	663.225
2867.34368	688.225
2869.85393	707.625
2872.36264	686.825
2874.8698	702.625
2877.37543	704.925
2879.87952	691.425
2882.38207	657.525
2884.88308	659.225
2887.38256	641.725
2889.88051	632.825
2892.37692	629.025
2894.8718	609.525
2897.36515	628.825
2899.85698	620.225
2902.34727	617.925
2904.83604	636.725
2907.32328	669.225
2909.809	680.025
2912.29319	684.525
2914.77587	705.725
2917.25702	725.725
2919.73665	709.025
2922.21476	695.525
2924.69136	675.925
2927.16644	637.825
2929.64	634.225
2932.11205	604.625
2934.58258	609.925
2937.05161	593.025
2939.51912	597.825
2941.98513	615.125
2944.44962	591.725
2946.91261	578.925
2949.37409	590.825
2951.83407	586.325
2954.29254	590.125
2956.74951	598.225
2959.20498	592.725
2961.65895	594.125
2964.11142	586.625
2966.56239	586.425
2969.01186	578.025
2971.45984	571.825
2973.90632	564.025
2976.35131	587.025
2978.7948	577.325
2981.23681	579.325
2983.67732	583.825
2986.11635	581.225
2988.55388	565.225
2990.98993	588.325
2993.4245	578.525
2995.85758	570.725
2998.28917	584.925
3000.71928	572.825
3003.14791	584.425
3005.57506	574.125
3008.00073	571.025
3010.42493	512.925
3012.84764	574.725
3015.26888	573.725
3017.68865	559.825
3020.10694	522.625
3022.52376	539.925
3024.9391	542.925
3027.35298	525.825
3029.76539	501.725
3032.17632	503.225
3034.5858	490.325
3036.9938	484.225
3039.40034	469.825
3041.80542	449.925
3044.20903	437.025
3046.61118	425.725
3049.01187	439.025
3051.4111	426.225
3053.80888	421.925
3056.20519	417.125
3058.60005	410.125
3060.99345	433.925
3063.3854	417.325
3065.7759	400.725
3068.16494	400.725
3070.55254	396.325
3072.93868	409.125
3075.32338	399.125
3077.70662	400.725
3080.08842	390.325
3082.46878	378.825
3084.84769	396.425
3087.22515	373.425
3089.60118	384.525
3091.97576	368.625
3094.3489	380.825
3096.72061	370.925
3099.09087	359.325
3101.4597	372.225
3103.82709	361.625
3106.19305	357.625
3108.55757	364.025
3110.92066	359.525
3113.28232	371.725
3115.64255	372.825
3118.00134	380.325
3120.35871	363.625
3122.71466	349.125
3125.06917	362.325
3127.42226	363.325
3129.77393	345.425
3132.12417	365.425
3134.47299	370.425
3136.82039	361.125
3139.16636	336.125
3141.51092	362.625
3143.85406	366.225
3146.19579	356.125
3148.53609	356.425
3150.87499	360.125
3153.21246	358.325
3155.54853	369.525
3157.88318	373.025
3160.21642	374.625
3162.54826	367.125
3164.87868	372.225
3167.2077	332.925
3169.5353	353.425
3171.86151	356.925
3174.18631	338.125
3176.5097	337.325
3178.83169	335.825
3181.15228	328.425
3183.47147	313.125
3185.78926	290.825
3188.10565	313.725
3190.42065	290.725
3192.73424	302.425
3195.04645	296.425
3197.35725	286.025
3199.66667	307.525
3201.97469	300.225
3204.28132	286.425
3206.58656	304.825
3208.8904	320.425
3211.19287	311.625
3213.49394	307.725
3215.79363	311.725
3218.09193	323.925
3220.38884	313.225
3222.68438	312.225
3224.97853	288.125
3227.2713	319.125
3229.56269	303.525
3231.8527	307.325
3234.14133	297.825
3236.42858	292.725
3238.71446	273.525
3240.99896	298.025
3243.28209	279.125
3245.56384	293.725
3247.84423	279.725
3250.12324	292.325
3252.40088	293.125
3254.67715	278.925
3256.95205	271.725
3259.22558	281.525
3261.49775	287.525
3263.76855	277.325
3266.03799	289.225
3268.30606	287.625
3270.57277	292.525
3272.83812	279.125
3275.10211	289.225
3277.36474	310.625
3279.62601	310.325
3281.88593	297.125
