Data from AgNPs_UA_20uM_CRN_500uM_SU_RamanShift__2__13-36-50-291.txt Node

Date: Thu Aug 04 13:36:50 BST 2022
User: TCL
Spectrometer: QEP01345
Trigger mode: 4
Integration Time (sec): 1.000000E0
Scans to average: 10
Electric dark correction enabled: true
Nonlinearity correction enabled: false
Boxcar width: 0
XAxis mode: Raman Shifts
Number of Pixels in Spectrum: 1044
>>>>>Begin Spectral Data<<<<<
46.04893	-0.575
50.45542	-1.175
54.85868	0.425
59.25871	0.125
63.6555	17.625
68.04907	14.525
72.43941	18.525
76.82654	19.125
81.21044	18.225
85.59113	18.925
89.96862	20.325
94.34289	19.225
98.71396	21.325
103.08183	23.325
107.4465	21.725
111.80798	25.825
116.16626	26.425
120.52136	26.425
124.87327	26.025
129.222	30.425
133.56755	29.325
137.90993	33.825
142.24913	37.025
146.58517	42.525
150.91804	46.225
155.24774	60.325
159.57429	76.225
163.89768	101.925
168.21792	133.725
172.53501	186.225
176.84895	256.025
181.15975	372.025
185.46741	516.125
189.77193	721.625
194.07331	975.325
198.37157	1259.325
202.6667	1563.225
206.9587	1860.725
211.24758	2164.425
215.53334	2481.625
219.81599	2818.525
224.09553	3213.125
228.37195	3634.925
232.64527	4082.825
236.91549	4536.025
241.18261	4911.325
245.44663	5204.425
249.70755	5427.225
253.96539	5617.425
258.22014	5753.325
262.4718	5916.425
266.72039	5993.525
270.96589	6013.825
275.20832	5973.125
279.44768	5866.125
283.68397	5761.625
287.91719	5692.425
292.14735	5708.125
296.37445	5864.025
300.59849	6113.125
304.81948	6417.825
309.03742	6716.525
313.25231	6886.325
317.46415	6781.325
321.67296	6454.725
325.87872	6116.625
330.08145	5910.425
334.28114	5910.525
338.47781	5988.425
342.67145	6136.625
346.86207	6321.425
351.04966	6641.925
355.23424	6932.625
359.4158	7128.025
363.59435	7213.225
367.76989	7193.525
371.94243	7160.025
376.11196	7085.725
380.27849	7039.325
384.44203	7022.825
388.60257	7011.725
392.76012	7053.525
396.91468	7159.225
401.06626	7279.025
405.21485	7304.625
409.36047	7149.225
413.50311	6847.225
417.64277	6595.825
421.77947	6443.925
425.9132	6362.925
430.04396	6387.725
434.17176	6410.625
438.2966	6505.525
442.41849	6616.525
446.53742	6781.125
450.6534	6915.925
454.76644	6969.225
458.87653	6948.525
462.98368	6926.525
467.08789	6883.425
471.18916	6798.825
475.2875	6652.125
479.38291	6529.625
483.4754	6430.325
487.56496	6364.525
491.6516	6342.525
495.73531	6342.825
499.81612	6333.425
503.89401	6412.425
507.96899	6474.025
512.04106	6559.625
516.11023	6639.825
520.1765	6705.125
524.23987	6732.325
528.30034	6710.025
532.35792	6689.025
536.41261	6625.325
540.46441	6525.425
544.51333	6464.825
548.55936	6525.225
552.60252	6652.425
556.64279	6727.225
560.6802	6834.025
564.71473	6930.625
568.7464	7077.425
572.7752	7051.225
576.80114	6819.525
580.82422	6624.525
584.84444	6558.925
588.86181	6543.825
592.87633	6564.725
596.888	6692.725
600.89682	7063.125
604.9028	7982.125
608.90594	10020.925
612.90624	12186.825
616.90371	11183.825
620.89834	8264.725
624.89015	7017.825
628.87913	6854.625
632.86528	7016.525
636.84862	7178.025
640.82913	7043.025
644.80683	6770.725
648.78172	6603.625
652.75379	6606.725
656.72306	6808.125
660.68952	7067.225
664.65319	6920.625
668.61405	6700.925
672.57211	6665.025
676.52738	6673.325
680.47986	6593.225
684.42955	6482.325
688.37646	6438.225
692.32058	6464.625
696.26192	6575.625
700.20048	6689.425
704.13626	6743.425
708.06928	6693.025
711.99952	6640.825
715.927	6622.925
719.85171	6658.425
723.77365	6672.825
727.69284	6635.925
731.60928	6585.125
735.52295	6577.625
739.43388	6587.425
743.34206	6606.925
747.24749	6645.825
751.15017	6637.325
755.05012	6725.325
758.94733	7041.025
762.8418	7836.125
766.73354	9028.425
770.62254	9991.025
774.50882	10160.225
778.39237	9611.125
782.27321	8650.725
786.15132	7701.025
790.02671	7070.425
793.89938	6781.425
797.76935	6653.725
801.6366	6573.825
805.50115	6525.725
809.36299	6518.725
813.22213	6499.725
817.07857	6489.425
820.93231	6495.225
824.78336	6529.525
828.63172	6541.325
832.47738	6571.125
836.32036	6528.825
840.16066	6477.325
843.99827	6479.625
847.8332	6491.525
851.66546	6515.525
855.49504	6531.625
859.32195	6553.225
863.1462	6539.825
866.96777	6525.025
870.78668	6524.025
874.60293	6548.925
878.41652	6582.625
882.22745	6643.925
886.03573	6680.025
889.84136	6666.725
893.64433	6660.925
897.44466	6646.325
901.24235	6622.425
905.0374	6597.325
908.8298	6579.125
912.61957	6526.425
916.40671	6532.625
920.19121	6591.525
923.97308	6650.525
927.75233	6723.625
931.52895	6783.125
935.30295	6732.325
939.07433	6569.725
942.84309	6463.225
946.60924	6405.325
950.37278	6388.925
954.13371	6415.425
957.89203	6419.825
961.64774	6397.425
965.40086	6378.125
969.15137	6378.225
972.89929	6387.325
976.64461	6379.725
980.38733	6382.125
984.12747	6398.525
987.86502	6452.025
991.59999	6487.225
995.33237	6553.425
999.06217	6665.625
1002.78939	6804.925
1006.51404	6986.825
1010.23611	7146.025
1013.95561	7212.625
1017.67255	7215.925
1021.38692	7139.225
1025.09872	7001.825
1028.80796	6873.625
1032.51465	6840.825
1036.21877	6854.825
1039.92035	6914.925
1043.61937	6946.125
1047.31584	6970.525
1051.00976	6977.425
1054.70114	6966.025
1058.38998	6963.125
1062.07627	6970.825
1065.76003	7052.425
1069.44126	7168.925
1073.11995	7348.825
1076.79611	7583.825
1080.46974	7721.825
1084.14085	7831.925
1087.80943	7954.525
1091.47549	8057.825
1095.13903	8078.925
1098.80005	7985.825
1102.45857	7800.125
1106.11456	7597.425
1109.76805	7493.425
1113.41903	7508.125
1117.06751	7635.825
1120.71348	7856.125
1124.35696	8174.425
1127.99793	8405.125
1131.63641	8262.325
1135.2724	7943.325
1138.90589	7707.625
1142.5369	7607.825
1146.16542	7603.325
1149.79145	7592.125
1153.415	7429.825
1157.03607	7337.525
1160.65467	7347.625
1164.27079	7481.325
1167.88443	7719.625
1171.49561	8137.925
1175.10432	8758.925
1178.71056	9634.425
1182.31434	10369.925
1185.91565	10601.325
1189.51451	10452.725
1193.11091	10225.025
1196.70485	9944.925
1200.29634	9726.125
1203.88538	9511.925
1207.47197	9152.725
1211.05612	8881.425
1214.63782	8666.325
1218.21708	8419.425
1221.79391	8167.925
1225.36829	8006.625
1228.94024	7930.525
1232.50976	7881.125
1236.07685	7860.925
1239.6415	7891.025
1243.20374	7902.325
1246.76355	8009.025
1250.32093	8152.525
1253.8759	8387.625
1257.42845	8709.825
1260.97859	9000.825
1264.52631	9241.125
1268.07163	9368.325
1271.61453	9445.025
1275.15503	9491.425
1278.69312	9508.325
1282.22882	9488.625
1285.76211	9584.425
1289.29301	9801.625
1292.82151	10031.725
1296.34761	10269.425
1299.87133	10672.325
1303.39266	11339.925
1306.9116	12333.025
1310.42815	13369.125
1313.94233	13637.625
1317.45412	13032.125
1320.96354	12129.825
1324.47058	11272.925
1327.97525	10534.625
1331.47754	10081.825
1334.97747	10047.025
1338.47502	10198.525
1341.97022	10639.225
1345.46305	11398.425
1348.95352	12401.625
1352.44163	13535.025
1355.92738	14703.825
1359.41078	16137.625
1362.89183	17331.625
1366.37053	16475.125
1369.84688	13881.025
1373.32088	11493.725
1376.79254	10221.925
1380.26186	9616.625
1383.72883	9222.725
1387.19347	8923.725
1390.65578	8636.725
1394.11575	8394.525
1397.57339	8208.025
1401.0287	8069.825
1404.48168	8014.625
1407.93234	7986.625
1411.38068	8126.125
1414.82669	8193.725
1418.27039	8206.525
1421.71177	8149.025
1425.15083	8089.125
1428.58758	8043.525
1432.02203	8102.625
1435.45416	8234.525
1438.88399	8304.125
1442.31151	8363.825
1445.73673	8473.025
1449.15965	8513.525
1452.58027	8487.125
1455.9986	8419.725
1459.41463	8424.325
1462.82837	8506.825
1466.23982	8681.825
1469.64898	8867.225
1473.05586	8993.525
1476.46045	9081.025
1479.86276	9100.425
1483.26279	9200.725
1486.66054	9405.925
1490.05602	9691.225
1493.44922	10182.025
1496.84016	10987.325
1500.22882	12243.625
1503.61521	13841.925
1506.99934	15365.825
1510.38121	16249.125
1513.76081	15969.425
1517.13816	14562.625
1520.51324	12786.725
1523.88607	11347.325
1527.25665	10493.525
1530.62498	10063.525
1533.99105	9846.825
1537.35488	9742.125
1540.71647	9697.525
1544.07581	9664.825
1547.4329	9609.625
1550.78776	9484.425
1554.14038	9354.825
1557.49077	9235.325
1560.83892	9250.325
1564.18484	9452.925
1567.52853	9808.425
1570.86999	10045.225
1574.20922	10144.325
1577.54624	9994.625
1580.88103	9497.025
1584.2136	8884.425
1587.54395	8551.425
1590.87208	8556.025
1594.19801	8828.325
1597.52172	9246.425
1600.84321	9510.025
1604.16251	9513.225
1607.47959	9384.925
1610.79447	9042.425
1614.10715	8536.125
1617.41763	8050.025
1620.7259	7674.225
1624.03199	7477.125
1627.33587	7427.925
1630.63757	7513.325
1633.93707	7772.625
1637.23439	8200.025
1640.52951	8933.925
1643.82246	9994.125
1647.11321	11146.925
1650.40179	11716.625
1653.68819	11289.125
1656.97241	9961.525
1660.25446	8574.025
1663.53433	7618.325
1666.81203	7068.525
1670.08756	6733.025
1673.36092	6556.225
1676.63211	6413.225
1679.90115	6315.125
1683.16801	6241.125
1686.43272	6184.325
1689.69527	6132.325
1692.95567	6124.825
1696.2139	6084.225
1699.46999	6080.125
1702.72392	6060.825
1705.97571	6070.225
1709.22535	6059.625
1712.47284	6054.725
1715.71819	6066.425
1718.96139	6061.925
1722.20246	6024.925
1725.44139	6006.125
1728.67818	5962.925
1731.91284	5940.125
1735.14537	5902.125
1738.37576	5898.825
1741.60403	5872.125
1744.83017	5861.025
1748.05418	5835.725
1751.27607	5820.125
1754.49584	5807.825
1757.71349	5778.725
1760.92903	5768.725
1764.14244	5765.525
1767.35375	5760.525
1770.56294	5745.025
1773.77002	5747.725
1776.97499	5730.125
1780.17785	5698.625
1783.37861	5686.025
1786.57727	5677.325
1789.77382	5662.325
1792.96828	5651.025
1796.16064	5633.125
1799.3509	5646.125
1802.53907	5604.725
1805.72514	5590.725
1808.90913	5604.025
1812.09102	5595.825
1815.27083	5584.525
1818.44856	5534.125
1821.6242	5531.725
1824.79776	5538.825
1827.96924	5523.325
1831.13864	5516.525
1834.30597	5508.925
1837.47122	5507.625
1840.6344	5465.525
1843.7955	5473.625
1846.95454	5454.825
1850.11151	5456.325
1853.26642	5465.625
1856.41926	5464.225
1859.57004	5464.425
1862.71876	5458.425
1865.86542	5442.725
1869.01003	5421.025
1872.15258	5421.625
1875.29308	5423.825
1878.43152	5404.825
1881.56792	5414.125
1884.70227	5401.325
1887.83457	5391.725
1890.96482	5392.525
1894.09304	5373.025
1897.21921	5354.025
1900.34335	5366.725
1903.46544	5355.325
1906.58551	5358.025
1909.70353	5355.425
1912.81953	5354.425
1915.93349	5330.125
1919.04543	5320.325
1922.15534	5321.225
1925.26322	5306.725
1928.36908	5284.225
1931.47292	5278.225
1934.57473	5267.025
1937.67453	5256.125
1940.77232	5266.925
1943.86808	5225.625
1946.96184	5203.025
1950.05358	5194.125
1953.14331	5184.425
1956.23103	5163.325
1959.31675	5136.725
1962.40046	5115.125
1965.48217	5093.225
1968.56188	5108.325
1971.63959	5099.825
1974.7153	5097.225
1977.78901	5071.425
1980.86073	5054.925
1983.93046	5053.125
1986.99819	5031.125
1990.06394	4994.925
1993.1277	4986.925
1996.18947	4974.925
1999.24925	4966.325
2002.30706	4927.725
2005.36288	4934.125
2008.41672	4892.825
2011.46859	4886.025
2014.51848	4890.425
2017.56639	4859.225
2020.61233	4850.725
2023.6563	4839.125
2026.6983	4810.725
2029.73833	4810.125
2032.7764	4778.425
2035.8125	4792.925
2038.84664	4756.525
2041.87881	4755.925
2044.90903	4750.925
2047.93729	4752.825
2050.96359	4732.325
2053.98794	4735.125
2057.01034	4733.225
2060.03078	4713.125
2063.04927	4706.425
2066.06582	4708.425
2069.08042	4709.725
2072.09307	4690.125
2075.10378	4697.225
2078.11255	4693.625
2081.11938	4705.025
2084.12426	4680.325
2087.12722	4687.225
2090.12824	4687.825
2093.12732	4681.225
2096.12447	4692.325
2099.11969	4706.825
2102.11299	4687.325
2105.10435	4681.325
2108.09379	4687.625
2111.08131	4708.225
2114.0669	4675.025
2117.05057	4691.925
2120.03233	4700.025
2123.01216	4687.625
2125.99008	4711.025
2128.96609	4715.925
2131.94018	4729.025
2134.91236	4709.725
2137.88263	4715.625
2140.851	4693.825
2143.81746	4712.325
2146.78201	4697.625
2149.74466	4697.225
2152.7054	4703.825
2155.66425	4714.025
2158.6212	4714.025
2161.57625	4716.025
2164.52941	4707.025
2167.48067	4697.025
2170.43004	4691.625
2173.37752	4681.025
2176.32311	4706.625
2179.26681	4702.125
2182.20863	4687.025
2185.14856	4688.425
2188.08661	4684.825
2191.02278	4675.625
2193.95707	4680.825
2196.88948	4659.125
2199.82001	4669.125
2202.74867	4660.325
2205.67545	4674.325
2208.60037	4659.925
2211.52341	4657.825
2214.44458	4649.725
2217.36388	4614.825
2220.28132	4618.325
2223.1969	4590.625
2226.11061	4575.525
2229.02246	4583.525
2231.93245	4574.625
2234.84058	4568.525
2237.74686	4559.225
2240.65128	4562.125
2243.55385	4563.825
2246.45456	4541.425
2249.35343	4540.125
2252.25044	4534.725
2255.14561	4542.225
2258.03893	4530.025
2260.93041	4534.825
2263.82004	4514.625
2266.70783	4496.525
2269.59378	4494.825
2272.4779	4472.825
2275.36017	4461.225
2278.24061	4467.925
2281.11922	4455.225
2283.996	4438.125
2286.87094	4426.525
2289.74405	4440.225
2292.61534	4429.125
2295.4848	4426.625
2298.35243	4423.225
2301.21824	4421.225
2304.08223	4414.025
2306.94439	4425.725
2309.80474	4412.525
2312.66327	4402.125
2315.51999	4393.525
2318.37489	4385.225
2321.22797	4386.225
2324.07925	4371.325
2326.92871	4360.425
2329.77637	4356.825
2332.62222	4356.125
2335.46626	4348.125
2338.3085	4334.525
2341.14893	4346.825
2343.98756	4336.625
2346.8244	4335.525
2349.65943	4329.925
2352.49267	4335.325
2355.32411	4330.625
2358.15376	4343.525
2360.98161	4345.325
2363.80768	4341.325
2366.63195	4340.925
2369.45444	4327.225
2372.27514	4333.625
2375.09405	4329.225
2377.91118	4329.525
2380.72652	4318.425
2383.54009	4303.525
2386.35187	4283.725
2389.16188	4268.125
2391.97011	4255.125
2394.77657	4255.625
2397.58125	4241.325
2400.38416	4228.325
2403.18529	4223.325
2405.98466	4218.925
2408.78226	4207.625
2411.57809	4197.425
2414.37216	4203.425
2417.16446	4215.825
2419.955	4209.725
2422.74378	4203.425
2425.5308	4190.125
2428.31606	4182.525
2431.09956	4183.425
2433.88131	4182.025
2436.6613	4182.525
2439.43954	4182.725
2442.21603	4181.525
2444.99077	4181.425
2447.76377	4169.125
2450.53501	4162.125
2453.30451	4159.025
2456.07226	4173.925
2458.83827	4150.925
2461.60254	4157.025
2464.36507	4140.825
2467.12586	4148.925
2469.88492	4152.125
2472.64224	4155.225
2475.39782	4139.325
2478.15167	4154.125
2480.90379	4119.925
2483.65417	4141.925
2486.40283	4135.725
2489.14976	4164.125
2491.89497	4161.825
2494.63845	4155.225
2497.3802	4153.625
2500.12024	4148.825
2502.85855	4110.025
2505.59514	4103.025
2508.33002	4105.925
2511.06318	4073.225
2513.79462	4074.825
2516.52435	4067.925
2519.25237	4070.825
2521.97867	4055.425
2524.70327	4050.225
2527.42616	4049.925
2530.14734	4031.725
2532.86681	4041.125
2535.58458	4034.725
2538.30065	4040.725
2541.01501	4044.625
2543.72768	4027.825
2546.43864	4037.725
2549.14791	4030.625
2551.85548	4049.425
2554.56136	4049.725
2557.26554	4037.325
2559.96803	4021.325
2562.66883	4004.925
2565.36794	4009.225
2568.06536	3989.425
2570.7611	3979.925
2573.45514	3961.625
2576.14751	3967.325
2578.83819	3959.525
2581.52719	3944.525
2584.21451	3933.025
2586.90015	3911.525
2589.58411	3915.125
2592.2664	3909.825
2594.94701	3906.725
2597.62594	3904.125
2600.30321	3908.025
2602.9788	3895.325
2605.65273	3894.325
2608.32498	3892.125
2610.99557	3876.825
2613.66449	3881.425
2616.33175	3872.925
2618.99734	3878.725
2621.66128	3853.225
2624.32355	3857.125
2626.98416	3865.925
2629.64311	3852.025
2632.30041	3832.125
2634.95605	3810.625
2637.61004	3809.425
2640.26238	3803.225
2642.91306	3810.025
2645.56209	3804.825
2648.20948	3802.225
2650.85521	3795.325
2653.4993	3793.425
2656.14175	3802.125
2658.78255	3808.825
2661.42171	3809.125
2664.05923	3805.325
2666.6951	3818.325
2669.32934	3827.425
2671.96194	3810.825
2674.59291	3817.725
2677.22224	3803.225
2679.84993	3817.725
2682.476	3803.625
2685.10043	3808.925
2687.72324	3792.325
2690.34441	3801.125
2692.96396	3792.525
2695.58188	3796.225
2698.19818	3783.225
2700.81285	3795.925
2703.4259	3785.325
2706.03733	3787.225
2708.64714	3779.725
2711.25533	3771.325
2713.86191	3757.325
2716.46687	3777.625
2719.07021	3773.625
2721.67194	3783.625
2724.27206	3780.025
2726.87057	3779.325
2729.46747	3764.825
2732.06276	3780.225
2734.65644	3771.025
2737.24852	3767.725
2739.83899	3754.225
2742.42786	3758.025
2745.01513	3758.825
2747.60079	3752.725
2750.18486	3727.125
2752.76733	3733.925
2755.3482	3732.925
2757.92747	3716.325
2760.50515	3719.325
2763.08123	3711.725
2765.65573	3693.125
2768.22863	3699.725
2770.79994	3692.425
2773.36967	3695.125
2775.9378	3678.625
2778.50435	3672.325
2781.06932	3668.625
2783.6327	3662.625
2786.1945	3661.725
2788.75471	3645.925
2791.31335	3636.225
2793.87041	3639.225
2796.42589	3629.625
2798.97979	3636.425
2801.53212	3624.225
2804.08288	3620.325
2806.63206	3625.025
2809.17967	3618.825
2811.72571	3597.225
2814.27018	3603.825
2816.81308	3595.425
2819.35442	3587.925
2821.89419	3566.525
2824.43239	3578.925
2826.96904	3565.025
2829.50412	3559.325
2832.03763	3547.425
2834.56959	3545.925
2837.1	3519.725
2839.62884	3516.825
2842.15613	3512.725
2844.68186	3520.825
2847.20604	3520.825
2849.72867	3508.125
2852.24974	3496.725
2854.76927	3498.225
2857.28724	3481.025
2859.80367	3465.225
2862.31855	3473.425
2864.83189	3470.825
2867.34368	3487.425
2869.85393	3466.425
2872.36264	3479.125
2874.8698	3459.725
2877.37543	3479.925
2879.87952	3459.825
2882.38207	3454.525
2884.88308	3451.125
2887.38256	3448.025
2889.88051	3425.625
2892.37692	3438.025
2894.8718	3427.725
2897.36515	3433.225
2899.85698	3425.225
2902.34727	3432.425
2904.83604	3419.825
2907.32328	3438.225
2909.809	3447.225
2912.29319	3445.625
2914.77587	3447.425
2917.25702	3453.025
2919.73665	3432.425
2922.21476	3446.225
2924.69136	3423.825
2927.16644	3432.925
2929.64	3420.325
2932.11205	3410.225
2934.58258	3406.025
2937.05161	3391.925
2939.51912	3390.925
2941.98513	3380.425
2944.44962	3377.825
2946.91261	3385.925
2949.37409	3394.925
2951.83407	3388.125
2954.29254	3387.825
2956.74951	3370.125
2959.20498	3361.225
2961.65895	3354.725
2964.11142	3351.825
2966.56239	3341.825
2969.01186	3353.025
2971.45984	3353.025
2973.90632	3353.525
2976.35131	3337.425
2978.7948	3327.825
2981.23681	3323.125
2983.67732	3324.125
2986.11635	3326.725
2988.55388	3308.325
2990.98993	3307.525
2993.4245	3293.525
2995.85758	3294.125
2998.28917	3296.125
3000.71928	3281.425
3003.14791	3269.425
3005.57506	3253.225
3008.00073	3260.125
3010.42493	3231.725
3012.84764	3225.225
3015.26888	3226.825
3017.68865	3212.225
3020.10694	3211.325
3022.52376	3207.325
3024.9391	3201.925
3027.35298	3179.625
3029.76539	3175.925
3032.17632	3165.825
3034.5858	3156.125
3036.9938	3154.225
3039.40034	3156.525
3041.80542	3144.425
3044.20903	3130.325
3046.61118	3145.625
3049.01187	3112.825
3051.4111	3114.025
3053.80888	3111.225
3056.20519	3110.625
3058.60005	3094.525
3060.99345	3092.725
3063.3854	3087.925
3065.7759	3084.325
3068.16494	3069.725
3070.55254	3066.425
3072.93868	3061.825
3075.32338	3055.325
3077.70662	3022.225
3080.08842	3029.925
3082.46878	3023.325
3084.84769	3003.425
3087.22515	3006.425
3089.60118	3005.525
3091.97576	3005.225
3094.3489	2999.825
3096.72061	3001.625
3099.09087	2990.325
3101.4597	2991.025
3103.82709	2987.525
3106.19305	2989.725
3108.55757	2973.925
3110.92066	2985.225
3113.28232	2967.725
3115.64255	2955.825
3118.00134	2944.225
3120.35871	2942.625
3122.71466	2932.725
3125.06917	2936.425
3127.42226	2927.025
3129.77393	2923.025
3132.12417	2913.025
3134.47299	2923.325
3136.82039	2905.525
3139.16636	2900.825
3141.51092	2903.725
3143.85406	2901.025
3146.19579	2902.825
3148.53609	2897.025
3150.87499	2897.325
3153.21246	2892.225
3155.54853	2902.025
3157.88318	2895.725
3160.21642	2897.925
3162.54826	2889.525
3164.87868	2891.525
3167.2077	2887.625
3169.5353	2864.925
3171.86151	2876.925
3174.18631	2862.925
3176.5097	2864.625
3178.83169	2853.125
3181.15228	2849.925
3183.47147	2846.925
3185.78926	2844.225
3188.10565	2835.825
3190.42065	2819.725
3192.73424	2824.725
3195.04645	2808.325
3197.35725	2800.425
3199.66667	2800.925
3201.97469	2800.725
3204.28132	2799.625
3206.58656	2794.325
3208.8904	2797.525
3211.19287	2813.925
3213.49394	2801.325
3215.79363	2796.525
3218.09193	2800.725
3220.38884	2803.225
3222.68438	2800.425
3224.97853	2789.825
3227.2713	2799.225
3229.56269	2781.725
3231.8527	2788.225
3234.14133	2770.625
