Data from AgNPs_UA_20uM_CRN_500uM_SU_RamanShift__61__13-46-40-302.txt Node

Date: Thu Aug 04 13:46:40 BST 2022
User: TCL
Spectrometer: QEP01345
Trigger mode: 4
Integration Time (sec): 1.000000E0
Scans to average: 10
Electric dark correction enabled: true
Nonlinearity correction enabled: false
Boxcar width: 0
XAxis mode: Raman Shifts
Number of Pixels in Spectrum: 1044
>>>>>Begin Spectral Data<<<<<
46.04893	-1.125
50.45542	-0.125
54.85868	1.075
59.25871	-0.225
63.6555	14.075
68.04907	11.975
72.43941	16.375
76.82654	13.175
81.21044	14.875
85.59113	15.575
89.96862	15.875
94.34289	13.775
98.71396	17.775
103.08183	18.775
107.4465	16.275
111.80798	20.375
116.16626	17.875
120.52136	22.475
124.87327	19.175
129.222	23.475
133.56755	23.575
137.90993	25.375
142.24913	27.475
146.58517	29.975
150.91804	35.075
155.24774	44.275
159.57429	54.375
163.89768	70.375
168.21792	92.075
172.53501	128.475
176.84895	175.575
181.15975	249.075
185.46741	350.675
189.77193	483.475
194.07331	642.975
198.37157	838.275
202.6667	1033.075
206.9587	1226.875
211.24758	1418.775
215.53334	1612.975
219.81599	1814.975
224.09553	2052.475
228.37195	2295.375
232.64527	2584.975
236.91549	2849.775
241.18261	3121.575
245.44663	3354.275
249.70755	3571.575
253.96539	3757.575
258.22014	3909.675
262.4718	4036.375
266.72039	4130.475
270.96589	4194.575
275.20832	4195.075
279.44768	4149.975
283.68397	4073.575
287.91719	4017.975
292.14735	4017.775
296.37445	4029.275
300.59849	4128.975
304.81948	4202.575
309.03742	4284.475
313.25231	4305.375
317.46415	4263.475
321.67296	4169.875
325.87872	4062.775
330.08145	4022.675
334.28114	4050.975
338.47781	4115.975
342.67145	4198.875
346.86207	4288.675
351.04966	4421.475
355.23424	4542.575
359.4158	4674.475
363.59435	4736.575
367.76989	4805.375
371.94243	4831.875
376.11196	4886.875
380.27849	4903.475
384.44203	4944.275
388.60257	4957.175
392.76012	5002.275
396.91468	5070.575
401.06626	5160.275
405.21485	5218.675
409.36047	5178.775
413.50311	5092.875
417.64277	5000.675
421.77947	4939.775
425.9132	4926.775
430.04396	4973.675
434.17176	5040.875
438.2966	5198.975
442.41849	5377.975
446.53742	5609.775
450.6534	5848.575
454.76644	5991.875
458.87653	5976.575
462.98368	5880.775
467.08789	5713.275
471.18916	5506.875
475.2875	5336.475
479.38291	5185.175
483.4754	5092.675
487.56496	5031.275
491.6516	4978.875
495.73531	4924.375
499.81612	4935.475
503.89401	4959.075
507.96899	4980.275
512.04106	5016.775
516.11023	5037.675
520.1765	5096.175
524.23987	5125.575
528.30034	5138.575
532.35792	5102.775
536.41261	5042.275
540.46441	4982.975
544.51333	4962.075
548.55936	5023.275
552.60252	5084.975
556.64279	5135.875
560.6802	5160.775
564.71473	5142.475
568.7464	5154.475
572.7752	5156.375
576.80114	5141.975
580.82422	5132.475
584.84444	5222.075
588.86181	5390.675
592.87633	5598.275
596.888	5749.275
600.89682	5903.775
604.9028	6386.575
608.90594	7327.075
612.90624	8087.375
616.90371	7423.375
620.89834	6154.475
624.89015	5703.175
628.87913	5644.275
632.86528	5564.675
636.84862	5433.075
640.82913	5300.875
644.80683	5128.975
648.78172	5043.975
652.75379	5096.575
656.72306	5264.175
660.68952	5400.375
664.65319	5373.975
668.61405	5299.075
672.57211	5308.275
676.52738	5295.575
680.47986	5232.275
684.42955	5179.675
688.37646	5167.975
692.32058	5216.675
696.26192	5298.875
700.20048	5392.675
704.13626	5399.575
708.06928	5334.375
711.99952	5268.175
715.927	5287.675
719.85171	5285.475
723.77365	5272.075
727.69284	5232.875
731.60928	5185.775
735.52295	5217.275
739.43388	5271.575
743.34206	5300.275
747.24749	5360.275
751.15017	5394.575
755.05012	5432.175
758.94733	5611.175
762.8418	5907.575
766.73354	6415.975
770.62254	6846.875
774.50882	7011.275
778.39237	6772.675
782.27321	6294.975
786.15132	5831.175
790.02671	5530.875
793.89938	5421.775
797.76935	5358.775
801.6366	5319.875
805.50115	5304.575
809.36299	5282.175
813.22213	5267.975
817.07857	5275.775
820.93231	5268.975
824.78336	5271.075
828.63172	5286.775
832.47738	5291.475
836.32036	5304.875
840.16066	5338.875
843.99827	5346.075
847.8332	5337.375
851.66546	5311.075
855.49504	5313.375
859.32195	5307.175
863.1462	5309.175
866.96777	5272.475
870.78668	5266.675
874.60293	5278.775
878.41652	5310.475
882.22745	5345.675
886.03573	5361.875
889.84136	5351.175
893.64433	5330.475
897.44466	5304.275
901.24235	5298.475
905.0374	5282.375
908.8298	5279.175
912.61957	5279.175
916.40671	5304.175
920.19121	5360.475
923.97308	5428.575
927.75233	5484.075
931.52895	5522.675
935.30295	5469.075
939.07433	5373.875
942.84309	5298.675
946.60924	5285.975
950.37278	5256.075
954.13371	5231.375
957.89203	5212.575
961.64774	5197.175
965.40086	5191.675
969.15137	5172.075
972.89929	5162.775
976.64461	5166.775
980.38733	5188.575
984.12747	5204.175
987.86502	5262.375
991.59999	5347.075
995.33237	5471.875
999.06217	5691.075
1002.78939	5914.175
1006.51404	5987.275
1010.23611	6048.375
1013.95561	6141.175
1017.67255	6224.175
1021.38692	6191.575
1025.09872	6139.675
1028.80796	6211.375
1032.51465	6363.775
1036.21877	6490.975
1039.92035	6449.675
1043.61937	6327.075
1047.31584	6144.175
1051.00976	5981.475
1054.70114	5907.075
1058.38998	5892.475
1062.07627	5905.275
1065.76003	5930.475
1069.44126	5964.175
1073.11995	6020.375
1076.79611	6058.375
1080.46974	6092.475
1084.14085	6155.675
1087.80943	6212.075
1091.47549	6227.075
1095.13903	6118.075
1098.80005	6038.875
1102.45857	5981.375
1106.11456	5953.375
1109.76805	5984.275
1113.41903	6029.575
1117.06751	6116.575
1120.71348	6240.675
1124.35696	6366.775
1127.99793	6399.775
1131.63641	6319.275
1135.2724	6220.175
1138.90589	6100.975
1142.5369	6002.575
1146.16542	5923.775
1149.79145	5913.375
1153.415	5913.975
1157.03607	5944.775
1160.65467	6025.275
1164.27079	6184.375
1167.88443	6382.975
1171.49561	6723.775
1175.10432	7226.375
1178.71056	7887.875
1182.31434	8552.375
1185.91565	9000.775
1189.51451	9073.075
1193.11091	8806.275
1196.70485	8325.675
1200.29634	7834.475
1203.88538	7445.275
1207.47197	7101.975
1211.05612	6867.575
1214.63782	6718.075
1218.21708	6702.575
1221.79391	6755.975
1225.36829	6808.575
1228.94024	6803.375
1232.50976	6778.075
1236.07685	6780.575
1239.6415	6824.975
1243.20374	6872.975
1246.76355	6907.575
1250.32093	6979.875
1253.8759	7148.475
1257.42845	7355.075
1260.97859	7564.475
1264.52631	7773.175
1268.07163	7897.075
1271.61453	7996.275
1275.15503	8110.975
1278.69312	8280.275
1282.22882	8437.575
1285.76211	8612.575
1289.29301	8808.075
1292.82151	9025.775
1296.34761	9228.775
1299.87133	9522.075
1303.39266	9987.875
1306.9116	10644.575
1310.42815	11273.775
1313.94233	11578.275
1317.45412	11381.175
1320.96354	10947.575
1324.47058	10514.075
1327.97525	10258.075
1331.47754	10253.775
1334.97747	10467.975
1338.47502	10710.575
1341.97022	10873.075
1345.46305	11016.575
1348.95352	11257.875
1352.44163	11600.875
1355.92738	12117.375
1359.41078	12706.875
1362.89183	12974.375
1366.37053	12341.475
1369.84688	11037.275
1373.32088	9841.875
1376.79254	9117.375
1380.26186	8735.175
1383.72883	8556.175
1387.19347	8337.575
1390.65578	8072.075
1394.11575	7810.275
1397.57339	7683.775
1401.0287	7733.575
1404.48168	7884.375
1407.93234	8116.175
1411.38068	8338.675
1414.82669	8429.275
1418.27039	8297.275
1421.71177	8145.275
1425.15083	8109.175
1428.58758	8194.575
1432.02203	8385.875
1435.45416	8526.175
1438.88399	8514.075
1442.31151	8441.075
1445.73673	8353.575
1449.15965	8278.675
1452.58027	8129.475
1455.9986	7984.475
1459.41463	7947.775
1462.82837	8030.975
1466.23982	8198.675
1469.64898	8342.675
1473.05586	8503.475
1476.46045	8645.175
1479.86276	8761.075
1483.26279	8806.875
1486.66054	8883.375
1490.05602	8986.875
1493.44922	9211.675
1496.84016	9510.475
1500.22882	9898.175
1503.61521	10440.475
1506.99934	10845.575
1510.38121	11034.575
1513.76081	10763.275
1517.13816	10150.575
1520.51324	9507.975
1523.88607	9098.375
1527.25665	8866.275
1530.62498	8804.975
1533.99105	8796.875
1537.35488	8820.175
1540.71647	8799.975
1544.07581	8722.775
1547.4329	8564.075
1550.78776	8381.775
1554.14038	8201.275
1557.49077	8047.875
1560.83892	7983.075
1564.18484	7998.275
1567.52853	8025.575
1570.86999	8084.275
1574.20922	8062.875
1577.54624	7961.275
1580.88103	7766.075
1584.2136	7599.275
1587.54395	7671.875
1590.87208	8038.575
1594.19801	8710.975
1597.52172	9550.175
1600.84321	10118.775
1604.16251	10058.875
1607.47959	9512.075
1610.79447	8697.275
1614.10715	7927.775
1617.41763	7313.675
1620.7259	6925.575
1624.03199	6766.775
1627.33587	6767.875
1630.63757	6977.075
1633.93707	7333.775
1637.23439	7955.075
1640.52951	8710.975
1643.82246	9488.275
1647.11321	9988.475
1650.40179	9776.475
1653.68819	8903.575
1656.97241	7804.275
1660.25446	6892.375
1663.53433	6300.475
1666.81203	5947.975
1670.08756	5735.475
1673.36092	5596.875
1676.63211	5497.375
1679.90115	5428.975
1683.16801	5367.475
1686.43272	5314.175
1689.69527	5293.875
1692.95567	5270.775
1696.2139	5251.975
1699.46999	5224.875
1702.72392	5234.975
1705.97571	5239.875
1709.22535	5225.075
1712.47284	5214.175
1715.71819	5212.375
1718.96139	5215.575
1722.20246	5203.875
1725.44139	5188.775
1728.67818	5153.675
1731.91284	5120.775
1735.14537	5109.375
1738.37576	5092.075
1741.60403	5071.475
1744.83017	5061.775
1748.05418	5052.475
1751.27607	5036.375
1754.49584	5020.275
1757.71349	5029.875
1760.92903	5001.975
1764.14244	4999.575
1767.35375	5010.775
1770.56294	5002.375
1773.77002	5020.575
1776.97499	4983.475
1780.17785	4970.975
1783.37861	4980.675
1786.57727	4966.075
1789.77382	4951.475
1792.96828	4965.175
1796.16064	4956.575
1799.3509	4943.575
1802.53907	4949.075
1805.72514	4934.775
1808.90913	4917.475
1812.09102	4912.975
1815.27083	4904.375
1818.44856	4887.175
1821.6242	4866.475
1824.79776	4881.175
1827.96924	4868.375
1831.13864	4869.875
1834.30597	4863.975
1837.47122	4852.975
1840.6344	4828.675
1843.7955	4828.975
1846.95454	4828.175
1850.11151	4841.675
1853.26642	4835.475
1856.41926	4828.275
1859.57004	4845.175
1862.71876	4823.575
1865.86542	4832.475
1869.01003	4828.875
1872.15258	4823.675
1875.29308	4814.875
1878.43152	4824.675
1881.56792	4812.175
1884.70227	4806.675
1887.83457	4824.975
1890.96482	4816.775
1894.09304	4795.475
1897.21921	4790.675
1900.34335	4783.575
1903.46544	4803.275
1906.58551	4793.375
1909.70353	4793.775
1912.81953	4772.075
1915.93349	4778.875
1919.04543	4782.175
1922.15534	4766.175
1925.26322	4756.175
1928.36908	4752.675
1931.47292	4740.975
1934.57473	4727.875
1937.67453	4746.775
1940.77232	4743.175
1943.86808	4722.275
1946.96184	4713.475
1950.05358	4683.475
1953.14331	4676.975
1956.23103	4672.875
1959.31675	4649.175
1962.40046	4616.075
1965.48217	4617.475
1968.56188	4596.475
1971.63959	4575.475
1974.7153	4581.475
1977.78901	4569.375
1980.86073	4557.175
1983.93046	4547.775
1986.99819	4530.375
1990.06394	4498.575
1993.1277	4493.975
1996.18947	4487.475
1999.24925	4487.575
2002.30706	4458.775
2005.36288	4438.175
2008.41672	4415.875
2011.46859	4421.575
2014.51848	4397.575
2017.56639	4396.175
2020.61233	4392.475
2023.6563	4372.375
2026.6983	4368.275
2029.73833	4345.675
2032.7764	4342.775
2035.8125	4346.875
2038.84664	4331.575
2041.87881	4333.275
2044.90903	4317.775
2047.93729	4307.775
2050.96359	4324.675
2053.98794	4299.875
2057.01034	4308.675
2060.03078	4301.675
2063.04927	4288.075
2066.06582	4275.275
2069.08042	4284.075
2072.09307	4282.175
2075.10378	4284.475
2078.11255	4278.475
2081.11938	4269.675
2084.12426	4278.975
2087.12722	4240.075
2090.12824	4254.275
2093.12732	4271.375
2096.12447	4266.175
2099.11969	4256.975
2102.11299	4263.375
2105.10435	4269.375
2108.09379	4266.875
2111.08131	4254.175
2114.0669	4241.975
2117.05057	4258.475
2120.03233	4264.175
2123.01216	4239.575
2125.99008	4269.475
2128.96609	4257.375
2131.94018	4274.175
2134.91236	4262.075
2137.88263	4258.975
2140.851	4268.075
2143.81746	4275.475
2146.78201	4266.875
2149.74466	4271.875
2152.7054	4272.275
2155.66425	4264.575
2158.6212	4283.475
2161.57625	4263.075
2164.52941	4259.275
2167.48067	4260.475
2170.43004	4255.575
2173.37752	4253.375
2176.32311	4247.175
2179.26681	4255.175
2182.20863	4246.275
2185.14856	4251.675
2188.08661	4259.275
2191.02278	4246.875
2193.95707	4257.375
2196.88948	4256.275
2199.82001	4259.275
2202.74867	4269.775
2205.67545	4250.875
2208.60037	4255.575
2211.52341	4236.875
2214.44458	4232.575
2217.36388	4220.975
2220.28132	4207.375
2223.1969	4204.275
2226.11061	4189.775
2229.02246	4187.875
2231.93245	4181.075
2234.84058	4159.675
2237.74686	4159.975
2240.65128	4156.775
2243.55385	4166.675
2246.45456	4155.075
2249.35343	4147.475
2252.25044	4143.975
2255.14561	4139.275
2258.03893	4139.575
2260.93041	4135.675
2263.82004	4122.775
2266.70783	4119.575
2269.59378	4106.475
2272.4779	4085.475
2275.36017	4073.875
2278.24061	4038.475
2281.11922	4044.775
2283.996	4041.375
2286.87094	4040.075
2289.74405	4033.575
2292.61534	4026.275
2295.4848	4015.675
2298.35243	4034.075
2301.21824	4019.175
2304.08223	4027.775
2306.94439	4030.375
2309.80474	4032.275
2312.66327	4025.875
2315.51999	4015.175
2318.37489	4024.975
2321.22797	4015.475
2324.07925	4017.175
2326.92871	4007.875
2329.77637	4000.375
2332.62222	4002.475
2335.46626	4007.275
2338.3085	3995.875
2341.14893	4010.975
2343.98756	4005.275
2346.8244	4019.475
2349.65943	4015.675
2352.49267	4018.875
2355.32411	4001.475
2358.15376	4006.475
2360.98161	3990.675
2363.80768	3986.975
2366.63195	3975.575
2369.45444	3970.575
2372.27514	3977.875
2375.09405	3971.975
2377.91118	3955.775
2380.72652	3941.375
2383.54009	3936.375
2386.35187	3936.975
2389.16188	3931.675
2391.97011	3922.675
2394.77657	3909.075
2397.58125	3893.275
2400.38416	3892.775
2403.18529	3904.175
2405.98466	3884.875
2408.78226	3871.175
2411.57809	3865.275
2414.37216	3864.075
2417.16446	3845.375
2419.955	3831.175
2422.74378	3835.375
2425.5308	3831.875
2428.31606	3823.975
2431.09956	3813.275
2433.88131	3806.475
2436.6613	3822.875
2439.43954	3827.175
2442.21603	3818.375
2444.99077	3802.775
2447.76377	3826.075
2450.53501	3798.875
2453.30451	3794.775
2456.07226	3787.175
2458.83827	3786.775
2461.60254	3788.775
2464.36507	3790.875
2467.12586	3776.375
2469.88492	3778.175
2472.64224	3786.975
2475.39782	3785.575
2478.15167	3786.975
2480.90379	3774.275
2483.65417	3782.175
2486.40283	3799.875
2489.14976	3789.075
2491.89497	3794.975
2494.63845	3789.075
2497.3802	3790.275
2500.12024	3793.375
2502.85855	3770.775
2505.59514	3757.475
2508.33002	3756.175
2511.06318	3760.475
2513.79462	3747.575
2516.52435	3743.475
2519.25237	3747.075
2521.97867	3748.875
2524.70327	3750.875
2527.42616	3733.775
2530.14734	3743.375
2532.86681	3741.775
2535.58458	3741.275
2538.30065	3725.375
2541.01501	3729.575
2543.72768	3738.275
2546.43864	3732.275
2549.14791	3728.975
2551.85548	3719.975
2554.56136	3725.775
2557.26554	3702.175
2559.96803	3705.775
2562.66883	3692.875
2565.36794	3691.875
2568.06536	3688.075
2570.7611	3674.175
2573.45514	3674.175
2576.14751	3677.675
2578.83819	3673.075
2581.52719	3667.575
2584.21451	3658.975
2586.90015	3665.975
2589.58411	3651.675
2592.2664	3653.775
2594.94701	3656.975
2597.62594	3664.775
2600.30321	3647.975
2602.9788	3648.275
2605.65273	3655.375
2608.32498	3652.375
2610.99557	3644.575
2613.66449	3635.275
2616.33175	3631.975
2618.99734	3633.475
2621.66128	3642.475
2624.32355	3644.275
2626.98416	3644.275
2629.64311	3653.975
2632.30041	3635.075
2634.95605	3636.075
2637.61004	3640.075
2640.26238	3631.575
2642.91306	3637.475
2645.56209	3622.075
2648.20948	3617.975
2650.85521	3616.575
2653.4993	3610.475
2656.14175	3613.275
2658.78255	3609.175
2661.42171	3593.375
2664.05923	3611.175
2666.6951	3634.875
2669.32934	3620.975
2671.96194	3627.575
2674.59291	3616.175
2677.22224	3618.175
2679.84993	3636.975
2682.476	3620.375
2685.10043	3614.775
2687.72324	3612.275
2690.34441	3614.575
2692.96396	3601.675
2695.58188	3601.275
2698.19818	3598.575
2700.81285	3607.875
2703.4259	3603.975
2706.03733	3598.775
2708.64714	3598.975
2711.25533	3595.175
2713.86191	3595.375
2716.46687	3585.775
2719.07021	3606.575
2721.67194	3613.775
2724.27206	3609.175
2726.87057	3606.675
2729.46747	3613.575
2732.06276	3611.375
2734.65644	3600.575
2737.24852	3593.475
2739.83899	3580.375
2742.42786	3603.675
2745.01513	3595.475
2747.60079	3588.875
2750.18486	3591.875
2752.76733	3584.375
2755.3482	3574.575
2757.92747	3560.675
2760.50515	3577.075
2763.08123	3575.175
2765.65573	3562.575
2768.22863	3565.175
2770.79994	3562.975
2773.36967	3560.275
2775.9378	3548.075
2778.50435	3559.375
2781.06932	3559.975
2783.6327	3555.975
2786.1945	3542.675
2788.75471	3532.775
2791.31335	3535.175
2793.87041	3523.875
2796.42589	3528.575
2798.97979	3522.975
2801.53212	3515.875
2804.08288	3519.575
2806.63206	3522.675
2809.17967	3506.575
2811.72571	3494.175
2814.27018	3492.775
2816.81308	3494.175
2819.35442	3477.475
2821.89419	3458.775
2824.43239	3464.675
2826.96904	3452.475
2829.50412	3466.075
2832.03763	3449.675
2834.56959	3457.475
2837.1	3452.775
2839.62884	3441.275
2842.15613	3458.175
2844.68186	3446.675
2847.20604	3444.975
2849.72867	3438.475
2852.24974	3416.475
2854.76927	3411.875
2857.28724	3395.075
2859.80367	3403.275
2862.31855	3389.975
2864.83189	3404.475
2867.34368	3395.375
2869.85393	3383.475
2872.36264	3381.875
2874.8698	3371.375
2877.37543	3373.675
2879.87952	3371.675
2882.38207	3369.875
2884.88308	3350.975
2887.38256	3361.575
2889.88051	3354.475
2892.37692	3355.075
2894.8718	3347.975
2897.36515	3359.875
2899.85698	3368.475
2902.34727	3363.875
2904.83604	3370.875
2907.32328	3362.075
2909.809	3372.375
2912.29319	3367.075
2914.77587	3364.875
2917.25702	3374.475
2919.73665	3376.975
2922.21476	3377.275
2924.69136	3355.175
2927.16644	3362.775
2929.64	3352.075
2932.11205	3345.375
2934.58258	3349.075
2937.05161	3334.175
2939.51912	3337.375
2941.98513	3321.175
2944.44962	3329.775
2946.91261	3308.675
2949.37409	3336.875
2951.83407	3330.375
2954.29254	3325.075
2956.74951	3317.875
2959.20498	3305.175
2961.65895	3302.275
2964.11142	3289.075
2966.56239	3296.675
2969.01186	3291.275
2971.45984	3292.775
2973.90632	3298.475
2976.35131	3299.475
2978.7948	3278.475
2981.23681	3256.275
2983.67732	3254.075
2986.11635	3244.175
2988.55388	3242.475
2990.98993	3232.875
2993.4245	3230.875
2995.85758	3217.375
2998.28917	3206.375
3000.71928	3201.175
3003.14791	3182.875
3005.57506	3179.375
3008.00073	3177.775
3010.42493	3166.975
3012.84764	3160.575
3015.26888	3131.175
3017.68865	3142.775
3020.10694	3135.575
3022.52376	3129.275
3024.9391	3120.975
3027.35298	3115.575
3029.76539	3115.675
3032.17632	3102.775
3034.5858	3097.975
3036.9938	3096.775
3039.40034	3084.075
3041.80542	3075.675
3044.20903	3083.875
3046.61118	3073.775
3049.01187	3053.575
3051.4111	3051.575
3053.80888	3052.975
3056.20519	3043.175
3058.60005	3021.075
3060.99345	3028.175
3063.3854	3014.675
3065.7759	2997.175
3068.16494	2997.075
3070.55254	2980.575
3072.93868	2984.675
3075.32338	2975.475
3077.70662	2962.875
3080.08842	2946.875
3082.46878	2938.475
3084.84769	2929.275
3087.22515	2918.075
3089.60118	2924.375
3091.97576	2927.975
3094.3489	2923.475
3096.72061	2914.375
3099.09087	2912.375
3101.4597	2908.975
3103.82709	2920.175
3106.19305	2902.575
3108.55757	2897.675
3110.92066	2894.075
3113.28232	2886.875
3115.64255	2883.175
3118.00134	2886.875
3120.35871	2865.075
3122.71466	2868.475
3125.06917	2856.875
3127.42226	2835.675
3129.77393	2857.075
3132.12417	2847.975
3134.47299	2839.075
3136.82039	2822.775
3139.16636	2823.675
3141.51092	2827.875
3143.85406	2847.675
3146.19579	2831.775
3148.53609	2827.475
3150.87499	2825.175
3153.21246	2814.975
3155.54853	2826.475
3157.88318	2826.875
3160.21642	2822.375
3162.54826	2822.975
3164.87868	2794.375
3167.2077	2801.575
3169.5353	2795.875
3171.86151	2796.675
3174.18631	2792.175
3176.5097	2790.675
3178.83169	2779.475
3181.15228	2775.075
3183.47147	2762.575
3185.78926	2778.775
3188.10565	2762.475
3190.42065	2756.875
3192.73424	2754.975
3195.04645	2746.075
3197.35725	2740.275
3199.66667	2737.975
3201.97469	2734.975
3204.28132	2733.575
3206.58656	2739.875
3208.8904	2731.375
3211.19287	2744.375
3213.49394	2748.975
3215.79363	2742.075
3218.09193	2729.175
3220.38884	2730.075
3222.68438	2723.475
3224.97853	2722.175
3227.2713	2731.075
3229.56269	2721.275
3231.8527	2717.375
3234.14133	2714.975
3236.42858	2703.575
