Data from AgNPs_UA_5uM_CRN_500uM_SU_RamanShift__53__11-38-13-149.txt Node

Date: Thu Aug 04 11:38:13 BST 2022
User: TCL
Spectrometer: QEP01345
Trigger mode: 4
Integration Time (sec): 1.000000E0
Scans to average: 10
Electric dark correction enabled: true
Nonlinearity correction enabled: false
Boxcar width: 0
XAxis mode: Raman Shifts
Number of Pixels in Spectrum: 1044
>>>>>Begin Spectral Data<<<<<
46.04893	0.325
50.45542	0.025
54.85868	0.225
59.25871	-2.475
63.6555	-54.475
68.04907	-38.875
72.43941	-69.175
76.82654	-53.775
81.21044	-55.175
85.59113	-47.575
89.96862	-73.375
94.34289	-53.575
98.71396	-73.375
103.08183	-54.075
107.4465	-45.275
111.80798	-53.575
116.16626	-40.475
120.52136	-70.675
124.87327	-46.075
129.222	-56.675
133.56755	-41.775
137.90993	-54.375
142.24913	-40.775
146.58517	-32.075
150.91804	-26.675
155.24774	-8.875
159.57429	21.025
163.89768	31.925
168.21792	91.725
172.53501	134.525
176.84895	254.025
181.15975	431.225
185.46741	645.125
189.77193	919.625
194.07331	1310.625
198.37157	1731.925
202.6667	2164.525
206.9587	2641.425
211.24758	3153.625
215.53334	3707.025
219.81599	4312.325
224.09553	5052.325
228.37195	5823.325
232.64527	6550.725
236.91549	7153.225
241.18261	7495.525
245.44663	7625.625
249.70755	7636.125
253.96539	7683.025
258.22014	7767.225
262.4718	7854.925
266.72039	7869.525
270.96589	7720.125
275.20832	7469.225
279.44768	7181.125
283.68397	6949.825
287.91719	6886.025
292.14735	7010.225
296.37445	7454.925
300.59849	8260.825
304.81948	9351.025
309.03742	10603.225
313.25231	11498.825
317.46415	11341.125
321.67296	10050.425
325.87872	8589.825
330.08145	7740.025
334.28114	7568.325
338.47781	7791.325
342.67145	8287.825
346.86207	9063.525
351.04966	10275.925
355.23424	11465.325
359.4158	12000.425
363.59435	11601.825
367.76989	10913.325
371.94243	10231.925
376.11196	9675.525
380.27849	9275.125
384.44203	8967.525
388.60257	8798.225
392.76012	8830.425
396.91468	9103.425
401.06626	9431.525
405.21485	9451.625
409.36047	8937.825
413.50311	8039.625
417.64277	7214.225
421.77947	6662.825
425.9132	6431.125
430.04396	6321.825
434.17176	6296.225
438.2966	6393.125
442.41849	6572.425
446.53742	6771.325
450.6534	6887.825
454.76644	6900.225
458.87653	6854.225
462.98368	6746.225
467.08789	6604.925
471.18916	6434.425
475.2875	6182.925
479.38291	5988.425
483.4754	5849.325
487.56496	5787.425
491.6516	5735.025
495.73531	5727.625
499.81612	5798.325
503.89401	5932.425
507.96899	6108.925
512.04106	6325.925
516.11023	6562.525
520.1765	6742.025
524.23987	6825.525
528.30034	6821.525
532.35792	6652.925
536.41261	6514.225
540.46441	6317.525
544.51333	6191.625
548.55936	6172.025
552.60252	6326.525
556.64279	6515.725
560.6802	6870.725
564.71473	7660.525
568.7464	8677.825
572.7752	8609.825
576.80114	7292.725
580.82422	6222.225
584.84444	5760.725
588.86181	5638.725
592.87633	5654.325
596.888	5846.225
600.89682	6535.825
604.9028	8800.925
608.90594	14457.625
612.90624	21323.625
616.90371	19460.825
620.89834	10895.525
624.89015	7177.825
628.87913	6748.825
632.86528	7268.725
636.84862	7527.625
640.82913	6936.925
644.80683	6008.925
648.78172	5596.825
652.75379	5733.725
656.72306	6392.725
660.68952	7053.425
664.65319	6709.225
668.61405	5885.725
672.57211	5568.725
676.52738	5585.125
680.47986	5491.025
684.42955	5328.025
688.37646	5259.825
692.32058	5249.225
696.26192	5376.525
700.20048	5502.025
704.13626	5521.525
708.06928	5448.925
711.99952	5415.725
715.927	5460.925
719.85171	5631.725
723.77365	5753.625
727.69284	5625.025
731.60928	5502.825
735.52295	5446.725
739.43388	5519.825
743.34206	5547.225
747.24749	5539.925
751.15017	5579.025
755.05012	5867.725
758.94733	6933.125
762.8418	9423.925
766.73354	12716.025
770.62254	14371.325
774.50882	13767.925
778.39237	12567.925
782.27321	10725.425
786.15132	8263.725
790.02671	6620.325
793.89938	5832.125
797.76935	5574.425
801.6366	5438.125
805.50115	5359.525
809.36299	5331.525
813.22213	5313.225
817.07857	5324.025
820.93231	5345.325
824.78336	5410.325
828.63172	5538.725
832.47738	5562.125
836.32036	5486.325
840.16066	5312.725
843.99827	5204.625
847.8332	5168.825
851.66546	5174.725
855.49504	5154.725
859.32195	5164.925
863.1462	5120.525
866.96777	5120.625
870.78668	5087.825
874.60293	5145.525
878.41652	5196.025
882.22745	5330.925
886.03573	5402.825
889.84136	5371.225
893.64433	5362.825
897.44466	5338.525
901.24235	5363.125
905.0374	5305.625
908.8298	5133.225
912.61957	5031.825
916.40671	4970.725
920.19121	5013.325
923.97308	5176.825
927.75233	5506.725
931.52895	5842.425
935.30295	5678.725
939.07433	5175.625
942.84309	4858.625
946.60924	4742.425
950.37278	4659.925
954.13371	4674.625
957.89203	4662.625
961.64774	4672.725
965.40086	4643.325
969.15137	4612.325
972.89929	4638.925
976.64461	4626.225
980.38733	4632.625
984.12747	4619.925
987.86502	4627.525
991.59999	4654.325
995.33237	4729.625
999.06217	4811.425
1002.78939	4967.225
1006.51404	5218.025
1010.23611	5351.925
1013.95561	5264.825
1017.67255	5110.525
1021.38692	4984.925
1025.09872	4836.525
1028.80796	4753.625
1032.51465	4814.225
1036.21877	4824.125
1039.92035	4903.825
1043.61937	4947.725
1047.31584	5032.625
1051.00976	5055.125
1054.70114	5009.925
1058.38998	4945.325
1062.07627	4950.225
1065.76003	4940.125
1069.44126	5006.825
1073.11995	5116.325
1076.79611	5386.925
1080.46974	5801.325
1084.14085	6393.125
1087.80943	6898.825
1091.47549	6905.925
1095.13903	6417.625
1098.80005	5933.925
1102.45857	5695.325
1106.11456	5660.025
1109.76805	5719.525
1113.41903	6028.625
1117.06751	6555.125
1120.71348	7420.525
1124.35696	8694.325
1127.99793	9567.625
1131.63641	8885.325
1135.2724	7521.925
1138.90589	6599.925
1142.5369	6067.925
1146.16542	5736.725
1149.79145	5509.525
1153.415	5421.125
1157.03607	5487.925
1160.65467	5653.225
1164.27079	6009.925
1167.88443	6489.625
1171.49561	7342.825
1175.10432	8855.125
1178.71056	10917.825
1182.31434	12415.125
1185.91565	12222.425
1189.51451	10912.525
1193.11091	9525.825
1196.70485	8630.125
1200.29634	8266.225
1203.88538	7834.325
1207.47197	6964.125
1211.05612	6170.625
1214.63782	5647.425
1218.21708	5400.425
1221.79391	5308.825
1225.36829	5276.825
1228.94024	5281.225
1232.50976	5272.625
1236.07685	5304.725
1239.6415	5343.525
1243.20374	5453.825
1246.76355	5567.425
1250.32093	5757.425
1253.8759	5965.825
1257.42845	6404.025
1260.97859	6945.125
1264.52631	7507.225
1268.07163	7795.425
1271.61453	7860.525
1275.15503	7687.825
1278.69312	7500.925
1282.22882	7647.825
1285.76211	8377.125
1289.29301	9360.425
1292.82151	10085.825
1296.34761	10368.025
1299.87133	11074.425
1303.39266	12829.525
1306.9116	16135.225
1310.42815	20102.125
1313.94233	21463.925
1317.45412	18383.525
1320.96354	14038.325
1324.47058	10764.925
1327.97525	8737.425
1331.47754	7720.725
1334.97747	7361.025
1338.47502	7494.425
1341.97022	8308.325
1345.46305	10112.125
1348.95352	12682.125
1352.44163	15262.225
1355.92738	18420.225
1359.41078	23833.425
1362.89183	29719.225
1366.37053	28471.325
1369.84688	20148.125
1373.32088	13216.025
1376.79254	10208.125
1380.26186	8853.425
1383.72883	7837.925
1387.19347	6876.925
1390.65578	6166.425
1394.11575	5740.125
1397.57339	5534.725
1401.0287	5370.125
1404.48168	5257.925
1407.93234	5217.325
1411.38068	5313.525
1414.82669	5626.625
1418.27039	5992.825
1421.71177	6066.825
1425.15083	5900.725
1428.58758	5889.525
1432.02203	6239.425
1435.45416	6495.725
1438.88399	6300.325
1442.31151	6008.925
1445.73673	5963.925
1449.15965	5924.725
1452.58027	5836.925
1455.9986	5707.825
1459.41463	5587.725
1462.82837	5602.725
1466.23982	5792.725
1469.64898	6104.225
1473.05586	6235.225
1476.46045	6213.725
1479.86276	6263.825
1483.26279	6482.325
1486.66054	7013.225
1490.05602	7845.925
1493.44922	9158.525
1496.84016	11282.525
1500.22882	14579.825
1503.61521	19164.025
1506.99934	24927.025
1510.38121	30452.125
1513.76081	32321.125
1517.13816	28554.225
1520.51324	21539.225
1523.88607	15335.925
1527.25665	11452.925
1530.62498	9280.525
1533.99105	8013.925
1537.35488	7184.925
1540.71647	6728.725
1544.07581	6542.125
1547.4329	6539.325
1550.78776	6683.225
1554.14038	6946.525
1557.49077	7384.925
1560.83892	8105.425
1564.18484	9262.025
1567.52853	10575.425
1570.86999	11399.925
1574.20922	11565.725
1577.54624	11055.025
1580.88103	9516.725
1584.2136	7655.525
1587.54395	6549.025
1590.87208	6276.525
1594.19801	6578.125
1597.52172	7190.825
1600.84321	7208.925
1604.16251	6552.125
1607.47959	5947.625
1610.79447	5597.625
1614.10715	5266.225
1617.41763	5035.425
1620.7259	4914.925
1624.03199	4943.425
1627.33587	5056.025
1630.63757	5361.425
1633.93707	5905.725
1637.23439	6886.625
1640.52951	8702.625
1643.82246	11761.425
1647.11321	15956.725
1650.40179	19244.925
1653.68819	18935.625
1656.97241	15076.525
1660.25446	10644.325
1663.53433	7590.425
1666.81203	5947.025
1670.08756	5093.525
1673.36092	4651.325
1676.63211	4352.925
1679.90115	4182.825
1683.16801	4048.225
1686.43272	3907.025
1689.69527	3859.825
1692.95567	3788.425
1696.2139	3762.125
1699.46999	3697.325
1702.72392	3687.625
1705.97571	3692.925
1709.22535	3688.325
1712.47284	3730.325
1715.71819	3760.125
1718.96139	3755.025
1722.20246	3734.025
1725.44139	3695.425
1728.67818	3638.525
1731.91284	3566.325
1735.14537	3529.925
1738.37576	3490.225
1741.60403	3472.025
1744.83017	3437.625
1748.05418	3441.825
1751.27607	3409.425
1754.49584	3362.725
1757.71349	3316.225
1760.92903	3296.325
1764.14244	3231.625
1767.35375	3215.925
1770.56294	3189.925
1773.77002	3151.325
1776.97499	3133.025
1780.17785	3099.825
1783.37861	3088.725
1786.57727	3094.625
1789.77382	3025.225
1792.96828	3060.325
1796.16064	3072.425
1799.3509	3060.625
1802.53907	3067.625
1805.72514	3021.225
1808.90913	2994.325
1812.09102	2996.025
1815.27083	2990.725
1818.44856	2981.525
1821.6242	2963.325
1824.79776	2963.425
1827.96924	2931.825
1831.13864	2919.425
1834.30597	2898.425
1837.47122	2878.125
1840.6344	2870.725
1843.7955	2843.725
1846.95454	2811.425
1850.11151	2838.425
1853.26642	2789.625
1856.41926	2809.225
1859.57004	2809.925
1862.71876	2812.225
1865.86542	2827.025
1869.01003	2806.925
1872.15258	2799.525
1875.29308	2812.125
1878.43152	2813.525
1881.56792	2800.725
1884.70227	2782.525
1887.83457	2778.125
1890.96482	2751.025
1894.09304	2744.625
1897.21921	2734.325
1900.34335	2751.325
1903.46544	2734.625
1906.58551	2755.825
1909.70353	2735.325
1912.81953	2726.925
1915.93349	2722.925
1919.04543	2714.925
1922.15534	2682.325
1925.26322	2681.425
1928.36908	2662.125
1931.47292	2645.825
1934.57473	2647.825
1937.67453	2608.825
1940.77232	2573.025
1943.86808	2560.625
1946.96184	2559.725
1950.05358	2539.525
1953.14331	2525.125
1956.23103	2534.525
1959.31675	2514.925
1962.40046	2490.725
1965.48217	2518.925
1968.56188	2538.225
1971.63959	2533.425
1974.7153	2543.625
1977.78901	2537.725
1980.86073	2495.325
1983.93046	2451.725
1986.99819	2370.825
1990.06394	2390.025
1993.1277	2402.325
1996.18947	2391.025
1999.24925	2357.925
2002.30706	2361.325
2005.36288	2352.425
2008.41672	2339.325
2011.46859	2319.325
2014.51848	2310.525
2017.56639	2292.025
2020.61233	2272.125
2023.6563	2293.925
2026.6983	2242.325
2029.73833	2262.125
2032.7764	2276.625
2035.8125	2227.525
2038.84664	2239.325
2041.87881	2228.425
2044.90903	2234.625
2047.93729	2226.425
2050.96359	2194.025
2053.98794	2200.825
2057.01034	2196.725
2060.03078	2180.325
2063.04927	2158.925
2066.06582	2158.025
2069.08042	2149.125
2072.09307	2142.225
2075.10378	2143.925
2078.11255	2139.925
2081.11938	2137.025
2084.12426	2142.825
2087.12722	2125.325
2090.12824	2134.025
2093.12732	2143.725
2096.12447	2142.125
2099.11969	2128.925
2102.11299	2122.025
2105.10435	2156.625
2108.09379	2136.025
2111.08131	2126.225
2114.0669	2132.125
2117.05057	2145.825
2120.03233	2140.625
2123.01216	2175.425
2125.99008	2181.825
2128.96609	2180.825
2131.94018	2189.325
2134.91236	2176.525
2137.88263	2152.725
2140.851	2158.725
2143.81746	2161.125
2146.78201	2124.625
2149.74466	2109.125
2152.7054	2119.825
2155.66425	2090.825
2158.6212	2079.925
2161.57625	2062.025
2164.52941	2036.925
2167.48067	2067.625
2170.43004	2058.725
2173.37752	2085.125
2176.32311	2068.425
2179.26681	2084.725
2182.20863	2093.325
2185.14856	2083.825
2188.08661	2079.025
2191.02278	2077.525
2193.95707	2049.925
2196.88948	2036.125
2199.82001	2043.225
2202.74867	2027.625
2205.67545	2027.925
2208.60037	2037.025
2211.52341	2029.925
2214.44458	2019.125
2217.36388	2016.225
2220.28132	2003.625
2223.1969	1988.825
2226.11061	1980.325
2229.02246	1979.125
2231.93245	1980.825
2234.84058	1967.025
2237.74686	1961.425
2240.65128	1952.825
2243.55385	1959.825
2246.45456	1940.825
2249.35343	1969.125
2252.25044	1965.025
2255.14561	1993.125
2258.03893	2002.625
2260.93041	2011.525
2263.82004	2028.525
2266.70783	2021.825
2269.59378	2007.725
2272.4779	1988.425
2275.36017	2004.525
2278.24061	1991.225
2281.11922	1959.825
2283.996	1970.825
2286.87094	1955.625
2289.74405	1936.025
2292.61534	1927.625
2295.4848	1908.425
2298.35243	1911.425
2301.21824	1898.325
2304.08223	1889.125
2306.94439	1904.225
2309.80474	1895.325
2312.66327	1899.825
2315.51999	1879.525
2318.37489	1875.825
2321.22797	1861.625
2324.07925	1857.425
2326.92871	1849.425
2329.77637	1849.225
2332.62222	1847.525
2335.46626	1830.125
2338.3085	1825.225
2341.14893	1858.025
2343.98756	1860.025
2346.8244	1841.725
2349.65943	1840.625
2352.49267	1862.325
2355.32411	1873.625
2358.15376	1870.825
2360.98161	1890.625
2363.80768	1886.525
2366.63195	1903.525
2369.45444	1920.825
2372.27514	1923.625
2375.09405	1940.025
2377.91118	1884.225
2380.72652	1890.525
2383.54009	1881.625
2386.35187	1879.925
2389.16188	1848.925
2391.97011	1841.625
2394.77657	1824.025
2397.58125	1811.525
2400.38416	1806.725
2403.18529	1788.825
2405.98466	1772.125
2408.78226	1776.925
2411.57809	1768.125
2414.37216	1758.525
2417.16446	1760.225
2419.955	1745.825
2422.74378	1765.625
2425.5308	1757.625
2428.31606	1753.525
2431.09956	1778.225
2433.88131	1753.025
2436.6613	1775.825
2439.43954	1773.825
2442.21603	1768.625
2444.99077	1772.525
2447.76377	1794.225
2450.53501	1781.225
2453.30451	1779.225
2456.07226	1792.525
2458.83827	1776.525
2461.60254	1742.925
2464.36507	1780.525
2467.12586	1760.825
2469.88492	1773.525
2472.64224	1773.725
2475.39782	1766.125
2478.15167	1771.525
2480.90379	1803.425
2483.65417	1811.925
2486.40283	1832.725
2489.14976	1847.425
2491.89497	1832.425
2494.63845	1829.125
2497.3802	1818.625
2500.12024	1808.525
2502.85855	1806.325
2505.59514	1800.625
2508.33002	1778.225
2511.06318	1729.625
2513.79462	1716.425
2516.52435	1662.825
2519.25237	1645.725
2521.97867	1635.525
2524.70327	1637.425
2527.42616	1622.725
2530.14734	1632.425
2532.86681	1613.325
2535.58458	1607.325
2538.30065	1605.925
2541.01501	1633.825
2543.72768	1614.725
2546.43864	1624.625
2549.14791	1628.725
2551.85548	1625.725
2554.56136	1627.625
2557.26554	1639.725
2559.96803	1635.925
2562.66883	1635.125
2565.36794	1630.025
2568.06536	1604.725
2570.7611	1640.725
2573.45514	1622.225
2576.14751	1612.625
2578.83819	1599.625
2581.52719	1590.525
2584.21451	1591.325
2586.90015	1569.725
2589.58411	1560.025
2592.2664	1578.125
2594.94701	1576.225
2597.62594	1580.925
2600.30321	1518.225
2602.9788	1541.425
2605.65273	1545.525
2608.32498	1545.125
2610.99557	1563.125
2613.66449	1537.625
2616.33175	1550.825
2618.99734	1550.625
2621.66128	1559.925
2624.32355	1545.125
2626.98416	1528.925
2629.64311	1513.925
2632.30041	1503.125
2634.95605	1481.925
2637.61004	1474.525
2640.26238	1458.125
2642.91306	1461.325
2645.56209	1475.325
2648.20948	1473.525
2650.85521	1445.725
2653.4993	1481.925
2656.14175	1471.625
2658.78255	1460.025
2661.42171	1444.025
2664.05923	1484.325
2666.6951	1490.925
2669.32934	1498.925
2671.96194	1514.325
2674.59291	1492.725
2677.22224	1518.425
2679.84993	1502.525
2682.476	1486.525
2685.10043	1485.325
2687.72324	1479.325
2690.34441	1464.725
2692.96396	1464.425
2695.58188	1480.625
2698.19818	1460.725
2700.81285	1450.425
2703.4259	1450.525
2706.03733	1416.425
2708.64714	1424.825
2711.25533	1460.425
2713.86191	1459.825
2716.46687	1459.725
2719.07021	1466.925
2721.67194	1463.225
2724.27206	1471.925
2726.87057	1447.225
2729.46747	1440.925
2732.06276	1434.225
2734.65644	1414.425
2737.24852	1420.225
2739.83899	1402.225
2742.42786	1413.425
2745.01513	1412.325
2747.60079	1388.525
2750.18486	1379.425
2752.76733	1376.925
2755.3482	1367.525
2757.92747	1374.125
2760.50515	1343.325
2763.08123	1341.025
2765.65573	1344.725
2768.22863	1349.825
2770.79994	1332.125
2773.36967	1326.125
2775.9378	1330.825
2778.50435	1330.225
2781.06932	1327.725
2783.6327	1315.225
2786.1945	1337.925
2788.75471	1331.325
2791.31335	1333.925
2793.87041	1327.925
2796.42589	1328.125
2798.97979	1325.125
2801.53212	1330.825
2804.08288	1354.325
2806.63206	1357.425
2809.17967	1337.525
2811.72571	1367.425
2814.27018	1362.725
2816.81308	1362.625
2819.35442	1349.925
2821.89419	1380.525
2824.43239	1375.425
2826.96904	1407.625
2829.50412	1386.625
2832.03763	1380.925
2834.56959	1377.125
2837.1	1363.325
2839.62884	1360.725
2842.15613	1360.325
2844.68186	1362.725
2847.20604	1340.625
2849.72867	1341.825
2852.24974	1360.625
2854.76927	1328.725
2857.28724	1297.825
2859.80367	1374.525
2862.31855	1392.525
2864.83189	1389.925
2867.34368	1410.325
2869.85393	1428.125
2872.36264	1409.325
2874.8698	1418.525
2877.37543	1412.825
2879.87952	1401.025
2882.38207	1369.425
2884.88308	1377.225
2887.38256	1370.825
2889.88051	1352.125
2892.37692	1354.725
2894.8718	1330.425
2897.36515	1346.325
2899.85698	1341.525
2902.34727	1333.525
2904.83604	1353.225
2907.32328	1367.625
2909.809	1387.425
2912.29319	1383.325
2914.77587	1414.325
2917.25702	1417.525
2919.73665	1414.925
2922.21476	1401.025
2924.69136	1386.925
2927.16644	1351.925
2929.64	1336.525
2932.11205	1321.825
2934.58258	1323.825
2937.05161	1309.425
2939.51912	1312.225
2941.98513	1327.725
2944.44962	1307.925
2946.91261	1292.425
2949.37409	1298.125
2951.83407	1297.625
2954.29254	1304.425
2956.74951	1307.925
2959.20498	1294.425
2961.65895	1306.325
2964.11142	1291.625
2966.56239	1286.125
2969.01186	1288.625
2971.45984	1279.925
2973.90632	1273.025
2976.35131	1288.225
2978.7948	1287.725
2981.23681	1278.425
2983.67732	1292.425
2986.11635	1291.425
2988.55388	1269.225
2990.98993	1267.025
2993.4245	1273.725
2995.85758	1266.925
2998.28917	1269.625
3000.71928	1264.025
3003.14791	1272.825
3005.57506	1262.025
3008.00073	1248.925
3010.42493	1193.125
3012.84764	1251.125
3015.26888	1254.825
3017.68865	1244.925
3020.10694	1196.925
3022.52376	1211.625
3024.9391	1210.925
3027.35298	1200.125
3029.76539	1179.225
3032.17632	1182.525
3034.5858	1167.325
3036.9938	1160.025
3039.40034	1147.825
3041.80542	1129.825
3044.20903	1119.425
3046.61118	1118.125
3049.01187	1122.125
3051.4111	1109.625
3053.80888	1101.125
3056.20519	1099.825
3058.60005	1085.925
3060.99345	1112.225
3063.3854	1072.625
3065.7759	1074.725
3068.16494	1075.825
3070.55254	1062.825
3072.93868	1079.025
3075.32338	1064.125
3077.70662	1057.825
3080.08842	1060.725
3082.46878	1038.825
3084.84769	1059.625
3087.22515	1037.525
3089.60118	1055.525
3091.97576	1027.325
3094.3489	1050.825
3096.72061	1040.125
3099.09087	1020.225
3101.4597	1030.925
3103.82709	1022.325
3106.19305	1022.025
3108.55757	1026.225
3110.92066	1007.625
3113.28232	1026.525
3115.64255	1026.625
3118.00134	1034.025
3120.35871	1007.125
3122.71466	1003.525
3125.06917	1012.725
3127.42226	1006.025
3129.77393	989.125
3132.12417	1011.525
3134.47299	1012.525
3136.82039	997.425
3139.16636	972.125
3141.51092	1009.125
3143.85406	1004.225
3146.19579	995.925
3148.53609	993.325
3150.87499	998.025
3153.21246	993.425
3155.54853	1007.425
3157.88318	1005.925
3160.21642	1008.725
3162.54826	1001.925
3164.87868	1000.425
3167.2077	963.925
3169.5353	985.525
3171.86151	993.225
3174.18631	974.025
3176.5097	964.425
3178.83169	967.825
3181.15228	969.025
3183.47147	938.325
3185.78926	929.025
3188.10565	945.425
3190.42065	916.925
3192.73424	933.025
3195.04645	926.425
3197.35725	912.125
3199.66667	928.725
3201.97469	926.525
3204.28132	911.725
3206.58656	926.225
3208.8904	937.625
3211.19287	935.925
3213.49394	931.125
3215.79363	927.925
3218.09193	941.325
3220.38884	925.225
3222.68438	927.525
3224.97853	907.825
3227.2713	937.725
3229.56269	919.325
3231.8527	915.825
3234.14133	906.025
