Data from AgNPs_UA_5uM_CRN_500uM_SU_RamanShift__261__12-12-53-192.txt Node

Date: Thu Aug 04 12:12:53 BST 2022
User: TCL
Spectrometer: QEP01345
Trigger mode: 4
Integration Time (sec): 1.000000E0
Scans to average: 10
Electric dark correction enabled: true
Nonlinearity correction enabled: false
Boxcar width: 0
XAxis mode: Raman Shifts
Number of Pixels in Spectrum: 1044
>>>>>Begin Spectral Data<<<<<
46.04893	0.5375
50.45542	-0.0625
54.85868	-0.2625
59.25871	-1.3625
63.6555	-56.5625
68.04907	-40.3625
72.43941	-71.5625
76.82654	-57.7625
81.21044	-57.7625
85.59113	-49.8625
89.96862	-74.8625
94.34289	-55.9625
98.71396	-78.6625
103.08183	-59.1625
107.4465	-50.4625
111.80798	-55.9625
116.16626	-44.8625
120.52136	-75.5625
124.87327	-51.2625
129.222	-63.0625
133.56755	-51.2625
137.90993	-64.1625
142.24913	-51.3625
146.58517	-45.6625
150.91804	-40.0625
155.24774	-29.6625
159.57429	-11.4625
163.89768	-7.5625
168.21792	32.0375
172.53501	52.4375
176.84895	134.1375
181.15975	260.5375
185.46741	412.1375
189.77193	580.8375
194.07331	866.9375
198.37157	1144.4375
202.6667	1423.6375
206.9587	1725.3375
211.24758	2044.0375
215.53334	2348.6375
219.81599	2693.3375
224.09553	3106.9375
228.37195	3524.2375
232.64527	3950.9375
236.91549	4416.9375
241.18261	4776.9375
245.44663	5026.2375
249.70755	5208.2375
253.96539	5320.2375
258.22014	5422.3375
262.4718	5511.2375
266.72039	5542.6375
270.96589	5495.3375
275.20832	5414.3375
279.44768	5318.0375
283.68397	5197.1375
287.91719	5151.2375
292.14735	5185.3375
296.37445	5362.8375
300.59849	5653.4375
304.81948	5985.1375
309.03742	6368.5375
313.25231	6593.0375
317.46415	6547.8375
321.67296	6160.1375
325.87872	5786.1375
330.08145	5558.0375
334.28114	5525.3375
338.47781	5600.8375
342.67145	5738.9375
346.86207	5943.0375
351.04966	6298.0375
355.23424	6691.2375
359.4158	6945.6375
363.59435	6960.7375
367.76989	6912.0375
371.94243	6796.7375
376.11196	6655.1375
380.27849	6596.8375
384.44203	6520.7375
388.60257	6472.1375
392.76012	6484.4375
396.91468	6607.7375
401.06626	6756.5375
405.21485	6786.2375
409.36047	6629.0375
413.50311	6309.5375
417.64277	6013.5375
421.77947	5796.8375
425.9132	5749.1375
430.04396	5730.1375
434.17176	5767.3375
438.2966	5846.8375
442.41849	5937.4375
446.53742	6045.4375
450.6534	6152.9375
454.76644	6218.8375
458.87653	6235.0375
462.98368	6176.8375
467.08789	6119.2375
471.18916	6040.2375
475.2875	5916.3375
479.38291	5816.7375
483.4754	5723.5375
487.56496	5663.4375
491.6516	5628.5375
495.73531	5645.7375
499.81612	5681.9375
503.89401	5754.6375
507.96899	5826.1375
512.04106	5903.2375
516.11023	6014.9375
520.1765	6079.3375
524.23987	6100.2375
528.30034	6109.7375
532.35792	6019.8375
536.41261	5962.8375
540.46441	5865.0375
544.51333	5822.9375
548.55936	5865.3375
552.60252	5994.2375
556.64279	6098.7375
560.6802	6225.4375
564.71473	6320.1375
568.7464	6535.7375
572.7752	6509.4375
576.80114	6201.0375
580.82422	5992.7375
584.84444	5908.8375
588.86181	5872.4375
592.87633	5886.5375
596.888	6019.0375
600.89682	6389.6375
604.9028	7338.6375
608.90594	9424.6375
612.90624	11775.9375
616.90371	10901.0375
620.89834	7833.1375
624.89015	6487.9375
628.87913	6287.3375
632.86528	6431.3375
636.84862	6595.5375
640.82913	6486.9375
644.80683	6107.7375
648.78172	5946.7375
652.75379	5959.7375
656.72306	6197.7375
660.68952	6442.4375
664.65319	6339.4375
668.61405	6113.9375
672.57211	6039.8375
676.52738	6045.5375
680.47986	5931.1375
684.42955	5833.9375
688.37646	5783.4375
692.32058	5800.5375
696.26192	5879.1375
700.20048	5965.0375
704.13626	6021.2375
708.06928	5954.1375
711.99952	5950.4375
715.927	5931.6375
719.85171	5950.5375
723.77365	6001.3375
727.69284	5973.1375
731.60928	5957.5375
735.52295	5935.4375
739.43388	5970.1375
743.34206	5979.8375
747.24749	6007.8375
751.15017	6025.1375
755.05012	6090.8375
758.94733	6481.1375
762.8418	7343.8375
766.73354	8661.7375
770.62254	9702.7375
774.50882	9788.5375
778.39237	9245.3375
782.27321	8307.6375
786.15132	7250.1375
790.02671	6564.6375
793.89938	6186.1375
797.76935	6069.5375
801.6366	5981.9375
805.50115	5929.1375
809.36299	5924.9375
813.22213	5914.7375
817.07857	5890.1375
820.93231	5914.4375
824.78336	5920.9375
828.63172	5941.9375
832.47738	5924.9375
836.32036	5952.9375
840.16066	5914.4375
843.99827	5892.9375
847.8332	5891.0375
851.66546	5897.3375
855.49504	5922.3375
859.32195	5925.7375
863.1462	5915.4375
866.96777	5929.1375
870.78668	5899.2375
874.60293	5940.8375
878.41652	5967.9375
882.22745	6032.8375
886.03573	6071.4375
889.84136	6042.6375
893.64433	6022.5375
897.44466	6038.5375
901.24235	6038.7375
905.0374	6023.0375
908.8298	5948.2375
912.61957	5930.0375
916.40671	5893.7375
920.19121	5951.7375
923.97308	6043.6375
927.75233	6086.8375
931.52895	6160.2375
935.30295	6107.8375
939.07433	5971.4375
942.84309	5847.5375
946.60924	5821.7375
950.37278	5791.5375
954.13371	5778.4375
957.89203	5783.6375
961.64774	5792.6375
965.40086	5795.5375
969.15137	5766.8375
972.89929	5796.8375
976.64461	5781.9375
980.38733	5788.1375
984.12747	5811.0375
987.86502	5802.4375
991.59999	5844.6375
995.33237	5899.2375
999.06217	5964.6375
1002.78939	6036.7375
1006.51404	6166.5375
1010.23611	6294.1375
1013.95561	6323.9375
1017.67255	6329.2375
1021.38692	6304.7375
1025.09872	6256.4375
1028.80796	6159.2375
1032.51465	6167.1375
1036.21877	6144.0375
1039.92035	6194.6375
1043.61937	6240.8375
1047.31584	6277.8375
1051.00976	6323.4375
1054.70114	6314.5375
1058.38998	6314.9375
1062.07627	6330.0375
1065.76003	6357.8375
1069.44126	6439.6375
1073.11995	6504.4375
1076.79611	6637.8375
1080.46974	6810.5375
1084.14085	6965.9375
1087.80943	7076.9375
1091.47549	7130.4375
1095.13903	7044.8375
1098.80005	6909.7375
1102.45857	6813.8375
1106.11456	6785.1375
1109.76805	6702.9375
1113.41903	6861.6375
1117.06751	7007.9375
1120.71348	7306.8375
1124.35696	7691.3375
1127.99793	7960.4375
1131.63641	7782.4375
1135.2724	7383.6375
1138.90589	7096.1375
1142.5369	6886.4375
1146.16542	6751.6375
1149.79145	6657.4375
1153.415	6626.8375
1157.03607	6608.3375
1160.65467	6725.7375
1164.27079	6947.9375
1167.88443	7215.2375
1171.49561	7645.6375
1175.10432	8251.0375
1178.71056	9176.9375
1182.31434	9980.5375
1185.91565	10235.7375
1189.51451	10089.5375
1193.11091	9847.3375
1196.70485	9572.5375
1200.29634	9316.1375
1203.88538	9020.2375
1207.47197	8556.5375
1211.05612	8087.7375
1214.63782	7669.9375
1218.21708	7423.6375
1221.79391	7258.8375
1225.36829	7193.8375
1228.94024	7194.0375
1232.50976	7198.2375
1236.07685	7245.1375
1239.6415	7260.6375
1243.20374	7280.8375
1246.76355	7302.7375
1250.32093	7375.7375
1253.8759	7466.9375
1257.42845	7641.7375
1260.97859	7820.4375
1264.52631	8055.5375
1268.07163	8222.0375
1271.61453	8368.9375
1275.15503	8395.2375
1278.69312	8406.4375
1282.22882	8472.7375
1285.76211	8681.1375
1289.29301	8940.1375
1292.82151	9196.4375
1296.34761	9410.9375
1299.87133	9817.3375
1303.39266	10515.5375
1306.9116	11663.1375
1310.42815	12908.3375
1313.94233	13328.1375
1317.45412	12581.0375
1320.96354	11421.1375
1324.47058	10382.1375
1327.97525	9616.7375
1331.47754	9228.1375
1334.97747	9098.1375
1338.47502	9226.6375
1341.97022	9603.4375
1345.46305	10333.9375
1348.95352	11436.9375
1352.44163	12794.1375
1355.92738	14186.4375
1359.41078	15881.2375
1362.89183	17375.1375
1366.37053	16778.6375
1369.84688	13890.6375
1373.32088	11181.3375
1376.79254	9697.1375
1380.26186	9018.4375
1383.72883	8598.8375
1387.19347	8177.4375
1390.65578	7837.1375
1394.11575	7595.1375
1397.57339	7409.7375
1401.0287	7309.4375
1404.48168	7282.5375
1407.93234	7278.4375
1411.38068	7298.1375
1414.82669	7359.7375
1418.27039	7453.7375
1421.71177	7437.7375
1425.15083	7304.2375
1428.58758	7241.0375
1432.02203	7275.4375
1435.45416	7359.7375
1438.88399	7347.7375
1442.31151	7347.6375
1445.73673	7425.6375
1449.15965	7462.2375
1452.58027	7471.0375
1455.9986	7458.2375
1459.41463	7479.0375
1462.82837	7582.5375
1466.23982	7784.7375
1469.64898	7994.3375
1473.05586	8138.1375
1476.46045	8232.1375
1479.86276	8321.2375
1483.26279	8422.1375
1486.66054	8620.6375
1490.05602	8922.7375
1493.44922	9485.3375
1496.84016	10370.4375
1500.22882	11743.4375
1503.61521	13523.6375
1506.99934	15351.5375
1510.38121	16569.2375
1513.76081	16381.6375
1517.13816	14798.5375
1520.51324	12659.7375
1523.88607	10942.7375
1527.25665	9906.8375
1530.62498	9423.3375
1533.99105	9212.3375
1537.35488	9095.7375
1540.71647	8990.1375
1544.07581	8852.3375
1547.4329	8714.4375
1550.78776	8591.5375
1554.14038	8489.4375
1557.49077	8457.3375
1560.83892	8559.4375
1564.18484	8787.7375
1567.52853	9129.1375
1570.86999	9474.3375
1574.20922	9617.9375
1577.54624	9496.4375
1580.88103	8972.4375
1584.2136	8289.2375
1587.54395	7887.5375
1590.87208	7804.9375
1594.19801	7966.3375
1597.52172	8325.9375
1600.84321	8490.2375
1604.16251	8327.9375
1607.47959	8137.4375
1610.79447	7947.7375
1614.10715	7666.7375
1617.41763	7377.7375
1620.7259	7095.8375
1624.03199	6954.5375
1627.33587	6861.0375
1630.63757	6936.5375
1633.93707	7149.1375
1637.23439	7548.0375
1640.52951	8253.4375
1643.82246	9227.6375
1647.11321	10390.6375
1650.40179	11131.8375
1653.68819	10812.6375
1656.97241	9563.7375
1660.25446	8177.4375
1663.53433	7153.2375
1666.81203	6549.3375
1670.08756	6206.2375
1673.36092	6017.8375
1676.63211	5863.3375
1679.90115	5785.5375
1683.16801	5704.8375
1686.43272	5624.7375
1689.69527	5576.4375
1692.95567	5532.0375
1696.2139	5519.9375
1699.46999	5444.0375
1702.72392	5444.7375
1705.97571	5454.3375
1709.22535	5444.0375
1712.47284	5481.4375
1715.71819	5483.7375
1718.96139	5478.5375
1722.20246	5466.3375
1725.44139	5432.7375
1728.67818	5418.1375
1731.91284	5369.6375
1735.14537	5334.3375
1738.37576	5274.1375
1741.60403	5280.1375
1744.83017	5228.1375
1748.05418	5250.6375
1751.27607	5258.3375
1754.49584	5204.6375
1757.71349	5178.1375
1760.92903	5172.4375
1764.14244	5120.6375
1767.35375	5137.1375
1770.56294	5127.8375
1773.77002	5105.5375
1776.97499	5119.5375
1780.17785	5099.3375
1783.37861	5095.6375
1786.57727	5097.2375
1789.77382	5034.3375
1792.96828	5048.6375
1796.16064	5071.7375
1799.3509	5046.1375
1802.53907	5059.8375
1805.72514	5016.6375
1808.90913	5001.9375
1812.09102	4992.8375
1815.27083	4984.4375
1818.44856	4973.3375
1821.6242	4942.8375
1824.79776	4949.6375
1827.96924	4935.6375
1831.13864	4914.7375
1834.30597	4930.1375
1837.47122	4912.5375
1840.6344	4892.3375
1843.7955	4878.9375
1846.95454	4881.4375
1850.11151	4901.6375
1853.26642	4846.7375
1856.41926	4867.6375
1859.57004	4864.7375
1862.71876	4858.3375
1865.86542	4875.5375
1869.01003	4848.0375
1872.15258	4818.2375
1875.29308	4851.5375
1878.43152	4846.5375
1881.56792	4822.3375
1884.70227	4817.1375
1887.83457	4808.0375
1890.96482	4772.3375
1894.09304	4776.2375
1897.21921	4780.3375
1900.34335	4787.1375
1903.46544	4752.4375
1906.58551	4778.4375
1909.70353	4763.0375
1912.81953	4751.5375
1915.93349	4728.1375
1919.04543	4734.9375
1922.15534	4698.9375
1925.26322	4719.0375
1928.36908	4702.1375
1931.47292	4688.7375
1934.57473	4698.3375
1937.67453	4686.1375
1940.77232	4646.8375
1943.86808	4645.9375
1946.96184	4633.2375
1950.05358	4613.2375
1953.14331	4595.8375
1956.23103	4601.6375
1959.31675	4560.6375
1962.40046	4513.2375
1965.48217	4540.0375
1968.56188	4529.6375
1971.63959	4517.9375
1974.7153	4516.0375
1977.78901	4503.0375
1980.86073	4488.1375
1983.93046	4442.1375
1986.99819	4369.2375
1990.06394	4394.0375
1993.1277	4409.0375
1996.18947	4383.4375
1999.24925	4356.6375
2002.30706	4364.7375
2005.36288	4352.0375
2008.41672	4336.3375
2011.46859	4325.5375
2014.51848	4303.6375
2017.56639	4274.6375
2020.61233	4274.8375
2023.6563	4273.0375
2026.6983	4211.3375
2029.73833	4215.6375
2032.7764	4242.1375
2035.8125	4184.6375
2038.84664	4192.3375
2041.87881	4184.6375
2044.90903	4176.5375
2047.93729	4169.3375
2050.96359	4150.8375
2053.98794	4160.5375
2057.01034	4163.5375
2060.03078	4150.0375
2063.04927	4128.5375
2066.06582	4145.6375
2069.08042	4118.6375
2072.09307	4118.3375
2075.10378	4101.9375
2078.11255	4099.8375
2081.11938	4118.6375
2084.12426	4106.3375
2087.12722	4096.0375
2090.12824	4103.7375
2093.12732	4100.1375
2096.12447	4106.9375
2099.11969	4092.6375
2102.11299	4095.6375
2105.10435	4111.3375
2108.09379	4096.2375
2111.08131	4084.1375
2114.0669	4096.4375
2117.05057	4093.5375
2120.03233	4072.5375
2123.01216	4114.6375
2125.99008	4114.1375
2128.96609	4103.5375
2131.94018	4122.7375
2134.91236	4125.8375
2137.88263	4106.6375
2140.851	4114.6375
2143.81746	4128.8375
2146.78201	4112.3375
2149.74466	4095.1375
2152.7054	4121.3375
2155.66425	4108.9375
2158.6212	4095.7375
2161.57625	4066.1375
2164.52941	4047.7375
2167.48067	4065.2375
2170.43004	4057.7375
2173.37752	4087.1375
2176.32311	4067.4375
2179.26681	4068.1375
2182.20863	4085.6375
2185.14856	4073.2375
2188.08661	4056.2375
2191.02278	4073.6375
2193.95707	4043.7375
2196.88948	4032.3375
2199.82001	4058.7375
2202.74867	4022.4375
2205.67545	4031.1375
2208.60037	4029.7375
2211.52341	4020.9375
2214.44458	4006.6375
2217.36388	3996.9375
2220.28132	3985.1375
2223.1969	3969.6375
2226.11061	3961.6375
2229.02246	3951.1375
2231.93245	3947.6375
2234.84058	3937.3375
2237.74686	3933.2375
2240.65128	3925.5375
2243.55385	3922.9375
2246.45456	3891.9375
2249.35343	3912.9375
2252.25044	3923.5375
2255.14561	3915.7375
2258.03893	3903.0375
2260.93041	3888.9375
2263.82004	3897.3375
2266.70783	3878.8375
2269.59378	3866.6375
2272.4779	3858.3375
2275.36017	3851.4375
2278.24061	3838.3375
2281.11922	3808.6375
2283.996	3826.5375
2286.87094	3784.4375
2289.74405	3806.0375
2292.61534	3805.8375
2295.4848	3792.5375
2298.35243	3784.3375
2301.21824	3771.8375
2304.08223	3763.5375
2306.94439	3769.3375
2309.80474	3784.9375
2312.66327	3769.4375
2315.51999	3748.9375
2318.37489	3737.8375
2321.22797	3729.0375
2324.07925	3719.8375
2326.92871	3719.4375
2329.77637	3692.7375
2332.62222	3688.5375
2335.46626	3671.6375
2338.3085	3672.1375
2341.14893	3689.7375
2343.98756	3705.8375
2346.8244	3672.1375
2349.65943	3666.8375
2352.49267	3663.3375
2355.32411	3681.6375
2358.15376	3669.1375
2360.98161	3680.2375
2363.80768	3650.6375
2366.63195	3663.3375
2369.45444	3673.2375
2372.27514	3661.1375
2375.09405	3666.4375
2377.91118	3649.8375
2380.72652	3645.4375
2383.54009	3634.4375
2386.35187	3628.6375
2389.16188	3596.5375
2391.97011	3604.3375
2394.77657	3586.0375
2397.58125	3603.5375
2400.38416	3583.6375
2403.18529	3549.8375
2405.98466	3548.8375
2408.78226	3558.6375
2411.57809	3544.6375
2414.37216	3533.9375
2417.16446	3530.2375
2419.955	3519.0375
2422.74378	3537.1375
2425.5308	3505.6375
2428.31606	3508.5375
2431.09956	3521.1375
2433.88131	3492.0375
2436.6613	3510.6375
2439.43954	3499.6375
2442.21603	3479.7375
2444.99077	3469.4375
2447.76377	3490.1375
2450.53501	3486.6375
2453.30451	3467.6375
2456.07226	3487.6375
2458.83827	3457.9375
2461.60254	3424.8375
2464.36507	3457.3375
2467.12586	3437.7375
2469.88492	3454.3375
2472.64224	3461.0375
2475.39782	3436.2375
2478.15167	3440.3375
2480.90379	3434.7375
2483.65417	3453.2375
2486.40283	3449.0375
2489.14976	3470.8375
2491.89497	3431.3375
2494.63845	3441.3375
2497.3802	3431.0375
2500.12024	3433.1375
2502.85855	3416.9375
2505.59514	3420.6375
2508.33002	3424.0375
2511.06318	3375.8375
2513.79462	3383.7375
2516.52435	3343.8375
2519.25237	3339.6375
2521.97867	3332.7375
2524.70327	3350.5375
2527.42616	3347.0375
2530.14734	3354.8375
2532.86681	3319.5375
2535.58458	3323.3375
2538.30065	3306.8375
2541.01501	3321.9375
2543.72768	3307.8375
2546.43864	3302.7375
2549.14791	3292.6375
2551.85548	3288.0375
2554.56136	3279.1375
2557.26554	3291.6375
2559.96803	3284.0375
2562.66883	3273.0375
2565.36794	3248.8375
2568.06536	3228.4375
2570.7611	3247.6375
2573.45514	3256.1375
2576.14751	3239.8375
2578.83819	3217.8375
2581.52719	3210.8375
2584.21451	3223.8375
2586.90015	3179.1375
2589.58411	3187.1375
2592.2664	3189.8375
2594.94701	3179.5375
2597.62594	3182.5375
2600.30321	3125.4375
2602.9788	3138.6375
2605.65273	3133.9375
2608.32498	3139.8375
2610.99557	3153.5375
2613.66449	3128.8375
2616.33175	3137.9375
2618.99734	3146.0375
2621.66128	3146.4375
2624.32355	3116.4375
2626.98416	3100.6375
2629.64311	3098.9375
2632.30041	3097.3375
2634.95605	3075.6375
2637.61004	3055.3375
2640.26238	3044.5375
2642.91306	3050.7375
2645.56209	3065.2375
2648.20948	3065.9375
2650.85521	3035.7375
2653.4993	3079.3375
2656.14175	3051.9375
2658.78255	3037.1375
2661.42171	3014.0375
2664.05923	3051.1375
2666.6951	3067.8375
2669.32934	3052.1375
2671.96194	3080.6375
2674.59291	3072.4375
2677.22224	3045.9375
2679.84993	3046.4375
2682.476	3038.4375
2685.10043	3035.4375
2687.72324	3026.4375
2690.34441	3024.4375
2692.96396	3029.5375
2695.58188	3032.4375
2698.19818	3045.8375
2700.81285	3019.9375
2703.4259	3016.5375
2706.03733	2985.1375
2708.64714	2993.2375
2711.25533	3026.2375
2713.86191	3022.5375
2716.46687	3020.3375
2719.07021	3012.8375
2721.67194	3023.3375
2724.27206	3038.2375
2726.87057	3009.4375
2729.46747	3005.3375
2732.06276	3019.5375
2734.65644	2992.0375
2737.24852	2983.7375
2739.83899	2973.7375
2742.42786	2980.7375
2745.01513	2998.0375
2747.60079	2969.9375
2750.18486	2950.8375
2752.76733	2963.9375
2755.3482	2945.9375
2757.92747	2962.5375
2760.50515	2937.5375
2763.08123	2933.8375
2765.65573	2924.1375
2768.22863	2908.1375
2770.79994	2914.1375
2773.36967	2909.2375
2775.9378	2898.1375
2778.50435	2895.8375
2781.06932	2892.1375
2783.6327	2879.0375
2786.1945	2904.0375
2788.75471	2890.5375
2791.31335	2877.4375
2793.87041	2875.1375
2796.42589	2856.9375
2798.97979	2851.5375
2801.53212	2859.1375
2804.08288	2857.2375
2806.63206	2839.3375
2809.17967	2828.2375
2811.72571	2860.5375
2814.27018	2827.8375
2816.81308	2828.2375
2819.35442	2778.6375
2821.89419	2805.5375
2824.43239	2794.0375
2826.96904	2816.6375
2829.50412	2805.2375
2832.03763	2798.8375
2834.56959	2786.8375
2837.1	2784.7375
2839.62884	2789.9375
2842.15613	2789.4375
2844.68186	2799.1375
2847.20604	2758.6375
2849.72867	2758.9375
2852.24974	2755.9375
2854.76927	2735.8375
2857.28724	2700.2375
2859.80367	2756.1375
2862.31855	2763.6375
2864.83189	2747.0375
2867.34368	2746.2375
2869.85393	2767.7375
2872.36264	2737.2375
2874.8698	2731.3375
2877.37543	2750.5375
2879.87952	2735.3375
2882.38207	2709.3375
2884.88308	2740.3375
2887.38256	2715.0375
2889.88051	2718.1375
2892.37692	2717.3375
2894.8718	2694.7375
2897.36515	2720.5375
2899.85698	2706.5375
2902.34727	2703.4375
2904.83604	2728.8375
2907.32328	2724.9375
2909.809	2721.6375
2912.29319	2719.9375
2914.77587	2724.3375
2917.25702	2740.6375
2919.73665	2742.9375
2922.21476	2742.3375
2924.69136	2745.1375
2927.16644	2725.4375
2929.64	2716.9375
2932.11205	2708.6375
2934.58258	2716.0375
2937.05161	2696.5375
2939.51912	2708.1375
2941.98513	2707.2375
2944.44962	2698.3375
2946.91261	2657.2375
2949.37409	2667.9375
2951.83407	2666.5375
2954.29254	2663.6375
2956.74951	2660.1375
2959.20498	2641.5375
2961.65895	2653.3375
2964.11142	2641.6375
2966.56239	2649.0375
2969.01186	2651.5375
2971.45984	2626.1375
2973.90632	2623.4375
2976.35131	2632.8375
2978.7948	2626.9375
2981.23681	2617.1375
2983.67732	2620.9375
2986.11635	2603.8375
2988.55388	2585.1375
2990.98993	2597.4375
2993.4245	2584.6375
2995.85758	2569.6375
2998.28917	2571.0375
3000.71928	2558.0375
3003.14791	2540.6375
3005.57506	2548.9375
3008.00073	2530.9375
3010.42493	2459.8375
3012.84764	2532.6375
3015.26888	2536.7375
3017.68865	2512.1375
3020.10694	2478.0375
3022.52376	2482.7375
3024.9391	2481.5375
3027.35298	2476.9375
3029.76539	2455.3375
3032.17632	2472.0375
3034.5858	2456.7375
3036.9938	2459.3375
3039.40034	2452.9375
3041.80542	2453.8375
3044.20903	2430.0375
3046.61118	2431.6375
3049.01187	2428.5375
3051.4111	2417.9375
3053.80888	2407.3375
3056.20519	2410.9375
3058.60005	2378.7375
3060.99345	2403.9375
3063.3854	2390.0375
3065.7759	2371.3375
3068.16494	2366.5375
3070.55254	2363.0375
3072.93868	2368.9375
3075.32338	2350.8375
3077.70662	2353.8375
3080.08842	2334.4375
3082.46878	2334.7375
3084.84769	2352.0375
3087.22515	2325.6375
3089.60118	2336.1375
3091.97576	2322.6375
3094.3489	2333.7375
3096.72061	2326.4375
3099.09087	2306.2375
3101.4597	2316.1375
3103.82709	2309.1375
3106.19305	2283.2375
3108.55757	2295.6375
3110.92066	2288.9375
3113.28232	2291.7375
3115.64255	2293.7375
3118.00134	2302.1375
3120.35871	2270.9375
3122.71466	2254.0375
