Data from AgNPs_UA_20uM_CRN_500uM_SU_RamanShift__29__13-41-20-296.txt Node

Date: Thu Aug 04 13:41:20 BST 2022
User: TCL
Spectrometer: QEP01345
Trigger mode: 4
Integration Time (sec): 1.000000E0
Scans to average: 10
Electric dark correction enabled: true
Nonlinearity correction enabled: false
Boxcar width: 0
XAxis mode: Raman Shifts
Number of Pixels in Spectrum: 1044
>>>>>Begin Spectral Data<<<<<
46.04893	-2.0875
50.45542	0.7125
54.85868	0.5125
59.25871	0.5125
63.6555	17.5125
68.04907	15.0125
72.43941	18.3125
76.82654	15.9125
81.21044	17.5125
85.59113	17.2125
89.96862	19.3125
94.34289	17.9125
98.71396	20.8125
103.08183	21.0125
107.4465	20.8125
111.80798	25.0125
116.16626	23.5125
120.52136	25.2125
124.87327	23.9125
129.222	30.3125
133.56755	27.1125
137.90993	32.1125
142.24913	34.6125
146.58517	37.9125
150.91804	46.8125
155.24774	56.1125
159.57429	70.3125
163.89768	89.5125
168.21792	123.7125
172.53501	171.2125
176.84895	237.7125
181.15975	334.0125
185.46741	468.0125
189.77193	660.2125
194.07331	888.7125
198.37157	1133.0125
202.6667	1419.0125
206.9587	1687.3125
211.24758	1972.5125
215.53334	2238.4125
219.81599	2535.8125
224.09553	2874.4125
228.37195	3234.3125
232.64527	3662.7125
236.91549	4058.0125
241.18261	4423.1125
245.44663	4735.4125
249.70755	4963.4125
253.96539	5177.9125
258.22014	5325.1125
262.4718	5463.8125
266.72039	5547.7125
270.96589	5574.8125
275.20832	5541.1125
279.44768	5468.8125
283.68397	5383.2125
287.91719	5313.9125
292.14735	5320.8125
296.37445	5398.3125
300.59849	5546.9125
304.81948	5758.3125
309.03742	5954.3125
313.25231	6065.4125
317.46415	6013.3125
321.67296	5801.8125
325.87872	5561.7125
330.08145	5444.7125
334.28114	5446.6125
338.47781	5507.9125
342.67145	5602.1125
346.86207	5778.4125
351.04966	5987.4125
355.23424	6230.9125
359.4158	6383.8125
363.59435	6444.6125
367.76989	6455.6125
371.94243	6432.0125
376.11196	6417.3125
380.27849	6400.9125
384.44203	6405.0125
388.60257	6412.8125
392.76012	6469.1125
396.91468	6543.6125
401.06626	6654.0125
405.21485	6693.0125
409.36047	6593.8125
413.50311	6401.8125
417.64277	6222.2125
421.77947	6123.0125
425.9132	6074.3125
430.04396	6081.1125
434.17176	6123.0125
438.2966	6194.4125
442.41849	6292.5125
446.53742	6402.6125
450.6534	6526.4125
454.76644	6592.3125
458.87653	6592.1125
462.98368	6607.2125
467.08789	6565.2125
471.18916	6471.8125
475.2875	6384.8125
479.38291	6282.1125
483.4754	6202.8125
487.56496	6174.7125
491.6516	6160.4125
495.73531	6152.1125
499.81612	6189.5125
503.89401	6202.7125
507.96899	6268.1125
512.04106	6339.0125
516.11023	6391.7125
520.1765	6434.1125
524.23987	6469.3125
528.30034	6454.3125
532.35792	6436.7125
536.41261	6390.1125
540.46441	6303.4125
544.51333	6285.5125
548.55936	6333.6125
552.60252	6406.7125
556.64279	6501.8125
560.6802	6557.7125
564.71473	6640.7125
568.7464	6735.9125
572.7752	6708.3125
576.80114	6601.3125
580.82422	6462.0125
584.84444	6436.7125
588.86181	6434.8125
592.87633	6486.1125
596.888	6585.4125
600.89682	6868.1125
604.9028	7544.9125
608.90594	8983.6125
612.90624	10450.2125
616.90371	9727.7125
620.89834	7684.7125
624.89015	6786.5125
628.87913	6680.7125
632.86528	6827.1125
636.84862	6931.3125
640.82913	6817.2125
644.80683	6646.6125
648.78172	6501.0125
652.75379	6492.4125
656.72306	6676.1125
660.68952	6854.9125
664.65319	6784.4125
668.61405	6649.7125
672.57211	6650.2125
676.52738	6648.1125
680.47986	6589.5125
684.42955	6495.2125
688.37646	6448.3125
692.32058	6489.9125
696.26192	6587.1125
700.20048	6703.2125
704.13626	6725.8125
708.06928	6688.8125
711.99952	6662.4125
715.927	6657.5125
719.85171	6676.2125
723.77365	6692.1125
727.69284	6670.2125
731.60928	6614.3125
735.52295	6604.0125
739.43388	6637.0125
743.34206	6682.4125
747.24749	6674.6125
751.15017	6682.0125
755.05012	6727.8125
758.94733	6968.7125
762.8418	7529.4125
766.73354	8418.4125
770.62254	9092.5125
774.50882	9230.4125
778.39237	8852.1125
782.27321	8197.4125
786.15132	7495.2125
790.02671	7050.9125
793.89938	6827.3125
797.76935	6711.3125
801.6366	6668.7125
805.50115	6655.0125
809.36299	6635.2125
813.22213	6606.2125
817.07857	6631.4125
820.93231	6640.0125
824.78336	6647.0125
828.63172	6667.8125
832.47738	6672.4125
836.32036	6645.3125
840.16066	6627.8125
843.99827	6627.4125
847.8332	6649.9125
851.66546	6658.0125
855.49504	6670.4125
859.32195	6680.0125
863.1462	6689.4125
866.96777	6689.9125
870.78668	6690.3125
874.60293	6718.1125
878.41652	6736.1125
882.22745	6769.8125
886.03573	6817.8125
889.84136	6802.8125
893.64433	6782.6125
897.44466	6774.6125
901.24235	6772.4125
905.0374	6745.4125
908.8298	6727.4125
912.61957	6692.5125
916.40671	6710.4125
920.19121	6735.6125
923.97308	6780.7125
927.75233	6847.9125
931.52895	6885.7125
935.30295	6832.9125
939.07433	6736.4125
942.84309	6653.8125
946.60924	6636.5125
950.37278	6605.8125
954.13371	6606.1125
957.89203	6602.6125
961.64774	6619.7125
965.40086	6597.6125
969.15137	6586.4125
972.89929	6598.0125
976.64461	6617.2125
980.38733	6591.3125
984.12747	6624.8125
987.86502	6643.3125
991.59999	6687.2125
995.33237	6721.6125
999.06217	6794.2125
1002.78939	6882.4125
1006.51404	7023.6125
1010.23611	7126.7125
1013.95561	7157.3125
1017.67255	7177.8125
1021.38692	7121.4125
1025.09872	7044.0125
1028.80796	6983.9125
1032.51465	6945.9125
1036.21877	6949.0125
1039.92035	6955.8125
1043.61937	7014.6125
1047.31584	7030.6125
1051.00976	7047.0125
1054.70114	7034.5125
1058.38998	7056.2125
1062.07627	7078.6125
1065.76003	7149.9125
1069.44126	7234.7125
1073.11995	7358.1125
1076.79611	7498.1125
1080.46974	7606.8125
1084.14085	7670.6125
1087.80943	7773.5125
1091.47549	7827.7125
1095.13903	7813.3125
1098.80005	7756.6125
1102.45857	7676.3125
1106.11456	7576.2125
1109.76805	7511.1125
1113.41903	7520.8125
1117.06751	7620.9125
1120.71348	7752.7125
1124.35696	7967.2125
1127.99793	8115.9125
1131.63641	8003.9125
1135.2724	7768.9125
1138.90589	7598.7125
1142.5369	7525.8125
1146.16542	7491.9125
1149.79145	7468.0125
1153.415	7381.9125
1157.03607	7326.5125
1160.65467	7379.9125
1164.27079	7490.9125
1167.88443	7666.2125
1171.49561	7962.1125
1175.10432	8466.6125
1178.71056	9118.1125
1182.31434	9684.0125
1185.91565	9865.6125
1189.51451	9760.2125
1193.11091	9593.2125
1196.70485	9422.3125
1200.29634	9224.0125
1203.88538	9001.2125
1207.47197	8762.4125
1211.05612	8459.7125
1214.63782	8233.3125
1218.21708	8073.1125
1221.79391	7932.9125
1225.36829	7839.6125
1228.94024	7807.7125
1232.50976	7808.3125
1236.07685	7820.3125
1239.6415	7824.2125
1243.20374	7870.1125
1246.76355	7923.4125
1250.32093	8004.7125
1253.8759	8154.6125
1257.42845	8342.4125
1260.97859	8544.1125
1264.52631	8729.1125
1268.07163	8845.3125
1271.61453	8921.2125
1275.15503	8952.3125
1278.69312	8956.1125
1282.22882	8953.6125
1285.76211	9019.3125
1289.29301	9170.5125
1292.82151	9337.6125
1296.34761	9527.3125
1299.87133	9799.1125
1303.39266	10281.3125
1306.9116	10972.4125
1310.42815	11697.0125
1313.94233	11930.8125
1317.45412	11493.4125
1320.96354	10872.4125
1324.47058	10263.8125
1327.97525	9809.5125
1331.47754	9532.2125
1334.97747	9476.2125
1338.47502	9592.0125
1341.97022	9893.8125
1345.46305	10409.6125
1348.95352	11166.6125
1352.44163	11945.0125
1355.92738	12793.8125
1359.41078	13816.1125
1362.89183	14625.3125
1366.37053	14144.3125
1369.84688	12319.4125
1373.32088	10594.0125
1376.79254	9610.3125
1380.26186	9161.2125
1383.72883	8885.6125
1387.19347	8634.9125
1390.65578	8398.1125
1394.11575	8199.7125
1397.57339	8062.2125
1401.0287	7963.4125
1404.48168	7893.7125
1407.93234	7916.9125
1411.38068	7965.4125
1414.82669	8033.9125
1418.27039	8045.9125
1421.71177	7991.7125
1425.15083	7928.9125
1428.58758	7868.1125
1432.02203	7909.6125
1435.45416	8007.2125
1438.88399	8070.1125
1442.31151	8078.9125
1445.73673	8139.0125
1449.15965	8165.2125
1452.58027	8136.3125
1455.9986	8091.3125
1459.41463	8104.2125
1462.82837	8184.5125
1466.23982	8297.2125
1469.64898	8458.6125
1473.05586	8599.4125
1476.46045	8679.4125
1479.86276	8736.5125
1483.26279	8828.8125
1486.66054	8957.9125
1490.05602	9186.6125
1493.44922	9549.4125
1496.84016	10087.5125
1500.22882	10972.0125
1503.61521	12056.0125
1506.99934	13093.3125
1510.38121	13638.6125
1513.76081	13382.1125
1517.13816	12380.4125
1520.51324	11158.0125
1523.88607	10158.0125
1527.25665	9598.3125
1530.62498	9296.6125
1533.99105	9176.7125
1537.35488	9101.8125
1540.71647	9049.0125
1544.07581	8966.3125
1547.4329	8920.9125
1550.78776	8825.5125
1554.14038	8742.0125
1557.49077	8696.3125
1560.83892	8747.1125
1564.18484	8909.3125
1567.52853	9146.8125
1570.86999	9341.6125
1574.20922	9433.4125
1577.54624	9303.9125
1580.88103	8955.3125
1584.2136	8493.1125
1587.54395	8267.6125
1590.87208	8263.5125
1594.19801	8454.6125
1597.52172	8774.3125
1600.84321	8974.7125
1604.16251	8914.3125
1607.47959	8759.1125
1610.79447	8530.4125
1614.10715	8168.7125
1617.41763	7838.0125
1620.7259	7577.2125
1624.03199	7425.5125
1627.33587	7388.9125
1630.63757	7441.0125
1633.93707	7620.0125
1637.23439	7968.9125
1640.52951	8504.0125
1643.82246	9274.7125
1647.11321	10105.3125
1650.40179	10536.2125
1653.68819	10204.8125
1656.97241	9275.7125
1660.25446	8260.5125
1663.53433	7547.8125
1666.81203	7115.9125
1670.08756	6883.2125
1673.36092	6741.9125
1676.63211	6641.7125
1679.90115	6563.8125
1683.16801	6494.1125
1686.43272	6451.6125
1689.69527	6393.7125
1692.95567	6394.3125
1696.2139	6367.2125
1699.46999	6350.7125
1702.72392	6331.0125
1705.97571	6336.2125
1709.22535	6347.4125
1712.47284	6325.1125
1715.71819	6321.4125
1718.96139	6317.3125
1722.20246	6298.1125
1725.44139	6288.4125
1728.67818	6264.3125
1731.91284	6231.2125
1735.14537	6193.4125
1738.37576	6178.3125
1741.60403	6162.0125
1744.83017	6154.7125
1748.05418	6133.5125
1751.27607	6128.3125
1754.49584	6112.4125
1757.71349	6087.5125
1760.92903	6078.1125
1764.14244	6079.7125
1767.35375	6074.4125
1770.56294	6082.5125
1773.77002	6073.8125
1776.97499	6058.4125
1780.17785	6025.7125
1783.37861	6004.2125
1786.57727	6012.6125
1789.77382	5995.0125
1792.96828	5961.8125
1796.16064	5979.6125
1799.3509	5946.6125
1802.53907	5954.6125
1805.72514	5945.7125
1808.90913	5941.3125
1812.09102	5915.9125
1815.27083	5899.7125
1818.44856	5873.7125
1821.6242	5868.3125
1824.79776	5865.4125
1827.96924	5873.0125
1831.13864	5850.1125
1834.30597	5837.9125
1837.47122	5848.9125
1840.6344	5833.0125
1843.7955	5804.3125
1846.95454	5827.3125
1850.11151	5825.2125
1853.26642	5813.6125
1856.41926	5796.2125
1859.57004	5815.3125
1862.71876	5812.2125
1865.86542	5796.3125
1869.01003	5777.4125
1872.15258	5774.1125
1875.29308	5748.4125
1878.43152	5769.7125
1881.56792	5766.6125
1884.70227	5743.6125
1887.83457	5741.4125
1890.96482	5740.8125
1894.09304	5719.9125
1897.21921	5697.2125
1900.34335	5681.3125
1903.46544	5692.8125
1906.58551	5713.6125
1909.70353	5701.9125
1912.81953	5684.2125
1915.93349	5693.9125
1919.04543	5647.3125
1922.15534	5660.2125
1925.26322	5658.6125
1928.36908	5627.1125
1931.47292	5610.7125
1934.57473	5616.4125
1937.67453	5607.8125
1940.77232	5594.0125
1943.86808	5563.0125
1946.96184	5553.5125
1950.05358	5538.4125
1953.14331	5532.8125
1956.23103	5508.8125
1959.31675	5477.4125
1962.40046	5465.0125
1965.48217	5445.4125
1968.56188	5453.3125
1971.63959	5420.6125
1974.7153	5411.7125
1977.78901	5409.0125
1980.86073	5408.4125
1983.93046	5369.7125
1986.99819	5362.5125
1990.06394	5329.5125
1993.1277	5332.6125
1996.18947	5336.4125
1999.24925	5276.1125
2002.30706	5273.4125
2005.36288	5240.6125
2008.41672	5232.1125
2011.46859	5210.0125
2014.51848	5207.9125
2017.56639	5186.0125
2020.61233	5169.1125
2023.6563	5148.0125
2026.6983	5158.8125
2029.73833	5138.3125
2032.7764	5119.5125
2035.8125	5109.3125
2038.84664	5094.4125
2041.87881	5114.3125
2044.90903	5091.4125
2047.93729	5079.4125
2050.96359	5064.2125
2053.98794	5059.9125
2057.01034	5055.5125
2060.03078	5046.2125
2063.04927	5031.3125
2066.06582	5039.2125
2069.08042	5042.8125
2072.09307	5026.9125
2075.10378	5009.6125
2078.11255	5003.9125
2081.11938	5019.2125
2084.12426	5007.3125
2087.12722	5008.3125
2090.12824	5012.8125
2093.12732	5005.1125
2096.12447	5022.0125
2099.11969	5015.7125
2102.11299	5007.6125
2105.10435	4997.7125
2108.09379	5014.6125
2111.08131	5014.2125
2114.0669	4995.1125
2117.05057	5007.8125
2120.03233	5011.4125
2123.01216	4997.7125
2125.99008	5025.2125
2128.96609	5013.4125
2131.94018	5043.1125
2134.91236	5037.4125
2137.88263	5031.7125
2140.851	5029.4125
2143.81746	5013.4125
2146.78201	5037.2125
2149.74466	5040.8125
2152.7054	5018.4125
2155.66425	5042.7125
2158.6212	5031.9125
2161.57625	5030.8125
2164.52941	5024.9125
2167.48067	5024.7125
2170.43004	5005.5125
2173.37752	5010.5125
2176.32311	5013.2125
2179.26681	5011.1125
2182.20863	5023.6125
2185.14856	5014.6125
2188.08661	5009.3125
2191.02278	5013.3125
2193.95707	5002.7125
2196.88948	5010.9125
2199.82001	4997.2125
2202.74867	5001.0125
2205.67545	4998.6125
2208.60037	4983.5125
2211.52341	4978.5125
2214.44458	4967.6125
2217.36388	4947.2125
2220.28132	4920.9125
2223.1969	4902.5125
2226.11061	4902.2125
2229.02246	4882.0125
2231.93245	4876.6125
2234.84058	4878.3125
2237.74686	4871.7125
2240.65128	4874.2125
2243.55385	4866.0125
2246.45456	4863.5125
2249.35343	4853.0125
2252.25044	4855.3125
2255.14561	4843.6125
2258.03893	4844.9125
2260.93041	4835.8125
2263.82004	4820.3125
2266.70783	4799.9125
2269.59378	4792.8125
2272.4779	4793.5125
2275.36017	4777.4125
2278.24061	4763.6125
2281.11922	4753.5125
2283.996	4740.7125
2286.87094	4740.4125
2289.74405	4719.3125
2292.61534	4725.1125
2295.4848	4718.4125
2298.35243	4717.1125
2301.21824	4693.4125
2304.08223	4694.0125
2306.94439	4710.3125
2309.80474	4702.8125
2312.66327	4685.0125
2315.51999	4673.1125
2318.37489	4681.6125
2321.22797	4665.4125
2324.07925	4652.8125
2326.92871	4633.6125
2329.77637	4653.0125
2332.62222	4634.0125
2335.46626	4636.1125
2338.3085	4599.5125
2341.14893	4604.6125
2343.98756	4621.1125
2346.8244	4605.3125
2349.65943	4602.2125
2352.49267	4609.3125
2355.32411	4587.9125
2358.15376	4596.5125
2360.98161	4595.1125
2363.80768	4591.9125
2366.63195	4590.0125
2369.45444	4578.3125
2372.27514	4576.9125
2375.09405	4569.5125
2377.91118	4571.5125
2380.72652	4580.9125
2383.54009	4544.3125
2386.35187	4540.3125
2389.16188	4529.9125
2391.97011	4517.5125
2394.77657	4501.8125
2397.58125	4490.8125
2400.38416	4481.0125
2403.18529	4484.7125
2405.98466	4484.8125
2408.78226	4468.2125
2411.57809	4467.3125
2414.37216	4448.2125
2417.16446	4455.2125
2419.955	4438.4125
2422.74378	4450.1125
2425.5308	4437.6125
2428.31606	4435.5125
2431.09956	4428.4125
2433.88131	4427.6125
2436.6613	4413.8125
2439.43954	4415.9125
2442.21603	4423.5125
2444.99077	4413.5125
2447.76377	4412.2125
2450.53501	4408.0125
2453.30451	4389.0125
2456.07226	4397.5125
2458.83827	4397.3125
2461.60254	4382.7125
2464.36507	4375.1125
2467.12586	4370.8125
2469.88492	4366.6125
2472.64224	4379.4125
2475.39782	4360.9125
2478.15167	4364.5125
2480.90379	4349.4125
2483.65417	4349.2125
2486.40283	4357.1125
2489.14976	4358.9125
2491.89497	4334.1125
2494.63845	4363.6125
2497.3802	4369.9125
2500.12024	4333.0125
2502.85855	4333.1125
2505.59514	4309.6125
2508.33002	4308.4125
2511.06318	4306.3125
2513.79462	4278.3125
2516.52435	4280.0125
2519.25237	4290.3125
2521.97867	4271.5125
2524.70327	4266.7125
2527.42616	4256.1125
2530.14734	4244.3125
2532.86681	4227.0125
2535.58458	4252.0125
2538.30065	4233.0125
2541.01501	4236.3125
2543.72768	4233.3125
2546.43864	4217.7125
2549.14791	4229.4125
2551.85548	4217.0125
2554.56136	4209.0125
2557.26554	4215.4125
2559.96803	4201.7125
2562.66883	4193.6125
2565.36794	4185.1125
2568.06536	4156.8125
2570.7611	4136.1125
2573.45514	4142.5125
2576.14751	4147.8125
2578.83819	4133.7125
2581.52719	4125.2125
2584.21451	4101.8125
2586.90015	4094.9125
2589.58411	4089.4125
2592.2664	4101.2125
2594.94701	4082.3125
2597.62594	4074.4125
2600.30321	4067.3125
2602.9788	4055.2125
2605.65273	4058.1125
2608.32498	4053.8125
2610.99557	4042.7125
2613.66449	4048.6125
2616.33175	4033.9125
2618.99734	4034.0125
2621.66128	4021.5125
2624.32355	4010.2125
2626.98416	4013.1125
2629.64311	3990.1125
2632.30041	3990.1125
2634.95605	3990.2125
2637.61004	3961.9125
2640.26238	3961.6125
2642.91306	3962.6125
2645.56209	3963.2125
2648.20948	3938.9125
2650.85521	3957.1125
2653.4993	3951.1125
2656.14175	3948.8125
2658.78255	3951.1125
2661.42171	3964.8125
2664.05923	3973.8125
2666.6951	3978.8125
2669.32934	3964.3125
2671.96194	3955.0125
2674.59291	3948.2125
2677.22224	3956.3125
2679.84993	3954.5125
2682.476	3951.3125
2685.10043	3949.0125
2687.72324	3926.9125
2690.34441	3942.3125
2692.96396	3938.7125
2695.58188	3927.8125
2698.19818	3921.5125
2700.81285	3936.6125
2703.4259	3932.9125
2706.03733	3950.7125
2708.64714	3920.4125
2711.25533	3911.7125
2713.86191	3919.1125
2716.46687	3930.1125
2719.07021	3904.2125
2721.67194	3911.2125
2724.27206	3924.4125
2726.87057	3930.8125
2729.46747	3922.1125
2732.06276	3927.8125
2734.65644	3917.3125
2737.24852	3906.0125
2739.83899	3905.2125
2742.42786	3919.1125
2745.01513	3902.2125
2747.60079	3892.4125
2750.18486	3884.9125
2752.76733	3881.6125
2755.3482	3873.6125
2757.92747	3853.3125
2760.50515	3857.0125
2763.08123	3859.6125
2765.65573	3834.9125
2768.22863	3840.7125
2770.79994	3825.5125
2773.36967	3830.9125
2775.9378	3831.7125
2778.50435	3815.9125
2781.06932	3809.0125
2783.6327	3797.2125
2786.1945	3794.2125
2788.75471	3784.6125
2791.31335	3771.3125
2793.87041	3767.5125
2796.42589	3757.8125
2798.97979	3753.5125
2801.53212	3740.2125
2804.08288	3747.8125
2806.63206	3756.4125
2809.17967	3744.9125
2811.72571	3722.4125
2814.27018	3728.6125
2816.81308	3722.2125
2819.35442	3702.3125
2821.89419	3692.4125
2824.43239	3689.7125
2826.96904	3677.7125
2829.50412	3666.0125
2832.03763	3661.4125
2834.56959	3648.3125
2837.1	3645.1125
2839.62884	3646.6125
2842.15613	3647.6125
2844.68186	3647.5125
2847.20604	3624.6125
2849.72867	3634.7125
2852.24974	3621.9125
2854.76927	3612.6125
2857.28724	3595.4125
2859.80367	3607.4125
2862.31855	3592.5125
2864.83189	3588.2125
2867.34368	3594.4125
2869.85393	3590.1125
2872.36264	3579.0125
2874.8698	3587.7125
2877.37543	3574.7125
2879.87952	3565.3125
2882.38207	3560.9125
2884.88308	3567.5125
2887.38256	3553.9125
2889.88051	3544.0125
2892.37692	3548.1125
2894.8718	3539.3125
2897.36515	3550.1125
2899.85698	3540.6125
2902.34727	3547.2125
2904.83604	3544.1125
2907.32328	3544.4125
2909.809	3548.3125
2912.29319	3564.1125
2914.77587	3543.5125
2917.25702	3549.2125
2919.73665	3550.8125
2922.21476	3564.3125
2924.69136	3554.2125
2927.16644	3554.6125
2929.64	3541.8125
2932.11205	3531.7125
2934.58258	3522.8125
2937.05161	3515.1125
2939.51912	3496.3125
2941.98513	3506.4125
2944.44962	3501.5125
2946.91261	3491.0125
2949.37409	3497.5125
2951.83407	3495.1125
2954.29254	3482.8125
2956.74951	3485.8125
2959.20498	3489.4125
2961.65895	3469.9125
2964.11142	3474.2125
2966.56239	3464.1125
2969.01186	3475.0125
2971.45984	3468.9125
2973.90632	3475.5125
2976.35131	3459.7125
2978.7948	3442.6125
2981.23681	3451.8125
2983.67732	3432.1125
2986.11635	3430.0125
2988.55388	3426.5125
2990.98993	3419.5125
2993.4245	3424.4125
2995.85758	3409.0125
2998.28917	3395.6125
3000.71928	3410.5125
3003.14791	3380.6125
3005.57506	3373.2125
3008.00073	3363.1125
3010.42493	3349.0125
3012.84764	3349.3125
3015.26888	3335.3125
3017.68865	3333.1125
3020.10694	3323.7125
3022.52376	3321.2125
3024.9391	3319.8125
3027.35298	3297.2125
3029.76539	3295.2125
3032.17632	3288.7125
3034.5858	3297.6125
3036.9938	3292.7125
3039.40034	3275.0125
3041.80542	3263.0125
3044.20903	3261.6125
3046.61118	3246.4125
3049.01187	3238.9125
3051.4111	3242.1125
3053.80888	3228.0125
3056.20519	3224.1125
3058.60005	3213.2125
3060.99345	3204.4125
3063.3854	3215.0125
3065.7759	3208.8125
3068.16494	3211.0125
3070.55254	3186.6125
3072.93868	3177.3125
3075.32338	3171.6125
3077.70662	3155.0125
3080.08842	3150.0125
3082.46878	3137.8125
3084.84769	3140.1125
3087.22515	3131.7125
3089.60118	3132.4125
3091.97576	3126.1125
3094.3489	3127.8125
3096.72061	3119.8125
3099.09087	3126.8125
3101.4597	3134.2125
3103.82709	3120.9125
3106.19305	3108.1125
3108.55757	3114.0125
3110.92066	3108.3125
3113.28232	3097.8125
3115.64255	3077.0125
3118.00134	3072.1125
3120.35871	3066.5125
3122.71466	3067.2125
3125.06917	3064.2125
