Data from AgNPs_UA_10uM_CRN_500uM_SU_RamanShift__120__13-25-20-277.txt Node

Date: Thu Aug 04 13:25:20 BST 2022
User: TCL
Spectrometer: QEP01345
Trigger mode: 4
Integration Time (sec): 1.000000E0
Scans to average: 10
Electric dark correction enabled: true
Nonlinearity correction enabled: false
Boxcar width: 0
XAxis mode: Raman Shifts
Number of Pixels in Spectrum: 1044
>>>>>Begin Spectral Data<<<<<
46.04893	0.375
50.45542	-0.025
54.85868	0.075
59.25871	-0.825
63.6555	21.175
68.04907	21.075
72.43941	23.275
76.82654	23.675
81.21044	23.475
85.59113	25.775
89.96862	23.975
94.34289	27.675
98.71396	27.075
103.08183	29.275
107.4465	28.975
111.80798	29.775
116.16626	31.875
120.52136	32.475
124.87327	35.875
129.222	38.575
133.56755	39.175
137.90993	45.175
142.24913	50.475
146.58517	55.675
150.91804	65.675
155.24774	80.875
159.57429	100.975
163.89768	129.775
168.21792	175.075
172.53501	244.375
176.84895	344.575
181.15975	485.675
185.46741	678.375
189.77193	961.075
194.07331	1281.775
198.37157	1652.575
202.6667	2049.375
206.9587	2440.175
211.24758	2828.775
215.53334	3237.775
219.81599	3654.875
224.09553	4136.675
228.37195	4664.775
232.64527	5235.575
236.91549	5765.775
241.18261	6296.875
245.44663	6682.675
249.70755	7010.475
253.96539	7291.375
258.22014	7538.575
262.4718	7771.875
266.72039	7917.975
270.96589	7944.675
275.20832	7908.275
279.44768	7790.375
283.68397	7680.275
287.91719	7595.775
292.14735	7592.675
296.37445	7731.775
300.59849	7957.475
304.81948	8270.475
309.03742	8532.075
313.25231	8672.975
317.46415	8576.975
321.67296	8277.675
325.87872	7948.175
330.08145	7770.875
334.28114	7747.775
338.47781	7842.175
342.67145	7980.975
346.86207	8209.475
351.04966	8559.175
355.23424	8885.475
359.4158	9101.575
363.59435	9226.775
367.76989	9270.175
371.94243	9258.375
376.11196	9210.575
380.27849	9196.175
384.44203	9208.175
388.60257	9233.575
392.76012	9316.275
396.91468	9455.975
401.06626	9601.975
405.21485	9661.275
409.36047	9511.875
413.50311	9213.875
417.64277	8948.975
421.77947	8779.075
425.9132	8683.375
430.04396	8668.775
434.17176	8735.575
438.2966	8832.175
442.41849	9034.075
446.53742	9247.275
450.6534	9436.775
454.76644	9585.275
458.87653	9630.475
462.98368	9581.275
467.08789	9519.275
471.18916	9358.375
475.2875	9141.375
479.38291	8970.775
483.4754	8840.075
487.56496	8775.575
491.6516	8711.675
495.73531	8729.475
499.81612	8755.775
503.89401	8851.875
507.96899	8914.075
512.04106	8954.475
516.11023	8984.275
520.1765	9046.775
524.23987	9064.475
528.30034	9079.975
532.35792	9034.575
536.41261	8972.575
540.46441	8845.175
544.51333	8801.875
548.55936	8872.675
552.60252	9020.775
556.64279	9173.675
560.6802	9306.775
564.71473	9425.175
568.7464	9520.675
572.7752	9499.075
576.80114	9277.575
580.82422	9093.175
584.84444	9049.175
588.86181	9071.275
592.87633	9189.275
596.888	9379.075
600.89682	9792.675
604.9028	10933.275
608.90594	13238.975
612.90624	15463.575
616.90371	14193.675
620.89834	11017.575
624.89015	9776.875
628.87913	9665.375
632.86528	9814.975
636.84862	9857.575
640.82913	9575.475
644.80683	9188.075
648.78172	8992.275
652.75379	9002.475
656.72306	9314.875
660.68952	9616.475
664.65319	9536.275
668.61405	9395.275
672.57211	9440.775
676.52738	9414.375
680.47986	9240.775
684.42955	9025.675
688.37646	8992.475
692.32058	9093.975
696.26192	9279.475
700.20048	9447.775
704.13626	9462.975
708.06928	9346.875
711.99952	9226.375
715.927	9235.675
719.85171	9302.975
723.77365	9297.975
727.69284	9234.175
731.60928	9130.175
735.52295	9134.375
739.43388	9201.275
743.34206	9238.075
747.24749	9238.775
751.15017	9243.775
755.05012	9356.275
758.94733	9731.475
762.8418	10561.675
766.73354	11814.775
770.62254	12824.975
774.50882	13002.475
778.39237	12495.075
782.27321	11592.175
786.15132	10598.875
790.02671	9911.375
793.89938	9559.375
797.76935	9372.675
801.6366	9294.575
805.50115	9240.775
809.36299	9197.675
813.22213	9162.275
817.07857	9165.975
820.93231	9163.375
824.78336	9153.575
828.63172	9182.475
832.47738	9195.775
836.32036	9197.675
840.16066	9221.675
843.99827	9179.175
847.8332	9176.975
851.66546	9201.175
855.49504	9207.275
859.32195	9201.775
863.1462	9182.175
866.96777	9189.375
870.78668	9184.275
874.60293	9197.175
878.41652	9245.475
882.22745	9335.475
886.03573	9392.375
889.84136	9364.075
893.64433	9326.175
897.44466	9297.675
901.24235	9261.175
905.0374	9258.975
908.8298	9208.675
912.61957	9172.475
916.40671	9226.175
920.19121	9277.375
923.97308	9358.875
927.75233	9467.575
931.52895	9552.875
935.30295	9468.675
939.07433	9294.975
942.84309	9180.875
946.60924	9141.375
950.37278	9130.375
954.13371	9095.875
957.89203	9079.575
961.64774	9042.875
965.40086	9040.875
969.15137	9033.875
972.89929	9033.975
976.64461	9044.875
980.38733	9037.775
984.12747	9092.575
987.86502	9156.275
991.59999	9220.575
995.33237	9330.675
999.06217	9520.475
1002.78939	9722.875
1006.51404	9891.475
1010.23611	10014.375
1013.95561	10108.875
1017.67255	10142.775
1021.38692	10147.575
1025.09872	10148.775
1028.80796	10141.275
1032.51465	10259.575
1036.21877	10356.375
1039.92035	10355.675
1043.61937	10310.375
1047.31584	10184.175
1051.00976	10084.875
1054.70114	10046.675
1058.38998	10047.675
1062.07627	10094.975
1065.76003	10159.775
1069.44126	10225.175
1073.11995	10405.475
1076.79611	10590.375
1080.46974	10728.875
1084.14085	10853.275
1087.80943	10945.775
1091.47549	10981.775
1095.13903	10936.075
1098.80005	10870.875
1102.45857	10915.375
1106.11456	10864.275
1109.76805	10742.575
1113.41903	10768.475
1117.06751	10905.775
1120.71348	11138.775
1124.35696	11342.975
1127.99793	11476.575
1131.63641	11331.275
1135.2724	11020.775
1138.90589	10722.675
1142.5369	10538.675
1146.16542	10416.275
1149.79145	10337.875
1153.415	10250.975
1157.03607	10238.075
1160.65467	10357.475
1164.27079	10587.175
1167.88443	10951.275
1171.49561	11504.375
1175.10432	12343.675
1178.71056	13442.275
1182.31434	14362.775
1185.91565	14763.775
1189.51451	14653.975
1193.11091	14297.575
1196.70485	13881.475
1200.29634	13406.775
1203.88538	12959.775
1207.47197	12439.675
1211.05612	11949.475
1214.63782	11552.275
1218.21708	11323.675
1221.79391	11225.275
1225.36829	11252.575
1228.94024	11214.975
1232.50976	11152.675
1236.07685	11112.875
1239.6415	11106.175
1243.20374	11150.875
1246.76355	11259.075
1250.32093	11384.675
1253.8759	11580.075
1257.42845	11919.375
1260.97859	12276.375
1264.52631	12591.575
1268.07163	12904.675
1271.61453	13069.675
1275.15503	13199.675
1278.69312	13278.475
1282.22882	13358.275
1285.76211	13530.775
1289.29301	13709.875
1292.82151	13993.775
1296.34761	14301.575
1299.87133	14828.975
1303.39266	15723.975
1306.9116	17053.475
1310.42815	18445.375
1313.94233	19016.475
1317.45412	18468.375
1320.96354	17371.275
1324.47058	16280.975
1327.97525	15369.175
1331.47754	14813.375
1334.97747	14629.275
1338.47502	14780.975
1341.97022	15235.775
1345.46305	16016.675
1348.95352	17108.475
1352.44163	18304.975
1355.92738	19614.875
1359.41078	21172.275
1362.89183	22276.775
1366.37053	21167.175
1369.84688	18291.175
1373.32088	15713.975
1376.79254	14265.775
1380.26186	13558.075
1383.72883	13177.975
1387.19347	12810.075
1390.65578	12393.375
1394.11575	12039.075
1397.57339	11781.475
1401.0287	11696.375
1404.48168	11710.975
1407.93234	11794.975
1411.38068	11975.975
1414.82669	12136.975
1418.27039	12195.375
1421.71177	12165.875
1425.15083	12081.175
1428.58758	12063.275
1432.02203	12191.075
1435.45416	12284.875
1438.88399	12276.975
1442.31151	12230.975
1445.73673	12221.775
1449.15965	12175.775
1452.58027	12096.575
1455.9986	12039.275
1459.41463	11985.675
1462.82837	12075.775
1466.23982	12277.175
1469.64898	12491.275
1473.05586	12661.075
1476.46045	12825.075
1479.86276	12977.275
1483.26279	13111.575
1486.66054	13347.175
1490.05602	13716.775
1493.44922	14258.375
1496.84016	15151.875
1500.22882	16315.475
1503.61521	17856.275
1506.99934	19370.175
1510.38121	20270.575
1513.76081	19992.775
1517.13816	18525.275
1520.51324	16684.675
1523.88607	15152.375
1527.25665	14171.075
1530.62498	13717.075
1533.99105	13464.375
1537.35488	13337.375
1540.71647	13219.575
1544.07581	13086.075
1547.4329	12981.675
1550.78776	12878.675
1554.14038	12760.675
1557.49077	12734.575
1560.83892	12857.175
1564.18484	13163.175
1567.52853	13441.975
1570.86999	13652.175
1574.20922	13680.675
1577.54624	13460.275
1580.88103	12946.875
1584.2136	12362.575
1587.54395	12109.375
1590.87208	12277.075
1594.19801	12856.275
1597.52172	13485.475
1600.84321	13802.375
1604.16251	13633.575
1607.47959	13293.275
1610.79447	12761.775
1614.10715	12085.675
1617.41763	11441.775
1620.7259	10980.675
1624.03199	10709.275
1627.33587	10717.275
1630.63757	10891.975
1633.93707	11380.175
1637.23439	12171.975
1640.52951	13313.475
1643.82246	14769.075
1647.11321	16090.875
1650.40179	16572.575
1653.68819	15558.275
1656.97241	13716.375
1660.25446	11928.875
1663.53433	10768.675
1666.81203	10042.875
1670.08756	9633.875
1673.36092	9401.775
1676.63211	9241.875
1679.90115	9110.475
1683.16801	8998.575
1686.43272	8907.375
1689.69527	8855.875
1692.95567	8825.875
1696.2139	8778.975
1699.46999	8770.675
1702.72392	8748.275
1705.97571	8736.375
1709.22535	8736.575
1712.47284	8733.675
1715.71819	8738.475
1718.96139	8716.075
1722.20246	8722.175
1725.44139	8682.275
1728.67818	8619.875
1731.91284	8567.875
1735.14537	8537.275
1738.37576	8493.975
1741.60403	8460.075
1744.83017	8426.675
1748.05418	8433.275
1751.27607	8413.475
1754.49584	8402.075
1757.71349	8372.275
1760.92903	8405.275
1764.14244	8367.175
1767.35375	8329.475
1770.56294	8301.575
1773.77002	8311.975
1776.97499	8260.475
1780.17785	8230.175
1783.37861	8232.975
1786.57727	8228.875
1789.77382	8215.375
1792.96828	8225.775
1796.16064	8202.075
1799.3509	8190.775
1802.53907	8158.875
1805.72514	8149.075
1808.90913	8155.675
1812.09102	8112.975
1815.27083	8095.575
1818.44856	8056.475
1821.6242	8055.875
1824.79776	8027.375
1827.96924	8047.975
1831.13864	8020.175
1834.30597	8009.575
1837.47122	7968.575
1840.6344	7970.875
1843.7955	7964.275
1846.95454	7955.575
1850.11151	7969.875
1853.26642	7932.875
1856.41926	7925.375
1859.57004	7969.375
1862.71876	7966.975
1865.86542	7954.575
1869.01003	7933.275
1872.15258	7923.975
1875.29308	7905.275
1878.43152	7897.875
1881.56792	7894.575
1884.70227	7875.975
1887.83457	7851.675
1890.96482	7842.875
1894.09304	7806.275
1897.21921	7797.475
1900.34335	7817.875
1903.46544	7822.075
1906.58551	7800.175
1909.70353	7779.275
1912.81953	7816.875
1915.93349	7791.175
1919.04543	7763.175
1922.15534	7767.575
1925.26322	7742.075
1928.36908	7722.875
1931.47292	7697.175
1934.57473	7669.375
1937.67453	7657.675
1940.77232	7643.975
1943.86808	7612.475
1946.96184	7592.275
1950.05358	7576.175
1953.14331	7559.775
1956.23103	7552.175
1959.31675	7519.375
1962.40046	7492.075
1965.48217	7478.675
1968.56188	7441.075
1971.63959	7423.175
1974.7153	7420.175
1977.78901	7418.275
1980.86073	7396.375
1983.93046	7366.275
1986.99819	7302.875
1990.06394	7309.075
1993.1277	7277.175
1996.18947	7244.775
1999.24925	7229.875
2002.30706	7199.275
2005.36288	7147.975
2008.41672	7147.175
2011.46859	7141.075
2014.51848	7107.275
2017.56639	7093.275
2020.61233	7060.275
2023.6563	7049.875
2026.6983	7017.175
2029.73833	7038.575
2032.7764	6981.475
2035.8125	6957.075
2038.84664	6962.475
2041.87881	6950.775
2044.90903	6952.975
2047.93729	6933.575
2050.96359	6907.075
2053.98794	6908.175
2057.01034	6902.675
2060.03078	6914.275
2063.04927	6898.975
2066.06582	6876.375
2069.08042	6859.075
2072.09307	6886.875
2075.10378	6860.175
2078.11255	6834.075
2081.11938	6856.975
2084.12426	6840.475
2087.12722	6809.275
2090.12824	6827.675
2093.12732	6820.475
2096.12447	6815.875
2099.11969	6825.375
2102.11299	6838.975
2105.10435	6843.775
2108.09379	6850.575
2111.08131	6844.975
2114.0669	6837.275
2117.05057	6846.675
2120.03233	6861.075
2123.01216	6854.475
2125.99008	6850.575
2128.96609	6866.175
2131.94018	6875.675
2134.91236	6857.975
2137.88263	6863.375
2140.851	6852.675
2143.81746	6858.675
2146.78201	6858.575
2149.74466	6842.475
2152.7054	6851.775
2155.66425	6847.075
2158.6212	6842.775
2161.57625	6834.175
2164.52941	6827.575
2167.48067	6848.775
2170.43004	6821.475
2173.37752	6814.175
2176.32311	6823.675
2179.26681	6833.175
2182.20863	6832.175
2185.14856	6858.275
2188.08661	6833.875
2191.02278	6819.675
2193.95707	6845.475
2196.88948	6822.275
2199.82001	6814.275
2202.74867	6797.175
2205.67545	6823.375
2208.60037	6825.975
2211.52341	6786.575
2214.44458	6767.875
2217.36388	6759.475
2220.28132	6747.175
2223.1969	6737.975
2226.11061	6702.575
2229.02246	6688.975
2231.93245	6699.875
2234.84058	6674.575
2237.74686	6651.275
2240.65128	6639.975
2243.55385	6627.975
2246.45456	6629.675
2249.35343	6613.175
2252.25044	6590.475
2255.14561	6605.975
2258.03893	6613.475
2260.93041	6615.175
2263.82004	6596.175
2266.70783	6574.075
2269.59378	6550.875
2272.4779	6532.775
2275.36017	6493.375
2278.24061	6510.375
2281.11922	6472.975
2283.996	6481.875
2286.87094	6458.775
2289.74405	6434.775
2292.61534	6450.875
2295.4848	6439.775
2298.35243	6434.675
2301.21824	6425.175
2304.08223	6398.775
2306.94439	6427.875
2309.80474	6419.675
2312.66327	6418.975
2315.51999	6414.275
2318.37489	6406.475
2321.22797	6388.575
2324.07925	6386.975
2326.92871	6368.575
2329.77637	6367.375
2332.62222	6357.875
2335.46626	6343.875
2338.3085	6348.375
2341.14893	6353.075
2343.98756	6345.575
2346.8244	6327.175
2349.65943	6323.075
2352.49267	6338.375
2355.32411	6323.275
2358.15376	6321.175
2360.98161	6315.275
2363.80768	6311.775
2366.63195	6316.575
2369.45444	6302.475
2372.27514	6308.375
2375.09405	6286.375
2377.91118	6254.375
2380.72652	6247.675
2383.54009	6227.375
2386.35187	6239.475
2389.16188	6232.475
2391.97011	6192.975
2394.77657	6182.175
2397.58125	6141.775
2400.38416	6148.475
2403.18529	6151.175
2405.98466	6140.075
2408.78226	6114.975
2411.57809	6108.375
2414.37216	6100.175
2417.16446	6097.975
2419.955	6085.275
2422.74378	6090.075
2425.5308	6083.975
2428.31606	6079.275
2431.09956	6074.075
2433.88131	6055.975
2436.6613	6061.475
2439.43954	6061.775
2442.21603	6060.475
2444.99077	6038.175
2447.76377	6049.475
2450.53501	6049.675
2453.30451	6033.075
2456.07226	6028.975
2458.83827	6020.475
2461.60254	6005.475
2464.36507	6005.675
2467.12586	5978.975
2469.88492	5992.675
2472.64224	5997.475
2475.39782	5981.575
2478.15167	5991.575
2480.90379	5987.875
2483.65417	5970.375
2486.40283	5960.675
2489.14976	5994.675
2491.89497	6001.375
2494.63845	5990.075
2497.3802	5975.275
2500.12024	5964.175
2502.85855	5970.475
2505.59514	5951.775
2508.33002	5939.475
2511.06318	5915.975
2513.79462	5925.275
2516.52435	5903.075
2519.25237	5885.075
2521.97867	5896.575
2524.70327	5890.075
2527.42616	5858.275
2530.14734	5846.675
2532.86681	5844.775
2535.58458	5877.575
2538.30065	5862.875
2541.01501	5859.675
2543.72768	5855.575
2546.43864	5824.875
2549.14791	5810.375
2551.85548	5811.175
2554.56136	5823.175
2557.26554	5812.875
2559.96803	5793.075
2562.66883	5791.175
2565.36794	5772.975
2568.06536	5761.875
2570.7611	5733.675
2573.45514	5731.075
2576.14751	5736.175
2578.83819	5724.075
2581.52719	5691.175
2584.21451	5713.275
2586.90015	5713.075
2589.58411	5689.375
2592.2664	5690.275
2594.94701	5668.475
2597.62594	5658.875
2600.30321	5663.975
2602.9788	5657.675
2605.65273	5672.475
2608.32498	5657.075
2610.99557	5652.275
2613.66449	5648.075
2616.33175	5628.175
2618.99734	5647.475
2621.66128	5630.575
2624.32355	5645.775
2626.98416	5602.675
2629.64311	5595.575
2632.30041	5603.575
2634.95605	5584.775
2637.61004	5583.375
2640.26238	5555.375
2642.91306	5569.875
2645.56209	5571.875
2648.20948	5544.875
2650.85521	5551.375
2653.4993	5535.775
2656.14175	5533.175
2658.78255	5534.275
2661.42171	5553.575
2664.05923	5544.975
2666.6951	5563.975
2669.32934	5565.975
2671.96194	5560.875
2674.59291	5584.075
2677.22224	5546.975
2679.84993	5547.975
2682.476	5532.475
2685.10043	5544.375
2687.72324	5546.875
2690.34441	5538.875
2692.96396	5540.875
2695.58188	5524.475
2698.19818	5526.175
2700.81285	5517.075
2703.4259	5502.875
2706.03733	5515.575
2708.64714	5501.675
2711.25533	5499.075
2713.86191	5502.075
2716.46687	5507.075
2719.07021	5502.075
2721.67194	5500.075
2724.27206	5500.875
2726.87057	5486.975
2729.46747	5499.475
2732.06276	5495.175
2734.65644	5485.975
2737.24852	5486.575
2739.83899	5464.275
2742.42786	5461.975
2745.01513	5448.575
2747.60079	5442.975
2750.18486	5421.875
2752.76733	5433.475
2755.3482	5427.675
2757.92747	5416.575
2760.50515	5400.675
2763.08123	5396.975
2765.65573	5367.875
2768.22863	5383.675
2770.79994	5377.375
2773.36967	5373.375
2775.9378	5358.175
2778.50435	5348.175
2781.06932	5356.575
2783.6327	5357.975
2786.1945	5341.675
2788.75471	5340.375
2791.31335	5316.375
2793.87041	5315.275
2796.42589	5306.275
2798.97979	5294.875
2801.53212	5278.375
2804.08288	5273.075
2806.63206	5260.675
2809.17967	5255.775
2811.72571	5260.275
2814.27018	5246.475
2816.81308	5229.275
2819.35442	5229.175
2821.89419	5216.275
2824.43239	5198.075
2826.96904	5208.575
2829.50412	5182.275
2832.03763	5174.175
2834.56959	5160.775
2837.1	5172.175
2839.62884	5140.675
2842.15613	5124.475
2844.68186	5145.975
2847.20604	5135.875
2849.72867	5140.375
2852.24974	5121.675
2854.76927	5112.275
2857.28724	5099.975
2859.80367	5083.375
2862.31855	5093.775
2864.83189	5091.075
2867.34368	5100.675
2869.85393	5086.375
2872.36264	5076.975
2874.8698	5069.975
2877.37543	5067.675
2879.87952	5073.575
2882.38207	5062.475
2884.88308	5045.175
2887.38256	5052.175
2889.88051	5045.175
2892.37692	5038.875
2894.8718	5025.675
2897.36515	5036.175
2899.85698	5048.475
2902.34727	5037.375
2904.83604	5044.275
2907.32328	5059.775
2909.809	5049.675
2912.29319	5061.675
2914.77587	5067.875
2917.25702	5059.675
2919.73665	5057.375
2922.21476	5050.975
2924.69136	5037.975
2927.16644	5034.375
2929.64	5025.975
2932.11205	5002.875
2934.58258	4997.575
2937.05161	5007.475
2939.51912	4991.575
2941.98513	5008.275
2944.44962	4995.975
2946.91261	4967.875
2949.37409	4982.475
2951.83407	4967.475
2954.29254	4963.175
2956.74951	4964.975
2959.20498	4962.275
2961.65895	4960.075
2964.11142	4962.075
2966.56239	4945.875
2969.01186	4962.175
2971.45984	4936.275
2973.90632	4950.075
2976.35131	4933.675
2978.7948	4910.475
2981.23681	4907.575
2983.67732	4896.175
2986.11635	4876.175
2988.55388	4857.675
2990.98993	4858.675
2993.4245	4845.675
2995.85758	4844.775
2998.28917	4811.675
3000.71928	4812.175
3003.14791	4806.975
3005.57506	4775.275
3008.00073	4764.275
3010.42493	4759.275
3012.84764	4760.075
3015.26888	4754.775
3017.68865	4727.775
3020.10694	4745.275
3022.52376	4715.775
3024.9391	4702.075
3027.35298	4681.275
3029.76539	4661.675
3032.17632	4678.275
3034.5858	4668.575
3036.9938	4655.075
3039.40034	4656.875
3041.80542	4618.675
3044.20903	4628.475
3046.61118	4628.175
3049.01187	4601.975
3051.4111	4587.875
3053.80888	4592.375
3056.20519	4563.975
3058.60005	4555.475
3060.99345	4567.975
3063.3854	4536.375
3065.7759	4530.775
3068.16494	4526.675
3070.55254	4513.375
3072.93868	4475.775
3075.32338	4471.975
3077.70662	4473.175
3080.08842	4452.875
3082.46878	4456.175
3084.84769	4450.575
3087.22515	4421.975
3089.60118	4426.675
3091.97576	4431.275
3094.3489	4422.775
3096.72061	4417.475
3099.09087	4421.975
3101.4597	4421.075
3103.82709	4393.475
3106.19305	4416.375
3108.55757	4407.475
3110.92066	4403.175
3113.28232	4385.575
3115.64255	4378.475
3118.00134	4367.575
3120.35871	4375.675
3122.71466	4362.175
3125.06917	4341.375
3127.42226	4323.075
3129.77393	4313.575
3132.12417	4313.675
3134.47299	4295.175
3136.82039	4296.675
3139.16636	4295.875
3141.51092	4307.475
3143.85406	4301.775
3146.19579	4278.875
3148.53609	4278.075
3150.87499	4280.275
3153.21246	4270.875
3155.54853	4278.675
3157.88318	4281.875
3160.21642	4268.075
3162.54826	4264.275
3164.87868	4270.475
3167.2077	4266.875
3169.5353	4256.875
3171.86151	4247.975
3174.18631	4232.875
3176.5097	4224.975
3178.83169	4204.975
3181.15228	4219.175
3183.47147	4197.375
3185.78926	4186.675
3188.10565	4170.175
3190.42065	4164.175
3192.73424	4152.575
3195.04645	4167.675
3197.35725	4157.075
3199.66667	4161.275
3201.97469	4152.675
3204.28132	4167.575
3206.58656	4160.975
3208.8904	4164.675
3211.19287	4161.575
3213.49394	4170.875
3215.79363	4152.075
