Data from AgNPs_UA_10uM_CRN_500uM_SU_RamanShift__151__13-30-30-284.txt Node

Date: Thu Aug 04 13:30:30 BST 2022
User: TCL
Spectrometer: QEP01345
Trigger mode: 4
Integration Time (sec): 1.000000E0
Scans to average: 10
Electric dark correction enabled: true
Nonlinearity correction enabled: false
Boxcar width: 0
XAxis mode: Raman Shifts
Number of Pixels in Spectrum: 1044
>>>>>Begin Spectral Data<<<<<
46.04893	0.6875
50.45542	-1.3125
54.85868	0.3875
59.25871	2.0875
63.6555	16.1875
68.04907	18.2875
72.43941	16.5875
76.82654	16.6875
81.21044	18.0875
85.59113	19.2875
89.96862	21.1875
94.34289	20.5875
98.71396	20.1875
103.08183	21.6875
107.4465	22.6875
111.80798	22.1875
116.16626	23.2875
120.52136	25.8875
124.87327	27.2875
129.222	29.4875
133.56755	26.8875
137.90993	30.4875
142.24913	35.4875
146.58517	39.8875
150.91804	44.6875
155.24774	55.9875
159.57429	67.3875
163.89768	88.3875
168.21792	117.4875
172.53501	159.0875
176.84895	225.0875
181.15975	317.3875
185.46741	443.5875
189.77193	610.7875
194.07331	815.3875
198.37157	1048.6875
202.6667	1292.5875
206.9587	1542.7875
211.24758	1768.9875
215.53334	2014.5875
219.81599	2280.9875
224.09553	2575.8875
228.37195	2879.9875
232.64527	3218.9875
236.91549	3585.3875
241.18261	3923.7875
245.44663	4216.4875
249.70755	4463.1875
253.96539	4687.4875
258.22014	4887.3875
262.4718	5047.6875
266.72039	5172.9875
270.96589	5213.4875
275.20832	5200.2875
279.44768	5143.9875
283.68397	5076.6875
287.91719	5016.0875
292.14735	5013.7875
296.37445	5073.8875
300.59849	5150.2875
304.81948	5280.6875
309.03742	5374.3875
313.25231	5403.0875
317.46415	5326.7875
321.67296	5202.0875
325.87872	5092.1875
330.08145	5035.2875
334.28114	5054.3875
338.47781	5125.8875
342.67145	5217.5875
346.86207	5336.8875
351.04966	5507.7875
355.23424	5688.8875
359.4158	5826.3875
363.59435	5919.7875
367.76989	6015.8875
371.94243	6027.9875
376.11196	6067.8875
380.27849	6113.4875
384.44203	6137.0875
388.60257	6186.7875
392.76012	6226.9875
396.91468	6307.6875
401.06626	6431.9875
405.21485	6515.7875
409.36047	6456.5875
413.50311	6333.6875
417.64277	6207.6875
421.77947	6111.6875
425.9132	6117.2875
430.04396	6186.2875
434.17176	6308.0875
438.2966	6459.8875
442.41849	6723.4875
446.53742	7011.5875
450.6534	7295.9875
454.76644	7455.7875
458.87653	7442.2875
462.98368	7292.4875
467.08789	7063.1875
471.18916	6823.7875
475.2875	6592.7875
479.38291	6392.2875
483.4754	6253.5875
487.56496	6166.7875
491.6516	6111.1875
495.73531	6069.8875
499.81612	6104.5875
503.89401	6132.0875
507.96899	6149.9875
512.04106	6183.5875
516.11023	6221.9875
520.1765	6269.0875
524.23987	6311.3875
528.30034	6362.8875
532.35792	6322.5875
536.41261	6234.2875
540.46441	6148.3875
544.51333	6160.9875
548.55936	6187.6875
552.60252	6280.1875
556.64279	6363.9875
560.6802	6385.5875
564.71473	6375.1875
568.7464	6391.7875
572.7752	6413.4875
576.80114	6374.8875
580.82422	6380.0875
584.84444	6498.9875
588.86181	6704.8875
592.87633	6973.9875
596.888	7147.6875
600.89682	7357.0875
604.9028	7971.8875
608.90594	9183.4875
612.90624	10148.0875
616.90371	9279.2875
620.89834	7637.2875
624.89015	6982.6875
628.87913	6907.6875
632.86528	6836.1875
636.84862	6730.0875
640.82913	6543.9875
644.80683	6306.9875
648.78172	6235.2875
652.75379	6272.9875
656.72306	6478.5875
660.68952	6632.1875
664.65319	6605.7875
668.61405	6501.7875
672.57211	6520.8875
676.52738	6511.5875
680.47986	6409.7875
684.42955	6328.2875
688.37646	6341.7875
692.32058	6398.9875
696.26192	6502.4875
700.20048	6592.4875
704.13626	6620.5875
708.06928	6529.0875
711.99952	6441.8875
715.927	6451.4875
719.85171	6510.2875
723.77365	6479.8875
727.69284	6420.4875
731.60928	6396.6875
735.52295	6406.2875
739.43388	6472.9875
743.34206	6538.5875
747.24749	6571.6875
751.15017	6580.0875
755.05012	6690.0875
758.94733	6892.4875
762.8418	7334.5875
766.73354	7975.5875
770.62254	8565.0875
774.50882	8776.2875
778.39237	8474.2875
782.27321	7807.7875
786.15132	7214.4875
790.02671	6825.6875
793.89938	6655.9875
797.76935	6595.3875
801.6366	6528.3875
805.50115	6491.7875
809.36299	6482.3875
813.22213	6452.8875
817.07857	6447.9875
820.93231	6433.7875
824.78336	6427.1875
828.63172	6448.1875
832.47738	6483.9875
836.32036	6511.3875
840.16066	6541.5875
843.99827	6547.0875
847.8332	6523.0875
851.66546	6494.0875
855.49504	6521.0875
859.32195	6510.8875
863.1462	6474.7875
866.96777	6454.3875
870.78668	6452.0875
874.60293	6474.8875
878.41652	6491.6875
882.22745	6559.4875
886.03573	6578.2875
889.84136	6583.4875
893.64433	6559.6875
897.44466	6519.1875
901.24235	6486.1875
905.0374	6485.1875
908.8298	6467.2875
912.61957	6478.7875
916.40671	6515.3875
920.19121	6583.9875
923.97308	6649.4875
927.75233	6708.4875
931.52895	6745.6875
935.30295	6696.3875
939.07433	6580.6875
942.84309	6495.9875
946.60924	6461.3875
950.37278	6438.3875
954.13371	6415.8875
957.89203	6383.2875
961.64774	6358.6875
965.40086	6350.5875
969.15137	6324.9875
972.89929	6333.7875
976.64461	6333.5875
980.38733	6369.2875
984.12747	6389.5875
987.86502	6469.3875
991.59999	6555.5875
995.33237	6699.4875
999.06217	6952.7875
1002.78939	7217.3875
1006.51404	7339.8875
1010.23611	7419.1875
1013.95561	7529.2875
1017.67255	7630.5875
1021.38692	7551.1875
1025.09872	7478.3875
1028.80796	7544.7875
1032.51465	7740.6875
1036.21877	7852.4875
1039.92035	7825.4875
1043.61937	7694.5875
1047.31584	7494.3875
1051.00976	7329.0875
1054.70114	7246.8875
1058.38998	7239.4875
1062.07627	7247.7875
1065.76003	7282.6875
1069.44126	7334.6875
1073.11995	7366.6875
1076.79611	7463.5875
1080.46974	7543.5875
1084.14085	7598.5875
1087.80943	7661.7875
1091.47549	7660.6875
1095.13903	7555.6875
1098.80005	7419.5875
1102.45857	7374.8875
1106.11456	7361.5875
1109.76805	7373.4875
1113.41903	7453.9875
1117.06751	7571.4875
1120.71348	7721.5875
1124.35696	7868.9875
1127.99793	7960.5875
1131.63641	7841.0875
1135.2724	7711.8875
1138.90589	7557.6875
1142.5369	7451.6875
1146.16542	7346.4875
1149.79145	7307.5875
1153.415	7304.6875
1157.03607	7349.3875
1160.65467	7469.5875
1164.27079	7675.7875
1167.88443	7977.2875
1171.49561	8417.0875
1175.10432	9092.8875
1178.71056	9952.3875
1182.31434	10787.5875
1185.91565	11340.1875
1189.51451	11432.0875
1193.11091	11109.1875
1196.70485	10510.9875
1200.29634	9922.0875
1203.88538	9409.6875
1207.47197	8937.3875
1211.05612	8609.6875
1214.63782	8467.7875
1218.21708	8436.6875
1221.79391	8498.0875
1225.36829	8547.3875
1228.94024	8536.6875
1232.50976	8475.2875
1236.07685	8467.8875
1239.6415	8527.5875
1243.20374	8581.1875
1246.76355	8609.5875
1250.32093	8715.9875
1253.8759	8900.0875
1257.42845	9181.4875
1260.97859	9474.8875
1264.52631	9734.4875
1268.07163	9907.1875
1271.61453	10031.2875
1275.15503	10184.9875
1278.69312	10364.7875
1282.22882	10596.2875
1285.76211	10826.6875
1289.29301	11061.8875
1292.82151	11349.8875
1296.34761	11622.7875
1299.87133	11995.6875
1303.39266	12596.5875
1306.9116	13523.8875
1310.42815	14359.9875
1313.94233	14739.9875
1317.45412	14494.5875
1320.96354	13919.8875
1324.47058	13319.2875
1327.97525	12973.1875
1331.47754	12989.5875
1334.97747	13191.6875
1338.47502	13443.7875
1341.97022	13696.0875
1345.46305	13938.1875
1348.95352	14289.3875
1352.44163	14827.9875
1355.92738	15488.8875
1359.41078	16288.1875
1362.89183	16562.8875
1366.37053	15664.5875
1369.84688	13988.8875
1373.32088	12470.6875
1376.79254	11556.9875
1380.26186	11110.7875
1383.72883	10842.5875
1387.19347	10529.3875
1390.65578	10186.7875
1394.11575	9869.3875
1397.57339	9695.0875
1401.0287	9761.7875
1404.48168	9994.3875
1407.93234	10292.1875
1411.38068	10577.4875
1414.82669	10653.3875
1418.27039	10473.4875
1421.71177	10273.6875
1425.15083	10252.5875
1428.58758	10333.8875
1432.02203	10629.2875
1435.45416	10766.2875
1438.88399	10779.2875
1442.31151	10671.7875
1445.73673	10599.4875
1449.15965	10483.9875
1452.58027	10345.6875
1455.9986	10165.2875
1459.41463	10110.8875
1462.82837	10234.9875
1466.23982	10466.9875
1469.64898	10691.3875
1473.05586	10882.3875
1476.46045	11071.0875
1479.86276	11199.3875
1483.26279	11259.2875
1486.66054	11344.3875
1490.05602	11496.4875
1493.44922	11732.0875
1496.84016	12080.8875
1500.22882	12573.1875
1503.61521	13197.2875
1506.99934	13784.5875
1510.38121	14016.3875
1513.76081	13658.3875
1517.13816	12867.4875
1520.51324	12023.4875
1523.88607	11427.3875
1527.25665	11178.0875
1530.62498	11144.4875
1533.99105	11170.3875
1537.35488	11219.3875
1540.71647	11202.8875
1544.07581	11138.6875
1547.4329	10975.7875
1550.78776	10701.1875
1554.14038	10393.6875
1557.49077	10214.4875
1560.83892	10147.9875
1564.18484	10145.8875
1567.52853	10212.0875
1570.86999	10282.5875
1574.20922	10268.2875
1577.54624	10159.7875
1580.88103	9889.0875
1584.2136	9679.7875
1587.54395	9717.2875
1590.87208	10194.8875
1594.19801	11058.2875
1597.52172	12105.2875
1600.84321	12815.1875
1604.16251	12746.8875
1607.47959	12053.4875
1610.79447	11007.5875
1614.10715	10017.6875
1617.41763	9229.6875
1620.7259	8742.3875
1624.03199	8522.1875
1627.33587	8534.1875
1630.63757	8744.4875
1633.93707	9257.4875
1637.23439	10034.6875
1640.52951	11052.3875
1643.82246	12104.4875
1647.11321	12738.5875
1650.40179	12495.2875
1653.68819	11313.4875
1656.97241	9887.6875
1660.25446	8698.2875
1663.53433	7950.9875
1666.81203	7465.3875
1670.08756	7200.7875
1673.36092	7014.7875
1676.63211	6865.7875
1679.90115	6761.3875
1683.16801	6697.2875
1686.43272	6635.0875
1689.69527	6604.2875
1692.95567	6551.2875
1696.2139	6528.5875
1699.46999	6515.5875
1702.72392	6495.1875
1705.97571	6497.5875
1709.22535	6498.7875
1712.47284	6511.6875
1715.71819	6506.2875
1718.96139	6483.8875
1722.20246	6459.9875
1725.44139	6448.7875
1728.67818	6410.3875
1731.91284	6379.2875
1735.14537	6330.5875
1738.37576	6322.1875
1741.60403	6307.3875
1744.83017	6289.6875
1748.05418	6283.4875
1751.27607	6265.8875
1754.49584	6263.6875
1757.71349	6246.1875
1760.92903	6251.0875
1764.14244	6245.3875
1767.35375	6225.8875
1770.56294	6225.7875
1773.77002	6203.4875
1776.97499	6203.3875
1780.17785	6191.9875
1783.37861	6187.1875
1786.57727	6178.6875
1789.77382	6174.7875
1792.96828	6159.1875
1796.16064	6154.0875
1799.3509	6151.4875
1802.53907	6154.1875
1805.72514	6135.1875
1808.90913	6122.5875
1812.09102	6103.3875
1815.27083	6093.8875
1818.44856	6082.6875
1821.6242	6062.5875
1824.79776	6062.7875
1827.96924	6052.9875
1831.13864	6032.5875
1834.30597	6031.7875
1837.47122	6011.3875
1840.6344	6023.7875
1843.7955	5997.4875
1846.95454	6022.0875
1850.11151	6027.1875
1853.26642	6005.2875
1856.41926	6025.1875
1859.57004	6020.9875
1862.71876	6038.2875
1865.86542	6023.8875
1869.01003	6030.2875
1872.15258	6023.0875
1875.29308	5991.2875
1878.43152	6014.5875
1881.56792	5997.2875
1884.70227	5982.0875
1887.83457	5979.5875
1890.96482	5974.0875
1894.09304	5963.9875
1897.21921	5958.9875
1900.34335	5958.2875
1903.46544	5951.9875
1906.58551	5958.9875
1909.70353	5948.2875
1912.81953	5932.7875
1915.93349	5961.2875
1919.04543	5927.8875
1922.15534	5922.4875
1925.26322	5933.2875
1928.36908	5924.1875
1931.47292	5909.8875
1934.57473	5904.4875
1937.67453	5898.1875
1940.77232	5894.9875
1943.86808	5870.2875
1946.96184	5849.0875
1950.05358	5821.1875
1953.14331	5824.6875
1956.23103	5808.5875
1959.31675	5758.9875
1962.40046	5752.3875
1965.48217	5727.1875
1968.56188	5713.6875
1971.63959	5704.0875
1974.7153	5699.9875
1977.78901	5695.3875
1980.86073	5674.7875
1983.93046	5658.2875
1986.99819	5641.8875
1990.06394	5630.9875
1993.1277	5603.9875
1996.18947	5592.7875
1999.24925	5573.7875
2002.30706	5565.0875
2005.36288	5530.5875
2008.41672	5529.8875
2011.46859	5509.4875
2014.51848	5499.0875
2017.56639	5490.7875
2020.61233	5455.5875
2023.6563	5453.8875
2026.6983	5442.0875
2029.73833	5435.0875
2032.7764	5423.4875
2035.8125	5410.5875
2038.84664	5388.7875
2041.87881	5397.5875
2044.90903	5370.7875
2047.93729	5390.1875
2050.96359	5356.3875
2053.98794	5373.8875
2057.01034	5359.8875
2060.03078	5358.8875
2063.04927	5351.6875
2066.06582	5340.7875
2069.08042	5337.4875
2072.09307	5340.7875
2075.10378	5311.6875
2078.11255	5329.1875
2081.11938	5301.3875
2084.12426	5292.5875
2087.12722	5281.9875
2090.12824	5294.4875
2093.12732	5295.9875
2096.12447	5301.6875
2099.11969	5313.6875
2102.11299	5301.7875
2105.10435	5302.2875
2108.09379	5308.0875
2111.08131	5298.1875
2114.0669	5310.8875
2117.05057	5305.2875
2120.03233	5312.2875
2123.01216	5327.9875
2125.99008	5323.1875
2128.96609	5306.8875
2131.94018	5318.6875
2134.91236	5322.1875
2137.88263	5320.4875
2140.851	5313.8875
2143.81746	5338.1875
2146.78201	5321.3875
2149.74466	5315.5875
2152.7054	5338.4875
2155.66425	5312.6875
2158.6212	5325.5875
2161.57625	5315.8875
2164.52941	5323.2875
2167.48067	5300.1875
2170.43004	5291.5875
2173.37752	5289.7875
2176.32311	5304.7875
2179.26681	5321.1875
2182.20863	5315.6875
2185.14856	5317.3875
2188.08661	5316.7875
2191.02278	5317.4875
2193.95707	5320.4875
2196.88948	5303.7875
2199.82001	5312.9875
2202.74867	5300.9875
2205.67545	5331.8875
2208.60037	5311.3875
2211.52341	5307.9875
2214.44458	5283.9875
2217.36388	5247.7875
2220.28132	5279.5875
2223.1969	5248.4875
2226.11061	5243.9875
2229.02246	5247.0875
2231.93245	5241.9875
2234.84058	5231.0875
2237.74686	5213.8875
2240.65128	5204.3875
2243.55385	5201.0875
2246.45456	5180.1875
2249.35343	5176.0875
2252.25044	5161.7875
2255.14561	5189.1875
2258.03893	5180.6875
2260.93041	5167.0875
2263.82004	5146.6875
2266.70783	5128.4875
2269.59378	5124.1875
2272.4779	5089.5875
2275.36017	5080.0875
2278.24061	5085.9875
2281.11922	5067.9875
2283.996	5044.0875
2286.87094	5048.1875
2289.74405	5048.1875
2292.61534	5046.0875
2295.4848	5046.0875
2298.35243	5039.9875
2301.21824	5034.0875
2304.08223	5024.1875
2306.94439	5033.1875
2309.80474	5034.3875
2312.66327	5042.2875
2315.51999	5037.1875
2318.37489	5037.9875
2321.22797	5050.4875
2324.07925	5028.0875
2326.92871	5011.6875
2329.77637	5003.8875
2332.62222	5003.4875
2335.46626	4992.7875
2338.3085	5007.6875
2341.14893	4992.2875
2343.98756	5010.2875
2346.8244	5019.1875
2349.65943	5016.3875
2352.49267	4991.5875
2355.32411	5010.3875
2358.15376	5012.0875
2360.98161	5016.2875
2363.80768	5005.1875
2366.63195	4986.0875
2369.45444	4986.4875
2372.27514	4969.6875
2375.09405	4964.0875
2377.91118	4950.7875
2380.72652	4944.8875
2383.54009	4931.1875
2386.35187	4923.7875
2389.16188	4911.8875
2391.97011	4894.2875
2394.77657	4886.4875
2397.58125	4864.9875
2400.38416	4856.2875
2403.18529	4871.7875
2405.98466	4856.1875
2408.78226	4826.3875
2411.57809	4825.4875
2414.37216	4819.7875
2417.16446	4815.7875
2419.955	4813.3875
2422.74378	4821.0875
2425.5308	4802.8875
2428.31606	4815.7875
2431.09956	4791.6875
2433.88131	4799.9875
2436.6613	4779.1875
2439.43954	4784.5875
2442.21603	4760.0875
2444.99077	4769.8875
2447.76377	4767.5875
2450.53501	4777.9875
2453.30451	4777.4875
2456.07226	4775.7875
2458.83827	4754.7875
2461.60254	4752.2875
2464.36507	4749.0875
2467.12586	4745.8875
2469.88492	4734.4875
2472.64224	4763.1875
2475.39782	4745.9875
2478.15167	4735.0875
2480.90379	4740.5875
2483.65417	4722.8875
2486.40283	4738.9875
2489.14976	4750.6875
2491.89497	4763.7875
2494.63845	4761.9875
2497.3802	4754.6875
2500.12024	4747.6875
2502.85855	4741.4875
2505.59514	4754.1875
2508.33002	4739.5875
2511.06318	4717.5875
2513.79462	4713.8875
2516.52435	4716.7875
2519.25237	4721.9875
2521.97867	4700.6875
2524.70327	4702.0875
2527.42616	4701.9875
2530.14734	4691.1875
2532.86681	4687.0875
2535.58458	4723.1875
2538.30065	4701.9875
2541.01501	4702.2875
2543.72768	4692.7875
2546.43864	4686.6875
2549.14791	4674.1875
2551.85548	4668.1875
2554.56136	4664.7875
2557.26554	4660.3875
2559.96803	4661.3875
2562.66883	4652.9875
2565.36794	4639.2875
2568.06536	4628.4875
2570.7611	4618.3875
2573.45514	4613.0875
2576.14751	4619.0875
2578.83819	4601.9875
2581.52719	4600.5875
2584.21451	4618.3875
2586.90015	4620.6875
2589.58411	4599.6875
2592.2664	4613.0875
2594.94701	4604.7875
2597.62594	4603.1875
2600.30321	4580.5875
2602.9788	4593.5875
2605.65273	4594.9875
2608.32498	4595.4875
2610.99557	4566.2875
2613.66449	4576.4875
2616.33175	4582.4875
2618.99734	4592.8875
2621.66128	4572.6875
2624.32355	4583.7875
2626.98416	4596.6875
2629.64311	4588.6875
2632.30041	4574.4875
2634.95605	4560.3875
2637.61004	4556.7875
2640.26238	4557.7875
2642.91306	4547.4875
2645.56209	4577.9875
2648.20948	4563.0875
2650.85521	4533.7875
2653.4993	4565.0875
2656.14175	4544.4875
2658.78255	4551.0875
2661.42171	4536.1875
2664.05923	4547.3875
2666.6951	4577.4875
2669.32934	4573.0875
2671.96194	4570.1875
2674.59291	4568.7875
2677.22224	4583.3875
2679.84993	4569.1875
2682.476	4565.8875
2685.10043	4572.1875
2687.72324	4560.4875
2690.34441	4572.5875
2692.96396	4565.2875
2695.58188	4551.4875
2698.19818	4540.6875
2700.81285	4547.3875
2703.4259	4553.5875
2706.03733	4536.6875
2708.64714	4544.6875
2711.25533	4529.5875
2713.86191	4540.9875
2716.46687	4556.2875
2719.07021	4546.8875
2721.67194	4544.8875
2724.27206	4548.9875
2726.87057	4553.7875
2729.46747	4557.1875
2732.06276	4558.7875
2734.65644	4551.7875
2737.24852	4548.1875
2739.83899	4543.3875
2742.42786	4533.8875
2745.01513	4519.9875
2747.60079	4536.0875
2750.18486	4515.9875
2752.76733	4514.2875
2755.3482	4517.2875
2757.92747	4497.2875
2760.50515	4498.4875
2763.08123	4520.4875
2765.65573	4497.9875
2768.22863	4487.4875
2770.79994	4488.3875
2773.36967	4487.9875
2775.9378	4488.9875
2778.50435	4487.3875
2781.06932	4490.5875
2783.6327	4481.4875
2786.1945	4505.0875
2788.75471	4480.6875
2791.31335	4465.7875
2793.87041	4466.4875
2796.42589	4475.7875
2798.97979	4454.2875
2801.53212	4446.0875
2804.08288	4431.1875
2806.63206	4437.8875
2809.17967	4421.9875
2811.72571	4412.7875
2814.27018	4402.8875
2816.81308	4387.4875
2819.35442	4406.7875
2821.89419	4389.4875
2824.43239	4377.3875
2826.96904	4391.5875
2829.50412	4371.4875
2832.03763	4360.0875
2834.56959	4365.4875
2837.1	4347.0875
2839.62884	4359.8875
2842.15613	4361.8875
2844.68186	4363.0875
2847.20604	4354.0875
2849.72867	4336.4875
2852.24974	4323.5875
2854.76927	4324.0875
2857.28724	4291.9875
2859.80367	4308.3875
2862.31855	4309.4875
2864.83189	4309.0875
2867.34368	4312.9875
2869.85393	4298.9875
2872.36264	4287.6875
2874.8698	4292.4875
2877.37543	4267.1875
2879.87952	4272.0875
2882.38207	4265.5875
2884.88308	4272.7875
2887.38256	4258.9875
2889.88051	4274.8875
2892.37692	4283.2875
2894.8718	4275.7875
2897.36515	4269.8875
2899.85698	4273.7875
2902.34727	4271.4875
2904.83604	4278.1875
2907.32328	4286.6875
2909.809	4282.5875
2912.29319	4289.6875
2914.77587	4263.9875
2917.25702	4290.7875
2919.73665	4264.0875
2922.21476	4273.2875
2924.69136	4267.0875
2927.16644	4270.2875
2929.64	4253.6875
2932.11205	4243.8875
2934.58258	4224.5875
2937.05161	4243.2875
2939.51912	4227.5875
2941.98513	4241.2875
2944.44962	4241.0875
2946.91261	4224.8875
2949.37409	4241.2875
2951.83407	4219.2875
2954.29254	4221.6875
2956.74951	4218.5875
2959.20498	4202.9875
2961.65895	4204.5875
2964.11142	4207.1875
2966.56239	4188.8875
2969.01186	4204.0875
2971.45984	4187.2875
2973.90632	4186.8875
2976.35131	4162.0875
2978.7948	4159.4875
2981.23681	4152.4875
2983.67732	4162.6875
2986.11635	4129.6875
2988.55388	4125.2875
2990.98993	4121.6875
2993.4245	4096.1875
2995.85758	4089.6875
2998.28917	4068.7875
3000.71928	4057.3875
3003.14791	4060.9875
3005.57506	4051.8875
3008.00073	4042.2875
3010.42493	4024.7875
3012.84764	4007.9875
3015.26888	4016.0875
3017.68865	4016.5875
3020.10694	4005.9875
3022.52376	3973.7875
3024.9391	3969.9875
3027.35298	3953.8875
3029.76539	3944.8875
3032.17632	3953.8875
3034.5858	3946.5875
3036.9938	3937.1875
3039.40034	3931.6875
3041.80542	3914.6875
3044.20903	3906.4875
3046.61118	3910.6875
3049.01187	3882.7875
3051.4111	3880.4875
3053.80888	3884.6875
3056.20519	3872.3875
3058.60005	3848.8875
3060.99345	3856.2875
3063.3854	3832.6875
3065.7759	3824.8875
3068.16494	3808.6875
3070.55254	3784.0875
3072.93868	3797.1875
3075.32338	3764.6875
3077.70662	3775.3875
3080.08842	3758.5875
3082.46878	3762.3875
3084.84769	3743.4875
3087.22515	3741.4875
3089.60118	3722.1875
3091.97576	3738.6875
3094.3489	3713.5875
3096.72061	3714.5875
3099.09087	3724.5875
3101.4597	3707.9875
3103.82709	3710.8875
3106.19305	3695.4875
3108.55757	3703.2875
3110.92066	3684.9875
3113.28232	3677.2875
3115.64255	3669.1875
3118.00134	3670.3875
