Data from AgNPs_UA_20uM_CRN_500uM_SU_RamanShift__34__13-42-10-297.txt Node

Date: Thu Aug 04 13:42:10 BST 2022
User: TCL
Spectrometer: QEP01345
Trigger mode: 4
Integration Time (sec): 1.000000E0
Scans to average: 10
Electric dark correction enabled: true
Nonlinearity correction enabled: false
Boxcar width: 0
XAxis mode: Raman Shifts
Number of Pixels in Spectrum: 1044
>>>>>Begin Spectral Data<<<<<
46.04893	-1.55
50.45542	-0.45
54.85868	0.15
59.25871	-0.05
63.6555	16.25
68.04907	13.75
72.43941	18.45
76.82654	18.05
81.21044	17.85
85.59113	19.15
89.96862	19.25
94.34289	19.75
98.71396	20.65
103.08183	23.65
107.4465	20.95
111.80798	23.95
116.16626	23.85
120.52136	26.45
124.87327	23.65
129.222	30.85
133.56755	29.05
137.90993	31.65
142.24913	36.65
146.58517	40.75
150.91804	45.55
155.24774	55.75
159.57429	71.75
163.89768	93.45
168.21792	125.85
172.53501	169.85
176.84895	233.55
181.15975	337.35
185.46741	467.85
189.77193	660.25
194.07331	886.45
198.37157	1143.35
202.6667	1413.75
206.9587	1696.35
211.24758	1968.65
215.53334	2257.55
219.81599	2543.45
224.09553	2883.25
228.37195	3237.15
232.64527	3627.65
236.91549	4028.35
241.18261	4397.75
245.44663	4713.85
249.70755	4987.35
253.96539	5202.15
258.22014	5381.45
262.4718	5528.15
266.72039	5625.35
270.96589	5663.45
275.20832	5630.65
279.44768	5572.05
283.68397	5480.05
287.91719	5404.75
292.14735	5418.65
296.37445	5451.15
300.59849	5590.95
304.81948	5752.15
309.03742	5914.65
313.25231	5974.65
317.46415	5933.05
321.67296	5751.95
325.87872	5577.75
330.08145	5495.55
334.28114	5478.85
338.47781	5537.45
342.67145	5647.45
346.86207	5808.15
351.04966	5984.65
355.23424	6181.45
359.4158	6350.05
363.59435	6421.75
367.76989	6452.05
371.94243	6464.25
376.11196	6465.35
380.27849	6478.15
384.44203	6472.15
388.60257	6499.75
392.76012	6560.15
396.91468	6641.35
401.06626	6727.25
405.21485	6762.55
409.36047	6679.95
413.50311	6545.95
417.64277	6386.35
421.77947	6296.95
425.9132	6269.25
430.04396	6288.55
434.17176	6303.85
438.2966	6370.25
442.41849	6480.55
446.53742	6594.25
450.6534	6716.95
454.76644	6773.35
458.87653	6797.15
462.98368	6789.75
467.08789	6775.05
471.18916	6700.55
475.2875	6616.55
479.38291	6522.95
483.4754	6487.55
487.56496	6454.35
491.6516	6421.85
495.73531	6431.25
499.81612	6452.95
503.89401	6509.35
507.96899	6552.25
512.04106	6581.25
516.11023	6659.75
520.1765	6686.05
524.23987	6687.35
528.30034	6680.25
532.35792	6671.45
536.41261	6624.65
540.46441	6582.65
544.51333	6556.25
548.55936	6591.85
552.60252	6694.35
556.64279	6766.25
560.6802	6824.65
564.71473	6906.85
568.7464	6969.55
572.7752	6943.15
576.80114	6827.25
580.82422	6724.65
584.84444	6699.75
588.86181	6707.45
592.87633	6758.75
596.888	6859.75
600.89682	7109.25
604.9028	7736.65
608.90594	9007.45
612.90624	10282.05
616.90371	9653.65
620.89834	7859.85
624.89015	7078.75
628.87913	6994.35
632.86528	7141.95
636.84862	7227.35
640.82913	7146.45
644.80683	6957.65
648.78172	6854.45
652.75379	6863.35
656.72306	7020.95
660.68952	7150.25
664.65319	7131.25
668.61405	7024.85
672.57211	7028.55
676.52738	7079.55
680.47986	7011.45
684.42955	6898.55
688.37646	6873.75
692.32058	6922.35
696.26192	7002.95
700.20048	7109.75
704.13626	7143.35
708.06928	7099.45
711.99952	7057.95
715.927	7062.15
719.85171	7087.55
723.77365	7105.05
727.69284	7071.85
731.60928	7035.75
735.52295	7024.75
739.43388	7041.05
743.34206	7069.45
747.24749	7089.15
751.15017	7075.55
755.05012	7152.65
758.94733	7343.65
762.8418	7824.85
766.73354	8579.25
770.62254	9188.25
774.50882	9302.05
778.39237	9035.55
782.27321	8501.25
786.15132	7903.15
790.02671	7480.05
793.89938	7276.35
797.76935	7170.15
801.6366	7139.15
805.50115	7106.55
809.36299	7110.95
813.22213	7081.75
817.07857	7092.45
820.93231	7095.75
824.78336	7127.15
828.63172	7143.95
832.47738	7135.25
836.32036	7145.75
840.16066	7098.75
843.99827	7113.45
847.8332	7138.75
851.66546	7142.45
855.49504	7162.75
859.32195	7185.25
863.1462	7181.65
866.96777	7179.45
870.78668	7177.35
874.60293	7193.85
878.41652	7224.85
882.22745	7260.75
886.03573	7314.75
889.84136	7307.55
893.64433	7296.25
897.44466	7273.85
901.24235	7267.35
905.0374	7243.25
908.8298	7225.15
912.61957	7210.25
916.40671	7222.95
920.19121	7237.15
923.97308	7298.85
927.75233	7332.75
931.52895	7363.75
935.30295	7327.95
939.07433	7237.05
942.84309	7182.05
946.60924	7154.05
950.37278	7120.85
954.13371	7132.95
957.89203	7139.55
961.64774	7155.05
965.40086	7110.05
969.15137	7118.45
972.89929	7127.15
976.64461	7113.45
980.38733	7149.75
984.12747	7141.65
987.86502	7166.55
991.59999	7205.15
995.33237	7232.05
999.06217	7284.45
1002.78939	7364.85
1006.51404	7461.75
1010.23611	7546.45
1013.95561	7600.45
1017.67255	7642.85
1021.38692	7597.65
1025.09872	7535.55
1028.80796	7473.25
1032.51465	7446.25
1036.21877	7459.45
1039.92035	7453.55
1043.61937	7511.15
1047.31584	7529.75
1051.00976	7554.45
1054.70114	7568.85
1058.38998	7569.95
1062.07627	7597.75
1065.76003	7667.35
1069.44126	7743.35
1073.11995	7857.15
1076.79611	7993.05
1080.46974	8083.95
1084.14085	8161.95
1087.80943	8212.65
1091.47549	8260.25
1095.13903	8303.55
1098.80005	8243.35
1102.45857	8224.55
1106.11456	8136.75
1109.76805	8045.85
1113.41903	8049.95
1117.06751	8109.95
1120.71348	8245.85
1124.35696	8405.25
1127.99793	8501.85
1131.63641	8409.35
1135.2724	8195.75
1138.90589	8074.95
1142.5369	7979.85
1146.16542	7937.05
1149.79145	7933.85
1153.415	7836.35
1157.03607	7797.45
1160.65467	7852.35
1164.27079	7950.35
1167.88443	8118.45
1171.49561	8384.25
1175.10432	8832.15
1178.71056	9373.15
1182.31434	9901.95
1185.91565	10063.95
1189.51451	9999.35
1193.11091	9870.25
1196.70485	9679.55
1200.29634	9536.65
1203.88538	9358.75
1207.47197	9086.95
1211.05612	8844.55
1214.63782	8636.05
1218.21708	8485.35
1221.79391	8353.55
1225.36829	8273.05
1228.94024	8256.15
1232.50976	8228.25
1236.07685	8263.05
1239.6415	8301.45
1243.20374	8319.45
1246.76355	8346.75
1250.32093	8450.25
1253.8759	8559.05
1257.42845	8741.65
1260.97859	8915.15
1264.52631	9090.35
1268.07163	9205.55
1271.61453	9243.25
1275.15503	9291.45
1278.69312	9293.85
1282.22882	9254.05
1285.76211	9340.35
1289.29301	9444.75
1292.82151	9584.95
1296.34761	9744.85
1299.87133	9991.95
1303.39266	10389.25
1306.9116	11007.95
1310.42815	11627.45
1313.94233	11821.05
1317.45412	11488.85
1320.96354	10976.15
1324.47058	10477.65
1327.97525	10021.15
1331.47754	9782.45
1334.97747	9732.35
1338.47502	9823.75
1341.97022	10094.95
1345.46305	10563.65
1348.95352	11231.25
1352.44163	11945.25
1355.92738	12642.85
1359.41078	13496.65
1362.89183	14165.95
1366.37053	13720.35
1369.84688	12133.25
1373.32088	10647.55
1376.79254	9802.05
1380.26186	9405.75
1383.72883	9163.85
1387.19347	8924.25
1390.65578	8709.05
1394.11575	8526.55
1397.57339	8398.35
1401.0287	8317.85
1404.48168	8267.55
1407.93234	8268.95
1411.38068	8341.55
1414.82669	8390.65
1418.27039	8402.45
1421.71177	8381.15
1425.15083	8349.35
1428.58758	8275.85
1432.02203	8303.05
1435.45416	8332.15
1438.88399	8382.05
1442.31151	8402.65
1445.73673	8415.15
1449.15965	8443.85
1452.58027	8437.95
1455.9986	8410.65
1459.41463	8409.35
1462.82837	8463.15
1466.23982	8587.45
1469.64898	8745.95
1473.05586	8862.25
1476.46045	8918.55
1479.86276	8977.85
1483.26279	9063.45
1486.66054	9194.75
1490.05602	9390.95
1493.44922	9710.35
1496.84016	10218.85
1500.22882	10993.55
1503.61521	11913.55
1506.99934	12765.25
1510.38121	13242.65
1513.76081	13032.25
1517.13816	12170.25
1520.51324	11110.55
1523.88607	10238.15
1527.25665	9735.85
1530.62498	9483.35
1533.99105	9359.05
1537.35488	9308.85
1540.71647	9256.95
1544.07581	9213.25
1547.4329	9121.75
1550.78776	9050.85
1554.14038	8981.55
1557.49077	8969.95
1560.83892	9006.75
1564.18484	9177.85
1567.52853	9351.05
1570.86999	9524.35
1574.20922	9613.65
1577.54624	9488.15
1580.88103	9197.25
1584.2136	8827.75
1587.54395	8617.15
1590.87208	8605.25
1594.19801	8785.55
1597.52172	9044.75
1600.84321	9187.45
1604.16251	9142.55
1607.47959	9024.45
1610.79447	8812.85
1614.10715	8506.15
1617.41763	8241.85
1620.7259	7982.95
1624.03199	7861.35
1627.33587	7811.75
1630.63757	7834.95
1633.93707	7998.55
1637.23439	8301.15
1640.52951	8779.75
1643.82246	9480.65
1647.11321	10190.15
1650.40179	10567.65
1653.68819	10245.45
1656.97241	9432.05
1660.25446	8561.05
1663.53433	7933.05
1666.81203	7578.95
1670.08756	7345.25
1673.36092	7235.95
1676.63211	7146.55
1679.90115	7080.15
1683.16801	7021.25
1686.43272	6957.35
1689.69527	6915.95
1692.95567	6903.75
1696.2139	6888.75
1699.46999	6858.45
1702.72392	6859.75
1705.97571	6856.65
1709.22535	6875.05
1712.47284	6849.65
1715.71819	6829.25
1718.96139	6840.25
1722.20246	6832.65
1725.44139	6809.35
1728.67818	6778.05
1731.91284	6768.45
1735.14537	6731.15
1738.37576	6696.05
1741.60403	6697.45
1744.83017	6679.15
1748.05418	6685.65
1751.27607	6663.65
1754.49584	6640.85
1757.71349	6642.75
1760.92903	6620.05
1764.14244	6619.95
1767.35375	6608.95
1770.56294	6596.45
1773.77002	6590.95
1776.97499	6605.95
1780.17785	6555.15
1783.37861	6543.55
1786.57727	6532.95
1789.77382	6536.75
1792.96828	6501.45
1796.16064	6505.65
1799.3509	6466.05
1802.53907	6477.65
1805.72514	6471.65
1808.90913	6462.25
1812.09102	6454.75
1815.27083	6446.25
1818.44856	6407.15
1821.6242	6407.65
1824.79776	6391.05
1827.96924	6406.25
1831.13864	6385.95
1834.30597	6383.95
1837.47122	6371.75
1840.6344	6352.45
1843.7955	6331.75
1846.95454	6319.65
1850.11151	6342.35
1853.26642	6327.95
1856.41926	6337.05
1859.57004	6326.15
1862.71876	6330.85
1865.86542	6316.05
1869.01003	6295.75
1872.15258	6291.85
1875.29308	6288.35
1878.43152	6265.15
1881.56792	6271.65
1884.70227	6261.45
1887.83457	6266.35
1890.96482	6253.85
1894.09304	6252.25
1897.21921	6237.85
1900.34335	6222.25
1903.46544	6210.05
1906.58551	6219.55
1909.70353	6220.35
1912.81953	6205.65
1915.93349	6190.15
1919.04543	6168.55
1922.15534	6185.45
1925.26322	6151.35
1928.36908	6147.15
1931.47292	6122.35
1934.57473	6109.05
1937.67453	6118.65
1940.77232	6117.15
1943.86808	6080.85
1946.96184	6059.75
1950.05358	6049.95
1953.14331	6027.65
1956.23103	6007.65
1959.31675	5992.15
1962.40046	5957.65
1965.48217	5933.45
1968.56188	5925.15
1971.63959	5929.75
1974.7153	5896.95
1977.78901	5895.05
1980.86073	5892.95
1983.93046	5870.25
1986.99819	5823.15
1990.06394	5824.85
1993.1277	5789.85
1996.18947	5775.55
1999.24925	5774.55
2002.30706	5760.65
2005.36288	5715.35
2008.41672	5709.85
2011.46859	5680.85
2014.51848	5683.75
2017.56639	5653.05
2020.61233	5633.75
2023.6563	5644.55
2026.6983	5605.75
2029.73833	5608.55
2032.7764	5608.05
2035.8125	5585.95
2038.84664	5571.95
2041.87881	5554.75
2044.90903	5552.45
2047.93729	5543.75
2050.96359	5531.85
2053.98794	5518.55
2057.01034	5512.25
2060.03078	5501.85
2063.04927	5484.75
2066.06582	5501.25
2069.08042	5497.15
2072.09307	5477.75
2075.10378	5489.35
2078.11255	5477.75
2081.11938	5463.65
2084.12426	5473.15
2087.12722	5449.35
2090.12824	5469.65
2093.12732	5474.55
2096.12447	5467.45
2099.11969	5450.35
2102.11299	5451.05
2105.10435	5465.45
2108.09379	5461.65
2111.08131	5459.05
2114.0669	5458.25
2117.05057	5475.05
2120.03233	5483.55
2123.01216	5472.05
2125.99008	5489.75
2128.96609	5489.55
2131.94018	5485.35
2134.91236	5484.25
2137.88263	5497.95
2140.851	5481.85
2143.81746	5491.05
2146.78201	5496.55
2149.74466	5493.55
2152.7054	5486.55
2155.66425	5495.45
2158.6212	5493.45
2161.57625	5495.55
2164.52941	5483.55
2167.48067	5480.95
2170.43004	5489.65
2173.37752	5469.55
2176.32311	5452.45
2179.26681	5474.95
2182.20863	5462.45
2185.14856	5473.25
2188.08661	5458.55
2191.02278	5452.75
2193.95707	5457.85
2196.88948	5446.55
2199.82001	5442.35
2202.74867	5458.85
2205.67545	5450.85
2208.60037	5435.95
2211.52341	5446.05
2214.44458	5418.25
2217.36388	5387.55
2220.28132	5362.05
2223.1969	5346.35
2226.11061	5342.05
2229.02246	5328.55
2231.93245	5329.65
2234.84058	5304.45
2237.74686	5328.15
2240.65128	5310.05
2243.55385	5317.35
2246.45456	5310.35
2249.35343	5289.15
2252.25044	5277.65
2255.14561	5283.95
2258.03893	5268.05
2260.93041	5268.35
2263.82004	5246.55
2266.70783	5235.85
2269.59378	5234.85
2272.4779	5219.65
2275.36017	5205.25
2278.24061	5181.25
2281.11922	5169.85
2283.996	5147.05
2286.87094	5153.15
2289.74405	5150.45
2292.61534	5135.35
2295.4848	5139.95
2298.35243	5132.45
2301.21824	5115.05
2304.08223	5126.15
2306.94439	5139.75
2309.80474	5122.75
2312.66327	5099.25
2315.51999	5098.15
2318.37489	5073.55
2321.22797	5087.25
2324.07925	5073.85
2326.92871	5051.15
2329.77637	5067.85
2332.62222	5038.15
2335.46626	5033.45
2338.3085	5027.25
2341.14893	5027.35
2343.98756	5011.55
2346.8244	4996.25
2349.65943	5000.65
2352.49267	5011.25
2355.32411	4986.35
2358.15376	4988.95
2360.98161	4977.35
2363.80768	4992.45
2366.63195	4977.65
2369.45444	4975.65
2372.27514	4971.75
2375.09405	4966.45
2377.91118	4966.75
2380.72652	4952.75
2383.54009	4950.05
2386.35187	4933.55
2389.16188	4925.65
2391.97011	4926.75
2394.77657	4901.25
2397.58125	4905.65
2400.38416	4875.65
2403.18529	4876.95
2405.98466	4875.65
2408.78226	4864.45
2411.57809	4852.15
2414.37216	4846.25
2417.16446	4836.65
2419.955	4822.05
2422.74378	4836.85
2425.5308	4820.95
2428.31606	4809.45
2431.09956	4803.05
2433.88131	4804.55
2436.6613	4799.15
2439.43954	4795.85
2442.21603	4781.05
2444.99077	4785.45
2447.76377	4793.55
2450.53501	4785.05
2453.30451	4777.05
2456.07226	4762.45
2458.83827	4756.25
2461.60254	4744.95
2464.36507	4748.05
2467.12586	4737.95
2469.88492	4738.25
2472.64224	4742.65
2475.39782	4727.15
2478.15167	4719.25
2480.90379	4707.95
2483.65417	4720.65
2486.40283	4715.25
2489.14976	4711.95
2491.89497	4719.35
2494.63845	4723.85
2497.3802	4720.15
2500.12024	4705.15
2502.85855	4671.85
2505.59514	4673.15
2508.33002	4656.05
2511.06318	4643.55
2513.79462	4640.95
2516.52435	4639.85
2519.25237	4634.05
2521.97867	4634.65
2524.70327	4619.75
2527.42616	4600.25
2530.14734	4613.15
2532.86681	4590.25
2535.58458	4613.15
2538.30065	4588.65
2541.01501	4569.35
2543.72768	4581.45
2546.43864	4569.85
2549.14791	4562.55
2551.85548	4560.25
2554.56136	4558.55
2557.26554	4551.15
2559.96803	4541.45
2562.66883	4529.65
2565.36794	4517.95
2568.06536	4492.45
2570.7611	4477.05
2573.45514	4475.85
2576.14751	4462.05
2578.83819	4470.25
2581.52719	4455.85
2584.21451	4442.15
2586.90015	4438.95
2589.58411	4420.65
2592.2664	4403.75
2594.94701	4414.35
2597.62594	4404.15
2600.30321	4396.05
2602.9788	4390.75
2605.65273	4375.45
2608.32498	4376.35
2610.99557	4364.45
2613.66449	4359.95
2616.33175	4347.55
2618.99734	4341.85
2621.66128	4324.75
2624.32355	4332.35
2626.98416	4317.05
2629.64311	4313.05
2632.30041	4302.75
2634.95605	4307.35
2637.61004	4290.35
2640.26238	4279.25
2642.91306	4279.15
2645.56209	4265.35
2648.20948	4271.45
2650.85521	4263.95
2653.4993	4265.15
2656.14175	4262.45
2658.78255	4267.45
2661.42171	4261.75
2664.05923	4271.35
2666.6951	4274.25
2669.32934	4283.85
2671.96194	4259.25
2674.59291	4266.15
2677.22224	4264.25
2679.84993	4254.75
2682.476	4247.95
2685.10043	4236.75
2687.72324	4227.75
2690.34441	4232.45
2692.96396	4241.05
2695.58188	4240.45
2698.19818	4231.95
2700.81285	4216.65
2703.4259	4238.85
2706.03733	4227.45
2708.64714	4226.55
2711.25533	4221.75
2713.86191	4220.45
2716.46687	4219.85
2719.07021	4234.15
2721.67194	4222.95
2724.27206	4224.95
2726.87057	4218.45
2729.46747	4226.65
2732.06276	4227.85
2734.65644	4203.35
2737.24852	4217.35
2739.83899	4205.85
2742.42786	4218.05
2745.01513	4188.25
2747.60079	4193.65
2750.18486	4181.25
2752.76733	4172.05
2755.3482	4161.95
2757.92747	4145.75
2760.50515	4147.15
2763.08123	4144.35
2765.65573	4143.35
2768.22863	4117.45
2770.79994	4124.05
2773.36967	4115.65
2775.9378	4116.75
2778.50435	4111.75
2781.06932	4099.75
2783.6327	4080.65
2786.1945	4085.35
2788.75471	4074.75
2791.31335	4062.35
2793.87041	4041.45
2796.42589	4051.05
2798.97979	4044.55
2801.53212	4027.35
2804.08288	4014.55
2806.63206	4018.25
2809.17967	4017.65
2811.72571	3991.75
2814.27018	3994.95
2816.81308	3984.95
2819.35442	3968.15
2821.89419	3954.75
2824.43239	3955.95
2826.96904	3945.05
2829.50412	3943.45
2832.03763	3923.65
2834.56959	3921.15
2837.1	3903.45
2839.62884	3911.45
2842.15613	3897.75
2844.68186	3911.65
2847.20604	3913.55
2849.72867	3883.45
2852.24974	3883.95
2854.76927	3862.45
2857.28724	3851.25
2859.80367	3856.35
2862.31855	3853.05
2864.83189	3855.05
2867.34368	3842.65
2869.85393	3835.35
2872.36264	3833.55
2874.8698	3839.15
2877.37543	3817.05
2879.87952	3805.95
2882.38207	3824.25
2884.88308	3816.15
2887.38256	3802.35
2889.88051	3801.65
2892.37692	3797.45
2894.8718	3795.75
2897.36515	3791.45
2899.85698	3795.55
2902.34727	3799.15
2904.83604	3789.35
2907.32328	3802.75
2909.809	3807.25
2912.29319	3811.95
2914.77587	3797.25
2917.25702	3790.65
2919.73665	3796.55
2922.21476	3803.95
2924.69136	3794.15
2927.16644	3788.35
2929.64	3783.65
2932.11205	3775.35
2934.58258	3781.65
2937.05161	3760.05
2939.51912	3756.55
2941.98513	3754.25
2944.44962	3741.45
2946.91261	3739.85
2949.37409	3742.85
2951.83407	3743.55
2954.29254	3724.45
2956.74951	3743.35
2959.20498	3729.45
2961.65895	3716.85
2964.11142	3721.45
2966.56239	3713.45
2969.01186	3728.55
2971.45984	3730.15
2973.90632	3718.85
2976.35131	3710.65
2978.7948	3690.65
2981.23681	3690.65
2983.67732	3678.05
2986.11635	3685.45
2988.55388	3671.05
2990.98993	3670.05
2993.4245	3650.05
2995.85758	3656.75
2998.28917	3649.25
3000.71928	3634.25
3003.14791	3624.95
3005.57506	3624.45
3008.00073	3602.05
3010.42493	3592.55
3012.84764	3583.55
3015.26888	3569.35
3017.68865	3580.25
3020.10694	3573.75
3022.52376	3560.55
3024.9391	3554.55
3027.35298	3540.75
3029.76539	3525.05
3032.17632	3524.95
3034.5858	3532.65
3036.9938	3525.55
3039.40034	3512.75
3041.80542	3511.65
3044.20903	3498.25
3046.61118	3489.55
3049.01187	3478.55
3051.4111	3463.85
3053.80888	3464.45
3056.20519	3447.75
3058.60005	3461.35
3060.99345	3447.05
3063.3854	3436.45
3065.7759	3428.95
3068.16494	3432.65
3070.55254	3416.05
3072.93868	3408.45
3075.32338	3409.75
3077.70662	3384.35
3080.08842	3372.55
3082.46878	3363.35
3084.84769	3357.75
3087.22515	3349.85
3089.60118	3360.75
3091.97576	3360.15
3094.3489	3356.65
3096.72061	3361.25
3099.09087	3341.25
3101.4597	3354.15
3103.82709	3332.85
3106.19305	3328.45
3108.55757	3334.75
3110.92066	3324.55
3113.28232	3330.25
3115.64255	3298.25
3118.00134	3317.35
3120.35871	3286.95
3122.71466	3282.45
3125.06917	3291.85
3127.42226	3283.65
3129.77393	3276.15
3132.12417	3272.55
3134.47299	3259.15
3136.82039	3250.35
3139.16636	3252.15
3141.51092	3241.55
3143.85406	3241.95
3146.19579	3237.65
3148.53609	3248.15
3150.87499	3243.35
3153.21246	3240.15
3155.54853	3239.65
3157.88318	3242.95
3160.21642	3245.95
3162.54826	3230.45
3164.87868	3231.55
3167.2077	3229.35
3169.5353	3222.35
3171.86151	3211.35
3174.18631	3218.25
3176.5097	3220.25
3178.83169	3205.95
3181.15228	3200.65
3183.47147	3189.25
3185.78926	3191.25
3188.10565	3176.15
3190.42065	3162.15
3192.73424	3171.75
3195.04645	3158.05
3197.35725	3142.05
3199.66667	3150.35
3201.97469	3148.15
3204.28132	3131.15
3206.58656	3136.15
3208.8904	3147.55
3211.19287	3152.65
3213.49394	3156.35
3215.79363	3148.85
3218.09193	3134.25
3220.38884	3136.75
3222.68438	3125.15
3224.97853	3135.35
3227.2713	3138.35
3229.56269	3137.25
3231.8527	3136.15
3234.14133	3109.35
3236.42858	3108.85
3238.71446	3105.95
3240.99896	3087.85
3243.28209	3083.85
3245.56384	3089.25
3247.84423	3080.45
3250.12324	3066.75
3252.40088	3061.85
3254.67715	3067.75
3256.95205	3055.85
3259.22558	3042.35
3261.49775	3037.75
3263.76855	3052.65
3266.03799	3051.85
3268.30606	3048.25
3270.57277	3050.35
3272.83812	3045.15
3275.10211	3022.65
3277.36474	3017.05
3279.62601	3010.15
3281.88593	3001.45
3284.14448	3015.05
3286.40168	3002.05
3288.65753	3002.95
3290.91202	2991.65
3293.16516	2978.25
3295.41695	2985.35
3297.66738	2965.05
3299.91647	2931.55
3302.16421	2936.15
3304.4106	2914.05
3306.65564	2899.75
3308.89933	2859.85
3311.14169	2842.35
3313.38269	2820.45
3315.62236	2811.85
3317.86068	2781.45
3320.09766	2762.55
3322.3333	2742.65
3324.5676	2716.35
3326.80056	2677.65
3329.03219	2668.55
3331.26248	2.55
3333.49143	-0.45
3335.71905	-0.85
