Data from AgNPs_UA_10uM_CRN_500uM_SU_RamanShift__121__13-25-30-277.txt Node

Date: Thu Aug 04 13:25:30 BST 2022
User: TCL
Spectrometer: QEP01345
Trigger mode: 4
Integration Time (sec): 1.000000E0
Scans to average: 10
Electric dark correction enabled: true
Nonlinearity correction enabled: false
Boxcar width: 0
XAxis mode: Raman Shifts
Number of Pixels in Spectrum: 1044
>>>>>Begin Spectral Data<<<<<
46.04893	-0.125
50.45542	-0.925
54.85868	0.875
59.25871	-0.425
63.6555	21.975
68.04907	22.275
72.43941	22.475
76.82654	21.975
81.21044	23.075
85.59113	26.475
89.96862	27.175
94.34289	27.475
98.71396	25.475
103.08183	27.875
107.4465	29.675
111.80798	30.475
116.16626	28.975
120.52136	36.475
124.87327	36.675
129.222	37.275
133.56755	38.775
137.90993	43.275
142.24913	50.475
146.58517	56.175
150.91804	65.775
155.24774	80.475
159.57429	98.875
163.89768	132.675
168.21792	174.975
172.53501	242.675
176.84895	343.275
181.15975	482.275
185.46741	680.275
189.77193	946.775
194.07331	1267.775
198.37157	1650.375
202.6667	2032.475
206.9587	2424.675
211.24758	2817.875
215.53334	3207.775
219.81599	3625.475
224.09553	4108.875
228.37195	4623.275
232.64527	5180.975
236.91549	5746.675
241.18261	6242.975
245.44663	6644.875
249.70755	6936.975
253.96539	7222.875
258.22014	7487.375
262.4718	7707.975
266.72039	7833.675
270.96589	7897.375
275.20832	7836.875
279.44768	7728.975
283.68397	7619.675
287.91719	7521.175
292.14735	7543.775
296.37445	7662.075
300.59849	7895.475
304.81948	8197.675
309.03742	8448.575
313.25231	8581.675
317.46415	8519.975
321.67296	8197.175
325.87872	7855.275
330.08145	7708.175
334.28114	7697.975
338.47781	7776.675
342.67145	7937.375
346.86207	8154.075
351.04966	8466.475
355.23424	8809.375
359.4158	9040.575
363.59435	9179.575
367.76989	9181.475
371.94243	9168.975
376.11196	9145.675
380.27849	9121.575
384.44203	9134.175
388.60257	9187.175
392.76012	9225.475
396.91468	9375.875
401.06626	9522.275
405.21485	9589.175
409.36047	9440.675
413.50311	9170.675
417.64277	8887.175
421.77947	8715.375
425.9132	8616.175
430.04396	8615.575
434.17176	8680.875
438.2966	8780.875
442.41849	8952.075
446.53742	9192.975
450.6534	9417.175
454.76644	9523.975
458.87653	9564.075
462.98368	9515.775
467.08789	9432.975
471.18916	9280.475
475.2875	9096.575
479.38291	8898.975
483.4754	8784.975
487.56496	8679.675
491.6516	8660.175
495.73531	8647.275
499.81612	8685.475
503.89401	8794.475
507.96899	8843.075
512.04106	8874.475
516.11023	8925.175
520.1765	8987.375
524.23987	9007.275
528.30034	8995.275
532.35792	8974.475
536.41261	8893.575
540.46441	8789.175
544.51333	8752.975
548.55936	8803.375
552.60252	8945.675
556.64279	9076.275
560.6802	9232.475
564.71473	9340.075
568.7464	9464.675
572.7752	9411.975
576.80114	9212.775
580.82422	9019.375
584.84444	8991.375
588.86181	9036.975
592.87633	9126.775
596.888	9326.475
600.89682	9720.875
604.9028	10858.175
608.90594	13147.975
612.90624	15360.775
616.90371	14088.675
620.89834	10949.675
624.89015	9705.175
628.87913	9613.375
632.86528	9740.375
636.84862	9769.575
640.82913	9484.475
644.80683	9124.775
648.78172	8900.675
652.75379	8941.175
656.72306	9229.575
660.68952	9532.875
664.65319	9472.875
668.61405	9307.975
672.57211	9362.875
676.52738	9337.475
680.47986	9145.575
684.42955	8960.875
688.37646	8934.475
692.32058	9022.575
696.26192	9221.675
700.20048	9371.975
704.13626	9389.375
708.06928	9246.075
711.99952	9137.675
715.927	9166.775
719.85171	9222.675
723.77365	9252.875
727.69284	9145.075
731.60928	9070.375
735.52295	9062.475
739.43388	9105.275
743.34206	9161.375
747.24749	9170.075
751.15017	9169.875
755.05012	9301.975
758.94733	9641.775
762.8418	10460.575
766.73354	11751.775
770.62254	12730.675
774.50882	12914.675
778.39237	12406.875
782.27321	11496.575
786.15132	10526.275
790.02671	9803.475
793.89938	9472.675
797.76935	9312.275
801.6366	9216.175
805.50115	9171.575
809.36299	9137.875
813.22213	9117.275
817.07857	9102.275
820.93231	9065.975
824.78336	9084.375
828.63172	9120.175
832.47738	9117.775
836.32036	9127.975
840.16066	9113.675
843.99827	9114.975
847.8332	9105.875
851.66546	9105.275
855.49504	9128.875
859.32195	9131.975
863.1462	9098.075
866.96777	9090.775
870.78668	9085.575
874.60293	9127.275
878.41652	9162.075
882.22745	9238.975
886.03573	9304.175
889.84136	9306.675
893.64433	9255.075
897.44466	9244.675
901.24235	9194.875
905.0374	9162.275
908.8298	9124.675
912.61957	9132.175
916.40671	9162.575
920.19121	9192.275
923.97308	9277.475
927.75233	9412.075
931.52895	9478.375
935.30295	9390.975
939.07433	9229.075
942.84309	9104.675
946.60924	9067.575
950.37278	9059.475
954.13371	9009.675
957.89203	9004.875
961.64774	8989.075
965.40086	8996.375
969.15137	8967.475
972.89929	8953.675
976.64461	8978.775
980.38733	8981.775
984.12747	9012.175
987.86502	9074.075
991.59999	9157.075
995.33237	9248.075
999.06217	9454.075
1002.78939	9661.075
1006.51404	9819.975
1010.23611	9948.875
1013.95561	10054.975
1017.67255	10093.975
1021.38692	10077.575
1025.09872	10076.675
1028.80796	10073.975
1032.51465	10194.375
1036.21877	10313.975
1039.92035	10309.875
1043.61937	10259.675
1047.31584	10125.975
1051.00976	10022.975
1054.70114	9960.675
1058.38998	9981.075
1062.07627	10041.375
1065.76003	10086.275
1069.44126	10120.175
1073.11995	10325.675
1076.79611	10488.575
1080.46974	10658.175
1084.14085	10758.775
1087.80943	10873.075
1091.47549	10909.475
1095.13903	10857.175
1098.80005	10785.875
1102.45857	10783.475
1106.11456	10752.475
1109.76805	10670.175
1113.41903	10680.675
1117.06751	10815.975
1120.71348	11033.875
1124.35696	11283.975
1127.99793	11411.075
1131.63641	11233.575
1135.2724	10902.575
1138.90589	10619.875
1142.5369	10450.375
1146.16542	10319.775
1149.79145	10242.875
1153.415	10172.075
1157.03607	10165.675
1160.65467	10254.575
1164.27079	10502.275
1167.88443	10875.175
1171.49561	11446.875
1175.10432	12272.075
1178.71056	13340.575
1182.31434	14287.275
1185.91565	14644.575
1189.51451	14536.175
1193.11091	14255.175
1196.70485	13741.675
1200.29634	13312.875
1203.88538	12874.175
1207.47197	12349.875
1211.05612	11846.975
1214.63782	11456.475
1218.21708	11229.775
1221.79391	11160.675
1225.36829	11150.675
1228.94024	11148.075
1232.50976	11083.775
1236.07685	11006.975
1239.6415	11026.275
1243.20374	11075.975
1246.76355	11156.375
1250.32093	11313.775
1253.8759	11496.175
1257.42845	11823.675
1260.97859	12170.375
1264.52631	12533.775
1268.07163	12786.575
1271.61453	12992.575
1275.15503	13066.375
1278.69312	13187.475
1282.22882	13286.275
1285.76211	13467.975
1289.29301	13643.775
1292.82151	13909.475
1296.34761	14222.375
1299.87133	14763.875
1303.39266	15639.275
1306.9116	16975.175
1310.42815	18363.775
1313.94233	18985.875
1317.45412	18421.675
1320.96354	17315.575
1324.47058	16233.175
1327.97525	15296.075
1331.47754	14752.675
1334.97747	14568.275
1338.47502	14683.275
1341.97022	15144.175
1345.46305	15931.575
1348.95352	16995.175
1352.44163	18193.075
1355.92738	19453.575
1359.41078	21041.575
1362.89183	22104.075
1366.37053	21039.675
1369.84688	18210.175
1373.32088	15596.875
1376.79254	14159.875
1380.26186	13502.575
1383.72883	13084.175
1387.19347	12740.575
1390.65578	12327.375
1394.11575	11988.075
1397.57339	11731.075
1401.0287	11639.875
1404.48168	11644.075
1407.93234	11756.675
1411.38068	11896.975
1414.82669	12102.075
1418.27039	12127.075
1421.71177	12092.875
1425.15083	12005.175
1428.58758	11980.975
1432.02203	12083.675
1435.45416	12218.475
1438.88399	12195.975
1442.31151	12171.775
1445.73673	12143.675
1449.15965	12137.375
1452.58027	12029.775
1455.9986	11972.475
1459.41463	11953.375
1462.82837	12032.175
1466.23982	12224.775
1469.64898	12447.275
1473.05586	12607.675
1476.46045	12752.575
1479.86276	12905.975
1483.26279	13022.575
1486.66054	13270.075
1490.05602	13624.475
1493.44922	14159.075
1496.84016	14998.975
1500.22882	16215.275
1503.61521	17672.975
1506.99934	19192.275
1510.38121	20112.675
1513.76081	19826.275
1517.13816	18408.875
1520.51324	16548.175
1523.88607	15028.575
1527.25665	14087.375
1530.62498	13602.675
1533.99105	13389.975
1537.35488	13239.875
1540.71647	13134.775
1544.07581	13025.575
1547.4329	12885.275
1550.78776	12758.175
1554.14038	12631.475
1557.49077	12667.275
1560.83892	12774.875
1564.18484	13076.575
1567.52853	13377.575
1570.86999	13565.475
1574.20922	13578.575
1577.54624	13344.975
1580.88103	12833.775
1584.2136	12284.575
1587.54395	12023.975
1590.87208	12214.675
1594.19801	12780.175
1597.52172	13432.975
1600.84321	13730.475
1604.16251	13574.475
1607.47959	13214.775
1610.79447	12687.375
1614.10715	12027.675
1617.41763	11354.575
1620.7259	10896.375
1624.03199	10654.075
1627.33587	10662.675
1630.63757	10843.275
1633.93707	11311.875
1637.23439	12078.775
1640.52951	13263.375
1643.82246	14689.775
1647.11321	16008.975
1650.40179	16459.075
1653.68819	15472.975
1656.97241	13595.175
1660.25446	11859.675
1663.53433	10686.275
1666.81203	9980.475
1670.08756	9582.675
1673.36092	9338.975
1676.63211	9147.575
1679.90115	9031.775
1683.16801	8934.475
1686.43272	8838.975
1689.69527	8775.175
1692.95567	8719.675
1696.2139	8742.175
1699.46999	8706.075
1702.72392	8675.675
1705.97571	8661.875
1709.22535	8663.275
1712.47284	8668.075
1715.71819	8675.475
1718.96139	8662.075
1722.20246	8645.775
1725.44139	8619.875
1728.67818	8576.475
1731.91284	8508.575
1735.14537	8467.575
1738.37576	8435.275
1741.60403	8394.675
1744.83017	8372.975
1748.05418	8374.675
1751.27607	8350.875
1754.49584	8340.175
1757.71349	8324.075
1760.92903	8323.775
1764.14244	8295.675
1767.35375	8278.475
1770.56294	8270.075
1773.77002	8244.075
1776.97499	8220.375
1780.17785	8169.275
1783.37861	8173.275
1786.57727	8166.675
1789.77382	8157.375
1792.96828	8155.475
1796.16064	8103.875
1799.3509	8119.575
1802.53907	8122.575
1805.72514	8101.575
1808.90913	8062.575
1812.09102	8045.775
1815.27083	8030.275
1818.44856	8017.375
1821.6242	7983.875
1824.79776	7985.875
1827.96924	7984.475
1831.13864	7954.275
1834.30597	7948.375
1837.47122	7917.275
1840.6344	7900.175
1843.7955	7911.875
1846.95454	7910.275
1850.11151	7889.975
1853.26642	7890.375
1856.41926	7900.675
1859.57004	7886.275
1862.71876	7915.775
1865.86542	7878.875
1869.01003	7894.675
1872.15258	7844.075
1875.29308	7843.875
1878.43152	7843.675
1881.56792	7825.175
1884.70227	7806.375
1887.83457	7788.575
1890.96482	7776.275
1894.09304	7766.775
1897.21921	7757.275
1900.34335	7747.175
1903.46544	7740.675
1906.58551	7738.075
1909.70353	7724.275
1912.81953	7720.775
1915.93349	7749.175
1919.04543	7692.175
1922.15534	7686.975
1925.26322	7680.775
1928.36908	7649.275
1931.47292	7629.875
1934.57473	7627.475
1937.67453	7629.975
1940.77232	7604.575
1943.86808	7560.175
1946.96184	7539.675
1950.05358	7524.175
1953.14331	7519.675
1956.23103	7480.775
1959.31675	7461.775
1962.40046	7445.575
1965.48217	7432.875
1968.56188	7392.275
1971.63959	7395.775
1974.7153	7348.575
1977.78901	7345.075
1980.86073	7337.675
1983.93046	7288.775
1986.99819	7272.475
1990.06394	7261.275
1993.1277	7232.175
1996.18947	7181.675
1999.24925	7177.375
2002.30706	7136.575
2005.36288	7122.475
2008.41672	7104.475
2011.46859	7090.975
2014.51848	7069.675
2017.56639	7036.375
2020.61233	7004.675
2023.6563	7007.675
2026.6983	6992.475
2029.73833	6969.075
2032.7764	6953.775
2035.8125	6938.375
2038.84664	6921.775
2041.87881	6921.975
2044.90903	6908.675
2047.93729	6885.675
2050.96359	6866.975
2053.98794	6854.475
2057.01034	6841.075
2060.03078	6857.275
2063.04927	6851.075
2066.06582	6832.075
2069.08042	6822.975
2072.09307	6799.075
2075.10378	6815.775
2078.11255	6798.075
2081.11938	6806.175
2084.12426	6779.375
2087.12722	6773.075
2090.12824	6775.575
2093.12732	6782.375
2096.12447	6788.775
2099.11969	6798.775
2102.11299	6784.475
2105.10435	6792.775
2108.09379	6781.775
2111.08131	6802.375
2114.0669	6796.475
2117.05057	6812.575
2120.03233	6829.875
2123.01216	6804.675
2125.99008	6808.775
2128.96609	6806.675
2131.94018	6806.475
2134.91236	6825.475
2137.88263	6813.775
2140.851	6805.875
2143.81746	6832.475
2146.78201	6826.875
2149.74466	6794.975
2152.7054	6823.375
2155.66425	6797.675
2158.6212	6816.975
2161.57625	6787.875
2164.52941	6768.075
2167.48067	6787.875
2170.43004	6786.375
2173.37752	6763.775
2176.32311	6783.475
2179.26681	6796.075
2182.20863	6791.175
2185.14856	6798.675
2188.08661	6776.175
2191.02278	6789.975
2193.95707	6786.875
2196.88948	6774.175
2199.82001	6769.875
2202.74867	6753.375
2205.67545	6773.975
2208.60037	6767.375
2211.52341	6752.275
2214.44458	6712.475
2217.36388	6701.175
2220.28132	6694.975
2223.1969	6676.975
2226.11061	6682.875
2229.02246	6656.875
2231.93245	6647.475
2234.84058	6608.275
2237.74686	6622.575
2240.65128	6593.475
2243.55385	6607.675
2246.45456	6566.375
2249.35343	6555.275
2252.25044	6564.875
2255.14561	6545.775
2258.03893	6557.975
2260.93041	6553.175
2263.82004	6552.075
2266.70783	6530.375
2269.59378	6479.175
2272.4779	6486.575
2275.36017	6462.175
2278.24061	6463.875
2281.11922	6434.775
2283.996	6422.575
2286.87094	6412.975
2289.74405	6412.175
2292.61534	6391.275
2295.4848	6392.375
2298.35243	6372.675
2301.21824	6370.075
2304.08223	6371.175
2306.94439	6351.275
2309.80474	6383.475
2312.66327	6360.975
2315.51999	6358.075
2318.37489	6359.175
2321.22797	6361.875
2324.07925	6343.075
2326.92871	6318.475
2329.77637	6327.975
2332.62222	6305.775
2335.46626	6293.675
2338.3085	6301.875
2341.14893	6310.175
2343.98756	6305.275
2346.8244	6308.375
2349.65943	6292.175
2352.49267	6291.475
2355.32411	6284.675
2358.15376	6293.075
2360.98161	6289.675
2363.80768	6294.975
2366.63195	6263.875
2369.45444	6248.875
2372.27514	6266.475
2375.09405	6248.475
2377.91118	6238.575
2380.72652	6226.875
2383.54009	6220.575
2386.35187	6193.375
2389.16188	6186.475
2391.97011	6165.775
2394.77657	6145.275
2397.58125	6120.575
2400.38416	6120.275
2403.18529	6122.875
2405.98466	6089.775
2408.78226	6070.375
2411.57809	6082.275
2414.37216	6051.175
2417.16446	6057.375
2419.955	6046.275
2422.74378	6039.075
2425.5308	6050.375
2428.31606	6038.375
2431.09956	6035.075
2433.88131	6026.375
2436.6613	6020.275
2439.43954	6021.475
2442.21603	5999.875
2444.99077	6008.675
2447.76377	6002.075
2450.53501	5985.575
2453.30451	5999.875
2456.07226	5981.875
2458.83827	5973.075
2461.60254	5964.375
2464.36507	5974.775
2467.12586	5965.375
2469.88492	5946.875
2472.64224	5967.375
2475.39782	5965.375
2478.15167	5943.175
2480.90379	5951.775
2483.65417	5935.675
2486.40283	5957.975
2489.14976	5945.375
2491.89497	5962.275
2494.63845	5961.775
2497.3802	5936.875
2500.12024	5912.975
2502.85855	5920.575
2505.59514	5935.675
2508.33002	5915.575
2511.06318	5886.175
2513.79462	5874.675
2516.52435	5870.375
2519.25237	5845.175
2521.97867	5826.475
2524.70327	5841.175
2527.42616	5832.075
2530.14734	5819.975
2532.86681	5812.675
2535.58458	5841.775
2538.30065	5821.975
2541.01501	5814.375
2543.72768	5825.375
2546.43864	5814.175
2549.14791	5788.375
2551.85548	5775.375
2554.56136	5785.275
2557.26554	5785.675
2559.96803	5758.575
2562.66883	5760.675
2565.36794	5729.875
2568.06536	5734.175
2570.7611	5708.075
2573.45514	5697.175
2576.14751	5708.675
2578.83819	5697.875
2581.52719	5674.075
2584.21451	5669.975
2586.90015	5657.875
2589.58411	5667.775
2592.2664	5654.575
2594.94701	5654.575
2597.62594	5648.575
2600.30321	5623.475
2602.9788	5635.975
2605.65273	5632.975
2608.32498	5618.875
2610.99557	5617.775
2613.66449	5613.075
2616.33175	5601.275
2618.99734	5603.275
2621.66128	5602.075
2624.32355	5585.575
2626.98416	5577.375
2629.64311	5569.575
2632.30041	5560.175
2634.95605	5557.975
2637.61004	5545.875
2640.26238	5529.375
2642.91306	5551.775
2645.56209	5518.975
2648.20948	5528.075
2650.85521	5529.575
2653.4993	5515.975
2656.14175	5509.175
2658.78255	5503.375
2661.42171	5507.175
2664.05923	5510.775
2666.6951	5532.875
2669.32934	5529.075
2671.96194	5543.875
2674.59291	5536.675
2677.22224	5534.875
2679.84993	5517.075
2682.476	5512.275
2685.10043	5521.975
2687.72324	5526.375
2690.34441	5496.975
2692.96396	5507.375
2695.58188	5490.475
2698.19818	5493.975
2700.81285	5489.575
2703.4259	5475.475
2706.03733	5478.875
2708.64714	5461.375
2711.25533	5462.575
2713.86191	5460.175
2716.46687	5477.375
2719.07021	5479.675
2721.67194	5468.275
2724.27206	5465.375
2726.87057	5470.275
2729.46747	5458.675
2732.06276	5467.875
2734.65644	5468.975
2737.24852	5463.575
2739.83899	5438.175
2742.42786	5436.975
2745.01513	5423.175
2747.60079	5416.675
2750.18486	5403.675
2752.76733	5401.675
2755.3482	5405.275
2757.92747	5365.775
2760.50515	5384.275
2763.08123	5366.275
2765.65573	5357.875
2768.22863	5371.675
2770.79994	5330.475
2773.36967	5335.175
2775.9378	5335.375
2778.50435	5327.775
2781.06932	5333.375
2783.6327	5324.175
2786.1945	5324.375
2788.75471	5316.175
2791.31335	5299.175
2793.87041	5300.075
2796.42589	5254.275
2798.97979	5261.175
2801.53212	5241.775
2804.08288	5253.475
2806.63206	5247.575
2809.17967	5233.675
2811.72571	5220.975
2814.27018	5223.775
2816.81308	5220.075
2819.35442	5201.975
2821.89419	5189.575
2824.43239	5175.775
2826.96904	5163.675
2829.50412	5166.575
2832.03763	5140.975
2834.56959	5140.275
2837.1	5132.575
2839.62884	5112.275
2842.15613	5127.375
2844.68186	5127.075
2847.20604	5120.175
2849.72867	5102.375
2852.24974	5094.075
2854.76927	5065.675
2857.28724	5065.775
2859.80367	5077.875
2862.31855	5057.175
2864.83189	5070.075
2867.34368	5068.575
2869.85393	5056.075
2872.36264	5033.275
2874.8698	5057.275
2877.37543	5042.375
2879.87952	5029.475
2882.38207	5024.975
2884.88308	5012.675
2887.38256	5036.575
2889.88051	5004.975
2892.37692	5010.175
2894.8718	5013.175
2897.36515	4998.175
2899.85698	5009.575
2902.34727	5025.375
2904.83604	5018.275
2907.32328	5047.675
2909.809	5044.475
2912.29319	5051.375
2914.77587	5039.675
2917.25702	5038.775
2919.73665	5044.875
2922.21476	5040.475
2924.69136	5024.375
2927.16644	5018.275
2929.64	5003.675
2932.11205	4985.175
2934.58258	4966.075
2937.05161	4975.775
2939.51912	4985.975
2941.98513	4957.975
2944.44962	4953.575
2946.91261	4939.075
2949.37409	4974.475
2951.83407	4944.975
2954.29254	4943.475
2956.74951	4937.375
2959.20498	4939.775
2961.65895	4930.975
2964.11142	4923.275
2966.56239	4922.675
2969.01186	4929.075
2971.45984	4904.375
2973.90632	4919.475
2976.35131	4894.775
2978.7948	4892.275
2981.23681	4868.975
2983.67732	4886.375
2986.11635	4862.175
2988.55388	4852.675
2990.98993	4835.175
2993.4245	4821.375
2995.85758	4815.675
2998.28917	4802.175
3000.71928	4788.975
3003.14791	4779.075
3005.57506	4768.975
3008.00073	4761.375
3010.42493	4733.975
3012.84764	4732.375
3015.26888	4737.575
3017.68865	4721.175
3020.10694	4712.675
3022.52376	4710.175
3024.9391	4668.475
3027.35298	4661.675
3029.76539	4652.975
3032.17632	4658.275
3034.5858	4649.775
3036.9938	4642.475
3039.40034	4633.075
3041.80542	4592.375
3044.20903	4595.075
3046.61118	4607.675
3049.01187	4585.375
3051.4111	4561.075
3053.80888	4558.875
3056.20519	4559.975
3058.60005	4533.175
3060.99345	4535.275
3063.3854	4527.675
3065.7759	4527.575
3068.16494	4498.975
3070.55254	4476.875
3072.93868	4463.475
3075.32338	4458.275
3077.70662	4455.075
3080.08842	4457.075
3082.46878	4431.975
3084.84769	4420.775
3087.22515	4411.075
3089.60118	4403.675
3091.97576	4400.975
3094.3489	4405.975
3096.72061	4402.475
3099.09087	4393.675
3101.4597	4394.075
3103.82709	4387.775
3106.19305	4384.275
3108.55757	4396.575
3110.92066	4372.075
3113.28232	4356.775
3115.64255	4358.575
3118.00134	4345.175
3120.35871	4333.075
3122.71466	4339.975
3125.06917	4314.475
3127.42226	4316.875
3129.77393	4299.475
3132.12417	4295.275
3134.47299	4283.875
3136.82039	4271.775
3139.16636	4288.675
3141.51092	4288.875
3143.85406	4279.475
3146.19579	4269.175
3148.53609	4276.175
3150.87499	4262.875
3153.21246	4261.375
3155.54853	4261.675
3157.88318	4251.175
3160.21642	4255.575
3162.54826	4246.275
3164.87868	4242.175
3167.2077	4233.675
3169.5353	4236.175
3171.86151	4226.375
3174.18631	4223.075
3176.5097	4198.375
3178.83169	4203.675
3181.15228	4188.175
3183.47147	4183.875
3185.78926	4181.175
3188.10565	4175.375
3190.42065	4150.775
3192.73424	4135.575
3195.04645	4153.075
3197.35725	4139.575
3199.66667	4126.375
3201.97469	4130.075
3204.28132	4139.675
3206.58656	4135.975
3208.8904	4143.775
3211.19287	4131.475
3213.49394	4138.775
3215.79363	4139.175
