Data from AgNPs_UA_10uM_CRN_500uM_SU_RamanShift__100__13-22-00-273.txt Node

Date: Thu Aug 04 13:22:00 BST 2022
User: TCL
Spectrometer: QEP01345
Trigger mode: 4
Integration Time (sec): 1.000000E0
Scans to average: 10
Electric dark correction enabled: true
Nonlinearity correction enabled: false
Boxcar width: 0
XAxis mode: Raman Shifts
Number of Pixels in Spectrum: 1044
>>>>>Begin Spectral Data<<<<<
46.04893	1.125
50.45542	-0.975
54.85868	-0.875
59.25871	-0.075
63.6555	22.025
68.04907	20.025
72.43941	21.825
76.82654	22.125
81.21044	23.125
85.59113	24.925
89.96862	25.825
94.34289	27.325
98.71396	26.725
103.08183	28.725
107.4465	29.525
111.80798	29.125
116.16626	29.925
120.52136	34.525
124.87327	34.525
129.222	36.625
133.56755	38.825
137.90993	41.025
142.24913	45.125
146.58517	52.825
150.91804	60.025
155.24774	74.425
159.57429	96.625
163.89768	124.525
168.21792	165.625
172.53501	230.225
176.84895	320.525
181.15975	459.425
185.46741	649.825
189.77193	904.325
194.07331	1207.225
198.37157	1558.525
202.6667	1923.625
206.9587	2292.125
211.24758	2670.725
215.53334	3042.225
219.81599	3430.025
224.09553	3881.925
228.37195	4369.625
232.64527	4907.825
236.91549	5420.125
241.18261	5939.825
245.44663	6324.125
249.70755	6663.825
253.96539	6948.225
258.22014	7192.725
262.4718	7419.825
266.72039	7547.025
270.96589	7596.325
275.20832	7574.825
279.44768	7494.225
283.68397	7369.625
287.91719	7276.625
292.14735	7266.425
296.37445	7377.125
300.59849	7539.725
304.81948	7789.925
309.03742	7999.525
313.25231	8095.225
317.46415	8020.525
321.67296	7770.525
325.87872	7524.225
330.08145	7400.225
334.28114	7388.925
338.47781	7486.725
342.67145	7612.725
346.86207	7788.325
351.04966	8072.025
355.23424	8347.525
359.4158	8572.125
363.59435	8680.225
367.76989	8738.225
371.94243	8731.425
376.11196	8750.425
380.27849	8742.425
384.44203	8774.025
388.60257	8838.425
392.76012	8907.725
396.91468	9022.525
401.06626	9167.625
405.21485	9198.025
409.36047	9094.725
413.50311	8883.325
417.64277	8642.925
421.77947	8484.125
425.9132	8451.225
430.04396	8436.925
434.17176	8493.725
438.2966	8597.725
442.41849	8730.525
446.53742	8936.025
450.6534	9127.525
454.76644	9245.525
458.87653	9306.825
462.98368	9302.325
467.08789	9222.325
471.18916	9084.525
475.2875	8932.125
479.38291	8783.925
483.4754	8680.825
487.56496	8584.525
491.6516	8539.625
495.73531	8567.125
499.81612	8606.225
503.89401	8676.725
507.96899	8724.725
512.04106	8758.725
516.11023	8840.525
520.1765	8866.925
524.23987	8900.225
528.30034	8901.025
532.35792	8899.825
536.41261	8837.725
540.46441	8712.725
544.51333	8695.325
548.55936	8729.725
552.60252	8887.625
556.64279	9017.225
560.6802	9135.825
564.71473	9200.925
568.7464	9291.625
572.7752	9230.225
576.80114	9063.425
580.82422	8917.325
584.84444	8898.925
588.86181	8939.825
592.87633	8997.225
596.888	9174.725
600.89682	9555.025
604.9028	10482.225
608.90594	12440.025
612.90624	14257.625
616.90371	13224.725
620.89834	10575.425
624.89015	9567.525
628.87913	9480.625
632.86528	9593.125
636.84862	9659.325
640.82913	9445.525
644.80683	9144.825
648.78172	8991.525
652.75379	8998.825
656.72306	9216.925
660.68952	9469.425
664.65319	9423.725
668.61405	9299.825
672.57211	9374.925
676.52738	9385.525
680.47986	9211.925
684.42955	9034.925
688.37646	8983.325
692.32058	9073.225
696.26192	9222.325
700.20048	9381.725
704.13626	9416.325
708.06928	9313.825
711.99952	9217.825
715.927	9213.625
719.85171	9260.425
723.77365	9253.825
727.69284	9204.125
731.60928	9128.825
735.52295	9123.125
739.43388	9169.125
743.34206	9212.625
747.24749	9239.525
751.15017	9229.525
755.05012	9327.625
758.94733	9617.825
762.8418	10300.225
766.73354	11316.625
770.62254	12176.325
774.50882	12389.325
778.39237	11998.425
782.27321	11276.125
786.15132	10438.825
790.02671	9825.725
793.89938	9513.925
797.76935	9387.525
801.6366	9283.725
805.50115	9247.425
809.36299	9213.825
813.22213	9186.625
817.07857	9184.725
820.93231	9187.925
824.78336	9159.125
828.63172	9203.125
832.47738	9220.725
836.32036	9202.225
840.16066	9209.625
843.99827	9203.125
847.8332	9215.625
851.66546	9211.825
855.49504	9232.925
859.32195	9252.525
863.1462	9252.025
866.96777	9230.225
870.78668	9258.425
874.60293	9269.925
878.41652	9297.025
882.22745	9397.225
886.03573	9436.225
889.84136	9441.325
893.64433	9382.725
897.44466	9360.925
901.24235	9314.925
905.0374	9325.625
908.8298	9287.325
912.61957	9277.825
916.40671	9298.125
920.19121	9325.225
923.97308	9398.025
927.75233	9496.125
931.52895	9555.925
935.30295	9489.425
939.07433	9349.925
942.84309	9252.125
946.60924	9205.425
950.37278	9202.525
954.13371	9199.125
957.89203	9180.225
961.64774	9167.525
965.40086	9166.325
969.15137	9162.425
972.89929	9171.225
976.64461	9160.425
980.38733	9171.025
984.12747	9227.725
987.86502	9263.825
991.59999	9318.325
995.33237	9413.325
999.06217	9597.425
1002.78939	9793.825
1006.51404	9972.525
1010.23611	10118.825
1013.95561	10226.825
1017.67255	10264.725
1021.38692	10274.225
1025.09872	10179.625
1028.80796	10162.225
1032.51465	10241.725
1036.21877	10309.425
1039.92035	10309.925
1043.61937	10269.225
1047.31584	10192.425
1051.00976	10117.625
1054.70114	10083.425
1058.38998	10077.625
1062.07627	10129.925
1065.76003	10145.525
1069.44126	10252.625
1073.11995	10464.425
1076.79611	10698.825
1080.46974	10830.925
1084.14085	10902.825
1087.80943	11007.925
1091.47549	11076.825
1095.13903	11093.425
1098.80005	11109.625
1102.45857	11112.325
1106.11456	10979.425
1109.76805	10821.325
1113.41903	10788.125
1117.06751	10894.525
1120.71348	11044.325
1124.35696	11210.325
1127.99793	11347.725
1131.63641	11202.625
1135.2724	10949.225
1138.90589	10742.325
1142.5369	10620.225
1146.16542	10586.725
1149.79145	10545.625
1153.415	10416.425
1157.03607	10344.625
1160.65467	10402.825
1164.27079	10563.025
1167.88443	10862.425
1171.49561	11354.425
1175.10432	12033.925
1178.71056	12916.925
1182.31434	13751.725
1185.91565	14094.325
1189.51451	14101.725
1193.11091	13863.825
1196.70485	13593.425
1200.29634	13282.825
1203.88538	12901.725
1207.47197	12542.025
1211.05612	12148.025
1214.63782	11869.325
1218.21708	11635.925
1221.79391	11459.025
1225.36829	11341.925
1228.94024	11278.325
1232.50976	11184.125
1236.07685	11164.925
1239.6415	11167.525
1243.20374	11209.325
1246.76355	11306.525
1250.32093	11471.625
1253.8759	11680.125
1257.42845	12051.025
1260.97859	12379.925
1264.52631	12656.425
1268.07163	12871.125
1271.61453	13047.625
1275.15503	13140.725
1278.69312	13206.125
1282.22882	13251.325
1285.76211	13313.125
1289.29301	13419.725
1292.82151	13621.825
1296.34761	13858.425
1299.87133	14297.025
1303.39266	14976.125
1306.9116	16100.025
1310.42815	17247.025
1313.94233	17739.925
1317.45412	17345.925
1320.96354	16525.025
1324.47058	15667.925
1327.97525	14922.525
1331.47754	14444.425
1334.97747	14247.525
1338.47502	14395.125
1341.97022	14834.125
1345.46305	15584.125
1348.95352	16590.625
1352.44163	17609.625
1355.92738	18626.125
1359.41078	19829.025
1362.89183	20587.625
1366.37053	19638.425
1369.84688	17244.025
1373.32088	15062.425
1376.79254	13812.825
1380.26186	13211.025
1383.72883	12864.425
1387.19347	12541.525
1390.65578	12200.225
1394.11575	11878.525
1397.57339	11670.425
1401.0287	11582.325
1404.48168	11618.525
1407.93234	11667.525
1411.38068	11816.925
1414.82669	11974.525
1418.27039	11964.825
1421.71177	11942.025
1425.15083	11812.825
1428.58758	11784.925
1432.02203	11873.725
1435.45416	11965.325
1438.88399	12010.125
1442.31151	12014.225
1445.73673	12047.125
1449.15965	12067.525
1452.58027	12002.825
1455.9986	11954.925
1459.41463	11942.725
1462.82837	12040.025
1466.23982	12221.425
1469.64898	12411.825
1473.05586	12558.725
1476.46045	12679.925
1479.86276	12766.525
1483.26279	12896.525
1486.66054	13058.425
1490.05602	13378.025
1493.44922	13830.825
1496.84016	14523.825
1500.22882	15564.625
1503.61521	16863.925
1506.99934	18038.325
1510.38121	18683.325
1513.76081	18405.625
1517.13816	17230.625
1520.51324	15713.325
1523.88607	14518.125
1527.25665	13748.225
1530.62498	13380.225
1533.99105	13179.925
1537.35488	13125.025
1540.71647	13046.025
1544.07581	13000.225
1547.4329	12889.625
1550.78776	12797.325
1554.14038	12629.725
1557.49077	12521.925
1560.83892	12620.225
1564.18484	12803.925
1567.52853	13052.925
1570.86999	13189.025
1574.20922	13214.325
1577.54624	13051.625
1580.88103	12612.425
1584.2136	12155.225
1587.54395	11926.525
1590.87208	12097.225
1594.19801	12567.125
1597.52172	13157.625
1600.84321	13459.925
1604.16251	13431.625
1607.47959	13094.525
1610.79447	12652.825
1614.10715	11999.925
1617.41763	11349.125
1620.7259	10928.525
1624.03199	10714.025
1627.33587	10656.925
1630.63757	10787.225
1633.93707	11208.725
1637.23439	11800.925
1640.52951	12777.625
1643.82246	13936.825
1647.11321	15027.625
1650.40179	15396.825
1653.68819	14604.525
1656.97241	13086.725
1660.25446	11621.525
1663.53433	10638.425
1666.81203	10065.025
1670.08756	9699.225
1673.36092	9510.325
1676.63211	9333.125
1679.90115	9219.025
1683.16801	9129.425
1686.43272	9068.325
1689.69527	9020.625
1692.95567	8987.225
1696.2139	8960.525
1699.46999	8907.125
1702.72392	8906.225
1705.97571	8892.525
1709.22535	8897.925
1712.47284	8884.625
1715.71819	8892.425
1718.96139	8902.325
1722.20246	8873.025
1725.44139	8833.625
1728.67818	8808.625
1731.91284	8763.225
1735.14537	8725.325
1738.37576	8687.125
1741.60403	8653.325
1744.83017	8622.725
1748.05418	8657.025
1751.27607	8602.425
1754.49584	8585.125
1757.71349	8572.425
1760.92903	8587.425
1764.14244	8564.225
1767.35375	8529.925
1770.56294	8500.825
1773.77002	8519.625
1776.97499	8487.725
1780.17785	8443.925
1783.37861	8441.025
1786.57727	8403.825
1789.77382	8431.325
1792.96828	8407.225
1796.16064	8396.425
1799.3509	8407.225
1802.53907	8377.125
1805.72514	8379.625
1808.90913	8329.425
1812.09102	8329.625
1815.27083	8300.525
1818.44856	8252.125
1821.6242	8255.225
1824.79776	8265.825
1827.96924	8235.725
1831.13864	8218.425
1834.30597	8215.025
1837.47122	8206.625
1840.6344	8154.825
1843.7955	8179.725
1846.95454	8175.125
1850.11151	8175.925
1853.26642	8164.125
1856.41926	8161.825
1859.57004	8178.125
1862.71876	8160.325
1865.86542	8157.225
1869.01003	8150.525
1872.15258	8139.525
1875.29308	8117.525
1878.43152	8121.325
1881.56792	8089.825
1884.70227	8079.825
1887.83457	8038.925
1890.96482	8033.525
1894.09304	8030.225
1897.21921	8018.425
1900.34335	8020.825
1903.46544	7992.225
1906.58551	7996.325
1909.70353	8005.425
1912.81953	7984.125
1915.93349	7976.825
1919.04543	7959.625
1922.15534	7942.225
1925.26322	7937.625
1928.36908	7920.425
1931.47292	7891.525
1934.57473	7858.825
1937.67453	7853.825
1940.77232	7836.525
1943.86808	7832.325
1946.96184	7793.525
1950.05358	7759.425
1953.14331	7739.625
1956.23103	7730.625
1959.31675	7718.725
1962.40046	7677.825
1965.48217	7662.925
1968.56188	7630.725
1971.63959	7629.925
1974.7153	7610.425
1977.78901	7617.525
1980.86073	7586.125
1983.93046	7554.225
1986.99819	7498.925
1990.06394	7500.125
1993.1277	7482.525
1996.18947	7426.725
1999.24925	7422.225
2002.30706	7382.725
2005.36288	7337.025
2008.41672	7353.925
2011.46859	7333.825
2014.51848	7286.725
2017.56639	7287.825
2020.61233	7260.025
2023.6563	7228.925
2026.6983	7213.825
2029.73833	7182.825
2032.7764	7190.625
2035.8125	7170.825
2038.84664	7151.125
2041.87881	7137.825
2044.90903	7117.425
2047.93729	7113.025
2050.96359	7106.925
2053.98794	7075.525
2057.01034	7083.125
2060.03078	7071.225
2063.04927	7074.425
2066.06582	7056.625
2069.08042	7041.225
2072.09307	7042.025
2075.10378	7032.725
2078.11255	7020.025
2081.11938	7032.325
2084.12426	7011.825
2087.12722	6999.025
2090.12824	7007.225
2093.12732	6992.725
2096.12447	7005.425
2099.11969	7013.725
2102.11299	7024.925
2105.10435	7033.825
2108.09379	7004.925
2111.08131	7020.125
2114.0669	7010.825
2117.05057	7041.225
2120.03233	7035.525
2123.01216	7033.525
2125.99008	7036.625
2128.96609	7049.525
2131.94018	7070.225
2134.91236	7048.325
2137.88263	7052.125
2140.851	7046.625
2143.81746	7049.225
2146.78201	7036.825
2149.74466	7040.225
2152.7054	7045.525
2155.66425	7038.125
2158.6212	7016.625
2161.57625	7016.025
2164.52941	7018.225
2167.48067	7014.025
2170.43004	7015.625
2173.37752	6992.925
2176.32311	7006.325
2179.26681	7006.225
2182.20863	7006.625
2185.14856	7007.625
2188.08661	7004.125
2191.02278	7027.125
2193.95707	7011.425
2196.88948	6985.825
2199.82001	6969.725
2202.74867	6976.025
2205.67545	7002.325
2208.60037	6997.525
2211.52341	6961.425
2214.44458	6933.825
2217.36388	6934.825
2220.28132	6923.125
2223.1969	6904.525
2226.11061	6877.825
2229.02246	6864.025
2231.93245	6869.225
2234.84058	6847.125
2237.74686	6834.825
2240.65128	6816.525
2243.55385	6801.425
2246.45456	6826.025
2249.35343	6778.325
2252.25044	6790.025
2255.14561	6776.525
2258.03893	6764.925
2260.93041	6754.125
2263.82004	6737.325
2266.70783	6730.425
2269.59378	6711.425
2272.4779	6676.725
2275.36017	6682.625
2278.24061	6669.725
2281.11922	6643.325
2283.996	6631.225
2286.87094	6643.725
2289.74405	6622.825
2292.61534	6618.625
2295.4848	6599.525
2298.35243	6598.425
2301.21824	6594.925
2304.08223	6570.125
2306.94439	6572.225
2309.80474	6561.425
2312.66327	6564.225
2315.51999	6564.425
2318.37489	6571.325
2321.22797	6537.325
2324.07925	6544.125
2326.92871	6545.625
2329.77637	6515.125
2332.62222	6506.625
2335.46626	6483.025
2338.3085	6485.425
2341.14893	6507.125
2343.98756	6485.625
2346.8244	6498.825
2349.65943	6485.925
2352.49267	6477.625
2355.32411	6476.125
2358.15376	6484.125
2360.98161	6475.225
2363.80768	6474.525
2366.63195	6456.825
2369.45444	6451.825
2372.27514	6449.825
2375.09405	6429.925
2377.91118	6408.225
2380.72652	6405.625
2383.54009	6405.925
2386.35187	6366.325
2389.16188	6360.625
2391.97011	6329.525
2394.77657	6320.125
2397.58125	6296.725
2400.38416	6315.225
2403.18529	6294.425
2405.98466	6304.325
2408.78226	6268.125
2411.57809	6262.325
2414.37216	6267.225
2417.16446	6252.125
2419.955	6247.725
2422.74378	6219.025
2425.5308	6223.425
2428.31606	6243.325
2431.09956	6214.925
2433.88131	6205.725
2436.6613	6213.225
2439.43954	6206.325
2442.21603	6196.625
2444.99077	6190.125
2447.76377	6195.425
2450.53501	6203.625
2453.30451	6171.825
2456.07226	6161.325
2458.83827	6162.025
2461.60254	6169.625
2464.36507	6147.125
2467.12586	6135.625
2469.88492	6136.225
2472.64224	6137.325
2475.39782	6136.725
2478.15167	6119.725
2480.90379	6135.325
2483.65417	6118.125
2486.40283	6106.825
2489.14976	6130.025
2491.89497	6116.225
2494.63845	6128.025
2497.3802	6105.025
2500.12024	6092.525
2502.85855	6073.425
2505.59514	6082.625
2508.33002	6078.325
2511.06318	6041.025
2513.79462	6031.425
2516.52435	6030.325
2519.25237	6013.925
2521.97867	6003.125
2524.70327	6005.325
2527.42616	5997.525
2530.14734	5966.425
2532.86681	5972.125
2535.58458	5995.825
2538.30065	5991.125
2541.01501	5999.825
2543.72768	5983.925
2546.43864	5972.325
2549.14791	5973.225
2551.85548	5952.425
2554.56136	5957.525
2557.26554	5934.925
2559.96803	5916.725
2562.66883	5902.325
2565.36794	5886.725
2568.06536	5881.225
2570.7611	5858.125
2573.45514	5868.625
2576.14751	5853.525
2578.83819	5829.425
2581.52719	5824.925
2584.21451	5819.225
2586.90015	5813.725
2589.58411	5811.625
2592.2664	5794.825
2594.94701	5783.425
2597.62594	5786.325
2600.30321	5757.925
2602.9788	5751.325
2605.65273	5741.725
2608.32498	5750.225
2610.99557	5722.525
2613.66449	5745.325
2616.33175	5746.725
2618.99734	5731.025
2621.66128	5728.725
2624.32355	5722.825
2626.98416	5719.125
2629.64311	5698.725
2632.30041	5689.125
2634.95605	5666.725
2637.61004	5662.825
2640.26238	5654.625
2642.91306	5654.125
2645.56209	5655.925
2648.20948	5641.825
2650.85521	5627.625
2653.4993	5635.225
2656.14175	5617.325
2658.78255	5619.925
2661.42171	5610.125
2664.05923	5620.225
2666.6951	5640.325
2669.32934	5621.125
2671.96194	5639.825
2674.59291	5649.725
2677.22224	5635.625
2679.84993	5638.925
2682.476	5614.625
2685.10043	5622.725
2687.72324	5616.225
2690.34441	5620.625
2692.96396	5625.525
2695.58188	5616.925
2698.19818	5607.225
2700.81285	5600.025
2703.4259	5588.425
2706.03733	5570.925
2708.64714	5577.025
2711.25533	5576.525
2713.86191	5559.225
2716.46687	5566.825
2719.07021	5579.725
2721.67194	5578.825
2724.27206	5570.525
2726.87057	5568.425
2729.46747	5578.525
2732.06276	5561.125
2734.65644	5577.425
2737.24852	5575.225
2739.83899	5549.425
2742.42786	5541.025
2745.01513	5526.825
2747.60079	5509.725
2750.18486	5522.225
2752.76733	5500.825
2755.3482	5481.925
2757.92747	5492.125
2760.50515	5478.025
2763.08123	5456.825
2765.65573	5454.425
2768.22863	5442.325
2770.79994	5443.425
2773.36967	5443.625
2775.9378	5425.825
2778.50435	5416.625
2781.06932	5439.725
2783.6327	5423.225
2786.1945	5418.925
2788.75471	5403.125
2791.31335	5382.325
2793.87041	5392.125
2796.42589	5379.025
2798.97979	5355.925
2801.53212	5340.925
2804.08288	5331.525
2806.63206	5329.425
2809.17967	5297.425
2811.72571	5304.625
2814.27018	5320.025
2816.81308	5281.225
2819.35442	5271.725
2821.89419	5258.625
2824.43239	5263.825
2826.96904	5257.325
2829.50412	5244.025
2832.03763	5207.925
2834.56959	5211.925
2837.1	5193.725
2839.62884	5193.025
2842.15613	5190.925
2844.68186	5196.625
2847.20604	5196.625
2849.72867	5162.225
2852.24974	5159.725
2854.76927	5147.125
2857.28724	5122.825
2859.80367	5131.725
2862.31855	5106.625
2864.83189	5126.725
2867.34368	5131.625
2869.85393	5105.825
2872.36264	5106.625
2874.8698	5118.725
2877.37543	5102.925
2879.87952	5093.225
2882.38207	5084.325
2884.88308	5084.025
2887.38256	5082.525
2889.88051	5066.625
2892.37692	5074.425
2894.8718	5069.325
2897.36515	5073.025
2899.85698	5069.525
2902.34727	5066.225
2904.83604	5069.725
2907.32328	5080.425
2909.809	5081.325
2912.29319	5078.425
2914.77587	5066.425
2917.25702	5085.125
2919.73665	5067.725
2922.21476	5068.425
2924.69136	5064.825
2927.16644	5061.625
2929.64	5053.625
2932.11205	5027.225
2934.58258	5000.825
2937.05161	5025.925
2939.51912	5007.325
2941.98513	5015.225
2944.44962	5012.025
2946.91261	4996.025
2949.37409	4989.825
2951.83407	5001.525
2954.29254	4978.025
2956.74951	4990.425
2959.20498	4977.125
2961.65895	4969.725
2964.11142	5001.425
2966.56239	4956.225
2969.01186	4977.525
2971.45984	4963.925
2973.90632	4968.325
2976.35131	4921.725
2978.7948	4932.325
2981.23681	4930.825
2983.67732	4918.725
2986.11635	4899.025
2988.55388	4885.825
2990.98993	4857.825
2993.4245	4861.725
2995.85758	4847.625
2998.28917	4841.625
3000.71928	4821.725
3003.14791	4805.125
3005.57506	4809.025
3008.00073	4805.525
3010.42493	4796.025
3012.84764	4776.525
3015.26888	4768.725
3017.68865	4758.225
3020.10694	4758.525
3022.52376	4727.325
3024.9391	4724.425
3027.35298	4701.225
3029.76539	4715.725
3032.17632	4691.225
3034.5858	4677.025
3036.9938	4681.025
3039.40034	4661.325
3041.80542	4645.725
3044.20903	4643.225
3046.61118	4628.825
3049.01187	4623.025
3051.4111	4613.125
3053.80888	4603.125
3056.20519	4593.225
3058.60005	4580.825
3060.99345	4568.925
3063.3854	4561.225
3065.7759	4562.525
3068.16494	4543.625
3070.55254	4518.425
3072.93868	4508.225
3075.32338	4496.025
3077.70662	4481.725
3080.08842	4470.225
3082.46878	4481.025
3084.84769	4453.225
3087.22515	4459.625
3089.60118	4450.625
3091.97576	4448.925
3094.3489	4432.325
3096.72061	4431.025
3099.09087	4437.925
3101.4597	4427.225
3103.82709	4442.725
3106.19305	4433.425
3108.55757	4433.025
3110.92066	4421.325
3113.28232	4399.625
3115.64255	4386.025
3118.00134	4372.625
3120.35871	4373.625
3122.71466	4350.525
3125.06917	4361.225
3127.42226	4344.725
3129.77393	4341.725
3132.12417	4316.725
3134.47299	4300.425
3136.82039	4297.425
3139.16636	4305.325
3141.51092	4308.025
3143.85406	4315.525
3146.19579	4306.225
3148.53609	4306.625
3150.87499	4295.925
3153.21246	4288.925
3155.54853	4293.125
3157.88318	4301.325
3160.21642	4291.625
3162.54826	4285.125
3164.87868	4279.925
3167.2077	4270.625
3169.5353	4264.425
3171.86151	4259.825
3174.18631	4243.825
3176.5097	4241.225
3178.83169	4229.025
3181.15228	4218.525
3183.47147	4214.625
3185.78926	4217.825
3188.10565	4183.125
3190.42065	4164.925
3192.73424	4187.525
3195.04645	4177.525
3197.35725	4163.625
3199.66667	4165.425
3201.97469	4153.825
3204.28132	4159.925
3206.58656	4160.225
3208.8904	4164.725
3211.19287	4166.125
3213.49394	4161.725
3215.79363	4154.425
