Data from AgNPs_UA_50uM_CRN_500uM_SU_RamanShift__69__14-07-20-327.txt Node

Date: Thu Aug 04 14:07:20 BST 2022
User: TCL
Spectrometer: QEP01345
Trigger mode: 4
Integration Time (sec): 1.000000E0
Scans to average: 10
Electric dark correction enabled: true
Nonlinearity correction enabled: false
Boxcar width: 0
XAxis mode: Raman Shifts
Number of Pixels in Spectrum: 1044
>>>>>Begin Spectral Data<<<<<
46.04893	0.275
50.45542	-1.125
54.85868	-0.325
59.25871	-2.625
63.6555	17.375
68.04907	16.175
72.43941	17.575
76.82654	19.775
81.21044	19.975
85.59113	21.475
89.96862	22.175
94.34289	23.475
98.71396	22.975
103.08183	25.775
107.4465	24.775
111.80798	22.575
116.16626	23.575
120.52136	25.675
124.87327	29.375
129.222	30.075
133.56755	34.675
137.90993	37.575
142.24913	39.975
146.58517	42.675
150.91804	52.175
155.24774	63.675
159.57429	80.775
163.89768	101.675
168.21792	139.975
172.53501	193.175
176.84895	273.175
181.15975	386.675
185.46741	544.875
189.77193	744.875
194.07331	1011.675
198.37157	1296.175
202.6667	1607.275
206.9587	1920.075
211.24758	2221.475
215.53334	2543.575
219.81599	2871.375
224.09553	3234.875
228.37195	3640.175
232.64527	4084.775
236.91549	4522.875
241.18261	4902.975
245.44663	5216.275
249.70755	5477.475
253.96539	5719.275
258.22014	5921.275
262.4718	6085.775
266.72039	6208.275
270.96589	6250.475
275.20832	6237.075
279.44768	6150.175
283.68397	6032.075
287.91719	5971.575
292.14735	5957.175
296.37445	6064.875
300.59849	6248.975
304.81948	6497.575
309.03742	6694.675
313.25231	6795.375
317.46415	6700.775
321.67296	6412.975
325.87872	6154.775
330.08145	6023.375
334.28114	6019.575
338.47781	6100.675
342.67145	6264.475
346.86207	6446.175
351.04966	6719.675
355.23424	6987.375
359.4158	7184.575
363.59435	7296.575
367.76989	7334.775
371.94243	7362.775
376.11196	7332.475
380.27849	7323.075
384.44203	7329.675
388.60257	7345.875
392.76012	7368.175
396.91468	7482.175
401.06626	7584.175
405.21485	7659.275
409.36047	7537.775
413.50311	7263.475
417.64277	7014.775
421.77947	6853.675
425.9132	6792.975
430.04396	6799.675
434.17176	6879.175
438.2966	7018.575
442.41849	7213.575
446.53742	7467.075
450.6534	7662.775
454.76644	7821.075
458.87653	7839.075
462.98368	7750.475
467.08789	7617.475
471.18916	7417.375
475.2875	7179.075
479.38291	7038.275
483.4754	6884.675
487.56496	6820.275
491.6516	6748.175
495.73531	6729.075
499.81612	6733.575
503.89401	6784.975
507.96899	6841.675
512.04106	6888.075
516.11023	6960.175
520.1765	7056.675
524.23987	7078.675
528.30034	7063.375
532.35792	7015.275
536.41261	6929.975
540.46441	6813.975
544.51333	6763.975
548.55936	6841.375
552.60252	6947.275
556.64279	7074.475
560.6802	7138.475
564.71473	7190.675
568.7464	7285.675
572.7752	7306.075
576.80114	7156.775
580.82422	7024.775
584.84444	7035.575
588.86181	7153.375
592.87633	7364.475
596.888	7564.575
600.89682	7846.075
604.9028	8745.575
608.90594	10682.175
612.90624	12494.875
616.90371	11371.275
620.89834	8733.975
624.89015	7769.275
628.87913	7707.675
632.86528	7665.175
636.84862	7561.075
640.82913	7292.175
644.80683	6969.175
648.78172	6787.675
652.75379	6844.675
656.72306	7094.375
660.68952	7343.475
664.65319	7298.775
668.61405	7133.975
672.57211	7093.075
676.52738	7073.275
680.47986	6960.075
684.42955	6865.875
688.37646	6855.775
692.32058	6926.375
696.26192	7036.975
700.20048	7161.575
704.13626	7160.775
708.06928	7054.675
711.99952	6975.675
715.927	7006.275
719.85171	7027.175
723.77365	7037.575
727.69284	6960.375
731.60928	6899.975
735.52295	6930.175
739.43388	6967.375
743.34206	7014.575
747.24749	7039.375
751.15017	7070.975
755.05012	7160.375
758.94733	7452.775
762.8418	8149.175
766.73354	9173.175
770.62254	10028.275
774.50882	10269.275
778.39237	9736.975
782.27321	8828.175
786.15132	7975.875
790.02671	7450.975
793.89938	7192.875
797.76935	7076.575
801.6366	7036.675
805.50115	6993.475
809.36299	6946.375
813.22213	6915.075
817.07857	6900.175
820.93231	6898.875
824.78336	6919.175
828.63172	6934.275
832.47738	6953.675
836.32036	6972.575
840.16066	7014.275
843.99827	7048.875
847.8332	6999.075
851.66546	6960.575
855.49504	6937.075
859.32195	6930.675
863.1462	6921.975
866.96777	6886.275
870.78668	6877.175
874.60293	6879.975
878.41652	6920.775
882.22745	6966.075
886.03573	6982.175
889.84136	6989.675
893.64433	6949.575
897.44466	6902.175
901.24235	6904.875
905.0374	6890.075
908.8298	6863.075
912.61957	6873.575
916.40671	6904.175
920.19121	6962.175
923.97308	7083.975
927.75233	7198.575
931.52895	7283.275
935.30295	7173.675
939.07433	7016.775
942.84309	6889.875
946.60924	6844.375
950.37278	6827.375
954.13371	6774.275
957.89203	6718.075
961.64774	6703.675
965.40086	6666.075
969.15137	6645.775
972.89929	6651.275
976.64461	6649.275
980.38733	6671.875
984.12747	6687.775
987.86502	6754.675
991.59999	6829.875
995.33237	7022.975
999.06217	7321.275
1002.78939	7602.575
1006.51404	7716.275
1010.23611	7750.575
1013.95561	7824.875
1017.67255	7910.275
1021.38692	7912.975
1025.09872	7916.775
1028.80796	8059.775
1032.51465	8340.875
1036.21877	8524.175
1039.92035	8483.675
1043.61937	8291.375
1047.31584	8010.575
1051.00976	7737.475
1054.70114	7614.375
1058.38998	7589.175
1062.07627	7558.075
1065.76003	7563.675
1069.44126	7563.575
1073.11995	7639.675
1076.79611	7720.675
1080.46974	7853.875
1084.14085	8013.275
1087.80943	8114.375
1091.47549	8086.775
1095.13903	7968.675
1098.80005	7820.575
1102.45857	7759.175
1106.11456	7760.775
1109.76805	7795.775
1113.41903	7902.175
1117.06751	8034.175
1120.71348	8242.575
1124.35696	8437.075
1127.99793	8579.375
1131.63641	8437.975
1135.2724	8147.575
1138.90589	7928.975
1142.5369	7767.975
1146.16542	7653.075
1149.79145	7595.775
1153.415	7601.275
1157.03607	7604.075
1160.65467	7701.875
1164.27079	7925.575
1167.88443	8263.475
1171.49561	8807.975
1175.10432	9620.575
1178.71056	10657.575
1182.31434	11558.775
1185.91565	11917.375
1189.51451	11767.875
1193.11091	11186.875
1196.70485	10516.275
1200.29634	9977.875
1203.88538	9567.175
1207.47197	9094.075
1211.05612	8737.275
1214.63782	8545.375
1218.21708	8489.275
1221.79391	8542.575
1225.36829	8631.575
1228.94024	8629.075
1232.50976	8471.475
1236.07685	8378.975
1239.6415	8367.075
1243.20374	8370.875
1246.76355	8457.675
1250.32093	8561.875
1253.8759	8779.075
1257.42845	9077.775
1260.97859	9377.775
1264.52631	9652.475
1268.07163	9871.075
1271.61453	10054.675
1275.15503	10240.875
1278.69312	10452.975
1282.22882	10655.775
1285.76211	10842.875
1289.29301	11019.975
1292.82151	11195.875
1296.34761	11486.675
1299.87133	12023.775
1303.39266	12900.175
1306.9116	14201.275
1310.42815	15531.675
1313.94233	16102.475
1317.45412	15566.975
1320.96354	14511.075
1324.47058	13403.575
1327.97525	12562.175
1331.47754	12092.475
1334.97747	11980.175
1338.47502	12134.075
1341.97022	12472.775
1345.46305	13012.275
1348.95352	13696.475
1352.44163	14566.275
1355.92738	15699.175
1359.41078	17232.575
1362.89183	18174.075
1366.37053	17171.475
1369.84688	14720.575
1373.32088	12521.975
1376.79254	11244.275
1380.26186	10671.675
1383.72883	10343.075
1387.19347	10030.575
1390.65578	9658.375
1394.11575	9366.975
1397.57339	9244.475
1401.0287	9270.175
1404.48168	9330.675
1407.93234	9453.775
1411.38068	9615.175
1414.82669	9762.575
1418.27039	9726.775
1421.71177	9579.975
1425.15083	9458.375
1428.58758	9466.575
1432.02203	9599.575
1435.45416	9773.875
1438.88399	9804.175
1442.31151	9774.175
1445.73673	9720.075
1449.15965	9677.775
1452.58027	9556.775
1455.9986	9430.475
1459.41463	9365.375
1462.82837	9435.375
1466.23982	9634.475
1469.64898	9864.675
1473.05586	10026.975
1476.46045	10165.175
1479.86276	10290.675
1483.26279	10447.575
1486.66054	10579.075
1490.05602	10839.475
1493.44922	11234.075
1496.84016	11829.275
1500.22882	12696.675
1503.61521	13821.675
1506.99934	14976.475
1510.38121	15709.475
1513.76081	15507.675
1517.13816	14403.875
1520.51324	12968.875
1523.88607	11805.975
1527.25665	11089.775
1530.62498	10736.075
1533.99105	10544.675
1537.35488	10424.775
1540.71647	10327.775
1544.07581	10206.075
1547.4329	10092.675
1550.78776	9928.275
1554.14038	9846.275
1557.49077	9809.275
1560.83892	9874.675
1564.18484	10024.275
1567.52853	10220.175
1570.86999	10351.575
1574.20922	10353.175
1577.54624	10157.675
1580.88103	9784.975
1584.2136	9402.875
1587.54395	9299.775
1590.87208	9663.875
1594.19801	10409.875
1597.52172	11281.275
1600.84321	11740.875
1604.16251	11484.575
1607.47959	10836.975
1610.79447	10012.875
1614.10715	9250.875
1617.41763	8602.975
1620.7259	8235.775
1624.03199	8090.675
1627.33587	8105.075
1630.63757	8373.475
1633.93707	8858.175
1637.23439	9578.675
1640.52951	10566.875
1643.82246	11670.775
1647.11321	12604.475
1650.40179	12719.675
1653.68819	11790.275
1656.97241	10244.275
1660.25446	8858.375
1663.53433	7942.975
1666.81203	7385.375
1670.08756	7063.275
1673.36092	6835.975
1676.63211	6715.175
1679.90115	6644.875
1683.16801	6531.675
1686.43272	6471.875
1689.69527	6453.275
1692.95567	6417.075
1696.2139	6402.875
1699.46999	6369.775
1702.72392	6383.175
1705.97571	6365.675
1709.22535	6366.775
1712.47284	6354.375
1715.71819	6356.675
1718.96139	6327.175
1722.20246	6327.275
1725.44139	6298.075
1728.67818	6258.175
1731.91284	6222.275
1735.14537	6204.575
1738.37576	6193.475
1741.60403	6160.075
1744.83017	6121.375
1748.05418	6121.975
1751.27607	6112.975
1754.49584	6073.775
1757.71349	6086.275
1760.92903	6071.675
1764.14244	6069.975
1767.35375	6067.975
1770.56294	6058.575
1773.77002	6041.875
1776.97499	6028.675
1780.17785	6007.475
1783.37861	6010.775
1786.57727	5980.075
1789.77382	5986.175
1792.96828	5984.175
1796.16064	5965.775
1799.3509	5961.575
1802.53907	5944.075
1805.72514	5936.475
1808.90913	5933.575
1812.09102	5902.475
1815.27083	5888.175
1818.44856	5890.875
1821.6242	5859.075
1824.79776	5856.075
1827.96924	5844.575
1831.13864	5819.975
1834.30597	5812.475
1837.47122	5806.975
1840.6344	5808.175
1843.7955	5804.175
1846.95454	5807.375
1850.11151	5797.475
1853.26642	5799.275
1856.41926	5791.275
1859.57004	5805.775
1862.71876	5801.375
1865.86542	5766.975
1869.01003	5783.175
1872.15258	5774.975
1875.29308	5785.675
1878.43152	5787.775
1881.56792	5766.475
1884.70227	5767.475
1887.83457	5760.075
1890.96482	5754.975
1894.09304	5739.075
1897.21921	5726.275
1900.34335	5710.775
1903.46544	5706.075
1906.58551	5706.675
1909.70353	5692.175
1912.81953	5687.275
1915.93349	5679.475
1919.04543	5663.075
1922.15534	5669.475
1925.26322	5670.075
1928.36908	5648.975
1931.47292	5649.175
1934.57473	5639.775
1937.67453	5625.575
1940.77232	5607.375
1943.86808	5588.575
1946.96184	5600.975
1950.05358	5581.675
1953.14331	5536.175
1956.23103	5522.075
1959.31675	5495.975
1962.40046	5476.375
1965.48217	5473.775
1968.56188	5474.875
1971.63959	5449.075
1974.7153	5457.075
1977.78901	5427.975
1980.86073	5409.675
1983.93046	5384.475
1986.99819	5382.475
1990.06394	5365.175
1993.1277	5351.475
1996.18947	5339.675
1999.24925	5290.775
2002.30706	5283.975
2005.36288	5264.175
2008.41672	5234.475
2011.46859	5216.675
2014.51848	5210.575
2017.56639	5210.975
2020.61233	5200.875
2023.6563	5181.575
2026.6983	5159.275
2029.73833	5152.175
2032.7764	5136.875
2035.8125	5115.175
2038.84664	5115.575
2041.87881	5134.775
2044.90903	5111.475
2047.93729	5116.975
2050.96359	5091.575
2053.98794	5086.475
2057.01034	5078.075
2060.03078	5084.975
2063.04927	5087.675
2066.06582	5077.975
2069.08042	5085.275
2072.09307	5053.075
2075.10378	5036.675
2078.11255	5033.675
2081.11938	5044.275
2084.12426	5036.775
2087.12722	5051.575
2090.12824	5027.175
2093.12732	5029.075
2096.12447	5034.375
2099.11969	5037.675
2102.11299	5029.475
2105.10435	5025.975
2108.09379	5015.975
2111.08131	5037.075
2114.0669	5035.075
2117.05057	5037.375
2120.03233	5035.075
2123.01216	5041.275
2125.99008	5041.975
2128.96609	5049.875
2131.94018	5054.375
2134.91236	5051.075
2137.88263	5046.675
2140.851	5048.575
2143.81746	5044.575
2146.78201	5052.975
2149.74466	5054.575
2152.7054	5035.275
2155.66425	5053.775
2158.6212	5048.875
2161.57625	5021.775
2164.52941	5038.275
2167.48067	5033.275
2170.43004	5044.375
2173.37752	5025.475
2176.32311	5031.175
2179.26681	5017.175
2182.20863	5021.875
2185.14856	5026.175
2188.08661	5034.075
2191.02278	5028.775
2193.95707	5024.075
2196.88948	5015.475
2199.82001	5020.175
2202.74867	5018.075
2205.67545	5021.575
2208.60037	5037.275
2211.52341	5018.475
2214.44458	5022.475
2217.36388	5025.175
2220.28132	5003.475
2223.1969	4976.575
2226.11061	4960.475
2229.02246	4957.675
2231.93245	4964.875
2234.84058	4948.075
2237.74686	4917.375
2240.65128	4930.075
2243.55385	4916.175
2246.45456	4907.475
2249.35343	4910.575
2252.25044	4895.075
2255.14561	4886.175
2258.03893	4887.575
2260.93041	4869.175
2263.82004	4889.375
2266.70783	4866.775
2269.59378	4858.775
2272.4779	4832.175
2275.36017	4813.375
2278.24061	4786.675
2281.11922	4780.475
2283.996	4774.375
2286.87094	4781.775
2289.74405	4779.175
2292.61534	4782.975
2295.4848	4781.175
2298.35243	4779.375
2301.21824	4767.675
2304.08223	4760.775
2306.94439	4759.675
2309.80474	4781.675
2312.66327	4791.975
2315.51999	4788.275
2318.37489	4789.975
2321.22797	4784.675
2324.07925	4773.275
2326.92871	4764.975
2329.77637	4756.175
2332.62222	4749.175
2335.46626	4737.475
2338.3085	4757.275
2341.14893	4773.275
2343.98756	4767.975
2346.8244	4773.675
2349.65943	4770.075
2352.49267	4761.975
2355.32411	4764.275
2358.15376	4762.675
2360.98161	4767.275
2363.80768	4752.375
2366.63195	4739.075
2369.45444	4738.175
2372.27514	4726.675
2375.09405	4708.875
2377.91118	4701.675
2380.72652	4691.075
2383.54009	4652.675
2386.35187	4658.675
2389.16188	4644.675
2391.97011	4643.375
2394.77657	4644.175
2397.58125	4617.675
2400.38416	4614.175
2403.18529	4603.275
2405.98466	4600.675
2408.78226	4590.575
2411.57809	4581.575
2414.37216	4547.775
2417.16446	4551.775
2419.955	4536.975
2422.74378	4548.475
2425.5308	4547.475
2428.31606	4539.475
2431.09956	4517.775
2433.88131	4524.075
2436.6613	4532.375
2439.43954	4524.275
2442.21603	4517.475
2444.99077	4531.875
2447.76377	4507.675
2450.53501	4509.375
2453.30451	4521.375
2456.07226	4499.175
2458.83827	4505.275
2461.60254	4489.775
2464.36507	4485.675
2467.12586	4483.375
2469.88492	4492.075
2472.64224	4491.075
2475.39782	4488.075
2478.15167	4493.075
2480.90379	4473.275
2483.65417	4496.175
2486.40283	4487.775
2489.14976	4507.575
2491.89497	4510.775
2494.63845	4514.675
2497.3802	4508.275
2500.12024	4505.875
2502.85855	4500.675
2505.59514	4507.975
2508.33002	4484.275
2511.06318	4477.275
2513.79462	4472.775
2516.52435	4444.875
2519.25237	4430.775
2521.97867	4419.275
2524.70327	4435.575
2527.42616	4411.875
2530.14734	4417.675
2532.86681	4425.275
2535.58458	4449.075
2538.30065	4446.575
2541.01501	4437.475
2543.72768	4421.175
2546.43864	4420.875
2549.14791	4412.575
2551.85548	4406.175
2554.56136	4407.975
2557.26554	4388.875
2559.96803	4385.475
2562.66883	4382.775
2565.36794	4372.275
2568.06536	4365.375
2570.7611	4356.975
2573.45514	4353.275
2576.14751	4348.075
2578.83819	4336.375
2581.52719	4346.775
2584.21451	4335.975
2586.90015	4353.775
2589.58411	4338.275
2592.2664	4339.475
2594.94701	4332.775
2597.62594	4335.375
2600.30321	4334.975
2602.9788	4322.775
2605.65273	4321.775
2608.32498	4315.075
2610.99557	4325.475
2613.66449	4322.975
2616.33175	4309.275
2618.99734	4317.775
2621.66128	4317.175
2624.32355	4318.575
2626.98416	4317.175
2629.64311	4314.175
2632.30041	4302.875
2634.95605	4300.775
2637.61004	4297.875
2640.26238	4295.975
2642.91306	4275.075
2645.56209	4277.375
2648.20948	4286.175
2650.85521	4269.675
2653.4993	4248.175
2656.14175	4266.475
2658.78255	4264.275
2661.42171	4248.075
2664.05923	4271.875
2666.6951	4261.875
2669.32934	4257.575
2671.96194	4263.975
2674.59291	4259.575
2677.22224	4256.475
2679.84993	4268.675
2682.476	4243.375
2685.10043	4246.075
2687.72324	4253.475
2690.34441	4226.675
2692.96396	4229.475
2695.58188	4228.175
2698.19818	4215.275
2700.81285	4233.975
2703.4259	4216.875
2706.03733	4227.275
2708.64714	4221.875
2711.25533	4206.075
2713.86191	4196.875
2716.46687	4205.775
2719.07021	4208.175
2721.67194	4211.575
2724.27206	4211.375
2726.87057	4208.275
2729.46747	4216.675
2732.06276	4221.575
2734.65644	4217.875
2737.24852	4203.175
2739.83899	4206.175
2742.42786	4198.575
2745.01513	4192.675
2747.60079	4192.875
2750.18486	4185.775
2752.76733	4182.775
2755.3482	4177.375
2757.92747	4161.975
2760.50515	4162.875
2763.08123	4154.075
2765.65573	4150.175
2768.22863	4135.975
2770.79994	4115.675
2773.36967	4130.775
2775.9378	4143.475
2778.50435	4143.275
2781.06932	4154.675
2783.6327	4139.775
2786.1945	4136.275
2788.75471	4129.475
2791.31335	4110.375
2793.87041	4133.775
2796.42589	4116.175
2798.97979	4105.875
2801.53212	4090.375
2804.08288	4101.675
2806.63206	4091.175
2809.17967	4064.475
2811.72571	4056.675
2814.27018	4055.375
2816.81308	4067.775
2819.35442	4057.975
2821.89419	4039.175
2824.43239	4049.975
2826.96904	4029.775
2829.50412	4031.875
2832.03763	4028.975
2834.56959	4010.175
2837.1	4015.075
2839.62884	3992.375
2842.15613	3996.575
2844.68186	4000.375
2847.20604	3994.675
2849.72867	3973.775
2852.24974	3979.575
2854.76927	3971.475
2857.28724	3961.775
2859.80367	3961.875
2862.31855	3976.475
2864.83189	3958.875
2867.34368	3945.575
2869.85393	3954.475
2872.36264	3935.075
2874.8698	3944.275
2877.37543	3949.575
2879.87952	3932.475
2882.38207	3939.975
2884.88308	3940.075
2887.38256	3930.975
2889.88051	3926.075
2892.37692	3925.475
2894.8718	3912.575
2897.36515	3901.575
2899.85698	3913.275
2902.34727	3930.375
2904.83604	3921.275
2907.32328	3929.275
2909.809	3939.875
2912.29319	3959.875
2914.77587	3944.775
2917.25702	3951.575
2919.73665	3951.275
2922.21476	3936.775
2924.69136	3918.275
2927.16644	3927.175
2929.64	3917.875
2932.11205	3911.275
2934.58258	3892.375
2937.05161	3900.875
2939.51912	3893.575
2941.98513	3879.775
2944.44962	3882.975
2946.91261	3871.675
2949.37409	3889.475
2951.83407	3875.675
2954.29254	3879.675
2956.74951	3884.075
2959.20498	3866.175
2961.65895	3848.875
2964.11142	3847.875
2966.56239	3825.775
2969.01186	3852.275
2971.45984	3835.975
2973.90632	3841.975
2976.35131	3814.575
2978.7948	3831.175
2981.23681	3822.175
2983.67732	3812.875
2986.11635	3799.875
2988.55388	3789.975
2990.98993	3765.875
2993.4245	3771.075
2995.85758	3748.675
2998.28917	3744.875
3000.71928	3752.375
3003.14791	3735.675
3005.57506	3737.275
3008.00073	3703.875
3010.42493	3719.275
3012.84764	3702.075
3015.26888	3689.875
3017.68865	3689.075
3020.10694	3669.675
3022.52376	3664.575
3024.9391	3652.675
3027.35298	3637.475
3029.76539	3625.575
3032.17632	3636.275
3034.5858	3640.975
3036.9938	3622.075
3039.40034	3612.375
3041.80542	3611.375
3044.20903	3603.875
3046.61118	3599.975
3049.01187	3572.475
3051.4111	3585.075
3053.80888	3572.875
3056.20519	3572.875
3058.60005	3546.975
3060.99345	3557.075
3063.3854	3541.375
3065.7759	3533.575
3068.16494	3509.675
3070.55254	3504.375
3072.93868	3501.575
3075.32338	3491.375
3077.70662	3481.975
3080.08842	3462.475
3082.46878	3464.575
3084.84769	3451.575
3087.22515	3450.875
3089.60118	3452.575
3091.97576	3446.075
3094.3489	3452.375
3096.72061	3438.075
3099.09087	3445.875
3101.4597	3444.275
3103.82709	3431.475
3106.19305	3417.875
3108.55757	3425.575
3110.92066	3421.975
3113.28232	3425.775
3115.64255	3400.475
3118.00134	3395.475
3120.35871	3394.675
3122.71466	3377.175
3125.06917	3374.175
3127.42226	3363.075
3129.77393	3373.475
3132.12417	3356.375
3134.47299	3366.275
3136.82039	3373.075
3139.16636	3352.175
3141.51092	3338.875
3143.85406	3345.075
3146.19579	3332.675
3148.53609	3336.475
3150.87499	3328.675
3153.21246	3341.375
3155.54853	3356.075
3157.88318	3342.775
3160.21642	3338.775
3162.54826	3334.075
3164.87868	3329.175
3167.2077	3317.775
3169.5353	3320.075
3171.86151	3324.575
3174.18631	3325.275
3176.5097	3298.575
3178.83169	3304.475
3181.15228	3288.275
3183.47147	3292.775
3185.78926	3290.875
3188.10565	3281.975
3190.42065	3279.775
3192.73424	3273.575
3195.04645	3272.175
3197.35725	3266.575
3199.66667	3266.075
3201.97469	3262.675
3204.28132	3276.375
3206.58656	3262.875
3208.8904	3268.575
3211.19287	3274.375
3213.49394	3267.275
3215.79363	3255.575
3218.09193	3270.975
3220.38884	3244.875
3222.68438	3258.375
3224.97853	3251.775
3227.2713	3247.675
3229.56269	3242.575
