Data from AgNPs_UA_5uM_CRN_500uM_SU_RamanShift__78__11-42-23-154.txt Node

Date: Thu Aug 04 11:42:23 BST 2022
User: TCL
Spectrometer: QEP01345
Trigger mode: 4
Integration Time (sec): 1.000000E0
Scans to average: 10
Electric dark correction enabled: true
Nonlinearity correction enabled: false
Boxcar width: 0
XAxis mode: Raman Shifts
Number of Pixels in Spectrum: 1044
>>>>>Begin Spectral Data<<<<<
46.04893	0.5375
50.45542	0.4375
54.85868	0.2375
59.25871	-1.0625
63.6555	-61.1625
68.04907	-44.7625
72.43941	-73.1625
76.82654	-59.9625
81.21044	-59.4625
85.59113	-51.2625
89.96862	-80.0625
94.34289	-59.9625
98.71396	-80.7625
103.08183	-62.3625
107.4465	-54.4625
111.80798	-61.2625
116.16626	-49.3625
120.52136	-79.6625
124.87327	-54.8625
129.222	-68.8625
133.56755	-56.5625
137.90993	-69.4625
142.24913	-59.4625
146.58517	-54.3625
150.91804	-51.0625
155.24774	-42.9625
159.57429	-26.6625
163.89768	-29.1625
168.21792	5.7375
172.53501	14.7375
176.84895	80.9375
181.15975	183.7375
185.46741	291.4375
189.77193	420.1375
194.07331	640.1375
198.37157	851.4375
202.6667	1055.6375
206.9587	1296.4375
211.24758	1536.9375
215.53334	1769.0375
219.81599	2035.2375
224.09553	2332.8375
228.37195	2648.9375
232.64527	2968.0375
236.91549	3284.1375
241.18261	3535.9375
245.44663	3783.1375
249.70755	3941.4375
253.96539	4128.3375
258.22014	4268.7375
262.4718	4384.2375
266.72039	4466.3375
270.96589	4461.5375
275.20832	4402.7375
279.44768	4331.8375
283.68397	4238.1375
287.91719	4177.4375
292.14735	4169.2375
296.37445	4247.9375
300.59849	4426.6375
304.81948	4634.7375
309.03742	4890.7375
313.25231	5071.4375
317.46415	5052.4375
321.67296	4761.9375
325.87872	4463.8375
330.08145	4291.1375
334.28114	4292.4375
338.47781	4364.1375
342.67145	4483.5375
346.86207	4684.3375
351.04966	4965.2375
355.23424	5257.8375
359.4158	5437.7375
363.59435	5376.0375
367.76989	5284.7375
371.94243	5186.3375
376.11196	5107.3375
380.27849	5055.4375
384.44203	5029.9375
388.60257	5011.8375
392.76012	5053.9375
396.91468	5135.5375
401.06626	5243.1375
405.21485	5239.3375
409.36047	5173.0375
413.50311	5006.7375
417.64277	4824.0375
421.77947	4706.4375
425.9132	4675.1375
430.04396	4652.7375
434.17176	4684.7375
438.2966	4756.5375
442.41849	4813.0375
446.53742	4885.0375
450.6534	4944.4375
454.76644	4994.4375
458.87653	5010.7375
462.98368	4983.7375
467.08789	4954.0375
471.18916	4935.9375
475.2875	4885.3375
479.38291	4857.5375
483.4754	4829.3375
487.56496	4837.1375
491.6516	4819.0375
495.73531	4817.9375
499.81612	4828.8375
503.89401	4927.7375
507.96899	4942.4375
512.04106	5015.5375
516.11023	5070.2375
520.1765	5138.1375
524.23987	5167.9375
528.30034	5184.1375
532.35792	5140.5375
536.41261	5117.1375
540.46441	5068.5375
544.51333	5047.9375
548.55936	5060.5375
552.60252	5135.1375
556.64279	5195.1375
560.6802	5294.8375
564.71473	5447.0375
568.7464	5658.3375
572.7752	5654.2375
576.80114	5373.9375
580.82422	5168.6375
584.84444	5084.5375
588.86181	5085.5375
592.87633	5108.7375
596.888	5171.6375
600.89682	5375.7375
604.9028	5932.3375
608.90594	7224.1375
612.90624	8736.4375
616.90371	8271.0375
620.89834	6371.2375
624.89015	5532.5375
628.87913	5461.2375
632.86528	5590.4375
636.84862	5700.8375
640.82913	5554.9375
644.80683	5352.9375
648.78172	5280.7375
652.75379	5303.0375
656.72306	5486.6375
660.68952	5644.9375
664.65319	5581.5375
668.61405	5417.7375
672.57211	5335.5375
676.52738	5397.4375
680.47986	5365.5375
684.42955	5325.3375
688.37646	5326.6375
692.32058	5338.6375
696.26192	5380.1375
700.20048	5438.6375
704.13626	5457.3375
708.06928	5437.2375
711.99952	5451.6375
715.927	5458.0375
719.85171	5504.4375
723.77365	5534.7375
727.69284	5506.9375
731.60928	5511.0375
735.52295	5482.1375
739.43388	5529.4375
743.34206	5538.1375
747.24749	5570.8375
751.15017	5585.9375
755.05012	5633.2375
758.94733	5891.4375
762.8418	6388.2375
766.73354	7155.1375
770.62254	7601.4375
774.50882	7478.7375
778.39237	7237.6375
782.27321	6822.2375
786.15132	6305.9375
790.02671	5932.8375
793.89938	5701.2375
797.76935	5667.9375
801.6366	5617.3375
805.50115	5615.1375
809.36299	5628.6375
813.22213	5612.0375
817.07857	5621.5375
820.93231	5621.6375
824.78336	5667.4375
828.63172	5697.7375
832.47738	5687.9375
836.32036	5697.4375
840.16066	5670.7375
843.99827	5691.2375
847.8332	5666.4375
851.66546	5657.4375
855.49504	5645.9375
859.32195	5695.4375
863.1462	5683.2375
866.96777	5695.6375
870.78668	5681.6375
874.60293	5726.4375
878.41652	5740.1375
882.22745	5793.2375
886.03573	5802.2375
889.84136	5815.1375
893.64433	5818.6375
897.44466	5816.1375
901.24235	5808.3375
905.0374	5837.2375
908.8298	5780.3375
912.61957	5767.7375
916.40671	5700.4375
920.19121	5739.3375
923.97308	5802.1375
927.75233	5822.6375
931.52895	5899.5375
935.30295	5915.2375
939.07433	5796.3375
942.84309	5714.3375
946.60924	5697.0375
950.37278	5671.8375
954.13371	5665.0375
957.89203	5674.2375
961.64774	5677.6375
965.40086	5668.1375
969.15137	5632.2375
972.89929	5669.0375
976.64461	5644.2375
980.38733	5671.1375
984.12747	5656.0375
987.86502	5657.7375
991.59999	5685.3375
995.33237	5717.6375
999.06217	5760.6375
1002.78939	5793.8375
1006.51404	5880.4375
1010.23611	5895.2375
1013.95561	5915.4375
1017.67255	5903.1375
1021.38692	5872.5375
1025.09872	5865.0375
1028.80796	5808.8375
1032.51465	5816.0375
1036.21877	5827.3375
1039.92035	5840.3375
1043.61937	5865.5375
1047.31584	5899.4375
1051.00976	5929.3375
1054.70114	5930.7375
1058.38998	5931.7375
1062.07627	5918.2375
1065.76003	5924.2375
1069.44126	5970.8375
1073.11995	6039.5375
1076.79611	6100.2375
1080.46974	6218.6375
1084.14085	6329.6375
1087.80943	6441.5375
1091.47549	6438.7375
1095.13903	6384.8375
1098.80005	6295.5375
1102.45857	6222.1375
1106.11456	6212.1375
1109.76805	6164.0375
1113.41903	6236.1375
1117.06751	6340.6375
1120.71348	6525.0375
1124.35696	6763.0375
1127.99793	6955.4375
1131.63641	6845.1375
1135.2724	6562.7375
1138.90589	6353.4375
1142.5369	6216.3375
1146.16542	6161.0375
1149.79145	6094.6375
1153.415	6052.6375
1157.03607	6052.9375
1160.65467	6089.1375
1164.27079	6193.3375
1167.88443	6316.9375
1171.49561	6529.4375
1175.10432	6887.9375
1178.71056	7367.9375
1182.31434	7779.3375
1185.91565	7780.9375
1189.51451	7549.0375
1193.11091	7302.7375
1196.70485	7102.1375
1200.29634	6991.7375
1203.88538	6865.0375
1207.47197	6633.1375
1211.05612	6451.0375
1214.63782	6293.6375
1218.21708	6238.5375
1221.79391	6202.1375
1225.36829	6149.0375
1228.94024	6164.4375
1232.50976	6172.1375
1236.07685	6187.0375
1239.6415	6207.5375
1243.20374	6242.1375
1246.76355	6288.6375
1250.32093	6337.4375
1253.8759	6376.9375
1257.42845	6500.0375
1260.97859	6625.4375
1264.52631	6779.6375
1268.07163	6839.9375
1271.61453	6885.9375
1275.15503	6859.1375
1278.69312	6809.7375
1282.22882	6854.9375
1285.76211	6970.8375
1289.29301	7121.2375
1292.82151	7307.9375
1296.34761	7364.5375
1299.87133	7534.0375
1303.39266	7880.7375
1306.9116	8586.8375
1310.42815	9385.9375
1313.94233	9749.0375
1317.45412	9202.8375
1320.96354	8396.0375
1324.47058	7743.4375
1327.97525	7263.9375
1331.47754	6993.9375
1334.97747	6891.9375
1338.47502	6895.3375
1341.97022	7107.0375
1345.46305	7539.8375
1348.95352	8100.0375
1352.44163	8693.3375
1355.92738	9314.4375
1359.41078	10324.3375
1362.89183	11468.7375
1366.37053	11231.6375
1369.84688	9561.5375
1373.32088	8039.9375
1376.79254	7335.7375
1380.26186	6979.7375
1383.72883	6720.0375
1387.19347	6468.3375
1390.65578	6255.5375
1394.11575	6148.2375
1397.57339	6093.2375
1401.0287	6039.6375
1404.48168	6022.8375
1407.93234	6020.3375
1411.38068	6045.1375
1414.82669	6096.9375
1418.27039	6178.6375
1421.71177	6193.4375
1425.15083	6135.4375
1428.58758	6140.7375
1432.02203	6178.3375
1435.45416	6268.3375
1438.88399	6194.4375
1442.31151	6118.0375
1445.73673	6106.4375
1449.15965	6083.4375
1452.58027	6078.3375
1455.9986	6050.9375
1459.41463	6035.1375
1462.82837	6067.5375
1466.23982	6110.8375
1469.64898	6201.2375
1473.05586	6213.0375
1476.46045	6256.7375
1479.86276	6264.2375
1483.26279	6338.5375
1486.66054	6489.3375
1490.05602	6678.5375
1493.44922	6952.5375
1496.84016	7424.0375
1500.22882	8141.1375
1503.61521	9088.5375
1506.99934	10247.3375
1510.38121	11330.9375
1513.76081	11687.6375
1517.13816	10906.4375
1520.51324	9490.9375
1523.88607	8271.0375
1527.25665	7446.0375
1530.62498	7010.8375
1533.99105	6751.3375
1537.35488	6597.4375
1540.71647	6504.1375
1544.07581	6455.1375
1547.4329	6448.4375
1550.78776	6484.3375
1554.14038	6514.6375
1557.49077	6592.1375
1560.83892	6761.6375
1564.18484	6981.5375
1567.52853	7247.1375
1570.86999	7421.1375
1574.20922	7445.8375
1577.54624	7343.9375
1580.88103	7052.9375
1584.2136	6622.2375
1587.54395	6439.1375
1590.87208	6414.3375
1594.19801	6467.2375
1597.52172	6624.2375
1600.84321	6654.9375
1604.16251	6531.2375
1607.47959	6383.2375
1610.79447	6280.5375
1614.10715	6163.4375
1617.41763	6074.0375
1620.7259	6007.4375
1624.03199	6004.3375
1627.33587	5977.8375
1630.63757	6006.6375
1633.93707	6154.1375
1637.23439	6391.3375
1640.52951	6819.5375
1643.82246	7465.1375
1647.11321	8312.2375
1650.40179	8921.0375
1653.68819	8827.3375
1656.97241	8001.7375
1660.25446	7069.7375
1663.53433	6432.7375
1666.81203	6057.5375
1670.08756	5875.3375
1673.36092	5792.2375
1676.63211	5693.0375
1679.90115	5671.1375
1683.16801	5636.4375
1686.43272	5562.7375
1689.69527	5571.1375
1692.95567	5523.7375
1696.2139	5523.7375
1699.46999	5477.6375
1702.72392	5494.3375
1705.97571	5510.5375
1709.22535	5487.8375
1712.47284	5541.5375
1715.71819	5552.8375
1718.96139	5550.3375
1722.20246	5557.6375
1725.44139	5527.9375
1728.67818	5517.8375
1731.91284	5483.5375
1735.14537	5464.6375
1738.37576	5465.2375
1741.60403	5460.0375
1744.83017	5436.7375
1748.05418	5447.1375
1751.27607	5457.8375
1754.49584	5416.6375
1757.71349	5385.9375
1760.92903	5398.2375
1764.14244	5344.3375
1767.35375	5359.9375
1770.56294	5353.2375
1773.77002	5337.5375
1776.97499	5354.7375
1780.17785	5340.8375
1783.37861	5340.4375
1786.57727	5369.6375
1789.77382	5307.3375
1792.96828	5330.8375
1796.16064	5348.5375
1799.3509	5320.2375
1802.53907	5346.5375
1805.72514	5309.4375
1808.90913	5289.2375
1812.09102	5285.2375
1815.27083	5297.1375
1818.44856	5293.2375
1821.6242	5271.0375
1824.79776	5261.1375
1827.96924	5250.9375
1831.13864	5221.0375
1834.30597	5244.0375
1837.47122	5220.1375
1840.6344	5213.3375
1843.7955	5217.0375
1846.95454	5204.2375
1850.11151	5227.7375
1853.26642	5192.6375
1856.41926	5199.9375
1859.57004	5202.6375
1862.71876	5196.4375
1865.86542	5208.2375
1869.01003	5216.2375
1872.15258	5189.7375
1875.29308	5206.0375
1878.43152	5197.7375
1881.56792	5166.1375
1884.70227	5155.8375
1887.83457	5155.8375
1890.96482	5135.0375
1894.09304	5142.6375
1897.21921	5135.7375
1900.34335	5154.4375
1903.46544	5110.5375
1906.58551	5151.3375
1909.70353	5119.3375
1912.81953	5117.1375
1915.93349	5110.9375
1919.04543	5085.7375
1922.15534	5086.4375
1925.26322	5081.4375
1928.36908	5064.3375
1931.47292	5060.1375
1934.57473	5075.3375
1937.67453	5046.9375
1940.77232	5009.9375
1943.86808	5005.3375
1946.96184	4997.4375
1950.05358	4974.0375
1953.14331	4951.3375
1956.23103	4963.4375
1959.31675	4925.2375
1962.40046	4903.3375
1965.48217	4900.9375
1968.56188	4904.8375
1971.63959	4891.4375
1974.7153	4863.9375
1977.78901	4874.5375
1980.86073	4856.6375
1983.93046	4820.0375
1986.99819	4744.1375
1990.06394	4772.8375
1993.1277	4800.9375
1996.18947	4767.5375
1999.24925	4750.9375
2002.30706	4760.6375
2005.36288	4735.8375
2008.41672	4726.1375
2011.46859	4685.6375
2014.51848	4681.6375
2017.56639	4675.4375
2020.61233	4639.2375
2023.6563	4650.7375
2026.6983	4600.4375
2029.73833	4615.6375
2032.7764	4640.6375
2035.8125	4586.8375
2038.84664	4588.6375
2041.87881	4564.4375
2044.90903	4589.9375
2047.93729	4560.8375
2050.96359	4546.8375
2053.98794	4551.1375
2057.01034	4552.1375
2060.03078	4531.6375
2063.04927	4525.6375
2066.06582	4536.9375
2069.08042	4515.0375
2072.09307	4535.0375
2075.10378	4538.0375
2078.11255	4523.2375
2081.11938	4526.4375
2084.12426	4525.1375
2087.12722	4513.2375
2090.12824	4512.0375
2093.12732	4527.8375
2096.12447	4519.2375
2099.11969	4528.6375
2102.11299	4506.8375
2105.10435	4547.3375
2108.09379	4528.8375
2111.08131	4505.1375
2114.0669	4512.6375
2117.05057	4529.3375
2120.03233	4518.5375
2123.01216	4546.0375
2125.99008	4537.0375
2128.96609	4533.0375
2131.94018	4567.0375
2134.91236	4541.3375
2137.88263	4534.9375
2140.851	4530.8375
2143.81746	4567.2375
2146.78201	4559.5375
2149.74466	4552.7375
2152.7054	4553.5375
2155.66425	4548.2375
2158.6212	4545.4375
2161.57625	4519.3375
2164.52941	4503.8375
2167.48067	4508.4375
2170.43004	4531.9375
2173.37752	4534.9375
2176.32311	4525.9375
2179.26681	4528.3375
2182.20863	4546.4375
2185.14856	4530.7375
2188.08661	4532.3375
2191.02278	4552.0375
2193.95707	4538.7375
2196.88948	4514.1375
2199.82001	4513.8375
2202.74867	4503.3375
2205.67545	4509.6375
2208.60037	4514.7375
2211.52341	4501.7375
2214.44458	4498.2375
2217.36388	4465.1375
2220.28132	4463.3375
2223.1969	4435.1375
2226.11061	4443.5375
2229.02246	4442.2375
2231.93245	4436.7375
2234.84058	4425.9375
2237.74686	4403.6375
2240.65128	4409.4375
2243.55385	4406.0375
2246.45456	4376.9375
2249.35343	4402.5375
2252.25044	4383.4375
2255.14561	4394.2375
2258.03893	4387.9375
2260.93041	4366.6375
2263.82004	4386.8375
2266.70783	4368.1375
2269.59378	4355.3375
2272.4779	4320.1375
2275.36017	4333.4375
2278.24061	4315.9375
2281.11922	4285.5375
2283.996	4294.3375
2286.87094	4270.1375
2289.74405	4279.0375
2292.61534	4274.1375
2295.4848	4275.3375
2298.35243	4257.0375
2301.21824	4255.8375
2304.08223	4263.6375
2306.94439	4250.1375
2309.80474	4255.2375
2312.66327	4248.1375
2315.51999	4238.1375
2318.37489	4244.4375
2321.22797	4207.8375
2324.07925	4205.9375
2326.92871	4199.2375
2329.77637	4180.5375
2332.62222	4194.9375
2335.46626	4162.7375
2338.3085	4161.5375
2341.14893	4170.1375
2343.98756	4177.5375
2346.8244	4141.4375
2349.65943	4136.5375
2352.49267	4141.9375
2355.32411	4153.2375
2358.15376	4134.6375
2360.98161	4140.6375
2363.80768	4114.3375
2366.63195	4135.9375
2369.45444	4145.8375
2372.27514	4133.2375
2375.09405	4140.7375
2377.91118	4105.8375
2380.72652	4094.4375
2383.54009	4088.7375
2386.35187	4101.2375
2389.16188	4077.7375
2391.97011	4076.8375
2394.77657	4060.3375
2397.58125	4061.1375
2400.38416	4051.8375
2403.18529	4043.0375
2405.98466	4028.1375
2408.78226	4041.8375
2411.57809	4018.2375
2414.37216	4011.6375
2417.16446	4011.0375
2419.955	3991.4375
2422.74378	4005.4375
2425.5308	3991.1375
2428.31606	3985.5375
2431.09956	3996.2375
2433.88131	3962.6375
2436.6613	3977.3375
2439.43954	3964.3375
2442.21603	3975.2375
2444.99077	3957.8375
2447.76377	3972.1375
2450.53501	3953.7375
2453.30451	3943.3375
2456.07226	3954.8375
2458.83827	3946.7375
2461.60254	3876.0375
2464.36507	3922.7375
2467.12586	3904.5375
2469.88492	3913.4375
2472.64224	3905.3375
2475.39782	3886.1375
2478.15167	3893.6375
2480.90379	3871.8375
2483.65417	3900.0375
2486.40283	3903.7375
2489.14976	3905.4375
2491.89497	3874.2375
2494.63845	3882.7375
2497.3802	3868.1375
2500.12024	3859.0375
2502.85855	3865.8375
2505.59514	3871.3375
2508.33002	3848.8375
2511.06318	3826.6375
2513.79462	3827.3375
2516.52435	3797.0375
2519.25237	3784.0375
2521.97867	3795.3375
2524.70327	3787.8375
2527.42616	3792.8375
2530.14734	3790.0375
2532.86681	3772.8375
2535.58458	3770.5375
2538.30065	3755.2375
2541.01501	3771.3375
2543.72768	3755.1375
2546.43864	3759.6375
2549.14791	3760.0375
2551.85548	3728.2375
2554.56136	3728.0375
2557.26554	3739.9375
2559.96803	3715.8375
2562.66883	3727.3375
2565.36794	3697.1375
2568.06536	3652.5375
2570.7611	3688.7375
2573.45514	3679.6375
2576.14751	3678.9375
2578.83819	3669.3375
2581.52719	3638.6375
2584.21451	3646.9375
2586.90015	3626.6375
2589.58411	3608.9375
2592.2664	3633.1375
2594.94701	3629.0375
2597.62594	3609.3375
2600.30321	3550.4375
2602.9788	3563.0375
2605.65273	3565.6375
2608.32498	3558.6375
2610.99557	3582.1375
2613.66449	3543.7375
2616.33175	3555.5375
2618.99734	3566.1375
2621.66128	3563.9375
2624.32355	3533.6375
2626.98416	3511.1375
2629.64311	3515.0375
2632.30041	3507.3375
2634.95605	3495.5375
2637.61004	3484.9375
2640.26238	3462.9375
2642.91306	3464.3375
2645.56209	3497.4375
2648.20948	3477.3375
2650.85521	3461.2375
2653.4993	3480.8375
2656.14175	3474.2375
2658.78255	3448.8375
2661.42171	3428.1375
2664.05923	3462.3375
2666.6951	3467.5375
2669.32934	3470.4375
2671.96194	3480.0375
2674.59291	3456.9375
2677.22224	3465.9375
2679.84993	3458.8375
2682.476	3450.4375
2685.10043	3455.6375
2687.72324	3439.3375
2690.34441	3438.7375
2692.96396	3431.2375
2695.58188	3451.2375
2698.19818	3436.7375
2700.81285	3429.9375
2703.4259	3426.5375
2706.03733	3395.4375
2708.64714	3399.6375
2711.25533	3418.3375
2713.86191	3436.7375
2716.46687	3418.5375
2719.07021	3410.0375
2721.67194	3421.4375
2724.27206	3424.1375
2726.87057	3409.8375
2729.46747	3415.8375
2732.06276	3410.4375
2734.65644	3385.8375
2737.24852	3402.1375
2739.83899	3383.2375
2742.42786	3379.0375
2745.01513	3391.5375
2747.60079	3386.5375
2750.18486	3359.9375
2752.76733	3366.2375
2755.3482	3351.3375
2757.92747	3349.3375
2760.50515	3334.2375
2763.08123	3342.1375
2765.65573	3332.5375
2768.22863	3317.1375
2770.79994	3311.0375
2773.36967	3314.2375
2775.9378	3306.2375
2778.50435	3293.6375
2781.06932	3292.7375
2783.6327	3265.8375
2786.1945	3291.0375
2788.75471	3274.8375
2791.31335	3261.5375
2793.87041	3274.5375
2796.42589	3252.2375
2798.97979	3234.2375
2801.53212	3226.3375
2804.08288	3244.3375
2806.63206	3232.8375
2809.17967	3205.7375
2811.72571	3213.4375
2814.27018	3206.2375
2816.81308	3196.2375
2819.35442	3161.6375
2821.89419	3169.1375
2824.43239	3167.5375
2826.96904	3192.0375
2829.50412	3164.6375
2832.03763	3171.3375
2834.56959	3165.2375
2837.1	3155.3375
2839.62884	3160.0375
2842.15613	3153.8375
2844.68186	3165.8375
2847.20604	3135.6375
2849.72867	3127.1375
2852.24974	3129.8375
2854.76927	3091.4375
2857.28724	3047.7375
2859.80367	3110.3375
2862.31855	3113.3375
2864.83189	3096.1375
2867.34368	3103.0375
2869.85393	3113.8375
2872.36264	3075.1375
2874.8698	3093.2375
2877.37543	3093.7375
2879.87952	3085.5375
2882.38207	3060.0375
2884.88308	3067.9375
2887.38256	3068.5375
2889.88051	3067.3375
2892.37692	3070.5375
2894.8718	3039.9375
2897.36515	3054.6375
2899.85698	3057.2375
2902.34727	3042.4375
2904.83604	3039.6375
2907.32328	3046.9375
2909.809	3053.7375
2912.29319	3040.9375
2914.77587	3054.4375
2917.25702	3051.6375
2919.73665	3062.5375
2922.21476	3072.5375
2924.69136	3059.9375
2927.16644	3042.1375
2929.64	3048.9375
2932.11205	3040.2375
2934.58258	3021.9375
2937.05161	3019.1375
2939.51912	3020.1375
2941.98513	3041.3375
2944.44962	3027.0375
2946.91261	3000.6375
2949.37409	3008.4375
2951.83407	3002.4375
2954.29254	3004.9375
2956.74951	3008.4375
2959.20498	3005.4375
2961.65895	3006.0375
2964.11142	2987.1375
2966.56239	2988.7375
2969.01186	3008.4375
2971.45984	3000.8375
2973.90632	2985.9375
2976.35131	2997.1375
2978.7948	2986.8375
2981.23681	2980.3375
2983.67732	2986.7375
2986.11635	2979.2375
2988.55388	2947.1375
2990.98993	2968.7375
2993.4245	2933.1375
2995.85758	2940.4375
2998.28917	2932.3375
3000.71928	2931.3375
3003.14791	2922.0375
3005.57506	2898.2375
3008.00073	2903.1375
3010.42493	2836.8375
3012.84764	2899.7375
3015.26888	2908.6375
3017.68865	2888.2375
3020.10694	2837.8375
3022.52376	2859.6375
3024.9391	2867.2375
3027.35298	2848.9375
3029.76539	2832.5375
3032.17632	2837.2375
3034.5858	2842.6375
3036.9938	2852.0375
3039.40034	2834.4375
3041.80542	2829.5375
3044.20903	2805.0375
3046.61118	2805.6375
3049.01187	2819.1375
3051.4111	2802.0375
3053.80888	2797.9375
3056.20519	2781.5375
3058.60005	2765.7375
3060.99345	2780.9375
3063.3854	2758.8375
3065.7759	2755.6375
3068.16494	2742.4375
3070.55254	2740.4375
3072.93868	2740.3375
3075.32338	2729.9375
3077.70662	2726.9375
3080.08842	2716.7375
3082.46878	2715.9375
3084.84769	2725.5375
3087.22515	2702.7375
3089.60118	2722.0375
3091.97576	2708.4375
3094.3489	2715.4375
3096.72061	2709.5375
3099.09087	2692.6375
3101.4597	2713.4375
3103.82709	2710.2375
3106.19305	2687.0375
3108.55757	2689.3375
3110.92066	2675.1375
3113.28232	2700.6375
3115.64255	2690.8375
3118.00134	2679.8375
3120.35871	2667.8375
3122.71466	2660.3375
3125.06917	2672.3375
3127.42226	2644.1375
