Data from AgNPs_UA_5uM_CRN_500uM_SU_RamanShift__73__11-41-33-153.txt Node

Date: Thu Aug 04 11:41:33 BST 2022
User: TCL
Spectrometer: QEP01345
Trigger mode: 4
Integration Time (sec): 1.000000E0
Scans to average: 10
Electric dark correction enabled: true
Nonlinearity correction enabled: false
Boxcar width: 0
XAxis mode: Raman Shifts
Number of Pixels in Spectrum: 1044
>>>>>Begin Spectral Data<<<<<
46.04893	-0.725
50.45542	-0.325
54.85868	0.375
59.25871	-0.325
63.6555	-56.725
68.04907	-38.225
72.43941	-70.925
76.82654	-55.225
81.21044	-55.425
85.59113	-48.825
89.96862	-74.125
94.34289	-54.925
98.71396	-76.225
103.08183	-56.325
107.4465	-48.225
111.80798	-55.125
116.16626	-43.425
120.52136	-74.625
124.87327	-48.425
129.222	-62.325
133.56755	-46.225
137.90993	-59.425
142.24913	-46.125
146.58517	-39.425
150.91804	-33.925
155.24774	-21.625
159.57429	1.575
163.89768	9.575
168.21792	59.975
172.53501	92.975
176.84895	187.475
181.15975	342.875
185.46741	512.875
189.77193	727.475
194.07331	1068.775
198.37157	1398.975
202.6667	1735.475
206.9587	2139.175
211.24758	2526.675
215.53334	2937.675
219.81599	3410.875
224.09553	3957.175
228.37195	4516.375
232.64527	5068.275
236.91549	5576.875
241.18261	5903.975
245.44663	6131.675
249.70755	6276.975
253.96539	6397.675
258.22014	6524.175
262.4718	6652.075
266.72039	6693.875
270.96589	6636.375
275.20832	6486.475
279.44768	6304.675
283.68397	6132.475
287.91719	6067.875
292.14735	6122.775
296.37445	6392.275
300.59849	6862.675
304.81948	7506.775
309.03742	8247.775
313.25231	8799.275
317.46415	8714.175
321.67296	7931.375
325.87872	7044.275
330.08145	6547.475
334.28114	6446.175
338.47781	6607.075
342.67145	6893.675
346.86207	7402.575
351.04966	8124.275
355.23424	8884.275
359.4158	9234.175
363.59435	9047.875
367.76989	8648.675
371.94243	8274.075
376.11196	7950.675
380.27849	7771.975
384.44203	7591.575
388.60257	7528.575
392.76012	7542.675
396.91468	7745.175
401.06626	7991.775
405.21485	7995.975
409.36047	7697.575
413.50311	7167.975
417.64277	6670.275
421.77947	6346.775
425.9132	6212.575
430.04396	6124.975
434.17176	6143.775
438.2966	6237.275
442.41849	6347.475
446.53742	6493.875
450.6534	6599.775
454.76644	6654.175
458.87653	6630.375
462.98368	6576.375
467.08789	6512.175
471.18916	6383.675
475.2875	6236.875
479.38291	6118.075
483.4754	6017.375
487.56496	6015.275
491.6516	5962.775
495.73531	5964.275
499.81612	6016.075
503.89401	6136.175
507.96899	6210.575
512.04106	6373.875
516.11023	6513.375
520.1765	6632.975
524.23987	6685.775
528.30034	6664.375
532.35792	6576.475
536.41261	6497.575
540.46441	6377.575
544.51333	6283.675
548.55936	6302.075
552.60252	6423.075
556.64279	6546.775
560.6802	6792.075
564.71473	7246.575
568.7464	7843.975
572.7752	7792.875
576.80114	7008.975
580.82422	6398.275
584.84444	6121.575
588.86181	6054.175
592.87633	6094.075
596.888	6222.875
600.89682	6679.975
604.9028	8117.575
608.90594	11594.975
612.90624	15813.275
616.90371	14556.575
620.89834	9334.275
624.89015	7072.875
628.87913	6826.675
632.86528	7175.075
636.84862	7341.875
640.82913	6977.175
644.80683	6404.575
648.78172	6153.075
652.75379	6254.275
656.72306	6652.975
660.68952	7071.475
664.65319	6904.175
668.61405	6399.175
672.57211	6246.175
676.52738	6261.875
680.47986	6197.975
684.42955	6067.575
688.37646	6038.975
692.32058	6055.675
696.26192	6155.475
700.20048	6272.375
704.13626	6279.175
708.06928	6211.575
711.99952	6209.375
715.927	6191.775
719.85171	6309.275
723.77365	6412.875
727.69284	6337.275
731.60928	6284.175
735.52295	6233.475
739.43388	6262.775
743.34206	6298.075
747.24749	6338.975
751.15017	6343.175
755.05012	6500.675
758.94733	7179.375
762.8418	8652.575
766.73354	10666.175
770.62254	11750.775
774.50882	11405.175
778.39237	10698.575
782.27321	9585.375
786.15132	8081.075
790.02671	7060.575
793.89938	6555.175
797.76935	6389.475
801.6366	6289.075
805.50115	6252.375
809.36299	6219.275
813.22213	6237.875
817.07857	6251.575
820.93231	6260.675
824.78336	6298.275
828.63172	6379.075
832.47738	6413.875
836.32036	6375.375
840.16066	6281.175
843.99827	6240.275
847.8332	6205.375
851.66546	6185.875
855.49504	6191.075
859.32195	6222.275
863.1462	6185.575
866.96777	6186.575
870.78668	6176.875
874.60293	6236.975
878.41652	6266.575
882.22745	6371.775
886.03573	6388.975
889.84136	6389.375
893.64433	6381.075
897.44466	6368.075
901.24235	6370.275
905.0374	6339.075
908.8298	6240.975
912.61957	6205.875
916.40671	6124.775
920.19121	6163.675
923.97308	6281.175
927.75233	6463.175
931.52895	6661.375
935.30295	6568.275
939.07433	6270.075
942.84309	6052.875
946.60924	6020.275
950.37278	5962.275
954.13371	5962.075
957.89203	5953.275
961.64774	5981.975
965.40086	5948.875
969.15137	5927.075
972.89929	5949.575
976.64461	5941.975
980.38733	5932.875
984.12747	5913.175
987.86502	5944.875
991.59999	5973.575
995.33237	6002.575
999.06217	6085.475
1002.78939	6189.175
1006.51404	6345.575
1010.23611	6446.175
1013.95561	6406.875
1017.67255	6322.375
1021.38692	6252.275
1025.09872	6197.375
1028.80796	6112.675
1032.51465	6129.875
1036.21877	6137.075
1039.92035	6186.275
1043.61937	6228.975
1047.31584	6271.375
1051.00976	6310.975
1054.70114	6314.375
1058.38998	6283.775
1062.07627	6274.075
1065.76003	6286.175
1069.44126	6362.875
1073.11995	6423.275
1076.79611	6617.575
1080.46974	6891.275
1084.14085	7243.575
1087.80943	7524.575
1091.47549	7536.975
1095.13903	7289.875
1098.80005	7029.675
1102.45857	6913.875
1106.11456	6888.575
1109.76805	6859.675
1113.41903	7026.775
1117.06751	7340.075
1120.71348	7835.175
1124.35696	8585.175
1127.99793	9103.875
1131.63641	8673.875
1135.2724	7860.575
1138.90589	7315.275
1142.5369	7002.575
1146.16542	6807.875
1149.79145	6645.575
1153.415	6599.475
1157.03607	6611.075
1160.65467	6709.275
1164.27079	6922.575
1167.88443	7234.275
1171.49561	7791.675
1175.10432	8739.575
1178.71056	10034.875
1182.31434	10985.475
1185.91565	10917.675
1189.51451	10148.075
1193.11091	9330.175
1196.70485	8807.775
1200.29634	8574.375
1203.88538	8276.275
1207.47197	7714.075
1211.05612	7230.175
1214.63782	6882.975
1218.21708	6699.375
1221.79391	6630.975
1225.36829	6599.575
1228.94024	6612.275
1232.50976	6598.175
1236.07685	6636.275
1239.6415	6670.375
1243.20374	6730.875
1246.76355	6797.275
1250.32093	6938.675
1253.8759	7067.975
1257.42845	7346.075
1260.97859	7710.975
1264.52631	8090.175
1268.07163	8282.975
1271.61453	8294.875
1275.15503	8233.875
1278.69312	8107.575
1282.22882	8178.575
1285.76211	8596.275
1289.29301	9178.575
1292.82151	9584.275
1296.34761	9770.375
1299.87133	10238.475
1303.39266	11256.475
1306.9116	13261.675
1310.42815	15662.875
1313.94233	16438.575
1317.45412	14648.575
1320.96354	12132.775
1324.47058	10199.375
1327.97525	9001.275
1331.47754	8334.575
1334.97747	8112.675
1338.47502	8181.675
1341.97022	8707.175
1345.46305	9823.475
1348.95352	11381.375
1352.44163	13029.775
1355.92738	14897.175
1359.41078	18011.175
1362.89183	21479.375
1366.37053	20716.575
1369.84688	15784.975
1373.32088	11559.975
1376.79254	9701.775
1380.26186	8836.575
1383.72883	8218.275
1387.19347	7589.475
1390.65578	7100.475
1394.11575	6834.775
1397.57339	6679.375
1401.0287	6597.375
1404.48168	6503.175
1407.93234	6513.975
1411.38068	6556.475
1414.82669	6772.375
1418.27039	6978.475
1421.71177	7042.475
1425.15083	6922.075
1428.58758	6884.575
1432.02203	7091.575
1435.45416	7241.075
1438.88399	7120.975
1442.31151	6929.575
1445.73673	6897.975
1449.15965	6891.075
1452.58027	6831.375
1455.9986	6732.275
1459.41463	6689.275
1462.82837	6705.375
1466.23982	6838.475
1469.64898	7026.175
1473.05586	7103.175
1476.46045	7135.075
1479.86276	7186.275
1483.26279	7341.875
1486.66054	7684.775
1490.05602	8183.775
1493.44922	9022.675
1496.84016	10309.275
1500.22882	12329.875
1503.61521	15063.875
1506.99934	18465.175
1510.38121	21665.075
1513.76081	22690.975
1517.13816	20320.075
1520.51324	16158.675
1523.88607	12525.175
1527.25665	10255.875
1530.62498	8960.875
1533.99105	8245.275
1537.35488	7761.275
1540.71647	7481.675
1544.07581	7400.175
1547.4329	7389.575
1550.78776	7460.175
1554.14038	7590.775
1557.49077	7862.975
1560.83892	8331.375
1564.18484	8986.575
1567.52853	9775.475
1570.86999	10275.075
1574.20922	10346.575
1577.54624	10054.075
1580.88103	9119.575
1584.2136	7986.375
1587.54395	7338.275
1590.87208	7218.575
1594.19801	7417.175
1597.52172	7795.975
1600.84321	7839.775
1604.16251	7444.875
1607.47959	7069.775
1610.79447	6826.375
1614.10715	6594.975
1617.41763	6412.275
1620.7259	6308.975
1624.03199	6294.375
1627.33587	6349.875
1630.63757	6515.775
1633.93707	6863.975
1637.23439	7494.375
1640.52951	8630.875
1643.82246	10509.375
1647.11321	13016.575
1650.40179	14894.875
1653.68819	14619.475
1656.97241	12290.975
1660.25446	9613.175
1663.53433	7790.175
1666.81203	6785.875
1670.08756	6282.875
1673.36092	6017.675
1676.63211	5832.675
1679.90115	5714.975
1683.16801	5609.275
1686.43272	5533.575
1689.69527	5505.875
1692.95567	5429.075
1696.2139	5425.275
1699.46999	5367.675
1702.72392	5365.575
1705.97571	5391.075
1709.22535	5368.875
1712.47284	5436.875
1715.71819	5445.675
1718.96139	5449.575
1722.20246	5424.975
1725.44139	5407.875
1728.67818	5357.275
1731.91284	5326.975
1735.14537	5290.775
1738.37576	5257.175
1741.60403	5241.875
1744.83017	5231.675
1748.05418	5216.875
1751.27607	5215.575
1754.49584	5146.975
1757.71349	5129.175
1760.92903	5136.075
1764.14244	5062.675
1767.35375	5073.475
1770.56294	5045.575
1773.77002	5021.375
1776.97499	5037.675
1780.17785	4991.375
1783.37861	4978.475
1786.57727	5006.975
1789.77382	4938.775
1792.96828	4985.075
1796.16064	4983.375
1799.3509	4937.375
1802.53907	4973.475
1805.72514	4945.475
1808.90913	4924.575
1812.09102	4931.375
1815.27083	4921.375
1818.44856	4907.475
1821.6242	4896.275
1824.79776	4873.275
1827.96924	4866.875
1831.13864	4836.475
1834.30597	4839.575
1837.47122	4803.075
1840.6344	4794.675
1843.7955	4783.275
1846.95454	4767.575
1850.11151	4789.175
1853.26642	4745.675
1856.41926	4768.475
1859.57004	4754.675
1862.71876	4746.575
1865.86542	4762.975
1869.01003	4775.775
1872.15258	4725.075
1875.29308	4765.175
1878.43152	4762.775
1881.56792	4734.475
1884.70227	4714.075
1887.83457	4721.075
1890.96482	4686.675
1894.09304	4676.475
1897.21921	4680.875
1900.34335	4687.075
1903.46544	4653.175
1906.58551	4674.075
1909.70353	4685.375
1912.81953	4664.775
1915.93349	4648.375
1919.04543	4646.175
1922.15534	4625.375
1925.26322	4620.175
1928.36908	4598.975
1931.47292	4590.575
1934.57473	4593.075
1937.67453	4553.975
1940.77232	4518.875
1943.86808	4518.875
1946.96184	4503.875
1950.05358	4472.475
1953.14331	4468.475
1956.23103	4479.575
1959.31675	4447.775
1962.40046	4394.675
1965.48217	4441.675
1968.56188	4417.475
1971.63959	4423.775
1974.7153	4414.475
1977.78901	4405.175
1980.86073	4384.775
1983.93046	4327.275
1986.99819	4247.075
1990.06394	4284.675
1993.1277	4305.675
1996.18947	4273.675
1999.24925	4239.475
2002.30706	4245.875
2005.36288	4227.475
2008.41672	4210.775
2011.46859	4188.675
2014.51848	4183.175
2017.56639	4165.375
2020.61233	4137.975
2023.6563	4147.775
2026.6983	4103.575
2029.73833	4101.175
2032.7764	4112.775
2035.8125	4072.775
2038.84664	4075.475
2041.87881	4064.775
2044.90903	4062.675
2047.93729	4065.275
2050.96359	4031.075
2053.98794	4031.275
2057.01034	4050.975
2060.03078	4020.475
2063.04927	4007.075
2066.06582	4023.575
2069.08042	4001.775
2072.09307	4000.975
2075.10378	3994.575
2078.11255	3997.075
2081.11938	3992.975
2084.12426	3993.075
2087.12722	3982.675
2090.12824	3972.275
2093.12732	4000.375
2096.12447	3990.075
2099.11969	3980.775
2102.11299	3975.875
2105.10435	4000.075
2108.09379	3995.975
2111.08131	3981.675
2114.0669	3991.675
2117.05057	4000.375
2120.03233	3988.975
2123.01216	4015.575
2125.99008	4017.175
2128.96609	4016.475
2131.94018	4034.975
2134.91236	4016.975
2137.88263	4002.975
2140.851	4017.575
2143.81746	4028.975
2146.78201	4006.475
2149.74466	3992.175
2152.7054	3992.675
2155.66425	3971.875
2158.6212	3979.875
2161.57625	3951.975
2164.52941	3930.875
2167.48067	3953.275
2170.43004	3946.175
2173.37752	3971.375
2176.32311	3961.775
2179.26681	3963.975
2182.20863	3968.775
2185.14856	3981.975
2188.08661	3965.775
2191.02278	3987.875
2193.95707	3948.075
2196.88948	3930.375
2199.82001	3927.675
2202.74867	3938.075
2205.67545	3933.175
2208.60037	3948.575
2211.52341	3930.975
2214.44458	3904.775
2217.36388	3907.575
2220.28132	3893.675
2223.1969	3877.975
2226.11061	3855.975
2229.02246	3852.975
2231.93245	3859.075
2234.84058	3838.675
2237.74686	3811.575
2240.65128	3815.675
2243.55385	3811.875
2246.45456	3802.275
2249.35343	3824.275
2252.25044	3820.675
2255.14561	3840.975
2258.03893	3829.175
2260.93041	3831.875
2263.82004	3831.875
2266.70783	3833.275
2269.59378	3796.675
2272.4779	3771.275
2275.36017	3787.775
2278.24061	3769.775
2281.11922	3746.175
2283.996	3748.075
2286.87094	3723.275
2289.74405	3734.375
2292.61534	3731.575
2295.4848	3714.675
2298.35243	3711.175
2301.21824	3697.975
2304.08223	3690.275
2306.94439	3709.175
2309.80474	3699.075
2312.66327	3683.975
2315.51999	3686.275
2318.37489	3652.475
2321.22797	3659.275
2324.07925	3654.575
2326.92871	3639.875
2329.77637	3627.575
2332.62222	3625.775
2335.46626	3614.575
2338.3085	3598.475
2341.14893	3622.575
2343.98756	3629.175
2346.8244	3590.375
2349.65943	3598.975
2352.49267	3607.675
2355.32411	3618.175
2358.15376	3595.075
2360.98161	3624.475
2363.80768	3605.375
2366.63195	3607.775
2369.45444	3628.875
2372.27514	3636.075
2375.09405	3635.075
2377.91118	3596.275
2380.72652	3590.875
2383.54009	3582.175
2386.35187	3581.775
2389.16188	3560.975
2391.97011	3552.675
2394.77657	3541.875
2397.58125	3535.475
2400.38416	3525.075
2403.18529	3495.275
2405.98466	3492.675
2408.78226	3488.175
2411.57809	3481.575
2414.37216	3462.175
2417.16446	3470.275
2419.955	3453.475
2422.74378	3462.575
2425.5308	3453.275
2428.31606	3457.475
2431.09956	3461.075
2433.88131	3445.275
2436.6613	3452.075
2439.43954	3458.075
2442.21603	3450.375
2444.99077	3435.375
2447.76377	3450.375
2450.53501	3443.375
2453.30451	3449.275
2456.07226	3455.475
2458.83827	3422.375
2461.60254	3399.375
2464.36507	3442.575
2467.12586	3398.975
2469.88492	3414.375
2472.64224	3426.575
2475.39782	3396.275
2478.15167	3415.475
2480.90379	3414.475
2483.65417	3433.175
2486.40283	3426.675
2489.14976	3426.675
2491.89497	3427.475
2494.63845	3416.175
2497.3802	3412.875
2500.12024	3397.975
2502.85855	3392.575
2505.59514	3383.875
2508.33002	3371.075
2511.06318	3339.375
2513.79462	3332.675
2516.52435	3308.675
2519.25237	3268.575
2521.97867	3277.175
2524.70327	3273.775
2527.42616	3256.375
2530.14734	3265.775
2532.86681	3239.275
2535.58458	3263.875
2538.30065	3242.575
2541.01501	3266.075
2543.72768	3235.575
2546.43864	3240.175
2549.14791	3229.275
2551.85548	3231.275
2554.56136	3217.375
2557.26554	3234.575
2559.96803	3227.475
2562.66883	3221.275
2565.36794	3200.175
2568.06536	3173.575
2570.7611	3211.475
2573.45514	3184.475
2576.14751	3181.675
2578.83819	3166.875
2581.52719	3154.675
2584.21451	3153.875
2586.90015	3126.175
2589.58411	3111.475
2592.2664	3122.375
2594.94701	3129.775
2597.62594	3128.175
2600.30321	3062.575
2602.9788	3073.075
2605.65273	3067.175
2608.32498	3080.175
2610.99557	3103.175
2613.66449	3067.175
2616.33175	3082.875
2618.99734	3075.875
2621.66128	3072.075
2624.32355	3062.775
2626.98416	3037.375
2629.64311	3020.575
2632.30041	3022.175
2634.95605	3001.875
2637.61004	2991.675
2640.26238	2966.575
2642.91306	2963.675
2645.56209	2997.875
2648.20948	2989.275
2650.85521	2965.775
2653.4993	2989.275
2656.14175	2988.275
2658.78255	2967.175
2661.42171	2943.875
2664.05923	2984.475
2666.6951	2989.475
2669.32934	3005.775
2671.96194	2997.275
2674.59291	2986.375
2677.22224	2992.375
2679.84993	2982.175
2682.476	2964.475
2685.10043	2972.875
2687.72324	2970.675
2690.34441	2953.675
2692.96396	2954.275
2695.58188	2969.975
2698.19818	2955.675
2700.81285	2954.775
2703.4259	2946.275
2706.03733	2918.575
2708.64714	2918.675
2711.25533	2941.275
2713.86191	2960.075
2716.46687	2932.475
2719.07021	2953.375
2721.67194	2949.275
2724.27206	2951.175
2726.87057	2937.075
2729.46747	2920.575
2732.06276	2938.975
2734.65644	2923.475
2737.24852	2912.975
2739.83899	2890.775
2742.42786	2901.675
2745.01513	2912.075
2747.60079	2881.475
2750.18486	2867.875
2752.76733	2877.775
2755.3482	2861.775
2757.92747	2856.975
2760.50515	2824.775
2763.08123	2843.675
2765.65573	2845.575
2768.22863	2822.675
2770.79994	2825.575
2773.36967	2809.375
2775.9378	2808.575
2778.50435	2794.675
2781.06932	2802.675
2783.6327	2787.175
2786.1945	2794.175
2788.75471	2782.475
2791.31335	2782.675
2793.87041	2785.475
2796.42589	2770.775
2798.97979	2762.575
2801.53212	2762.775
2804.08288	2776.975
2806.63206	2757.375
2809.17967	2753.175
2811.72571	2760.075
2814.27018	2752.375
2816.81308	2749.975
2819.35442	2735.075
2821.89419	2752.075
2824.43239	2728.675
2826.96904	2764.975
2829.50412	2739.575
2832.03763	2728.675
2834.56959	2739.275
2837.1	2714.775
2839.62884	2725.275
2842.15613	2715.775
2844.68186	2728.375
2847.20604	2689.675
2849.72867	2700.275
2852.24974	2713.975
2854.76927	2666.775
2857.28724	2629.775
2859.80367	2700.275
2862.31855	2710.575
2864.83189	2701.175
2867.34368	2707.375
2869.85393	2714.475
2872.36264	2688.875
2874.8698	2687.175
2877.37543	2701.175
2879.87952	2689.375
2882.38207	2660.175
2884.88308	2676.175
2887.38256	2670.075
2889.88051	2646.075
2892.37692	2649.575
2894.8718	2641.475
2897.36515	2651.275
2899.85698	2641.975
2902.34727	2638.975
2904.83604	2650.575
2907.32328	2659.075
2909.809	2668.375
2912.29319	2653.875
2914.77587	2679.175
2917.25702	2683.175
2919.73665	2678.475
2922.21476	2668.475
2924.69136	2656.375
2927.16644	2647.075
2929.64	2632.475
2932.11205	2626.075
2934.58258	2618.975
2937.05161	2602.975
2939.51912	2604.075
2941.98513	2609.875
2944.44962	2615.375
2946.91261	2589.875
2949.37409	2598.375
2951.83407	2587.775
2954.29254	2584.475
2956.74951	2592.775
2959.20498	2581.375
2961.65895	2593.375
2964.11142	2576.875
2966.56239	2573.875
2969.01186	2582.875
2971.45984	2564.975
2973.90632	2564.875
2976.35131	2580.075
2978.7948	2565.575
2981.23681	2560.675
2983.67732	2583.375
2986.11635	2571.675
2988.55388	2534.275
2990.98993	2549.975
2993.4245	2534.975
2995.85758	2524.075
2998.28917	2518.575
3000.71928	2521.775
3003.14791	2515.275
3005.57506	2505.575
3008.00073	2504.375
3010.42493	2436.875
3012.84764	2510.675
3015.26888	2493.675
3017.68865	2474.275
3020.10694	2442.675
3022.52376	2457.075
3024.9391	2452.875
3027.35298	2438.475
3029.76539	2432.275
3032.17632	2437.375
3034.5858	2397.675
3036.9938	2418.075
3039.40034	2412.175
3041.80542	2393.375
3044.20903	2372.275
3046.61118	2367.875
3049.01187	2376.675
3051.4111	2372.875
3053.80888	2345.975
3056.20519	2346.075
3058.60005	2334.275
3060.99345	2357.075
3063.3854	2330.875
3065.7759	2322.775
3068.16494	2295.375
3070.55254	2289.675
3072.93868	2310.575
3075.32338	2300.675
3077.70662	2289.875
3080.08842	2286.775
3082.46878	2265.875
3084.84769	2291.075
3087.22515	2262.675
3089.60118	2274.275
3091.97576	2261.775
3094.3489	2274.775
3096.72061	2272.375
3099.09087	2260.475
3101.4597	2266.375
3103.82709	2251.675
3106.19305	2246.975
3108.55757	2248.575
3110.92066	2241.175
3113.28232	2244.675
3115.64255	2256.875
3118.00134	2249.775
3120.35871	2231.375
3122.71466	2224.175
3125.06917	2221.975
3127.42226	2209.175
3129.77393	2197.075
3132.12417	2211.975
3134.47299	2216.575
3136.82039	2185.375
3139.16636	2166.475
3141.51092	2186.675
3143.85406	2190.575
3146.19579	2187.775
3148.53609	2182.475
3150.87499	2182.375
3153.21246	2180.575
3155.54853	2200.375
3157.88318	2190.575
3160.21642	2202.075
3162.54826	2188.875
3164.87868	2186.475
3167.2077	2144.775
3169.5353	2167.075
3171.86151	2173.975
3174.18631	2168.475
3176.5097	2165.375
3178.83169	2155.375
3181.15228	2159.475
3183.47147	2138.275
3185.78926	2120.175
3188.10565	2125.775
3190.42065	2108.175
3192.73424	2118.075
3195.04645	2120.875
3197.35725	2089.375
3199.66667	2118.675
3201.97469	2104.575
3204.28132	2096.875
3206.58656	2120.175
3208.8904	2116.475
3211.19287	2116.775
3213.49394	2102.675
3215.79363	2107.475
3218.09193	2117.775
3220.38884	2104.575
3222.68438	2110.075
3224.97853	2087.175
3227.2713	2103.475
3229.56269	2080.575
3231.8527	2078.175
