Data from AgNPs_UA_5uM_CRN_500uM_SU_RamanShift__33__11-34-53-145.txt Node

Date: Thu Aug 04 11:34:53 BST 2022
User: TCL
Spectrometer: QEP01345
Trigger mode: 4
Integration Time (sec): 1.000000E0
Scans to average: 10
Electric dark correction enabled: true
Nonlinearity correction enabled: false
Boxcar width: 0
XAxis mode: Raman Shifts
Number of Pixels in Spectrum: 1044
>>>>>Begin Spectral Data<<<<<
46.04893	-0.45
50.45542	0.35
54.85868	0.35
59.25871	-1.45
63.6555	-53.65
68.04907	-35.15
72.43941	-64.15
76.82654	-51.65
81.21044	-50.85
85.59113	-42.95
89.96862	-68.75
94.34289	-49.45
98.71396	-70.75
103.08183	-50.95
107.4465	-41.85
111.80798	-48.85
116.16626	-35.45
120.52136	-62.35
124.87327	-37.45
129.222	-49.35
133.56755	-34.35
137.90993	-45.85
142.24913	-28.55
146.58517	-19.15
150.91804	-8.25
155.24774	10.85
159.57429	44.95
163.89768	71.15
168.21792	144.45
172.53501	212.35
176.84895	356.95
181.15975	581.55
185.46741	872.05
189.77193	1219.05
194.07331	1716.25
198.37157	2254.35
202.6667	2802.75
206.9587	3414.45
211.24758	4066.35
215.53334	4784.25
219.81599	5630.75
224.09553	6605.45
228.37195	7615.65
232.64527	8554.25
236.91549	9327.85
241.18261	9722.85
245.44663	9827.15
249.70755	9802.85
253.96539	9791.25
258.22014	9883.65
262.4718	9969.45
266.72039	9958.25
270.96589	9749.75
275.20832	9322.15
279.44768	8874.95
283.68397	8563.45
287.91719	8471.65
292.14735	8675.05
296.37445	9328.95
300.59849	10500.15
304.81948	12112.05
309.03742	13944.05
313.25231	15283.15
317.46415	15094.15
321.67296	13233.55
325.87872	11070.15
330.08145	9811.45
334.28114	9533.15
338.47781	9900.15
342.67145	10595.95
346.86207	11747.15
351.04966	13457.05
355.23424	15119.35
359.4158	15725.65
363.59435	15112.35
367.76989	14140.75
371.94243	13074.55
376.11196	12260.25
380.27849	11634.35
384.44203	11134.85
388.60257	10908.45
392.76012	10938.25
396.91468	11302.55
401.06626	11767.75
405.21485	11752.95
409.36047	10999.35
413.50311	9648.85
417.64277	8430.95
421.77947	7681.85
425.9132	7308.35
430.04396	7147.65
434.17176	7083.35
438.2966	7264.95
442.41849	7513.45
446.53742	7793.75
450.6534	7932.05
454.76644	7913.35
458.87653	7754.45
462.98368	7590.25
467.08789	7398.65
471.18916	7129.45
475.2875	6753.15
479.38291	6477.95
483.4754	6291.45
487.56496	6206.75
491.6516	6127.05
495.73531	6085.55
499.81612	6186.65
503.89401	6383.35
507.96899	6609.55
512.04106	6941.45
516.11023	7275.45
520.1765	7521.75
524.23987	7610.35
528.30034	7606.25
532.35792	7451.95
536.41261	7266.15
540.46441	7018.45
544.51333	6829.55
548.55936	6799.05
552.60252	6996.95
556.64279	7271.65
560.6802	7803.65
564.71473	9017.55
568.7464	10583.55
572.7752	10537.65
576.80114	8523.95
580.82422	6904.15
584.84444	6215.85
588.86181	5988.65
592.87633	5980.55
596.888	6221.45
600.89682	7165.05
604.9028	10414.85
608.90594	18656.75
612.90624	28705.55
616.90371	25865.45
620.89834	13522.25
624.89015	8125.65
628.87913	7547.75
632.86528	8318.65
636.84862	8597.55
640.82913	7592.45
644.80683	6285.25
648.78172	5713.15
652.75379	5945.35
656.72306	6914.95
660.68952	7839.85
664.65319	7311.05
668.61405	6042.85
672.57211	5525.15
676.52738	5489.15
680.47986	5427.15
684.42955	5268.95
688.37646	5150.05
692.32058	5154.35
696.26192	5283.35
700.20048	5428.75
704.13626	5464.45
708.06928	5370.85
711.99952	5320.45
715.927	5404.25
719.85171	5692.75
723.77365	5863.35
727.69284	5671.45
731.60928	5479.95
735.52295	5416.75
739.43388	5488.55
743.34206	5550.05
747.24749	5540.65
751.15017	5586.15
755.05012	6004.35
758.94733	7635.55
762.8418	11269.75
766.73354	15994.55
770.62254	18366.45
774.50882	17409.65
778.39237	15443.55
782.27321	12654.05
786.15132	9143.15
790.02671	6884.15
793.89938	5834.05
797.76935	5475.55
801.6366	5324.45
805.50115	5209.35
809.36299	5157.05
813.22213	5137.45
817.07857	5132.65
820.93231	5189.25
824.78336	5327.85
828.63172	5461.35
832.47738	5521.25
836.32036	5394.55
840.16066	5113.35
843.99827	4964.35
847.8332	4904.45
851.66546	4904.15
855.49504	4875.85
859.32195	4861.75
863.1462	4807.85
866.96777	4811.35
870.78668	4787.95
874.60293	4852.15
878.41652	4933.75
882.22745	5112.75
886.03573	5219.25
889.84136	5163.65
893.64433	5131.15
897.44466	5153.15
901.24235	5170.45
905.0374	5078.95
908.8298	4845.75
912.61957	4711.95
916.40671	4611.55
920.19121	4690.25
923.97308	4925.65
927.75233	5436.15
931.52895	5955.65
935.30295	5663.05
939.07433	4905.75
942.84309	4452.65
946.60924	4289.15
950.37278	4194.85
954.13371	4198.85
957.89203	4165.85
961.64774	4180.25
965.40086	4161.35
969.15137	4104.55
972.89929	4143.35
976.64461	4115.95
980.38733	4118.65
984.12747	4088.05
987.86502	4115.15
991.59999	4136.55
995.33237	4240.55
999.06217	4362.25
1002.78939	4589.15
1006.51404	4975.65
1010.23611	5133.05
1013.95561	4956.55
1017.67255	4704.35
1021.38692	4512.25
1025.09872	4340.95
1028.80796	4229.85
1032.51465	4304.75
1036.21877	4350.05
1039.92035	4433.45
1043.61937	4512.25
1047.31584	4602.55
1051.00976	4617.95
1054.70114	4526.95
1058.38998	4471.35
1062.07627	4431.45
1065.76003	4424.65
1069.44126	4500.25
1073.11995	4626.15
1076.79611	4965.95
1080.46974	5556.85
1084.14085	6446.45
1087.80943	7156.75
1091.47549	7132.35
1095.13903	6366.35
1098.80005	5605.85
1102.45857	5194.95
1106.11456	5153.95
1109.76805	5297.25
1113.41903	5787.25
1117.06751	6604.45
1120.71348	7876.35
1124.35696	9780.85
1127.99793	11053.35
1131.63641	9989.45
1135.2724	8033.55
1138.90589	6712.15
1142.5369	5977.95
1146.16542	5528.65
1149.79145	5227.65
1153.415	5147.05
1157.03607	5241.35
1160.65467	5523.65
1164.27079	6013.45
1167.88443	6733.45
1171.49561	7968.05
1175.10432	10081.75
1178.71056	12925.05
1182.31434	14846.95
1185.91565	14465.55
1189.51451	12618.85
1193.11091	10675.45
1196.70485	9440.65
1200.29634	8957.15
1203.88538	8337.05
1207.47197	7131.95
1211.05612	6061.85
1214.63782	5357.95
1218.21708	5045.55
1221.79391	4920.45
1225.36829	4900.35
1228.94024	4913.05
1232.50976	4884.85
1236.07685	4905.45
1239.6415	4987.05
1243.20374	5139.55
1246.76355	5350.45
1250.32093	5616.95
1253.8759	5986.25
1257.42845	6633.55
1260.97859	7472.65
1264.52631	8228.55
1268.07163	8574.45
1271.61453	8556.25
1275.15503	8233.05
1278.69312	7940.25
1282.22882	8183.55
1285.76211	9269.85
1289.29301	10744.35
1292.82151	11715.85
1296.34761	12111.25
1299.87133	13104.05
1303.39266	15581.95
1306.9116	20290.05
1310.42815	26080.15
1313.94233	28321.05
1317.45412	24039.95
1320.96354	17572.95
1324.47058	12654.35
1327.97525	9686.05
1331.47754	8174.45
1334.97747	7691.55
1338.47502	7931.65
1341.97022	9054.55
1345.46305	11572.65
1348.95352	15139.55
1352.44163	18819.85
1355.92738	23547.55
1359.41078	31712.45
1362.89183	40190.65
1366.37053	37890.65
1369.84688	25876.15
1373.32088	16128.65
1376.79254	11923.55
1380.26186	10005.65
1383.72883	8534.65
1387.19347	7195.25
1390.65578	6212.85
1394.11575	5677.15
1397.57339	5411.15
1401.0287	5225.65
1404.48168	5032.95
1407.93234	4934.05
1411.38068	5058.45
1414.82669	5509.85
1418.27039	6000.45
1421.71177	6100.15
1425.15083	5868.35
1428.58758	5988.45
1432.02203	6645.25
1435.45416	7135.65
1438.88399	6808.85
1442.31151	6347.45
1445.73673	6253.75
1449.15965	6194.95
1452.58027	6031.65
1455.9986	5787.55
1459.41463	5575.65
1462.82837	5605.95
1466.23982	5869.75
1469.64898	6246.65
1473.05586	6369.15
1476.46045	6331.05
1479.86276	6374.05
1483.26279	6691.85
1486.66054	7436.35
1490.05602	8534.25
1493.44922	10392.15
1496.84016	13314.35
1500.22882	17797.45
1503.61521	24083.75
1506.99934	32395.95
1510.38121	40721.25
1513.76081	44354.15
1517.13816	39645.35
1520.51324	29661.45
1523.88607	20462.95
1527.25665	14414.15
1530.62498	11042.45
1533.99105	9034.25
1537.35488	7764.95
1540.71647	7039.95
1544.07581	6764.55
1547.4329	6761.65
1550.78776	6920.55
1554.14038	7328.55
1557.49077	7976.15
1560.83892	9137.35
1564.18484	10946.65
1567.52853	12846.75
1570.86999	13806.05
1574.20922	13855.75
1577.54624	13053.65
1580.88103	10852.95
1584.2136	8250.55
1587.54395	6732.45
1590.87208	6361.45
1594.19801	6855.25
1597.52172	7691.05
1600.84321	7742.25
1604.16251	6807.85
1607.47959	5932.35
1610.79447	5395.15
1614.10715	4991.95
1617.41763	4717.95
1620.7259	4579.75
1624.03199	4642.55
1627.33587	4878.95
1630.63757	5349.25
1633.93707	6182.75
1637.23439	7693.75
1640.52951	10437.25
1643.82246	15142.55
1647.11321	21538.25
1650.40179	26554.05
1653.68819	25976.85
1656.97241	20040.45
1660.25446	13312.25
1663.53433	8759.95
1666.81203	6298.35
1670.08756	5040.55
1673.36092	4356.05
1676.63211	3931.35
1679.90115	3660.35
1683.16801	3474.65
1686.43272	3323.95
1689.69527	3244.45
1692.95567	3160.45
1696.2139	3117.45
1699.46999	3028.95
1702.72392	3021.45
1705.97571	3025.85
1709.22535	3015.15
1712.47284	3052.65
1715.71819	3088.85
1718.96139	3091.25
1722.20246	3056.15
1725.44139	2990.75
1728.67818	2919.15
1731.91284	2801.45
1735.14537	2749.85
1738.37576	2698.45
1741.60403	2684.55
1744.83017	2641.65
1748.05418	2638.95
1751.27607	2599.65
1754.49584	2550.05
1757.71349	2480.95
1760.92903	2449.95
1764.14244	2363.95
1767.35375	2337.65
1770.56294	2285.15
1773.77002	2243.15
1776.97499	2213.15
1780.17785	2170.55
1783.37861	2133.35
1786.57727	2140.95
1789.77382	2069.65
1792.96828	2111.45
1796.16064	2107.75
1799.3509	2098.45
1802.53907	2099.55
1805.72514	2073.25
1808.90913	2046.25
1812.09102	2041.85
1815.27083	2034.95
1818.44856	2016.15
1821.6242	2006.65
1824.79776	1986.95
1827.96924	1985.75
1831.13864	1938.15
1834.30597	1947.85
1837.47122	1895.75
1840.6344	1882.95
1843.7955	1851.15
1846.95454	1831.05
1850.11151	1834.95
1853.26642	1794.55
1856.41926	1810.15
1859.57004	1821.55
1862.71876	1817.85
1865.86542	1831.85
1869.01003	1831.55
1872.15258	1811.35
1875.29308	1839.95
1878.43152	1846.35
1881.56792	1832.85
1884.70227	1799.75
1887.83457	1802.65
1890.96482	1775.05
1894.09304	1764.45
1897.21921	1766.85
1900.34335	1763.45
1903.46544	1745.45
1906.58551	1753.75
1909.70353	1752.25
1912.81953	1748.05
1915.93349	1745.15
1919.04543	1729.75
1922.15534	1709.75
1925.26322	1704.05
1928.36908	1662.15
1931.47292	1651.05
1934.57473	1630.55
1937.67453	1593.85
1940.77232	1550.25
1943.86808	1528.05
1946.96184	1536.15
1950.05358	1507.25
1953.14331	1505.35
1956.23103	1527.15
1959.31675	1513.15
1962.40046	1485.35
1965.48217	1542.55
1968.56188	1563.85
1971.63959	1565.25
1974.7153	1578.15
1977.78901	1562.65
1980.86073	1526.25
1983.93046	1482.05
1986.99819	1386.55
1990.06394	1390.85
1993.1277	1411.55
1996.18947	1397.35
1999.24925	1351.75
2002.30706	1366.15
2005.36288	1357.25
2008.41672	1342.55
2011.46859	1323.65
2014.51848	1314.75
2017.56639	1300.85
2020.61233	1288.05
2023.6563	1299.55
2026.6983	1256.95
2029.73833	1262.75
2032.7764	1279.65
2035.8125	1241.55
2038.84664	1251.85
2041.87881	1240.45
2044.90903	1264.65
2047.93729	1253.15
2050.96359	1220.55
2053.98794	1218.75
2057.01034	1229.55
2060.03078	1193.55
2063.04927	1176.85
2066.06582	1170.25
2069.08042	1145.45
2072.09307	1159.65
2075.10378	1152.55
2078.11255	1158.35
2081.11938	1144.05
2084.12426	1154.75
2087.12722	1150.75
2090.12824	1153.05
2093.12732	1145.05
2096.12447	1155.85
2099.11969	1137.35
2102.11299	1130.35
2105.10435	1155.65
2108.09379	1146.85
2111.08131	1145.25
2114.0669	1156.75
2117.05057	1157.55
2120.03233	1162.95
2123.01216	1208.25
2125.99008	1223.25
2128.96609	1229.75
2131.94018	1233.15
2134.91236	1201.75
2137.88263	1174.15
2140.851	1159.15
2143.81746	1158.35
2146.78201	1128.75
2149.74466	1098.25
2152.7054	1092.15
2155.66425	1076.05
2158.6212	1064.25
2161.57625	1045.65
2164.52941	1018.25
2167.48067	1038.95
2170.43004	1042.35
2173.37752	1074.75
2176.32311	1059.65
2179.26681	1067.65
2182.20863	1077.05
2185.14856	1069.65
2188.08661	1070.45
2191.02278	1068.35
2193.95707	1035.35
2196.88948	1008.55
2199.82001	1021.15
2202.74867	1005.45
2205.67545	1010.85
2208.60037	1023.65
2211.52341	1011.55
2214.44458	1001.85
2217.36388	1000.95
2220.28132	987.45
2223.1969	968.55
2226.11061	980.15
2229.02246	967.65
2231.93245	965.85
2234.84058	949.95
2237.74686	948.45
2240.65128	946.35
2243.55385	957.35
2246.45456	949.75
2249.35343	986.45
2252.25044	992.15
2255.14561	1014.65
2258.03893	1057.15
2260.93041	1072.95
2263.82004	1083.55
2266.70783	1086.25
2269.59378	1075.05
2272.4779	1058.85
2275.36017	1071.55
2278.24061	1061.35
2281.11922	1030.45
2283.996	1032.35
2286.87094	1001.45
2289.74405	997.45
2292.61534	979.15
2295.4848	965.45
2298.35243	953.65
2301.21824	937.65
2304.08223	929.85
2306.94439	936.25
2309.80474	939.45
2312.66327	935.05
2315.51999	927.35
2318.37489	924.15
2321.22797	911.15
2324.07925	905.05
2326.92871	903.05
2329.77637	891.55
2332.62222	909.15
2335.46626	891.55
2338.3085	894.35
2341.14893	917.65
2343.98756	925.15
2346.8244	914.65
2349.65943	914.05
2352.49267	941.85
2355.32411	951.55
2358.15376	961.05
2360.98161	1000.65
2363.80768	991.55
2366.63195	1018.05
2369.45444	1032.05
2372.27514	1041.05
2375.09405	1060.85
2377.91118	1023.85
2380.72652	1007.65
2383.54009	997.65
2386.35187	988.55
2389.16188	954.35
2391.97011	946.85
2394.77657	922.75
2397.58125	925.55
2400.38416	906.25
2403.18529	893.25
2405.98466	871.25
2408.78226	876.05
2411.57809	873.35
2414.37216	857.15
2417.16446	869.75
2419.955	855.85
2422.74378	882.75
2425.5308	866.35
2428.31606	878.95
2431.09956	895.25
2433.88131	885.75
2436.6613	897.05
2439.43954	906.75
2442.21603	909.25
2444.99077	907.65
2447.76377	928.85
2450.53501	933.55
2453.30451	934.85
2456.07226	948.95
2458.83827	940.25
2461.60254	895.85
2464.36507	921.65
2467.12586	915.65
2469.88492	935.35
2472.64224	930.55
2475.39782	921.95
2478.15167	960.15
2480.90379	967.15
2483.65417	1011.95
2486.40283	1027.45
2489.14976	1046.35
2491.89497	1035.05
2494.63845	1044.65
2497.3802	1024.35
2500.12024	1013.65
2502.85855	1001.85
2505.59514	993.15
2508.33002	953.85
2511.06318	907.55
2513.79462	891.55
2516.52435	835.55
2519.25237	792.55
2521.97867	788.95
2524.70327	780.85
2527.42616	772.55
2530.14734	775.85
2532.86681	761.45
2535.58458	756.35
2538.30065	765.95
2541.01501	779.95
2543.72768	777.65
2546.43864	792.65
2549.14791	797.45
2551.85548	795.25
2554.56136	804.45
2557.26554	822.95
2559.96803	826.55
2562.66883	832.65
2565.36794	820.75
2568.06536	801.35
2570.7611	830.45
2573.45514	822.55
2576.14751	809.75
2578.83819	803.05
2581.52719	788.75
2584.21451	787.95
2586.90015	763.65
2589.58411	749.95
2592.2664	768.35
2594.94701	769.65
2597.62594	775.35
2600.30321	718.25
2602.9788	745.65
2605.65273	748.05
2608.32498	753.75
2610.99557	779.85
2613.66449	752.75
2616.33175	779.65
2618.99734	783.45
2621.66128	786.05
2624.32355	773.75
2626.98416	753.05
2629.64311	738.65
2632.30041	733.35
2634.95605	711.35
2637.61004	699.65
2640.26238	680.35
2642.91306	675.95
2645.56209	695.65
2648.20948	690.95
2650.85521	679.75
2653.4993	701.35
2656.14175	702.85
2658.78255	700.65
2661.42171	681.35
2664.05923	722.85
2666.6951	733.55
2669.32934	747.95
2671.96194	766.25
2674.59291	752.25
2677.22224	754.25
2679.84993	743.95
2682.476	732.05
2685.10043	728.95
2687.72324	715.45
2690.34441	718.05
2692.96396	711.65
2695.58188	722.05
2698.19818	710.05
2700.81285	698.35
2703.4259	695.05
2706.03733	663.95
2708.64714	683.65
2711.25533	716.65
2713.86191	724.25
2716.46687	712.95
2719.07021	717.95
2721.67194	715.65
2724.27206	732.05
2726.87057	702.05
2729.46747	692.95
2732.06276	689.15
2734.65644	670.45
2737.24852	662.85
2739.83899	647.75
2742.42786	647.85
2745.01513	656.75
2747.60079	628.05
2750.18486	620.65
2752.76733	617.65
2755.3482	601.95
2757.92747	607.05
2760.50515	586.25
2763.08123	585.45
2765.65573	585.35
2768.22863	578.25
2770.79994	572.55
2773.36967	575.35
2775.9378	571.85
2778.50435	572.35
2781.06932	574.55
2783.6327	568.55
2786.1945	596.95
2788.75471	581.35
2791.31335	592.25
2793.87041	600.35
2796.42589	592.85
2798.97979	590.45
2801.53212	611.15
2804.08288	638.05
2806.63206	640.25
2809.17967	629.65
2811.72571	670.55
2814.27018	689.75
2816.81308	697.35
2819.35442	680.05
2821.89419	732.15
2824.43239	724.75
2826.96904	757.55
2829.50412	732.05
2832.03763	730.25
2834.56959	725.45
2837.1	713.85
2839.62884	703.15
2842.15613	687.45
2844.68186	702.35
2847.20604	680.95
2849.72867	685.75
2852.24974	712.35
2854.76927	697.65
2857.28724	674.25
2859.80367	749.15
2862.31855	776.95
2864.83189	787.95
2867.34368	803.25
2869.85393	836.85
2872.36264	820.35
2874.8698	822.55
2877.37543	829.05
2879.87952	811.15
2882.38207	780.65
2884.88308	788.35
2887.38256	766.75
2889.88051	744.15
2892.37692	745.05
2894.8718	720.25
2897.36515	733.25
2899.85698	730.55
2902.34727	742.45
2904.83604	756.35
2907.32328	783.65
2909.809	806.75
2912.29319	817.75
2914.77587	828.05
2917.25702	834.55
2919.73665	820.55
2922.21476	802.15
2924.69136	784.75
2927.16644	740.35
2929.64	727.25
2932.11205	706.75
2934.58258	714.05
2937.05161	695.15
2939.51912	700.25
2941.98513	706.35
2944.44962	685.45
2946.91261	675.25
2949.37409	690.05
2951.83407	687.55
2954.29254	698.65
2956.74951	704.65
2959.20498	692.05
2961.65895	701.85
2964.11142	685.75
2966.56239	678.75
2969.01186	677.95
2971.45984	667.95
2973.90632	662.75
2976.35131	678.35
2978.7948	674.95
2981.23681	673.05
2983.67732	686.55
2986.11635	685.25
2988.55388	659.35
2990.98993	682.05
2993.4245	677.55
2995.85758	674.55
2998.28917	681.55
3000.71928	680.65
3003.14791	686.75
3005.57506	676.65
3008.00073	662.65
3010.42493	614.35
3012.84764	674.65
3015.26888	670.05
3017.68865	665.45
3020.10694	623.85
3022.52376	640.35
3024.9391	630.05
3027.35298	625.75
3029.76539	596.55
3032.17632	593.25
3034.5858	575.65
3036.9938	569.75
3039.40034	551.25
3041.80542	533.35
3044.20903	509.85
3046.61118	498.05
3049.01187	514.95
3051.4111	496.35
3053.80888	494.85
3056.20519	491.45
3058.60005	479.75
3060.99345	509.65
3063.3854	486.85
3065.7759	470.95
3068.16494	467.65
3070.55254	456.05
3072.93868	474.55
3075.32338	465.15
3077.70662	461.95
3080.08842	451.85
3082.46878	440.35
3084.84769	461.05
3087.22515	437.75
3089.60118	450.15
3091.97576	435.45
3094.3489	440.05
3096.72061	435.55
3099.09087	417.35
3101.4597	436.25
3103.82709	426.95
3106.19305	411.85
3108.55757	419.15
3110.92066	417.25
3113.28232	426.25
3115.64255	435.25
3118.00134	438.75
3120.35871	420.85
3122.71466	409.75
3125.06917	422.55
3127.42226	414.65
3129.77393	408.05
3132.12417	422.75
3134.47299	432.15
3136.82039	417.95
3139.16636	396.75
3141.51092	426.45
3143.85406	430.25
3146.19579	411.15
3148.53609	411.85
3150.87499	425.25
3153.21246	421.35
3155.54853	434.85
3157.88318	439.05
3160.21642	433.85
3162.54826	428.35
3164.87868	433.85
3167.2077	388.25
3169.5353	417.65
3171.86151	416.85
3174.18631	389.55
3176.5097	388.85
3178.83169	383.95
3181.15228	376.65
3183.47147	359.35
3185.78926	343.35
3188.10565	355.45
3190.42065	334.65
3192.73424	348.05
3195.04645	344.85
3197.35725	331.95
3199.66667	348.05
3201.97469	341.85
3204.28132	344.35
3206.58656	356.65
3208.8904	368.05
3211.19287	363.35
3213.49394	350.85
3215.79363	354.15
3218.09193	380.55
3220.38884	365.65
3222.68438	358.65
3224.97853	344.85
3227.2713	370.15
3229.56269	350.15
3231.8527	350.35
3234.14133	338.55
3236.42858	339.15
3238.71446	320.15
3240.99896	343.25
3243.28209	321.25
3245.56384	337.25
3247.84423	327.95
3250.12324	340.35
3252.40088	332.05
3254.67715	320.15
3256.95205	317.45
3259.22558	329.45
3261.49775	328.35
3263.76855	327.05
3266.03799	334.75
3268.30606	333.45
3270.57277	341.85
3272.83812	329.55
3275.10211	339.05
3277.36474	362.15
3279.62601	364.35
3281.88593	359.75
3284.14448	351.75
3286.40168	386.25
3288.65753	380.15
3290.91202	399.75
3293.16516	397.15
3295.41695	430.85
3297.66738	446.55
3299.91647	442.85
3302.16421	457.05
3304.4106	428.45
3306.65564	459.25
3308.89933	444.15
3311.14169	454.85
3313.38269	460.35
3315.62236	456.75
3317.86068	455.55
3320.09766	476.05
3322.3333	460.15
3324.5676	469.35
3326.80056	473.25
3329.03219	481.65
3331.26248	-2.05
3333.49143	-0.45
3335.71905	1.75
