Data from AgNPs_UA_10uM_CRN_500uM_SU_RamanShift__61__13-15-30-266.txt Node

Date: Thu Aug 04 13:15:30 BST 2022
User: TCL
Spectrometer: QEP01345
Trigger mode: 4
Integration Time (sec): 1.000000E0
Scans to average: 10
Electric dark correction enabled: true
Nonlinearity correction enabled: false
Boxcar width: 0
XAxis mode: Raman Shifts
Number of Pixels in Spectrum: 1044
>>>>>Begin Spectral Data<<<<<
46.04893	-0.6125
50.45542	-0.7125
54.85868	0.5875
59.25871	0.0875
63.6555	22.2875
68.04907	22.4875
72.43941	23.3875
76.82654	25.5875
81.21044	25.2875
85.59113	25.8875
89.96862	26.4875
94.34289	27.7875
98.71396	29.5875
103.08183	31.0875
107.4465	30.6875
111.80798	30.4875
116.16626	34.5875
120.52136	33.7875
124.87327	36.8875
129.222	39.7875
133.56755	40.0875
137.90993	44.0875
142.24913	51.3875
146.58517	57.7875
150.91804	67.6875
155.24774	84.8875
159.57429	106.8875
163.89768	135.5875
168.21792	183.7875
172.53501	249.5875
176.84895	351.9875
181.15975	493.0875
185.46741	707.3875
189.77193	984.1875
194.07331	1312.2875
198.37157	1702.0875
202.6667	2105.4875
206.9587	2524.2875
211.24758	2915.8875
215.53334	3328.9875
219.81599	3763.6875
224.09553	4255.9875
228.37195	4786.2875
232.64527	5345.2875
236.91549	5925.5875
241.18261	6484.2875
245.44663	6907.0875
249.70755	7303.9875
253.96539	7633.7875
258.22014	7933.0875
262.4718	8162.1875
266.72039	8278.5875
270.96589	8333.1875
275.20832	8304.9875
279.44768	8211.7875
283.68397	8071.7875
287.91719	7989.1875
292.14735	7993.8875
296.37445	8070.1875
300.59849	8199.6875
304.81948	8446.6875
309.03742	8635.8875
313.25231	8739.1875
317.46415	8696.3875
321.67296	8456.9875
325.87872	8199.5875
330.08145	8077.0875
334.28114	8118.1875
338.47781	8166.3875
342.67145	8298.0875
346.86207	8486.1875
351.04966	8772.3875
355.23424	9055.7875
359.4158	9287.5875
363.59435	9412.1875
367.76989	9465.6875
371.94243	9482.3875
376.11196	9494.7875
380.27849	9529.8875
384.44203	9569.4875
388.60257	9643.7875
392.76012	9752.0875
396.91468	9880.5875
401.06626	10021.5875
405.21485	10105.6875
409.36047	9988.5875
413.50311	9802.0875
417.64277	9569.1875
421.77947	9440.3875
425.9132	9349.7875
430.04396	9305.0875
434.17176	9329.0875
438.2966	9408.8875
442.41849	9554.5875
446.53742	9721.8875
450.6534	9917.3875
454.76644	10062.1875
458.87653	10165.4875
462.98368	10185.4875
467.08789	10177.1875
471.18916	10043.3875
475.2875	9876.9875
479.38291	9730.4875
483.4754	9611.5875
487.56496	9544.5875
491.6516	9510.1875
495.73531	9518.5875
499.81612	9552.5875
503.89401	9659.6875
507.96899	9705.9875
512.04106	9738.0875
516.11023	9749.1875
520.1765	9784.5875
524.23987	9795.8875
528.30034	9780.8875
532.35792	9781.9875
536.41261	9726.1875
540.46441	9643.6875
544.51333	9626.9875
548.55936	9692.5875
552.60252	9802.7875
556.64279	9927.4875
560.6802	10085.6875
564.71473	10135.4875
568.7464	10167.3875
572.7752	10126.4875
576.80114	9903.1875
580.82422	9722.7875
584.84444	9664.8875
588.86181	9675.0875
592.87633	9713.4875
596.888	9850.1875
600.89682	10290.4875
604.9028	11304.3875
608.90594	13261.9875
612.90624	15083.1875
616.90371	14018.2875
620.89834	11444.5875
624.89015	10366.7875
628.87913	10292.2875
632.86528	10503.6875
636.84862	10614.1875
640.82913	10432.6875
644.80683	10121.3875
648.78172	9929.8875
652.75379	9926.9875
656.72306	10154.9875
660.68952	10436.3875
664.65319	10415.3875
668.61405	10388.5875
672.57211	10555.6875
676.52738	10564.3875
680.47986	10269.2875
684.42955	10028.9875
688.37646	9978.8875
692.32058	10061.8875
696.26192	10261.4875
700.20048	10465.6875
704.13626	10499.3875
708.06928	10384.2875
711.99952	10261.1875
715.927	10200.1875
719.85171	10276.2875
723.77365	10295.8875
727.69284	10233.0875
731.60928	10174.1875
735.52295	10152.1875
739.43388	10185.7875
743.34206	10212.3875
747.24749	10199.5875
751.15017	10194.4875
755.05012	10275.0875
758.94733	10532.2875
762.8418	11202.8875
766.73354	12196.2875
770.62254	12989.1875
774.50882	13259.1875
778.39237	13078.2875
782.27321	12524.9875
786.15132	11669.4875
790.02671	10978.0875
793.89938	10605.2875
797.76935	10423.5875
801.6366	10294.5875
805.50115	10236.2875
809.36299	10200.4875
813.22213	10212.1875
817.07857	10201.9875
820.93231	10195.9875
824.78336	10198.6875
828.63172	10219.5875
832.47738	10238.9875
836.32036	10199.4875
840.16066	10216.6875
843.99827	10188.6875
847.8332	10192.5875
851.66546	10208.9875
855.49504	10252.2875
859.32195	10256.1875
863.1462	10236.7875
866.96777	10237.8875
870.78668	10273.7875
874.60293	10289.3875
878.41652	10326.7875
882.22745	10416.8875
886.03573	10447.7875
889.84136	10459.3875
893.64433	10405.7875
897.44466	10382.9875
901.24235	10380.8875
905.0374	10356.1875
908.8298	10305.0875
912.61957	10310.7875
916.40671	10317.0875
920.19121	10312.9875
923.97308	10336.8875
927.75233	10416.8875
931.52895	10478.0875
935.30295	10427.0875
939.07433	10313.7875
942.84309	10239.5875
946.60924	10231.6875
950.37278	10189.4875
954.13371	10209.9875
957.89203	10200.8875
961.64774	10223.0875
965.40086	10202.2875
969.15137	10166.2875
972.89929	10167.0875
976.64461	10194.5875
980.38733	10190.5875
984.12747	10208.4875
987.86502	10227.8875
991.59999	10269.2875
995.33237	10324.6875
999.06217	10360.2875
1002.78939	10473.3875
1006.51404	10634.5875
1010.23611	10819.8875
1013.95561	10890.7875
1017.67255	10958.4875
1021.38692	10947.9875
1025.09872	10849.3875
1028.80796	10767.5875
1032.51465	10738.0875
1036.21877	10727.8875
1039.92035	10749.7875
1043.61937	10796.0875
1047.31584	10845.2875
1051.00976	10912.3875
1054.70114	10926.4875
1058.38998	10988.4875
1062.07627	11016.3875
1065.76003	11088.8875
1069.44126	11214.2875
1073.11995	11437.6875
1076.79611	11695.5875
1080.46974	11810.8875
1084.14085	11843.0875
1087.80943	11922.2875
1091.47549	11989.0875
1095.13903	12089.0875
1098.80005	12226.0875
1102.45857	12465.8875
1106.11456	12441.2875
1109.76805	12178.6875
1113.41903	12054.9875
1117.06751	12079.1875
1120.71348	12204.5875
1124.35696	12271.6875
1127.99793	12340.8875
1131.63641	12174.3875
1135.2724	11899.5875
1138.90589	11655.5875
1142.5369	11546.9875
1146.16542	11469.1875
1149.79145	11374.6875
1153.415	11292.6875
1157.03607	11236.1875
1160.65467	11287.8875
1164.27079	11444.0875
1167.88443	11737.6875
1171.49561	12142.8875
1175.10432	12750.8875
1178.71056	13506.1875
1182.31434	14209.9875
1185.91565	14536.0875
1189.51451	14612.8875
1193.11091	14530.0875
1196.70485	14385.6875
1200.29634	14146.7875
1203.88538	13836.1875
1207.47197	13412.8875
1211.05612	13006.7875
1214.63782	12563.8875
1218.21708	12225.3875
1221.79391	11994.9875
1225.36829	11890.5875
1228.94024	11853.4875
1232.50976	11878.1875
1236.07685	11943.0875
1239.6415	12017.3875
1243.20374	12037.8875
1246.76355	12116.2875
1250.32093	12192.0875
1253.8759	12352.4875
1257.42845	12609.1875
1260.97859	12931.2875
1264.52631	13210.3875
1268.07163	13430.5875
1271.61453	13520.2875
1275.15503	13510.1875
1278.69312	13465.2875
1282.22882	13379.0875
1285.76211	13461.2875
1289.29301	13563.3875
1292.82151	13728.3875
1296.34761	13926.3875
1299.87133	14260.1875
1303.39266	14816.8875
1306.9116	15650.0875
1310.42815	16574.7875
1313.94233	16900.4875
1317.45412	16527.1875
1320.96354	15877.8875
1324.47058	15288.9875
1327.97525	14667.0875
1331.47754	14249.4875
1334.97747	14103.7875
1338.47502	14256.4875
1341.97022	14748.2875
1345.46305	15572.9875
1348.95352	16735.1875
1352.44163	17940.0875
1355.92738	18987.1875
1359.41078	19940.5875
1362.89183	20470.4875
1366.37053	19500.4875
1369.84688	17273.2875
1373.32088	15267.7875
1376.79254	14108.4875
1380.26186	13537.6875
1383.72883	13139.4875
1387.19347	12771.1875
1390.65578	12415.1875
1394.11575	12114.9875
1397.57339	11870.1875
1401.0287	11736.5875
1404.48168	11734.9875
1407.93234	11856.2875
1411.38068	12037.6875
1414.82669	12227.7875
1418.27039	12269.7875
1421.71177	12281.4875
1425.15083	12169.9875
1428.58758	12028.8875
1432.02203	11975.0875
1435.45416	11961.6875
1438.88399	11904.9875
1442.31151	11861.0875
1445.73673	11910.7875
1449.15965	11936.2875
1452.58027	11904.8875
1455.9986	11856.4875
1459.41463	11859.6875
1462.82837	11953.6875
1466.23982	12173.9875
1469.64898	12339.6875
1473.05586	12533.6875
1476.46045	12666.8875
1479.86276	12825.6875
1483.26279	12979.1875
1486.66054	13216.0875
1490.05602	13575.9875
1493.44922	14124.4875
1496.84016	14893.1875
1500.22882	16018.4875
1503.61521	17257.8875
1506.99934	18339.3875
1510.38121	18808.4875
1513.76081	18446.5875
1517.13816	17241.9875
1520.51324	15810.9875
1523.88607	14620.1875
1527.25665	13920.3875
1530.62498	13532.3875
1533.99105	13358.2875
1537.35488	13239.5875
1540.71647	13167.2875
1544.07581	13056.8875
1547.4329	12939.1875
1550.78776	12803.7875
1554.14038	12687.3875
1557.49077	12644.2875
1560.83892	12769.2875
1564.18484	12997.9875
1567.52853	13265.1875
1570.86999	13471.2875
1574.20922	13527.0875
1577.54624	13414.9875
1580.88103	13031.2875
1584.2136	12498.9875
1587.54395	12204.8875
1590.87208	12173.3875
1594.19801	12396.4875
1597.52172	12754.1875
1600.84321	12894.7875
1604.16251	12820.4875
1607.47959	12676.6875
1610.79447	12434.3875
1614.10715	12030.4875
1617.41763	11616.3875
1620.7259	11280.8875
1624.03199	11077.6875
1627.33587	10974.1875
1630.63757	11031.7875
1633.93707	11252.8875
1637.23439	11760.3875
1640.52951	12514.9875
1643.82246	13594.3875
1647.11321	14618.0875
1650.40179	15120.9875
1653.68819	14546.1875
1656.97241	13246.9875
1660.25446	11947.9875
1663.53433	11083.9875
1666.81203	10534.5875
1670.08756	10255.0875
1673.36092	10059.5875
1676.63211	9954.2875
1679.90115	9820.4875
1683.16801	9716.3875
1686.43272	9667.1875
1689.69527	9589.4875
1692.95567	9556.8875
1696.2139	9522.0875
1699.46999	9505.2875
1702.72392	9482.5875
1705.97571	9462.0875
1709.22535	9483.4875
1712.47284	9466.5875
1715.71819	9489.7875
1718.96139	9478.9875
1722.20246	9471.4875
1725.44139	9435.2875
1728.67818	9385.5875
1731.91284	9330.4875
1735.14537	9297.1875
1738.37576	9267.8875
1741.60403	9223.4875
1744.83017	9206.5875
1748.05418	9184.6875
1751.27607	9154.3875
1754.49584	9162.0875
1757.71349	9131.2875
1760.92903	9127.5875
1764.14244	9114.3875
1767.35375	9080.7875
1770.56294	9078.2875
1773.77002	9060.4875
1776.97499	9026.7875
1780.17785	8980.6875
1783.37861	8957.1875
1786.57727	8944.8875
1789.77382	8943.0875
1792.96828	8929.5875
1796.16064	8906.1875
1799.3509	8906.5875
1802.53907	8892.0875
1805.72514	8874.6875
1808.90913	8830.2875
1812.09102	8822.3875
1815.27083	8801.6875
1818.44856	8799.2875
1821.6242	8769.6875
1824.79776	8750.3875
1827.96924	8730.4875
1831.13864	8713.2875
1834.30597	8709.9875
1837.47122	8678.8875
1840.6344	8647.0875
1843.7955	8645.7875
1846.95454	8628.8875
1850.11151	8655.9875
1853.26642	8637.9875
1856.41926	8630.3875
1859.57004	8613.9875
1862.71876	8635.6875
1865.86542	8599.0875
1869.01003	8605.4875
1872.15258	8577.0875
1875.29308	8569.7875
1878.43152	8557.5875
1881.56792	8536.4875
1884.70227	8512.3875
1887.83457	8485.5875
1890.96482	8469.9875
1894.09304	8429.3875
1897.21921	8422.4875
1900.34335	8419.6875
1903.46544	8413.3875
1906.58551	8420.0875
1909.70353	8408.4875
1912.81953	8392.5875
1915.93349	8362.3875
1919.04543	8333.1875
1922.15534	8332.0875
1925.26322	8314.0875
1928.36908	8298.4875
1931.47292	8264.8875
1934.57473	8260.2875
1937.67453	8240.5875
1940.77232	8194.8875
1943.86808	8176.0875
1946.96184	8152.6875
1950.05358	8136.4875
1953.14331	8116.4875
1956.23103	8085.4875
1959.31675	8059.7875
1962.40046	8045.5875
1965.48217	8015.3875
1968.56188	7992.2875
1971.63959	7973.6875
1974.7153	7944.5875
1977.78901	7934.0875
1980.86073	7913.3875
1983.93046	7874.3875
1986.99819	7832.2875
1990.06394	7826.3875
1993.1277	7793.1875
1996.18947	7739.2875
1999.24925	7724.1875
2002.30706	7663.8875
2005.36288	7648.4875
2008.41672	7641.9875
2011.46859	7618.4875
2014.51848	7590.3875
2017.56639	7549.2875
2020.61233	7538.0875
2023.6563	7519.4875
2026.6983	7487.2875
2029.73833	7475.0875
2032.7764	7455.8875
2035.8125	7429.9875
2038.84664	7411.8875
2041.87881	7391.9875
2044.90903	7374.4875
2047.93729	7371.7875
2050.96359	7333.3875
2053.98794	7307.5875
2057.01034	7333.3875
2060.03078	7317.9875
2063.04927	7295.0875
2066.06582	7293.8875
2069.08042	7285.2875
2072.09307	7250.8875
2075.10378	7257.2875
2078.11255	7271.2875
2081.11938	7253.6875
2084.12426	7215.8875
2087.12722	7218.3875
2090.12824	7222.9875
2093.12732	7244.3875
2096.12447	7217.5875
2099.11969	7237.7875
2102.11299	7231.4875
2105.10435	7236.6875
2108.09379	7226.0875
2111.08131	7243.2875
2114.0669	7219.1875
2117.05057	7225.3875
2120.03233	7247.3875
2123.01216	7237.0875
2125.99008	7246.8875
2128.96609	7236.7875
2131.94018	7233.9875
2134.91236	7240.1875
2137.88263	7235.6875
2140.851	7232.6875
2143.81746	7246.3875
2146.78201	7219.1875
2149.74466	7211.2875
2152.7054	7223.0875
2155.66425	7234.7875
2158.6212	7211.4875
2161.57625	7187.7875
2164.52941	7195.2875
2167.48067	7197.3875
2170.43004	7162.2875
2173.37752	7155.4875
2176.32311	7180.5875
2179.26681	7163.7875
2182.20863	7156.2875
2185.14856	7181.5875
2188.08661	7157.5875
2191.02278	7153.3875
2193.95707	7150.3875
2196.88948	7155.8875
2199.82001	7152.9875
2202.74867	7117.9875
2205.67545	7120.8875
2208.60037	7108.1875
2211.52341	7092.2875
2214.44458	7062.0875
2217.36388	7044.3875
2220.28132	7031.7875
2223.1969	7004.4875
2226.11061	6977.6875
2229.02246	6955.2875
2231.93245	6960.4875
2234.84058	6963.8875
2237.74686	6924.2875
2240.65128	6906.1875
2243.55385	6899.8875
2246.45456	6891.2875
2249.35343	6878.6875
2252.25044	6868.9875
2255.14561	6858.9875
2258.03893	6868.8875
2260.93041	6853.9875
2263.82004	6830.2875
2266.70783	6802.3875
2269.59378	6785.2875
2272.4779	6766.3875
2275.36017	6751.2875
2278.24061	6739.5875
2281.11922	6720.1875
2283.996	6698.3875
2286.87094	6679.7875
2289.74405	6676.4875
2292.61534	6679.4875
2295.4848	6649.8875
2298.35243	6649.1875
2301.21824	6617.6875
2304.08223	6606.9875
2306.94439	6616.5875
2309.80474	6608.2875
2312.66327	6593.2875
2315.51999	6586.4875
2318.37489	6582.3875
2321.22797	6560.3875
2324.07925	6537.6875
2326.92871	6541.8875
2329.77637	6505.2875
2332.62222	6488.9875
2335.46626	6473.2875
2338.3085	6456.5875
2341.14893	6451.5875
2343.98756	6458.6875
2346.8244	6460.7875
2349.65943	6437.6875
2352.49267	6431.2875
2355.32411	6438.5875
2358.15376	6421.4875
2360.98161	6434.5875
2363.80768	6418.8875
2366.63195	6404.8875
2369.45444	6392.0875
2372.27514	6402.5875
2375.09405	6376.6875
2377.91118	6374.6875
2380.72652	6372.4875
2383.54009	6347.4875
2386.35187	6328.4875
2389.16188	6308.9875
2391.97011	6283.1875
2394.77657	6270.3875
2397.58125	6258.9875
2400.38416	6241.6875
2403.18529	6245.3875
2405.98466	6216.5875
2408.78226	6204.0875
2411.57809	6190.2875
2414.37216	6189.4875
2417.16446	6172.8875
2419.955	6173.3875
2422.74378	6159.3875
2425.5308	6153.1875
2428.31606	6156.6875
2431.09956	6139.8875
2433.88131	6133.9875
2436.6613	6126.9875
2439.43954	6116.0875
2442.21603	6116.5875
2444.99077	6119.5875
2447.76377	6098.2875
2450.53501	6115.8875
2453.30451	6108.4875
2456.07226	6089.0875
2458.83827	6058.3875
2461.60254	6051.8875
2464.36507	6036.6875
2467.12586	6010.3875
2469.88492	6017.1875
2472.64224	6025.0875
2475.39782	6023.3875
2478.15167	6002.4875
2480.90379	5994.0875
2483.65417	5983.0875
2486.40283	5973.5875
2489.14976	5980.3875
2491.89497	5994.6875
2494.63845	5963.9875
2497.3802	5958.5875
2500.12024	5957.2875
2502.85855	5940.8875
2505.59514	5942.6875
2508.33002	5920.0875
2511.06318	5894.4875
2513.79462	5895.2875
2516.52435	5880.1875
2519.25237	5863.1875
2521.97867	5844.8875
2524.70327	5856.1875
2527.42616	5837.0875
2530.14734	5811.7875
2532.86681	5805.5875
2535.58458	5824.5875
2538.30065	5812.5875
2541.01501	5797.7875
2543.72768	5783.9875
2546.43864	5784.7875
2549.14791	5765.7875
2551.85548	5760.6875
2554.56136	5751.6875
2557.26554	5721.0875
2559.96803	5732.2875
2562.66883	5700.9875
2565.36794	5688.3875
2568.06536	5670.1875
2570.7611	5668.5875
2573.45514	5637.0875
2576.14751	5627.0875
2578.83819	5627.3875
2581.52719	5616.8875
2584.21451	5596.0875
2586.90015	5600.0875
2589.58411	5569.0875
2592.2664	5560.7875
2594.94701	5558.8875
2597.62594	5531.8875
2600.30321	5511.1875
2602.9788	5526.5875
2605.65273	5511.9875
2608.32498	5498.8875
2610.99557	5498.0875
2613.66449	5491.2875
2616.33175	5479.4875
2618.99734	5465.8875
2621.66128	5450.9875
2624.32355	5418.9875
2626.98416	5407.7875
2629.64311	5400.2875
2632.30041	5380.9875
2634.95605	5360.3875
2637.61004	5377.7875
2640.26238	5358.8875
2642.91306	5346.8875
2645.56209	5333.6875
2648.20948	5340.6875
2650.85521	5335.5875
2653.4993	5316.2875
2656.14175	5315.7875
2658.78255	5328.5875
2661.42171	5305.0875
2664.05923	5301.4875
2666.6951	5317.0875
2669.32934	5323.4875
2671.96194	5318.7875
2674.59291	5332.2875
2677.22224	5305.6875
2679.84993	5317.9875
2682.476	5298.0875
2685.10043	5306.9875
2687.72324	5313.7875
2690.34441	5295.4875
2692.96396	5284.1875
2695.58188	5286.2875
2698.19818	5290.8875
2700.81285	5286.1875
2703.4259	5266.7875
2706.03733	5273.6875
2708.64714	5256.9875
2711.25533	5259.5875
2713.86191	5247.4875
2716.46687	5261.2875
2719.07021	5250.6875
2721.67194	5253.1875
2724.27206	5241.6875
2726.87057	5248.7875
2729.46747	5234.9875
2732.06276	5220.2875
2734.65644	5225.6875
2737.24852	5211.7875
2739.83899	5206.0875
2742.42786	5205.8875
2745.01513	5177.6875
2747.60079	5170.2875
2750.18486	5179.6875
2752.76733	5148.3875
2755.3482	5135.9875
2757.92747	5142.6875
2760.50515	5107.9875
2763.08123	5137.6875
2765.65573	5103.9875
2768.22863	5093.8875
2770.79994	5069.5875
2773.36967	5074.8875
2775.9378	5066.9875
2778.50435	5043.4875
2781.06932	5048.9875
2783.6327	5057.9875
2786.1945	5038.9875
2788.75471	5031.1875
2791.31335	5010.2875
2793.87041	4999.3875
2796.42589	4977.8875
2798.97979	4964.5875
2801.53212	4948.4875
2804.08288	4946.0875
2806.63206	4934.1875
2809.17967	4919.4875
2811.72571	4918.6875
2814.27018	4923.1875
2816.81308	4879.0875
2819.35442	4879.9875
2821.89419	4863.4875
2824.43239	4867.9875
2826.96904	4856.6875
2829.50412	4840.9875
2832.03763	4828.8875
2834.56959	4830.6875
2837.1	4799.4875
2839.62884	4791.8875
2842.15613	4779.1875
2844.68186	4776.7875
2847.20604	4782.0875
2849.72867	4769.8875
2852.24974	4759.9875
2854.76927	4744.3875
2857.28724	4734.9875
2859.80367	4721.6875
2862.31855	4732.5875
2864.83189	4732.4875
2867.34368	4723.2875
2869.85393	4719.7875
2872.36264	4698.6875
2874.8698	4695.9875
2877.37543	4675.5875
2879.87952	4676.5875
2882.38207	4668.4875
2884.88308	4659.1875
2887.38256	4651.2875
2889.88051	4651.8875
2892.37692	4638.8875
2894.8718	4636.7875
2897.36515	4645.2875
2899.85698	4631.6875
2902.34727	4644.3875
2904.83604	4625.9875
2907.32328	4643.7875
2909.809	4633.5875
2912.29319	4633.4875
2914.77587	4637.0875
2917.25702	4649.9875
2919.73665	4642.3875
2922.21476	4636.8875
2924.69136	4636.6875
2927.16644	4610.4875
2929.64	4612.5875
2932.11205	4578.2875
2934.58258	4566.4875
2937.05161	4583.4875
2939.51912	4581.9875
2941.98513	4567.6875
2944.44962	4565.2875
2946.91261	4538.3875
2949.37409	4545.1875
2951.83407	4544.5875
2954.29254	4520.4875
2956.74951	4529.5875
2959.20498	4526.1875
2961.65895	4532.8875
2964.11142	4515.3875
2966.56239	4519.8875
2969.01186	4530.3875
2971.45984	4512.0875
2973.90632	4506.2875
2976.35131	4497.0875
2978.7948	4494.4875
2981.23681	4489.0875
2983.67732	4474.2875
2986.11635	4463.9875
2988.55388	4451.1875
2990.98993	4426.1875
2993.4245	4415.6875
2995.85758	4411.0875
2998.28917	4396.9875
3000.71928	4385.4875
3003.14791	4372.4875
3005.57506	4375.3875
3008.00073	4345.6875
3010.42493	4338.8875
3012.84764	4330.1875
3015.26888	4315.9875
3017.68865	4304.0875
3020.10694	4329.5875
3022.52376	4296.8875
3024.9391	4266.4875
3027.35298	4253.7875
3029.76539	4249.4875
3032.17632	4244.1875
3034.5858	4242.7875
3036.9938	4240.8875
3039.40034	4229.1875
3041.80542	4205.5875
3044.20903	4181.4875
3046.61118	4193.2875
3049.01187	4169.7875
3051.4111	4157.8875
3053.80888	4169.9875
3056.20519	4153.6875
3058.60005	4140.0875
3060.99345	4126.9875
3063.3854	4121.3875
3065.7759	4109.8875
3068.16494	4105.0875
3070.55254	4083.1875
3072.93868	4067.9875
3075.32338	4050.4875
3077.70662	4038.2875
3080.08842	4041.2875
3082.46878	4031.6875
3084.84769	4023.6875
3087.22515	4019.9875
3089.60118	4010.4875
3091.97576	4007.1875
3094.3489	3993.6875
