Data from AgNPs_UA_10uM_CRN_500uM_SU_RamanShift__44__13-12-40-262.txt Node

Date: Thu Aug 04 13:12:40 BST 2022
User: TCL
Spectrometer: QEP01345
Trigger mode: 4
Integration Time (sec): 1.000000E0
Scans to average: 10
Electric dark correction enabled: true
Nonlinearity correction enabled: false
Boxcar width: 0
XAxis mode: Raman Shifts
Number of Pixels in Spectrum: 1044
>>>>>Begin Spectral Data<<<<<
46.04893	0.325
50.45542	-0.875
54.85868	0.525
59.25871	-0.375
63.6555	21.125
68.04907	20.125
72.43941	21.725
76.82654	22.225
81.21044	22.225
85.59113	23.425
89.96862	25.525
94.34289	25.925
98.71396	27.025
103.08183	28.125
107.4465	28.625
111.80798	27.325
116.16626	30.625
120.52136	30.725
124.87327	33.125
129.222	37.325
133.56755	35.625
137.90993	40.725
142.24913	46.125
146.58517	53.125
150.91804	59.625
155.24774	72.225
159.57429	90.825
163.89768	119.025
168.21792	158.925
172.53501	215.125
176.84895	307.525
181.15975	434.025
185.46741	613.125
189.77193	849.925
194.07331	1148.225
198.37157	1479.625
202.6667	1826.725
206.9587	2178.825
211.24758	2524.225
215.53334	2877.025
219.81599	3242.625
224.09553	3643.625
228.37195	4093.925
232.64527	4577.825
236.91549	5079.325
241.18261	5557.725
245.44663	5967.325
249.70755	6315.425
253.96539	6636.325
258.22014	6902.225
262.4718	7145.525
266.72039	7276.325
270.96589	7366.825
275.20832	7316.625
279.44768	7239.525
283.68397	7150.725
287.91719	7062.325
292.14735	7058.525
296.37445	7090.425
300.59849	7192.125
304.81948	7335.225
309.03742	7445.925
313.25231	7463.025
317.46415	7416.925
321.67296	7234.225
325.87872	7100.425
330.08145	7037.225
334.28114	7052.025
338.47781	7126.625
342.67145	7239.425
346.86207	7390.425
351.04966	7617.225
355.23424	7831.525
359.4158	8022.625
363.59435	8161.425
367.76989	8241.925
371.94243	8314.425
376.11196	8321.425
380.27849	8380.625
384.44203	8445.925
388.60257	8510.325
392.76012	8564.025
396.91468	8680.825
401.06626	8760.725
405.21485	8836.425
409.36047	8804.025
413.50311	8626.425
417.64277	8472.225
421.77947	8354.025
425.9132	8320.825
430.04396	8315.125
434.17176	8324.525
438.2966	8430.525
442.41849	8550.725
446.53742	8708.025
450.6534	8860.525
454.76644	9015.825
458.87653	9109.325
462.98368	9149.025
467.08789	9087.725
471.18916	8986.425
475.2875	8844.125
479.38291	8731.725
483.4754	8666.025
487.56496	8599.325
491.6516	8587.825
495.73531	8583.825
499.81612	8596.325
503.89401	8659.425
507.96899	8716.025
512.04106	8731.225
516.11023	8767.725
520.1765	8801.425
524.23987	8799.325
528.30034	8795.225
532.35792	8782.525
536.41261	8773.925
540.46441	8698.625
544.51333	8707.125
548.55936	8735.625
552.60252	8833.925
556.64279	8959.225
560.6802	9051.525
564.71473	9097.725
568.7464	9106.825
572.7752	9058.225
576.80114	8928.925
580.82422	8811.925
584.84444	8801.325
588.86181	8796.925
592.87633	8877.225
596.888	9018.925
600.89682	9351.525
604.9028	10131.725
608.90594	11585.625
612.90624	12932.225
616.90371	12105.125
620.89834	10212.525
624.89015	9443.625
628.87913	9379.625
632.86528	9487.025
636.84862	9542.125
640.82913	9404.725
644.80683	9141.225
648.78172	9030.125
652.75379	9023.925
656.72306	9247.125
660.68952	9460.225
664.65319	9430.625
668.61405	9419.425
672.57211	9519.825
676.52738	9542.525
680.47986	9344.525
684.42955	9192.625
688.37646	9141.425
692.32058	9219.325
696.26192	9382.725
700.20048	9531.525
704.13626	9560.825
708.06928	9456.925
711.99952	9353.425
715.927	9339.225
719.85171	9379.125
723.77365	9407.525
727.69284	9362.425
731.60928	9309.525
735.52295	9307.225
739.43388	9355.525
743.34206	9378.425
747.24749	9385.025
751.15017	9383.425
755.05012	9445.425
758.94733	9637.025
762.8418	10121.625
766.73354	10846.625
770.62254	11473.725
774.50882	11724.425
778.39237	11582.325
782.27321	11122.825
786.15132	10489.725
790.02671	9990.325
793.89938	9719.125
797.76935	9587.625
801.6366	9477.525
805.50115	9443.625
809.36299	9427.325
813.22213	9403.625
817.07857	9430.425
820.93231	9414.725
824.78336	9410.825
828.63172	9454.325
832.47738	9462.725
836.32036	9446.725
840.16066	9453.125
843.99827	9459.625
847.8332	9469.725
851.66546	9453.925
855.49504	9511.225
859.32195	9494.125
863.1462	9476.625
866.96777	9492.825
870.78668	9503.325
874.60293	9535.825
878.41652	9576.325
882.22745	9640.025
886.03573	9671.625
889.84136	9661.225
893.64433	9644.725
897.44466	9624.025
901.24235	9604.325
905.0374	9580.325
908.8298	9578.525
912.61957	9564.325
916.40671	9556.825
920.19121	9574.925
923.97308	9592.825
927.75233	9642.025
931.52895	9730.725
935.30295	9669.725
939.07433	9578.425
942.84309	9531.125
946.60924	9514.625
950.37278	9508.225
954.13371	9502.725
957.89203	9473.525
961.64774	9482.925
965.40086	9473.725
969.15137	9463.925
972.89929	9453.625
976.64461	9455.425
980.38733	9461.525
984.12747	9486.725
987.86502	9523.525
991.59999	9551.925
995.33237	9624.425
999.06217	9681.225
1002.78939	9777.625
1006.51404	9917.825
1010.23611	10040.025
1013.95561	10108.825
1017.67255	10154.825
1021.38692	10155.325
1025.09872	10118.725
1028.80796	10084.425
1032.51465	10077.025
1036.21877	10103.225
1039.92035	10123.925
1043.61937	10112.825
1047.31584	10121.925
1051.00976	10148.725
1054.70114	10161.925
1058.38998	10181.025
1062.07627	10232.925
1065.76003	10288.125
1069.44126	10373.125
1073.11995	10559.425
1076.79611	10724.025
1080.46974	10830.925
1084.14085	10843.925
1087.80943	10879.625
1091.47549	10946.725
1095.13903	10954.525
1098.80005	11037.225
1102.45857	11166.325
1106.11456	11164.325
1109.76805	11029.025
1113.41903	10959.825
1117.06751	11003.725
1120.71348	11090.625
1124.35696	11167.625
1127.99793	11184.225
1131.63641	11084.725
1135.2724	10867.725
1138.90589	10713.225
1142.5369	10599.925
1146.16542	10499.025
1149.79145	10402.525
1153.415	10336.825
1157.03607	10316.825
1160.65467	10393.625
1164.27079	10535.225
1167.88443	10780.225
1171.49561	11110.725
1175.10432	11597.225
1178.71056	12208.425
1182.31434	12833.125
1185.91565	13119.125
1189.51451	13216.725
1193.11091	13177.525
1196.70485	12995.025
1200.29634	12747.425
1203.88538	12405.525
1207.47197	12042.125
1211.05612	11702.425
1214.63782	11367.325
1218.21708	11142.925
1221.79391	11009.725
1225.36829	10970.925
1228.94024	10957.525
1232.50976	10956.225
1236.07685	11010.425
1239.6415	11039.725
1243.20374	11070.725
1246.76355	11136.425
1250.32093	11221.925
1253.8759	11318.025
1257.42845	11541.325
1260.97859	11779.125
1264.52631	12006.725
1268.07163	12164.425
1271.61453	12278.125
1275.15503	12284.125
1278.69312	12281.125
1282.22882	12277.425
1285.76211	12332.325
1289.29301	12436.425
1292.82151	12596.325
1296.34761	12801.525
1299.87133	13081.525
1303.39266	13562.925
1306.9116	14268.625
1310.42815	14977.125
1313.94233	15252.525
1317.45412	14983.225
1320.96354	14510.425
1324.47058	14015.325
1327.97525	13517.925
1331.47754	13227.625
1334.97747	13172.525
1338.47502	13373.925
1341.97022	13758.225
1345.46305	14397.625
1348.95352	15184.325
1352.44163	15972.425
1355.92738	16649.325
1359.41078	17320.625
1362.89183	17648.825
1366.37053	16809.225
1369.84688	15164.325
1373.32088	13603.925
1376.79254	12742.525
1380.26186	12328.725
1383.72883	12002.725
1387.19347	11783.925
1390.65578	11504.925
1394.11575	11259.025
1397.57339	11068.125
1401.0287	10988.925
1404.48168	10999.225
1407.93234	11107.025
1411.38068	11327.125
1414.82669	11458.925
1418.27039	11501.925
1421.71177	11487.225
1425.15083	11440.525
1428.58758	11352.025
1432.02203	11367.025
1435.45416	11356.725
1438.88399	11288.325
1442.31151	11254.725
1445.73673	11211.725
1449.15965	11226.925
1452.58027	11195.725
1455.9986	11159.725
1459.41463	11147.925
1462.82837	11220.025
1466.23982	11351.425
1469.64898	11527.025
1473.05586	11636.225
1476.46045	11774.325
1479.86276	11915.125
1483.26279	12014.625
1486.66054	12163.425
1490.05602	12450.525
1493.44922	12941.025
1496.84016	13564.725
1500.22882	14411.525
1503.61521	15340.825
1506.99934	16167.425
1510.38121	16462.725
1513.76081	16177.425
1517.13816	15239.825
1520.51324	14124.525
1523.88607	13221.625
1527.25665	12655.225
1530.62498	12381.425
1533.99105	12235.125
1537.35488	12167.825
1540.71647	12077.625
1544.07581	12032.325
1547.4329	11951.125
1550.78776	11857.425
1554.14038	11757.025
1557.49077	11739.025
1560.83892	11837.625
1564.18484	11991.125
1567.52853	12133.625
1570.86999	12238.525
1574.20922	12270.125
1577.54624	12194.925
1580.88103	11897.425
1584.2136	11545.625
1587.54395	11388.625
1590.87208	11419.525
1594.19801	11716.425
1597.52172	12051.725
1600.84321	12239.625
1604.16251	12199.025
1607.47959	12080.125
1610.79447	11754.325
1614.10715	11330.925
1617.41763	10911.525
1620.7259	10609.425
1624.03199	10401.125
1627.33587	10351.325
1630.63757	10411.325
1633.93707	10692.125
1637.23439	11152.225
1640.52951	11828.325
1643.82246	12713.325
1647.11321	13491.525
1650.40179	13705.725
1653.68819	13108.125
1656.97241	11984.725
1660.25446	10941.225
1663.53433	10298.525
1666.81203	9857.025
1670.08756	9631.025
1673.36092	9480.025
1676.63211	9419.325
1679.90115	9304.925
1683.16801	9267.125
1686.43272	9197.825
1689.69527	9090.825
1692.95567	9089.725
1696.2139	9048.425
1699.46999	9024.125
1702.72392	9014.025
1705.97571	8992.925
1709.22535	9008.325
1712.47284	8987.825
1715.71819	9019.625
1718.96139	8994.325
1722.20246	8980.025
1725.44139	8959.325
1728.67818	8940.125
1731.91284	8898.125
1735.14537	8845.125
1738.37576	8811.825
1741.60403	8798.625
1744.83017	8774.125
1748.05418	8780.525
1751.27607	8754.625
1754.49584	8736.525
1757.71349	8733.425
1760.92903	8737.725
1764.14244	8682.025
1767.35375	8674.325
1770.56294	8658.525
1773.77002	8668.025
1776.97499	8634.625
1780.17785	8599.525
1783.37861	8560.625
1786.57727	8588.825
1789.77382	8576.625
1792.96828	8545.225
1796.16064	8563.125
1799.3509	8560.925
1802.53907	8542.525
1805.72514	8535.725
1808.90913	8493.325
1812.09102	8468.425
1815.27083	8462.525
1818.44856	8430.125
1821.6242	8413.425
1824.79776	8406.125
1827.96924	8383.425
1831.13864	8385.025
1834.30597	8372.225
1837.47122	8353.525
1840.6344	8309.825
1843.7955	8347.825
1846.95454	8320.125
1850.11151	8343.825
1853.26642	8324.225
1856.41926	8330.625
1859.57004	8311.825
1862.71876	8334.925
1865.86542	8318.725
1869.01003	8307.325
1872.15258	8260.825
1875.29308	8271.425
1878.43152	8258.025
1881.56792	8262.925
1884.70227	8230.725
1887.83457	8212.525
1890.96482	8196.025
1894.09304	8159.825
1897.21921	8159.325
1900.34335	8158.525
1903.46544	8170.925
1906.58551	8150.225
1909.70353	8143.625
1912.81953	8140.425
1915.93349	8126.425
1919.04543	8101.525
1922.15534	8073.325
1925.26322	8080.225
1928.36908	8050.825
1931.47292	8035.725
1934.57473	8019.525
1937.67453	8020.425
1940.77232	7991.425
1943.86808	7967.625
1946.96184	7937.125
1950.05358	7942.125
1953.14331	7899.025
1956.23103	7868.425
1959.31675	7852.225
1962.40046	7829.825
1965.48217	7794.625
1968.56188	7758.725
1971.63959	7734.825
1974.7153	7726.125
1977.78901	7710.125
1980.86073	7693.925
1983.93046	7657.925
1986.99819	7641.125
1990.06394	7617.125
1993.1277	7579.325
1996.18947	7550.825
1999.24925	7530.825
2002.30706	7512.125
2005.36288	7467.925
2008.41672	7460.225
2011.46859	7433.725
2014.51848	7386.025
2017.56639	7397.825
2020.61233	7359.125
2023.6563	7345.225
2026.6983	7344.825
2029.73833	7296.825
2032.7764	7276.525
2035.8125	7270.225
2038.84664	7258.725
2041.87881	7230.525
2044.90903	7233.725
2047.93729	7208.525
2050.96359	7191.825
2053.98794	7188.525
2057.01034	7172.625
2060.03078	7163.225
2063.04927	7147.225
2066.06582	7166.725
2069.08042	7141.525
2072.09307	7131.925
2075.10378	7111.625
2078.11255	7115.725
2081.11938	7108.725
2084.12426	7080.525
2087.12722	7085.325
2090.12824	7097.525
2093.12732	7092.025
2096.12447	7095.525
2099.11969	7096.925
2102.11299	7099.425
2105.10435	7102.025
2108.09379	7106.825
2111.08131	7104.625
2114.0669	7098.425
2117.05057	7102.725
2120.03233	7116.525
2123.01216	7121.325
2125.99008	7119.325
2128.96609	7115.925
2131.94018	7120.925
2134.91236	7115.825
2137.88263	7112.025
2140.851	7118.925
2143.81746	7106.825
2146.78201	7097.425
2149.74466	7099.625
2152.7054	7101.925
2155.66425	7079.525
2158.6212	7110.625
2161.57625	7086.625
2164.52941	7075.425
2167.48067	7092.725
2170.43004	7062.225
2173.37752	7069.925
2176.32311	7073.325
2179.26681	7060.625
2182.20863	7065.325
2185.14856	7086.825
2188.08661	7071.325
2191.02278	7073.225
2193.95707	7063.125
2196.88948	7059.725
2199.82001	7045.225
2202.74867	7033.525
2205.67545	7029.425
2208.60037	7026.425
2211.52341	7001.125
2214.44458	6995.325
2217.36388	6970.125
2220.28132	6965.225
2223.1969	6933.925
2226.11061	6901.325
2229.02246	6884.925
2231.93245	6896.425
2234.84058	6880.925
2237.74686	6874.225
2240.65128	6862.725
2243.55385	6826.325
2246.45456	6835.525
2249.35343	6824.225
2252.25044	6811.925
2255.14561	6792.625
2258.03893	6798.325
2260.93041	6795.625
2263.82004	6767.325
2266.70783	6770.825
2269.59378	6721.525
2272.4779	6711.225
2275.36017	6685.025
2278.24061	6671.325
2281.11922	6659.725
2283.996	6624.125
2286.87094	6629.025
2289.74405	6621.025
2292.61534	6638.225
2295.4848	6592.825
2298.35243	6585.425
2301.21824	6595.925
2304.08223	6566.625
2306.94439	6579.025
2309.80474	6577.325
2312.66327	6569.725
2315.51999	6539.425
2318.37489	6553.425
2321.22797	6528.825
2324.07925	6514.325
2326.92871	6495.625
2329.77637	6491.825
2332.62222	6463.525
2335.46626	6470.125
2338.3085	6452.325
2341.14893	6444.625
2343.98756	6448.925
2346.8244	6444.025
2349.65943	6412.825
2352.49267	6422.525
2355.32411	6390.025
2358.15376	6403.325
2360.98161	6409.325
2363.80768	6388.325
2366.63195	6379.225
2369.45444	6388.325
2372.27514	6369.725
2375.09405	6367.225
2377.91118	6347.525
2380.72652	6340.825
2383.54009	6304.125
2386.35187	6305.125
2389.16188	6308.525
2391.97011	6274.625
2394.77657	6255.725
2397.58125	6248.225
2400.38416	6232.325
2403.18529	6250.725
2405.98466	6240.425
2408.78226	6208.725
2411.57809	6191.825
2414.37216	6174.425
2417.16446	6192.525
2419.955	6169.525
2422.74378	6151.825
2425.5308	6157.125
2428.31606	6158.625
2431.09956	6138.625
2433.88131	6119.225
2436.6613	6133.825
2439.43954	6135.825
2442.21603	6119.325
2444.99077	6102.325
2447.76377	6113.025
2450.53501	6109.525
2453.30451	6101.725
2456.07226	6089.425
2458.83827	6065.425
2461.60254	6043.125
2464.36507	6041.625
2467.12586	6033.525
2469.88492	6015.425
2472.64224	6030.425
2475.39782	6038.225
2478.15167	6010.125
2480.90379	5999.125
2483.65417	5981.325
2486.40283	5985.025
2489.14976	6000.025
2491.89497	5982.025
2494.63845	5997.425
2497.3802	5975.225
2500.12024	5946.325
2502.85855	5949.925
2505.59514	5937.825
2508.33002	5948.025
2511.06318	5928.525
2513.79462	5918.125
2516.52435	5904.925
2519.25237	5901.725
2521.97867	5886.325
2524.70327	5875.025
2527.42616	5875.625
2530.14734	5837.425
2532.86681	5838.925
2535.58458	5855.925
2538.30065	5837.225
2541.01501	5844.625
2543.72768	5828.825
2546.43864	5812.025
2549.14791	5808.725
2551.85548	5781.525
2554.56136	5795.425
2557.26554	5771.525
2559.96803	5749.325
2562.66883	5739.725
2565.36794	5720.125
2568.06536	5708.225
2570.7611	5685.525
2573.45514	5670.625
2576.14751	5681.325
2578.83819	5667.225
2581.52719	5636.425
2584.21451	5637.025
2586.90015	5637.825
2589.58411	5630.425
2592.2664	5629.025
2594.94701	5592.925
2597.62594	5592.225
2600.30321	5586.425
2602.9788	5581.125
2605.65273	5574.125
2608.32498	5570.225
2610.99557	5555.525
2613.66449	5554.025
2616.33175	5507.225
2618.99734	5530.325
2621.66128	5518.525
2624.32355	5498.125
2626.98416	5491.425
2629.64311	5471.725
2632.30041	5471.625
2634.95605	5457.825
2637.61004	5439.625
2640.26238	5440.825
2642.91306	5430.625
2645.56209	5431.325
2648.20948	5418.425
2650.85521	5411.725
2653.4993	5414.325
2656.14175	5400.925
2658.78255	5412.825
2661.42171	5383.025
2664.05923	5409.625
2666.6951	5414.725
2669.32934	5412.425
2671.96194	5415.925
2674.59291	5405.125
2677.22224	5412.325
2679.84993	5393.325
2682.476	5397.925
2685.10043	5390.025
2687.72324	5397.125
2690.34441	5392.025
2692.96396	5386.725
2695.58188	5388.125
2698.19818	5380.625
2700.81285	5368.825
2703.4259	5361.925
2706.03733	5346.125
2708.64714	5353.425
2711.25533	5366.525
2713.86191	5354.825
2716.46687	5358.425
2719.07021	5353.025
2721.67194	5355.225
2724.27206	5335.225
2726.87057	5341.625
2729.46747	5347.525
2732.06276	5332.925
2734.65644	5334.725
2737.24852	5318.225
2739.83899	5317.025
2742.42786	5300.925
2745.01513	5288.525
2747.60079	5268.425
2750.18486	5276.525
2752.76733	5264.525
2755.3482	5256.625
2757.92747	5241.625
2760.50515	5243.325
2763.08123	5240.325
2765.65573	5227.325
2768.22863	5199.725
2770.79994	5196.725
2773.36967	5209.225
2775.9378	5197.825
2778.50435	5188.225
2781.06932	5181.925
2783.6327	5181.625
2786.1945	5151.625
2788.75471	5164.125
2791.31335	5135.625
2793.87041	5132.825
2796.42589	5108.425
2798.97979	5114.025
2801.53212	5092.525
2804.08288	5075.325
2806.63206	5064.625
2809.17967	5072.125
2811.72571	5034.925
2814.27018	5040.725
2816.81308	5033.125
2819.35442	5020.425
2821.89419	5003.325
2824.43239	4993.325
2826.96904	4969.325
2829.50412	4967.625
2832.03763	4961.425
2834.56959	4961.925
2837.1	4949.425
2839.62884	4918.025
2842.15613	4927.425
2844.68186	4928.325
2847.20604	4927.725
2849.72867	4916.425
2852.24974	4907.325
2854.76927	4893.025
2857.28724	4876.225
2859.80367	4869.825
2862.31855	4858.225
2864.83189	4863.725
2867.34368	4856.225
2869.85393	4862.725
2872.36264	4830.325
2874.8698	4833.625
2877.37543	4829.625
2879.87952	4813.025
2882.38207	4815.225
2884.88308	4801.525
2887.38256	4808.025
2889.88051	4810.125
2892.37692	4811.625
2894.8718	4794.625
2897.36515	4793.825
2899.85698	4790.225
2902.34727	4784.325
2904.83604	4790.225
2907.32328	4787.325
2909.809	4796.625
2912.29319	4797.425
2914.77587	4794.325
2917.25702	4800.425
2919.73665	4807.325
2922.21476	4776.425
2924.69136	4784.225
2927.16644	4777.025
2929.64	4778.125
2932.11205	4746.925
2934.58258	4732.625
2937.05161	4741.725
2939.51912	4751.525
2941.98513	4735.725
2944.44962	4726.025
2946.91261	4710.025
2949.37409	4725.125
2951.83407	4701.825
2954.29254	4702.825
2956.74951	4710.925
2959.20498	4712.025
2961.65895	4701.125
2964.11142	4690.525
2966.56239	4703.025
2969.01186	4697.725
2971.45984	4677.525
2973.90632	4700.725
2976.35131	4666.225
2978.7948	4669.525
2981.23681	4649.725
2983.67732	4649.825
2986.11635	4638.225
2988.55388	4630.125
2990.98993	4606.625
2993.4245	4602.625
2995.85758	4595.625
2998.28917	4577.325
3000.71928	4576.025
3003.14791	4543.025
3005.57506	4535.225
3008.00073	4529.225
3010.42493	4517.125
3012.84764	4517.025
3015.26888	4496.325
3017.68865	4510.625
3020.10694	4489.025
3022.52376	4472.625
3024.9391	4455.825
3027.35298	4427.325
3029.76539	4421.425
3032.17632	4418.725
3034.5858	4436.325
3036.9938	4412.925
3039.40034	4410.125
3041.80542	4376.725
3044.20903	4362.825
3046.61118	4371.925
3049.01187	4351.125
3051.4111	4349.525
3053.80888	4335.325
3056.20519	4326.025
3058.60005	4298.525
3060.99345	4306.025
3063.3854	4306.925
3065.7759	4278.925
3068.16494	4299.025
3070.55254	4268.925
3072.93868	4234.625
3075.32338	4230.425
3077.70662	4234.025
3080.08842	4221.525
3082.46878	4204.225
3084.84769	4192.625
3087.22515	4185.725
3089.60118	4173.025
3091.97576	4189.225
3094.3489	4190.625
3096.72061	4164.025
3099.09087	4167.525
3101.4597	4159.525
3103.82709	4172.125
3106.19305	4157.425
3108.55757	4176.325
3110.92066	4143.325
3113.28232	4144.625
3115.64255	4117.225
3118.00134	4118.025
3120.35871	4113.725
3122.71466	4099.725
3125.06917	4098.325
3127.42226	4069.025
3129.77393	4089.825
3132.12417	4059.025
3134.47299	4056.125
3136.82039	4060.825
3139.16636	4050.025
3141.51092	4069.025
3143.85406	4032.625
3146.19579	4034.425
3148.53609	4038.925
3150.87499	4031.925
3153.21246	4027.925
3155.54853	4034.025
3157.88318	4030.925
3160.21642	4033.625
3162.54826	4014.025
3164.87868	4016.525
3167.2077	3989.425
3169.5353	4018.125
3171.86151	4008.825
3174.18631	3996.825
3176.5097	3981.025
3178.83169	3961.125
3181.15228	3974.525
3183.47147	3954.125
3185.78926	3952.825
3188.10565	3928.925
3190.42065	3914.325
3192.73424	3910.725
3195.04645	3910.425
3197.35725	3897.325
3199.66667	3917.125
3201.97469	3903.025
3204.28132	3911.325
3206.58656	3897.425
3208.8904	3892.625
3211.19287	3895.825
3213.49394	3900.725
3215.79363	3895.725
