Data from AgNPs_UA_5uM_CRN_500uM_SU_RamanShift__257__12-12-13-191.txt Node

Date: Thu Aug 04 12:12:13 BST 2022
User: TCL
Spectrometer: QEP01345
Trigger mode: 4
Integration Time (sec): 1.000000E0
Scans to average: 10
Electric dark correction enabled: true
Nonlinearity correction enabled: false
Boxcar width: 0
XAxis mode: Raman Shifts
Number of Pixels in Spectrum: 1044
>>>>>Begin Spectral Data<<<<<
46.04893	0.025
50.45542	0.025
54.85868	0.625
59.25871	-0.975
63.6555	-56.375
68.04907	-40.075
72.43941	-72.475
76.82654	-58.075
81.21044	-56.675
85.59113	-50.075
89.96862	-75.475
94.34289	-56.075
98.71396	-76.975
103.08183	-59.175
107.4465	-50.975
111.80798	-57.075
116.16626	-45.375
120.52136	-74.675
124.87327	-50.375
129.222	-64.775
133.56755	-52.175
137.90993	-63.775
142.24913	-51.075
146.58517	-46.375
150.91804	-41.675
155.24774	-33.075
159.57429	-14.575
163.89768	-8.675
168.21792	31.025
172.53501	53.325
176.84895	134.525
181.15975	261.825
185.46741	402.925
189.77193	573.225
194.07331	861.525
198.37157	1133.725
202.6667	1410.625
206.9587	1723.125
211.24758	2026.725
215.53334	2341.125
219.81599	2672.725
224.09553	3074.025
228.37195	3501.525
232.64527	3950.425
236.91549	4405.925
241.18261	4728.025
245.44663	5008.825
249.70755	5173.225
253.96539	5282.025
258.22014	5389.925
262.4718	5449.925
266.72039	5491.025
270.96589	5476.325
275.20832	5378.825
279.44768	5282.825
283.68397	5172.625
287.91719	5106.325
292.14735	5152.725
296.37445	5317.025
300.59849	5616.525
304.81948	5957.325
309.03742	6322.825
313.25231	6548.725
317.46415	6508.125
321.67296	6129.925
325.87872	5738.925
330.08145	5529.025
334.28114	5492.825
338.47781	5541.625
342.67145	5681.325
346.86207	5906.325
351.04966	6257.025
355.23424	6631.825
359.4158	6898.225
363.59435	6944.625
367.76989	6869.825
371.94243	6750.525
376.11196	6610.725
380.27849	6555.025
384.44203	6463.125
388.60257	6433.925
392.76012	6474.025
396.91468	6551.725
401.06626	6723.125
405.21485	6742.925
409.36047	6583.625
413.50311	6272.025
417.64277	5981.825
421.77947	5763.625
425.9132	5711.825
430.04396	5700.025
434.17176	5733.725
438.2966	5822.525
442.41849	5904.225
446.53742	6006.425
450.6534	6113.425
454.76644	6191.425
458.87653	6191.525
462.98368	6145.525
467.08789	6078.125
471.18916	5987.625
475.2875	5889.925
479.38291	5770.025
483.4754	5670.325
487.56496	5644.125
491.6516	5620.925
495.73531	5624.725
499.81612	5652.325
503.89401	5733.325
507.96899	5776.525
512.04106	5869.525
516.11023	5965.925
520.1765	6055.525
524.23987	6067.825
528.30034	6050.825
532.35792	5983.525
536.41261	5927.125
540.46441	5815.125
544.51333	5780.025
548.55936	5810.125
552.60252	5938.625
556.64279	6050.125
560.6802	6163.425
564.71473	6319.525
568.7464	6488.925
572.7752	6469.425
576.80114	6179.725
580.82422	5946.225
584.84444	5867.625
588.86181	5832.025
592.87633	5867.125
596.888	5980.525
600.89682	6341.125
604.9028	7312.325
608.90594	9364.625
612.90624	11674.925
616.90371	10804.625
620.89834	7774.725
624.89015	6461.425
628.87913	6234.425
632.86528	6403.025
636.84862	6568.225
640.82913	6427.725
644.80683	6081.925
648.78172	5908.225
652.75379	5920.925
656.72306	6148.325
660.68952	6381.725
664.65319	6326.725
668.61405	6064.825
672.57211	6002.725
676.52738	6006.125
680.47986	5892.525
684.42955	5803.225
688.37646	5762.625
692.32058	5774.025
696.26192	5846.325
700.20048	5925.025
704.13626	5963.825
708.06928	5921.025
711.99952	5893.025
715.927	5877.025
719.85171	5938.325
723.77365	5966.625
727.69284	5924.125
731.60928	5919.525
735.52295	5884.125
739.43388	5919.925
743.34206	5957.825
747.24749	5959.525
751.15017	5981.825
755.05012	6070.925
758.94733	6437.625
762.8418	7299.625
766.73354	8599.825
770.62254	9638.225
774.50882	9715.025
778.39237	9186.625
782.27321	8235.625
786.15132	7190.025
790.02671	6536.825
793.89938	6163.125
797.76935	6023.125
801.6366	5939.625
805.50115	5904.625
809.36299	5887.125
813.22213	5881.425
817.07857	5879.325
820.93231	5864.125
824.78336	5897.525
828.63172	5907.425
832.47738	5910.825
836.32036	5923.625
840.16066	5884.525
843.99827	5867.425
847.8332	5850.125
851.66546	5866.725
855.49504	5863.125
859.32195	5901.825
863.1462	5887.325
866.96777	5891.825
870.78668	5864.425
874.60293	5888.625
878.41652	5923.525
882.22745	5982.625
886.03573	6019.225
889.84136	6012.825
893.64433	6022.925
897.44466	5991.225
901.24235	5990.525
905.0374	5993.225
908.8298	5936.925
912.61957	5896.125
916.40671	5868.725
920.19121	5918.625
923.97308	6002.125
927.75233	6058.825
931.52895	6120.125
935.30295	6068.525
939.07433	5932.625
942.84309	5804.225
946.60924	5776.625
950.37278	5744.225
954.13371	5737.525
957.89203	5733.625
961.64774	5750.825
965.40086	5748.625
969.15137	5721.325
972.89929	5741.925
976.64461	5743.325
980.38733	5766.725
984.12747	5777.525
987.86502	5787.525
991.59999	5792.625
995.33237	5865.425
999.06217	5918.425
1002.78939	6024.625
1006.51404	6124.925
1010.23611	6256.925
1013.95561	6289.925
1017.67255	6296.025
1021.38692	6267.525
1025.09872	6197.425
1028.80796	6110.525
1032.51465	6134.825
1036.21877	6110.425
1039.92035	6158.825
1043.61937	6199.425
1047.31584	6238.225
1051.00976	6285.425
1054.70114	6311.025
1058.38998	6276.125
1062.07627	6283.125
1065.76003	6325.125
1069.44126	6427.025
1073.11995	6471.625
1076.79611	6599.825
1080.46974	6740.025
1084.14085	6918.825
1087.80943	7037.125
1091.47549	7090.325
1095.13903	6982.825
1098.80005	6861.425
1102.45857	6765.825
1106.11456	6769.225
1109.76805	6693.025
1113.41903	6807.425
1117.06751	6961.625
1120.71348	7225.425
1124.35696	7612.025
1127.99793	7869.225
1131.63641	7710.225
1135.2724	7349.025
1138.90589	7039.325
1142.5369	6834.525
1146.16542	6715.325
1149.79145	6620.225
1153.415	6579.325
1157.03607	6585.925
1160.65467	6689.725
1164.27079	6898.725
1167.88443	7150.725
1171.49561	7579.025
1175.10432	8198.725
1178.71056	9109.525
1182.31434	9902.925
1185.91565	10149.125
1189.51451	10006.425
1193.11091	9758.725
1196.70485	9500.225
1200.29634	9245.925
1203.88538	8964.825
1207.47197	8531.025
1211.05612	8025.525
1214.63782	7620.125
1218.21708	7364.125
1221.79391	7221.825
1225.36829	7147.725
1228.94024	7145.225
1232.50976	7165.625
1236.07685	7191.125
1239.6415	7203.125
1243.20374	7224.625
1246.76355	7273.525
1250.32093	7338.925
1253.8759	7423.325
1257.42845	7566.925
1260.97859	7770.825
1264.52631	7996.325
1268.07163	8187.425
1271.61453	8324.725
1275.15503	8358.025
1278.69312	8343.025
1282.22882	8418.625
1285.76211	8637.225
1289.29301	8874.525
1292.82151	9118.325
1296.34761	9352.725
1299.87133	9747.025
1303.39266	10421.925
1306.9116	11605.925
1310.42815	12814.325
1313.94233	13245.625
1317.45412	12466.125
1320.96354	11317.225
1324.47058	10312.125
1327.97525	9574.125
1331.47754	9163.625
1334.97747	9048.925
1338.47502	9154.325
1341.97022	9523.825
1345.46305	10259.025
1348.95352	11347.125
1352.44163	12654.125
1355.92738	14051.025
1359.41078	15750.525
1362.89183	17245.425
1366.37053	16631.525
1369.84688	13803.925
1373.32088	11104.425
1376.79254	9648.925
1380.26186	8961.925
1383.72883	8534.625
1387.19347	8142.025
1390.65578	7782.825
1394.11575	7547.525
1397.57339	7350.925
1401.0287	7250.225
1404.48168	7212.825
1407.93234	7224.325
1411.38068	7238.525
1414.82669	7318.725
1418.27039	7386.825
1421.71177	7377.325
1425.15083	7300.325
1428.58758	7210.025
1432.02203	7238.325
1435.45416	7322.325
1438.88399	7310.725
1442.31151	7312.925
1445.73673	7364.625
1449.15965	7410.125
1452.58027	7427.025
1455.9986	7418.025
1459.41463	7444.825
1462.82837	7562.725
1466.23982	7701.925
1469.64898	7954.325
1473.05586	8093.925
1476.46045	8192.425
1479.86276	8249.625
1483.26279	8363.725
1486.66054	8552.025
1490.05602	8855.425
1493.44922	9411.625
1496.84016	10290.425
1500.22882	11649.125
1503.61521	13409.625
1506.99934	15209.825
1510.38121	16431.125
1513.76081	16244.225
1517.13816	14663.925
1520.51324	12541.525
1523.88607	10847.525
1527.25665	9849.125
1530.62498	9361.925
1533.99105	9149.225
1537.35488	9018.025
1540.71647	8927.825
1544.07581	8812.225
1547.4329	8653.425
1550.78776	8528.325
1554.14038	8413.125
1557.49077	8396.225
1560.83892	8494.225
1564.18484	8724.525
1567.52853	9076.725
1570.86999	9386.325
1574.20922	9553.525
1577.54624	9455.925
1580.88103	8920.425
1584.2136	8213.125
1587.54395	7837.925
1590.87208	7750.325
1594.19801	7920.425
1597.52172	8281.425
1600.84321	8425.825
1604.16251	8271.625
1607.47959	8076.925
1610.79447	7884.625
1614.10715	7616.925
1617.41763	7344.725
1620.7259	7056.125
1624.03199	6911.125
1627.33587	6828.625
1630.63757	6869.925
1633.93707	7092.625
1637.23439	7508.025
1640.52951	8189.725
1643.82246	9190.225
1647.11321	10348.625
1650.40179	11030.825
1653.68819	10739.425
1656.97241	9512.225
1660.25446	8124.625
1663.53433	7113.225
1666.81203	6513.625
1670.08756	6163.425
1673.36092	6005.725
1676.63211	5854.625
1679.90115	5755.325
1683.16801	5664.025
1686.43272	5575.125
1689.69527	5546.325
1692.95567	5488.425
1696.2139	5465.025
1699.46999	5417.125
1702.72392	5426.325
1705.97571	5427.325
1709.22535	5422.925
1712.47284	5435.825
1715.71819	5451.525
1718.96139	5467.325
1722.20246	5430.525
1725.44139	5394.625
1728.67818	5380.225
1731.91284	5329.425
1735.14537	5298.925
1738.37576	5265.925
1741.60403	5258.525
1744.83017	5215.325
1748.05418	5218.425
1751.27607	5214.825
1754.49584	5167.325
1757.71349	5136.625
1760.92903	5161.725
1764.14244	5107.525
1767.35375	5123.925
1770.56294	5089.925
1773.77002	5075.625
1776.97499	5086.525
1780.17785	5067.325
1783.37861	5057.125
1786.57727	5074.325
1789.77382	5023.825
1792.96828	5021.425
1796.16064	5046.825
1799.3509	5002.725
1802.53907	5017.125
1805.72514	4998.625
1808.90913	4968.025
1812.09102	4979.725
1815.27083	4958.725
1818.44856	4935.725
1821.6242	4925.525
1824.79776	4923.125
1827.96924	4921.425
1831.13864	4893.725
1834.30597	4886.125
1837.47122	4881.425
1840.6344	4884.825
1843.7955	4859.325
1846.95454	4849.825
1850.11151	4870.425
1853.26642	4823.925
1856.41926	4846.425
1859.57004	4834.925
1862.71876	4826.025
1865.86542	4826.725
1869.01003	4820.025
1872.15258	4790.325
1875.29308	4826.925
1878.43152	4800.725
1881.56792	4807.525
1884.70227	4778.225
1887.83457	4776.025
1890.96482	4753.225
1894.09304	4748.125
1897.21921	4738.625
1900.34335	4757.825
1903.46544	4733.325
1906.58551	4756.525
1909.70353	4738.525
1912.81953	4739.425
1915.93349	4707.125
1919.04543	4697.225
1922.15534	4701.225
1925.26322	4693.825
1928.36908	4668.325
1931.47292	4675.325
1934.57473	4684.625
1937.67453	4647.125
1940.77232	4619.725
1943.86808	4612.725
1946.96184	4620.525
1950.05358	4581.025
1953.14331	4578.425
1956.23103	4578.825
1959.31675	4544.625
1962.40046	4503.425
1965.48217	4515.225
1968.56188	4518.325
1971.63959	4497.525
1974.7153	4499.225
1977.78901	4494.825
1980.86073	4462.925
1983.93046	4421.025
1986.99819	4342.625
1990.06394	4373.525
1993.1277	4396.825
1996.18947	4363.025
1999.24925	4337.125
2002.30706	4355.625
2005.36288	4323.325
2008.41672	4313.225
2011.46859	4285.625
2014.51848	4273.525
2017.56639	4262.125
2020.61233	4245.025
2023.6563	4245.525
2026.6983	4196.825
2029.73833	4200.825
2032.7764	4219.925
2035.8125	4166.125
2038.84664	4168.825
2041.87881	4143.225
2044.90903	4164.625
2047.93729	4146.125
2050.96359	4119.925
2053.98794	4155.925
2057.01034	4136.625
2060.03078	4118.225
2063.04927	4112.125
2066.06582	4119.525
2069.08042	4112.025
2072.09307	4102.025
2075.10378	4095.425
2078.11255	4082.925
2081.11938	4090.325
2084.12426	4079.825
2087.12722	4077.425
2090.12824	4078.225
2093.12732	4073.125
2096.12447	4096.725
2099.11969	4077.525
2102.11299	4067.025
2105.10435	4079.625
2108.09379	4078.625
2111.08131	4069.825
2114.0669	4082.425
2117.05057	4076.425
2120.03233	4066.125
2123.01216	4082.025
2125.99008	4087.025
2128.96609	4077.025
2131.94018	4110.025
2134.91236	4092.625
2137.88263	4083.825
2140.851	4086.425
2143.81746	4110.625
2146.78201	4093.825
2149.74466	4080.425
2152.7054	4090.925
2155.66425	4077.125
2158.6212	4069.425
2161.57625	4054.625
2164.52941	4030.325
2167.48067	4043.825
2170.43004	4031.025
2173.37752	4042.525
2176.32311	4041.625
2179.26681	4036.225
2182.20863	4059.625
2185.14856	4056.825
2188.08661	4050.025
2191.02278	4052.325
2193.95707	4018.225
2196.88948	4006.225
2199.82001	4018.725
2202.74867	4007.925
2205.67545	4011.025
2208.60037	4008.725
2211.52341	4004.625
2214.44458	3991.525
2217.36388	3981.825
2220.28132	3971.325
2223.1969	3944.725
2226.11061	3945.825
2229.02246	3938.425
2231.93245	3934.625
2234.84058	3921.725
2237.74686	3896.925
2240.65128	3902.925
2243.55385	3897.125
2246.45456	3869.225
2249.35343	3893.125
2252.25044	3878.825
2255.14561	3884.425
2258.03893	3890.625
2260.93041	3866.425
2263.82004	3858.525
2266.70783	3854.025
2269.59378	3837.925
2272.4779	3823.025
2275.36017	3839.925
2278.24061	3811.425
2281.11922	3787.025
2283.996	3798.525
2286.87094	3783.225
2289.74405	3785.725
2292.61534	3786.125
2295.4848	3765.125
2298.35243	3759.425
2301.21824	3731.725
2304.08223	3737.025
2306.94439	3763.825
2309.80474	3761.525
2312.66327	3737.825
2315.51999	3741.525
2318.37489	3731.725
2321.22797	3702.625
2324.07925	3695.625
2326.92871	3694.025
2329.77637	3680.325
2332.62222	3677.125
2335.46626	3650.925
2338.3085	3648.025
2341.14893	3676.025
2343.98756	3680.925
2346.8244	3637.825
2349.65943	3639.825
2352.49267	3629.625
2355.32411	3649.525
2358.15376	3658.425
2360.98161	3657.525
2363.80768	3643.125
2366.63195	3643.225
2369.45444	3664.825
2372.27514	3649.525
2375.09405	3648.725
2377.91118	3620.625
2380.72652	3615.825
2383.54009	3615.125
2386.35187	3607.425
2389.16188	3580.025
2391.97011	3579.825
2394.77657	3566.025
2397.58125	3571.225
2400.38416	3558.825
2403.18529	3550.125
2405.98466	3521.525
2408.78226	3545.825
2411.57809	3528.725
2414.37216	3515.925
2417.16446	3500.725
2419.955	3485.725
2422.74378	3511.825
2425.5308	3482.725
2428.31606	3500.325
2431.09956	3505.025
2433.88131	3480.725
2436.6613	3485.925
2439.43954	3494.925
2442.21603	3471.225
2444.99077	3469.325
2447.76377	3477.025
2450.53501	3462.425
2453.30451	3450.925
2456.07226	3467.225
2458.83827	3447.925
2461.60254	3397.225
2464.36507	3452.125
2467.12586	3418.325
2469.88492	3436.225
2472.64224	3432.825
2475.39782	3412.325
2478.15167	3427.025
2480.90379	3421.225
2483.65417	3432.525
2486.40283	3429.025
2489.14976	3431.625
2491.89497	3417.925
2494.63845	3417.825
2497.3802	3417.525
2500.12024	3420.425
2502.85855	3407.825
2505.59514	3413.525
2508.33002	3388.925
2511.06318	3365.025
2513.79462	3375.525
2516.52435	3331.025
2519.25237	3314.925
2521.97867	3315.025
2524.70327	3320.725
2527.42616	3331.325
2530.14734	3331.625
2532.86681	3308.525
2535.58458	3307.625
2538.30065	3287.425
2541.01501	3318.425
2543.72768	3281.525
2546.43864	3294.725
2549.14791	3269.325
2551.85548	3261.825
2554.56136	3270.225
2557.26554	3267.025
2559.96803	3267.725
2562.66883	3250.725
2565.36794	3237.225
2568.06536	3213.625
2570.7611	3230.925
2573.45514	3216.925
2576.14751	3216.825
2578.83819	3193.725
2581.52719	3182.225
2584.21451	3184.225
2586.90015	3171.525
2589.58411	3146.325
2592.2664	3167.425
2594.94701	3156.425
2597.62594	3160.525
2600.30321	3101.525
2602.9788	3122.425
2605.65273	3114.925
2608.32498	3124.725
2610.99557	3136.025
2613.66449	3109.025
2616.33175	3109.825
2618.99734	3124.225
2621.66128	3116.325
2624.32355	3085.125
2626.98416	3073.325
2629.64311	3070.125
2632.30041	3069.525
2634.95605	3053.025
2637.61004	3047.625
2640.26238	3035.525
2642.91306	3040.225
2645.56209	3052.925
2648.20948	3041.825
2650.85521	3031.225
2653.4993	3054.625
2656.14175	3040.725
2658.78255	3036.225
2661.42171	3002.925
2664.05923	3026.225
2666.6951	3039.725
2669.32934	3043.825
2671.96194	3053.225
2674.59291	3037.525
2677.22224	3041.625
2679.84993	3034.125
2682.476	3029.825
2685.10043	3027.725
2687.72324	3009.625
2690.34441	3018.725
2692.96396	3012.725
2695.58188	3014.825
2698.19818	3011.425
2700.81285	3011.125
2703.4259	2997.825
2706.03733	2965.625
2708.64714	2978.525
2711.25533	3008.725
2713.86191	3011.925
2716.46687	3004.425
2719.07021	3007.725
2721.67194	2987.525
2724.27206	3015.625
2726.87057	2982.825
2729.46747	2987.925
2732.06276	2989.325
2734.65644	2975.325
2737.24852	2980.325
2739.83899	2955.025
2742.42786	2962.825
2745.01513	2980.025
2747.60079	2961.025
2750.18486	2935.725
2752.76733	2937.725
2755.3482	2942.625
2757.92747	2940.625
2760.50515	2921.125
2763.08123	2910.525
2765.65573	2912.725
2768.22863	2893.625
2770.79994	2888.325
2773.36967	2901.125
2775.9378	2887.025
2778.50435	2881.625
2781.06932	2883.125
2783.6327	2868.325
2786.1945	2881.925
2788.75471	2866.925
2791.31335	2866.925
2793.87041	2871.625
2796.42589	2846.825
2798.97979	2840.825
2801.53212	2838.625
2804.08288	2849.225
2806.63206	2836.925
2809.17967	2820.125
2811.72571	2829.125
2814.27018	2821.625
2816.81308	2805.525
2819.35442	2778.625
2821.89419	2799.825
2824.43239	2780.525
2826.96904	2802.525
2829.50412	2785.625
2832.03763	2790.725
2834.56959	2778.025
2837.1	2782.825
2839.62884	2784.825
2842.15613	2761.125
2844.68186	2778.125
2847.20604	2747.825
2849.72867	2741.825
2852.24974	2747.025
2854.76927	2721.025
2857.28724	2687.525
2859.80367	2746.525
2862.31855	2749.025
2864.83189	2728.225
2867.34368	2736.825
2869.85393	2751.925
2872.36264	2722.925
2874.8698	2731.225
2877.37543	2731.725
2879.87952	2708.925
2882.38207	2701.925
2884.88308	2707.325
2887.38256	2705.825
2889.88051	2703.525
2892.37692	2705.525
2894.8718	2691.925
2897.36515	2706.825
2899.85698	2701.525
2902.34727	2703.825
2904.83604	2697.125
2907.32328	2703.925
2909.809	2717.125
2912.29319	2702.625
2914.77587	2722.925
2917.25702	2723.625
2919.73665	2722.525
2922.21476	2726.525
2924.69136	2745.125
2927.16644	2711.025
2929.64	2710.925
2932.11205	2694.625
2934.58258	2688.725
2937.05161	2682.625
2939.51912	2680.625
2941.98513	2688.625
2944.44962	2680.025
2946.91261	2642.725
2949.37409	2652.225
2951.83407	2648.925
2954.29254	2645.425
2956.74951	2645.025
2959.20498	2634.525
2961.65895	2633.925
2964.11142	2621.925
2966.56239	2623.925
2969.01186	2627.525
2971.45984	2612.025
2973.90632	2610.925
2976.35131	2626.325
2978.7948	2617.125
2981.23681	2592.725
2983.67732	2604.525
2986.11635	2597.125
2988.55388	2565.925
2990.98993	2577.025
2993.4245	2555.325
2995.85758	2555.225
2998.28917	2557.325
3000.71928	2536.025
3003.14791	2536.725
3005.57506	2516.125
3008.00073	2510.425
3010.42493	2462.825
3012.84764	2519.525
3015.26888	2519.225
3017.68865	2497.925
3020.10694	2457.925
3022.52376	2474.125
3024.9391	2478.225
3027.35298	2468.925
3029.76539	2447.825
3032.17632	2460.325
3034.5858	2440.825
3036.9938	2438.725
3039.40034	2438.025
3041.80542	2435.625
3044.20903	2428.325
3046.61118	2401.225
3049.01187	2420.625
3051.4111	2399.225
3053.80888	2392.025
3056.20519	2390.325
3058.60005	2382.025
3060.99345	2404.225
3063.3854	2366.725
3065.7759	2361.425
3068.16494	2345.525
3070.55254	2347.825
3072.93868	2353.425
3075.32338	2347.325
3077.70662	2340.525
3080.08842	2327.225
3082.46878	2326.325
3084.84769	2326.825
3087.22515	2309.525
3089.60118	2321.925
3091.97576	2307.025
3094.3489	2308.025
3096.72061	2309.025
3099.09087	2288.025
3101.4597	2305.325
3103.82709	2300.625
3106.19305	2286.125
3108.55757	2296.825
3110.92066	2273.625
3113.28232	2282.525
3115.64255	2285.125
3118.00134	2274.525
3120.35871	2259.625
3122.71466	2240.125
3125.06917	2247.525
3127.42226	2239.725
3129.77393	2221.725
3132.12417	2233.325
3134.47299	2234.725
3136.82039	2210.025
3139.16636	2192.725
3141.51092	2215.425
3143.85406	2231.325
3146.19579	2206.325
3148.53609	2209.825
3150.87499	2215.625
3153.21246	2205.125
3155.54853	2208.425
3157.88318	2207.825
3160.21642	2217.925
3162.54826	2210.925
3164.87868	2209.025
3167.2077	2158.725
3169.5353	2191.325
3171.86151	2199.025
3174.18631	2182.825
3176.5097	2175.825
3178.83169	2177.325
3181.15228	2181.925
3183.47147	2150.025
3185.78926	2149.225
3188.10565	2151.125
3190.42065	2132.925
3192.73424	2144.025
3195.04645	2135.325
3197.35725	2119.125
3199.66667	2143.425
3201.97469	2124.925
3204.28132	2115.525
3206.58656	2132.825
3208.8904	2126.125
3211.19287	2131.225
3213.49394	2105.625
3215.79363	2105.925
3218.09193	2114.325
3220.38884	2118.025
3222.68438	2110.025
3224.97853	2095.925
3227.2713	2111.125
3229.56269	2101.425
3231.8527	2101.825
3234.14133	2092.325
