Data from AgNPs_UA_10uM_CRN_500uM_SU_RamanShift__119__13-25-10-277.txt Node

Date: Thu Aug 04 13:25:10 BST 2022
User: TCL
Spectrometer: QEP01345
Trigger mode: 4
Integration Time (sec): 1.000000E0
Scans to average: 10
Electric dark correction enabled: true
Nonlinearity correction enabled: false
Boxcar width: 0
XAxis mode: Raman Shifts
Number of Pixels in Spectrum: 1044
>>>>>Begin Spectral Data<<<<<
46.04893	0.125
50.45542	-1.175
54.85868	0.925
59.25871	0.525
63.6555	21.825
68.04907	21.925
72.43941	24.025
76.82654	22.525
81.21044	24.325
85.59113	26.725
89.96862	26.825
94.34289	25.925
98.71396	28.125
103.08183	31.225
107.4465	31.025
111.80798	29.825
116.16626	33.025
120.52136	34.625
124.87327	35.925
129.222	39.525
133.56755	38.025
137.90993	45.625
142.24913	52.125
146.58517	57.225
150.91804	64.925
155.24774	82.125
159.57429	101.925
163.89768	133.325
168.21792	178.325
172.53501	246.425
176.84895	345.525
181.15975	493.625
185.46741	695.425
189.77193	964.225
194.07331	1299.925
198.37157	1683.425
202.6667	2069.825
206.9587	2483.525
211.24758	2872.625
215.53334	3277.425
219.81599	3717.525
224.09553	4200.925
228.37195	4750.225
232.64527	5319.825
236.91549	5876.125
241.18261	6389.725
245.44663	6798.625
249.70755	7107.125
253.96539	7408.925
258.22014	7660.025
262.4718	7892.525
266.72039	8033.425
270.96589	8070.725
275.20832	8038.325
279.44768	7922.825
283.68397	7791.225
287.91719	7727.325
292.14735	7741.425
296.37445	7861.125
300.59849	8073.525
304.81948	8401.225
309.03742	8650.425
313.25231	8806.325
317.46415	8722.025
321.67296	8396.425
325.87872	8065.025
330.08145	7894.525
334.28114	7887.725
338.47781	7957.325
342.67145	8120.825
346.86207	8343.525
351.04966	8674.925
355.23424	9046.025
359.4158	9252.225
363.59435	9381.325
367.76989	9398.725
371.94243	9413.325
376.11196	9374.525
380.27849	9337.625
384.44203	9370.125
388.60257	9402.725
392.76012	9471.525
396.91468	9598.125
401.06626	9753.325
405.21485	9808.525
409.36047	9685.525
413.50311	9372.025
417.64277	9083.225
421.77947	8915.325
425.9132	8839.725
430.04396	8806.125
434.17176	8881.825
438.2966	8996.325
442.41849	9164.325
446.53742	9371.325
450.6534	9600.225
454.76644	9704.425
458.87653	9771.025
462.98368	9765.225
467.08789	9657.925
471.18916	9497.425
475.2875	9294.325
479.38291	9111.425
483.4754	8977.425
487.56496	8900.625
491.6516	8868.025
495.73531	8871.525
499.81612	8909.025
503.89401	8995.925
507.96899	9023.425
512.04106	9097.525
516.11023	9128.925
520.1765	9202.025
524.23987	9220.325
528.30034	9210.425
532.35792	9183.025
536.41261	9118.725
540.46441	8980.325
544.51333	8963.525
548.55936	9019.925
552.60252	9134.025
556.64279	9320.225
560.6802	9459.025
564.71473	9562.625
568.7464	9681.125
572.7752	9664.725
576.80114	9440.625
580.82422	9260.025
584.84444	9174.525
588.86181	9230.625
592.87633	9338.825
596.888	9503.325
600.89682	9942.225
604.9028	11083.425
608.90594	13449.425
612.90624	15687.825
616.90371	14439.325
620.89834	11199.525
624.89015	9909.925
628.87913	9826.025
632.86528	9968.025
636.84862	9990.125
640.82913	9719.025
644.80683	9337.225
648.78172	9115.325
652.75379	9143.925
656.72306	9468.925
660.68952	9779.825
664.65319	9698.225
668.61405	9534.225
672.57211	9591.325
676.52738	9586.425
680.47986	9386.625
684.42955	9167.325
688.37646	9131.225
692.32058	9257.325
696.26192	9444.525
700.20048	9591.325
704.13626	9637.825
708.06928	9502.125
711.99952	9361.525
715.927	9384.925
719.85171	9474.425
723.77365	9460.225
727.69284	9380.025
731.60928	9289.525
735.52295	9286.925
739.43388	9302.825
743.34206	9381.225
747.24749	9384.225
751.15017	9378.725
755.05012	9523.625
758.94733	9883.025
762.8418	10731.825
766.73354	12022.725
770.62254	13018.225
774.50882	13200.625
778.39237	12700.325
782.27321	11794.225
786.15132	10795.525
790.02671	10077.325
793.89938	9705.125
797.76935	9537.225
801.6366	9453.125
805.50115	9372.825
809.36299	9331.625
813.22213	9311.725
817.07857	9310.125
820.93231	9326.325
824.78336	9338.725
828.63172	9337.925
832.47738	9379.125
836.32036	9333.625
840.16066	9343.025
843.99827	9315.825
847.8332	9334.925
851.66546	9347.325
855.49504	9341.625
859.32195	9346.125
863.1462	9343.125
866.96777	9310.825
870.78668	9318.125
874.60293	9348.025
878.41652	9402.725
882.22745	9475.625
886.03573	9529.325
889.84136	9534.825
893.64433	9477.625
897.44466	9437.625
901.24235	9429.525
905.0374	9414.225
908.8298	9368.725
912.61957	9365.525
916.40671	9393.325
920.19121	9400.925
923.97308	9477.725
927.75233	9593.725
931.52895	9698.525
935.30295	9591.725
939.07433	9434.025
942.84309	9340.825
946.60924	9271.925
950.37278	9259.925
954.13371	9243.625
957.89203	9223.125
961.64774	9199.025
965.40086	9188.925
969.15137	9174.825
972.89929	9161.125
976.64461	9191.525
980.38733	9182.525
984.12747	9226.525
987.86502	9285.525
991.59999	9369.425
995.33237	9492.425
999.06217	9634.725
1002.78939	9861.125
1006.51404	10041.325
1010.23611	10159.125
1013.95561	10256.425
1017.67255	10313.725
1021.38692	10293.225
1025.09872	10257.225
1028.80796	10262.925
1032.51465	10375.025
1036.21877	10498.025
1039.92035	10470.925
1043.61937	10462.925
1047.31584	10365.625
1051.00976	10249.525
1054.70114	10215.725
1058.38998	10225.125
1062.07627	10252.525
1065.76003	10307.225
1069.44126	10403.325
1073.11995	10584.525
1076.79611	10771.725
1080.46974	10914.125
1084.14085	11030.225
1087.80943	11143.225
1091.47549	11179.525
1095.13903	11132.125
1098.80005	11053.925
1102.45857	11055.925
1106.11456	11032.425
1109.76805	10929.125
1113.41903	10936.325
1117.06751	11074.725
1120.71348	11295.225
1124.35696	11530.325
1127.99793	11700.125
1131.63641	11500.925
1135.2724	11172.025
1138.90589	10880.025
1142.5369	10705.125
1146.16542	10545.625
1149.79145	10498.225
1153.415	10394.425
1157.03607	10397.525
1160.65467	10500.525
1164.27079	10758.425
1167.88443	11120.025
1171.49561	11693.825
1175.10432	12523.925
1178.71056	13605.125
1182.31434	14544.625
1185.91565	14936.425
1189.51451	14875.225
1193.11091	14530.325
1196.70485	14045.425
1200.29634	13620.225
1203.88538	13168.025
1207.47197	12637.225
1211.05612	12128.925
1214.63782	11718.725
1218.21708	11483.425
1221.79391	11397.725
1225.36829	11398.425
1228.94024	11376.625
1232.50976	11313.025
1236.07685	11249.925
1239.6415	11296.225
1243.20374	11343.025
1246.76355	11396.125
1250.32093	11546.925
1253.8759	11741.825
1257.42845	12083.625
1260.97859	12449.225
1264.52631	12791.425
1268.07163	13054.525
1271.61453	13231.725
1275.15503	13350.225
1278.69312	13438.225
1282.22882	13541.425
1285.76211	13693.825
1289.29301	13903.725
1292.82151	14157.425
1296.34761	14479.425
1299.87133	15031.125
1303.39266	15930.125
1306.9116	17290.625
1310.42815	18681.525
1313.94233	19241.525
1317.45412	18648.025
1320.96354	17579.125
1324.47058	16458.525
1327.97525	15556.225
1331.47754	14984.525
1334.97747	14826.825
1338.47502	14965.125
1341.97022	15482.125
1345.46305	16225.825
1348.95352	17347.925
1352.44163	18576.125
1355.92738	19906.925
1359.41078	21458.125
1362.89183	22580.925
1366.37053	21450.925
1369.84688	18554.025
1373.32088	15935.425
1376.79254	14433.025
1380.26186	13780.125
1383.72883	13354.925
1387.19347	12979.225
1390.65578	12557.825
1394.11575	12186.225
1397.57339	11932.425
1401.0287	11840.925
1404.48168	11844.225
1407.93234	11957.725
1411.38068	12143.725
1414.82669	12303.825
1418.27039	12361.425
1421.71177	12345.725
1425.15083	12263.625
1428.58758	12200.625
1432.02203	12323.425
1435.45416	12445.225
1438.88399	12424.225
1442.31151	12385.025
1445.73673	12388.225
1449.15965	12345.725
1452.58027	12253.825
1455.9986	12171.625
1459.41463	12145.325
1462.82837	12227.325
1466.23982	12428.225
1469.64898	12664.925
1473.05586	12838.725
1476.46045	12993.325
1479.86276	13147.925
1483.26279	13267.225
1486.66054	13505.725
1490.05602	13900.325
1493.44922	14452.725
1496.84016	15351.025
1500.22882	16572.325
1503.61521	18124.525
1506.99934	19648.225
1510.38121	20584.625
1513.76081	20315.625
1517.13816	18838.825
1520.51324	16893.125
1523.88607	15359.925
1527.25665	14356.925
1530.62498	13881.625
1533.99105	13672.125
1537.35488	13534.625
1540.71647	13416.925
1544.07581	13291.625
1547.4329	13183.725
1550.78776	13016.825
1554.14038	12916.525
1557.49077	12902.625
1560.83892	13076.225
1564.18484	13336.625
1567.52853	13639.325
1570.86999	13839.425
1574.20922	13888.025
1577.54624	13659.625
1580.88103	13094.725
1584.2136	12521.225
1587.54395	12275.025
1590.87208	12444.825
1594.19801	12979.325
1597.52172	13634.325
1600.84321	13952.725
1604.16251	13829.525
1607.47959	13462.425
1610.79447	12946.725
1614.10715	12267.025
1617.41763	11595.525
1620.7259	11139.525
1624.03199	10893.125
1627.33587	10878.625
1630.63757	11062.625
1633.93707	11528.925
1637.23439	12318.825
1640.52951	13502.125
1643.82246	14955.125
1647.11321	16317.025
1650.40179	16799.725
1653.68819	15799.825
1656.97241	13887.125
1660.25446	12083.325
1663.53433	10900.225
1666.81203	10213.325
1670.08756	9795.525
1673.36092	9549.625
1676.63211	9388.925
1679.90115	9244.225
1683.16801	9146.725
1686.43272	9033.725
1689.69527	8994.625
1692.95567	8941.725
1696.2139	8913.625
1699.46999	8881.525
1702.72392	8898.625
1705.97571	8866.725
1709.22535	8848.125
1712.47284	8858.625
1715.71819	8870.725
1718.96139	8871.525
1722.20246	8846.125
1725.44139	8810.425
1728.67818	8749.525
1731.91284	8713.925
1735.14537	8654.825
1738.37576	8612.625
1741.60403	8586.525
1744.83017	8570.425
1748.05418	8564.725
1751.27607	8541.625
1754.49584	8503.725
1757.71349	8523.725
1760.92903	8492.825
1764.14244	8454.325
1767.35375	8461.525
1770.56294	8454.825
1773.77002	8425.325
1776.97499	8412.725
1780.17785	8372.125
1783.37861	8361.125
1786.57727	8327.625
1789.77382	8362.425
1792.96828	8340.225
1796.16064	8313.825
1799.3509	8308.325
1802.53907	8291.725
1805.72514	8276.925
1808.90913	8252.225
1812.09102	8235.225
1815.27083	8201.125
1818.44856	8180.625
1821.6242	8165.325
1824.79776	8149.125
1827.96924	8151.425
1831.13864	8108.025
1834.30597	8112.725
1837.47122	8106.425
1840.6344	8072.625
1843.7955	8079.825
1846.95454	8076.125
1850.11151	8055.325
1853.26642	8061.125
1856.41926	8071.825
1859.57004	8076.825
1862.71876	8099.825
1865.86542	8075.925
1869.01003	8048.725
1872.15258	8047.025
1875.29308	8037.625
1878.43152	8022.225
1881.56792	8010.125
1884.70227	7994.525
1887.83457	7969.025
1890.96482	7964.625
1894.09304	7934.525
1897.21921	7934.425
1900.34335	7924.325
1903.46544	7897.625
1906.58551	7917.525
1909.70353	7885.025
1912.81953	7903.925
1915.93349	7882.125
1919.04543	7877.225
1922.15534	7850.925
1925.26322	7848.625
1928.36908	7815.125
1931.47292	7808.625
1934.57473	7770.025
1937.67453	7776.325
1940.77232	7757.525
1943.86808	7730.625
1946.96184	7703.225
1950.05358	7695.725
1953.14331	7677.225
1956.23103	7657.525
1959.31675	7637.925
1962.40046	7625.025
1965.48217	7588.525
1968.56188	7560.125
1971.63959	7531.025
1974.7153	7534.725
1977.78901	7501.825
1980.86073	7501.825
1983.93046	7442.625
1986.99819	7427.825
1990.06394	7418.625
1993.1277	7400.425
1996.18947	7344.425
1999.24925	7313.025
2002.30706	7296.725
2005.36288	7272.625
2008.41672	7243.725
2011.46859	7250.725
2014.51848	7222.925
2017.56639	7189.525
2020.61233	7167.725
2023.6563	7154.525
2026.6983	7131.325
2029.73833	7112.225
2032.7764	7102.925
2035.8125	7063.225
2038.84664	7061.425
2041.87881	7048.625
2044.90903	7049.125
2047.93729	7038.225
2050.96359	7028.425
2053.98794	7015.525
2057.01034	6993.625
2060.03078	6995.525
2063.04927	6995.825
2066.06582	6975.225
2069.08042	6962.225
2072.09307	6952.125
2075.10378	6962.525
2078.11255	6937.425
2081.11938	6948.925
2084.12426	6948.825
2087.12722	6925.425
2090.12824	6925.725
2093.12732	6930.125
2096.12447	6920.825
2099.11969	6947.225
2102.11299	6915.425
2105.10435	6939.625
2108.09379	6931.725
2111.08131	6924.325
2114.0669	6937.425
2117.05057	6965.625
2120.03233	6949.125
2123.01216	6947.125
2125.99008	6940.525
2128.96609	6959.025
2131.94018	6969.925
2134.91236	6951.825
2137.88263	6952.125
2140.851	6946.525
2143.81746	6970.325
2146.78201	6959.225
2149.74466	6969.725
2152.7054	6957.525
2155.66425	6962.025
2158.6212	6943.625
2161.57625	6945.325
2164.52941	6915.825
2167.48067	6930.325
2170.43004	6910.525
2173.37752	6908.825
2176.32311	6916.625
2179.26681	6913.025
2182.20863	6916.425
2185.14856	6929.125
2188.08661	6919.925
2191.02278	6923.825
2193.95707	6911.025
2196.88948	6899.025
2199.82001	6904.725
2202.74867	6896.025
2205.67545	6903.525
2208.60037	6887.225
2211.52341	6884.825
2214.44458	6857.625
2217.36388	6826.725
2220.28132	6832.125
2223.1969	6808.825
2226.11061	6764.625
2229.02246	6779.925
2231.93245	6765.425
2234.84058	6780.125
2237.74686	6750.225
2240.65128	6742.125
2243.55385	6739.225
2246.45456	6709.825
2249.35343	6708.925
2252.25044	6694.425
2255.14561	6697.325
2258.03893	6700.725
2260.93041	6709.425
2263.82004	6676.425
2266.70783	6658.525
2269.59378	6645.825
2272.4779	6622.425
2275.36017	6598.825
2278.24061	6590.225
2281.11922	6560.825
2283.996	6557.125
2286.87094	6565.125
2289.74405	6546.625
2292.61534	6544.725
2295.4848	6500.325
2298.35243	6525.225
2301.21824	6503.125
2304.08223	6484.825
2306.94439	6495.725
2309.80474	6502.125
2312.66327	6504.725
2315.51999	6495.525
2318.37489	6491.525
2321.22797	6461.925
2324.07925	6477.325
2326.92871	6450.925
2329.77637	6449.925
2332.62222	6437.225
2335.46626	6426.325
2338.3085	6439.825
2341.14893	6410.025
2343.98756	6424.825
2346.8244	6431.725
2349.65943	6419.825
2352.49267	6400.225
2355.32411	6404.025
2358.15376	6410.825
2360.98161	6410.025
2363.80768	6405.925
2366.63195	6387.725
2369.45444	6362.225
2372.27514	6377.925
2375.09405	6372.225
2377.91118	6367.825
2380.72652	6339.725
2383.54009	6318.925
2386.35187	6299.025
2389.16188	6296.725
2391.97011	6277.825
2394.77657	6264.725
2397.58125	6231.225
2400.38416	6222.725
2403.18529	6235.925
2405.98466	6223.125
2408.78226	6205.225
2411.57809	6206.725
2414.37216	6186.225
2417.16446	6170.125
2419.955	6185.625
2422.74378	6173.625
2425.5308	6160.025
2428.31606	6171.125
2431.09956	6143.825
2433.88131	6143.625
2436.6613	6128.925
2439.43954	6138.325
2442.21603	6135.425
2444.99077	6144.125
2447.76377	6136.025
2450.53501	6120.025
2453.30451	6129.725
2456.07226	6100.525
2458.83827	6096.625
2461.60254	6083.425
2464.36507	6099.125
2467.12586	6071.725
2469.88492	6068.525
2472.64224	6067.325
2475.39782	6069.225
2478.15167	6055.625
2480.90379	6063.925
2483.65417	6046.225
2486.40283	6043.825
2489.14976	6074.425
2491.89497	6064.425
2494.63845	6064.525
2497.3802	6037.425
2500.12024	6041.625
2502.85855	6041.525
2505.59514	6024.325
2508.33002	6028.825
2511.06318	5996.825
2513.79462	5989.425
2516.52435	5983.825
2519.25237	5969.825
2521.97867	5963.125
2524.70327	5957.925
2527.42616	5940.425
2530.14734	5922.025
2532.86681	5927.025
2535.58458	5948.125
2538.30065	5933.625
2541.01501	5921.725
2543.72768	5924.625
2546.43864	5904.725
2549.14791	5894.525
2551.85548	5901.125
2554.56136	5901.525
2557.26554	5883.925
2559.96803	5869.425
2562.66883	5861.925
2565.36794	5841.825
2568.06536	5835.125
2570.7611	5818.825
2573.45514	5826.625
2576.14751	5819.425
2578.83819	5796.425
2581.52719	5777.325
2584.21451	5763.125
2586.90015	5787.125
2589.58411	5761.325
2592.2664	5753.025
2594.94701	5750.425
2597.62594	5745.525
2600.30321	5722.425
2602.9788	5741.325
2605.65273	5711.725
2608.32498	5713.125
2610.99557	5705.725
2613.66449	5705.925
2616.33175	5708.825
2618.99734	5706.825
2621.66128	5694.025
2624.32355	5687.325
2626.98416	5678.725
2629.64311	5664.325
2632.30041	5653.525
2634.95605	5661.925
2637.61004	5637.425
2640.26238	5630.725
2642.91306	5625.325
2645.56209	5639.025
2648.20948	5624.525
2650.85521	5614.725
2653.4993	5623.925
2656.14175	5593.425
2658.78255	5602.625
2661.42171	5592.325
2664.05923	5595.225
2666.6951	5621.825
2669.32934	5625.325
2671.96194	5619.025
2674.59291	5613.625
2677.22224	5616.825
2679.84993	5608.625
2682.476	5606.025
2685.10043	5626.625
2687.72324	5611.625
2690.34441	5618.225
2692.96396	5601.825
2695.58188	5600.325
2698.19818	5596.225
2700.81285	5578.725
2703.4259	5554.625
2706.03733	5558.325
2708.64714	5570.525
2711.25533	5569.425
2713.86191	5571.625
2716.46687	5570.925
2719.07021	5578.025
2721.67194	5572.225
2724.27206	5565.525
2726.87057	5576.425
2729.46747	5573.025
2732.06276	5561.125
2734.65644	5564.425
2737.24852	5550.225
2739.83899	5534.325
2742.42786	5523.425
2745.01513	5526.425
2747.60079	5509.325
2750.18486	5503.725
2752.76733	5511.325
2755.3482	5492.925
2757.92747	5484.125
2760.50515	5463.525
2763.08123	5467.125
2765.65573	5446.225
2768.22863	5447.625
2770.79994	5441.125
2773.36967	5427.525
2775.9378	5418.225
2778.50435	5433.525
2781.06932	5423.725
2783.6327	5418.525
2786.1945	5426.825
2788.75471	5431.425
2791.31335	5392.225
2793.87041	5384.525
2796.42589	5354.625
2798.97979	5362.425
2801.53212	5334.725
2804.08288	5326.125
2806.63206	5304.025
2809.17967	5333.825
2811.72571	5316.425
2814.27018	5312.125
2816.81308	5295.325
2819.35442	5286.025
2821.89419	5275.925
2824.43239	5262.825
2826.96904	5265.725
2829.50412	5246.025
2832.03763	5241.425
2834.56959	5239.625
2837.1	5223.125
2839.62884	5212.625
2842.15613	5214.625
2844.68186	5197.925
2847.20604	5188.625
2849.72867	5199.025
2852.24974	5173.925
2854.76927	5159.525
2857.28724	5140.325
2859.80367	5161.325
2862.31855	5155.925
2864.83189	5146.725
2867.34368	5162.125
2869.85393	5146.425
2872.36264	5117.525
2874.8698	5125.025
2877.37543	5145.125
2879.87952	5117.325
2882.38207	5115.825
2884.88308	5100.725
2887.38256	5101.325
2889.88051	5110.925
2892.37692	5091.725
2894.8718	5090.725
2897.36515	5089.825
2899.85698	5090.025
2902.34727	5095.325
2904.83604	5109.025
2907.32328	5115.925
2909.809	5106.625
2912.29319	5109.525
2914.77587	5134.625
2917.25702	5137.825
2919.73665	5117.925
2922.21476	5109.225
2924.69136	5109.925
2927.16644	5089.825
2929.64	5081.125
2932.11205	5061.225
2934.58258	5046.625
2937.05161	5056.925
2939.51912	5063.125
2941.98513	5057.425
2944.44962	5058.025
2946.91261	5027.225
2949.37409	5032.525
2951.83407	5029.425
2954.29254	5027.925
2956.74951	5013.125
2959.20498	5009.225
2961.65895	5011.225
2964.11142	5022.625
2966.56239	4992.825
2969.01186	5003.125
2971.45984	4995.925
2973.90632	4996.625
2976.35131	4982.525
2978.7948	4980.025
2981.23681	4982.225
2983.67732	4958.525
2986.11635	4931.825
2988.55388	4956.925
2990.98993	4913.325
2993.4245	4904.625
2995.85758	4887.625
2998.28917	4881.225
3000.71928	4870.325
3003.14791	4838.125
3005.57506	4848.425
3008.00073	4823.025
3010.42493	4820.625
3012.84764	4828.125
3015.26888	4807.225
3017.68865	4799.025
3020.10694	4802.725
3022.52376	4767.925
3024.9391	4768.225
3027.35298	4725.625
3029.76539	4703.325
3032.17632	4732.325
3034.5858	4728.125
3036.9938	4702.025
3039.40034	4706.425
3041.80542	4692.925
3044.20903	4680.025
3046.61118	4671.725
3049.01187	4656.325
3051.4111	4662.125
3053.80888	4643.425
3056.20519	4644.025
3058.60005	4613.825
3060.99345	4615.625
3063.3854	4584.025
3065.7759	4586.725
3068.16494	4581.625
3070.55254	4557.625
3072.93868	4560.025
3075.32338	4514.125
3077.70662	4530.925
3080.08842	4502.425
3082.46878	4504.025
3084.84769	4485.225
3087.22515	4484.225
3089.60118	4494.225
3091.97576	4483.825
3094.3489	4464.725
3096.72061	4480.025
3099.09087	4462.925
3101.4597	4458.525
3103.82709	4457.625
3106.19305	4450.025
3108.55757	4453.225
3110.92066	4438.625
3113.28232	4429.725
3115.64255	4424.225
3118.00134	4426.925
3120.35871	4407.125
3122.71466	4409.225
3125.06917	4390.725
3127.42226	4381.825
3129.77393	4373.425
3132.12417	4355.825
3134.47299	4353.925
3136.82039	4336.425
3139.16636	4339.225
3141.51092	4357.025
3143.85406	4335.625
3146.19579	4335.325
3148.53609	4338.425
3150.87499	4323.125
3153.21246	4339.625
3155.54853	4331.125
3157.88318	4318.425
3160.21642	4328.925
3162.54826	4321.925
3164.87868	4319.225
3167.2077	4282.225
3169.5353	4303.425
3171.86151	4289.225
3174.18631	4284.425
3176.5097	4270.725
3178.83169	4248.825
3181.15228	4265.625
3183.47147	4254.425
3185.78926	4240.725
3188.10565	4238.925
3190.42065	4200.325
3192.73424	4203.725
3195.04645	4212.025
3197.35725	4208.525
3199.66667	4202.825
3201.97469	4198.925
3204.28132	4212.725
3206.58656	4206.325
3208.8904	4194.125
3211.19287	4211.525
3213.49394	4218.625
3215.79363	4207.925
