Data from AgNPs_UA_10uM_CRN_500uM_SU_RamanShift__135__13-27-50-280.txt Node

Date: Thu Aug 04 13:27:50 BST 2022
User: TCL
Spectrometer: QEP01345
Trigger mode: 4
Integration Time (sec): 1.000000E0
Scans to average: 10
Electric dark correction enabled: true
Nonlinearity correction enabled: false
Boxcar width: 0
XAxis mode: Raman Shifts
Number of Pixels in Spectrum: 1044
>>>>>Begin Spectral Data<<<<<
46.04893	0.6125
50.45542	-0.1875
54.85868	0.4125
59.25871	0.2125
63.6555	20.3125
68.04907	21.5125
72.43941	22.0125
76.82654	21.9125
81.21044	22.8125
85.59113	25.2125
89.96862	24.3125
94.34289	26.7125
98.71396	25.9125
103.08183	29.1125
107.4465	27.6125
111.80798	28.7125
116.16626	29.6125
120.52136	34.2125
124.87327	35.1125
129.222	35.1125
133.56755	40.0125
137.90993	42.1125
142.24913	45.9125
146.58517	54.1125
150.91804	62.2125
155.24774	77.8125
159.57429	92.8125
163.89768	127.2125
168.21792	168.2125
172.53501	234.9125
176.84895	329.5125
181.15975	470.5125
185.46741	657.5125
189.77193	910.9125
194.07331	1223.2125
198.37157	1581.8125
202.6667	1954.8125
206.9587	2333.4125
211.24758	2698.3125
215.53334	3084.6125
219.81599	3476.6125
224.09553	3950.2125
228.37195	4425.5125
232.64527	4964.3125
236.91549	5489.7125
241.18261	5961.5125
245.44663	6358.8125
249.70755	6666.6125
253.96539	6951.4125
258.22014	7204.2125
262.4718	7440.2125
266.72039	7566.8125
270.96589	7617.6125
275.20832	7587.9125
279.44768	7501.5125
283.68397	7370.3125
287.91719	7295.1125
292.14735	7312.1125
296.37445	7413.4125
300.59849	7617.5125
304.81948	7908.0125
309.03742	8124.4125
313.25231	8239.3125
317.46415	8127.5125
321.67296	7838.6125
325.87872	7572.9125
330.08145	7403.2125
334.28114	7402.5125
338.47781	7505.2125
342.67145	7642.5125
346.86207	7860.1125
351.04966	8150.2125
355.23424	8482.9125
359.4158	8703.2125
363.59435	8821.7125
367.76989	8893.1125
371.94243	8874.7125
376.11196	8860.5125
380.27849	8871.6125
384.44203	8886.7125
388.60257	8908.7125
392.76012	8963.3125
396.91468	9081.1125
401.06626	9240.9125
405.21485	9287.9125
409.36047	9179.1125
413.50311	8904.3125
417.64277	8634.8125
421.77947	8484.0125
425.9132	8420.1125
430.04396	8442.0125
434.17176	8509.2125
438.2966	8630.8125
442.41849	8823.6125
446.53742	9073.2125
450.6534	9325.5125
454.76644	9442.4125
458.87653	9485.5125
462.98368	9423.9125
467.08789	9290.4125
471.18916	9094.3125
475.2875	8861.0125
479.38291	8696.9125
483.4754	8567.4125
487.56496	8496.3125
491.6516	8446.9125
495.73531	8436.6125
499.81612	8445.7125
503.89401	8532.3125
507.96899	8594.9125
512.04106	8628.6125
516.11023	8708.3125
520.1765	8756.3125
524.23987	8786.0125
528.30034	8769.9125
532.35792	8757.8125
536.41261	8657.1125
540.46441	8548.1125
544.51333	8522.4125
548.55936	8584.7125
552.60252	8723.1125
556.64279	8883.7125
560.6802	8989.2125
564.71473	9062.8125
568.7464	9184.5125
572.7752	9210.2125
576.80114	8990.3125
580.82422	8864.5125
584.84444	8828.9125
588.86181	8947.8125
592.87633	9121.7125
596.888	9319.5125
600.89682	9663.8125
604.9028	10697.0125
608.90594	12856.5125
612.90624	14895.2125
616.90371	13684.4125
620.89834	10716.2125
624.89015	9620.3125
628.87913	9530.9125
632.86528	9560.6125
636.84862	9521.4125
640.82913	9216.2125
644.80683	8862.4125
648.78172	8679.7125
652.75379	8725.4125
656.72306	8986.5125
660.68952	9295.1125
664.65319	9220.9125
668.61405	9054.7125
672.57211	9085.0125
676.52738	9089.1125
680.47986	8914.4125
684.42955	8783.5125
688.37646	8754.5125
692.32058	8835.6125
696.26192	9014.8125
700.20048	9147.3125
704.13626	9175.3125
708.06928	9043.6125
711.99952	8945.0125
715.927	8958.5125
719.85171	9040.5125
723.77365	9037.3125
727.69284	8934.4125
731.60928	8864.8125
735.52295	8859.9125
739.43388	8911.8125
743.34206	8994.9125
747.24749	9007.5125
751.15017	9025.3125
755.05012	9152.8125
758.94733	9482.5125
762.8418	10258.0125
766.73354	11462.0125
770.62254	12445.8125
774.50882	12630.8125
778.39237	12064.8125
782.27321	11161.6125
786.15132	10216.2125
790.02671	9594.1125
793.89938	9290.8125
797.76935	9148.0125
801.6366	9073.5125
805.50115	9021.0125
809.36299	8989.2125
813.22213	8931.1125
817.07857	8937.9125
820.93231	8915.0125
824.78336	8915.4125
828.63172	8957.9125
832.47738	8999.6125
836.32036	8993.8125
840.16066	9005.1125
843.99827	9027.1125
847.8332	8994.2125
851.66546	8981.2125
855.49504	9017.0125
859.32195	8982.4125
863.1462	8989.0125
866.96777	8942.3125
870.78668	8939.1125
874.60293	8981.4125
878.41652	9015.9125
882.22745	9077.0125
886.03573	9133.2125
889.84136	9129.7125
893.64433	9099.1125
897.44466	9060.1125
901.24235	9033.9125
905.0374	9013.2125
908.8298	8976.7125
912.61957	8991.1125
916.40671	9022.8125
920.19121	9085.0125
923.97308	9181.1125
927.75233	9297.5125
931.52895	9390.1125
935.30295	9301.5125
939.07433	9114.6125
942.84309	9005.8125
946.60924	8945.5125
950.37278	8917.0125
954.13371	8896.7125
957.89203	8844.5125
961.64774	8830.6125
965.40086	8816.1125
969.15137	8780.3125
972.89929	8791.1125
976.64461	8784.0125
980.38733	8835.1125
984.12747	8853.7125
987.86502	8932.8125
991.59999	9026.2125
995.33237	9207.0125
999.06217	9432.7125
1002.78939	9718.5125
1006.51404	9874.2125
1010.23611	9949.1125
1013.95561	10031.2125
1017.67255	10100.4125
1021.38692	10130.2125
1025.09872	10134.7125
1028.80796	10257.9125
1032.51465	10464.8125
1036.21877	10648.5125
1039.92035	10634.1125
1043.61937	10485.9125
1047.31584	10253.3125
1051.00976	10018.8125
1054.70114	9930.2125
1058.38998	9919.6125
1062.07627	9925.6125
1065.76003	9947.3125
1069.44126	9959.3125
1073.11995	10101.5125
1076.79611	10254.4125
1080.46974	10378.9125
1084.14085	10526.1125
1087.80943	10615.7125
1091.47549	10639.9125
1095.13903	10535.9125
1098.80005	10417.2125
1102.45857	10401.2125
1106.11456	10405.9125
1109.76805	10373.6125
1113.41903	10418.9125
1117.06751	10584.0125
1120.71348	10765.3125
1124.35696	10996.3125
1127.99793	11125.5125
1131.63641	10984.0125
1135.2724	10655.7125
1138.90589	10418.4125
1142.5369	10245.4125
1146.16542	10118.6125
1149.79145	10045.4125
1153.415	9984.2125
1157.03607	10008.0125
1160.65467	10137.5125
1164.27079	10427.7125
1167.88443	10817.6125
1171.49561	11380.0125
1175.10432	12321.7125
1178.71056	13432.2125
1182.31434	14419.7125
1185.91565	14828.1125
1189.51451	14691.5125
1193.11091	14206.9125
1196.70485	13619.1125
1200.29634	13104.4125
1203.88538	12602.1125
1207.47197	12064.1125
1211.05612	11596.7125
1214.63782	11289.0125
1218.21708	11164.9125
1221.79391	11202.2125
1225.36829	11275.9125
1228.94024	11258.5125
1232.50976	11111.2125
1236.07685	11005.6125
1239.6415	11008.2125
1243.20374	11000.6125
1246.76355	11097.2125
1250.32093	11253.0125
1253.8759	11483.9125
1257.42845	11800.6125
1260.97859	12175.2125
1264.52631	12447.7125
1268.07163	12748.5125
1271.61453	12966.8125
1275.15503	13188.0125
1278.69312	13349.7125
1282.22882	13523.6125
1285.76211	13718.0125
1289.29301	13891.9125
1292.82151	14114.4125
1296.34761	14425.6125
1299.87133	15020.7125
1303.39266	15996.8125
1306.9116	17418.2125
1310.42815	18910.2125
1313.94233	19623.7125
1317.45412	19136.3125
1320.96354	17972.8125
1324.47058	16757.9125
1327.97525	15774.3125
1331.47754	15198.1125
1334.97747	15019.4125
1338.47502	15166.9125
1341.97022	15619.1125
1345.46305	16320.2125
1348.95352	17220.6125
1352.44163	18263.5125
1355.92738	19457.8125
1359.41078	21068.9125
1362.89183	22152.9125
1366.37053	21032.2125
1369.84688	18233.6125
1373.32088	15709.2125
1376.79254	14273.1125
1380.26186	13590.0125
1383.72883	13208.9125
1387.19347	12888.0125
1390.65578	12487.6125
1394.11575	12178.6125
1397.57339	11980.4125
1401.0287	11997.5125
1404.48168	12050.5125
1407.93234	12158.6125
1411.38068	12326.7125
1414.82669	12486.0125
1418.27039	12491.1125
1421.71177	12372.6125
1425.15083	12280.8125
1428.58758	12254.9125
1432.02203	12423.7125
1435.45416	12587.9125
1438.88399	12616.4125
1442.31151	12536.7125
1445.73673	12522.9125
1449.15965	12465.8125
1452.58027	12383.3125
1455.9986	12330.4125
1459.41463	12270.2125
1462.82837	12367.4125
1466.23982	12577.7125
1469.64898	12792.5125
1473.05586	12983.0125
1476.46045	13127.1125
1479.86276	13272.6125
1483.26279	13407.5125
1486.66054	13588.6125
1490.05602	13913.7125
1493.44922	14401.4125
1496.84016	15126.1125
1500.22882	16153.1125
1503.61521	17493.3125
1506.99934	18835.2125
1510.38121	19676.0125
1513.76081	19483.9125
1517.13816	18194.6125
1520.51324	16475.7125
1523.88607	15084.5125
1527.25665	14257.3125
1530.62498	13784.8125
1533.99105	13570.1125
1537.35488	13457.3125
1540.71647	13313.1125
1544.07581	13184.1125
1547.4329	13064.1125
1550.78776	12926.9125
1554.14038	12822.0125
1557.49077	12816.9125
1560.83892	12921.0125
1564.18484	13144.5125
1567.52853	13388.2125
1570.86999	13509.5125
1574.20922	13512.2125
1577.54624	13315.9125
1580.88103	12828.2125
1584.2136	12343.5125
1587.54395	12220.9125
1590.87208	12564.2125
1594.19801	13278.8125
1597.52172	14153.1125
1600.84321	14537.5125
1604.16251	14334.9125
1607.47959	13765.6125
1610.79447	13013.5125
1614.10715	12208.7125
1617.41763	11489.2125
1620.7259	11010.5125
1624.03199	10797.2125
1627.33587	10801.6125
1630.63757	11074.4125
1633.93707	11611.2125
1637.23439	12506.0125
1640.52951	13633.2125
1643.82246	14988.7125
1647.11321	16117.6125
1650.40179	16341.6125
1653.68819	15284.0125
1656.97241	13390.5125
1660.25446	11729.4125
1663.53433	10590.0125
1666.81203	9930.3125
1670.08756	9537.4125
1673.36092	9332.3125
1676.63211	9125.4125
1679.90115	9010.5125
1683.16801	8913.7125
1686.43272	8831.8125
1689.69527	8767.9125
1692.95567	8745.2125
1696.2139	8722.2125
1699.46999	8691.6125
1702.72392	8677.0125
1705.97571	8641.3125
1709.22535	8673.6125
1712.47284	8665.8125
1715.71819	8644.7125
1718.96139	8655.6125
1722.20246	8627.0125
1725.44139	8603.3125
1728.67818	8573.1125
1731.91284	8536.5125
1735.14537	8460.3125
1738.37576	8428.1125
1741.60403	8393.0125
1744.83017	8370.6125
1748.05418	8364.7125
1751.27607	8361.0125
1754.49584	8344.4125
1757.71349	8332.6125
1760.92903	8320.9125
1764.14244	8309.1125
1767.35375	8279.5125
1770.56294	8280.6125
1773.77002	8264.6125
1776.97499	8225.7125
1780.17785	8196.8125
1783.37861	8208.2125
1786.57727	8184.9125
1789.77382	8203.3125
1792.96828	8184.2125
1796.16064	8162.4125
1799.3509	8167.0125
1802.53907	8170.9125
1805.72514	8133.9125
1808.90913	8127.7125
1812.09102	8124.7125
1815.27083	8067.5125
1818.44856	8063.7125
1821.6242	8017.8125
1824.79776	8024.0125
1827.96924	8003.2125
1831.13864	8004.0125
1834.30597	7991.8125
1837.47122	7968.3125
1840.6344	7966.3125
1843.7955	7964.1125
1846.95454	7955.6125
1850.11151	7946.5125
1853.26642	7957.0125
1856.41926	7979.3125
1859.57004	7938.9125
1862.71876	7939.1125
1865.86542	7959.9125
1869.01003	7938.9125
1872.15258	7917.5125
1875.29308	7917.2125
1878.43152	7921.0125
1881.56792	7909.3125
1884.70227	7885.9125
1887.83457	7866.6125
1890.96482	7862.6125
1894.09304	7856.7125
1897.21921	7832.3125
1900.34335	7837.8125
1903.46544	7834.0125
1906.58551	7831.8125
1909.70353	7817.9125
1912.81953	7833.0125
1915.93349	7801.6125
1919.04543	7779.8125
1922.15534	7788.8125
1925.26322	7760.7125
1928.36908	7762.3125
1931.47292	7722.8125
1934.57473	7708.7125
1937.67453	7698.3125
1940.77232	7669.7125
1943.86808	7672.1125
1946.96184	7659.9125
1950.05358	7637.7125
1953.14331	7598.3125
1956.23103	7594.8125
1959.31675	7575.6125
1962.40046	7513.4125
1965.48217	7508.5125
1968.56188	7494.6125
1971.63959	7481.1125
1974.7153	7468.1125
1977.78901	7471.4125
1980.86073	7443.9125
1983.93046	7416.0125
1986.99819	7378.1125
1990.06394	7367.8125
1993.1277	7336.4125
1996.18947	7313.0125
1999.24925	7300.0125
2002.30706	7243.9125
2005.36288	7221.9125
2008.41672	7198.6125
2011.46859	7184.0125
2014.51848	7181.5125
2017.56639	7165.3125
2020.61233	7127.5125
2023.6563	7122.4125
2026.6983	7100.1125
2029.73833	7068.8125
2032.7764	7068.8125
2035.8125	7041.4125
2038.84664	7052.1125
2041.87881	7034.4125
2044.90903	7011.6125
2047.93729	6996.8125
2050.96359	6978.9125
2053.98794	6985.1125
2057.01034	6982.0125
2060.03078	6970.5125
2063.04927	6974.7125
2066.06582	6967.2125
2069.08042	6931.2125
2072.09307	6951.3125
2075.10378	6952.0125
2078.11255	6925.8125
2081.11938	6918.7125
2084.12426	6923.8125
2087.12722	6911.3125
2090.12824	6888.1125
2093.12732	6895.8125
2096.12447	6904.3125
2099.11969	6933.6125
2102.11299	6917.2125
2105.10435	6931.7125
2108.09379	6937.4125
2111.08131	6937.5125
2114.0669	6921.6125
2117.05057	6939.2125
2120.03233	6955.9125
2123.01216	6948.2125
2125.99008	6955.5125
2128.96609	6945.0125
2131.94018	6950.8125
2134.91236	6954.2125
2137.88263	6960.7125
2140.851	6970.8125
2143.81746	6960.8125
2146.78201	6944.1125
2149.74466	6934.5125
2152.7054	6965.3125
2155.66425	6952.5125
2158.6212	6961.1125
2161.57625	6942.3125
2164.52941	6934.6125
2167.48067	6935.9125
2170.43004	6922.0125
2173.37752	6923.4125
2176.32311	6911.0125
2179.26681	6958.6125
2182.20863	6925.2125
2185.14856	6947.5125
2188.08661	6935.7125
2191.02278	6936.2125
2193.95707	6940.9125
2196.88948	6943.2125
2199.82001	6911.2125
2202.74867	6918.8125
2205.67545	6932.8125
2208.60037	6925.1125
2211.52341	6929.4125
2214.44458	6878.6125
2217.36388	6878.2125
2220.28132	6885.0125
2223.1969	6850.3125
2226.11061	6838.7125
2229.02246	6815.6125
2231.93245	6818.6125
2234.84058	6812.2125
2237.74686	6807.5125
2240.65128	6783.9125
2243.55385	6775.2125
2246.45456	6763.8125
2249.35343	6747.0125
2252.25044	6737.7125
2255.14561	6742.2125
2258.03893	6750.7125
2260.93041	6738.7125
2263.82004	6724.2125
2266.70783	6691.1125
2269.59378	6665.6125
2272.4779	6652.0125
2275.36017	6634.7125
2278.24061	6656.9125
2281.11922	6625.1125
2283.996	6601.1125
2286.87094	6606.2125
2289.74405	6584.1125
2292.61534	6580.0125
2295.4848	6569.6125
2298.35243	6576.4125
2301.21824	6556.9125
2304.08223	6557.5125
2306.94439	6554.4125
2309.80474	6562.3125
2312.66327	6568.7125
2315.51999	6568.2125
2318.37489	6565.5125
2321.22797	6558.0125
2324.07925	6537.8125
2326.92871	6546.1125
2329.77637	6541.7125
2332.62222	6525.8125
2335.46626	6515.8125
2338.3085	6515.0125
2341.14893	6521.3125
2343.98756	6546.1125
2346.8244	6540.5125
2349.65943	6506.6125
2352.49267	6494.9125
2355.32411	6524.7125
2358.15376	6514.1125
2360.98161	6510.6125
2363.80768	6499.0125
2366.63195	6496.2125
2369.45444	6470.7125
2372.27514	6489.2125
2375.09405	6446.9125
2377.91118	6431.0125
2380.72652	6414.3125
2383.54009	6405.3125
2386.35187	6412.0125
2389.16188	6390.7125
2391.97011	6364.6125
2394.77657	6347.3125
2397.58125	6328.2125
2400.38416	6339.1125
2403.18529	6331.4125
2405.98466	6319.4125
2408.78226	6292.1125
2411.57809	6293.7125
2414.37216	6268.2125
2417.16446	6259.1125
2419.955	6261.5125
2422.74378	6254.8125
2425.5308	6249.4125
2428.31606	6233.8125
2431.09956	6221.5125
2433.88131	6234.1125
2436.6613	6227.9125
2439.43954	6220.5125
2442.21603	6202.9125
2444.99077	6232.2125
2447.76377	6229.6125
2450.53501	6206.5125
2453.30451	6214.8125
2456.07226	6200.3125
2458.83827	6198.3125
2461.60254	6194.0125
2464.36507	6175.8125
2467.12586	6151.3125
2469.88492	6172.5125
2472.64224	6160.4125
2475.39782	6171.8125
2478.15167	6177.0125
2480.90379	6152.9125
2483.65417	6146.8125
2486.40283	6161.9125
2489.14976	6163.8125
2491.89497	6214.4125
2494.63845	6176.6125
2497.3802	6173.0125
2500.12024	6163.8125
2502.85855	6145.9125
2505.59514	6153.4125
2508.33002	6145.8125
2511.06318	6115.7125
2513.79462	6105.4125
2516.52435	6082.1125
2519.25237	6082.6125
2521.97867	6083.6125
2524.70327	6059.1125
2527.42616	6060.9125
2530.14734	6056.0125
2532.86681	6050.6125
2535.58458	6063.4125
2538.30065	6075.4125
2541.01501	6065.4125
2543.72768	6061.6125
2546.43864	6043.9125
2549.14791	6036.7125
2551.85548	6013.0125
2554.56136	6026.8125
2557.26554	6028.6125
2559.96803	6006.1125
2562.66883	5979.2125
2565.36794	5976.7125
2568.06536	5959.5125
2570.7611	5949.7125
2573.45514	5954.8125
2576.14751	5961.1125
2578.83819	5929.4125
2581.52719	5944.2125
2584.21451	5935.0125
2586.90015	5943.7125
2589.58411	5930.6125
2592.2664	5917.5125
2594.94701	5901.7125
2597.62594	5910.6125
2600.30321	5891.4125
2602.9788	5903.9125
2605.65273	5891.6125
2608.32498	5888.0125
2610.99557	5866.6125
2613.66449	5875.6125
2616.33175	5885.7125
2618.99734	5890.3125
2621.66128	5880.0125
2624.32355	5864.8125
2626.98416	5867.6125
2629.64311	5861.7125
2632.30041	5861.8125
2634.95605	5854.6125
2637.61004	5830.0125
2640.26238	5825.3125
2642.91306	5829.5125
2645.56209	5819.7125
2648.20948	5814.5125
2650.85521	5814.0125
2653.4993	5790.8125
2656.14175	5805.8125
2658.78255	5788.1125
2661.42171	5788.4125
2664.05923	5789.5125
2666.6951	5816.2125
2669.32934	5812.8125
2671.96194	5827.5125
2674.59291	5823.4125
2677.22224	5808.9125
2679.84993	5804.4125
2682.476	5821.8125
2685.10043	5800.8125
2687.72324	5802.8125
2690.34441	5795.5125
2692.96396	5794.1125
2695.58188	5760.3125
2698.19818	5756.2125
2700.81285	5757.9125
2703.4259	5750.6125
2706.03733	5758.5125
2708.64714	5754.3125
2711.25533	5756.9125
2713.86191	5765.0125
2716.46687	5762.9125
2719.07021	5756.0125
2721.67194	5750.4125
2724.27206	5749.4125
2726.87057	5760.4125
2729.46747	5760.3125
2732.06276	5757.6125
2734.65644	5742.0125
2737.24852	5738.9125
2739.83899	5722.3125
2742.42786	5719.3125
2745.01513	5696.4125
2747.60079	5697.4125
2750.18486	5696.1125
2752.76733	5693.2125
2755.3482	5694.7125
2757.92747	5676.2125
2760.50515	5666.3125
2763.08123	5649.3125
2765.65573	5658.5125
2768.22863	5666.6125
2770.79994	5643.6125
2773.36967	5658.6125
2775.9378	5641.3125
2778.50435	5644.5125
2781.06932	5662.3125
2783.6327	5646.7125
2786.1945	5658.8125
2788.75471	5633.8125
2791.31335	5623.1125
2793.87041	5607.3125
2796.42589	5573.4125
2798.97979	5571.4125
2801.53212	5570.8125
2804.08288	5575.5125
2806.63206	5546.0125
2809.17967	5527.4125
2811.72571	5530.2125
2814.27018	5514.7125
2816.81308	5510.4125
2819.35442	5514.1125
2821.89419	5510.5125
2824.43239	5493.1125
2826.96904	5480.4125
2829.50412	5478.1125
2832.03763	5468.4125
2834.56959	5457.5125
2837.1	5437.0125
2839.62884	5438.3125
2842.15613	5450.5125
2844.68186	5440.9125
2847.20604	5424.4125
2849.72867	5428.5125
2852.24974	5400.3125
2854.76927	5396.5125
2857.28724	5387.4125
2859.80367	5376.9125
2862.31855	5381.2125
2864.83189	5360.0125
2867.34368	5384.2125
2869.85393	5365.3125
2872.36264	5372.2125
2874.8698	5375.1125
2877.37543	5359.6125
2879.87952	5353.4125
2882.38207	5347.0125
2884.88308	5348.7125
2887.38256	5353.6125
2889.88051	5334.3125
2892.37692	5338.4125
2894.8718	5334.1125
2897.36515	5342.4125
2899.85698	5344.1125
2902.34727	5337.4125
2904.83604	5347.9125
2907.32328	5369.1125
2909.809	5364.7125
2912.29319	5365.0125
2914.77587	5356.3125
2917.25702	5383.9125
2919.73665	5367.3125
2922.21476	5370.9125
2924.69136	5359.1125
2927.16644	5336.0125
2929.64	5337.5125
2932.11205	5307.6125
2934.58258	5287.8125
2937.05161	5300.9125
2939.51912	5293.6125
2941.98513	5318.9125
2944.44962	5286.2125
2946.91261	5266.2125
2949.37409	5278.7125
2951.83407	5286.8125
2954.29254	5274.5125
2956.74951	5278.5125
2959.20498	5278.1125
2961.65895	5274.3125
2964.11142	5262.2125
2966.56239	5254.1125
2969.01186	5246.7125
2971.45984	5245.8125
2973.90632	5248.0125
2976.35131	5214.6125
2978.7948	5229.4125
2981.23681	5215.6125
2983.67732	5196.9125
2986.11635	5178.4125
2988.55388	5163.0125
2990.98993	5155.8125
2993.4245	5163.6125
2995.85758	5140.8125
2998.28917	5128.9125
3000.71928	5108.7125
3003.14791	5083.5125
3005.57506	5079.1125
3008.00073	5074.0125
3010.42493	5055.1125
3012.84764	5044.3125
3015.26888	5047.1125
3017.68865	5027.9125
3020.10694	5025.5125
3022.52376	5005.6125
3024.9391	4994.2125
3027.35298	4971.6125
3029.76539	4967.0125
3032.17632	4958.7125
3034.5858	4972.4125
3036.9938	4946.7125
3039.40034	4926.2125
3041.80542	4910.6125
3044.20903	4917.3125
3046.61118	4923.7125
3049.01187	4892.6125
3051.4111	4898.2125
3053.80888	4877.3125
3056.20519	4868.5125
3058.60005	4844.0125
3060.99345	4843.3125
3063.3854	4840.4125
3065.7759	4815.6125
3068.16494	4810.8125
3070.55254	4801.0125
3072.93868	4778.3125
3075.32338	4763.8125
3077.70662	4775.8125
3080.08842	4734.0125
3082.46878	4740.7125
3084.84769	4731.3125
3087.22515	4705.6125
3089.60118	4728.2125
3091.97576	4730.9125
3094.3489	4719.6125
3096.72061	4697.4125
3099.09087	4708.3125
3101.4597	4682.6125
3103.82709	4700.0125
3106.19305	4701.7125
