Data from AgNPs_UA_5uM_CRN_500uM_SU_RamanShift__102__11-46-23-159.txt Node

Date: Thu Aug 04 11:46:23 BST 2022
User: TCL
Spectrometer: QEP01345
Trigger mode: 4
Integration Time (sec): 1.000000E0
Scans to average: 10
Electric dark correction enabled: true
Nonlinearity correction enabled: false
Boxcar width: 0
XAxis mode: Raman Shifts
Number of Pixels in Spectrum: 1044
>>>>>Begin Spectral Data<<<<<
46.04893	0.75
50.45542	0.15
54.85868	0.25
59.25871	-0.85
63.6555	-65.85
68.04907	-46.35
72.43941	-80.35
76.82654	-65.55
81.21044	-65.75
85.59113	-58.95
89.96862	-84.15
94.34289	-64.35
98.71396	-87.85
103.08183	-69.35
107.4465	-61.15
111.80798	-68.05
116.16626	-56.65
120.52136	-88.95
124.87327	-64.65
129.222	-77.25
133.56755	-66.65
137.90993	-81.55
142.24913	-71.85
146.58517	-69.75
150.91804	-69.45
155.24774	-67.45
159.57429	-58.55
163.89768	-68.85
168.21792	-49.55
172.53501	-62.55
176.84895	-30.65
181.15975	22.95
185.46741	67.35
189.77193	102.35
194.07331	213.55
198.37157	296.45
202.6667	372.45
206.9587	465.35
211.24758	563.75
215.53334	647.15
219.81599	741.05
224.09553	853.65
228.37195	966.85
232.64527	1081.85
236.91549	1229.25
241.18261	1335.05
245.44663	1474.45
249.70755	1584.65
253.96539	1684.75
258.22014	1773.15
262.4718	1830.35
266.72039	1873.45
270.96589	1893.35
275.20832	1884.95
279.44768	1874.25
283.68397	1834.85
287.91719	1803.25
292.14735	1791.05
296.37445	1794.65
300.59849	1803.25
304.81948	1804.25
309.03742	1834.55
313.25231	1851.15
317.46415	1874.65
321.67296	1827.05
325.87872	1806.85
330.08145	1816.05
334.28114	1825.15
338.47781	1824.65
342.67145	1863.75
346.86207	1904.15
351.04966	1960.15
355.23424	2004.05
359.4158	2057.35
363.59435	2061.55
367.76989	2080.65
371.94243	2093.85
376.11196	2091.95
380.27849	2120.85
384.44203	2121.05
388.60257	2135.15
392.76012	2152.75
396.91468	2198.85
401.06626	2240.35
405.21485	2238.75
409.36047	2240.45
413.50311	2240.85
417.64277	2245.15
421.77947	2222.75
425.9132	2232.05
430.04396	2259.45
434.17176	2270.05
438.2966	2306.05
442.41849	2332.85
446.53742	2347.15
450.6534	2359.55
454.76644	2395.45
458.87653	2417.65
462.98368	2423.45
467.08789	2403.05
471.18916	2423.25
475.2875	2458.35
479.38291	2469.55
483.4754	2454.15
487.56496	2484.15
491.6516	2478.05
495.73531	2480.75
499.81612	2502.35
503.89401	2529.45
507.96899	2501.05
512.04106	2543.15
516.11023	2570.65
520.1765	2577.25
524.23987	2583.15
528.30034	2593.05
532.35792	2567.45
536.41261	2613.05
540.46441	2608.05
544.51333	2605.75
548.55936	2632.55
552.60252	2656.85
556.64279	2669.35
560.6802	2706.85
564.71473	2726.85
568.7464	2737.65
572.7752	2754.25
576.80114	2727.55
580.82422	2717.35
584.84444	2714.65
588.86181	2721.35
592.87633	2743.45
596.888	2755.15
600.89682	2804.85
604.9028	2888.95
608.90594	3042.55
612.90624	3241.85
616.90371	3176.15
620.89834	2953.75
624.89015	2892.95
628.87913	2864.15
632.86528	2894.35
636.84862	2936.65
640.82913	2937.15
644.80683	2910.15
648.78172	2916.25
652.75379	2938.65
656.72306	2963.75
660.68952	2987.65
664.65319	2997.65
668.61405	2987.85
672.57211	2981.25
676.52738	3022.55
680.47986	3024.75
684.42955	3035.05
688.37646	3046.25
692.32058	3029.85
696.26192	3049.05
700.20048	3072.75
704.13626	3082.05
708.06928	3085.05
711.99952	3114.15
715.927	3090.25
719.85171	3108.95
723.77365	3148.75
727.69284	3136.85
731.60928	3157.85
735.52295	3142.55
739.43388	3165.85
743.34206	3180.65
747.24749	3204.45
751.15017	3231.05
755.05012	3209.75
758.94733	3260.15
762.8418	3316.95
766.73354	3418.65
770.62254	3501.35
774.50882	3491.35
778.39237	3454.55
782.27321	3408.35
786.15132	3353.75
790.02671	3332.65
793.89938	3252.45
797.76935	3287.65
801.6366	3286.95
805.50115	3289.35
809.36299	3292.95
813.22213	3326.55
817.07857	3321.95
820.93231	3324.55
824.78336	3338.65
828.63172	3335.35
832.47738	3353.75
836.32036	3374.35
840.16066	3391.75
843.99827	3413.95
847.8332	3402.95
851.66546	3394.65
855.49504	3387.25
859.32195	3433.75
863.1462	3422.95
866.96777	3442.65
870.78668	3435.95
874.60293	3453.25
878.41652	3451.95
882.22745	3490.15
886.03573	3498.65
889.84136	3497.15
893.64433	3501.55
897.44466	3499.75
901.24235	3517.05
905.0374	3529.05
908.8298	3511.05
912.61957	3499.65
916.40671	3471.45
920.19121	3507.45
923.97308	3533.85
927.75233	3520.05
931.52895	3510.05
935.30295	3574.25
939.07433	3537.95
942.84309	3514.95
946.60924	3532.55
950.37278	3519.85
954.13371	3533.75
957.89203	3523.25
961.64774	3545.95
965.40086	3530.65
969.15137	3502.15
972.89929	3530.25
976.64461	3538.15
980.38733	3568.55
984.12747	3544.45
987.86502	3549.65
991.59999	3559.75
995.33237	3594.25
999.06217	3601.25
1002.78939	3608.25
1006.51404	3620.95
1010.23611	3627.35
1013.95561	3642.25
1017.67255	3660.55
1021.38692	3680.75
1025.09872	3664.95
1028.80796	3641.85
1032.51465	3668.25
1036.21877	3654.05
1039.92035	3680.85
1043.61937	3678.75
1047.31584	3692.95
1051.00976	3743.35
1054.70114	3739.15
1058.38998	3755.35
1062.07627	3731.05
1065.76003	3764.25
1069.44126	3768.85
1073.11995	3781.65
1076.79611	3794.65
1080.46974	3813.95
1084.14085	3844.65
1087.80943	3835.45
1091.47549	3847.85
1095.13903	3847.55
1098.80005	3848.95
1102.45857	3817.45
1106.11456	3828.45
1109.76805	3795.25
1113.41903	3829.75
1117.06751	3850.25
1120.71348	3868.75
1124.35696	3903.35
1127.99793	3919.65
1131.63641	3913.25
1135.2724	3897.55
1138.90589	3877.65
1142.5369	3835.45
1146.16542	3840.95
1149.79145	3804.05
1153.415	3819.75
1157.03607	3828.25
1160.65467	3820.45
1164.27079	3857.15
1167.88443	3849.25
1171.49561	3907.75
1175.10432	3948.15
1178.71056	4031.95
1182.31434	4103.75
1185.91565	4135.65
1189.51451	4123.25
1193.11091	4090.55
1196.70485	4101.95
1200.29634	4077.15
1203.88538	4049.65
1207.47197	4017.65
1211.05612	3987.25
1214.63782	3946.25
1218.21708	3959.05
1221.79391	3960.75
1225.36829	3923.95
1228.94024	3933.35
1232.50976	3937.25
1236.07685	3959.15
1239.6415	3967.35
1243.20374	3981.55
1246.76355	3987.05
1250.32093	4025.65
1253.8759	3997.35
1257.42845	4043.85
1260.97859	4064.25
1264.52631	4094.35
1268.07163	4084.55
1271.61453	4105.85
1275.15503	4098.05
1278.69312	4095.55
1282.22882	4110.85
1285.76211	4148.95
1289.29301	4137.95
1292.82151	4172.15
1296.34761	4173.75
1299.87133	4218.05
1303.39266	4265.05
1306.9116	4340.65
1310.42815	4442.05
1313.94233	4499.15
1317.45412	4441.05
1320.96354	4359.65
1324.47058	4274.75
1327.97525	4200.25
1331.47754	4162.85
1334.97747	4157.05
1338.47502	4152.35
1341.97022	4175.65
1345.46305	4246.85
1348.95352	4313.65
1352.44163	4403.55
1355.92738	4456.95
1359.41078	4568.65
1362.89183	4693.75
1366.37053	4639.35
1369.84688	4431.55
1373.32088	4238.35
1376.79254	4147.95
1380.26186	4077.55
1383.72883	4036.15
1387.19347	3977.15
1390.65578	3939.15
1394.11575	3925.35
1397.57339	3915.65
1401.0287	3894.45
1404.48168	3896.05
1407.93234	3903.35
1411.38068	3903.15
1414.82669	3897.05
1418.27039	3916.45
1421.71177	3915.55
1425.15083	3897.05
1428.58758	3885.65
1432.02203	3891.15
1435.45416	3917.85
1438.88399	3879.85
1442.31151	3848.15
1445.73673	3863.05
1449.15965	3858.55
1452.58027	3857.05
1455.9986	3865.85
1459.41463	3860.25
1462.82837	3884.65
1466.23982	3893.85
1469.64898	3928.25
1473.05586	3908.45
1476.46045	3932.65
1479.86276	3954.35
1483.26279	3952.15
1486.66054	3999.05
1490.05602	4016.25
1493.44922	4068.75
1496.84016	4132.95
1500.22882	4228.95
1503.61521	4344.75
1506.99934	4477.85
1510.38121	4612.25
1513.76081	4658.65
1517.13816	4567.65
1520.51324	4391.65
1523.88607	4254.15
1527.25665	4188.05
1530.62498	4129.45
1533.99105	4127.15
1537.35488	4114.45
1540.71647	4123.35
1544.07581	4115.05
1547.4329	4118.15
1550.78776	4124.35
1554.14038	4116.75
1557.49077	4129.35
1560.83892	4149.05
1564.18484	4178.85
1567.52853	4196.05
1570.86999	4219.75
1574.20922	4223.05
1577.54624	4222.25
1580.88103	4191.25
1584.2136	4115.65
1587.54395	4119.05
1590.87208	4125.45
1594.19801	4101.05
1597.52172	4148.15
1600.84321	4174.05
1604.16251	4159.75
1607.47959	4106.85
1610.79447	4127.65
1614.10715	4092.15
1617.41763	4095.65
1620.7259	4065.85
1624.03199	4056.75
1627.33587	4028.15
1630.63757	4027.95
1633.93707	4034.25
1637.23439	4065.35
1640.52951	4122.35
1643.82246	4186.95
1647.11321	4291.05
1650.40179	4337.95
1653.68819	4307.25
1656.97241	4217.85
1660.25446	4105.35
1663.53433	4028.05
1666.81203	3988.05
1670.08756	3956.65
1673.36092	3961.85
1676.63211	3934.85
1679.90115	3941.85
1683.16801	3934.25
1686.43272	3894.15
1689.69527	3896.75
1692.95567	3868.15
1696.2139	3889.95
1699.46999	3860.25
1702.72392	3860.85
1705.97571	3897.85
1709.22535	3867.85
1712.47284	3912.45
1715.71819	3923.95
1718.96139	3933.75
1722.20246	3916.55
1725.44139	3924.95
1728.67818	3940.15
1731.91284	3934.15
1735.14537	3921.75
1738.37576	3904.85
1741.60403	3888.75
1744.83017	3878.25
1748.05418	3901.95
1751.27607	3910.65
1754.49584	3899.05
1757.71349	3865.95
1760.92903	3884.55
1764.14244	3850.75
1767.35375	3868.65
1770.56294	3860.05
1773.77002	3863.95
1776.97499	3897.15
1780.17785	3888.95
1783.37861	3892.25
1786.57727	3902.85
1789.77382	3856.85
1792.96828	3890.95
1796.16064	3900.85
1799.3509	3868.75
1802.53907	3912.35
1805.72514	3868.55
1808.90913	3870.65
1812.09102	3875.25
1815.27083	3876.35
1818.44856	3872.25
1821.6242	3863.05
1824.79776	3851.45
1827.96924	3855.95
1831.13864	3838.95
1834.30597	3847.55
1837.47122	3837.95
1840.6344	3842.15
1843.7955	3819.45
1846.95454	3825.05
1850.11151	3852.05
1853.26642	3827.85
1856.41926	3820.25
1859.57004	3815.25
1862.71876	3808.25
1865.86542	3826.05
1869.01003	3827.15
1872.15258	3803.45
1875.29308	3824.05
1878.43152	3819.05
1881.56792	3797.55
1884.70227	3791.15
1887.83457	3799.55
1890.96482	3766.35
1894.09304	3783.25
1897.21921	3778.75
1900.34335	3798.15
1903.46544	3764.15
1906.58551	3781.15
1909.70353	3774.45
1912.81953	3771.35
1915.93349	3759.95
1919.04543	3753.15
1922.15534	3752.45
1925.26322	3760.85
1928.36908	3746.65
1931.47292	3761.85
1934.57473	3775.95
1937.67453	3740.45
1940.77232	3716.25
1943.86808	3713.55
1946.96184	3730.35
1950.05358	3700.25
1953.14331	3685.95
1956.23103	3704.95
1959.31675	3671.45
1962.40046	3620.85
1965.48217	3658.15
1968.56188	3649.55
1971.63959	3625.95
1974.7153	3634.25
1977.78901	3611.05
1980.86073	3619.15
1983.93046	3590.55
1986.99819	3511.05
1990.06394	3543.85
1993.1277	3564.85
1996.18947	3566.45
1999.24925	3534.15
2002.30706	3535.95
2005.36288	3541.65
2008.41672	3521.85
2011.46859	3494.35
2014.51848	3502.75
2017.56639	3469.95
2020.61233	3466.05
2023.6563	3487.65
2026.6983	3440.45
2029.73833	3444.55
2032.7764	3464.15
2035.8125	3426.55
2038.84664	3429.05
2041.87881	3418.75
2044.90903	3427.25
2047.93729	3414.75
2050.96359	3404.45
2053.98794	3415.55
2057.01034	3419.05
2060.03078	3392.55
2063.04927	3379.65
2066.06582	3414.15
2069.08042	3388.65
2072.09307	3409.75
2075.10378	3397.65
2078.11255	3388.55
2081.11938	3394.55
2084.12426	3383.25
2087.12722	3383.55
2090.12824	3390.05
2093.12732	3377.05
2096.12447	3390.15
2099.11969	3388.35
2102.11299	3390.15
2105.10435	3406.25
2108.09379	3395.85
2111.08131	3393.95
2114.0669	3401.45
2117.05057	3388.15
2120.03233	3371.55
2123.01216	3409.05
2125.99008	3414.75
2128.96609	3393.55
2131.94018	3444.85
2134.91236	3421.45
2137.88263	3417.75
2140.851	3422.65
2143.81746	3442.15
2146.78201	3436.05
2149.74466	3421.75
2152.7054	3438.85
2155.66425	3422.75
2158.6212	3417.65
2161.57625	3416.65
2164.52941	3391.45
2167.48067	3406.55
2170.43004	3402.05
2173.37752	3429.55
2176.32311	3420.15
2179.26681	3412.45
2182.20863	3436.75
2185.14856	3418.75
2188.08661	3418.05
2191.02278	3415.35
2193.95707	3411.25
2196.88948	3402.35
2199.82001	3412.15
2202.74867	3399.85
2205.67545	3388.35
2208.60037	3424.95
2211.52341	3401.45
2214.44458	3385.15
2217.36388	3390.25
2220.28132	3360.35
2223.1969	3359.85
2226.11061	3361.45
2229.02246	3347.25
2231.93245	3356.45
2234.84058	3329.35
2237.74686	3333.95
2240.65128	3336.75
2243.55385	3325.75
2246.45456	3310.25
2249.35343	3327.25
2252.25044	3315.05
2255.14561	3313.25
2258.03893	3301.85
2260.93041	3299.75
2263.82004	3294.45
2266.70783	3286.85
2269.59378	3262.75
2272.4779	3255.35
2275.36017	3255.25
2278.24061	3257.05
2281.11922	3225.65
2283.996	3232.65
2286.87094	3218.35
2289.74405	3224.75
2292.61534	3230.35
2295.4848	3229.65
2298.35243	3220.55
2301.21824	3205.95
2304.08223	3206.35
2306.94439	3215.95
2309.80474	3221.05
2312.66327	3211.35
2315.51999	3197.25
2318.37489	3206.45
2321.22797	3173.15
2324.07925	3175.75
2326.92871	3174.85
2329.77637	3161.85
2332.62222	3167.15
2335.46626	3132.45
2338.3085	3142.75
2341.14893	3153.95
2343.98756	3153.55
2346.8244	3113.45
2349.65943	3101.95
2352.49267	3120.65
2355.32411	3138.45
2358.15376	3115.85
2360.98161	3128.15
2363.80768	3101.05
2366.63195	3104.65
2369.45444	3100.75
2372.27514	3116.15
2375.09405	3103.05
2377.91118	3085.75
2380.72652	3085.05
2383.54009	3077.05
2386.35187	3085.95
2389.16188	3064.95
2391.97011	3067.85
2394.77657	3055.85
2397.58125	3063.95
2400.38416	3050.65
2403.18529	3033.85
2405.98466	3037.25
2408.78226	3046.35
2411.57809	3028.85
2414.37216	3016.75
2417.16446	3014.15
2419.955	3009.35
2422.74378	3022.85
2425.5308	3009.65
2428.31606	3002.55
2431.09956	3014.75
2433.88131	2983.75
2436.6613	2991.35
2439.43954	2981.45
2442.21603	2985.15
2444.99077	2967.65
2447.76377	2977.15
2450.53501	2972.55
2453.30451	2950.65
2456.07226	2972.65
2458.83827	2957.95
2461.60254	2909.55
2464.36507	2936.15
2467.12586	2935.45
2469.88492	2926.05
2472.64224	2923.75
2475.39782	2904.95
2478.15167	2924.55
2480.90379	2898.25
2483.65417	2914.35
2486.40283	2911.15
2489.14976	2916.25
2491.89497	2891.55
2494.63845	2895.05
2497.3802	2887.05
2500.12024	2881.05
2502.85855	2872.75
2505.59514	2896.05
2508.33002	2887.05
2511.06318	2864.25
2513.79462	2888.95
2516.52435	2856.75
2519.25237	2825.15
2521.97867	2846.55
2524.70327	2853.35
2527.42616	2854.95
2530.14734	2851.45
2532.86681	2838.95
2535.58458	2838.45
2538.30065	2824.45
2541.01501	2834.85
2543.72768	2816.65
2546.43864	2821.85
2549.14791	2802.95
2551.85548	2796.85
2554.56136	2797.85
2557.26554	2783.65
2559.96803	2781.65
2562.66883	2792.15
2565.36794	2756.45
2568.06536	2747.55
2570.7611	2766.75
2573.45514	2745.55
2576.14751	2754.65
2578.83819	2741.45
2581.52719	2721.85
2584.21451	2722.85
2586.90015	2711.35
2589.58411	2688.55
2592.2664	2709.25
2594.94701	2696.05
2597.62594	2714.45
2600.30321	2642.15
2602.9788	2666.65
2605.65273	2666.35
2608.32498	2669.35
2610.99557	2664.85
2613.66449	2641.95
2616.33175	2653.15
2618.99734	2645.35
2621.66128	2653.45
2624.32355	2649.65
2626.98416	2634.65
2629.64311	2623.55
2632.30041	2629.05
2634.95605	2613.25
2637.61004	2587.65
2640.26238	2586.45
2642.91306	2592.85
2645.56209	2602.85
2648.20948	2613.65
2650.85521	2580.55
2653.4993	2596.55
2656.14175	2595.15
2658.78255	2574.35
2661.42171	2545.55
2664.05923	2587.25
2666.6951	2579.65
2669.32934	2588.95
2671.96194	2592.45
2674.59291	2562.05
2677.22224	2575.85
2679.84993	2575.75
2682.476	2565.95
2685.10043	2575.05
2687.72324	2550.95
2690.34441	2557.15
2692.96396	2548.35
2695.58188	2564.25
2698.19818	2563.85
2700.81285	2545.45
2703.4259	2541.85
2706.03733	2511.95
2708.64714	2511.95
2711.25533	2556.45
2713.86191	2537.35
2716.46687	2540.05
2719.07021	2545.45
2721.67194	2535.95
2724.27206	2552.85
2726.87057	2524.05
2729.46747	2524.75
2732.06276	2531.05
2734.65644	2521.95
2737.24852	2519.45
2739.83899	2504.15
2742.42786	2507.65
2745.01513	2532.55
2747.60079	2513.35
2750.18486	2496.45
2752.76733	2510.35
2755.3482	2493.35
2757.92747	2488.85
2760.50515	2484.05
2763.08123	2467.05
2765.65573	2476.65
2768.22863	2462.15
2770.79994	2454.45
2773.36967	2459.55
2775.9378	2454.15
2778.50435	2441.95
2781.06932	2442.65
2783.6327	2420.05
2786.1945	2447.15
2788.75471	2433.65
2791.31335	2429.75
2793.87041	2413.15
2796.42589	2410.05
2798.97979	2394.45
2801.53212	2393.35
2804.08288	2404.85
2806.63206	2383.05
2809.17967	2356.25
2811.72571	2369.45
2814.27018	2373.75
2816.81308	2360.55
2819.35442	2312.65
2821.89419	2338.35
2824.43239	2321.15
2826.96904	2344.05
2829.50412	2326.05
2832.03763	2331.05
2834.56959	2336.65
2837.1	2323.45
2839.62884	2333.15
2842.15613	2322.65
2844.68186	2336.35
2847.20604	2305.95
2849.72867	2303.45
2852.24974	2301.95
2854.76927	2281.65
2857.28724	2223.15
2859.80367	2271.35
2862.31855	2289.85
2864.83189	2273.75
2867.34368	2272.95
2869.85393	2263.35
2872.36264	2248.65
2874.8698	2248.45
2877.37543	2252.55
2879.87952	2246.95
2882.38207	2246.45
2884.88308	2247.25
2887.38256	2242.95
2889.88051	2244.55
2892.37692	2255.75
2894.8718	2236.05
2897.36515	2246.75
2899.85698	2233.25
2902.34727	2236.55
2904.83604	2240.15
2907.32328	2235.95
2909.809	2235.85
2912.29319	2221.15
2914.77587	2220.45
2917.25702	2244.75
2919.73665	2235.45
2922.21476	2231.85
2924.69136	2239.05
2927.16644	2225.25
2929.64	2236.45
2932.11205	2222.35
2934.58258	2219.55
2937.05161	2202.75
2939.51912	2205.85
2941.98513	2235.05
2944.44962	2220.35
2946.91261	2202.25
2949.37409	2195.65
2951.83407	2202.45
2954.29254	2211.65
2956.74951	2194.35
2959.20498	2191.05
2961.65895	2199.15
2964.11142	2195.55
2966.56239	2185.55
2969.01186	2193.85
2971.45984	2193.55
2973.90632	2186.25
2976.35131	2202.35
2978.7948	2189.35
2981.23681	2175.25
2983.67732	2185.55
2986.11635	2187.95
2988.55388	2145.25
2990.98993	2150.95
2993.4245	2147.55
2995.85758	2140.95
2998.28917	2130.05
3000.71928	2135.75
3003.14791	2123.25
3005.57506	2120.65
3008.00073	2102.95
3010.42493	2050.85
3012.84764	2109.65
3015.26888	2122.75
3017.68865	2102.35
3020.10694	2076.05
3022.52376	2085.75
3024.9391	2093.95
3027.35298	2081.95
3029.76539	2075.35
3032.17632	2080.35
3034.5858	2075.65
3036.9938	2072.15
3039.40034	2086.05
3041.80542	2063.15
3044.20903	2051.95
3046.61118	2057.25
3049.01187	2060.55
3051.4111	2051.25
3053.80888	2035.75
3056.20519	2041.05
3058.60005	2019.45
3060.99345	2041.15
3063.3854	2015.75
3065.7759	2012.65
3068.16494	1997.65
3070.55254	1986.05
3072.93868	2011.75
3075.32338	2001.75
3077.70662	1992.55
3080.08842	1982.95
3082.46878	1974.75
3084.84769	1997.95
3087.22515	1969.45
3089.60118	1994.65
3091.97576	1974.05
3094.3489	1988.35
3096.72061	1981.75
3099.09087	1966.65
3101.4597	1977.25
3103.82709	1970.45
3106.19305	1969.45
3108.55757	1970.75
3110.92066	1961.25
3113.28232	1978.25
3115.64255	1968.95
3118.00134	1971.05
3120.35871	1946.45
3122.71466	1936.85
3125.06917	1947.65
3127.42226	1934.35
3129.77393	1923.95
3132.12417	1934.55
3134.47299	1935.75
3136.82039	1922.65
3139.16636	1902.85
3141.51092	1928.15
3143.85406	1927.45
3146.19579	1897.25
3148.53609	1903.65
3150.87499	1917.15
3153.21246	1909.45
3155.54853	1923.05
3157.88318	1918.45
3160.21642	1923.25
3162.54826	1925.25
3164.87868	1926.35
3167.2077	1894.15
3169.5353	1897.45
3171.86151	1921.35
3174.18631	1908.95
3176.5097	1909.05
3178.83169	1906.95
3181.15228	1916.45
3183.47147	1882.35
3185.78926	1883.65
3188.10565	1880.25
3190.42065	1861.85
3192.73424	1887.75
3195.04645	1864.95
3197.35725	1865.95
3199.66667	1858.95
3201.97469	1861.75
3204.28132	1860.05
3206.58656	1880.35
3208.8904	1878.05
3211.19287	1879.65
3213.49394	1857.75
3215.79363	1850.05
3218.09193	1858.45
3220.38884	1857.55
3222.68438	1854.15
3224.97853	1840.55
3227.2713	1847.25
3229.56269	1841.25
3231.8527	1846.05
3234.14133	1834.35
3236.42858	1844.15
3238.71446	1811.35
3240.99896	1833.65
3243.28209	1819.75
3245.56384	1829.95
3247.84423	1813.15
3250.12324	1821.45
3252.40088	1806.15
3254.67715	1822.85
3256.95205	1801.95
3259.22558	1813.35
3261.49775	1817.55
3263.76855	1816.95
3266.03799	1804.05
3268.30606	1814.65
3270.57277	1806.05
3272.83812	1782.25
3275.10211	1797.25
3277.36474	1800.25
3279.62601	1791.05
3281.88593	1773.25
3284.14448	1753.65
3286.40168	1779.55
3288.65753	1759.45
3290.91202	1753.55
3293.16516	1748.25
3295.41695	1755.95
3297.66738	1766.35
3299.91647	1743.35
3302.16421	1735.65
3304.4106	1696.45
3306.65564	1724.85
3308.89933	1688.15
3311.14169	1689.85
3313.38269	1669.45
3315.62236	1664.95
3317.86068	1650.45
3320.09766	1641.05
3322.3333	1616.85
3324.5676	1620.95
3326.80056	1578.15
3329.03219	1573.75
3331.26248	-1.65
3333.49143	-0.95
3335.71905	1.55
