Data from AgNPs_UA_5uM_CRN_500uM_SU_RamanShift__52__11-38-03-149.txt Node

Date: Thu Aug 04 11:38:03 BST 2022
User: TCL
Spectrometer: QEP01345
Trigger mode: 4
Integration Time (sec): 1.000000E0
Scans to average: 10
Electric dark correction enabled: true
Nonlinearity correction enabled: false
Boxcar width: 0
XAxis mode: Raman Shifts
Number of Pixels in Spectrum: 1044
>>>>>Begin Spectral Data<<<<<
46.04893	-0.075
50.45542	-0.175
54.85868	-0.275
59.25871	-1.475
63.6555	-55.475
68.04907	-38.175
72.43941	-69.475
76.82654	-55.175
81.21044	-54.375
85.59113	-48.175
89.96862	-74.175
94.34289	-53.575
98.71396	-76.575
103.08183	-55.375
107.4465	-45.275
111.80798	-54.275
116.16626	-42.075
120.52136	-70.175
124.87327	-45.775
129.222	-57.875
133.56755	-43.475
137.90993	-53.875
142.24913	-40.575
146.58517	-32.175
150.91804	-27.075
155.24774	-10.575
159.57429	18.925
163.89768	28.525
168.21792	90.825
172.53501	134.225
176.84895	244.325
181.15975	430.125
185.46741	641.125
189.77193	898.625
194.07331	1309.225
198.37157	1716.425
202.6667	2142.825
206.9587	2629.225
211.24758	3124.825
215.53334	3676.325
219.81599	4302.225
224.09553	5045.125
228.37195	5798.825
232.64527	6527.025
236.91549	7119.325
241.18261	7460.125
245.44663	7589.325
249.70755	7599.325
253.96539	7611.925
258.22014	7718.225
262.4718	7804.425
266.72039	7795.825
270.96589	7666.925
275.20832	7377.625
279.44768	7102.225
283.68397	6878.625
287.91719	6806.725
292.14735	6957.425
296.37445	7412.625
300.59849	8187.825
304.81948	9291.525
309.03742	10550.225
313.25231	11449.325
317.46415	11301.325
321.67296	10004.825
325.87872	8532.925
330.08145	7663.925
334.28114	7492.425
338.47781	7710.125
342.67145	8208.625
346.86207	9002.425
351.04966	10208.625
355.23424	11389.425
359.4158	11929.825
363.59435	11563.725
367.76989	10873.725
371.94243	10170.525
376.11196	9605.825
380.27849	9188.625
384.44203	8892.625
388.60257	8716.125
392.76012	8738.225
396.91468	9029.625
401.06626	9373.325
405.21485	9382.725
409.36047	8860.325
413.50311	7959.825
417.64277	7108.425
421.77947	6574.225
425.9132	6310.825
430.04396	6195.625
434.17176	6188.325
438.2966	6308.625
442.41849	6485.625
446.53742	6665.725
450.6534	6790.325
454.76644	6802.825
458.87653	6739.725
462.98368	6614.725
467.08789	6514.225
471.18916	6338.125
475.2875	6063.625
479.38291	5863.725
483.4754	5746.925
487.56496	5689.425
491.6516	5615.225
495.73531	5599.625
499.81612	5683.825
503.89401	5840.425
507.96899	6001.225
512.04106	6232.425
516.11023	6455.225
520.1765	6669.525
524.23987	6720.725
528.30034	6699.125
532.35792	6552.025
536.41261	6397.225
540.46441	6198.325
544.51333	6070.625
548.55936	6073.725
552.60252	6230.225
556.64279	6408.625
560.6802	6781.525
564.71473	7562.225
568.7464	8590.525
572.7752	8498.125
576.80114	7171.625
580.82422	6132.925
584.84444	5668.325
588.86181	5515.025
592.87633	5550.625
596.888	5724.925
600.89682	6423.825
604.9028	8681.025
608.90594	14367.225
612.90624	21279.525
616.90371	19387.825
620.89834	10807.525
624.89015	7067.525
628.87913	6629.225
632.86528	7169.825
636.84862	7418.725
640.82913	6811.125
644.80683	5896.225
648.78172	5460.225
652.75379	5612.125
656.72306	6289.125
660.68952	6928.825
664.65319	6609.025
668.61405	5773.225
672.57211	5428.325
676.52738	5440.925
680.47986	5355.625
684.42955	5200.425
688.37646	5128.825
692.32058	5152.625
696.26192	5244.725
700.20048	5378.025
704.13626	5412.125
708.06928	5320.225
711.99952	5299.125
715.927	5328.925
719.85171	5486.625
723.77365	5627.725
727.69284	5505.825
731.60928	5370.925
735.52295	5321.825
739.43388	5375.925
743.34206	5407.225
747.24749	5424.225
751.15017	5437.025
755.05012	5711.125
758.94733	6808.425
762.8418	9326.625
766.73354	12592.825
770.62254	14315.825
774.50882	13694.525
778.39237	12494.925
782.27321	10622.725
786.15132	8169.425
790.02671	6499.725
793.89938	5682.425
797.76935	5433.225
801.6366	5289.425
805.50115	5247.025
809.36299	5194.925
813.22213	5188.025
817.07857	5178.725
820.93231	5187.225
824.78336	5299.325
828.63172	5387.125
832.47738	5432.025
836.32036	5347.425
840.16066	5185.025
843.99827	5076.625
847.8332	5043.625
851.66546	5054.025
855.49504	5012.225
859.32195	5029.725
863.1462	4980.225
866.96777	4971.625
870.78668	4956.425
874.60293	5012.725
878.41652	5050.225
882.22745	5181.025
886.03573	5272.725
889.84136	5232.725
893.64433	5230.325
897.44466	5229.125
901.24235	5218.925
905.0374	5175.025
908.8298	5005.125
912.61957	4906.825
916.40671	4826.025
920.19121	4887.525
923.97308	5046.925
927.75233	5387.425
931.52895	5722.925
935.30295	5535.825
939.07433	5031.625
942.84309	4716.825
946.60924	4601.625
950.37278	4529.625
954.13371	4537.425
957.89203	4528.325
961.64774	4536.525
965.40086	4512.925
969.15137	4489.125
972.89929	4510.125
976.64461	4484.725
980.38733	4503.325
984.12747	4479.525
987.86502	4481.225
991.59999	4520.025
995.33237	4581.425
999.06217	4682.025
1002.78939	4833.525
1006.51404	5075.225
1010.23611	5233.325
1013.95561	5112.525
1017.67255	4958.425
1021.38692	4830.825
1025.09872	4713.125
1028.80796	4628.525
1032.51465	4641.025
1036.21877	4683.425
1039.92035	4747.825
1043.61937	4811.525
1047.31584	4881.925
1051.00976	4897.925
1054.70114	4854.925
1058.38998	4810.125
1062.07627	4794.725
1065.76003	4797.725
1069.44126	4853.525
1073.11995	4950.225
1076.79611	5215.725
1080.46974	5644.625
1084.14085	6261.425
1087.80943	6763.825
1091.47549	6743.525
1095.13903	6262.725
1098.80005	5770.625
1102.45857	5536.925
1106.11456	5499.125
1109.76805	5551.925
1113.41903	5875.625
1117.06751	6396.825
1120.71348	7241.825
1124.35696	8538.925
1127.99793	9436.125
1131.63641	8773.925
1135.2724	7380.725
1138.90589	6440.425
1142.5369	5923.925
1146.16542	5597.725
1149.79145	5358.125
1153.415	5280.425
1157.03607	5330.825
1160.65467	5502.225
1164.27079	5837.225
1167.88443	6348.925
1171.49561	7215.725
1175.10432	8701.325
1178.71056	10796.725
1182.31434	12306.625
1185.91565	12095.025
1189.51451	10777.525
1193.11091	9389.025
1196.70485	8503.125
1200.29634	8146.725
1203.88538	7679.625
1207.47197	6807.725
1211.05612	6010.725
1214.63782	5505.425
1218.21708	5253.125
1221.79391	5146.825
1225.36829	5132.725
1228.94024	5127.325
1232.50976	5111.025
1236.07685	5128.425
1239.6415	5181.325
1243.20374	5294.825
1246.76355	5417.825
1250.32093	5589.825
1253.8759	5820.625
1257.42845	6265.325
1260.97859	6780.025
1264.52631	7360.725
1268.07163	7669.625
1271.61453	7719.425
1275.15503	7555.725
1278.69312	7329.125
1282.22882	7492.725
1285.76211	8227.025
1289.29301	9221.525
1292.82151	9924.325
1296.34761	10232.625
1299.87133	10943.925
1303.39266	12688.625
1306.9116	16026.725
1310.42815	20051.525
1313.94233	21363.025
1317.45412	18256.125
1320.96354	13908.125
1324.47058	10646.125
1327.97525	8598.125
1331.47754	7547.125
1334.97747	7204.825
1338.47502	7349.025
1341.97022	8153.725
1345.46305	9941.825
1348.95352	12506.225
1352.44163	15115.925
1355.92738	18293.225
1359.41078	23735.125
1362.89183	29608.025
1366.37053	28411.825
1369.84688	20081.325
1373.32088	13098.025
1376.79254	10055.625
1380.26186	8723.025
1383.72883	7702.325
1387.19347	6755.025
1390.65578	6007.225
1394.11575	5593.525
1397.57339	5374.725
1401.0287	5246.525
1404.48168	5127.425
1407.93234	5076.025
1411.38068	5158.025
1414.82669	5473.425
1418.27039	5813.425
1421.71177	5925.325
1425.15083	5753.225
1428.58758	5727.925
1432.02203	6089.025
1435.45416	6363.625
1438.88399	6154.225
1442.31151	5852.425
1445.73673	5834.925
1449.15965	5800.525
1452.58027	5676.025
1455.9986	5570.625
1459.41463	5433.025
1462.82837	5451.925
1466.23982	5668.425
1469.64898	5969.925
1473.05586	6072.025
1476.46045	6066.525
1479.86276	6116.925
1483.26279	6329.025
1486.66054	6861.525
1490.05602	7684.025
1493.44922	9021.425
1496.84016	11182.025
1500.22882	14466.425
1503.61521	19048.525
1506.99934	24866.325
1510.38121	30395.325
1513.76081	32384.725
1517.13816	28504.025
1520.51324	21451.925
1523.88607	15227.225
1527.25665	11300.425
1530.62498	9121.225
1533.99105	7867.125
1537.35488	7045.425
1540.71647	6596.125
1544.07581	6374.425
1547.4329	6393.425
1550.78776	6548.625
1554.14038	6814.325
1557.49077	7237.125
1560.83892	7986.025
1564.18484	9135.225
1567.52853	10451.925
1570.86999	11289.925
1574.20922	11425.225
1577.54624	10908.025
1580.88103	9372.425
1584.2136	7494.025
1587.54395	6410.025
1590.87208	6094.725
1594.19801	6444.225
1597.52172	7042.825
1600.84321	7050.825
1604.16251	6425.425
1607.47959	5804.825
1610.79447	5438.325
1614.10715	5112.025
1617.41763	4895.125
1620.7259	4764.825
1624.03199	4794.725
1627.33587	4911.725
1630.63757	5200.925
1633.93707	5748.725
1637.23439	6736.525
1640.52951	8564.025
1643.82246	11641.425
1647.11321	15846.025
1650.40179	19148.425
1653.68819	18854.825
1656.97241	14989.625
1660.25446	10520.325
1663.53433	7465.425
1666.81203	5806.425
1670.08756	4944.825
1673.36092	4526.925
1676.63211	4212.525
1679.90115	4036.225
1683.16801	3903.325
1686.43272	3783.825
1689.69527	3722.125
1692.95567	3652.925
1696.2139	3608.825
1699.46999	3567.925
1702.72392	3551.825
1705.97571	3550.225
1709.22535	3549.925
1712.47284	3608.125
1715.71819	3620.925
1718.96139	3622.525
1722.20246	3597.425
1725.44139	3554.125
1728.67818	3496.525
1731.91284	3431.425
1735.14537	3373.925
1738.37576	3347.125
1741.60403	3337.625
1744.83017	3299.525
1748.05418	3292.025
1751.27607	3283.225
1754.49584	3238.225
1757.71349	3178.525
1760.92903	3164.725
1764.14244	3097.025
1767.35375	3089.225
1770.56294	3055.925
1773.77002	3008.025
1776.97499	3003.425
1780.17785	2964.725
1783.37861	2950.725
1786.57727	2956.225
1789.77382	2894.325
1792.96828	2926.325
1796.16064	2931.925
1799.3509	2920.625
1802.53907	2917.625
1805.72514	2887.225
1808.90913	2872.325
1812.09102	2867.625
1815.27083	2865.125
1818.44856	2847.025
1821.6242	2832.125
1824.79776	2815.025
1827.96924	2799.325
1831.13864	2783.725
1834.30597	2775.425
1837.47122	2751.925
1840.6344	2724.425
1843.7955	2696.125
1846.95454	2687.825
1850.11151	2706.825
1853.26642	2667.125
1856.41926	2665.125
1859.57004	2679.825
1862.71876	2679.425
1865.86542	2694.425
1869.01003	2684.925
1872.15258	2660.925
1875.29308	2701.725
1878.43152	2683.725
1881.56792	2673.825
1884.70227	2652.225
1887.83457	2654.625
1890.96482	2618.425
1894.09304	2616.425
1897.21921	2627.825
1900.34335	2633.325
1903.46544	2598.025
1906.58551	2619.025
1909.70353	2605.325
1912.81953	2610.225
1915.93349	2593.725
1919.04543	2586.525
1922.15534	2559.025
1925.26322	2557.225
1928.36908	2524.325
1931.47292	2517.925
1934.57473	2510.425
1937.67453	2470.625
1940.77232	2435.525
1943.86808	2440.325
1946.96184	2440.025
1950.05358	2417.425
1953.14331	2413.725
1956.23103	2414.425
1959.31675	2390.425
1962.40046	2363.025
1965.48217	2408.625
1968.56188	2413.325
1971.63959	2418.525
1974.7153	2422.025
1977.78901	2399.425
1980.86073	2372.325
1983.93046	2336.225
1986.99819	2252.925
1990.06394	2269.525
1993.1277	2289.125
1996.18947	2278.025
1999.24925	2243.625
2002.30706	2240.425
2005.36288	2226.225
2008.41672	2216.925
2011.46859	2206.425
2014.51848	2201.925
2017.56639	2180.825
2020.61233	2168.625
2023.6563	2166.525
2026.6983	2133.025
2029.73833	2143.225
2032.7764	2146.525
2035.8125	2109.125
2038.84664	2121.125
2041.87881	2100.625
2044.90903	2115.625
2047.93729	2115.925
2050.96359	2086.225
2053.98794	2088.425
2057.01034	2091.325
2060.03078	2069.625
2063.04927	2055.725
2066.06582	2056.925
2069.08042	2030.325
2072.09307	2051.225
2075.10378	2032.425
2078.11255	2033.125
2081.11938	2030.325
2084.12426	2020.425
2087.12722	2026.025
2090.12824	2022.025
2093.12732	2022.325
2096.12447	2031.125
2099.11969	2022.625
2102.11299	2024.525
2105.10435	2034.125
2108.09379	2033.725
2111.08131	2019.325
2114.0669	2030.125
2117.05057	2034.625
2120.03233	2030.725
2123.01216	2063.825
2125.99008	2082.925
2128.96609	2065.325
2131.94018	2080.125
2134.91236	2059.125
2137.88263	2041.525
2140.851	2038.025
2143.81746	2037.025
2146.78201	2014.825
2149.74466	1993.325
2152.7054	1997.525
2155.66425	1986.825
2158.6212	1980.425
2161.57625	1952.225
2164.52941	1928.325
2167.48067	1953.225
2170.43004	1950.925
2173.37752	1970.725
2176.32311	1967.425
2179.26681	1977.025
2182.20863	1973.725
2185.14856	1969.325
2188.08661	1969.625
2191.02278	1966.725
2193.95707	1938.325
2196.88948	1923.225
2199.82001	1930.325
2202.74867	1918.525
2205.67545	1924.825
2208.60037	1932.325
2211.52341	1927.225
2214.44458	1911.525
2217.36388	1904.025
2220.28132	1891.825
2223.1969	1874.825
2226.11061	1878.925
2229.02246	1861.825
2231.93245	1860.225
2234.84058	1855.725
2237.74686	1852.425
2240.65128	1846.625
2243.55385	1847.725
2246.45456	1834.725
2249.35343	1868.225
2252.25044	1861.225
2255.14561	1882.225
2258.03893	1898.825
2260.93041	1907.925
2263.82004	1926.125
2266.70783	1922.525
2269.59378	1897.725
2272.4779	1882.325
2275.36017	1905.325
2278.24061	1877.925
2281.11922	1856.625
2283.996	1869.725
2286.87094	1839.925
2289.74405	1830.125
2292.61534	1834.925
2295.4848	1807.125
2298.35243	1802.025
2301.21824	1799.925
2304.08223	1775.925
2306.94439	1797.425
2309.80474	1794.325
2312.66327	1791.225
2315.51999	1782.725
2318.37489	1770.525
2321.22797	1748.825
2324.07925	1755.225
2326.92871	1760.725
2329.77637	1743.925
2332.62222	1748.725
2335.46626	1725.125
2338.3085	1733.525
2341.14893	1746.025
2343.98756	1758.025
2346.8244	1751.225
2349.65943	1745.025
2352.49267	1750.825
2355.32411	1764.025
2358.15376	1777.825
2360.98161	1786.425
2363.80768	1784.525
2366.63195	1803.325
2369.45444	1820.725
2372.27514	1817.525
2375.09405	1839.125
2377.91118	1795.925
2380.72652	1792.925
2383.54009	1788.825
2386.35187	1779.625
2389.16188	1745.825
2391.97011	1741.125
2394.77657	1730.925
2397.58125	1716.725
2400.38416	1710.025
2403.18529	1691.325
2405.98466	1682.825
2408.78226	1683.725
2411.57809	1667.125
2414.37216	1663.125
2417.16446	1674.925
2419.955	1647.625
2422.74378	1665.525
2425.5308	1653.625
2428.31606	1671.525
2431.09956	1670.925
2433.88131	1656.725
2436.6613	1682.325
2439.43954	1679.225
2442.21603	1668.625
2444.99077	1677.725
2447.76377	1690.725
2450.53501	1686.925
2453.30451	1691.125
2456.07226	1702.925
2458.83827	1691.525
2461.60254	1647.725
2464.36507	1676.525
2467.12586	1661.225
2469.88492	1684.225
2472.64224	1676.825
2475.39782	1675.125
2478.15167	1692.125
2480.90379	1698.825
2483.65417	1736.825
2486.40283	1743.625
2489.14976	1746.325
2491.89497	1743.125
2494.63845	1749.325
2497.3802	1740.225
2500.12024	1725.325
2502.85855	1705.125
2505.59514	1695.325
2508.33002	1684.425
2511.06318	1636.225
2513.79462	1631.625
2516.52435	1576.925
2519.25237	1552.325
2521.97867	1550.625
2524.70327	1542.525
2527.42616	1543.725
2530.14734	1539.625
2532.86681	1523.125
2535.58458	1533.625
2538.30065	1518.825
2541.01501	1548.825
2543.72768	1536.325
2546.43864	1545.225
2549.14791	1537.625
2551.85548	1528.125
2554.56136	1545.825
2557.26554	1544.725
2559.96803	1538.325
2562.66883	1551.525
2565.36794	1541.825
2568.06536	1515.925
2570.7611	1545.425
2573.45514	1534.625
2576.14751	1527.725
2578.83819	1515.925
2581.52719	1500.525
2584.21451	1502.425
2586.90015	1487.725
2589.58411	1472.225
2592.2664	1487.325
2594.94701	1485.925
2597.62594	1477.425
2600.30321	1428.525
2602.9788	1459.525
2605.65273	1449.425
2608.32498	1464.825
2610.99557	1478.825
2613.66449	1455.125
2616.33175	1481.425
2618.99734	1475.625
2621.66128	1480.725
2624.32355	1467.425
2626.98416	1436.225
2629.64311	1439.825
2632.30041	1420.125
2634.95605	1411.125
2637.61004	1388.725
2640.26238	1371.925
2642.91306	1374.525
2645.56209	1388.725
2648.20948	1388.825
2650.85521	1376.725
2653.4993	1391.925
2656.14175	1386.625
2658.78255	1384.825
2661.42171	1359.325
2664.05923	1404.125
2666.6951	1405.325
2669.32934	1424.625
2671.96194	1430.325
2674.59291	1414.125
2677.22224	1425.225
2679.84993	1415.425
2682.476	1407.525
2685.10043	1408.125
2687.72324	1388.225
2690.34441	1387.025
2692.96396	1381.325
2695.58188	1400.125
2698.19818	1390.625
2700.81285	1370.825
2703.4259	1367.225
2706.03733	1342.525
2708.64714	1350.525
2711.25533	1377.725
2713.86191	1391.525
2716.46687	1375.925
2719.07021	1384.225
2721.67194	1381.925
2724.27206	1389.725
2726.87057	1366.025
2729.46747	1360.825
2732.06276	1356.325
2734.65644	1340.725
2737.24852	1343.825
2739.83899	1319.225
2742.42786	1337.925
2745.01513	1325.725
2747.60079	1309.525
2750.18486	1300.525
2752.76733	1303.625
2755.3482	1293.025
2757.92747	1286.325
2760.50515	1267.925
2763.08123	1265.925
2765.65573	1270.425
2768.22863	1256.725
2770.79994	1251.825
2773.36967	1249.025
2775.9378	1244.925
2778.50435	1252.325
2781.06932	1243.425
2783.6327	1234.925
2786.1945	1263.025
2788.75471	1254.425
2791.31335	1252.525
2793.87041	1256.625
2796.42589	1243.025
2798.97979	1246.825
2801.53212	1256.125
2804.08288	1277.225
2806.63206	1269.425
2809.17967	1256.225
2811.72571	1292.425
2814.27018	1294.625
2816.81308	1295.125
2819.35442	1265.925
2821.89419	1305.225
2824.43239	1313.525
2826.96904	1331.225
2829.50412	1306.325
2832.03763	1314.725
2834.56959	1303.425
2837.1	1285.725
2839.62884	1282.425
2842.15613	1286.225
2844.68186	1282.125
2847.20604	1260.025
2849.72867	1260.525
2852.24974	1282.225
2854.76927	1260.625
2857.28724	1233.725
2859.80367	1307.725
2862.31855	1325.925
2864.83189	1320.725
2867.34368	1342.525
2869.85393	1352.425
2872.36264	1341.625
2874.8698	1343.825
2877.37543	1344.725
2879.87952	1330.825
2882.38207	1303.625
2884.88308	1304.425
2887.38256	1295.425
2889.88051	1288.325
2892.37692	1281.425
2894.8718	1253.625
2897.36515	1270.325
2899.85698	1275.125
2902.34727	1264.425
2904.83604	1278.625
2907.32328	1306.125
2909.809	1315.525
2912.29319	1328.925
2914.77587	1340.025
2917.25702	1345.525
2919.73665	1338.925
2922.21476	1336.325
2924.69136	1313.925
2927.16644	1288.725
2929.64	1279.125
2932.11205	1254.125
2934.58258	1263.725
2937.05161	1229.425
2939.51912	1246.325
2941.98513	1254.125
2944.44962	1239.325
2946.91261	1219.525
2949.37409	1228.725
2951.83407	1224.725
2954.29254	1235.725
2956.74951	1241.025
2959.20498	1236.025
2961.65895	1229.625
2964.11142	1221.525
2966.56239	1215.725
2969.01186	1214.325
2971.45984	1213.625
2973.90632	1212.025
2976.35131	1226.025
2978.7948	1219.125
2981.23681	1212.725
2983.67732	1220.425
2986.11635	1220.425
2988.55388	1194.525
2990.98993	1213.325
2993.4245	1203.325
2995.85758	1200.725
2998.28917	1204.125
3000.71928	1195.025
3003.14791	1199.125
3005.57506	1192.325
3008.00073	1188.525
3010.42493	1127.125
3012.84764	1177.125
3015.26888	1186.025
3017.68865	1175.625
3020.10694	1128.225
3022.52376	1147.625
3024.9391	1155.125
3027.35298	1130.125
3029.76539	1115.525
3032.17632	1103.025
3034.5858	1092.225
3036.9938	1097.825
3039.40034	1079.125
3041.80542	1067.025
3044.20903	1048.725
3046.61118	1035.125
3049.01187	1057.725
3051.4111	1043.525
3053.80888	1035.025
3056.20519	1030.425
3058.60005	1019.125
3060.99345	1048.325
3063.3854	1020.025
3065.7759	1010.025
3068.16494	1004.125
3070.55254	994.625
3072.93868	1016.625
3075.32338	1002.325
3077.70662	993.025
3080.08842	992.225
3082.46878	973.325
3084.84769	994.925
3087.22515	976.925
3089.60118	981.225
3091.97576	971.425
3094.3489	988.425
3096.72061	971.325
3099.09087	955.225
3101.4597	972.525
3103.82709	966.025
3106.19305	951.925
3108.55757	962.025
3110.92066	949.125
3113.28232	965.425
3115.64255	964.325
3118.00134	971.625
3120.35871	955.625
3122.71466	941.725
3125.06917	945.425
3127.42226	941.725
3129.77393	928.025
3132.12417	944.825
3134.47299	951.925
3136.82039	937.425
3139.16636	916.925
3141.51092	947.125
3143.85406	943.125
3146.19579	927.625
3148.53609	935.525
3150.87499	938.425
3153.21246	935.025
3155.54853	942.025
3157.88318	941.725
3160.21642	940.225
3162.54826	944.725
3164.87868	948.725
3167.2077	904.925
3169.5353	923.925
3171.86151	928.225
3174.18631	908.225
3176.5097	907.325
3178.83169	896.725
3181.15228	905.525
3183.47147	887.525
3185.78926	876.025
3188.10565	887.225
3190.42065	864.525
3192.73424	875.325
3195.04645	866.225
3197.35725	855.825
3199.66667	866.325
3201.97469	863.625
3204.28132	857.725
3206.58656	874.925
3208.8904	883.325
3211.19287	876.425
3213.49394	870.525
3215.79363	866.725
3218.09193	884.325
3220.38884	876.125
3222.68438	867.525
3224.97853	852.725
3227.2713	874.125
3229.56269	861.325
3231.8527	857.925
3234.14133	843.425
3236.42858	846.925
3238.71446	825.425
