Data from AgNPs_UA_20uM_CRN_500uM_SU_RamanShift__50__13-44-50-300.txt Node

Date: Thu Aug 04 13:44:50 BST 2022
User: TCL
Spectrometer: QEP01345
Trigger mode: 4
Integration Time (sec): 1.000000E0
Scans to average: 10
Electric dark correction enabled: true
Nonlinearity correction enabled: false
Boxcar width: 0
XAxis mode: Raman Shifts
Number of Pixels in Spectrum: 1044
>>>>>Begin Spectral Data<<<<<
46.04893	-0.7375
50.45542	-0.6375
54.85868	1.2625
59.25871	-0.1375
63.6555	18.7625
68.04907	15.1625
72.43941	19.1625
76.82654	18.0625
81.21044	19.4625
85.59113	20.1625
89.96862	19.1625
94.34289	20.8625
98.71396	21.2625
103.08183	23.7625
107.4465	22.8625
111.80798	25.9625
116.16626	28.5625
120.52136	28.4625
124.87327	29.5625
129.222	31.0625
133.56755	30.2625
137.90993	32.4625
142.24913	37.6625
146.58517	43.2625
150.91804	50.6625
155.24774	62.6625
159.57429	76.3625
163.89768	100.7625
168.21792	134.2625
172.53501	185.0625
176.84895	258.7625
181.15975	368.4625
185.46741	516.3625
189.77193	712.4625
194.07331	959.6625
198.37157	1243.9625
202.6667	1527.8625
206.9587	1826.0625
211.24758	2111.4625
215.53334	2407.8625
219.81599	2719.6625
224.09553	3068.3625
228.37195	3431.7625
232.64527	3851.3625
236.91549	4278.9625
241.18261	4653.8625
245.44663	4998.9625
249.70755	5267.8625
253.96539	5498.6625
258.22014	5725.6625
262.4718	5902.3625
266.72039	6033.8625
270.96589	6079.5625
275.20832	6062.8625
279.44768	5995.7625
283.68397	5879.2625
287.91719	5807.6625
292.14735	5806.6625
296.37445	5880.9625
300.59849	5989.3625
304.81948	6187.5625
309.03742	6331.6625
313.25231	6388.6625
317.46415	6314.0625
321.67296	6132.2625
325.87872	5935.2625
330.08145	5841.4625
334.28114	5850.7625
338.47781	5943.2625
342.67145	6042.2625
346.86207	6200.4625
351.04966	6411.5625
355.23424	6641.0625
359.4158	6837.9625
363.59435	6915.7625
367.76989	7005.8625
371.94243	7019.0625
376.11196	7041.8625
380.27849	7067.5625
384.44203	7081.9625
388.60257	7109.0625
392.76012	7175.7625
396.91468	7262.0625
401.06626	7377.7625
405.21485	7426.7625
409.36047	7319.9625
413.50311	7144.7625
417.64277	6969.5625
421.77947	6842.4625
425.9132	6787.9625
430.04396	6817.2625
434.17176	6859.3625
438.2966	6979.7625
442.41849	7140.7625
446.53742	7315.9625
450.6534	7519.7625
454.76644	7640.6625
458.87653	7656.7625
462.98368	7645.0625
467.08789	7543.9625
471.18916	7391.0625
475.2875	7200.7625
479.38291	7066.9625
483.4754	6984.3625
487.56496	6918.4625
491.6516	6860.5625
495.73531	6849.5625
499.81612	6872.3625
503.89401	6900.4625
507.96899	6960.5625
512.04106	7005.5625
516.11023	7051.0625
520.1765	7095.8625
524.23987	7116.0625
528.30034	7081.3625
532.35792	7062.3625
536.41261	7009.1625
540.46441	6894.4625
544.51333	6881.2625
548.55936	6955.2625
552.60252	7026.1625
556.64279	7129.1625
560.6802	7223.8625
564.71473	7263.0625
568.7464	7326.0625
572.7752	7317.8625
576.80114	7197.0625
580.82422	7091.2625
584.84444	7094.2625
588.86181	7166.1625
592.87633	7312.4625
596.888	7467.9625
600.89682	7760.7625
604.9028	8539.4625
608.90594	10123.7625
612.90624	11609.6625
616.90371	10696.9625
620.89834	8556.9625
624.89015	7753.4625
628.87913	7701.7625
632.86528	7705.8625
636.84862	7641.3625
640.82913	7450.3625
644.80683	7183.5625
648.78172	7040.0625
652.75379	7078.7625
656.72306	7295.7625
660.68952	7519.4625
664.65319	7506.6625
668.61405	7383.0625
672.57211	7411.3625
676.52738	7357.8625
680.47986	7266.3625
684.42955	7138.5625
688.37646	7145.0625
692.32058	7197.1625
696.26192	7335.9625
700.20048	7463.0625
704.13626	7465.2625
708.06928	7384.7625
711.99952	7300.1625
715.927	7309.1625
719.85171	7328.1625
723.77365	7347.3625
727.69284	7276.1625
731.60928	7229.0625
735.52295	7221.7625
739.43388	7255.5625
743.34206	7307.8625
747.24749	7331.7625
751.15017	7336.3625
755.05012	7424.3625
758.94733	7669.3625
762.8418	8237.0625
766.73354	9048.8625
770.62254	9759.1625
774.50882	9980.4625
778.39237	9614.1625
782.27321	8903.5625
786.15132	8195.4625
790.02671	7743.0625
793.89938	7502.2625
797.76935	7408.2625
801.6366	7361.0625
805.50115	7339.1625
809.36299	7298.1625
813.22213	7260.0625
817.07857	7263.7625
820.93231	7275.6625
824.78336	7280.3625
828.63172	7285.0625
832.47738	7320.9625
836.32036	7338.6625
840.16066	7321.6625
843.99827	7358.8625
847.8332	7342.9625
851.66546	7330.2625
855.49504	7320.8625
859.32195	7335.4625
863.1462	7312.7625
866.96777	7319.7625
870.78668	7266.0625
874.60293	7301.0625
878.41652	7335.7625
882.22745	7362.1625
886.03573	7410.2625
889.84136	7408.7625
893.64433	7380.7625
897.44466	7373.1625
901.24235	7339.0625
905.0374	7325.9625
908.8298	7287.5625
912.61957	7278.8625
916.40671	7307.4625
920.19121	7349.7625
923.97308	7446.3625
927.75233	7524.8625
931.52895	7588.1625
935.30295	7526.3625
939.07433	7387.4625
942.84309	7300.3625
946.60924	7266.4625
950.37278	7262.5625
954.13371	7219.4625
957.89203	7200.1625
961.64774	7166.0625
965.40086	7169.5625
969.15137	7142.7625
972.89929	7137.1625
976.64461	7142.1625
980.38733	7175.1625
984.12747	7178.9625
987.86502	7235.2625
991.59999	7311.9625
995.33237	7458.0625
999.06217	7646.4625
1002.78939	7840.6625
1006.51404	7956.8625
1010.23611	8004.4625
1013.95561	8094.6625
1017.67255	8141.9625
1021.38692	8158.5625
1025.09872	8146.5625
1028.80796	8239.6625
1032.51465	8381.8625
1036.21877	8513.5625
1039.92035	8486.1625
1043.61937	8379.8625
1047.31584	8211.2625
1051.00976	8046.4625
1054.70114	7982.5625
1058.38998	7995.2625
1062.07627	7976.8625
1065.76003	8024.4625
1069.44126	8066.0625
1073.11995	8206.8625
1076.79611	8294.5625
1080.46974	8382.8625
1084.14085	8466.7625
1087.80943	8541.6625
1091.47549	8572.5625
1095.13903	8463.3625
1098.80005	8380.9625
1102.45857	8349.9625
1106.11456	8340.4625
1109.76805	8311.0625
1113.41903	8364.2625
1117.06751	8466.0625
1120.71348	8597.3625
1124.35696	8757.9625
1127.99793	8831.0625
1131.63641	8725.3625
1135.2724	8513.4625
1138.90589	8323.2625
1142.5369	8187.5625
1146.16542	8086.8625
1149.79145	8046.1625
1153.415	8016.8625
1157.03607	8040.8625
1160.65467	8119.4625
1164.27079	8293.2625
1167.88443	8556.8625
1171.49561	9001.1625
1175.10432	9606.9625
1178.71056	10436.1625
1182.31434	11187.8625
1185.91565	11549.0625
1189.51451	11495.4625
1193.11091	11163.4625
1196.70485	10721.8625
1200.29634	10289.2625
1203.88538	9908.1625
1207.47197	9549.6625
1211.05612	9181.7625
1214.63782	8944.5625
1218.21708	8832.3625
1221.79391	8844.5625
1225.36829	8888.0625
1228.94024	8852.3625
1232.50976	8811.9625
1236.07685	8764.7625
1239.6415	8775.6625
1243.20374	8824.9625
1246.76355	8873.1625
1250.32093	8976.2625
1253.8759	9153.2625
1257.42845	9390.3625
1260.97859	9658.1625
1264.52631	9887.7625
1268.07163	10076.5625
1271.61453	10218.1625
1275.15503	10349.7625
1278.69312	10488.1625
1282.22882	10618.1625
1285.76211	10760.3625
1289.29301	10868.5625
1292.82151	11081.9625
1296.34761	11318.2625
1299.87133	11739.0625
1303.39266	12393.4625
1306.9116	13338.4625
1310.42815	14320.1625
1313.94233	14698.9625
1317.45412	14320.2625
1320.96354	13563.1625
1324.47058	12820.6625
1327.97525	12192.6625
1331.47754	11876.7625
1334.97747	11876.8625
1338.47502	12082.0625
1341.97022	12445.8625
1345.46305	12945.4625
1348.95352	13534.8625
1352.44163	14242.5625
1355.92738	15055.1625
1359.41078	16130.6625
1362.89183	16778.1625
1366.37053	15972.6625
1369.84688	14008.4625
1373.32088	12203.8625
1376.79254	11165.0625
1380.26186	10671.7625
1383.72883	10382.7625
1387.19347	10118.6625
1390.65578	9837.9625
1394.11575	9566.2625
1397.57339	9435.7625
1401.0287	9437.5625
1404.48168	9439.7625
1407.93234	9558.5625
1411.38068	9729.4625
1414.82669	9903.0625
1418.27039	9870.2625
1421.71177	9788.6625
1425.15083	9698.1625
1428.58758	9702.3625
1432.02203	9825.7625
1435.45416	9925.2625
1438.88399	9955.2625
1442.31151	9893.7625
1445.73673	9827.5625
1449.15965	9788.6625
1452.58027	9701.1625
1455.9986	9597.2625
1459.41463	9576.8625
1462.82837	9663.2625
1466.23982	9803.1625
1469.64898	9999.4625
1473.05586	10158.1625
1476.46045	10252.0625
1479.86276	10404.2625
1483.26279	10508.4625
1486.66054	10651.0625
1490.05602	10906.3625
1493.44922	11295.1625
1496.84016	11851.2625
1500.22882	12631.3625
1503.61521	13591.6625
1506.99934	14480.0625
1510.38121	14991.3625
1513.76081	14750.4625
1517.13816	13773.1625
1520.51324	12609.7625
1523.88607	11634.2625
1527.25665	11110.0625
1530.62498	10812.7625
1533.99105	10632.0625
1537.35488	10553.0625
1540.71647	10483.8625
1544.07581	10405.9625
1547.4329	10272.6625
1550.78776	10168.6625
1554.14038	10080.8625
1557.49077	10036.3625
1560.83892	10063.7625
1564.18484	10211.4625
1567.52853	10359.7625
1570.86999	10473.3625
1574.20922	10496.4625
1577.54624	10325.7625
1580.88103	10019.4625
1584.2136	9641.6625
1587.54395	9575.3625
1590.87208	9801.0625
1594.19801	10388.9625
1597.52172	11084.2625
1600.84321	11425.2625
1604.16251	11308.2625
1607.47959	10842.8625
1610.79447	10233.2625
1614.10715	9595.1625
1617.41763	9034.9625
1620.7259	8674.9625
1624.03199	8488.1625
1627.33587	8491.3625
1630.63757	8691.5625
1633.93707	9074.1625
1637.23439	9710.0625
1640.52951	10532.6625
1643.82246	11502.3625
1647.11321	12260.4625
1650.40179	12351.4625
1653.68819	11529.8625
1656.97241	10251.4625
1660.25446	9055.9625
1663.53433	8257.6625
1666.81203	7804.4625
1670.08756	7530.3625
1673.36092	7362.5625
1676.63211	7230.5625
1679.90115	7143.4625
1683.16801	7089.3625
1686.43272	7024.0625
1689.69527	6992.1625
1692.95567	6955.9625
1696.2139	6952.3625
1699.46999	6932.7625
1702.72392	6919.0625
1705.97571	6946.9625
1709.22535	6906.5625
1712.47284	6921.9625
1715.71819	6921.4625
1718.96139	6879.1625
1722.20246	6865.2625
1725.44139	6848.3625
1728.67818	6807.4625
1731.91284	6776.5625
1735.14537	6757.1625
1738.37576	6722.8625
1741.60403	6702.9625
1744.83017	6724.1625
1748.05418	6687.9625
1751.27607	6680.2625
1754.49584	6664.6625
1757.71349	6639.6625
1760.92903	6621.6625
1764.14244	6634.3625
1767.35375	6606.3625
1770.56294	6600.4625
1773.77002	6599.0625
1776.97499	6582.4625
1780.17785	6573.5625
1783.37861	6559.5625
1786.57727	6523.2625
1789.77382	6539.9625
1792.96828	6519.2625
1796.16064	6521.8625
1799.3509	6508.4625
1802.53907	6509.8625
1805.72514	6498.5625
1808.90913	6475.5625
1812.09102	6454.2625
1815.27083	6428.4625
1818.44856	6417.8625
1821.6242	6424.2625
1824.79776	6407.2625
1827.96924	6395.3625
1831.13864	6391.1625
1834.30597	6381.0625
1837.47122	6367.3625
1840.6344	6359.3625
1843.7955	6354.2625
1846.95454	6356.4625
1850.11151	6353.1625
1853.26642	6330.2625
1856.41926	6332.1625
1859.57004	6343.7625
1862.71876	6334.7625
1865.86542	6322.4625
1869.01003	6311.7625
1872.15258	6300.1625
1875.29308	6317.8625
1878.43152	6315.2625
1881.56792	6284.2625
1884.70227	6280.5625
1887.83457	6287.8625
1890.96482	6275.9625
1894.09304	6265.4625
1897.21921	6260.6625
1900.34335	6248.8625
1903.46544	6224.1625
1906.58551	6246.2625
1909.70353	6236.0625
1912.81953	6243.8625
1915.93349	6222.6625
1919.04543	6219.5625
1922.15534	6216.7625
1925.26322	6197.1625
1928.36908	6195.7625
1931.47292	6173.5625
1934.57473	6160.3625
1937.67453	6153.9625
1940.77232	6144.4625
1943.86808	6128.0625
1946.96184	6097.5625
1950.05358	6097.0625
1953.14331	6052.7625
1956.23103	6030.5625
1959.31675	6011.6625
1962.40046	5991.9625
1965.48217	5970.9625
1968.56188	5976.6625
1971.63959	5962.7625
1974.7153	5950.5625
1977.78901	5934.0625
1980.86073	5920.9625
1983.93046	5887.0625
1986.99819	5875.7625
1990.06394	5841.1625
1993.1277	5822.1625
1996.18947	5811.0625
1999.24925	5801.3625
2002.30706	5773.7625
2005.36288	5745.5625
2008.41672	5738.8625
2011.46859	5712.4625
2014.51848	5706.1625
2017.56639	5682.9625
2020.61233	5658.4625
2023.6563	5660.4625
2026.6983	5667.5625
2029.73833	5638.7625
2032.7764	5619.9625
2035.8125	5619.1625
2038.84664	5594.4625
2041.87881	5589.0625
2044.90903	5595.1625
2047.93729	5570.1625
2050.96359	5576.0625
2053.98794	5563.5625
2057.01034	5558.5625
2060.03078	5531.8625
2063.04927	5542.7625
2066.06582	5533.8625
2069.08042	5519.0625
2072.09307	5519.8625
2075.10378	5523.1625
2078.11255	5523.8625
2081.11938	5511.1625
2084.12426	5498.7625
2087.12722	5493.8625
2090.12824	5486.3625
2093.12732	5491.2625
2096.12447	5496.9625
2099.11969	5492.1625
2102.11299	5490.7625
2105.10435	5488.3625
2108.09379	5493.1625
2111.08131	5484.7625
2114.0669	5485.3625
2117.05057	5504.6625
2120.03233	5481.1625
2123.01216	5489.4625
2125.99008	5505.4625
2128.96609	5503.2625
2131.94018	5537.0625
2134.91236	5514.2625
2137.88263	5531.7625
2140.851	5517.1625
2143.81746	5521.8625
2146.78201	5506.4625
2149.74466	5507.9625
2152.7054	5511.4625
2155.66425	5501.3625
2158.6212	5515.4625
2161.57625	5506.8625
2164.52941	5502.6625
2167.48067	5500.8625
2170.43004	5488.3625
2173.37752	5488.5625
2176.32311	5495.2625
2179.26681	5485.7625
2182.20863	5488.4625
2185.14856	5487.2625
2188.08661	5491.4625
2191.02278	5490.3625
2193.95707	5487.1625
2196.88948	5481.1625
2199.82001	5476.8625
2202.74867	5479.3625
2205.67545	5483.9625
2208.60037	5493.7625
2211.52341	5444.2625
2214.44458	5466.3625
2217.36388	5455.6625
2220.28132	5428.4625
2223.1969	5411.8625
2226.11061	5409.5625
2229.02246	5382.4625
2231.93245	5404.0625
2234.84058	5371.0625
2237.74686	5359.9625
2240.65128	5349.7625
2243.55385	5358.2625
2246.45456	5352.4625
2249.35343	5326.1625
2252.25044	5333.2625
2255.14561	5326.7625
2258.03893	5340.4625
2260.93041	5323.6625
2263.82004	5291.2625
2266.70783	5289.7625
2269.59378	5272.5625
2272.4779	5262.4625
2275.36017	5241.9625
2278.24061	5237.0625
2281.11922	5223.0625
2283.996	5201.6625
2286.87094	5194.7625
2289.74405	5176.7625
2292.61534	5177.5625
2295.4848	5188.8625
2298.35243	5186.5625
2301.21824	5176.4625
2304.08223	5166.1625
2306.94439	5167.5625
2309.80474	5187.7625
2312.66327	5175.9625
2315.51999	5171.4625
2318.37489	5168.8625
2321.22797	5161.3625
2324.07925	5151.3625
2326.92871	5148.9625
2329.77637	5145.1625
2332.62222	5132.5625
2335.46626	5134.1625
2338.3085	5129.6625
2341.14893	5122.5625
2343.98756	5122.1625
2346.8244	5122.8625
2349.65943	5131.9625
2352.49267	5131.9625
2355.32411	5123.5625
2358.15376	5130.5625
2360.98161	5130.3625
2363.80768	5099.7625
2366.63195	5098.9625
2369.45444	5093.5625
2372.27514	5073.2625
2375.09405	5083.9625
2377.91118	5063.3625
2380.72652	5060.5625
2383.54009	5042.3625
2386.35187	5039.5625
2389.16188	5016.0625
2391.97011	5002.4625
2394.77657	5001.8625
2397.58125	4989.0625
2400.38416	4977.3625
2403.18529	4971.0625
2405.98466	4984.4625
2408.78226	4955.2625
2411.57809	4949.9625
2414.37216	4919.2625
2417.16446	4920.6625
2419.955	4909.9625
2422.74378	4918.8625
2425.5308	4899.2625
2428.31606	4893.9625
2431.09956	4890.6625
2433.88131	4867.6625
2436.6613	4888.2625
2439.43954	4884.9625
2442.21603	4894.1625
2444.99077	4891.4625
2447.76377	4874.5625
2450.53501	4857.9625
2453.30451	4850.0625
2456.07226	4845.3625
2458.83827	4855.1625
2461.60254	4848.9625
2464.36507	4851.1625
2467.12586	4829.1625
2469.88492	4835.4625
2472.64224	4835.3625
2475.39782	4842.8625
2478.15167	4825.0625
2480.90379	4824.7625
2483.65417	4823.5625
2486.40283	4836.4625
2489.14976	4829.5625
2491.89497	4852.3625
2494.63845	4838.0625
2497.3802	4832.6625
2500.12024	4830.4625
2502.85855	4804.7625
2505.59514	4794.2625
2508.33002	4805.8625
2511.06318	4784.7625
2513.79462	4764.2625
2516.52435	4770.5625
2519.25237	4770.6625
2521.97867	4759.0625
2524.70327	4760.6625
2527.42616	4755.4625
2530.14734	4753.7625
2532.86681	4744.2625
2535.58458	4745.1625
2538.30065	4729.3625
2541.01501	4732.5625
2543.72768	4722.3625
2546.43864	4738.0625
2549.14791	4717.5625
2551.85548	4713.3625
2554.56136	4732.7625
2557.26554	4700.6625
2559.96803	4699.5625
2562.66883	4695.3625
2565.36794	4679.3625
2568.06536	4676.0625
2570.7611	4657.5625
2573.45514	4640.3625
2576.14751	4656.5625
2578.83819	4636.0625
2581.52719	4625.4625
2584.21451	4616.1625
2586.90015	4620.5625
2589.58411	4595.0625
2592.2664	4601.8625
2594.94701	4608.5625
2597.62594	4590.7625
2600.30321	4597.9625
2602.9788	4583.4625
2605.65273	4595.3625
2608.32498	4580.9625
2610.99557	4568.3625
2613.66449	4576.9625
2616.33175	4578.5625
2618.99734	4586.8625
2621.66128	4561.1625
2624.32355	4578.4625
2626.98416	4578.8625
2629.64311	4574.3625
2632.30041	4559.8625
2634.95605	4568.4625
2637.61004	4546.9625
2640.26238	4542.1625
2642.91306	4519.1625
2645.56209	4514.3625
2648.20948	4512.8625
2650.85521	4510.2625
2653.4993	4507.5625
2656.14175	4503.2625
2658.78255	4503.1625
2661.42171	4514.9625
2664.05923	4530.5625
2666.6951	4521.3625
2669.32934	4527.9625
2671.96194	4518.1625
2674.59291	4512.1625
2677.22224	4508.7625
2679.84993	4516.4625
2682.476	4522.6625
2685.10043	4509.9625
2687.72324	4489.7625
2690.34441	4489.0625
2692.96396	4498.7625
2695.58188	4485.2625
2698.19818	4467.0625
2700.81285	4494.3625
2703.4259	4483.0625
2706.03733	4491.2625
2708.64714	4469.4625
2711.25533	4465.9625
2713.86191	4470.3625
2716.46687	4475.5625
2719.07021	4466.5625
2721.67194	4469.7625
2724.27206	4483.4625
2726.87057	4476.0625
2729.46747	4486.8625
2732.06276	4471.5625
2734.65644	4463.8625
2737.24852	4463.6625
2739.83899	4463.9625
2742.42786	4465.4625
2745.01513	4455.7625
2747.60079	4447.9625
2750.18486	4423.7625
2752.76733	4433.3625
2755.3482	4428.4625
2757.92747	4419.9625
2760.50515	4402.1625
2763.08123	4408.6625
2765.65573	4404.3625
2768.22863	4389.2625
2770.79994	4391.0625
2773.36967	4399.8625
2775.9378	4397.2625
2778.50435	4404.5625
2781.06932	4388.4625
2783.6327	4391.1625
2786.1945	4378.5625
2788.75471	4358.5625
2791.31335	4355.8625
2793.87041	4342.8625
2796.42589	4342.0625
2798.97979	4328.9625
2801.53212	4330.2625
2804.08288	4328.5625
2806.63206	4299.5625
2809.17967	4316.2625
2811.72571	4309.6625
2814.27018	4299.9625
2816.81308	4286.6625
2819.35442	4269.8625
2821.89419	4260.6625
2824.43239	4238.5625
2826.96904	4255.8625
2829.50412	4253.5625
2832.03763	4235.6625
2834.56959	4244.3625
2837.1	4222.8625
2839.62884	4223.3625
2842.15613	4230.0625
2844.68186	4215.1625
2847.20604	4202.7625
2849.72867	4213.8625
2852.24974	4196.4625
2854.76927	4180.4625
2857.28724	4169.8625
2859.80367	4168.4625
2862.31855	4161.6625
2864.83189	4167.4625
2867.34368	4155.3625
2869.85393	4160.3625
2872.36264	4165.1625
2874.8698	4145.7625
2877.37543	4130.2625
2879.87952	4118.6625
2882.38207	4141.3625
2884.88308	4135.7625
2887.38256	4126.5625
2889.88051	4116.9625
2892.37692	4120.1625
2894.8718	4118.5625
2897.36515	4133.0625
2899.85698	4132.4625
2902.34727	4117.8625
2904.83604	4121.7625
2907.32328	4128.9625
2909.809	4131.0625
2912.29319	4129.1625
2914.77587	4121.8625
2917.25702	4128.8625
2919.73665	4122.3625
2922.21476	4137.7625
2924.69136	4135.4625
2927.16644	4123.3625
2929.64	4107.0625
2932.11205	4093.9625
2934.58258	4078.0625
2937.05161	4078.0625
2939.51912	4070.9625
2941.98513	4076.3625
2944.44962	4086.2625
2946.91261	4054.0625
2949.37409	4085.6625
2951.83407	4069.7625
2954.29254	4068.8625
2956.74951	4062.8625
2959.20498	4058.9625
2961.65895	4036.8625
2964.11142	4030.7625
2966.56239	4033.5625
2969.01186	4056.6625
2971.45984	4053.2625
2973.90632	4033.2625
2976.35131	4033.5625
2978.7948	4015.9625
2981.23681	4004.4625
2983.67732	4000.6625
2986.11635	3981.6625
2988.55388	3979.6625
2990.98993	3970.9625
2993.4245	3980.2625
2995.85758	3951.3625
2998.28917	3957.2625
3000.71928	3934.7625
3003.14791	3929.1625
3005.57506	3917.8625
3008.00073	3909.6625
3010.42493	3882.2625
3012.84764	3869.2625
3015.26888	3864.4625
3017.68865	3863.2625
3020.10694	3857.0625
3022.52376	3859.3625
3024.9391	3840.4625
3027.35298	3831.3625
3029.76539	3818.6625
3032.17632	3805.1625
3034.5858	3810.9625
3036.9938	3818.7625
3039.40034	3801.2625
3041.80542	3790.2625
3044.20903	3781.8625
3046.61118	3778.3625
3049.01187	3763.3625
3051.4111	3759.5625
3053.80888	3767.0625
3056.20519	3740.6625
3058.60005	3740.3625
3060.99345	3719.9625
3063.3854	3715.5625
3065.7759	3705.4625
3068.16494	3707.7625
3070.55254	3691.8625
3072.93868	3678.2625
3075.32338	3664.4625
3077.70662	3652.4625
3080.08842	3640.5625
3082.46878	3628.2625
3084.84769	3611.8625
3087.22515	3620.3625
3089.60118	3624.9625
3091.97576	3630.9625
3094.3489	3625.6625
3096.72061	3606.6625
3099.09087	3599.1625
3101.4597	3604.2625
3103.82709	3592.2625
3106.19305	3585.9625
3108.55757	3593.9625
3110.92066	3584.9625
3113.28232	3583.2625
3115.64255	3562.5625
3118.00134	3551.8625
