Data from AgNPs_UA_20uM_CRN_500uM_SU_RamanShift__35__13-42-20-298.txt Node

Date: Thu Aug 04 13:42:20 BST 2022
User: TCL
Spectrometer: QEP01345
Trigger mode: 4
Integration Time (sec): 1.000000E0
Scans to average: 10
Electric dark correction enabled: true
Nonlinearity correction enabled: false
Boxcar width: 0
XAxis mode: Raman Shifts
Number of Pixels in Spectrum: 1044
>>>>>Begin Spectral Data<<<<<
46.04893	-1.4875
50.45542	-1.0875
54.85868	0.5125
59.25871	-0.2875
63.6555	15.0125
68.04907	15.9125
72.43941	21.1125
76.82654	17.9125
81.21044	17.7125
85.59113	20.1125
89.96862	20.6125
94.34289	21.8125
98.71396	21.8125
103.08183	22.0125
107.4465	22.9125
111.80798	23.1125
116.16626	26.4125
120.52136	26.8125
124.87327	25.4125
129.222	31.0125
133.56755	29.0125
137.90993	33.6125
142.24913	37.1125
146.58517	40.2125
150.91804	48.4125
155.24774	59.2125
159.57429	74.8125
163.89768	94.1125
168.21792	126.7125
172.53501	172.5125
176.84895	238.3125
181.15975	341.3125
185.46741	479.8125
189.77193	670.8125
194.07331	897.7125
198.37157	1161.1125
202.6667	1437.7125
206.9587	1716.0125
211.24758	1994.3125
215.53334	2273.7125
219.81599	2565.8125
224.09553	2911.1125
228.37195	3269.0125
232.64527	3672.0125
236.91549	4077.5125
241.18261	4441.1125
245.44663	4773.1125
249.70755	5050.6125
253.96539	5261.6125
258.22014	5449.7125
262.4718	5603.4125
266.72039	5713.8125
270.96589	5731.2125
275.20832	5732.5125
279.44768	5638.1125
283.68397	5549.9125
287.91719	5488.1125
292.14735	5474.7125
296.37445	5530.4125
300.59849	5656.7125
304.81948	5812.9125
309.03742	5977.1125
313.25231	6051.4125
317.46415	5985.6125
321.67296	5811.0125
325.87872	5634.0125
330.08145	5550.0125
334.28114	5542.6125
338.47781	5617.7125
342.67145	5731.8125
346.86207	5881.7125
351.04966	6066.2125
355.23424	6285.5125
359.4158	6419.2125
363.59435	6526.3125
367.76989	6525.5125
371.94243	6561.2125
376.11196	6545.2125
380.27849	6555.1125
384.44203	6562.8125
388.60257	6596.5125
392.76012	6642.9125
396.91468	6712.0125
401.06626	6814.5125
405.21485	6867.0125
409.36047	6789.6125
413.50311	6621.1125
417.64277	6480.0125
421.77947	6395.1125
425.9132	6348.1125
430.04396	6371.8125
434.17176	6405.8125
438.2966	6483.7125
442.41849	6565.8125
446.53742	6687.4125
450.6534	6810.6125
454.76644	6874.7125
458.87653	6884.2125
462.98368	6891.0125
467.08789	6890.5125
471.18916	6817.4125
475.2875	6703.1125
479.38291	6627.2125
483.4754	6570.6125
487.56496	6533.7125
491.6516	6522.2125
495.73531	6535.5125
499.81612	6531.0125
503.89401	6595.6125
507.96899	6651.3125
512.04106	6683.7125
516.11023	6743.3125
520.1765	6781.6125
524.23987	6799.2125
528.30034	6792.6125
532.35792	6777.5125
536.41261	6732.0125
540.46441	6700.8125
544.51333	6659.4125
548.55936	6710.3125
552.60252	6778.9125
556.64279	6868.7125
560.6802	6947.9125
564.71473	6989.6125
568.7464	7076.7125
572.7752	7049.4125
576.80114	6928.8125
580.82422	6833.3125
584.84444	6795.3125
588.86181	6800.7125
592.87633	6859.6125
596.888	6960.6125
600.89682	7213.6125
604.9028	7847.4125
608.90594	9092.8125
612.90624	10387.8125
616.90371	9744.0125
620.89834	7971.7125
624.89015	7201.3125
628.87913	7108.1125
632.86528	7258.6125
636.84862	7342.7125
640.82913	7275.9125
644.80683	7087.1125
648.78172	6959.6125
652.75379	6976.8125
656.72306	7130.3125
660.68952	7265.9125
664.65319	7239.8125
668.61405	7151.8125
672.57211	7168.4125
676.52738	7191.2125
680.47986	7117.0125
684.42955	7024.4125
688.37646	6960.2125
692.32058	7016.9125
696.26192	7115.5125
700.20048	7226.1125
704.13626	7270.0125
708.06928	7195.7125
711.99952	7167.5125
715.927	7188.3125
719.85171	7197.3125
723.77365	7197.7125
727.69284	7199.0125
731.60928	7140.4125
735.52295	7137.4125
739.43388	7162.3125
743.34206	7175.1125
747.24749	7192.3125
751.15017	7210.4125
755.05012	7262.7125
758.94733	7463.6125
762.8418	7944.1125
766.73354	8690.9125
770.62254	9276.8125
774.50882	9446.0125
778.39237	9160.5125
782.27321	8610.4125
786.15132	8024.8125
790.02671	7615.2125
793.89938	7393.3125
797.76935	7307.1125
801.6366	7265.4125
805.50115	7236.9125
809.36299	7208.4125
813.22213	7217.8125
817.07857	7220.9125
820.93231	7228.1125
824.78336	7235.2125
828.63172	7268.8125
832.47738	7255.7125
836.32036	7234.6125
840.16066	7231.6125
843.99827	7241.9125
847.8332	7258.8125
851.66546	7269.1125
855.49504	7268.9125
859.32195	7300.8125
863.1462	7289.1125
866.96777	7302.8125
870.78668	7324.3125
874.60293	7334.7125
878.41652	7366.3125
882.22745	7397.9125
886.03573	7458.8125
889.84136	7427.0125
893.64433	7423.7125
897.44466	7392.1125
901.24235	7385.4125
905.0374	7373.3125
908.8298	7357.3125
912.61957	7329.3125
916.40671	7339.9125
920.19121	7373.2125
923.97308	7399.1125
927.75233	7446.1125
931.52895	7489.9125
935.30295	7436.5125
939.07433	7379.0125
942.84309	7306.7125
946.60924	7275.0125
950.37278	7273.0125
954.13371	7277.7125
957.89203	7257.8125
961.64774	7257.2125
965.40086	7253.9125
969.15137	7259.1125
972.89929	7247.6125
976.64461	7249.9125
980.38733	7254.0125
984.12747	7282.3125
987.86502	7300.7125
991.59999	7337.7125
995.33237	7374.4125
999.06217	7422.8125
1002.78939	7496.5125
1006.51404	7595.0125
1010.23611	7704.2125
1013.95561	7736.9125
1017.67255	7772.0125
1021.38692	7731.3125
1025.09872	7667.9125
1028.80796	7598.1125
1032.51465	7580.5125
1036.21877	7605.3125
1039.92035	7612.3125
1043.61937	7634.1125
1047.31584	7670.1125
1051.00976	7690.2125
1054.70114	7678.5125
1058.38998	7704.5125
1062.07627	7743.4125
1065.76003	7805.5125
1069.44126	7882.4125
1073.11995	8007.4125
1076.79611	8125.7125
1080.46974	8206.9125
1084.14085	8290.2125
1087.80943	8351.7125
1091.47549	8433.9125
1095.13903	8421.3125
1098.80005	8392.1125
1102.45857	8363.0125
1106.11456	8292.0125
1109.76805	8231.2125
1113.41903	8218.1125
1117.06751	8276.1125
1120.71348	8396.8125
1124.35696	8537.0125
1127.99793	8663.3125
1131.63641	8547.0125
1135.2724	8343.1125
1138.90589	8214.8125
1142.5369	8117.7125
1146.16542	8078.8125
1149.79145	8058.7125
1153.415	7990.2125
1157.03607	7942.5125
1160.65467	7981.7125
1164.27079	8088.2125
1167.88443	8263.5125
1171.49561	8548.6125
1175.10432	8938.4125
1178.71056	9522.8125
1182.31434	10031.2125
1185.91565	10211.8125
1189.51451	10141.2125
1193.11091	10007.5125
1196.70485	9854.2125
1200.29634	9687.9125
1203.88538	9453.8125
1207.47197	9242.9125
1211.05612	8958.7125
1214.63782	8764.5125
1218.21708	8604.1125
1221.79391	8491.0125
1225.36829	8422.8125
1228.94024	8397.8125
1232.50976	8370.8125
1236.07685	8384.0125
1239.6415	8447.7125
1243.20374	8459.2125
1246.76355	8512.2125
1250.32093	8601.9125
1253.8759	8707.9125
1257.42845	8863.6125
1260.97859	9055.8125
1264.52631	9221.3125
1268.07163	9309.7125
1271.61453	9397.4125
1275.15503	9425.8125
1278.69312	9416.9125
1282.22882	9407.8125
1285.76211	9440.5125
1289.29301	9563.3125
1292.82151	9701.3125
1296.34761	9866.8125
1299.87133	10098.4125
1303.39266	10544.6125
1306.9116	11143.2125
1310.42815	11758.2125
1313.94233	11965.3125
1317.45412	11628.0125
1320.96354	11100.8125
1324.47058	10598.7125
1327.97525	10155.2125
1331.47754	9903.3125
1334.97747	9897.3125
1338.47502	9985.8125
1341.97022	10240.6125
1345.46305	10683.3125
1348.95352	11363.1125
1352.44163	12099.4125
1355.92738	12791.6125
1359.41078	13643.5125
1362.89183	14291.4125
1366.37053	13830.1125
1369.84688	12274.8125
1373.32088	10791.3125
1376.79254	9925.7125
1380.26186	9531.1125
1383.72883	9266.3125
1387.19347	9056.6125
1390.65578	8827.7125
1394.11575	8634.8125
1397.57339	8527.3125
1401.0287	8445.4125
1404.48168	8393.2125
1407.93234	8403.9125
1411.38068	8445.9125
1414.82669	8530.8125
1418.27039	8530.9125
1421.71177	8497.9125
1425.15083	8474.7125
1428.58758	8416.1125
1432.02203	8418.5125
1435.45416	8467.1125
1438.88399	8494.8125
1442.31151	8495.8125
1445.73673	8523.4125
1449.15965	8542.2125
1452.58027	8527.4125
1455.9986	8515.6125
1459.41463	8509.6125
1462.82837	8577.1125
1466.23982	8693.6125
1469.64898	8816.1125
1473.05586	8955.2125
1476.46045	9026.3125
1479.86276	9074.2125
1483.26279	9195.6125
1486.66054	9302.1125
1490.05602	9520.3125
1493.44922	9827.3125
1496.84016	10340.8125
1500.22882	11096.4125
1503.61521	12063.5125
1506.99934	12946.8125
1510.38121	13361.2125
1513.76081	13127.7125
1517.13816	12300.8125
1520.51324	11229.4125
1523.88607	10361.0125
1527.25665	9841.3125
1530.62498	9613.8125
1533.99105	9485.1125
1537.35488	9412.0125
1540.71647	9361.3125
1544.07581	9313.9125
1547.4329	9238.2125
1550.78776	9159.8125
1554.14038	9093.6125
1557.49077	9084.5125
1560.83892	9139.2125
1564.18484	9268.7125
1567.52853	9470.5125
1570.86999	9632.4125
1574.20922	9735.5125
1577.54624	9619.6125
1580.88103	9307.4125
1584.2136	8957.5125
1587.54395	8719.5125
1590.87208	8739.0125
1594.19801	8887.2125
1597.52172	9165.6125
1600.84321	9314.8125
1604.16251	9267.1125
1607.47959	9128.1125
1610.79447	8931.7125
1614.10715	8606.6125
1617.41763	8329.3125
1620.7259	8104.3125
1624.03199	7972.5125
1627.33587	7922.6125
1630.63757	7960.9125
1633.93707	8101.5125
1637.23439	8421.3125
1640.52951	8898.1125
1643.82246	9577.0125
1647.11321	10319.8125
1650.40179	10670.1125
1653.68819	10383.8125
1656.97241	9550.9125
1660.25446	8674.7125
1663.53433	8054.4125
1666.81203	7670.4125
1670.08756	7473.4125
1673.36092	7334.8125
1676.63211	7267.3125
1679.90115	7205.6125
1683.16801	7137.9125
1686.43272	7083.0125
1689.69527	7054.4125
1692.95567	7037.9125
1696.2139	7020.2125
1699.46999	6985.5125
1702.72392	6976.9125
1705.97571	6980.5125
1709.22535	6986.3125
1712.47284	6972.1125
1715.71819	6960.7125
1718.96139	6945.2125
1722.20246	6961.8125
1725.44139	6913.9125
1728.67818	6894.0125
1731.91284	6876.6125
1735.14537	6852.8125
1738.37576	6845.6125
1741.60403	6806.4125
1744.83017	6812.5125
1748.05418	6785.5125
1751.27607	6766.8125
1754.49584	6755.5125
1757.71349	6733.4125
1760.92903	6730.1125
1764.14244	6728.8125
1767.35375	6729.5125
1770.56294	6722.0125
1773.77002	6720.1125
1776.97499	6708.2125
1780.17785	6688.2125
1783.37861	6651.4125
1786.57727	6622.5125
1789.77382	6629.5125
1792.96828	6630.7125
1796.16064	6610.5125
1799.3509	6601.9125
1802.53907	6590.9125
1805.72514	6578.7125
1808.90913	6585.2125
1812.09102	6556.5125
1815.27083	6557.7125
1818.44856	6521.7125
1821.6242	6528.6125
1824.79776	6518.5125
1827.96924	6513.8125
1831.13864	6492.4125
1834.30597	6496.0125
1837.47122	6494.2125
1840.6344	6450.8125
1843.7955	6449.5125
1846.95454	6435.7125
1850.11151	6441.8125
1853.26642	6457.5125
1856.41926	6446.0125
1859.57004	6451.6125
1862.71876	6425.4125
1865.86542	6416.4125
1869.01003	6417.8125
1872.15258	6390.1125
1875.29308	6412.6125
1878.43152	6377.7125
1881.56792	6365.1125
1884.70227	6377.0125
1887.83457	6371.1125
1890.96482	6382.1125
1894.09304	6335.8125
1897.21921	6329.5125
1900.34335	6320.5125
1903.46544	6337.7125
1906.58551	6315.5125
1909.70353	6320.8125
1912.81953	6306.4125
1915.93349	6300.6125
1919.04543	6282.1125
1922.15534	6276.7125
1925.26322	6251.5125
1928.36908	6251.6125
1931.47292	6225.7125
1934.57473	6213.2125
1937.67453	6232.7125
1940.77232	6214.6125
1943.86808	6180.0125
1946.96184	6156.0125
1950.05358	6151.7125
1953.14331	6130.6125
1956.23103	6090.4125
1959.31675	6081.2125
1962.40046	6068.5125
1965.48217	6058.0125
1968.56188	6036.6125
1971.63959	6023.9125
1974.7153	5996.6125
1977.78901	5987.6125
1980.86073	5981.6125
1983.93046	5972.2125
1986.99819	5949.3125
1990.06394	5919.4125
1993.1277	5916.4125
1996.18947	5893.2125
1999.24925	5883.8125
2002.30706	5852.9125
2005.36288	5817.8125
2008.41672	5800.2125
2011.46859	5769.4125
2014.51848	5783.9125
2017.56639	5752.8125
2020.61233	5747.3125
2023.6563	5730.2125
2026.6983	5720.0125
2029.73833	5688.7125
2032.7764	5681.2125
2035.8125	5666.5125
2038.84664	5661.9125
2041.87881	5646.4125
2044.90903	5638.8125
2047.93729	5643.9125
2050.96359	5622.0125
2053.98794	5618.6125
2057.01034	5590.3125
2060.03078	5594.2125
2063.04927	5594.2125
2066.06582	5590.7125
2069.08042	5574.6125
2072.09307	5581.2125
2075.10378	5566.3125
2078.11255	5578.4125
2081.11938	5570.7125
2084.12426	5554.0125
2087.12722	5541.1125
2090.12824	5559.5125
2093.12732	5556.7125
2096.12447	5565.4125
2099.11969	5570.0125
2102.11299	5565.4125
2105.10435	5549.3125
2108.09379	5573.0125
2111.08131	5566.0125
2114.0669	5551.1125
2117.05057	5563.8125
2120.03233	5547.3125
2123.01216	5547.9125
2125.99008	5565.0125
2128.96609	5577.5125
2131.94018	5593.8125
2134.91236	5580.4125
2137.88263	5588.3125
2140.851	5577.4125
2143.81746	5582.7125
2146.78201	5580.6125
2149.74466	5584.4125
2152.7054	5577.4125
2155.66425	5570.2125
2158.6212	5585.6125
2161.57625	5586.3125
2164.52941	5581.0125
2167.48067	5579.9125
2170.43004	5565.9125
2173.37752	5556.1125
2176.32311	5561.6125
2179.26681	5575.4125
2182.20863	5558.7125
2185.14856	5561.2125
2188.08661	5542.4125
2191.02278	5548.9125
2193.95707	5550.9125
2196.88948	5532.6125
2199.82001	5544.4125
2202.74867	5523.5125
2205.67545	5529.9125
2208.60037	5549.9125
2211.52341	5518.4125
2214.44458	5494.6125
2217.36388	5478.1125
2220.28132	5473.1125
2223.1969	5443.9125
2226.11061	5438.9125
2229.02246	5419.2125
2231.93245	5417.9125
2234.84058	5399.8125
2237.74686	5395.5125
2240.65128	5400.4125
2243.55385	5408.6125
2246.45456	5385.5125
2249.35343	5379.5125
2252.25044	5366.8125
2255.14561	5361.1125
2258.03893	5354.9125
2260.93041	5341.2125
2263.82004	5353.5125
2266.70783	5336.2125
2269.59378	5311.7125
2272.4779	5299.7125
2275.36017	5275.0125
2278.24061	5266.8125
2281.11922	5262.5125
2283.996	5262.1125
2286.87094	5232.1125
2289.74405	5215.6125
2292.61534	5222.4125
2295.4848	5206.4125
2298.35243	5217.5125
2301.21824	5195.7125
2304.08223	5210.1125
2306.94439	5194.0125
2309.80474	5209.6125
2312.66327	5169.1125
2315.51999	5158.9125
2318.37489	5168.2125
2321.22797	5158.8125
2324.07925	5156.6125
2326.92871	5139.3125
2329.77637	5134.4125
2332.62222	5134.8125
2335.46626	5111.3125
2338.3085	5111.3125
2341.14893	5094.7125
2343.98756	5091.6125
2346.8244	5086.3125
2349.65943	5080.3125
2352.49267	5088.0125
2355.32411	5068.2125
2358.15376	5066.9125
2360.98161	5071.5125
2363.80768	5066.9125
2366.63195	5062.5125
2369.45444	5064.0125
2372.27514	5043.6125
2375.09405	5060.9125
2377.91118	5057.1125
2380.72652	5042.7125
2383.54009	5007.2125
2386.35187	5014.9125
2389.16188	5002.2125
2391.97011	5006.1125
2394.77657	4982.7125
2397.58125	4952.7125
2400.38416	4958.5125
2403.18529	4953.8125
2405.98466	4931.8125
2408.78226	4917.6125
2411.57809	4917.7125
2414.37216	4921.4125
2417.16446	4922.2125
2419.955	4916.9125
2422.74378	4903.0125
2425.5308	4900.9125
2428.31606	4878.6125
2431.09956	4879.8125
2433.88131	4881.1125
2436.6613	4866.5125
2439.43954	4869.5125
2442.21603	4871.1125
2444.99077	4876.8125
2447.76377	4871.7125
2450.53501	4854.5125
2453.30451	4839.2125
2456.07226	4842.3125
2458.83827	4829.0125
2461.60254	4827.8125
2464.36507	4819.8125
2467.12586	4791.7125
2469.88492	4806.9125
2472.64224	4820.0125
2475.39782	4808.0125
2478.15167	4801.9125
2480.90379	4792.7125
2483.65417	4779.3125
2486.40283	4785.7125
2489.14976	4798.5125
2491.89497	4782.9125
2494.63845	4782.2125
2497.3802	4783.0125
2500.12024	4782.1125
2502.85855	4745.5125
2505.59514	4746.5125
2508.33002	4720.5125
2511.06318	4704.7125
2513.79462	4711.4125
2516.52435	4694.8125
2519.25237	4709.6125
2521.97867	4703.8125
2524.70327	4684.6125
2527.42616	4680.6125
2530.14734	4670.6125
2532.86681	4671.9125
2535.58458	4655.1125
2538.30065	4650.8125
2541.01501	4657.0125
2543.72768	4655.9125
2546.43864	4636.3125
2549.14791	4642.0125
2551.85548	4630.8125
2554.56136	4632.7125
2557.26554	4630.9125
2559.96803	4605.8125
2562.66883	4595.8125
2565.36794	4598.8125
2568.06536	4564.2125
2570.7611	4545.8125
2573.45514	4568.2125
2576.14751	4560.5125
2578.83819	4533.5125
2581.52719	4520.3125
2584.21451	4506.3125
2586.90015	4501.1125
2589.58411	4487.0125
2592.2664	4469.3125
2594.94701	4473.4125
2597.62594	4473.0125
2600.30321	4459.2125
2602.9788	4446.9125
2605.65273	4450.2125
2608.32498	4446.8125
2610.99557	4439.8125
2613.66449	4423.3125
2616.33175	4411.2125
2618.99734	4402.1125
2621.66128	4387.5125
2624.32355	4402.2125
2626.98416	4388.5125
2629.64311	4379.4125
2632.30041	4366.9125
2634.95605	4353.4125
2637.61004	4345.8125
2640.26238	4338.7125
2642.91306	4339.1125
2645.56209	4335.1125
2648.20948	4319.8125
2650.85521	4312.7125
2653.4993	4341.1125
2656.14175	4316.9125
2658.78255	4321.4125
2661.42171	4316.1125
2664.05923	4336.0125
2666.6951	4329.1125
2669.32934	4332.4125
2671.96194	4322.7125
2674.59291	4331.7125
2677.22224	4318.5125
2679.84993	4311.2125
2682.476	4321.0125
2685.10043	4297.5125
2687.72324	4294.5125
2690.34441	4281.2125
2692.96396	4295.3125
2695.58188	4290.6125
2698.19818	4290.2125
2700.81285	4289.9125
2703.4259	4296.5125
2706.03733	4291.7125
2708.64714	4284.8125
2711.25533	4259.0125
2713.86191	4276.2125
2716.46687	4276.0125
2719.07021	4273.5125
2721.67194	4298.4125
2724.27206	4286.4125
2726.87057	4288.1125
2729.46747	4291.4125
2732.06276	4271.9125
2734.65644	4274.6125
2737.24852	4256.0125
2739.83899	4258.3125
2742.42786	4267.1125
2745.01513	4261.7125
2747.60079	4239.7125
2750.18486	4235.1125
2752.76733	4232.3125
2755.3482	4230.7125
2757.92747	4217.5125
2760.50515	4204.7125
2763.08123	4205.9125
2765.65573	4193.4125
2768.22863	4195.0125
2770.79994	4169.3125
2773.36967	4171.2125
2775.9378	4167.8125
2778.50435	4172.2125
2781.06932	4148.6125
2783.6327	4144.1125
2786.1945	4124.1125
2788.75471	4101.0125
2791.31335	4101.1125
2793.87041	4118.2125
2796.42589	4110.2125
2798.97979	4091.3125
2801.53212	4087.9125
2804.08288	4083.7125
2806.63206	4080.8125
2809.17967	4071.7125
2811.72571	4045.6125
2814.27018	4052.8125
2816.81308	4050.0125
2819.35442	4024.6125
2821.89419	4019.2125
2824.43239	4007.9125
2826.96904	4002.9125
2829.50412	4000.7125
2832.03763	3985.1125
2834.56959	3986.4125
2837.1	3969.8125
2839.62884	3964.1125
2842.15613	3952.2125
2844.68186	3960.4125
2847.20604	3959.5125
2849.72867	3948.0125
2852.24974	3936.8125
2854.76927	3907.9125
2857.28724	3909.4125
2859.80367	3908.5125
2862.31855	3892.9125
2864.83189	3902.7125
2867.34368	3901.5125
2869.85393	3895.2125
2872.36264	3901.0125
2874.8698	3879.8125
2877.37543	3865.6125
2879.87952	3877.2125
2882.38207	3876.0125
2884.88308	3861.4125
2887.38256	3865.1125
2889.88051	3863.7125
2892.37692	3864.6125
2894.8718	3853.2125
2897.36515	3849.2125
2899.85698	3839.3125
2902.34727	3853.3125
2904.83604	3845.5125
2907.32328	3847.6125
2909.809	3871.0125
2912.29319	3863.8125
2914.77587	3853.6125
2917.25702	3852.3125
2919.73665	3846.6125
2922.21476	3860.5125
2924.69136	3840.7125
2927.16644	3853.7125
2929.64	3837.4125
2932.11205	3823.8125
2934.58258	3808.1125
2937.05161	3825.8125
2939.51912	3821.0125
2941.98513	3796.5125
2944.44962	3788.4125
2946.91261	3792.2125
2949.37409	3803.2125
2951.83407	3793.9125
2954.29254	3773.3125
2956.74951	3785.4125
2959.20498	3781.4125
2961.65895	3761.9125
2964.11142	3753.8125
2966.56239	3759.9125
2969.01186	3772.2125
2971.45984	3766.5125
2973.90632	3772.3125
2976.35131	3768.7125
2978.7948	3738.3125
2981.23681	3736.4125
2983.67732	3738.4125
2986.11635	3726.6125
2988.55388	3730.8125
2990.98993	3709.1125
2993.4245	3719.1125
2995.85758	3701.6125
2998.28917	3710.0125
3000.71928	3703.3125
3003.14791	3679.6125
3005.57506	3667.1125
3008.00073	3657.9125
3010.42493	3650.2125
3012.84764	3627.2125
3015.26888	3630.7125
3017.68865	3613.6125
3020.10694	3619.4125
3022.52376	3617.1125
3024.9391	3609.9125
3027.35298	3587.7125
3029.76539	3578.1125
3032.17632	3577.1125
3034.5858	3569.4125
3036.9938	3567.2125
3039.40034	3564.5125
3041.80542	3548.1125
3044.20903	3535.8125
3046.61118	3548.3125
3049.01187	3517.2125
3051.4111	3507.0125
3053.80888	3518.7125
3056.20519	3509.6125
3058.60005	3503.2125
3060.99345	3490.5125
3063.3854	3484.3125
3065.7759	3484.4125
3068.16494	3484.4125
3070.55254	3468.3125
3072.93868	3457.4125
3075.32338	3439.9125
3077.70662	3429.6125
3080.08842	3420.8125
3082.46878	3414.5125
3084.84769	3405.6125
3087.22515	3395.6125
3089.60118	3408.2125
3091.97576	3402.0125
3094.3489	3402.0125
3096.72061	3394.5125
3099.09087	3384.2125
3101.4597	3391.3125
3103.82709	3386.1125
3106.19305	3393.1125
3108.55757	3370.8125
3110.92066	3371.6125
3113.28232	3375.2125
3115.64255	3342.0125
3118.00134	3343.4125
3120.35871	3322.5125
3122.71466	3330.4125
3125.06917	3336.6125
