Data from AgNPs_UA_20uM_CRN_500uM_SU_RamanShift__30__13-41-30-297.txt Node

Date: Thu Aug 04 13:41:30 BST 2022
User: TCL
Spectrometer: QEP01345
Trigger mode: 4
Integration Time (sec): 1.000000E0
Scans to average: 10
Electric dark correction enabled: true
Nonlinearity correction enabled: false
Boxcar width: 0
XAxis mode: Raman Shifts
Number of Pixels in Spectrum: 1044
>>>>>Begin Spectral Data<<<<<
46.04893	-1.2875
50.45542	-1.2875
54.85868	0.4125
59.25871	-0.6875
63.6555	16.2125
68.04907	16.3125
72.43941	18.4125
76.82654	17.6125
81.21044	19.1125
85.59113	19.3125
89.96862	20.9125
94.34289	20.4125
98.71396	22.0125
103.08183	22.4125
107.4465	22.3125
111.80798	24.6125
116.16626	24.6125
120.52136	26.2125
124.87327	24.2125
129.222	31.4125
133.56755	28.3125
137.90993	32.1125
142.24913	36.5125
146.58517	41.2125
150.91804	47.4125
155.24774	55.9125
159.57429	74.1125
163.89768	93.0125
168.21792	123.6125
172.53501	169.0125
176.84895	235.6125
181.15975	335.7125
185.46741	469.7125
189.77193	654.9125
194.07331	878.5125
198.37157	1138.9125
202.6667	1405.8125
206.9587	1683.9125
211.24758	1952.0125
215.53334	2226.9125
219.81599	2525.9125
224.09553	2875.5125
228.37195	3223.0125
232.64527	3620.4125
236.91549	4026.7125
241.18261	4398.9125
245.44663	4691.8125
249.70755	4935.4125
253.96539	5152.0125
258.22014	5321.8125
262.4718	5452.6125
266.72039	5524.9125
270.96589	5584.6125
275.20832	5540.7125
279.44768	5486.2125
283.68397	5371.2125
287.91719	5298.3125
292.14735	5309.6125
296.37445	5373.1125
300.59849	5517.0125
304.81948	5719.4125
309.03742	5908.6125
313.25231	6011.6125
317.46415	5955.4125
321.67296	5759.9125
325.87872	5528.7125
330.08145	5416.0125
334.28114	5431.8125
338.47781	5479.6125
342.67145	5598.2125
346.86207	5766.5125
351.04966	5959.3125
355.23424	6189.0125
359.4158	6352.2125
363.59435	6426.6125
367.76989	6422.8125
371.94243	6425.2125
376.11196	6402.6125
380.27849	6400.6125
384.44203	6397.2125
388.60257	6396.0125
392.76012	6468.8125
396.91468	6549.2125
401.06626	6646.1125
405.21485	6675.1125
409.36047	6596.1125
413.50311	6411.6125
417.64277	6230.6125
421.77947	6139.8125
425.9132	6103.9125
430.04396	6119.5125
434.17176	6149.9125
438.2966	6221.5125
442.41849	6318.7125
446.53742	6451.8125
450.6534	6560.3125
454.76644	6626.2125
458.87653	6642.4125
462.98368	6639.1125
467.08789	6598.0125
471.18916	6538.5125
475.2875	6435.0125
479.38291	6329.2125
483.4754	6271.8125
487.56496	6226.2125
491.6516	6222.7125
495.73531	6218.7125
499.81612	6228.2125
503.89401	6286.8125
507.96899	6326.4125
512.04106	6398.9125
516.11023	6452.6125
520.1765	6491.2125
524.23987	6505.3125
528.30034	6497.5125
532.35792	6459.1125
536.41261	6439.0125
540.46441	6369.8125
544.51333	6338.6125
548.55936	6386.2125
552.60252	6464.9125
556.64279	6553.2125
560.6802	6608.1125
564.71473	6692.4125
568.7464	6765.1125
572.7752	6753.4125
576.80114	6624.9125
580.82422	6527.7125
584.84444	6493.4125
588.86181	6491.4125
592.87633	6558.9125
596.888	6654.8125
600.89682	6910.3125
604.9028	7569.4125
608.90594	8957.4125
612.90624	10333.6125
616.90371	9649.7125
620.89834	7689.2125
624.89015	6858.4125
628.87913	6756.0125
632.86528	6899.8125
636.84862	6985.5125
640.82913	6889.1125
644.80683	6714.9125
648.78172	6597.3125
652.75379	6580.9125
656.72306	6742.2125
660.68952	6924.4125
664.65319	6861.1125
668.61405	6750.4125
672.57211	6734.1125
676.52738	6752.6125
680.47986	6674.8125
684.42955	6583.0125
688.37646	6560.3125
692.32058	6602.4125
696.26192	6683.0125
700.20048	6786.4125
704.13626	6811.3125
708.06928	6793.9125
711.99952	6758.4125
715.927	6749.4125
719.85171	6778.3125
723.77365	6777.5125
727.69284	6750.4125
731.60928	6726.3125
735.52295	6692.9125
739.43388	6714.7125
743.34206	6752.3125
747.24749	6757.5125
751.15017	6775.3125
755.05012	6859.0125
758.94733	7066.9125
762.8418	7600.1125
766.73354	8423.2125
770.62254	9078.9125
774.50882	9184.8125
778.39237	8853.2125
782.27321	8226.5125
786.15132	7599.8125
790.02671	7141.0125
793.89938	6925.0125
797.76935	6846.3125
801.6366	6790.5125
805.50115	6765.9125
809.36299	6737.6125
813.22213	6721.6125
817.07857	6751.9125
820.93231	6746.2125
824.78336	6772.9125
828.63172	6775.6125
832.47738	6779.8125
836.32036	6769.6125
840.16066	6737.3125
843.99827	6752.4125
847.8332	6758.1125
851.66546	6782.0125
855.49504	6793.9125
859.32195	6793.9125
863.1462	6804.1125
866.96777	6811.4125
870.78668	6789.6125
874.60293	6831.9125
878.41652	6867.3125
882.22745	6908.6125
886.03573	6940.5125
889.84136	6934.5125
893.64433	6911.5125
897.44466	6901.6125
901.24235	6892.3125
905.0374	6870.2125
908.8298	6842.6125
912.61957	6819.4125
916.40671	6847.0125
920.19121	6864.8125
923.97308	6913.6125
927.75233	6966.3125
931.52895	7007.9125
935.30295	6959.8125
939.07433	6851.9125
942.84309	6779.9125
946.60924	6757.3125
950.37278	6745.2125
954.13371	6729.9125
957.89203	6741.5125
961.64774	6747.0125
965.40086	6737.8125
969.15137	6737.1125
972.89929	6721.6125
976.64461	6716.2125
980.38733	6748.1125
984.12747	6738.8125
987.86502	6772.5125
991.59999	6797.8125
995.33237	6848.2125
999.06217	6906.1125
1002.78939	7004.7125
1006.51404	7136.5125
1010.23611	7226.1125
1013.95561	7247.4125
1017.67255	7285.3125
1021.38692	7246.4125
1025.09872	7177.1125
1028.80796	7093.4125
1032.51465	7057.1125
1036.21877	7067.5125
1039.92035	7102.3125
1043.61937	7119.2125
1047.31584	7145.9125
1051.00976	7167.7125
1054.70114	7187.1125
1058.38998	7185.3125
1062.07627	7235.8125
1065.76003	7260.4125
1069.44126	7362.1125
1073.11995	7499.2125
1076.79611	7619.9125
1080.46974	7716.1125
1084.14085	7793.8125
1087.80943	7872.6125
1091.47549	7915.2125
1095.13903	7945.9125
1098.80005	7873.6125
1102.45857	7779.8125
1106.11456	7716.7125
1109.76805	7636.8125
1113.41903	7628.0125
1117.06751	7719.5125
1120.71348	7862.8125
1124.35696	8095.1125
1127.99793	8198.0125
1131.63641	8081.8125
1135.2724	7873.1125
1138.90589	7722.4125
1142.5369	7614.2125
1146.16542	7614.1125
1149.79145	7574.0125
1153.415	7514.9125
1157.03607	7453.9125
1160.65467	7464.4125
1164.27079	7603.5125
1167.88443	7788.3125
1171.49561	8069.0125
1175.10432	8509.3125
1178.71056	9164.5125
1182.31434	9697.7125
1185.91565	9874.3125
1189.51451	9814.0125
1193.11091	9637.3125
1196.70485	9455.9125
1200.29634	9295.2125
1203.88538	9103.4125
1207.47197	8830.4125
1211.05612	8562.2125
1214.63782	8340.7125
1218.21708	8172.8125
1221.79391	8028.0125
1225.36829	7961.6125
1228.94024	7927.5125
1232.50976	7905.2125
1236.07685	7920.3125
1239.6415	7962.0125
1243.20374	7972.4125
1246.76355	8036.3125
1250.32093	8118.9125
1253.8759	8265.9125
1257.42845	8430.6125
1260.97859	8651.8125
1264.52631	8815.3125
1268.07163	8918.9125
1271.61453	9006.1125
1275.15503	9059.8125
1278.69312	9036.5125
1282.22882	9020.6125
1285.76211	9090.0125
1289.29301	9232.8125
1292.82151	9388.6125
1296.34761	9583.8125
1299.87133	9846.8125
1303.39266	10294.8125
1306.9116	10943.8125
1310.42815	11634.7125
1313.94233	11860.4125
1317.45412	11487.8125
1320.96354	10874.9125
1324.47058	10315.3125
1327.97525	9853.5125
1331.47754	9572.6125
1334.97747	9548.9125
1338.47502	9654.1125
1341.97022	9928.9125
1345.46305	10453.7125
1348.95352	11153.3125
1352.44163	11906.6125
1355.92738	12704.9125
1359.41078	13658.2125
1362.89183	14469.6125
1366.37053	13976.8125
1369.84688	12244.6125
1373.32088	10569.0125
1376.79254	9654.7125
1380.26186	9195.1125
1383.72883	8938.9125
1387.19347	8724.6125
1390.65578	8465.9125
1394.11575	8284.1125
1397.57339	8166.4125
1401.0287	8049.4125
1404.48168	8001.4125
1407.93234	7992.7125
1411.38068	8082.2125
1414.82669	8114.8125
1418.27039	8140.4125
1421.71177	8106.1125
1425.15083	8035.2125
1428.58758	7992.5125
1432.02203	8025.4125
1435.45416	8075.2125
1438.88399	8144.6125
1442.31151	8196.5125
1445.73673	8212.1125
1449.15965	8220.3125
1452.58027	8218.6125
1455.9986	8175.0125
1459.41463	8168.2125
1462.82837	8260.5125
1466.23982	8369.3125
1469.64898	8539.9125
1473.05586	8672.2125
1476.46045	8743.5125
1479.86276	8779.7125
1483.26279	8866.9125
1486.66054	8993.6125
1490.05602	9222.4125
1493.44922	9553.3125
1496.84016	10097.0125
1500.22882	10916.8125
1503.61521	11950.7125
1506.99934	12952.9125
1510.38121	13453.5125
1513.76081	13226.2125
1517.13816	12285.6125
1520.51324	11097.9125
1523.88607	10139.0125
1527.25665	9621.8125
1530.62498	9330.7125
1533.99105	9220.4125
1537.35488	9153.0125
1540.71647	9100.0125
1544.07581	9033.1125
1547.4329	8963.7125
1550.78776	8894.1125
1554.14038	8795.4125
1557.49077	8753.5125
1560.83892	8793.8125
1564.18484	8950.9125
1567.52853	9163.9125
1570.86999	9403.5125
1574.20922	9452.7125
1577.54624	9342.6125
1580.88103	8998.3125
1584.2136	8572.9125
1587.54395	8349.6125
1590.87208	8352.5125
1594.19801	8546.2125
1597.52172	8822.1125
1600.84321	9015.0125
1604.16251	8976.7125
1607.47959	8822.4125
1610.79447	8569.1125
1614.10715	8255.4125
1617.41763	7917.1125
1620.7259	7685.5125
1624.03199	7566.5125
1627.33587	7487.9125
1630.63757	7537.6125
1633.93707	7721.5125
1637.23439	8050.4125
1640.52951	8567.2125
1643.82246	9311.4125
1647.11321	10105.3125
1650.40179	10520.9125
1653.68819	10182.5125
1656.97241	9287.1125
1660.25446	8340.2125
1663.53433	7660.6125
1666.81203	7242.4125
1670.08756	7015.5125
1673.36092	6870.3125
1676.63211	6768.8125
1679.90115	6714.4125
1683.16801	6637.1125
1686.43272	6587.2125
1689.69527	6555.7125
1692.95567	6515.6125
1696.2139	6491.9125
1699.46999	6477.6125
1702.72392	6475.3125
1705.97571	6493.7125
1709.22535	6492.6125
1712.47284	6468.3125
1715.71819	6459.5125
1718.96139	6458.8125
1722.20246	6455.9125
1725.44139	6440.5125
1728.67818	6421.4125
1731.91284	6367.5125
1735.14537	6346.1125
1738.37576	6323.5125
1741.60403	6312.3125
1744.83017	6297.4125
1748.05418	6308.5125
1751.27607	6294.4125
1754.49584	6247.2125
1757.71349	6249.2125
1760.92903	6241.7125
1764.14244	6229.8125
1767.35375	6213.8125
1770.56294	6225.5125
1773.77002	6215.7125
1776.97499	6191.9125
1780.17785	6175.9125
1783.37861	6157.8125
1786.57727	6148.6125
1789.77382	6156.4125
1792.96828	6128.1125
1796.16064	6108.8125
1799.3509	6122.7125
1802.53907	6099.6125
1805.72514	6103.6125
1808.90913	6083.7125
1812.09102	6057.0125
1815.27083	6054.1125
1818.44856	6039.0125
1821.6242	6014.7125
1824.79776	6037.4125
1827.96924	6016.7125
1831.13864	6006.3125
1834.30597	6002.7125
1837.47122	5990.2125
1840.6344	5977.7125
1843.7955	5962.7125
1846.95454	5954.2125
1850.11151	5967.6125
1853.26642	5969.1125
1856.41926	5951.2125
1859.57004	5953.6125
1862.71876	5938.5125
1865.86542	5940.1125
1869.01003	5934.3125
1872.15258	5909.1125
1875.29308	5913.4125
1878.43152	5910.1125
1881.56792	5902.1125
1884.70227	5885.1125
1887.83457	5884.2125
1890.96482	5892.6125
1894.09304	5874.7125
1897.21921	5863.4125
1900.34335	5833.8125
1903.46544	5861.7125
1906.58551	5843.6125
1909.70353	5860.0125
1912.81953	5840.2125
1915.93349	5833.6125
1919.04543	5811.1125
1922.15534	5799.7125
1925.26322	5797.3125
1928.36908	5774.5125
1931.47292	5765.4125
1934.57473	5764.1125
1937.67453	5749.0125
1940.77232	5733.4125
1943.86808	5715.4125
1946.96184	5695.7125
1950.05358	5688.0125
1953.14331	5671.7125
1956.23103	5652.6125
1959.31675	5631.3125
1962.40046	5603.0125
1965.48217	5593.1125
1968.56188	5566.4125
1971.63959	5569.6125
1974.7153	5561.4125
1977.78901	5559.5125
1980.86073	5532.3125
1983.93046	5497.1125
1986.99819	5493.9125
1990.06394	5472.2125
1993.1277	5466.8125
1996.18947	5446.7125
1999.24925	5426.8125
2002.30706	5410.9125
2005.36288	5413.0125
2008.41672	5385.4125
2011.46859	5356.7125
2014.51848	5357.6125
2017.56639	5334.9125
2020.61233	5302.4125
2023.6563	5303.2125
2026.6983	5283.1125
2029.73833	5270.8125
2032.7764	5261.0125
2035.8125	5239.1125
2038.84664	5229.5125
2041.87881	5224.9125
2044.90903	5208.6125
2047.93729	5191.0125
2050.96359	5194.7125
2053.98794	5192.7125
2057.01034	5192.3125
2060.03078	5176.1125
2063.04927	5149.8125
2066.06582	5159.1125
2069.08042	5153.9125
2072.09307	5154.1125
2075.10378	5158.0125
2078.11255	5159.9125
2081.11938	5135.8125
2084.12426	5127.9125
2087.12722	5139.0125
2090.12824	5147.6125
2093.12732	5150.4125
2096.12447	5162.7125
2099.11969	5160.6125
2102.11299	5150.1125
2105.10435	5137.5125
2108.09379	5145.2125
2111.08131	5155.1125
2114.0669	5152.1125
2117.05057	5156.3125
2120.03233	5145.5125
2123.01216	5136.2125
2125.99008	5167.1125
2128.96609	5172.7125
2131.94018	5182.6125
2134.91236	5189.4125
2137.88263	5153.6125
2140.851	5171.3125
2143.81746	5168.0125
2146.78201	5168.0125
2149.74466	5167.1125
2152.7054	5157.1125
2155.66425	5170.4125
2158.6212	5179.0125
2161.57625	5155.4125
2164.52941	5158.7125
2167.48067	5148.3125
2170.43004	5154.1125
2173.37752	5152.0125
2176.32311	5149.6125
2179.26681	5145.9125
2182.20863	5148.2125
2185.14856	5150.6125
2188.08661	5154.4125
2191.02278	5142.4125
2193.95707	5142.2125
2196.88948	5146.4125
2199.82001	5116.1125
2202.74867	5131.5125
2205.67545	5131.3125
2208.60037	5115.3125
2211.52341	5101.5125
2214.44458	5083.0125
2217.36388	5075.2125
2220.28132	5045.1125
2223.1969	5058.5125
2226.11061	5044.7125
2229.02246	5038.7125
2231.93245	5005.9125
2234.84058	5015.1125
2237.74686	4999.1125
2240.65128	4997.2125
2243.55385	5004.0125
2246.45456	4994.4125
2249.35343	4991.6125
2252.25044	4959.8125
2255.14561	4970.3125
2258.03893	4974.0125
2260.93041	4961.4125
2263.82004	4957.2125
2266.70783	4938.7125
2269.59378	4945.6125
2272.4779	4914.0125
2275.36017	4902.1125
2278.24061	4884.1125
2281.11922	4888.3125
2283.996	4870.6125
2286.87094	4851.9125
2289.74405	4851.8125
2292.61534	4830.0125
2295.4848	4840.1125
2298.35243	4816.9125
2301.21824	4834.8125
2304.08223	4833.7125
2306.94439	4828.8125
2309.80474	4828.0125
2312.66327	4802.6125
2315.51999	4789.1125
2318.37489	4799.7125
2321.22797	4799.8125
2324.07925	4782.8125
2326.92871	4764.2125
2329.77637	4761.3125
2332.62222	4759.1125
2335.46626	4745.1125
2338.3085	4745.2125
2341.14893	4734.4125
2343.98756	4734.5125
2346.8244	4737.0125
2349.65943	4728.4125
2352.49267	4724.1125
2355.32411	4718.8125
2358.15376	4716.6125
2360.98161	4710.4125
2363.80768	4709.8125
2366.63195	4717.9125
2369.45444	4687.8125
2372.27514	4691.1125
2375.09405	4699.3125
2377.91118	4694.8125
2380.72652	4689.5125
2383.54009	4661.1125
2386.35187	4665.5125
2389.16188	4639.4125
2391.97011	4633.8125
2394.77657	4635.8125
2397.58125	4608.9125
2400.38416	4604.3125
2403.18529	4603.3125
2405.98466	4595.2125
2408.78226	4588.0125
2411.57809	4579.6125
2414.37216	4557.5125
2417.16446	4567.2125
2419.955	4544.1125
2422.74378	4568.8125
2425.5308	4542.3125
2428.31606	4545.1125
2431.09956	4548.8125
2433.88131	4533.6125
2436.6613	4536.2125
2439.43954	4523.1125
2442.21603	4528.4125
2444.99077	4523.1125
2447.76377	4538.8125
2450.53501	4510.9125
2453.30451	4501.8125
2456.07226	4494.6125
2458.83827	4507.9125
2461.60254	4505.7125
2464.36507	4478.7125
2467.12586	4484.5125
2469.88492	4482.2125
2472.64224	4482.9125
2475.39782	4480.5125
2478.15167	4479.6125
2480.90379	4451.4125
2483.65417	4461.8125
2486.40283	4473.2125
2489.14976	4470.0125
2491.89497	4457.8125
2494.63845	4461.6125
2497.3802	4452.3125
2500.12024	4462.5125
2502.85855	4423.5125
2505.59514	4425.0125
2508.33002	4417.4125
2511.06318	4404.7125
2513.79462	4413.4125
2516.52435	4388.8125
2519.25237	4376.2125
2521.97867	4393.6125
2524.70327	4371.7125
2527.42616	4369.9125
2530.14734	4364.3125
2532.86681	4349.1125
2535.58458	4364.7125
2538.30065	4330.7125
2541.01501	4346.0125
2543.72768	4342.9125
2546.43864	4340.2125
2549.14791	4331.6125
2551.85548	4324.5125
2554.56136	4325.6125
2557.26554	4324.8125
2559.96803	4304.6125
2562.66883	4291.6125
2565.36794	4299.3125
2568.06536	4260.6125
2570.7611	4253.9125
2573.45514	4261.4125
2576.14751	4244.5125
2578.83819	4232.7125
2581.52719	4231.9125
2584.21451	4212.4125
2586.90015	4186.1125
2589.58411	4190.2125
2592.2664	4187.2125
2594.94701	4183.1125
2597.62594	4179.2125
2600.30321	4172.4125
2602.9788	4177.6125
2605.65273	4164.4125
2608.32498	4148.1125
2610.99557	4148.4125
2613.66449	4137.8125
2616.33175	4138.2125
2618.99734	4130.7125
2621.66128	4108.1125
2624.32355	4105.6125
2626.98416	4116.8125
2629.64311	4098.6125
2632.30041	4103.5125
2634.95605	4086.0125
2637.61004	4069.6125
2640.26238	4065.4125
2642.91306	4069.2125
2645.56209	4059.3125
2648.20948	4058.6125
2650.85521	4063.7125
2653.4993	4042.8125
2656.14175	4055.0125
2658.78255	4047.3125
2661.42171	4052.1125
2664.05923	4070.2125
2666.6951	4064.2125
2669.32934	4064.6125
2671.96194	4051.3125
2674.59291	4057.3125
2677.22224	4049.1125
2679.84993	4059.8125
2682.476	4034.9125
2685.10043	4040.3125
2687.72324	4027.7125
2690.34441	4040.5125
2692.96396	4036.4125
2695.58188	4035.9125
2698.19818	4022.6125
2700.81285	4045.6125
2703.4259	4012.9125
2706.03733	4039.1125
2708.64714	4020.7125
2711.25533	4007.9125
2713.86191	3997.3125
2716.46687	4007.3125
2719.07021	4002.6125
2721.67194	4028.8125
2724.27206	4026.9125
2726.87057	4025.5125
2729.46747	4026.2125
2732.06276	4021.7125
2734.65644	4019.5125
2737.24852	4009.0125
2739.83899	4005.1125
2742.42786	4014.1125
2745.01513	3994.1125
2747.60079	3987.4125
2750.18486	3978.6125
2752.76733	3984.4125
2755.3482	3969.7125
2757.92747	3963.1125
2760.50515	3946.2125
2763.08123	3955.3125
2765.65573	3940.9125
2768.22863	3921.3125
2770.79994	3926.7125
2773.36967	3921.4125
2775.9378	3918.2125
2778.50435	3910.8125
2781.06932	3898.6125
2783.6327	3898.9125
2786.1945	3884.0125
2788.75471	3875.0125
2791.31335	3870.8125
2793.87041	3861.4125
2796.42589	3857.3125
2798.97979	3848.6125
2801.53212	3848.6125
2804.08288	3839.0125
2806.63206	3842.4125
2809.17967	3826.1125
2811.72571	3835.1125
2814.27018	3827.3125
2816.81308	3792.4125
2819.35442	3803.5125
2821.89419	3772.4125
2824.43239	3774.1125
2826.96904	3767.3125
2829.50412	3765.4125
2832.03763	3755.3125
2834.56959	3750.7125
2837.1	3730.7125
2839.62884	3739.0125
2842.15613	3733.7125
2844.68186	3728.0125
2847.20604	3724.8125
2849.72867	3721.1125
2852.24974	3699.0125
2854.76927	3691.1125
2857.28724	3689.8125
2859.80367	3687.3125
2862.31855	3682.0125
2864.83189	3685.7125
2867.34368	3673.0125
2869.85393	3669.8125
2872.36264	3671.1125
2874.8698	3649.9125
2877.37543	3653.7125
2879.87952	3649.6125
2882.38207	3654.6125
2884.88308	3663.9125
2887.38256	3649.0125
2889.88051	3642.9125
2892.37692	3635.8125
2894.8718	3627.3125
2897.36515	3629.4125
2899.85698	3632.5125
2902.34727	3627.0125
2904.83604	3616.9125
2907.32328	3626.6125
2909.809	3632.7125
2912.29319	3643.8125
2914.77587	3644.6125
2917.25702	3638.6125
2919.73665	3610.9125
2922.21476	3632.3125
2924.69136	3629.3125
2927.16644	3642.3125
2929.64	3613.5125
2932.11205	3618.7125
2934.58258	3591.2125
2937.05161	3592.2125
2939.51912	3590.4125
2941.98513	3576.6125
2944.44962	3579.2125
2946.91261	3578.3125
2949.37409	3582.9125
2951.83407	3572.2125
2954.29254	3567.9125
2956.74951	3572.1125
2959.20498	3559.0125
2961.65895	3564.1125
2964.11142	3551.0125
2966.56239	3560.2125
2969.01186	3552.9125
2971.45984	3554.0125
2973.90632	3565.9125
2976.35131	3550.2125
2978.7948	3526.2125
2981.23681	3514.0125
2983.67732	3524.8125
2986.11635	3516.1125
2988.55388	3511.3125
2990.98993	3495.3125
2993.4245	3497.8125
2995.85758	3500.8125
2998.28917	3489.3125
3000.71928	3472.7125
3003.14791	3464.2125
3005.57506	3467.6125
3008.00073	3441.1125
3010.42493	3432.6125
3012.84764	3417.2125
3015.26888	3412.6125
3017.68865	3419.2125
3020.10694	3427.7125
3022.52376	3400.1125
3024.9391	3393.8125
3027.35298	3382.4125
3029.76539	3371.2125
3032.17632	3365.3125
3034.5858	3363.6125
3036.9938	3369.3125
3039.40034	3348.4125
3041.80542	3349.2125
3044.20903	3338.7125
3046.61118	3337.7125
3049.01187	3318.1125
3051.4111	3321.3125
3053.80888	3327.6125
3056.20519	3306.2125
3058.60005	3287.0125
3060.99345	3297.1125
3063.3854	3289.0125
3065.7759	3283.0125
3068.16494	3275.2125
3070.55254	3261.8125
3072.93868	3266.7125
3075.32338	3245.5125
3077.70662	3229.3125
3080.08842	3228.1125
3082.46878	3214.5125
3084.84769	3211.0125
3087.22515	3204.6125
3089.60118	3212.6125
3091.97576	3232.9125
3094.3489	3203.7125
3096.72061	3201.9125
3099.09087	3196.5125
3101.4597	3197.5125
3103.82709	3205.4125
3106.19305	3175.9125
3108.55757	3179.8125
3110.92066	3175.7125
3113.28232	3186.0125
3115.64255	3160.2125
3118.00134	3142.7125
3120.35871	3142.9125
3122.71466	3129.6125
3125.06917	3152.8125
