Data from AgNPs_UA_50uM_CRN_500uM_SU_RamanShift__43__14-03-00-322.txt Node

Date: Thu Aug 04 14:03:00 BST 2022
User: TCL
Spectrometer: QEP01345
Trigger mode: 4
Integration Time (sec): 1.000000E0
Scans to average: 10
Electric dark correction enabled: true
Nonlinearity correction enabled: false
Boxcar width: 0
XAxis mode: Raman Shifts
Number of Pixels in Spectrum: 1044
>>>>>Begin Spectral Data<<<<<
46.04893	2.0375
50.45542	-1.2625
54.85868	0.8375
59.25871	-1.4625
63.6555	15.8375
68.04907	15.3375
72.43941	17.7375
76.82654	17.9375
81.21044	19.1375
85.59113	20.0375
89.96862	18.4375
94.34289	22.7375
98.71396	22.6375
103.08183	20.5375
107.4465	23.4375
111.80798	22.7375
116.16626	23.9375
120.52136	26.7375
124.87327	26.7375
129.222	30.2375
133.56755	30.2375
137.90993	35.0375
142.24913	37.1375
146.58517	43.4375
150.91804	51.4375
155.24774	61.0375
159.57429	76.8375
163.89768	99.4375
168.21792	133.2375
172.53501	183.1375
176.84895	257.1375
181.15975	369.0375
185.46741	520.1375
189.77193	719.1375
194.07331	969.1375
198.37157	1264.3375
202.6667	1553.5375
206.9587	1862.9375
211.24758	2165.1375
215.53334	2488.4375
219.81599	2832.2375
224.09553	3212.8375
228.37195	3632.2375
232.64527	4090.8375
236.91549	4514.1375
241.18261	4896.9375
245.44663	5182.9375
249.70755	5413.4375
253.96539	5604.9375
258.22014	5797.0375
262.4718	5916.4375
266.72039	6027.0375
270.96589	6029.4375
275.20832	6002.7375
279.44768	5902.1375
283.68397	5803.3375
287.91719	5738.8375
292.14735	5756.2375
296.37445	5866.4375
300.59849	6079.5375
304.81948	6363.6375
309.03742	6614.2375
313.25231	6762.1375
317.46415	6689.2375
321.67296	6383.5375
325.87872	6066.4375
330.08145	5893.0375
334.28114	5856.2375
338.47781	5961.5375
342.67145	6086.6375
346.86207	6265.0375
351.04966	6574.5375
355.23424	6877.3375
359.4158	7053.7375
363.59435	7165.5375
367.76989	7133.3375
371.94243	7091.6375
376.11196	7028.4375
380.27849	6975.0375
384.44203	6971.2375
388.60257	6975.6375
392.76012	7016.3375
396.91468	7104.6375
401.06626	7213.3375
405.21485	7266.3375
409.36047	7136.5375
413.50311	6864.8375
417.64277	6617.6375
421.77947	6451.1375
425.9132	6383.1375
430.04396	6375.2375
434.17176	6391.1375
438.2966	6465.9375
442.41849	6575.6375
446.53742	6697.5375
450.6534	6820.0375
454.76644	6903.1375
458.87653	6939.1375
462.98368	6952.3375
467.08789	6900.2375
471.18916	6782.9375
475.2875	6629.3375
479.38291	6515.7375
483.4754	6441.5375
487.56496	6380.6375
491.6516	6358.7375
495.73531	6344.6375
499.81612	6381.9375
503.89401	6424.1375
507.96899	6499.3375
512.04106	6562.1375
516.11023	6610.1375
520.1765	6656.4375
524.23987	6669.0375
528.30034	6674.4375
532.35792	6655.3375
536.41261	6556.7375
540.46441	6490.1375
544.51333	6463.7375
548.55936	6490.0375
552.60252	6588.9375
556.64279	6712.1375
560.6802	6801.9375
564.71473	6925.4375
568.7464	7039.2375
572.7752	6981.9375
576.80114	6756.5375
580.82422	6557.2375
584.84444	6474.7375
588.86181	6436.6375
592.87633	6485.6375
596.888	6623.6375
600.89682	6971.4375
604.9028	7842.3375
608.90594	9777.0375
612.90624	11756.5375
616.90371	10786.0375
620.89834	8079.4375
624.89015	6962.3375
628.87913	6835.1375
632.86528	7011.0375
636.84862	7113.2375
640.82913	6967.9375
644.80683	6662.0375
648.78172	6500.0375
652.75379	6524.2375
656.72306	6735.7375
660.68952	6981.6375
664.65319	6922.4375
668.61405	6756.9375
672.57211	6753.5375
676.52738	6772.5375
680.47986	6650.4375
684.42955	6502.6375
688.37646	6453.2375
692.32058	6494.7375
696.26192	6627.1375
700.20048	6742.6375
704.13626	6748.9375
708.06928	6687.9375
711.99952	6638.7375
715.927	6606.2375
719.85171	6647.9375
723.77365	6674.4375
727.69284	6623.9375
731.60928	6566.2375
735.52295	6529.4375
739.43388	6551.7375
743.34206	6582.1375
747.24749	6592.7375
751.15017	6582.5375
755.05012	6643.1375
758.94733	6944.6375
762.8418	7651.1375
766.73354	8703.4375
770.62254	9511.9375
774.50882	9633.7375
778.39237	9252.1375
782.27321	8508.0375
786.15132	7666.8375
790.02671	7079.0375
793.89938	6765.6375
797.76935	6628.2375
801.6366	6557.0375
805.50115	6510.8375
809.36299	6469.6375
813.22213	6469.3375
817.07857	6476.4375
820.93231	6464.2375
824.78336	6490.9375
828.63172	6519.6375
832.47738	6549.0375
836.32036	6500.0375
840.16066	6483.1375
843.99827	6446.6375
847.8332	6451.7375
851.66546	6453.4375
855.49504	6473.1375
859.32195	6472.4375
863.1462	6458.9375
866.96777	6453.7375
870.78668	6454.8375
874.60293	6482.1375
878.41652	6510.9375
882.22745	6576.3375
886.03573	6593.8375
889.84136	6590.1375
893.64433	6580.7375
897.44466	6554.9375
901.24235	6556.6375
905.0374	6516.9375
908.8298	6483.0375
912.61957	6461.2375
916.40671	6465.6375
920.19121	6483.5375
923.97308	6530.0375
927.75233	6633.7375
931.52895	6668.4375
935.30295	6612.7375
939.07433	6477.6375
942.84309	6396.0375
946.60924	6341.4375
950.37278	6344.1375
954.13371	6321.0375
957.89203	6344.5375
961.64774	6326.4375
965.40086	6306.4375
969.15137	6301.1375
972.89929	6309.5375
976.64461	6301.2375
980.38733	6296.5375
984.12747	6304.3375
987.86502	6341.1375
991.59999	6360.7375
995.33237	6414.0375
999.06217	6474.7375
1002.78939	6583.5375
1006.51404	6707.0375
1010.23611	6810.3375
1013.95561	6877.6375
1017.67255	6893.1375
1021.38692	6850.6375
1025.09872	6757.2375
1028.80796	6663.0375
1032.51465	6633.9375
1036.21877	6651.0375
1039.92035	6688.2375
1043.61937	6733.1375
1047.31584	6738.3375
1051.00976	6760.8375
1054.70114	6752.3375
1058.38998	6766.4375
1062.07627	6788.7375
1065.76003	6833.8375
1069.44126	6946.2375
1073.11995	7075.6375
1076.79611	7242.1375
1080.46974	7379.3375
1084.14085	7481.9375
1087.80943	7592.3375
1091.47549	7649.4375
1095.13903	7601.4375
1098.80005	7603.9375
1102.45857	7571.0375
1106.11456	7505.7375
1109.76805	7422.4375
1113.41903	7406.8375
1117.06751	7490.1375
1120.71348	7665.0375
1124.35696	7910.2375
1127.99793	8051.4375
1131.63641	7902.3375
1135.2724	7583.2375
1138.90589	7364.8375
1142.5369	7246.8375
1146.16542	7198.2375
1149.79145	7138.6375
1153.415	7041.6375
1157.03607	6964.3375
1160.65467	7013.4375
1164.27079	7150.5375
1167.88443	7383.7375
1171.49561	7725.6375
1175.10432	8312.7375
1178.71056	9047.0375
1182.31434	9681.1375
1185.91565	9832.4375
1189.51451	9689.4375
1193.11091	9440.8375
1196.70485	9154.4375
1200.29634	8968.7375
1203.88538	8721.6375
1207.47197	8366.8375
1211.05612	8055.1375
1214.63782	7849.2375
1218.21708	7624.1375
1221.79391	7471.8375
1225.36829	7356.5375
1228.94024	7336.1375
1232.50976	7320.4375
1236.07685	7339.7375
1239.6415	7366.9375
1243.20374	7406.8375
1246.76355	7459.7375
1250.32093	7525.6375
1253.8759	7679.4375
1257.42845	7908.4375
1260.97859	8175.8375
1264.52631	8394.8375
1268.07163	8572.6375
1271.61453	8624.1375
1275.15503	8640.7375
1278.69312	8594.0375
1282.22882	8584.9375
1285.76211	8660.1375
1289.29301	8863.8375
1292.82151	9011.2375
1296.34761	9191.9375
1299.87133	9528.9375
1303.39266	10100.3375
1306.9116	10972.9375
1310.42815	11906.8375
1313.94233	12185.1375
1317.45412	11659.5375
1320.96354	10791.2375
1324.47058	10105.9375
1327.97525	9499.3375
1331.47754	9083.0375
1334.97747	8970.2375
1338.47502	9097.3375
1341.97022	9456.9375
1345.46305	10096.6375
1348.95352	11021.8375
1352.44163	11996.1375
1355.92738	13009.3375
1359.41078	14260.6375
1362.89183	15251.5375
1366.37053	14542.9375
1369.84688	12327.6375
1373.32088	10345.5375
1376.79254	9262.4375
1380.26186	8741.8375
1383.72883	8388.7375
1387.19347	8106.7375
1390.65578	7819.5375
1394.11575	7568.9375
1397.57339	7406.4375
1401.0287	7320.0375
1404.48168	7286.2375
1407.93234	7298.0375
1411.38068	7420.6375
1414.82669	7539.0375
1418.27039	7597.6375
1421.71177	7594.5375
1425.15083	7514.4375
1428.58758	7453.5375
1432.02203	7473.6375
1435.45416	7511.5375
1438.88399	7506.6375
1442.31151	7533.6375
1445.73673	7527.4375
1449.15965	7573.8375
1452.58027	7534.0375
1455.9986	7463.3375
1459.41463	7439.6375
1462.82837	7504.5375
1466.23982	7640.6375
1469.64898	7797.5375
1473.05586	7948.4375
1476.46045	7985.6375
1479.86276	8065.5375
1483.26279	8171.3375
1486.66054	8377.2375
1490.05602	8664.4375
1493.44922	9107.7375
1496.84016	9839.5375
1500.22882	10905.2375
1503.61521	12225.8375
1506.99934	13499.9375
1510.38121	14268.1375
1513.76081	14092.4375
1517.13816	12900.9375
1520.51324	11334.5375
1523.88607	9994.0375
1527.25665	9181.9375
1530.62498	8751.5375
1533.99105	8539.8375
1537.35488	8425.6375
1540.71647	8319.2375
1544.07581	8245.1375
1547.4329	8167.4375
1550.78776	8104.3375
1554.14038	8074.9375
1557.49077	8098.9375
1560.83892	8215.3375
1564.18484	8468.8375
1567.52853	8752.8375
1570.86999	8990.8375
1574.20922	9017.5375
1577.54624	8896.5375
1580.88103	8434.5375
1584.2136	7956.3375
1587.54395	7644.7375
1590.87208	7632.5375
1594.19801	7823.0375
1597.52172	8120.1375
1600.84321	8224.6375
1604.16251	8141.9375
1607.47959	7988.4375
1610.79447	7755.5375
1614.10715	7428.0375
1617.41763	7103.5375
1620.7259	6855.4375
1624.03199	6721.9375
1627.33587	6697.9375
1630.63757	6751.6375
1633.93707	6973.0375
1637.23439	7377.8375
1640.52951	8020.3375
1643.82246	8991.1375
1647.11321	10039.3375
1650.40179	10654.6375
1653.68819	10255.0375
1656.97241	9050.9375
1660.25446	7879.9375
1663.53433	7021.4375
1666.81203	6526.9375
1670.08756	6248.5375
1673.36092	6059.9375
1676.63211	5951.5375
1679.90115	5896.2375
1683.16801	5823.4375
1686.43272	5789.8375
1689.69527	5716.5375
1692.95567	5708.3375
1696.2139	5690.9375
1699.46999	5677.7375
1702.72392	5661.4375
1705.97571	5664.6375
1709.22535	5653.6375
1712.47284	5660.0375
1715.71819	5658.3375
1718.96139	5646.9375
1722.20246	5626.3375
1725.44139	5615.1375
1728.67818	5562.3375
1731.91284	5521.2375
1735.14537	5516.3375
1738.37576	5495.7375
1741.60403	5453.1375
1744.83017	5469.2375
1748.05418	5455.9375
1751.27607	5416.9375
1754.49584	5403.1375
1757.71349	5397.1375
1760.92903	5398.3375
1764.14244	5390.6375
1767.35375	5378.4375
1770.56294	5363.1375
1773.77002	5369.5375
1776.97499	5324.2375
1780.17785	5304.5375
1783.37861	5308.6375
1786.57727	5271.9375
1789.77382	5262.1375
1792.96828	5252.5375
1796.16064	5243.2375
1799.3509	5232.7375
1802.53907	5238.4375
1805.72514	5206.8375
1808.90913	5195.3375
1812.09102	5188.6375
1815.27083	5152.8375
1818.44856	5169.2375
1821.6242	5148.2375
1824.79776	5123.3375
1827.96924	5126.5375
1831.13864	5101.0375
1834.30597	5074.1375
1837.47122	5072.1375
1840.6344	5075.9375
1843.7955	5087.2375
1846.95454	5062.0375
1850.11151	5082.5375
1853.26642	5082.2375
1856.41926	5057.8375
1859.57004	5053.6375
1862.71876	5050.2375
1865.86542	5032.2375
1869.01003	5035.1375
1872.15258	5017.8375
1875.29308	5031.0375
1878.43152	5016.5375
1881.56792	5023.3375
1884.70227	5003.3375
1887.83457	4989.5375
1890.96482	4992.7375
1894.09304	4976.2375
1897.21921	4960.2375
1900.34335	4971.9375
1903.46544	4934.9375
1906.58551	4917.6375
1909.70353	4915.8375
1912.81953	4905.5375
1915.93349	4909.7375
1919.04543	4902.2375
1922.15534	4880.7375
1925.26322	4897.3375
1928.36908	4878.6375
1931.47292	4862.3375
1934.57473	4844.3375
1937.67453	4837.1375
1940.77232	4803.2375
1943.86808	4793.9375
1946.96184	4795.1375
1950.05358	4756.6375
1953.14331	4753.6375
1956.23103	4739.3375
1959.31675	4702.6375
1962.40046	4709.7375
1965.48217	4700.0375
1968.56188	4682.9375
1971.63959	4684.9375
1974.7153	4659.4375
1977.78901	4645.0375
1980.86073	4633.0375
1983.93046	4621.8375
1986.99819	4604.5375
1990.06394	4590.9375
1993.1277	4570.8375
1996.18947	4539.9375
1999.24925	4531.2375
2002.30706	4509.6375
2005.36288	4483.3375
2008.41672	4470.3375
2011.46859	4466.6375
2014.51848	4457.6375
2017.56639	4439.1375
2020.61233	4421.9375
2023.6563	4420.0375
2026.6983	4385.1375
2029.73833	4381.0375
2032.7764	4358.7375
2035.8125	4340.4375
2038.84664	4351.6375
2041.87881	4334.7375
2044.90903	4322.3375
2047.93729	4312.7375
2050.96359	4307.9375
2053.98794	4298.8375
2057.01034	4292.7375
2060.03078	4263.1375
2063.04927	4300.8375
2066.06582	4286.2375
2069.08042	4280.7375
2072.09307	4258.4375
2075.10378	4245.2375
2078.11255	4251.6375
2081.11938	4259.4375
2084.12426	4251.6375
2087.12722	4250.4375
2090.12824	4255.6375
2093.12732	4234.1375
2096.12447	4248.7375
2099.11969	4263.3375
2102.11299	4253.5375
2105.10435	4248.6375
2108.09379	4244.2375
2111.08131	4254.5375
2114.0669	4228.0375
2117.05057	4232.4375
2120.03233	4239.9375
2123.01216	4264.5375
2125.99008	4253.0375
2128.96609	4258.2375
2131.94018	4251.7375
2134.91236	4250.9375
2137.88263	4248.0375
2140.851	4254.0375
2143.81746	4257.2375
2146.78201	4236.8375
2149.74466	4236.9375
2152.7054	4234.9375
2155.66425	4236.0375
2158.6212	4224.2375
2161.57625	4231.1375
2164.52941	4219.8375
2167.48067	4227.8375
2170.43004	4231.4375
2173.37752	4238.5375
2176.32311	4223.1375
2179.26681	4226.5375
2182.20863	4224.4375
2185.14856	4211.8375
2188.08661	4201.9375
2191.02278	4201.1375
2193.95707	4187.5375
2196.88948	4180.7375
2199.82001	4199.5375
2202.74867	4183.6375
2205.67545	4163.2375
2208.60037	4162.3375
2211.52341	4162.7375
2214.44458	4155.2375
2217.36388	4153.0375
2220.28132	4130.7375
2223.1969	4110.8375
2226.11061	4099.2375
2229.02246	4099.2375
2231.93245	4088.5375
2234.84058	4088.5375
2237.74686	4077.0375
2240.65128	4066.9375
2243.55385	4076.6375
2246.45456	4046.2375
2249.35343	4055.3375
2252.25044	4060.7375
2255.14561	4063.6375
2258.03893	4045.9375
2260.93041	4045.7375
2263.82004	4032.1375
2266.70783	4038.3375
2269.59378	4018.6375
2272.4779	3994.1375
2275.36017	3988.8375
2278.24061	3972.5375
2281.11922	3958.8375
2283.996	3962.4375
2286.87094	3950.8375
2289.74405	3948.5375
2292.61534	3946.1375
2295.4848	3924.2375
2298.35243	3925.7375
2301.21824	3911.2375
2304.08223	3918.7375
2306.94439	3913.7375
2309.80474	3919.8375
2312.66327	3909.9375
2315.51999	3901.5375
2318.37489	3898.2375
2321.22797	3898.5375
2324.07925	3860.1375
2326.92871	3854.4375
2329.77637	3863.0375
2332.62222	3851.8375
2335.46626	3849.7375
2338.3085	3828.6375
2341.14893	3829.7375
2343.98756	3832.4375
2346.8244	3822.5375
2349.65943	3828.9375
2352.49267	3802.0375
2355.32411	3826.8375
2358.15376	3812.0375
2360.98161	3821.8375
2363.80768	3809.8375
2366.63195	3807.1375
2369.45444	3803.6375
2372.27514	3813.5375
2375.09405	3811.3375
2377.91118	3794.3375
2380.72652	3788.3375
2383.54009	3762.0375
2386.35187	3763.9375
2389.16188	3748.3375
2391.97011	3747.5375
2394.77657	3726.2375
2397.58125	3712.7375
2400.38416	3704.5375
2403.18529	3701.8375
2405.98466	3721.7375
2408.78226	3685.5375
2411.57809	3674.2375
2414.37216	3669.8375
2417.16446	3665.5375
2419.955	3674.7375
2422.74378	3668.4375
2425.5308	3665.3375
2428.31606	3663.3375
2431.09956	3651.7375
2433.88131	3648.8375
2436.6613	3635.6375
2439.43954	3649.1375
2442.21603	3649.6375
2444.99077	3644.8375
2447.76377	3626.0375
2450.53501	3627.0375
2453.30451	3631.5375
2456.07226	3635.4375
2458.83827	3620.0375
2461.60254	3620.8375
2464.36507	3623.0375
2467.12586	3610.0375
2469.88492	3605.6375
2472.64224	3596.1375
2475.39782	3607.7375
2478.15167	3597.0375
2480.90379	3594.6375
2483.65417	3602.2375
2486.40283	3595.6375
2489.14976	3606.8375
2491.89497	3608.0375
2494.63845	3594.0375
2497.3802	3584.5375
2500.12024	3579.9375
2502.85855	3579.5375
2505.59514	3565.4375
2508.33002	3566.9375
2511.06318	3550.3375
2513.79462	3529.9375
2516.52435	3525.9375
2519.25237	3502.9375
2521.97867	3513.1375
2524.70327	3506.6375
2527.42616	3493.1375
2530.14734	3497.1375
2532.86681	3504.3375
2535.58458	3504.3375
2538.30065	3499.6375
2541.01501	3488.6375
2543.72768	3462.3375
2546.43864	3471.7375
2549.14791	3456.5375
2551.85548	3465.5375
2554.56136	3453.6375
2557.26554	3452.3375
2559.96803	3446.3375
2562.66883	3434.9375
2565.36794	3425.8375
2568.06536	3415.3375
2570.7611	3418.4375
2573.45514	3390.5375
2576.14751	3394.8375
2578.83819	3361.4375
2581.52719	3358.1375
2584.21451	3367.0375
2586.90015	3357.9375
2589.58411	3357.2375
2592.2664	3343.2375
2594.94701	3330.6375
2597.62594	3339.2375
2600.30321	3338.8375
2602.9788	3341.7375
2605.65273	3330.7375
2608.32498	3332.4375
2610.99557	3324.4375
2613.66449	3322.7375
2616.33175	3313.9375
2618.99734	3301.3375
2621.66128	3281.4375
2624.32355	3295.2375
2626.98416	3281.4375
2629.64311	3262.1375
2632.30041	3257.1375
2634.95605	3255.6375
2637.61004	3240.0375
2640.26238	3227.0375
2642.91306	3223.2375
2645.56209	3236.3375
2648.20948	3230.0375
2650.85521	3240.5375
2653.4993	3223.5375
2656.14175	3229.9375
2658.78255	3218.8375
2661.42171	3224.6375
2664.05923	3219.3375
2666.6951	3223.7375
2669.32934	3226.8375
2671.96194	3223.8375
2674.59291	3217.3375
2677.22224	3213.7375
2679.84993	3210.9375
2682.476	3209.9375
2685.10043	3215.7375
2687.72324	3215.7375
2690.34441	3211.2375
2692.96396	3199.9375
2695.58188	3196.0375
2698.19818	3188.1375
2700.81285	3207.4375
2703.4259	3200.0375
2706.03733	3194.1375
2708.64714	3199.5375
2711.25533	3204.6375
2713.86191	3192.1375
2716.46687	3172.8375
2719.07021	3190.6375
2721.67194	3190.3375
2724.27206	3185.7375
2726.87057	3186.8375
2729.46747	3168.0375
2732.06276	3165.6375
2734.65644	3181.5375
2737.24852	3172.4375
2739.83899	3161.9375
2742.42786	3163.3375
2745.01513	3146.3375
2747.60079	3149.3375
2750.18486	3148.7375
2752.76733	3139.3375
2755.3482	3135.7375
2757.92747	3125.3375
2760.50515	3109.4375
2763.08123	3106.4375
2765.65573	3109.5375
2768.22863	3092.8375
2770.79994	3094.0375
2773.36967	3090.0375
2775.9378	3079.9375
2778.50435	3083.4375
2781.06932	3087.2375
2783.6327	3078.0375
2786.1945	3068.1375
2788.75471	3053.8375
2791.31335	3049.4375
2793.87041	3057.6375
2796.42589	3048.6375
2798.97979	3044.4375
2801.53212	3036.6375
2804.08288	3016.9375
2806.63206	3024.1375
2809.17967	3012.7375
2811.72571	3001.8375
2814.27018	2999.7375
2816.81308	2998.1375
2819.35442	3004.9375
2821.89419	2982.4375
2824.43239	2973.0375
2826.96904	2964.8375
2829.50412	2953.1375
2832.03763	2964.8375
2834.56959	2953.0375
2837.1	2950.7375
2839.62884	2937.7375
2842.15613	2932.3375
2844.68186	2928.3375
2847.20604	2922.3375
2849.72867	2930.7375
2852.24974	2916.2375
2854.76927	2910.1375
2857.28724	2906.6375
2859.80367	2901.0375
2862.31855	2893.4375
2864.83189	2907.3375
2867.34368	2902.9375
2869.85393	2912.9375
2872.36264	2875.1375
2874.8698	2894.7375
2877.37543	2888.1375
2879.87952	2878.4375
2882.38207	2877.5375
2884.88308	2869.1375
2887.38256	2871.0375
2889.88051	2849.6375
2892.37692	2857.2375
2894.8718	2848.7375
2897.36515	2836.7375
2899.85698	2843.0375
2902.34727	2854.8375
2904.83604	2849.0375
2907.32328	2856.2375
2909.809	2852.0375
2912.29319	2863.9375
2914.77587	2854.3375
2917.25702	2857.6375
2919.73665	2861.0375
2922.21476	2857.3375
2924.69136	2848.2375
2927.16644	2839.9375
2929.64	2844.8375
2932.11205	2828.9375
2934.58258	2819.6375
2937.05161	2815.9375
2939.51912	2822.0375
2941.98513	2825.9375
2944.44962	2799.2375
2946.91261	2796.3375
2949.37409	2812.5375
2951.83407	2800.9375
2954.29254	2802.4375
2956.74951	2796.9375
2959.20498	2788.4375
2961.65895	2781.7375
2964.11142	2782.1375
2966.56239	2761.5375
2969.01186	2776.9375
2971.45984	2786.8375
2973.90632	2773.8375
2976.35131	2759.3375
2978.7948	2760.4375
2981.23681	2747.7375
2983.67732	2741.9375
2986.11635	2758.3375
2988.55388	2732.9375
2990.98993	2736.9375
2993.4245	2715.3375
2995.85758	2724.8375
2998.28917	2712.4375
3000.71928	2720.2375
3003.14791	2710.1375
3005.57506	2695.5375
3008.00073	2698.3375
3010.42493	2686.4375
3012.84764	2686.5375
3015.26888	2671.3375
3017.68865	2663.0375
3020.10694	2666.0375
3022.52376	2655.9375
3024.9391	2643.0375
3027.35298	2646.0375
3029.76539	2639.6375
3032.17632	2629.1375
3034.5858	2608.4375
3036.9938	2602.8375
3039.40034	2600.7375
3041.80542	2603.3375
3044.20903	2592.1375
3046.61118	2596.1375
3049.01187	2577.6375
3051.4111	2567.4375
3053.80888	2566.4375
3056.20519	2564.3375
3058.60005	2557.4375
3060.99345	2559.5375
3063.3854	2556.0375
3065.7759	2538.4375
3068.16494	2553.2375
3070.55254	2530.4375
3072.93868	2522.1375
3075.32338	2500.9375
3077.70662	2513.5375
3080.08842	2516.2375
3082.46878	2500.6375
3084.84769	2485.5375
3087.22515	2483.9375
3089.60118	2478.2375
3091.97576	2481.5375
3094.3489	2470.8375
3096.72061	2474.5375
3099.09087	2477.3375
3101.4597	2480.7375
3103.82709	2453.4375
3106.19305	2466.3375
3108.55757	2455.6375
3110.92066	2456.5375
3113.28232	2450.4375
3115.64255	2440.6375
3118.00134	2442.3375
3120.35871	2431.8375
3122.71466	2430.7375
3125.06917	2421.4375
