Data from AgNPs_UA_5uM_CRN_500uM_SU_RamanShift__109__11-47-33-161.txt Node

Date: Thu Aug 04 11:47:33 BST 2022
User: TCL
Spectrometer: QEP01345
Trigger mode: 4
Integration Time (sec): 1.000000E0
Scans to average: 10
Electric dark correction enabled: true
Nonlinearity correction enabled: false
Boxcar width: 0
XAxis mode: Raman Shifts
Number of Pixels in Spectrum: 1044
>>>>>Begin Spectral Data<<<<<
46.04893	-0.15
50.45542	0.65
54.85868	0.25
59.25871	-1.35
63.6555	-63.85
68.04907	-43.05
72.43941	-76.55
76.82654	-61.85
81.21044	-60.45
85.59113	-54.65
89.96862	-78.35
94.34289	-58.65
98.71396	-80.65
103.08183	-64.45
107.4465	-52.85
111.80798	-61.95
116.16626	-51.75
120.52136	-80.95
124.87327	-56.15
129.222	-71.05
133.56755	-58.85
137.90993	-71.55
142.24913	-60.85
146.58517	-56.05
150.91804	-55.25
155.24774	-47.55
159.57429	-32.75
163.89768	-38.55
168.21792	-5.35
172.53501	-4.55
176.84895	51.45
181.15975	139.25
185.46741	231.95
189.77193	341.15
194.07331	540.85
198.37157	722.15
202.6667	899.65
206.9587	1102.55
211.24758	1296.35
215.53334	1501.95
219.81599	1707.35
224.09553	1956.45
228.37195	2210.35
232.64527	2494.35
236.91549	2799.85
241.18261	3071.05
245.44663	3325.95
249.70755	3512.65
253.96539	3647.55
258.22014	3747.45
262.4718	3789.55
266.72039	3801.45
270.96589	3776.25
275.20832	3725.25
279.44768	3657.45
283.68397	3591.55
287.91719	3531.25
292.14735	3492.75
296.37445	3513.65
300.59849	3566.45
304.81948	3603.95
309.03742	3665.45
313.25231	3718.45
317.46415	3731.05
321.67296	3615.35
325.87872	3533.55
330.08145	3520.85
334.28114	3535.25
338.47781	3567.75
342.67145	3625.85
346.86207	3706.95
351.04966	3817.45
355.23424	3933.95
359.4158	4054.95
363.59435	4066.15
367.76989	4109.25
371.94243	4121.85
376.11196	4139.75
380.27849	4183.85
384.44203	4191.25
388.60257	4191.95
392.76012	4237.55
396.91468	4302.15
401.06626	4371.65
405.21485	4387.75
409.36047	4364.65
413.50311	4316.05
417.64277	4270.25
421.77947	4204.65
425.9132	4211.15
430.04396	4208.35
434.17176	4254.25
438.2966	4327.95
442.41849	4380.65
446.53742	4437.35
450.6534	4513.35
454.76644	4558.45
458.87653	4617.95
462.98368	4666.45
467.08789	4662.35
471.18916	4661.05
475.2875	4643.85
479.38291	4605.15
483.4754	4544.25
487.56496	4526.45
491.6516	4469.25
495.73531	4492.05
499.81612	4476.55
503.89401	4536.65
507.96899	4542.55
512.04106	4562.15
516.11023	4605.25
520.1765	4635.15
524.23987	4637.55
528.30034	4668.45
532.35792	4646.05
536.41261	4674.75
540.46441	4653.55
544.51333	4636.65
548.55936	4651.65
552.60252	4709.55
556.64279	4730.05
560.6802	4819.05
564.71473	4830.65
568.7464	4874.55
572.7752	4855.15
576.80114	4787.25
580.82422	4750.45
584.84444	4741.35
588.86181	4760.35
592.87633	4780.65
596.888	4826.65
600.89682	4962.45
604.9028	5270.55
608.90594	5826.45
612.90624	6422.05
616.90371	6150.55
620.89834	5384.55
624.89015	5096.55
628.87913	5030.35
632.86528	5083.15
636.84862	5121.95
640.82913	5091.15
644.80683	5002.65
648.78172	4971.05
652.75379	4993.75
656.72306	5080.45
660.68952	5140.75
664.65319	5147.05
668.61405	5101.65
672.57211	5132.45
676.52738	5155.35
680.47986	5140.25
684.42955	5109.85
688.37646	5075.85
692.32058	5067.25
696.26192	5119.55
700.20048	5171.65
704.13626	5169.45
708.06928	5149.35
711.99952	5133.65
715.927	5108.35
719.85171	5130.55
723.77365	5167.25
727.69284	5156.75
731.60928	5187.95
735.52295	5166.95
739.43388	5205.95
743.34206	5211.75
747.24749	5221.45
751.15017	5226.95
755.05012	5228.55
758.94733	5346.35
762.8418	5539.45
766.73354	5842.85
770.62254	6097.45
774.50882	6137.45
778.39237	6051.85
782.27321	5859.35
786.15132	5603.35
790.02671	5415.15
793.89938	5284.15
797.76935	5270.05
801.6366	5246.15
805.50115	5223.35
809.36299	5249.35
813.22213	5267.25
817.07857	5266.35
820.93231	5254.05
824.78336	5281.95
828.63172	5280.95
832.47738	5280.85
836.32036	5317.85
840.16066	5306.35
843.99827	5325.85
847.8332	5315.95
851.66546	5327.45
855.49504	5332.45
859.32195	5378.25
863.1462	5351.45
866.96777	5384.05
870.78668	5359.15
874.60293	5400.35
878.41652	5388.25
882.22745	5418.55
886.03573	5441.85
889.84136	5424.35
893.64433	5455.25
897.44466	5426.25
901.24235	5443.95
905.0374	5452.45
908.8298	5431.35
912.61957	5419.25
916.40671	5398.85
920.19121	5419.85
923.97308	5481.15
927.75233	5460.55
931.52895	5463.35
935.30295	5493.75
939.07433	5462.45
942.84309	5409.15
946.60924	5408.45
950.37278	5397.75
954.13371	5387.25
957.89203	5387.15
961.64774	5429.95
965.40086	5399.85
969.15137	5369.45
972.89929	5394.75
976.64461	5394.25
980.38733	5414.15
984.12747	5399.25
987.86502	5402.75
991.59999	5445.35
995.33237	5491.55
999.06217	5532.95
1002.78939	5578.75
1006.51404	5626.65
1010.23611	5713.95
1013.95561	5766.55
1017.67255	5778.95
1021.38692	5799.45
1025.09872	5795.85
1028.80796	5736.95
1032.51465	5731.45
1036.21877	5714.75
1039.92035	5758.75
1043.61937	5759.35
1047.31584	5781.85
1051.00976	5802.95
1054.70114	5815.95
1058.38998	5833.25
1062.07627	5847.45
1065.76003	5883.35
1069.44126	5929.35
1073.11995	5969.75
1076.79611	6011.15
1080.46974	6072.35
1084.14085	6080.75
1087.80943	6071.25
1091.47549	6115.95
1095.13903	6107.75
1098.80005	6131.75
1102.45857	6124.15
1106.11456	6111.35
1109.76805	6026.45
1113.41903	6079.55
1117.06751	6107.75
1120.71348	6154.95
1124.35696	6231.25
1127.99793	6300.05
1131.63641	6284.45
1135.2724	6205.65
1138.90589	6134.25
1142.5369	6074.05
1146.16542	6060.85
1149.79145	6001.15
1153.415	5981.25
1157.03607	5929.25
1160.65467	5963.85
1164.27079	6059.75
1167.88443	6105.95
1171.49561	6239.85
1175.10432	6385.75
1178.71056	6627.15
1182.31434	6859.75
1185.91565	7004.65
1189.51451	7072.15
1193.11091	7094.85
1196.70485	7093.05
1200.29634	7051.85
1203.88538	6924.65
1207.47197	6789.05
1211.05612	6635.65
1214.63782	6504.25
1218.21708	6434.15
1221.79391	6345.05
1225.36829	6263.95
1228.94024	6275.85
1232.50976	6284.55
1236.07685	6308.45
1239.6415	6326.15
1243.20374	6346.05
1246.76355	6365.35
1250.32093	6420.85
1253.8759	6445.05
1257.42845	6557.15
1260.97859	6655.25
1264.52631	6747.05
1268.07163	6756.85
1271.61453	6810.85
1275.15503	6833.05
1278.69312	6834.95
1282.22882	6897.05
1285.76211	6946.85
1289.29301	6993.05
1292.82151	7064.95
1296.34761	7141.65
1299.87133	7254.15
1303.39266	7468.45
1306.9116	7739.05
1310.42815	8057.15
1313.94233	8229.85
1317.45412	8109.65
1320.96354	7913.65
1324.47058	7732.45
1327.97525	7560.95
1331.47754	7474.95
1334.97747	7441.95
1338.47502	7488.95
1341.97022	7614.35
1345.46305	7855.85
1348.95352	8125.85
1352.44163	8462.25
1355.92738	8719.75
1359.41078	9028.05
1362.89183	9199.45
1366.37053	8895.95
1369.84688	8140.45
1373.32088	7476.75
1376.79254	7138.95
1380.26186	6906.15
1383.72883	6779.25
1387.19347	6641.85
1390.65578	6524.65
1394.11575	6438.05
1397.57339	6371.05
1401.0287	6348.45
1404.48168	6354.55
1407.93234	6397.15
1411.38068	6440.35
1414.82669	6489.75
1418.27039	6534.35
1421.71177	6548.45
1425.15083	6489.65
1428.58758	6461.75
1432.02203	6461.65
1435.45416	6492.15
1438.88399	6472.35
1442.31151	6449.95
1445.73673	6504.95
1449.15965	6540.45
1452.58027	6547.15
1455.9986	6553.35
1459.41463	6569.75
1462.82837	6610.95
1466.23982	6693.85
1469.64898	6773.25
1473.05586	6798.05
1476.46045	6830.05
1479.86276	6842.05
1483.26279	6864.65
1486.66054	6935.25
1490.05602	7000.35
1493.44922	7167.25
1496.84016	7421.65
1500.22882	7812.95
1503.61521	8220.55
1506.99934	8586.55
1510.38121	8816.25
1513.76081	8738.45
1517.13816	8393.15
1520.51324	7868.45
1523.88607	7471.85
1527.25665	7244.65
1530.62498	7094.65
1533.99105	7059.75
1537.35488	7054.95
1540.71647	7066.65
1544.07581	7033.85
1547.4329	7015.25
1550.78776	6949.25
1554.14038	6881.45
1557.49077	6850.05
1560.83892	6852.95
1564.18484	6882.05
1567.52853	6919.85
1570.86999	6958.15
1574.20922	6984.75
1577.54624	6945.25
1580.88103	6817.55
1584.2136	6665.15
1587.54395	6630.85
1590.87208	6669.75
1594.19801	6724.85
1597.52172	6906.25
1600.84321	7042.55
1604.16251	7038.95
1607.47959	6991.95
1610.79447	6924.75
1614.10715	6766.95
1617.41763	6619.55
1620.7259	6463.65
1624.03199	6369.15
1627.33587	6343.25
1630.63757	6321.45
1633.93707	6456.95
1637.23439	6646.05
1640.52951	6965.45
1643.82246	7333.25
1647.11321	7689.75
1650.40179	7824.85
1653.68819	7595.45
1656.97241	7150.65
1660.25446	6674.65
1663.53433	6305.35
1666.81203	6084.85
1670.08756	5925.25
1673.36092	5839.05
1676.63211	5745.35
1679.90115	5743.65
1683.16801	5655.95
1686.43272	5614.95
1689.69527	5574.35
1692.95567	5548.05
1696.2139	5539.45
1699.46999	5502.15
1702.72392	5516.65
1705.97571	5522.95
1709.22535	5499.75
1712.47284	5533.75
1715.71819	5529.55
1718.96139	5518.65
1722.20246	5546.35
1725.44139	5510.55
1728.67818	5506.05
1731.91284	5476.75
1735.14537	5473.35
1738.37576	5460.25
1741.60403	5451.25
1744.83017	5442.35
1748.05418	5447.95
1751.27607	5469.45
1754.49584	5431.15
1757.71349	5402.95
1760.92903	5418.35
1764.14244	5381.15
1767.35375	5380.85
1770.56294	5368.55
1773.77002	5365.65
1776.97499	5373.35
1780.17785	5368.25
1783.37861	5350.95
1786.57727	5399.05
1789.77382	5320.45
1792.96828	5359.55
1796.16064	5360.65
1799.3509	5339.55
1802.53907	5344.85
1805.72514	5333.75
1808.90913	5306.85
1812.09102	5301.15
1815.27083	5299.05
1818.44856	5278.65
1821.6242	5299.55
1824.79776	5280.95
1827.96924	5284.75
1831.13864	5243.75
1834.30597	5263.25
1837.47122	5253.55
1840.6344	5237.35
1843.7955	5225.25
1846.95454	5214.35
1850.11151	5233.75
1853.26642	5211.15
1856.41926	5207.35
1859.57004	5212.95
1862.71876	5210.35
1865.86542	5217.65
1869.01003	5208.55
1872.15258	5171.65
1875.29308	5195.35
1878.43152	5201.45
1881.56792	5175.65
1884.70227	5136.25
1887.83457	5156.65
1890.96482	5140.45
1894.09304	5134.75
1897.21921	5153.35
1900.34335	5145.55
1903.46544	5125.95
1906.58551	5132.25
1909.70353	5124.35
1912.81953	5126.65
1915.93349	5087.75
1919.04543	5104.35
1922.15534	5082.55
1925.26322	5087.65
1928.36908	5067.95
1931.47292	5082.85
1934.57473	5084.55
1937.67453	5055.45
1940.77232	5030.85
1943.86808	5025.15
1946.96184	5035.65
1950.05358	5005.55
1953.14331	4983.95
1956.23103	4992.95
1959.31675	4953.55
1962.40046	4911.45
1965.48217	4925.35
1968.56188	4926.65
1971.63959	4919.75
1974.7153	4912.25
1977.78901	4882.55
1980.86073	4855.65
1983.93046	4835.75
1986.99819	4762.75
1990.06394	4794.25
1993.1277	4812.65
1996.18947	4785.85
1999.24925	4771.55
2002.30706	4769.15
2005.36288	4763.25
2008.41672	4737.25
2011.46859	4708.85
2014.51848	4703.15
2017.56639	4705.65
2020.61233	4652.65
2023.6563	4667.75
2026.6983	4639.55
2029.73833	4635.95
2032.7764	4647.95
2035.8125	4595.85
2038.84664	4597.45
2041.87881	4575.75
2044.90903	4610.15
2047.93729	4587.65
2050.96359	4563.65
2053.98794	4565.95
2057.01034	4576.25
2060.03078	4557.35
2063.04927	4574.15
2066.06582	4559.15
2069.08042	4553.65
2072.09307	4552.25
2075.10378	4539.95
2078.11255	4529.25
2081.11938	4537.35
2084.12426	4534.25
2087.12722	4533.55
2090.12824	4531.05
2093.12732	4527.15
2096.12447	4549.15
2099.11969	4526.65
2102.11299	4521.95
2105.10435	4537.15
2108.09379	4540.35
2111.08131	4517.55
2114.0669	4544.95
2117.05057	4541.35
2120.03233	4523.65
2123.01216	4542.75
2125.99008	4545.35
2128.96609	4535.45
2131.94018	4557.05
2134.91236	4551.95
2137.88263	4542.35
2140.851	4553.35
2143.81746	4568.85
2146.78201	4560.45
2149.74466	4560.55
2152.7054	4575.65
2155.66425	4558.45
2158.6212	4542.25
2161.57625	4536.45
2164.52941	4503.85
2167.48067	4529.45
2170.43004	4519.85
2173.37752	4539.15
2176.32311	4531.25
2179.26681	4533.95
2182.20863	4545.55
2185.14856	4540.55
2188.08661	4527.95
2191.02278	4535.85
2193.95707	4504.15
2196.88948	4507.45
2199.82001	4515.05
2202.74867	4504.55
2205.67545	4500.55
2208.60037	4517.85
2211.52341	4497.65
2214.44458	4484.25
2217.36388	4478.85
2220.28132	4459.75
2223.1969	4425.85
2226.11061	4441.55
2229.02246	4438.15
2231.93245	4437.45
2234.84058	4410.95
2237.74686	4415.05
2240.65128	4390.05
2243.55385	4399.65
2246.45456	4388.55
2249.35343	4381.95
2252.25044	4367.95
2255.14561	4365.95
2258.03893	4361.55
2260.93041	4332.55
2263.82004	4339.05
2266.70783	4340.15
2269.59378	4322.15
2272.4779	4299.35
2275.36017	4297.65
2278.24061	4301.45
2281.11922	4246.55
2283.996	4274.35
2286.87094	4262.05
2289.74405	4260.75
2292.61534	4255.55
2295.4848	4252.55
2298.35243	4226.15
2301.21824	4238.35
2304.08223	4217.75
2306.94439	4228.35
2309.80474	4226.75
2312.66327	4231.05
2315.51999	4201.85
2318.37489	4198.65
2321.22797	4182.45
2324.07925	4179.95
2326.92871	4192.45
2329.77637	4164.35
2332.62222	4147.25
2335.46626	4127.25
2338.3085	4127.05
2341.14893	4147.65
2343.98756	4146.25
2346.8244	4113.45
2349.65943	4105.75
2352.49267	4097.45
2355.32411	4116.55
2358.15376	4106.55
2360.98161	4111.05
2363.80768	4074.35
2366.63195	4094.75
2369.45444	4094.45
2372.27514	4090.45
2375.09405	4087.75
2377.91118	4061.95
2380.72652	4059.85
2383.54009	4060.65
2386.35187	4056.15
2389.16188	4035.05
2391.97011	4034.85
2394.77657	4027.45
2397.58125	4018.95
2400.38416	4022.85
2403.18529	4011.25
2405.98466	3988.65
2408.78226	3996.55
2411.57809	3980.55
2414.37216	3966.65
2417.16446	3974.75
2419.955	3941.15
2422.74378	3973.85
2425.5308	3943.85
2428.31606	3955.85
2431.09956	3956.35
2433.88131	3936.35
2436.6613	3928.95
2439.43954	3928.95
2442.21603	3922.45
2444.99077	3910.05
2447.76377	3915.95
2450.53501	3906.85
2453.30451	3887.75
2456.07226	3904.15
2458.83827	3874.55
2461.60254	3835.75
2464.36507	3877.15
2467.12586	3850.15
2469.88492	3885.35
2472.64224	3854.25
2475.39782	3847.05
2478.15167	3853.25
2480.90379	3838.95
2483.65417	3848.85
2486.40283	3854.05
2489.14976	3848.55
2491.89497	3826.25
2494.63845	3832.95
2497.3802	3811.75
2500.12024	3808.45
2502.85855	3811.15
2505.59514	3812.95
2508.33002	3807.75
2511.06318	3789.75
2513.79462	3811.15
2516.52435	3769.45
2519.25237	3769.25
2521.97867	3754.25
2524.70327	3762.85
2527.42616	3769.15
2530.14734	3764.75
2532.86681	3749.15
2535.58458	3742.05
2538.30065	3729.25
2541.01501	3752.85
2543.72768	3720.45
2546.43864	3724.15
2549.14791	3709.75
2551.85548	3688.05
2554.56136	3684.35
2557.26554	3688.25
2559.96803	3678.25
2562.66883	3686.15
2565.36794	3664.95
2568.06536	3635.05
2570.7611	3657.25
2573.45514	3643.35
2576.14751	3635.95
2578.83819	3600.55
2581.52719	3609.45
2584.21451	3598.65
2586.90015	3593.65
2589.58411	3570.95
2592.2664	3586.05
2594.94701	3575.35
2597.62594	3579.65
2600.30321	3511.85
2602.9788	3532.45
2605.65273	3525.25
2608.32498	3534.55
2610.99557	3545.75
2613.66449	3501.85
2616.33175	3521.85
2618.99734	3537.55
2621.66128	3529.05
2624.32355	3500.75
2626.98416	3487.05
2629.64311	3483.15
2632.30041	3473.45
2634.95605	3463.45
2637.61004	3449.55
2640.26238	3445.95
2642.91306	3456.05
2645.56209	3475.15
2648.20948	3447.85
2650.85521	3446.75
2653.4993	3463.45
2656.14175	3440.35
2658.78255	3425.75
2661.42171	3402.05
2664.05923	3451.45
2666.6951	3438.75
2669.32934	3462.05
2671.96194	3463.35
2674.59291	3417.75
2677.22224	3430.65
2679.84993	3442.65
2682.476	3426.25
2685.10043	3427.15
2687.72324	3420.05
2690.34441	3412.25
2692.96396	3426.45
2695.58188	3435.15
2698.19818	3414.35
2700.81285	3399.25
2703.4259	3401.15
2706.03733	3366.45
2708.64714	3382.15
2711.25533	3406.55
2713.86191	3400.85
2716.46687	3404.85
2719.07021	3396.45
2721.67194	3392.65
2724.27206	3402.75
2726.87057	3382.65
2729.46747	3386.35
2732.06276	3393.15
2734.65644	3379.35
2737.24852	3366.85
2739.83899	3346.05
2742.42786	3371.55
2745.01513	3380.45
2747.60079	3360.35
2750.18486	3340.25
2752.76733	3344.75
2755.3482	3334.85
2757.92747	3342.25
2760.50515	3323.05
2763.08123	3309.55
2765.65573	3321.15
2768.22863	3320.95
2770.79994	3292.95
2773.36967	3283.75
2775.9378	3276.35
2778.50435	3281.15
2781.06932	3283.45
2783.6327	3266.65
2786.1945	3288.55
2788.75471	3256.35
2791.31335	3267.95
2793.87041	3255.45
2796.42589	3231.15
2798.97979	3221.45
2801.53212	3237.25
2804.08288	3236.75
2806.63206	3209.15
2809.17967	3186.55
2811.72571	3206.65
2814.27018	3183.65
2816.81308	3192.65
2819.35442	3152.05
2821.89419	3159.05
2824.43239	3151.25
2826.96904	3174.85
2829.50412	3152.05
2832.03763	3151.55
2834.56959	3164.85
2837.1	3137.85
2839.62884	3145.15
2842.15613	3123.05
2844.68186	3150.45
2847.20604	3103.65
2849.72867	3098.05
2852.24974	3105.35
2854.76927	3070.25
2857.28724	3034.15
2859.80367	3086.65
2862.31855	3080.35
2864.83189	3063.55
2867.34368	3067.45
2869.85393	3071.35
2872.36264	3035.75
2874.8698	3037.25
2877.37543	3046.95
2879.87952	3045.15
2882.38207	3033.05
2884.88308	3036.45
2887.38256	3044.45
2889.88051	3039.55
2892.37692	3024.75
2894.8718	3014.35
2897.36515	3044.25
2899.85698	3033.55
2902.34727	3016.65
2904.83604	3034.95
2907.32328	3037.55
2909.809	3033.55
2912.29319	3024.35
2914.77587	3030.65
2917.25702	3041.25
2919.73665	3045.75
2922.21476	3041.05
2924.69136	3046.45
2927.16644	3019.05
2929.64	3034.95
2932.11205	3022.45
2934.58258	3007.95
2937.05161	3011.65
2939.51912	3014.85
2941.98513	3035.95
2944.44962	3013.65
2946.91261	2980.45
2949.37409	2995.15
2951.83407	2989.15
2954.29254	2999.45
2956.74951	2995.15
2959.20498	2970.15
2961.65895	2995.65
2964.11142	2980.05
2966.56239	2973.35
2969.01186	2971.85
2971.45984	2974.95
2973.90632	2957.85
2976.35131	2954.15
2978.7948	2958.05
2981.23681	2945.75
2983.67732	2947.85
2986.11635	2949.95
2988.55388	2904.35
2990.98993	2914.35
2993.4245	2904.35
2995.85758	2891.45
2998.28917	2887.45
3000.71928	2882.65
3003.14791	2866.35
3005.57506	2848.35
3008.00073	2850.05
3010.42493	2794.45
3012.84764	2851.85
3015.26888	2848.85
3017.68865	2837.95
3020.10694	2798.65
3022.52376	2824.65
3024.9391	2813.65
3027.35298	2798.05
3029.76539	2784.35
3032.17632	2788.75
3034.5858	2783.65
3036.9938	2789.85
3039.40034	2778.95
3041.80542	2771.05
3044.20903	2751.95
3046.61118	2742.65
3049.01187	2761.35
3051.4111	2751.95
3053.80888	2736.85
3056.20519	2715.75
3058.60005	2706.75
3060.99345	2731.15
3063.3854	2711.35
3065.7759	2692.25
3068.16494	2692.05
3070.55254	2668.55
3072.93868	2689.25
3075.32338	2685.75
3077.70662	2665.85
3080.08842	2649.15
3082.46878	2644.45
3084.84769	2657.65
3087.22515	2637.85
3089.60118	2661.25
3091.97576	2641.25
3094.3489	2659.55
3096.72061	2651.35
3099.09087	2636.35
3101.4597	2646.15
3103.82709	2638.35
3106.19305	2620.45
3108.55757	2627.55
3110.92066	2610.45
3113.28232	2635.75
3115.64255	2610.45
3118.00134	2613.75
3120.35871	2580.75
3122.71466	2587.55
3125.06917	2584.05
3127.42226	2571.05
3129.77393	2560.85
3132.12417	2575.45
3134.47299	2571.45
3136.82039	2553.65
3139.16636	2537.95
3141.51092	2544.95
3143.85406	2563.15
3146.19579	2530.25
3148.53609	2530.95
3150.87499	2547.45
3153.21246	2550.25
3155.54853	2547.15
3157.88318	2545.95
3160.21642	2542.65
3162.54826	2535.65
3164.87868	2537.75
3167.2077	2501.65
3169.5353	2531.25
3171.86151	2533.05
3174.18631	2510.65
3176.5097	2516.85
3178.83169	2515.15
3181.15228	2511.05
3183.47147	2494.55
3185.78926	2469.45
3188.10565	2483.05
3190.42065	2467.35
3192.73424	2484.95
3195.04645	2472.35
3197.35725	2453.85
3199.66667	2477.15
3201.97469	2462.65
3204.28132	2445.65
3206.58656	2457.75
3208.8904	2466.65
3211.19287	2457.15
3213.49394	2449.15
3215.79363	2428.65
3218.09193	2455.15
3220.38884	2446.35
3222.68438	2443.25
3224.97853	2429.75
3227.2713	2452.85
3229.56269	2432.05
3231.8527	2421.15
3234.14133	2413.95
3236.42858	2406.95
3238.71446	2384.15
3240.99896	2407.75
3243.28209	2393.95
3245.56384	2399.95
3247.84423	2383.75
3250.12324	2383.65
3252.40088	2381.35
3254.67715	2376.25
3256.95205	2367.35
3259.22558	2383.85
3261.49775	2376.15
3263.76855	2376.05
3266.03799	2367.85
3268.30606	2370.45
3270.57277	2370.15
3272.83812	2335.15
3275.10211	2348.65
3277.36474	2357.85
3279.62601	2346.75
3281.88593	2333.35
3284.14448	2311.75
3286.40168	2320.25
3288.65753	2316.75
3290.91202	2309.05
3293.16516	2293.35
3295.41695	2305.35
3297.66738	2304.25
3299.91647	2286.65
3302.16421	2284.45
3304.4106	2227.35
3306.65564	2250.45
3308.89933	2202.95
3311.14169	2213.85
3313.38269	2198.05
3315.62236	2168.95
3317.86068	2157.25
3320.09766	2155.05
3322.3333	2108.45
3324.5676	2105.15
3326.80056	2063.25
3329.03219	2060.85
3331.26248	-1.15
3333.49143	0.15
3335.71905	1.15
