Data from AgNPs_UA_5uM_CRN_500uM_SU_RamanShift__9__11-30-53-140.txt Node

Date: Thu Aug 04 11:30:53 BST 2022
User: TCL
Spectrometer: QEP01345
Trigger mode: 4
Integration Time (sec): 1.000000E0
Scans to average: 10
Electric dark correction enabled: true
Nonlinearity correction enabled: false
Boxcar width: 0
XAxis mode: Raman Shifts
Number of Pixels in Spectrum: 1044
>>>>>Begin Spectral Data<<<<<
46.04893	0.6125
50.45542	0.0125
54.85868	-0.0875
59.25871	-1.1875
63.6555	-55.9875
68.04907	-39.2875
72.43941	-69.1875
76.82654	-53.5875
81.21044	-54.9875
85.59113	-46.4875
89.96862	-72.3875
94.34289	-52.0875
98.71396	-73.9875
103.08183	-54.0875
107.4465	-45.6875
111.80798	-51.2875
116.16626	-40.8875
120.52136	-68.7875
124.87327	-44.6875
129.222	-55.5875
133.56755	-40.5875
137.90993	-52.8875
142.24913	-36.3875
146.58517	-27.1875
150.91804	-23.0875
155.24774	-5.3875
159.57429	24.8125
163.89768	40.0125
168.21792	105.4125
172.53501	154.7125
176.84895	284.9125
181.15975	473.5125
185.46741	711.4125
189.77193	1003.0125
194.07331	1431.1125
198.37157	1889.7125
202.6667	2344.4125
206.9587	2877.5125
211.24758	3424.7125
215.53334	4054.5125
219.81599	4761.0125
224.09553	5588.8125
228.37195	6450.7125
232.64527	7239.4125
236.91549	7896.2125
241.18261	8225.8125
245.44663	8314.9125
249.70755	8238.9125
253.96539	8229.7125
258.22014	8265.9125
262.4718	8348.5125
266.72039	8299.1125
270.96589	8098.1125
275.20832	7762.4125
279.44768	7422.4125
283.68397	7150.4125
287.91719	7079.3125
292.14735	7257.2125
296.37445	7810.2125
300.59849	8811.1125
304.81948	10182.6125
309.03742	11760.3125
313.25231	12884.4125
317.46415	12759.7125
321.67296	11157.2125
325.87872	9319.9125
330.08145	8225.3125
334.28114	7990.5125
338.47781	8279.7125
342.67145	8866.6125
346.86207	9832.3125
351.04966	11323.9125
355.23424	12821.3125
359.4158	13398.9125
363.59435	12889.5125
367.76989	11983.1125
371.94243	11081.6125
376.11196	10350.5125
380.27849	9802.7125
384.44203	9413.4125
388.60257	9173.1125
392.76012	9194.3125
396.91468	9504.1125
401.06626	9899.7125
405.21485	9933.9125
409.36047	9267.6125
413.50311	8183.9125
417.64277	7132.8125
421.77947	6459.2125
425.9132	6163.7125
430.04396	6036.7125
434.17176	5992.3125
438.2966	6118.4125
442.41849	6346.4125
446.53742	6538.0125
450.6534	6675.4125
454.76644	6668.9125
458.87653	6556.8125
462.98368	6399.3125
467.08789	6244.0125
471.18916	6033.2125
475.2875	5740.0125
479.38291	5489.2125
483.4754	5332.2125
487.56496	5259.0125
491.6516	5188.5125
495.73531	5186.3125
499.81612	5252.2125
503.89401	5450.5125
507.96899	5657.5125
512.04106	5929.7125
516.11023	6220.6125
520.1765	6453.3125
524.23987	6530.7125
528.30034	6500.4125
532.35792	6341.5125
536.41261	6171.8125
540.46441	5930.9125
544.51333	5756.8125
548.55936	5739.8125
552.60252	5903.5125
556.64279	6125.2125
560.6802	6569.7125
564.71473	7568.1125
568.7464	8865.5125
572.7752	8790.3125
576.80114	7141.1125
580.82422	5801.3125
584.84444	5239.5125
588.86181	5059.3125
592.87633	5054.2125
596.888	5259.7125
600.89682	6069.4125
604.9028	8763.6125
608.90594	15673.6125
612.90624	24136.6125
616.90371	21853.1125
620.89834	11418.4125
624.89015	6858.9125
628.87913	6339.3125
632.86528	6979.0125
636.84862	7287.4125
640.82913	6505.3125
644.80683	5391.3125
648.78172	4899.8125
652.75379	5084.3125
656.72306	5881.6125
660.68952	6654.4125
664.65319	6229.2125
668.61405	5152.9125
672.57211	4713.1125
676.52738	4697.9125
680.47986	4660.3125
684.42955	4516.2125
688.37646	4430.9125
692.32058	4426.1125
696.26192	4505.4125
700.20048	4626.1125
704.13626	4665.6125
708.06928	4594.0125
711.99952	4559.7125
715.927	4607.2125
719.85171	4820.4125
723.77365	4975.9125
727.69284	4819.7125
731.60928	4688.7125
735.52295	4619.1125
739.43388	4692.5125
743.34206	4732.6125
747.24749	4730.2125
751.15017	4767.6125
755.05012	5108.2125
758.94733	6470.9125
762.8418	9558.1125
766.73354	13566.1125
770.62254	15537.4125
774.50882	14698.8125
778.39237	13188.6125
782.27321	10908.2125
786.15132	7919.0125
790.02671	5915.5125
793.89938	5006.9125
797.76935	4701.7125
801.6366	4545.4125
805.50115	4463.0125
809.36299	4433.8125
813.22213	4397.4125
817.07857	4394.9125
820.93231	4440.4125
824.78336	4523.1125
828.63172	4672.3125
832.47738	4722.5125
836.32036	4616.6125
840.16066	4398.1125
843.99827	4262.8125
847.8332	4224.6125
851.66546	4216.2125
855.49504	4181.5125
859.32195	4180.5125
863.1462	4132.0125
866.96777	4124.8125
870.78668	4120.2125
874.60293	4162.9125
878.41652	4223.6125
882.22745	4377.5125
886.03573	4471.8125
889.84136	4430.9125
893.64433	4397.5125
897.44466	4422.9125
901.24235	4439.9125
905.0374	4319.0125
908.8298	4153.4125
912.61957	4034.7125
916.40671	3949.5125
920.19121	3988.1125
923.97308	4207.8125
927.75233	4622.5125
931.52895	5054.8125
935.30295	4809.5125
939.07433	4198.0125
942.84309	3796.3125
946.60924	3651.5125
950.37278	3594.3125
954.13371	3565.9125
957.89203	3561.1125
961.64774	3578.8125
965.40086	3545.2125
969.15137	3520.2125
972.89929	3558.1125
976.64461	3511.5125
980.38733	3519.9125
984.12747	3509.2125
987.86502	3517.8125
991.59999	3540.6125
995.33237	3639.1125
999.06217	3716.1125
1002.78939	3916.2125
1006.51404	4232.4125
1010.23611	4357.7125
1013.95561	4216.6125
1017.67255	4008.7125
1021.38692	3846.6125
1025.09872	3702.1125
1028.80796	3621.2125
1032.51465	3666.0125
1036.21877	3702.5125
1039.92035	3799.8125
1043.61937	3858.0125
1047.31584	3935.2125
1051.00976	3943.3125
1054.70114	3866.3125
1058.38998	3791.3125
1062.07627	3780.4125
1065.76003	3768.5125
1069.44126	3828.0125
1073.11995	3929.4125
1076.79611	4191.5125
1080.46974	4731.7125
1084.14085	5501.1125
1087.80943	6106.3125
1091.47549	6086.9125
1095.13903	5428.9125
1098.80005	4776.1125
1102.45857	4416.8125
1106.11456	4379.5125
1109.76805	4496.6125
1113.41903	4908.2125
1117.06751	5572.3125
1120.71348	6649.2125
1124.35696	8309.8125
1127.99793	9428.4125
1131.63641	8602.7125
1135.2724	6888.9125
1138.90589	5762.6125
1142.5369	5117.9125
1146.16542	4712.9125
1149.79145	4438.9125
1153.415	4373.8125
1157.03607	4435.4125
1160.65467	4646.4125
1164.27079	5071.5125
1167.88443	5642.7125
1171.49561	6660.3125
1175.10432	8417.9125
1178.71056	10896.6125
1182.31434	12671.4125
1185.91565	12402.4125
1189.51451	10771.4125
1193.11091	9074.2125
1196.70485	8009.9125
1200.29634	7588.7125
1203.88538	7064.7125
1207.47197	6052.8125
1211.05612	5105.1125
1214.63782	4507.4125
1218.21708	4244.2125
1221.79391	4145.8125
1225.36829	4120.4125
1228.94024	4128.6125
1232.50976	4112.8125
1236.07685	4146.9125
1239.6415	4187.5125
1243.20374	4295.5125
1246.76355	4466.2125
1250.32093	4675.4125
1253.8759	4957.1125
1257.42845	5441.5125
1260.97859	6119.2125
1264.52631	6750.0125
1268.07163	7067.9125
1271.61453	7114.5125
1275.15503	6896.4125
1278.69312	6633.6125
1282.22882	6843.6125
1285.76211	7763.2125
1289.29301	9038.6125
1292.82151	9901.6125
1296.34761	10209.2125
1299.87133	11033.3125
1303.39266	13157.4125
1306.9116	17173.1125
1310.42815	22110.1125
1313.94233	23814.9125
1317.45412	20049.0125
1320.96354	14599.5125
1324.47058	10515.7125
1327.97525	8023.9125
1331.47754	6798.5125
1334.97747	6416.0125
1338.47502	6588.8125
1341.97022	7567.6125
1345.46305	9695.0125
1348.95352	12718.3125
1352.44163	15823.0125
1355.92738	19600.9125
1359.41078	26382.3125
1362.89183	33816.9125
1366.37053	32389.7125
1369.84688	22128.8125
1373.32088	13662.5125
1376.79254	10033.6125
1380.26186	8447.8125
1383.72883	7195.8125
1387.19347	6032.2125
1390.65578	5184.0125
1394.11575	4713.6125
1397.57339	4494.4125
1401.0287	4356.7125
1404.48168	4180.0125
1407.93234	4103.1125
1411.38068	4193.6125
1414.82669	4537.2125
1418.27039	4973.2125
1421.71177	5042.6125
1425.15083	4859.3125
1428.58758	4879.6125
1432.02203	5355.5125
1435.45416	5726.1125
1438.88399	5482.9125
1442.31151	5138.2125
1445.73673	5071.7125
1449.15965	5046.3125
1452.58027	4921.3125
1455.9986	4749.3125
1459.41463	4595.0125
1462.82837	4617.8125
1466.23982	4859.0125
1469.64898	5195.0125
1473.05586	5308.6125
1476.46045	5266.1125
1479.86276	5288.1125
1483.26279	5558.5125
1486.66054	6149.6125
1490.05602	7104.1125
1493.44922	8685.1125
1496.84016	11188.0125
1500.22882	15067.2125
1503.61521	20554.6125
1506.99934	27591.9125
1510.38121	34624.9125
1513.76081	37418.5125
1517.13816	33157.4125
1520.51324	24575.5125
1523.88607	16846.9125
1527.25665	11905.4125
1530.62498	9135.2125
1533.99105	7527.3125
1537.35488	6508.7125
1540.71647	5909.4125
1544.07581	5655.0125
1547.4329	5679.6125
1550.78776	5866.7125
1554.14038	6192.3125
1557.49077	6697.1125
1560.83892	7603.2125
1564.18484	9006.8125
1567.52853	10631.7125
1570.86999	11661.2125
1574.20922	11824.2125
1577.54624	11220.4125
1580.88103	9305.7125
1584.2136	7021.7125
1587.54395	5704.0125
1590.87208	5355.9125
1594.19801	5732.2125
1597.52172	6442.8125
1600.84321	6451.7125
1604.16251	5657.2125
1607.47959	4906.9125
1610.79447	4479.3125
1614.10715	4141.3125
1617.41763	3915.8125
1620.7259	3791.9125
1624.03199	3847.7125
1627.33587	4026.2125
1630.63757	4374.1125
1633.93707	5039.8125
1637.23439	6215.7125
1640.52951	8355.1125
1643.82246	12070.1125
1647.11321	17227.3125
1650.40179	21367.8125
1653.68819	21158.1125
1656.97241	16579.5125
1660.25446	11066.0125
1663.53433	7287.5125
1666.81203	5235.9125
1670.08756	4179.4125
1673.36092	3608.1125
1676.63211	3260.5125
1679.90115	3029.3125
1683.16801	2884.4125
1686.43272	2762.9125
1689.69527	2693.7125
1692.95567	2614.0125
1696.2139	2580.6125
1699.46999	2520.7125
1702.72392	2503.0125
1705.97571	2507.5125
1709.22535	2496.7125
1712.47284	2556.8125
1715.71819	2577.4125
1718.96139	2580.8125
1722.20246	2547.6125
1725.44139	2487.4125
1728.67818	2443.9125
1731.91284	2349.3125
1735.14537	2304.6125
1738.37576	2253.4125
1741.60403	2251.5125
1744.83017	2214.1125
1748.05418	2203.6125
1751.27607	2192.3125
1754.49584	2134.8125
1757.71349	2081.2125
1760.92903	2057.4125
1764.14244	1989.6125
1767.35375	1979.7125
1770.56294	1910.8125
1773.77002	1888.5125
1776.97499	1876.8125
1780.17785	1839.3125
1783.37861	1807.1125
1786.57727	1822.6125
1789.77382	1757.7125
1792.96828	1785.9125
1796.16064	1802.3125
1799.3509	1782.0125
1802.53907	1786.0125
1805.72514	1749.3125
1808.90913	1733.1125
1812.09102	1726.1125
1815.27083	1729.5125
1818.44856	1712.3125
1821.6242	1706.2125
1824.79776	1689.5125
1827.96924	1662.4125
1831.13864	1638.3125
1834.30597	1644.8125
1837.47122	1601.7125
1840.6344	1584.3125
1843.7955	1559.2125
1846.95454	1536.1125
1850.11151	1554.5125
1853.26642	1513.0125
1856.41926	1532.1125
1859.57004	1532.7125
1862.71876	1532.3125
1865.86542	1544.3125
1869.01003	1531.3125
1872.15258	1524.3125
1875.29308	1547.2125
1878.43152	1551.2125
1881.56792	1534.2125
1884.70227	1519.2125
1887.83457	1527.2125
1890.96482	1491.3125
1894.09304	1487.2125
1897.21921	1486.9125
1900.34335	1498.6125
1903.46544	1481.9125
1906.58551	1488.9125
1909.70353	1488.4125
1912.81953	1479.7125
1915.93349	1473.6125
1919.04543	1467.7125
1922.15534	1440.0125
1925.26322	1435.9125
1928.36908	1401.3125
1931.47292	1392.7125
1934.57473	1380.9125
1937.67453	1337.3125
1940.77232	1315.8125
1943.86808	1307.7125
1946.96184	1300.8125
1950.05358	1291.6125
1953.14331	1279.0125
1956.23103	1295.4125
1959.31675	1275.2125
1962.40046	1251.7125
1965.48217	1300.5125
1968.56188	1312.6125
1971.63959	1329.7125
1974.7153	1336.8125
1977.78901	1325.0125
1980.86073	1297.5125
1983.93046	1254.6125
1986.99819	1167.4125
1990.06394	1192.8125
1993.1277	1201.8125
1996.18947	1183.5125
1999.24925	1162.2125
2002.30706	1167.5125
2005.36288	1159.4125
2008.41672	1147.3125
2011.46859	1116.0125
2014.51848	1123.3125
2017.56639	1105.7125
2020.61233	1094.2125
2023.6563	1105.0125
2026.6983	1066.0125
2029.73833	1087.5125
2032.7764	1095.1125
2035.8125	1048.8125
2038.84664	1067.2125
2041.87881	1057.7125
2044.90903	1071.0125
2047.93729	1061.6125
2050.96359	1037.8125
2053.98794	1042.0125
2057.01034	1037.6125
2060.03078	1022.0125
2063.04927	1008.1125
2066.06582	1001.8125
2069.08042	985.3125
2072.09307	984.2125
2075.10378	988.9125
2078.11255	980.4125
2081.11938	987.5125
2084.12426	991.1125
2087.12722	979.9125
2090.12824	982.0125
2093.12732	980.1125
2096.12447	981.2125
2099.11969	973.1125
2102.11299	970.3125
2105.10435	1004.7125
2108.09379	985.1125
2111.08131	972.0125
2114.0669	989.1125
2117.05057	992.1125
2120.03233	990.2125
2123.01216	1028.2125
2125.99008	1040.2125
2128.96609	1039.8125
2131.94018	1047.3125
2134.91236	1021.3125
2137.88263	1004.8125
2140.851	995.2125
2143.81746	999.1125
2146.78201	969.7125
2149.74466	946.3125
2152.7054	944.7125
2155.66425	921.1125
2158.6212	916.2125
2161.57625	898.1125
2164.52941	871.0125
2167.48067	893.0125
2170.43004	889.2125
2173.37752	914.0125
2176.32311	913.6125
2179.26681	922.0125
2182.20863	933.4125
2185.14856	923.2125
2188.08661	921.6125
2191.02278	914.2125
2193.95707	890.2125
2196.88948	864.1125
2199.82001	881.3125
2202.74867	866.0125
2205.67545	872.5125
2208.60037	882.2125
2211.52341	874.5125
2214.44458	860.5125
2217.36388	864.4125
2220.28132	855.2125
2223.1969	835.2125
2226.11061	840.0125
2229.02246	828.3125
2231.93245	834.5125
2234.84058	825.7125
2237.74686	817.2125
2240.65128	813.9125
2243.55385	830.1125
2246.45456	814.6125
2249.35343	846.0125
2252.25044	847.5125
2255.14561	877.6125
2258.03893	890.8125
2260.93041	906.7125
2263.82004	927.2125
2266.70783	931.5125
2269.59378	917.4125
2272.4779	906.7125
2275.36017	921.8125
2278.24061	909.8125
2281.11922	877.1125
2283.996	886.6125
2286.87094	855.1125
2289.74405	857.5125
2292.61534	848.9125
2295.4848	826.2125
2298.35243	817.6125
2301.21824	808.0125
2304.08223	802.6125
2306.94439	815.6125
2309.80474	809.9125
2312.66327	812.4125
2315.51999	799.9125
2318.37489	799.3125
2321.22797	787.1125
2324.07925	774.9125
2326.92871	783.3125
2329.77637	774.3125
2332.62222	780.2125
2335.46626	764.1125
2338.3085	775.7125
2341.14893	785.6125
2343.98756	800.8125
2346.8244	787.3125
2349.65943	792.9125
2352.49267	808.8125
2355.32411	825.2125
2358.15376	828.3125
2360.98161	854.7125
2363.80768	849.4125
2366.63195	875.0125
2369.45444	899.3125
2372.27514	899.5125
2375.09405	916.4125
2377.91118	870.6125
2380.72652	868.3125
2383.54009	857.6125
2386.35187	859.8125
2389.16188	825.3125
2391.97011	815.8125
2394.77657	809.4125
2397.58125	799.3125
2400.38416	784.9125
2403.18529	768.1125
2405.98466	754.5125
2408.78226	755.9125
2411.57809	744.7125
2414.37216	742.3125
2417.16446	752.1125
2419.955	735.3125
2422.74378	762.4125
2425.5308	746.8125
2428.31606	760.7125
2431.09956	771.4125
2433.88131	756.1125
2436.6613	780.0125
2439.43954	782.4125
2442.21603	780.2125
2444.99077	775.7125
2447.76377	802.9125
2450.53501	797.3125
2453.30451	801.5125
2456.07226	818.0125
2458.83827	804.1125
2461.60254	761.9125
2464.36507	808.4125
2467.12586	787.6125
2469.88492	804.3125
2472.64224	802.7125
2475.39782	789.2125
2478.15167	821.2125
2480.90379	838.4125
2483.65417	857.6125
2486.40283	881.2125
2489.14976	907.5125
2491.89497	896.7125
2494.63845	898.3125
2497.3802	890.6125
2500.12024	880.1125
2502.85855	863.4125
2505.59514	849.0125
2508.33002	829.9125
2511.06318	783.8125
2513.79462	769.1125
2516.52435	722.0125
2519.25237	686.8125
2521.97867	677.8125
2524.70327	669.6125
2527.42616	669.1125
2530.14734	677.8125
2532.86681	647.5125
2535.58458	657.2125
2538.30065	650.5125
2541.01501	676.0125
2543.72768	662.7125
2546.43864	680.6125
2549.14791	686.5125
2551.85548	680.8125
2554.56136	690.0125
2557.26554	696.6125
2559.96803	706.8125
2562.66883	708.9125
2565.36794	704.9125
2568.06536	688.0125
2570.7611	715.4125
2573.45514	706.4125
2576.14751	700.6125
2578.83819	692.6125
2581.52719	679.1125
2584.21451	681.6125
2586.90015	656.6125
2589.58411	647.6125
2592.2664	663.0125
2594.94701	664.2125
2597.62594	666.7125
2600.30321	617.9125
2602.9788	643.1125
2605.65273	639.5125
2608.32498	658.1125
2610.99557	674.2125
2613.66449	645.7125
2616.33175	662.5125
2618.99734	670.6125
2621.66128	671.5125
2624.32355	653.4125
2626.98416	649.7125
2629.64311	633.1125
2632.30041	628.7125
2634.95605	604.7125
2637.61004	594.8125
2640.26238	578.1125
2642.91306	580.0125
2645.56209	599.3125
2648.20948	588.4125
2650.85521	576.5125
2653.4993	605.3125
2656.14175	597.7125
2658.78255	587.6125
2661.42171	573.1125
2664.05923	611.7125
2666.6951	623.5125
2669.32934	635.0125
2671.96194	647.3125
2674.59291	644.1125
2677.22224	644.2125
2679.84993	637.1125
2682.476	630.2125
2685.10043	621.7125
2687.72324	608.1125
2690.34441	607.6125
2692.96396	605.9125
2695.58188	617.6125
2698.19818	603.6125
2700.81285	594.5125
2703.4259	586.3125
2706.03733	560.1125
2708.64714	569.9125
2711.25533	604.7125
2713.86191	610.8125
2716.46687	605.5125
2719.07021	617.0125
2721.67194	612.6125
2724.27206	627.0125
2726.87057	594.2125
2729.46747	585.1125
2732.06276	585.7125
2734.65644	571.4125
2737.24852	573.3125
2739.83899	547.9125
2742.42786	559.1125
2745.01513	563.2125
2747.60079	540.8125
2750.18486	527.9125
2752.76733	526.3125
2755.3482	519.2125
2757.92747	514.2125
2760.50515	501.0125
2763.08123	493.6125
2765.65573	499.5125
2768.22863	490.6125
2770.79994	488.9125
2773.36967	481.3125
2775.9378	483.1125
2778.50435	489.1125
2781.06932	493.0125
2783.6327	480.7125
2786.1945	511.8125
2788.75471	493.4125
2791.31335	499.9125
2793.87041	506.6125
2796.42589	500.8125
2798.97979	507.1125
2801.53212	521.9125
2804.08288	540.6125
2806.63206	541.4125
2809.17967	533.5125
2811.72571	571.4125
2814.27018	575.7125
2816.81308	588.0125
2819.35442	569.6125
2821.89419	609.2125
2824.43239	606.9125
2826.96904	643.6125
2829.50412	619.6125
2832.03763	618.7125
2834.56959	613.7125
2837.1	591.7125
2839.62884	584.0125
2842.15613	578.9125
2844.68186	591.8125
2847.20604	572.6125
2849.72867	578.3125
2852.24974	597.7125
2854.76927	581.5125
2857.28724	554.9125
2859.80367	629.4125
2862.31855	652.7125
2864.83189	661.2125
2867.34368	684.4125
2869.85393	697.2125
2872.36264	688.7125
2874.8698	696.5125
2877.37543	690.7125
2879.87952	685.0125
2882.38207	652.9125
2884.88308	655.1125
2887.38256	643.7125
2889.88051	626.3125
2892.37692	616.3125
2894.8718	600.5125
2897.36515	616.8125
2899.85698	619.3125
2902.34727	618.5125
2904.83604	633.1125
2907.32328	657.5125
2909.809	682.6125
2912.29319	681.7125
2914.77587	703.4125
2917.25702	710.0125
2919.73665	698.5125
2922.21476	689.9125
2924.69136	677.0125
2927.16644	638.3125
2929.64	620.1125
2932.11205	601.9125
2934.58258	604.2125
2937.05161	592.6125
2939.51912	591.9125
2941.98513	606.9125
2944.44962	589.7125
2946.91261	572.6125
2949.37409	586.0125
2951.83407	579.9125
2954.29254	584.1125
2956.74951	597.2125
2959.20498	588.9125
2961.65895	591.3125
2964.11142	576.7125
2966.56239	581.2125
2969.01186	577.0125
2971.45984	568.0125
2973.90632	562.1125
2976.35131	580.8125
2978.7948	571.2125
2981.23681	567.5125
2983.67732	580.8125
2986.11635	584.7125
2988.55388	562.5125
2990.98993	577.3125
2993.4245	566.8125
2995.85758	574.1125
2998.28917	575.5125
3000.71928	572.6125
3003.14791	578.1125
3005.57506	573.7125
3008.00073	566.2125
3010.42493	507.9125
3012.84764	560.6125
3015.26888	566.9125
3017.68865	557.6125
3020.10694	514.6125
3022.52376	538.1125
3024.9391	535.6125
3027.35298	529.0125
3029.76539	498.1125
3032.17632	496.5125
3034.5858	483.5125
3036.9938	485.6125
3039.40034	463.7125
3041.80542	447.1125
3044.20903	434.4125
3046.61118	420.0125
3049.01187	436.9125
3051.4111	422.3125
3053.80888	417.7125
3056.20519	420.1125
3058.60005	404.5125
3060.99345	429.7125
3063.3854	414.8125
3065.7759	403.8125
3068.16494	396.7125
3070.55254	391.2125
3072.93868	401.8125
3075.32338	397.1125
3077.70662	394.3125
3080.08842	383.9125
3082.46878	369.4125
3084.84769	394.5125
3087.22515	371.2125
3089.60118	384.9125
3091.97576	372.2125
3094.3489	375.0125
3096.72061	365.9125
3099.09087	354.9125
3101.4597	368.0125
3103.82709	363.6125
3106.19305	353.8125
3108.55757	359.1125
3110.92066	358.0125
3113.28232	367.4125
3115.64255	371.3125
3118.00134	375.4125
3120.35871	357.7125
3122.71466	347.8125
3125.06917	359.8125
3127.42226	359.3125
3129.77393	345.5125
3132.12417	362.0125
3134.47299	367.7125
3136.82039	353.1125
3139.16636	336.6125
3141.51092	361.2125
3143.85406	366.4125
3146.19579	349.7125
3148.53609	349.8125
3150.87499	361.0125
3153.21246	359.9125
3155.54853	369.3125
3157.88318	367.9125
3160.21642	367.5125
3162.54826	366.8125
3164.87868	369.0125
