Data from AgNPs_UA_5uM_CRN_500uM_SU_RamanShift__214__12-05-03-182.txt Node

Date: Thu Aug 04 12:05:03 BST 2022
User: TCL
Spectrometer: QEP01345
Trigger mode: 4
Integration Time (sec): 1.000000E0
Scans to average: 10
Electric dark correction enabled: true
Nonlinearity correction enabled: false
Boxcar width: 0
XAxis mode: Raman Shifts
Number of Pixels in Spectrum: 1044
>>>>>Begin Spectral Data<<<<<
46.04893	-1.15
50.45542	-0.65
54.85868	0.55
59.25871	-1.05
63.6555	-58.25
68.04907	-39.15
72.43941	-70.95
76.82654	-55.65
81.21044	-57.55
85.59113	-49.95
89.96862	-74.75
94.34289	-54.45
98.71396	-76.85
103.08183	-59.05
107.4465	-49.55
111.80798	-57.05
116.16626	-43.45
120.52136	-75.85
124.87327	-50.05
129.222	-64.95
133.56755	-49.95
137.90993	-62.85
142.24913	-52.55
146.58517	-43.05
150.91804	-41.75
155.24774	-30.35
159.57429	-12.75
163.89768	-5.85
168.21792	34.75
172.53501	54.85
176.84895	139.25
181.15975	262.95
185.46741	406.95
189.77193	582.55
194.07331	876.15
198.37157	1156.05
202.6667	1431.05
206.9587	1743.65
211.24758	2061.55
215.53334	2363.05
219.81599	2720.25
224.09553	3114.85
228.37195	3559.95
232.64527	3999.95
236.91549	4440.25
241.18261	4802.35
245.44663	5081.95
249.70755	5235.55
253.96539	5365.35
258.22014	5452.75
262.4718	5541.45
266.72039	5579.65
270.96589	5542.95
275.20832	5458.95
279.44768	5350.55
283.68397	5225.15
287.91719	5194.25
292.14735	5212.95
296.37445	5394.85
300.59849	5667.55
304.81948	6022.25
309.03742	6397.05
313.25231	6615.95
317.46415	6577.45
321.67296	6172.65
325.87872	5784.55
330.08145	5593.05
334.28114	5544.55
338.47781	5611.15
342.67145	5752.25
346.86207	5970.55
351.04966	6344.65
355.23424	6717.75
359.4158	6977.05
363.59435	7035.85
367.76989	6969.95
371.94243	6835.05
376.11196	6710.95
380.27849	6630.85
384.44203	6566.05
388.60257	6518.65
392.76012	6538.15
396.91468	6643.65
401.06626	6811.05
405.21485	6835.35
409.36047	6670.45
413.50311	6347.25
417.64277	6066.65
421.77947	5867.65
425.9132	5779.85
430.04396	5777.35
434.17176	5819.75
438.2966	5918.65
442.41849	5990.45
446.53742	6103.05
450.6534	6222.65
454.76644	6268.45
458.87653	6296.05
462.98368	6263.65
467.08789	6190.75
471.18916	6098.35
475.2875	6000.65
479.38291	5873.45
483.4754	5792.25
487.56496	5751.75
491.6516	5696.95
495.73531	5719.05
499.81612	5740.65
503.89401	5829.25
507.96899	5880.05
512.04106	5970.85
516.11023	6061.45
520.1765	6162.85
524.23987	6182.15
528.30034	6173.55
532.35792	6080.95
536.41261	6030.25
540.46441	5947.95
544.51333	5910.85
548.55936	5944.05
552.60252	6078.35
556.64279	6167.75
560.6802	6288.05
564.71473	6431.25
568.7464	6622.55
572.7752	6585.75
576.80114	6287.35
580.82422	6068.65
584.84444	5947.35
588.86181	5924.65
592.87633	5964.75
596.888	6079.55
600.89682	6439.75
604.9028	7408.35
608.90594	9501.55
612.90624	11775.65
616.90371	10949.45
620.89834	7891.55
624.89015	6583.65
628.87913	6366.45
632.86528	6518.75
636.84862	6674.25
640.82913	6570.05
644.80683	6199.05
648.78172	6036.05
652.75379	6060.75
656.72306	6277.15
660.68952	6530.05
664.65319	6435.25
668.61405	6207.15
672.57211	6148.05
676.52738	6140.65
680.47986	6032.55
684.42955	5948.55
688.37646	5904.45
692.32058	5910.45
696.26192	5989.85
700.20048	6067.75
704.13626	6124.55
708.06928	6074.95
711.99952	6050.15
715.927	6027.65
719.85171	6058.75
723.77365	6103.85
727.69284	6076.25
731.60928	6070.45
735.52295	6028.25
739.43388	6069.15
743.34206	6079.65
747.24749	6114.85
751.15017	6114.95
755.05012	6179.45
758.94733	6562.45
762.8418	7401.85
766.73354	8741.55
770.62254	9720.85
774.50882	9821.75
778.39237	9312.55
782.27321	8381.95
786.15132	7347.15
790.02671	6678.15
793.89938	6291.65
797.76935	6172.75
801.6366	6092.15
805.50115	6037.25
809.36299	6036.05
813.22213	6017.65
817.07857	6013.95
820.93231	6008.55
824.78336	6051.05
828.63172	6061.45
832.47738	6067.35
836.32036	6068.95
840.16066	6042.05
843.99827	6018.65
847.8332	6007.45
851.66546	6024.75
855.49504	6032.15
859.32195	6053.55
863.1462	6042.75
866.96777	6046.35
870.78668	6026.15
874.60293	6066.95
878.41652	6075.45
882.22745	6142.45
886.03573	6190.55
889.84136	6169.25
893.64433	6180.05
897.44466	6163.95
901.24235	6153.25
905.0374	6170.85
908.8298	6092.85
912.61957	6058.25
916.40671	6033.25
920.19121	6078.75
923.97308	6169.05
927.75233	6211.25
931.52895	6290.35
935.30295	6241.15
939.07433	6103.95
942.84309	5988.25
946.60924	5956.15
950.37278	5912.05
954.13371	5899.45
957.89203	5907.35
961.64774	5933.35
965.40086	5909.25
969.15137	5888.05
972.89929	5928.05
976.64461	5917.75
980.38733	5910.05
984.12747	5912.85
987.86502	5932.25
991.59999	5968.95
995.33237	6026.25
999.06217	6102.85
1002.78939	6175.25
1006.51404	6314.05
1010.23611	6428.65
1013.95561	6464.35
1017.67255	6471.35
1021.38692	6449.25
1025.09872	6359.95
1028.80796	6299.85
1032.51465	6300.85
1036.21877	6278.95
1039.92035	6325.05
1043.61937	6363.25
1047.31584	6421.05
1051.00976	6448.35
1054.70114	6461.45
1058.38998	6453.75
1062.07627	6468.15
1065.76003	6501.85
1069.44126	6571.75
1073.11995	6641.55
1076.79611	6792.35
1080.46974	6926.15
1084.14085	7089.65
1087.80943	7222.55
1091.47549	7250.65
1095.13903	7177.15
1098.80005	7055.85
1102.45857	6946.45
1106.11456	6913.75
1109.76805	6862.95
1113.41903	6981.45
1117.06751	7148.05
1120.71348	7410.25
1124.35696	7769.15
1127.99793	8057.05
1131.63641	7901.55
1135.2724	7510.05
1138.90589	7232.45
1142.5369	7008.35
1146.16542	6905.75
1149.79145	6797.65
1153.415	6759.85
1157.03607	6763.35
1160.65467	6840.25
1164.27079	7050.55
1167.88443	7307.25
1171.49561	7728.95
1175.10432	8325.35
1178.71056	9226.85
1182.31434	10014.15
1185.91565	10261.25
1189.51451	10100.95
1193.11091	9865.45
1196.70485	9616.45
1200.29634	9361.85
1203.88538	9095.45
1207.47197	8652.95
1211.05612	8202.65
1214.63782	7787.95
1218.21708	7546.95
1221.79391	7407.35
1225.36829	7313.95
1228.94024	7305.55
1232.50976	7318.15
1236.07685	7352.45
1239.6415	7376.95
1243.20374	7406.05
1246.76355	7403.85
1250.32093	7508.55
1253.8759	7561.35
1257.42845	7747.85
1260.97859	7935.75
1264.52631	8167.55
1268.07163	8338.45
1271.61453	8462.45
1275.15503	8499.25
1278.69312	8517.65
1282.22882	8573.25
1285.76211	8787.25
1289.29301	9037.95
1292.82151	9303.65
1296.34761	9512.45
1299.87133	9902.95
1303.39266	10594.75
1306.9116	11712.85
1310.42815	12988.05
1313.94233	13395.15
1317.45412	12611.55
1320.96354	11480.05
1324.47058	10488.65
1327.97525	9714.55
1331.47754	9333.65
1334.97747	9207.55
1338.47502	9317.95
1341.97022	9690.45
1345.46305	10402.35
1348.95352	11490.45
1352.44163	12783.85
1355.92738	14097.95
1359.41078	15782.45
1362.89183	17262.35
1366.37053	16645.15
1369.84688	13812.25
1373.32088	11165.65
1376.79254	9754.15
1380.26186	9089.85
1383.72883	8693.15
1387.19347	8286.95
1390.65578	7948.15
1394.11575	7712.95
1397.57339	7536.45
1401.0287	7410.55
1404.48168	7399.45
1407.93234	7437.25
1411.38068	7417.85
1414.82669	7514.55
1418.27039	7597.95
1421.71177	7594.75
1425.15083	7479.65
1428.58758	7389.75
1432.02203	7431.15
1435.45416	7514.45
1438.88399	7513.35
1442.31151	7514.25
1445.73673	7559.85
1449.15965	7620.85
1452.58027	7628.75
1455.9986	7612.25
1459.41463	7636.45
1462.82837	7729.85
1466.23982	7918.95
1469.64898	8142.45
1473.05586	8260.45
1476.46045	8377.15
1479.86276	8414.55
1483.26279	8545.15
1486.66054	8743.55
1490.05602	9029.85
1493.44922	9548.65
1496.84016	10411.75
1500.22882	11810.05
1503.61521	13488.35
1506.99934	15289.35
1510.38121	16494.55
1513.76081	16329.85
1517.13816	14813.75
1520.51324	12691.15
1523.88607	10992.85
1527.25665	9977.95
1530.62498	9484.25
1533.99105	9264.05
1537.35488	9142.65
1540.71647	9050.85
1544.07581	8943.75
1547.4329	8795.75
1550.78776	8680.05
1554.14038	8609.85
1557.49077	8559.15
1560.83892	8651.15
1564.18484	8879.65
1567.52853	9200.35
1570.86999	9535.05
1574.20922	9672.75
1577.54624	9602.95
1580.88103	9055.15
1584.2136	8390.55
1587.54395	8014.95
1590.87208	7951.85
1594.19801	8084.55
1597.52172	8468.85
1600.84321	8595.15
1604.16251	8471.75
1607.47959	8270.65
1610.79447	8079.65
1614.10715	7798.85
1617.41763	7498.95
1620.7259	7246.85
1624.03199	7097.45
1627.33587	7027.95
1630.63757	7074.85
1633.93707	7280.85
1637.23439	7714.75
1640.52951	8386.45
1643.82246	9377.25
1647.11321	10502.75
1650.40179	11233.75
1653.68819	10906.55
1656.97241	9663.85
1660.25446	8297.85
1663.53433	7297.15
1666.81203	6694.85
1670.08756	6366.45
1673.36092	6185.35
1676.63211	6017.45
1679.90115	5954.75
1683.16801	5878.95
1686.43272	5777.15
1689.69527	5747.05
1692.95567	5679.85
1696.2139	5662.15
1699.46999	5600.15
1702.72392	5602.25
1705.97571	5632.15
1709.22535	5617.25
1712.47284	5649.95
1715.71819	5653.25
1718.96139	5621.05
1722.20246	5622.85
1725.44139	5581.05
1728.67818	5562.15
1731.91284	5519.15
1735.14537	5494.95
1738.37576	5463.55
1741.60403	5443.65
1744.83017	5417.35
1748.05418	5425.05
1751.27607	5412.55
1754.49584	5381.45
1757.71349	5351.55
1760.92903	5344.15
1764.14244	5300.25
1767.35375	5303.85
1770.56294	5289.55
1773.77002	5269.85
1776.97499	5292.15
1780.17785	5274.45
1783.37861	5260.35
1786.57727	5262.85
1789.77382	5201.35
1792.96828	5226.75
1796.16064	5233.15
1799.3509	5218.65
1802.53907	5228.05
1805.72514	5192.15
1808.90913	5183.85
1812.09102	5173.25
1815.27083	5163.05
1818.44856	5156.35
1821.6242	5135.95
1824.79776	5119.35
1827.96924	5110.95
1831.13864	5100.05
1834.30597	5093.05
1837.47122	5073.15
1840.6344	5069.95
1843.7955	5049.65
1846.95454	5052.95
1850.11151	5064.95
1853.26642	5022.05
1856.41926	5048.45
1859.57004	5042.25
1862.71876	5013.95
1865.86542	5028.75
1869.01003	5027.85
1872.15258	4993.85
1875.29308	5004.05
1878.43152	5018.55
1881.56792	4992.15
1884.70227	4969.65
1887.83457	4975.15
1890.96482	4936.25
1894.09304	4946.15
1897.21921	4941.25
1900.34335	4945.25
1903.46544	4915.05
1906.58551	4939.75
1909.70353	4929.65
1912.81953	4916.75
1915.93349	4915.45
1919.04543	4899.35
1922.15534	4878.75
1925.26322	4892.85
1928.36908	4869.85
1931.47292	4857.45
1934.57473	4869.75
1937.67453	4826.15
1940.77232	4816.15
1943.86808	4801.65
1946.96184	4801.65
1950.05358	4774.65
1953.14331	4767.35
1956.23103	4754.95
1959.31675	4717.25
1962.40046	4686.25
1965.48217	4715.55
1968.56188	4687.85
1971.63959	4684.45
1974.7153	4674.25
1977.78901	4673.75
1980.86073	4652.05
1983.93046	4606.95
1986.99819	4545.55
1990.06394	4549.55
1993.1277	4584.75
1996.18947	4551.45
1999.24925	4531.15
2002.30706	4514.05
2005.36288	4512.25
2008.41672	4492.55
2011.46859	4447.35
2014.51848	4461.65
2017.56639	4434.35
2020.61233	4423.85
2023.6563	4427.95
2026.6983	4376.85
2029.73833	4380.85
2032.7764	4398.05
2035.8125	4347.65
2038.84664	4352.05
2041.87881	4344.05
2044.90903	4338.05
2047.93729	4334.75
2050.96359	4302.05
2053.98794	4314.85
2057.01034	4316.75
2060.03078	4290.05
2063.04927	4273.85
2066.06582	4296.15
2069.08042	4277.35
2072.09307	4283.45
2075.10378	4278.95
2078.11255	4269.55
2081.11938	4264.15
2084.12426	4256.05
2087.12722	4259.85
2090.12824	4250.05
2093.12732	4250.45
2096.12447	4264.65
2099.11969	4259.55
2102.11299	4244.95
2105.10435	4261.65
2108.09379	4257.95
2111.08131	4239.55
2114.0669	4253.95
2117.05057	4242.55
2120.03233	4242.85
2123.01216	4273.85
2125.99008	4261.35
2128.96609	4243.85
2131.94018	4291.15
2134.91236	4271.65
2137.88263	4257.75
2140.851	4264.75
2143.81746	4277.45
2146.78201	4263.85
2149.74466	4252.85
2152.7054	4273.15
2155.66425	4271.05
2158.6212	4239.65
2161.57625	4212.65
2164.52941	4193.85
2167.48067	4219.45
2170.43004	4209.65
2173.37752	4223.25
2176.32311	4222.75
2179.26681	4226.85
2182.20863	4238.25
2185.14856	4229.35
2188.08661	4229.95
2191.02278	4232.95
2193.95707	4199.85
2196.88948	4183.95
2199.82001	4212.55
2202.74867	4196.15
2205.67545	4186.25
2208.60037	4202.05
2211.52341	4172.05
2214.44458	4166.05
2217.36388	4153.15
2220.28132	4140.95
2223.1969	4127.45
2226.11061	4119.65
2229.02246	4106.95
2231.93245	4097.85
2234.84058	4094.15
2237.74686	4094.25
2240.65128	4071.15
2243.55385	4071.05
2246.45456	4053.45
2249.35343	4069.85
2252.25044	4045.75
2255.14561	4066.35
2258.03893	4056.85
2260.93041	4034.25
2263.82004	4046.15
2266.70783	4033.15
2269.59378	4006.95
2272.4779	4000.35
2275.36017	3991.75
2278.24061	3969.95
2281.11922	3951.95
2283.996	3977.05
2286.87094	3951.35
2289.74405	3948.75
2292.61534	3939.85
2295.4848	3933.05
2298.35243	3937.65
2301.21824	3923.35
2304.08223	3904.95
2306.94439	3919.25
2309.80474	3906.85
2312.66327	3916.65
2315.51999	3887.25
2318.37489	3879.25
2321.22797	3880.65
2324.07925	3865.55
2326.92871	3854.65
2329.77637	3838.75
2332.62222	3850.05
2335.46626	3821.15
2338.3085	3829.05
2341.14893	3835.55
2343.98756	3844.35
2346.8244	3810.45
2349.65943	3801.85
2352.49267	3818.65
2355.32411	3819.05
2358.15376	3806.85
2360.98161	3816.95
2363.80768	3793.75
2366.63195	3786.55
2369.45444	3816.05
2372.27514	3809.65
2375.09405	3814.35
2377.91118	3772.25
2380.72652	3776.65
2383.54009	3761.55
2386.35187	3761.35
2389.16188	3743.05
2391.97011	3752.45
2394.77657	3734.05
2397.58125	3719.85
2400.38416	3716.75
2403.18529	3707.45
2405.98466	3704.75
2408.78226	3692.55
2411.57809	3683.75
2414.37216	3665.75
2417.16446	3667.05
2419.955	3644.55
2422.74378	3659.75
2425.5308	3625.05
2428.31606	3641.75
2431.09956	3646.05
2433.88131	3635.15
2436.6613	3623.85
2439.43954	3644.15
2442.21603	3623.35
2444.99077	3608.95
2447.76377	3626.85
2450.53501	3613.75
2453.30451	3601.75
2456.07226	3599.35
2458.83827	3597.45
2461.60254	3563.65
2464.36507	3594.85
2467.12586	3581.55
2469.88492	3589.25
2472.64224	3580.25
2475.39782	3565.45
2478.15167	3576.15
2480.90379	3562.75
2483.65417	3578.35
2486.40283	3583.25
2489.14976	3588.45
2491.89497	3562.25
2494.63845	3574.25
2497.3802	3553.05
2500.12024	3551.65
2502.85855	3542.45
2505.59514	3549.55
2508.33002	3534.45
2511.06318	3517.75
2513.79462	3527.95
2516.52435	3472.75
2519.25237	3456.85
2521.97867	3463.25
2524.70327	3475.85
2527.42616	3467.85
2530.14734	3481.65
2532.86681	3444.95
2535.58458	3462.85
2538.30065	3438.35
2541.01501	3470.65
2543.72768	3439.15
2546.43864	3432.75
2549.14791	3432.95
2551.85548	3405.65
2554.56136	3407.05
2557.26554	3414.45
2559.96803	3410.65
2562.66883	3405.85
2565.36794	3368.35
2568.06536	3354.85
2570.7611	3376.55
2573.45514	3368.45
2576.14751	3352.95
2578.83819	3343.25
2581.52719	3328.55
2584.21451	3321.05
2586.90015	3316.15
2589.58411	3291.45
2592.2664	3313.35
2594.94701	3310.45
2597.62594	3298.85
2600.30321	3243.45
2602.9788	3250.95
2605.65273	3265.05
2608.32498	3255.45
2610.99557	3276.45
2613.66449	3249.45
2616.33175	3256.85
2618.99734	3258.25
2621.66128	3251.15
2624.32355	3240.25
2626.98416	3215.95
2629.64311	3208.85
2632.30041	3212.95
2634.95605	3188.35
2637.61004	3178.65
2640.26238	3162.05
2642.91306	3176.75
2645.56209	3191.55
2648.20948	3180.65
2650.85521	3182.65
2653.4993	3183.35
2656.14175	3173.45
2658.78255	3162.25
2661.42171	3131.35
2664.05923	3164.05
2666.6951	3182.95
2669.32934	3190.25
2671.96194	3197.05
2674.59291	3167.25
2677.22224	3186.65
2679.84993	3175.65
2682.476	3166.85
2685.10043	3156.75
2687.72324	3145.05
2690.34441	3151.45
2692.96396	3153.65
2695.58188	3171.75
2698.19818	3152.75
2700.81285	3148.65
2703.4259	3147.75
2706.03733	3082.15
2708.64714	3109.55
2711.25533	3129.35
2713.86191	3137.95
2716.46687	3128.55
2719.07021	3135.25
2721.67194	3135.05
2724.27206	3151.85
2726.87057	3119.75
2729.46747	3114.45
2732.06276	3132.35
2734.65644	3111.55
2737.24852	3121.45
2739.83899	3087.85
2742.42786	3104.75
2745.01513	3104.75
2747.60079	3090.85
2750.18486	3065.75
2752.76733	3081.85
2755.3482	3065.65
2757.92747	3066.65
2760.50515	3040.35
2763.08123	3045.45
2765.65573	3043.45
2768.22863	3041.45
2770.79994	3028.85
2773.36967	3038.95
2775.9378	3018.15
2778.50435	3012.05
2781.06932	3008.85
2783.6327	2995.75
2786.1945	3013.75
2788.75471	3000.65
2791.31335	2993.65
2793.87041	2987.95
2796.42589	2969.55
2798.97979	2975.95
2801.53212	2969.15
2804.08288	2987.35
2806.63206	2960.05
2809.17967	2948.45
2811.72571	2952.25
2814.27018	2959.85
2816.81308	2943.55
2819.35442	2896.45
2821.89419	2914.85
2824.43239	2902.75
2826.96904	2940.15
2829.50412	2912.45
2832.03763	2915.15
2834.56959	2913.55
2837.1	2904.65
2839.62884	2893.85
2842.15613	2891.65
2844.68186	2908.45
2847.20604	2870.25
2849.72867	2859.75
2852.24974	2877.05
2854.76927	2848.65
2857.28724	2810.15
2859.80367	2853.05
2862.31855	2870.35
2864.83189	2850.35
2867.34368	2859.05
2869.85393	2867.65
2872.36264	2831.15
2874.8698	2832.25
2877.37543	2844.45
2879.87952	2831.25
2882.38207	2820.15
2884.88308	2835.65
2887.38256	2822.35
2889.88051	2815.45
2892.37692	2816.85
2894.8718	2791.45
2897.36515	2807.85
2899.85698	2805.75
2902.34727	2804.75
2904.83604	2814.35
2907.32328	2817.25
2909.809	2835.55
2912.29319	2831.15
2914.77587	2835.05
2917.25702	2848.15
2919.73665	2842.05
2922.21476	2847.55
2924.69136	2835.15
2927.16644	2826.55
2929.64	2833.35
2932.11205	2809.95
2934.58258	2820.05
2937.05161	2806.15
2939.51912	2808.45
2941.98513	2820.15
2944.44962	2792.85
2946.91261	2763.25
2949.37409	2769.75
2951.83407	2771.05
2954.29254	2780.65
2956.74951	2774.55
2959.20498	2752.75
2961.65895	2747.05
2964.11142	2741.65
2966.56239	2730.65
2969.01186	2757.95
2971.45984	2741.45
2973.90632	2721.25
2976.35131	2739.85
2978.7948	2716.55
2981.23681	2719.65
2983.67732	2716.55
2986.11635	2710.25
2988.55388	2673.65
2990.98993	2687.25
2993.4245	2684.15
2995.85758	2667.05
2998.28917	2661.35
3000.71928	2660.35
3003.14791	2646.35
3005.57506	2621.45
3008.00073	2628.85
3010.42493	2572.45
3012.84764	2633.95
3015.26888	2621.35
3017.68865	2611.35
3020.10694	2571.05
3022.52376	2580.85
3024.9391	2576.35
3027.35298	2571.85
3029.76539	2558.05
3032.17632	2561.75
3034.5858	2550.25
3036.9938	2567.35
3039.40034	2557.65
3041.80542	2533.75
3044.20903	2519.25
3046.61118	2523.65
3049.01187	2531.85
3051.4111	2510.05
3053.80888	2510.25
3056.20519	2498.65
3058.60005	2485.45
3060.99345	2508.05
3063.3854	2486.75
3065.7759	2464.55
3068.16494	2460.05
3070.55254	2440.55
3072.93868	2464.15
3075.32338	2446.95
3077.70662	2434.75
3080.08842	2432.35
3082.46878	2405.65
3084.84769	2426.45
3087.22515	2412.15
3089.60118	2433.05
3091.97576	2408.65
3094.3489	2420.25
3096.72061	2415.55
3099.09087	2399.65
3101.4597	2413.05
3103.82709	2394.55
3106.19305	2397.65
3108.55757	2387.45
3110.92066	2380.75
3113.28232	2382.05
3115.64255	2380.55
3118.00134	2381.25
3120.35871	2353.55
3122.71466	2344.05
3125.06917	2341.45
3127.42226	2341.65
3129.77393	2319.15
3132.12417	2323.35
3134.47299	2333.85
3136.82039	2313.15
3139.16636	2287.35
3141.51092	2322.85
3143.85406	2324.75
3146.19579	2305.65
3148.53609	2312.35
3150.87499	2319.55
3153.21246	2291.55
3155.54853	2299.45
3157.88318	2308.65
3160.21642	2315.35
3162.54826	2305.05
3164.87868	2308.95
3167.2077	2272.25
3169.5353	2289.85
3171.86151	2296.35
3174.18631	2281.35
3176.5097	2278.05
3178.83169	2282.65
3181.15228	2277.95
3183.47147	2250.05
3185.78926	2226.75
3188.10565	2245.55
3190.42065	2223.95
3192.73424	2239.65
3195.04645	2232.85
3197.35725	2210.15
3199.66667	2225.15
3201.97469	2223.25
3204.28132	2201.95
3206.58656	2227.05
3208.8904	2224.25
3211.19287	2220.55
3213.49394	2209.95
3215.79363	2211.05
3218.09193	2214.25
3220.38884	2205.25
3222.68438	2205.25
3224.97853	2173.55
3227.2713	2204.75
3229.56269	2193.75
3231.8527	2190.75
3234.14133	2186.95
3236.42858	2173.85
3238.71446	2158.75
3240.99896	2171.45
3243.28209	2141.45
3245.56384	2154.65
3247.84423	2148.35
3250.12324	2149.65
3252.40088	2142.35
3254.67715	2135.75
3256.95205	2124.65
3259.22558	2141.85
3261.49775	2131.55
3263.76855	2135.35
3266.03799	2148.55
3268.30606	2125.55
3270.57277	2127.95
3272.83812	2106.55
3275.10211	2111.65
3277.36474	2124.65
3279.62601	2106.95
3281.88593	2086.55
3284.14448	2072.25
3286.40168	2092.05
3288.65753	2084.35
3290.91202	2077.25
3293.16516	2059.35
3295.41695	2084.05
3297.66738	2081.75
3299.91647	2056.65
3302.16421	2044.05
3304.4106	2021.95
3306.65564	2033.75
3308.89933	2004.15
3311.14169	1997.75
3313.38269	1988.55
3315.62236	1962.45
3317.86068	1956.85
3320.09766	1941.35
3322.3333	1917.05
3324.5676	1908.15
3326.80056	1881.85
3329.03219	1876.95
3331.26248	-0.55
3333.49143	-0.75
3335.71905	1.65
