Data from AgNPs_UA_5uM_CRN_500uM_SU_RamanShift__129__11-50-53-165.txt Node

Date: Thu Aug 04 11:50:53 BST 2022
User: TCL
Spectrometer: QEP01345
Trigger mode: 4
Integration Time (sec): 1.000000E0
Scans to average: 10
Electric dark correction enabled: true
Nonlinearity correction enabled: false
Boxcar width: 0
XAxis mode: Raman Shifts
Number of Pixels in Spectrum: 1044
>>>>>Begin Spectral Data<<<<<
46.04893	-0.75
50.45542	-1.05
54.85868	1.05
59.25871	-0.55
63.6555	-57.45
68.04907	-41.45
72.43941	-71.45
76.82654	-57.95
81.21044	-57.15
85.59113	-49.15
89.96862	-75.85
94.34289	-56.75
98.71396	-77.25
103.08183	-55.95
107.4465	-50.05
111.80798	-56.15
116.16626	-45.15
120.52136	-75.05
124.87327	-51.65
129.222	-64.35
133.56755	-50.15
137.90993	-62.55
142.24913	-51.95
146.58517	-43.35
150.91804	-40.95
155.24774	-32.55
159.57429	-9.95
163.89768	-9.25
168.21792	36.95
172.53501	55.95
176.84895	132.65
181.15975	261.85
185.46741	405.85
189.77193	577.05
194.07331	861.65
198.37157	1145.35
202.6667	1415.35
206.9587	1727.05
211.24758	2038.55
215.53334	2345.05
219.81599	2670.65
224.09553	3068.55
228.37195	3491.75
232.64527	3939.85
236.91549	4405.55
241.18261	4788.05
245.44663	5091.35
249.70755	5298.85
253.96539	5439.85
258.22014	5548.25
262.4718	5591.95
266.72039	5627.05
270.96589	5570.55
275.20832	5467.05
279.44768	5380.05
283.68397	5255.55
287.91719	5171.85
292.14735	5184.25
296.37445	5316.35
300.59849	5540.65
304.81948	5794.45
309.03742	6086.15
313.25231	6279.85
317.46415	6241.55
321.67296	5908.65
325.87872	5600.55
330.08145	5443.15
334.28114	5415.55
338.47781	5482.45
342.67145	5616.85
346.86207	5805.05
351.04966	6139.55
355.23424	6460.05
359.4158	6687.05
363.59435	6720.15
367.76989	6686.55
371.94243	6606.05
376.11196	6516.45
380.27849	6472.15
384.44203	6430.35
388.60257	6400.55
392.76012	6430.75
396.91468	6536.75
401.06626	6653.95
405.21485	6690.35
409.36047	6575.65
413.50311	6342.15
417.64277	6107.65
421.77947	5929.25
425.9132	5884.25
430.04396	5875.35
434.17176	5920.35
438.2966	6004.55
442.41849	6102.25
446.53742	6212.05
450.6534	6318.45
454.76644	6379.75
458.87653	6401.05
462.98368	6379.85
467.08789	6349.15
471.18916	6298.35
475.2875	6222.95
479.38291	6120.15
483.4754	6019.95
487.56496	5982.85
491.6516	5925.85
495.73531	5945.05
499.81612	5969.35
503.89401	6019.55
507.96899	6082.65
512.04106	6162.95
516.11023	6237.65
520.1765	6319.35
524.23987	6361.75
528.30034	6349.35
532.35792	6292.15
536.41261	6250.15
540.46441	6179.75
544.51333	6156.25
548.55936	6198.25
552.60252	6291.65
556.64279	6392.35
560.6802	6504.65
564.71473	6603.45
568.7464	6745.85
572.7752	6727.35
576.80114	6434.35
580.82422	6238.35
584.84444	6168.25
588.86181	6171.05
592.87633	6193.35
596.888	6305.55
600.89682	6635.35
604.9028	7427.05
608.90594	9117.55
612.90624	11023.55
616.90371	10313.25
620.89834	7834.95
624.89015	6783.55
628.87913	6625.65
632.86528	6746.15
636.84862	6891.25
640.82913	6772.85
644.80683	6509.85
648.78172	6380.75
652.75379	6410.75
656.72306	6590.05
660.68952	6784.55
664.65319	6716.55
668.61405	6539.85
672.57211	6482.35
676.52738	6502.95
680.47986	6443.65
684.42955	6376.95
688.37646	6327.85
692.32058	6319.25
696.26192	6390.55
700.20048	6475.95
704.13626	6493.45
708.06928	6462.65
711.99952	6433.95
715.927	6391.75
719.85171	6441.45
723.77365	6488.35
727.69284	6462.65
731.60928	6457.85
735.52295	6438.45
739.43388	6504.05
743.34206	6489.75
747.24749	6533.15
751.15017	6528.15
755.05012	6557.25
758.94733	6884.15
762.8418	7529.25
766.73354	8591.75
770.62254	9384.75
774.50882	9452.65
778.39237	9061.75
782.27321	8352.95
786.15132	7500.15
790.02671	6949.55
793.89938	6630.55
797.76935	6560.75
801.6366	6487.25
805.50115	6461.65
809.36299	6469.55
813.22213	6463.35
817.07857	6452.75
820.93231	6455.95
824.78336	6476.65
828.63172	6493.35
832.47738	6498.45
836.32036	6505.65
840.16066	6485.55
843.99827	6465.85
847.8332	6478.25
851.66546	6477.95
855.49504	6491.55
859.32195	6543.45
863.1462	6514.65
866.96777	6533.95
870.78668	6507.65
874.60293	6542.75
878.41652	6567.15
882.22745	6639.15
886.03573	6666.25
889.84136	6667.05
893.64433	6665.25
897.44466	6641.95
901.24235	6637.55
905.0374	6646.95
908.8298	6574.05
912.61957	6555.15
916.40671	6516.15
920.19121	6563.55
923.97308	6632.15
927.75233	6676.95
931.52895	6738.55
935.30295	6720.65
939.07433	6613.95
942.84309	6488.25
946.60924	6479.65
950.37278	6453.05
954.13371	6447.15
957.89203	6454.85
961.64774	6477.15
965.40086	6449.65
969.15137	6430.85
972.89929	6456.95
976.64461	6438.25
980.38733	6477.35
984.12747	6474.05
987.86502	6504.25
991.59999	6521.25
995.33237	6598.05
999.06217	6689.75
1002.78939	6746.55
1006.51404	6899.55
1010.23611	7027.15
1013.95561	7067.35
1017.67255	7083.25
1021.38692	7081.15
1025.09872	7002.45
1028.80796	6899.85
1032.51465	6894.25
1036.21877	6891.05
1039.92035	6939.35
1043.61937	6949.55
1047.31584	6995.05
1051.00976	7036.95
1054.70114	7034.75
1058.38998	7028.45
1062.07627	7034.95
1065.76003	7090.45
1069.44126	7163.45
1073.11995	7263.45
1076.79611	7373.95
1080.46974	7502.05
1084.14085	7621.45
1087.80943	7713.45
1091.47549	7767.85
1095.13903	7738.15
1098.80005	7657.05
1102.45857	7545.05
1106.11456	7495.95
1109.76805	7409.05
1113.41903	7497.55
1117.06751	7628.75
1120.71348	7805.45
1124.35696	8098.25
1127.99793	8310.15
1131.63641	8202.65
1135.2724	7906.45
1138.90589	7683.65
1142.5369	7526.95
1146.16542	7464.35
1149.79145	7393.65
1153.415	7336.65
1157.03607	7304.85
1160.65467	7344.45
1164.27079	7514.75
1167.88443	7689.05
1171.49561	8034.55
1175.10432	8509.85
1178.71056	9216.45
1182.31434	9854.55
1185.91565	10077.75
1189.51451	9975.65
1193.11091	9819.85
1196.70485	9640.95
1200.29634	9496.95
1203.88538	9320.05
1207.47197	9007.25
1211.05612	8643.25
1214.63782	8362.45
1218.21708	8172.35
1221.79391	8018.15
1225.36829	7898.95
1228.94024	7863.45
1232.50976	7854.85
1236.07685	7898.35
1239.6415	7917.75
1243.20374	7950.45
1246.76355	7985.55
1250.32093	8074.25
1253.8759	8153.45
1257.42845	8347.65
1260.97859	8541.95
1264.52631	8730.65
1268.07163	8838.15
1271.61453	8906.85
1275.15503	8954.05
1278.69312	8947.25
1282.22882	9018.65
1285.76211	9185.15
1289.29301	9353.25
1292.82151	9561.25
1296.34761	9766.05
1299.87133	10100.85
1303.39266	10667.65
1306.9116	11551.15
1310.42815	12523.25
1313.94233	12834.25
1317.45412	12257.45
1320.96354	11376.15
1324.47058	10607.65
1327.97525	10007.25
1331.47754	9694.95
1334.97747	9633.75
1338.47502	9745.15
1341.97022	10081.65
1345.46305	10686.45
1348.95352	11538.75
1352.44163	12521.75
1355.92738	13494.25
1359.41078	14718.75
1362.89183	15765.55
1366.37053	15190.35
1369.84688	12927.35
1373.32088	10883.05
1376.79254	9819.35
1380.26186	9309.15
1383.72883	8980.45
1387.19347	8670.05
1390.65578	8406.35
1394.11575	8236.25
1397.57339	8097.35
1401.0287	8008.95
1404.48168	7987.85
1407.93234	8006.65
1411.38068	8023.95
1414.82669	8110.85
1418.27039	8147.45
1421.71177	8147.85
1425.15083	8034.45
1428.58758	7979.55
1432.02203	8002.25
1435.45416	8101.15
1438.88399	8115.65
1442.31151	8133.55
1445.73673	8206.95
1449.15965	8265.65
1452.58027	8281.55
1455.9986	8264.65
1459.41463	8278.15
1462.82837	8378.65
1466.23982	8516.35
1469.64898	8682.35
1473.05586	8824.95
1476.46045	8885.85
1479.86276	8912.55
1483.26279	8983.05
1486.66054	9128.65
1490.05602	9316.55
1493.44922	9728.75
1496.84016	10411.35
1500.22882	11489.25
1503.61521	12788.75
1506.99934	14122.35
1510.38121	15004.95
1513.76081	14906.45
1517.13816	13692.65
1520.51324	12060.75
1523.88607	10771.65
1527.25665	9983.45
1530.62498	9596.45
1533.99105	9468.25
1537.35488	9382.05
1540.71647	9348.55
1544.07581	9294.05
1547.4329	9211.55
1550.78776	9085.75
1554.14038	8982.25
1557.49077	8933.75
1560.83892	8981.75
1564.18484	9119.05
1567.52853	9364.05
1570.86999	9587.95
1574.20922	9688.95
1577.54624	9605.75
1580.88103	9230.05
1584.2136	8708.25
1587.54395	8470.15
1590.87208	8421.85
1594.19801	8593.55
1597.52172	8888.45
1600.84321	9078.15
1604.16251	9015.85
1607.47959	8852.55
1610.79447	8688.85
1614.10715	8411.75
1617.41763	8102.75
1620.7259	7827.75
1624.03199	7656.45
1627.33587	7607.45
1630.63757	7640.35
1633.93707	7878.45
1637.23439	8238.65
1640.52951	8820.05
1643.82246	9603.35
1647.11321	10486.25
1650.40179	10995.95
1653.68819	10690.65
1656.97241	9656.45
1660.25446	8563.35
1663.53433	7737.65
1666.81203	7228.55
1670.08756	6978.25
1673.36092	6844.95
1676.63211	6704.75
1679.90115	6630.45
1683.16801	6556.85
1686.43272	6456.45
1689.69527	6406.55
1692.95567	6361.95
1696.2139	6355.25
1699.46999	6279.85
1702.72392	6275.45
1705.97571	6291.15
1709.22535	6267.35
1712.47284	6301.55
1715.71819	6311.45
1718.96139	6310.05
1722.20246	6299.65
1725.44139	6262.45
1728.67818	6241.65
1731.91284	6206.55
1735.14537	6190.45
1738.37576	6152.05
1741.60403	6122.75
1744.83017	6114.35
1748.05418	6142.15
1751.27607	6118.65
1754.49584	6083.25
1757.71349	6057.65
1760.92903	6073.55
1764.14244	6023.65
1767.35375	6028.45
1770.56294	5995.65
1773.77002	5987.15
1776.97499	6001.25
1780.17785	5983.35
1783.37861	5967.15
1786.57727	5985.55
1789.77382	5938.15
1792.96828	5946.35
1796.16064	5956.15
1799.3509	5939.25
1802.53907	5961.75
1805.72514	5909.15
1808.90913	5889.15
1812.09102	5887.75
1815.27083	5864.75
1818.44856	5861.15
1821.6242	5854.25
1824.79776	5842.55
1827.96924	5829.85
1831.13864	5813.95
1834.30597	5816.75
1837.47122	5798.55
1840.6344	5795.95
1843.7955	5769.85
1846.95454	5757.55
1850.11151	5788.25
1853.26642	5740.45
1856.41926	5759.05
1859.57004	5752.55
1862.71876	5763.75
1865.86542	5756.05
1869.01003	5746.95
1872.15258	5705.15
1875.29308	5737.35
1878.43152	5735.85
1881.56792	5703.05
1884.70227	5683.15
1887.83457	5681.75
1890.96482	5655.85
1894.09304	5662.05
1897.21921	5675.15
1900.34335	5672.15
1903.46544	5657.45
1906.58551	5644.55
1909.70353	5646.25
1912.81953	5643.25
1915.93349	5632.55
1919.04543	5636.35
1922.15534	5586.75
1925.26322	5606.35
1928.36908	5591.65
1931.47292	5579.25
1934.57473	5585.15
1937.67453	5561.15
1940.77232	5528.05
1943.86808	5520.95
1946.96184	5514.35
1950.05358	5498.45
1953.14331	5471.15
1956.23103	5477.85
1959.31675	5428.05
1962.40046	5377.65
1965.48217	5404.55
1968.56188	5392.95
1971.63959	5397.25
1974.7153	5367.75
1977.78901	5367.95
1980.86073	5343.25
1983.93046	5304.15
1986.99819	5226.45
1990.06394	5244.95
1993.1277	5275.75
1996.18947	5248.65
1999.24925	5206.95
2002.30706	5201.45
2005.36288	5203.45
2008.41672	5174.05
2011.46859	5154.75
2014.51848	5125.95
2017.56639	5122.05
2020.61233	5084.55
2023.6563	5102.35
2026.6983	5061.95
2029.73833	5073.75
2032.7764	5057.15
2035.8125	5017.65
2038.84664	5021.45
2041.87881	5015.45
2044.90903	5012.75
2047.93729	4995.55
2050.96359	4982.65
2053.98794	4988.55
2057.01034	4996.35
2060.03078	4971.35
2063.04927	4955.55
2066.06582	4962.35
2069.08042	4964.55
2072.09307	4958.55
2075.10378	4947.55
2078.11255	4931.35
2081.11938	4950.55
2084.12426	4930.25
2087.12722	4927.55
2090.12824	4916.45
2093.12732	4926.45
2096.12447	4928.65
2099.11969	4933.55
2102.11299	4913.25
2105.10435	4939.75
2108.09379	4938.85
2111.08131	4915.25
2114.0669	4917.45
2117.05057	4918.85
2120.03233	4912.05
2123.01216	4934.15
2125.99008	4925.25
2128.96609	4927.55
2131.94018	4961.85
2134.91236	4943.65
2137.88263	4925.85
2140.851	4951.55
2143.81746	4963.75
2146.78201	4963.45
2149.74466	4952.15
2152.7054	4955.85
2155.66425	4925.75
2158.6212	4929.05
2161.57625	4912.45
2164.52941	4887.35
2167.48067	4901.25
2170.43004	4898.75
2173.37752	4917.95
2176.32311	4904.55
2179.26681	4909.85
2182.20863	4915.75
2185.14856	4905.95
2188.08661	4909.85
2191.02278	4893.65
2193.95707	4892.85
2196.88948	4881.95
2199.82001	4879.25
2202.74867	4878.25
2205.67545	4868.75
2208.60037	4867.35
2211.52341	4851.15
2214.44458	4856.15
2217.36388	4829.25
2220.28132	4817.35
2223.1969	4804.05
2226.11061	4790.95
2229.02246	4774.35
2231.93245	4791.05
2234.84058	4776.95
2237.74686	4758.95
2240.65128	4747.55
2243.55385	4755.55
2246.45456	4727.75
2249.35343	4739.65
2252.25044	4729.15
2255.14561	4723.65
2258.03893	4721.35
2260.93041	4702.95
2263.82004	4693.55
2266.70783	4685.25
2269.59378	4686.55
2272.4779	4666.25
2275.36017	4638.15
2278.24061	4635.65
2281.11922	4600.05
2283.996	4627.85
2286.87094	4611.85
2289.74405	4611.95
2292.61534	4610.55
2295.4848	4584.05
2298.35243	4575.35
2301.21824	4564.35
2304.08223	4564.75
2306.94439	4580.15
2309.80474	4580.95
2312.66327	4549.65
2315.51999	4554.35
2318.37489	4547.05
2321.22797	4522.05
2324.07925	4504.05
2326.92871	4507.95
2329.77637	4482.95
2332.62222	4474.45
2335.46626	4474.55
2338.3085	4459.75
2341.14893	4478.05
2343.98756	4480.45
2346.8244	4459.75
2349.65943	4447.35
2352.49267	4446.75
2355.32411	4443.45
2358.15376	4457.35
2360.98161	4454.65
2363.80768	4427.05
2366.63195	4437.65
2369.45444	4447.75
2372.27514	4435.95
2375.09405	4443.15
2377.91118	4404.95
2380.72652	4407.95
2383.54009	4395.45
2386.35187	4406.75
2389.16188	4374.25
2391.97011	4364.55
2394.77657	4351.85
2397.58125	4356.75
2400.38416	4347.75
2403.18529	4339.65
2405.98466	4309.75
2408.78226	4316.15
2411.57809	4305.05
2414.37216	4287.25
2417.16446	4290.35
2419.955	4274.65
2422.74378	4276.35
2425.5308	4264.65
2428.31606	4265.55
2431.09956	4262.55
2433.88131	4245.75
2436.6613	4257.15
2439.43954	4261.15
2442.21603	4251.45
2444.99077	4225.25
2447.76377	4243.25
2450.53501	4238.65
2453.30451	4214.45
2456.07226	4217.85
2458.83827	4208.15
2461.60254	4165.55
2464.36507	4201.45
2467.12586	4186.65
2469.88492	4192.55
2472.64224	4190.85
2475.39782	4170.65
2478.15167	4178.55
2480.90379	4163.95
2483.65417	4178.15
2486.40283	4200.45
2489.14976	4194.05
2491.89497	4165.35
2494.63845	4169.45
2497.3802	4154.55
2500.12024	4153.45
2502.85855	4142.25
2505.59514	4156.05
2508.33002	4135.95
2511.06318	4116.65
2513.79462	4116.75
2516.52435	4084.15
2519.25237	4063.15
2521.97867	4069.65
2524.70327	4081.65
2527.42616	4073.85
2530.14734	4081.05
2532.86681	4042.55
2535.58458	4062.95
2538.30065	4044.45
2541.01501	4073.65
2543.72768	4034.45
2546.43864	4029.45
2549.14791	4030.15
2551.85548	4003.55
2554.56136	4007.35
2557.26554	4024.15
2559.96803	3999.05
2562.66883	3999.85
2565.36794	3971.95
2568.06536	3937.45
2570.7611	3959.15
2573.45514	3961.95
2576.14751	3940.25
2578.83819	3931.55
2581.52719	3912.25
2584.21451	3912.45
2586.90015	3895.55
2589.58411	3870.25
2592.2664	3896.25
2594.94701	3886.35
2597.62594	3888.25
2600.30321	3807.05
2602.9788	3838.85
2605.65273	3827.85
2608.32498	3840.65
2610.99557	3854.45
2613.66449	3824.85
2616.33175	3832.45
2618.99734	3832.25
2621.66128	3825.55
2624.32355	3808.25
2626.98416	3790.75
2629.64311	3788.65
2632.30041	3758.95
2634.95605	3769.95
2637.61004	3758.05
2640.26238	3742.35
2642.91306	3731.65
2645.56209	3761.85
2648.20948	3742.45
2650.85521	3730.15
2653.4993	3761.45
2656.14175	3757.65
2658.78255	3713.95
2661.42171	3704.05
2664.05923	3736.75
2666.6951	3746.85
2669.32934	3750.45
2671.96194	3747.05
2674.59291	3732.15
2677.22224	3748.35
2679.84993	3733.75
2682.476	3735.25
2685.10043	3729.75
2687.72324	3712.15
2690.34441	3722.05
2692.96396	3698.55
2695.58188	3734.95
2698.19818	3708.85
2700.81285	3686.35
2703.4259	3697.15
2706.03733	3680.15
2708.64714	3667.55
2711.25533	3697.25
2713.86191	3699.35
2716.46687	3687.65
2719.07021	3685.55
2721.67194	3685.65
2724.27206	3705.05
2726.87057	3669.35
2729.46747	3667.05
2732.06276	3679.15
2734.65644	3657.55
2737.24852	3666.65
2739.83899	3639.45
2742.42786	3645.25
2745.01513	3661.35
2747.60079	3650.15
2750.18486	3617.35
2752.76733	3626.15
2755.3482	3615.25
2757.92747	3615.85
2760.50515	3602.45
2763.08123	3600.05
2765.65573	3594.95
2768.22863	3588.05
2770.79994	3573.15
2773.36967	3565.35
2775.9378	3570.25
2778.50435	3565.65
2781.06932	3557.85
2783.6327	3545.75
2786.1945	3574.55
2788.75471	3545.95
2791.31335	3521.85
2793.87041	3527.85
2796.42589	3521.05
2798.97979	3488.85
2801.53212	3506.65
2804.08288	3510.35
2806.63206	3487.65
2809.17967	3474.95
2811.72571	3484.35
2814.27018	3485.25
2816.81308	3462.55
2819.35442	3434.85
2821.89419	3438.85
2824.43239	3426.65
2826.96904	3447.75
2829.50412	3433.25
2832.03763	3420.35
2834.56959	3409.05
2837.1	3418.55
2839.62884	3410.55
2842.15613	3411.35
2844.68186	3416.65
2847.20604	3376.85
2849.72867	3376.05
2852.24974	3377.65
2854.76927	3350.95
2857.28724	3304.15
2859.80367	3355.85
2862.31855	3363.65
2864.83189	3348.65
2867.34368	3345.75
2869.85393	3357.85
2872.36264	3323.45
2874.8698	3332.55
2877.37543	3343.95
2879.87952	3333.35
2882.38207	3306.55
2884.88308	3307.85
2887.38256	3316.25
2889.88051	3307.15
2892.37692	3295.95
2894.8718	3292.85
2897.36515	3299.95
2899.85698	3288.75
2902.34727	3310.75
2904.83604	3294.95
2907.32328	3312.85
2909.809	3310.15
2912.29319	3302.55
2914.77587	3309.45
2917.25702	3324.25
2919.73665	3320.95
2922.21476	3316.45
2924.69136	3314.95
2927.16644	3304.55
2929.64	3305.25
2932.11205	3281.35
2934.58258	3294.15
2937.05161	3283.05
2939.51912	3280.15
2941.98513	3287.25
2944.44962	3269.65
2946.91261	3260.25
2949.37409	3258.05
2951.83407	3251.95
2954.29254	3239.15
2956.74951	3253.15
2959.20498	3226.75
2961.65895	3232.75
2964.11142	3224.95
2966.56239	3217.95
2969.01186	3231.65
2971.45984	3220.95
2973.90632	3203.75
2976.35131	3211.75
2978.7948	3215.25
2981.23681	3194.75
2983.67732	3195.25
2986.11635	3175.55
2988.55388	3159.35
2990.98993	3155.85
2993.4245	3143.55
2995.85758	3143.05
2998.28917	3135.85
3000.71928	3120.55
3003.14791	3117.15
3005.57506	3106.65
3008.00073	3085.45
3010.42493	3028.25
3012.84764	3096.45
3015.26888	3087.55
3017.68865	3067.05
3020.10694	3021.95
3022.52376	3039.95
3024.9391	3035.35
3027.35298	3033.65
3029.76539	3018.75
3032.17632	3013.95
3034.5858	3003.25
3036.9938	3017.65
3039.40034	3001.65
3041.80542	3000.65
3044.20903	2979.55
3046.61118	2967.85
3049.01187	2976.95
3051.4111	2958.55
3053.80888	2948.65
3056.20519	2939.65
3058.60005	2932.85
3060.99345	2956.95
3063.3854	2913.65
3065.7759	2912.05
3068.16494	2901.35
3070.55254	2873.05
3072.93868	2905.65
3075.32338	2869.35
3077.70662	2875.25
3080.08842	2856.25
3082.46878	2842.05
3084.84769	2880.05
3087.22515	2844.15
3089.60118	2871.75
3091.97576	2858.45
3094.3489	2858.05
3096.72061	2837.55
3099.09087	2824.85
3101.4597	2844.75
3103.82709	2830.95
3106.19305	2815.35
3108.55757	2827.05
3110.92066	2801.65
3113.28232	2804.75
3115.64255	2810.55
3118.00134	2802.45
3120.35871	2784.35
3122.71466	2764.35
3125.06917	2774.55
3127.42226	2755.95
3129.77393	2733.45
3132.12417	2759.65
3134.47299	2761.75
3136.82039	2735.85
3139.16636	2706.95
3141.51092	2730.45
3143.85406	2746.55
3146.19579	2720.25
3148.53609	2720.75
3150.87499	2718.45
3153.21246	2711.55
3155.54853	2728.95
3157.88318	2731.45
3160.21642	2728.65
3162.54826	2733.65
3164.87868	2728.55
3167.2077	2678.85
3169.5353	2706.35
3171.86151	2720.65
3174.18631	2693.95
3176.5097	2692.95
3178.83169	2697.05
3181.15228	2689.65
3183.47147	2653.55
3185.78926	2653.75
3188.10565	2650.45
3190.42065	2642.05
3192.73424	2653.35
3195.04645	2626.25
3197.35725	2621.75
3199.66667	2632.65
3201.97469	2628.95
3204.28132	2621.85
3206.58656	2628.25
3208.8904	2632.25
3211.19287	2622.65
3213.49394	2606.55
3215.79363	2598.85
3218.09193	2615.65
3220.38884	2608.15
3222.68438	2612.75
3224.97853	2593.55
3227.2713	2601.75
3229.56269	2583.15
3231.8527	2598.95
3234.14133	2587.35
3236.42858	2574.85
3238.71446	2548.85
3240.99896	2575.55
3243.28209	2538.95
3245.56384	2558.35
3247.84423	2540.85
3250.12324	2542.35
3252.40088	2548.75
3254.67715	2526.95
3256.95205	2521.25
3259.22558	2542.15
3261.49775	2537.65
3263.76855	2519.15
3266.03799	2529.25
3268.30606	2532.25
3270.57277	2525.95
3272.83812	2499.65
3275.10211	2496.55
3277.36474	2503.85
3279.62601	2493.55
3281.88593	2484.25
3284.14448	2462.05
3286.40168	2484.55
3288.65753	2463.15
3290.91202	2478.45
3293.16516	2438.05
3295.41695	2466.35
3297.66738	2462.75
3299.91647	2427.65
3302.16421	2431.45
3304.4106	2389.25
3306.65564	2401.25
3308.89933	2359.25
3311.14169	2354.25
3313.38269	2347.35
3315.62236	2318.45
3317.86068	2310.45
3320.09766	2309.25
3322.3333	2251.65
3324.5676	2251.95
3326.80056	2216.15
3329.03219	2207.55
3331.26248	0.65
3333.49143	-0.35
3335.71905	0.15
