Data from AgNPs_UA_5uM_CRN_500uM_SU_RamanShift__150__11-54-23-169.txt Node

Date: Thu Aug 04 11:54:23 BST 2022
User: TCL
Spectrometer: QEP01345
Trigger mode: 4
Integration Time (sec): 1.000000E0
Scans to average: 10
Electric dark correction enabled: true
Nonlinearity correction enabled: false
Boxcar width: 0
XAxis mode: Raman Shifts
Number of Pixels in Spectrum: 1044
>>>>>Begin Spectral Data<<<<<
46.04893	0.475
50.45542	0.775
54.85868	0.275
59.25871	-1.225
63.6555	-57.525
68.04907	-38.925
72.43941	-72.825
76.82654	-55.925
81.21044	-55.625
85.59113	-47.725
89.96862	-75.825
94.34289	-54.725
98.71396	-78.925
103.08183	-57.725
107.4465	-49.825
111.80798	-55.925
116.16626	-44.825
120.52136	-75.525
124.87327	-49.425
129.222	-63.625
133.56755	-49.325
137.90993	-62.925
142.24913	-49.425
146.58517	-42.225
150.91804	-39.825
155.24774	-28.325
159.57429	-8.125
163.89768	-5.125
168.21792	42.875
172.53501	61.575
176.84895	145.375
181.15975	279.775
185.46741	431.875
189.77193	617.975
194.07331	913.275
198.37157	1207.175
202.6667	1494.275
206.9587	1828.575
211.24758	2136.375
215.53334	2479.175
219.81599	2840.775
224.09553	3253.075
228.37195	3704.075
232.64527	4175.175
236.91549	4663.375
241.18261	5018.875
245.44663	5334.475
249.70755	5508.275
253.96539	5669.875
258.22014	5777.475
262.4718	5820.075
266.72039	5858.575
270.96589	5835.375
275.20832	5716.375
279.44768	5594.275
283.68397	5498.975
287.91719	5430.975
292.14735	5455.275
296.37445	5621.575
300.59849	5858.575
304.81948	6214.575
309.03742	6567.075
313.25231	6785.275
317.46415	6736.675
321.67296	6347.675
325.87872	5959.175
330.08145	5770.375
334.28114	5756.175
338.47781	5804.375
342.67145	5961.175
346.86207	6194.175
351.04966	6574.175
355.23424	6951.475
359.4158	7214.275
363.59435	7275.575
367.76989	7203.275
371.94243	7072.975
376.11196	6964.475
380.27849	6888.775
384.44203	6832.975
388.60257	6795.375
392.76012	6799.775
396.91468	6918.375
401.06626	7069.875
405.21485	7103.475
409.36047	6948.575
413.50311	6632.275
417.64277	6363.575
421.77947	6184.375
425.9132	6113.175
430.04396	6090.375
434.17176	6119.775
438.2966	6213.375
442.41849	6325.675
446.53742	6442.875
450.6534	6532.875
454.76644	6619.275
458.87653	6616.275
462.98368	6602.375
467.08789	6542.775
471.18916	6471.475
475.2875	6365.675
479.38291	6277.275
483.4754	6148.475
487.56496	6115.375
491.6516	6070.875
495.73531	6088.175
499.81612	6104.975
503.89401	6200.975
507.96899	6254.275
512.04106	6357.475
516.11023	6450.675
520.1765	6524.475
524.23987	6541.275
528.30034	6554.175
532.35792	6474.275
536.41261	6420.675
540.46441	6318.075
544.51333	6279.775
548.55936	6331.875
552.60252	6447.375
556.64279	6552.275
560.6802	6688.075
564.71473	6818.375
568.7464	6993.775
572.7752	6969.075
576.80114	6650.175
580.82422	6421.475
584.84444	6310.575
588.86181	6298.375
592.87633	6341.775
596.888	6455.875
600.89682	6804.575
604.9028	7769.375
608.90594	9787.675
612.90624	12048.575
616.90371	11212.175
620.89834	8256.975
624.89015	6982.475
628.87913	6805.075
632.86528	6935.775
636.84862	7101.375
640.82913	6961.275
644.80683	6623.875
648.78172	6460.475
652.75379	6474.175
656.72306	6729.675
660.68952	6957.375
664.65319	6869.375
668.61405	6651.175
672.57211	6576.975
676.52738	6586.275
680.47986	6506.475
684.42955	6418.775
688.37646	6371.675
692.32058	6371.475
696.26192	6451.175
700.20048	6536.975
704.13626	6579.575
708.06928	6538.475
711.99952	6511.675
715.927	6453.875
719.85171	6505.375
723.77365	6563.075
727.69284	6524.875
731.60928	6532.275
735.52295	6521.775
739.43388	6554.475
743.34206	6550.875
747.24749	6582.775
751.15017	6608.375
755.05012	6654.175
758.94733	7019.975
762.8418	7835.475
766.73354	9101.975
770.62254	10028.075
774.50882	10108.075
778.39237	9649.175
782.27321	8764.675
786.15132	7778.375
790.02671	7126.275
793.89938	6744.075
797.76935	6654.575
801.6366	6553.275
805.50115	6517.375
809.36299	6526.175
813.22213	6511.875
817.07857	6511.475
820.93231	6515.275
824.78336	6517.675
828.63172	6575.675
832.47738	6551.175
836.32036	6556.975
840.16066	6541.075
843.99827	6502.875
847.8332	6527.075
851.66546	6547.975
855.49504	6519.275
859.32195	6582.075
863.1462	6564.875
866.96777	6558.075
870.78668	6560.175
874.60293	6585.975
878.41652	6601.875
882.22745	6679.175
886.03573	6700.075
889.84136	6717.175
893.64433	6697.575
897.44466	6671.775
901.24235	6686.975
905.0374	6669.975
908.8298	6607.375
912.61957	6575.275
916.40671	6521.975
920.19121	6585.375
923.97308	6673.375
927.75233	6748.575
931.52895	6815.275
935.30295	6794.575
939.07433	6645.175
942.84309	6514.575
946.60924	6491.775
950.37278	6461.175
954.13371	6440.475
957.89203	6442.375
961.64774	6464.675
965.40086	6453.875
969.15137	6433.175
972.89929	6455.475
976.64461	6453.775
980.38733	6464.375
984.12747	6455.775
987.86502	6507.175
991.59999	6527.275
995.33237	6609.975
999.06217	6675.775
1002.78939	6738.975
1006.51404	6891.975
1010.23611	6997.175
1013.95561	7061.875
1017.67255	7057.975
1021.38692	7031.775
1025.09872	6958.075
1028.80796	6868.375
1032.51465	6889.875
1036.21877	6863.275
1039.92035	6909.075
1043.61937	6950.975
1047.31584	7000.275
1051.00976	7032.375
1054.70114	7036.275
1058.38998	7019.875
1062.07627	7046.875
1065.76003	7081.875
1069.44126	7138.675
1073.11995	7226.175
1076.79611	7357.675
1080.46974	7522.375
1084.14085	7649.975
1087.80943	7779.875
1091.47549	7827.475
1095.13903	7759.675
1098.80005	7649.975
1102.45857	7540.975
1106.11456	7499.975
1109.76805	7454.675
1113.41903	7535.875
1117.06751	7693.475
1120.71348	7962.775
1124.35696	8297.275
1127.99793	8587.575
1131.63641	8412.675
1135.2724	8045.775
1138.90589	7766.275
1142.5369	7569.575
1146.16542	7503.375
1149.79145	7387.575
1153.415	7328.475
1157.03607	7312.275
1160.65467	7363.675
1164.27079	7587.275
1167.88443	7807.075
1171.49561	8199.575
1175.10432	8793.075
1178.71056	9604.275
1182.31434	10365.775
1185.91565	10613.275
1189.51451	10457.175
1193.11091	10253.375
1196.70485	10013.275
1200.29634	9843.675
1203.88538	9566.975
1207.47197	9173.275
1211.05612	8749.575
1214.63782	8371.275
1218.21708	8146.875
1221.79391	8005.375
1225.36829	7895.575
1228.94024	7887.175
1232.50976	7877.875
1236.07685	7941.875
1239.6415	7949.775
1243.20374	7970.375
1246.76355	8023.775
1250.32093	8106.175
1253.8759	8179.075
1257.42845	8375.675
1260.97859	8567.175
1264.52631	8775.075
1268.07163	8928.975
1271.61453	9060.375
1275.15503	9107.175
1278.69312	9096.075
1282.22882	9141.875
1285.76211	9342.275
1289.29301	9558.975
1292.82151	9835.775
1296.34761	10042.275
1299.87133	10430.275
1303.39266	11105.975
1306.9116	12194.675
1310.42815	13324.175
1313.94233	13745.675
1317.45412	12997.675
1320.96354	11931.975
1324.47058	10934.475
1327.97525	10227.675
1331.47754	9883.975
1334.97747	9795.575
1338.47502	9891.675
1341.97022	10261.475
1345.46305	10953.475
1348.95352	11969.775
1352.44163	13159.475
1355.92738	14397.375
1359.41078	15904.475
1362.89183	17309.275
1366.37053	16644.475
1369.84688	13957.875
1373.32088	11480.475
1376.79254	10169.575
1380.26186	9584.075
1383.72883	9203.875
1387.19347	8806.375
1390.65578	8527.875
1394.11575	8285.475
1397.57339	8115.475
1401.0287	8038.575
1404.48168	7996.175
1407.93234	8025.575
1411.38068	8033.275
1414.82669	8120.975
1418.27039	8174.275
1421.71177	8190.275
1425.15083	8084.275
1428.58758	8018.475
1432.02203	8052.875
1435.45416	8111.175
1438.88399	8118.175
1442.31151	8156.475
1445.73673	8212.675
1449.15965	8240.675
1452.58027	8265.275
1455.9986	8234.475
1459.41463	8272.575
1462.82837	8352.375
1466.23982	8548.275
1469.64898	8740.975
1473.05586	8877.975
1476.46045	8979.475
1479.86276	9031.975
1483.26279	9110.675
1486.66054	9276.875
1490.05602	9530.275
1493.44922	10041.475
1496.84016	10852.775
1500.22882	12126.075
1503.61521	13735.375
1506.99934	15387.175
1510.38121	16498.275
1513.76081	16413.275
1517.13816	14974.975
1520.51324	12969.375
1523.88607	11353.175
1527.25665	10396.275
1530.62498	9929.475
1533.99105	9732.375
1537.35488	9599.075
1540.71647	9529.775
1544.07581	9453.275
1547.4329	9306.575
1550.78776	9244.875
1554.14038	9119.575
1557.49077	9089.675
1560.83892	9173.775
1564.18484	9367.375
1567.52853	9665.175
1570.86999	9965.875
1574.20922	10121.975
1577.54624	10027.675
1580.88103	9516.975
1584.2136	8912.575
1587.54395	8567.175
1590.87208	8524.375
1594.19801	8663.375
1597.52172	9049.675
1600.84321	9190.175
1604.16251	9088.775
1607.47959	8898.475
1610.79447	8716.375
1614.10715	8397.375
1617.41763	8090.175
1620.7259	7849.675
1624.03199	7693.175
1627.33587	7611.975
1630.63757	7667.675
1633.93707	7884.075
1637.23439	8312.575
1640.52951	8959.375
1643.82246	9896.675
1647.11321	10996.575
1650.40179	11654.375
1653.68819	11314.675
1656.97241	10101.475
1660.25446	8793.075
1663.53433	7846.975
1666.81203	7283.075
1670.08756	6957.275
1673.36092	6788.375
1676.63211	6644.475
1679.90115	6562.175
1683.16801	6481.075
1686.43272	6393.275
1689.69527	6339.175
1692.95567	6263.575
1696.2139	6258.875
1699.46999	6187.975
1702.72392	6202.675
1705.97571	6206.675
1709.22535	6186.175
1712.47284	6216.975
1715.71819	6217.675
1718.96139	6221.575
1722.20246	6220.475
1725.44139	6173.075
1728.67818	6147.675
1731.91284	6107.575
1735.14537	6077.075
1738.37576	6040.475
1741.60403	6046.575
1744.83017	5995.275
1748.05418	6004.375
1751.27607	6023.075
1754.49584	5959.975
1757.71349	5929.175
1760.92903	5942.075
1764.14244	5899.175
1767.35375	5901.475
1770.56294	5892.775
1773.77002	5874.575
1776.97499	5883.475
1780.17785	5861.875
1783.37861	5856.375
1786.57727	5851.175
1789.77382	5797.175
1792.96828	5830.975
1796.16064	5835.875
1799.3509	5818.075
1802.53907	5826.975
1805.72514	5807.775
1808.90913	5770.775
1812.09102	5775.275
1815.27083	5762.475
1818.44856	5738.175
1821.6242	5734.475
1824.79776	5724.875
1827.96924	5704.175
1831.13864	5667.275
1834.30597	5693.275
1837.47122	5675.675
1840.6344	5657.275
1843.7955	5621.375
1846.95454	5631.775
1850.11151	5660.575
1853.26642	5607.975
1856.41926	5610.275
1859.57004	5626.475
1862.71876	5608.075
1865.86542	5610.775
1869.01003	5616.475
1872.15258	5586.875
1875.29308	5609.775
1878.43152	5606.075
1881.56792	5575.075
1884.70227	5558.975
1887.83457	5559.675
1890.96482	5530.275
1894.09304	5529.175
1897.21921	5528.775
1900.34335	5528.375
1903.46544	5511.375
1906.58551	5529.675
1909.70353	5520.275
1912.81953	5505.075
1915.93349	5494.675
1919.04543	5488.475
1922.15534	5464.575
1925.26322	5477.275
1928.36908	5448.875
1931.47292	5452.075
1934.57473	5445.475
1937.67453	5406.075
1940.77232	5378.475
1943.86808	5374.875
1946.96184	5377.275
1950.05358	5346.975
1953.14331	5333.275
1956.23103	5327.375
1959.31675	5305.675
1962.40046	5254.975
1965.48217	5267.675
1968.56188	5248.975
1971.63959	5242.675
1974.7153	5246.175
1977.78901	5224.375
1980.86073	5207.075
1983.93046	5170.675
1986.99819	5083.675
1990.06394	5099.475
1993.1277	5122.375
1996.18947	5116.475
1999.24925	5057.275
2002.30706	5065.475
2005.36288	5055.175
2008.41672	5029.275
2011.46859	5019.275
2014.51848	5016.575
2017.56639	4983.775
2020.61233	4965.075
2023.6563	4961.275
2026.6983	4921.775
2029.73833	4914.175
2032.7764	4922.875
2035.8125	4880.975
2038.84664	4888.975
2041.87881	4865.975
2044.90903	4883.575
2047.93729	4864.575
2050.96359	4826.875
2053.98794	4833.875
2057.01034	4846.175
2060.03078	4798.375
2063.04927	4820.875
2066.06582	4807.775
2069.08042	4789.775
2072.09307	4805.475
2075.10378	4812.475
2078.11255	4796.375
2081.11938	4787.975
2084.12426	4797.075
2087.12722	4778.975
2090.12824	4797.375
2093.12732	4795.075
2096.12447	4796.775
2099.11969	4785.875
2102.11299	4781.275
2105.10435	4795.775
2108.09379	4781.475
2111.08131	4788.175
2114.0669	4785.075
2117.05057	4772.175
2120.03233	4765.275
2123.01216	4807.975
2125.99008	4801.775
2128.96609	4810.175
2131.94018	4810.675
2134.91236	4790.775
2137.88263	4790.975
2140.851	4788.175
2143.81746	4826.875
2146.78201	4813.475
2149.74466	4806.075
2152.7054	4798.375
2155.66425	4782.775
2158.6212	4782.275
2161.57625	4764.275
2164.52941	4738.375
2167.48067	4755.175
2170.43004	4741.075
2173.37752	4775.875
2176.32311	4752.675
2179.26681	4742.975
2182.20863	4767.775
2185.14856	4762.475
2188.08661	4770.075
2191.02278	4778.475
2193.95707	4738.675
2196.88948	4723.375
2199.82001	4722.075
2202.74867	4712.175
2205.67545	4727.475
2208.60037	4712.675
2211.52341	4701.975
2214.44458	4686.775
2217.36388	4685.975
2220.28132	4672.475
2223.1969	4651.175
2226.11061	4655.675
2229.02246	4622.875
2231.93245	4638.075
2234.84058	4628.675
2237.74686	4617.675
2240.65128	4586.875
2243.55385	4611.475
2246.45456	4585.675
2249.35343	4606.775
2252.25044	4570.175
2255.14561	4585.675
2258.03893	4570.075
2260.93041	4550.375
2263.82004	4553.975
2266.70783	4553.975
2269.59378	4522.975
2272.4779	4507.075
2275.36017	4504.875
2278.24061	4506.175
2281.11922	4465.075
2283.996	4462.375
2286.87094	4440.075
2289.74405	4459.475
2292.61534	4468.475
2295.4848	4442.575
2298.35243	4422.575
2301.21824	4422.475
2304.08223	4419.075
2306.94439	4426.775
2309.80474	4424.875
2312.66327	4425.775
2315.51999	4399.275
2318.37489	4394.775
2321.22797	4372.975
2324.07925	4365.775
2326.92871	4370.575
2329.77637	4344.075
2332.62222	4334.075
2335.46626	4324.075
2338.3085	4323.775
2341.14893	4322.875
2343.98756	4347.375
2346.8244	4310.175
2349.65943	4297.375
2352.49267	4306.175
2355.32411	4303.475
2358.15376	4302.175
2360.98161	4310.975
2363.80768	4278.375
2366.63195	4293.175
2369.45444	4287.375
2372.27514	4302.575
2375.09405	4290.875
2377.91118	4261.275
2380.72652	4259.275
2383.54009	4243.475
2386.35187	4263.775
2389.16188	4233.875
2391.97011	4231.075
2394.77657	4220.475
2397.58125	4205.175
2400.38416	4211.675
2403.18529	4191.575
2405.98466	4159.175
2408.78226	4169.075
2411.57809	4150.375
2414.37216	4153.375
2417.16446	4152.075
2419.955	4123.575
2422.74378	4158.175
2425.5308	4123.475
2428.31606	4121.075
2431.09956	4140.375
2433.88131	4109.875
2436.6613	4123.975
2439.43954	4093.475
2442.21603	4102.075
2444.99077	4088.375
2447.76377	4091.275
2450.53501	4084.875
2453.30451	4076.275
2456.07226	4083.375
2458.83827	4052.375
2461.60254	4016.675
2464.36507	4066.875
2467.12586	4034.175
2469.88492	4062.275
2472.64224	4058.275
2475.39782	4029.075
2478.15167	4030.275
2480.90379	4043.575
2483.65417	4054.075
2486.40283	4048.575
2489.14976	4047.175
2491.89497	4028.875
2494.63845	4035.075
2497.3802	4020.475
2500.12024	4026.475
2502.85855	4013.375
2505.59514	4023.375
2508.33002	4009.675
2511.06318	3971.075
2513.79462	3951.775
2516.52435	3944.875
2519.25237	3922.875
2521.97867	3932.575
2524.70327	3927.975
2527.42616	3935.475
2530.14734	3941.475
2532.86681	3919.475
2535.58458	3897.575
2538.30065	3904.775
2541.01501	3910.875
2543.72768	3894.875
2546.43864	3887.375
2549.14791	3895.875
2551.85548	3874.275
2554.56136	3860.675
2557.26554	3873.375
2559.96803	3853.675
2562.66883	3862.175
2565.36794	3824.575
2568.06536	3814.775
2570.7611	3828.375
2573.45514	3809.775
2576.14751	3809.275
2578.83819	3768.875
2581.52719	3779.675
2584.21451	3768.575
2586.90015	3746.275
2589.58411	3749.475
2592.2664	3752.875
2594.94701	3742.775
2597.62594	3750.675
2600.30321	3679.875
2602.9788	3712.475
2605.65273	3701.075
2608.32498	3688.675
2610.99557	3711.375
2613.66449	3680.775
2616.33175	3689.175
2618.99734	3687.375
2621.66128	3684.675
2624.32355	3681.575
2626.98416	3648.875
2629.64311	3645.775
2632.30041	3646.075
2634.95605	3630.975
2637.61004	3612.475
2640.26238	3600.975
2642.91306	3602.575
2645.56209	3624.375
2648.20948	3608.575
2650.85521	3592.175
2653.4993	3615.475
2656.14175	3601.775
2658.78255	3582.575
2661.42171	3563.075
2664.05923	3610.275
2666.6951	3595.775
2669.32934	3603.775
2671.96194	3609.875
2674.59291	3607.875
2677.22224	3614.975
2679.84993	3613.575
2682.476	3579.775
2685.10043	3599.075
2687.72324	3584.375
2690.34441	3581.175
2692.96396	3566.775
2695.58188	3583.175
2698.19818	3583.675
2700.81285	3566.875
2703.4259	3563.475
2706.03733	3531.875
2708.64714	3527.175
2711.25533	3559.275
2713.86191	3558.675
2716.46687	3539.975
2719.07021	3556.175
2721.67194	3560.375
2724.27206	3572.775
2726.87057	3557.875
2729.46747	3547.875
2732.06276	3540.575
2734.65644	3524.175
2737.24852	3532.675
2739.83899	3513.175
2742.42786	3513.275
2745.01513	3519.675
2747.60079	3496.675
2750.18486	3492.175
2752.76733	3497.575
2755.3482	3489.775
2757.92747	3499.575
2760.50515	3456.175
2763.08123	3456.775
2765.65573	3456.675
2768.22863	3463.675
2770.79994	3431.675
2773.36967	3422.275
2775.9378	3431.875
2778.50435	3429.575
2781.06932	3417.875
2783.6327	3411.575
2786.1945	3433.075
2788.75471	3411.675
2791.31335	3403.175
2793.87041	3402.375
2796.42589	3383.275
2798.97979	3368.875
2801.53212	3368.175
2804.08288	3374.775
2806.63206	3369.275
2809.17967	3344.675
2811.72571	3367.075
2814.27018	3346.675
2816.81308	3340.775
2819.35442	3303.075
2821.89419	3303.175
2824.43239	3295.475
2826.96904	3326.475
2829.50412	3300.175
2832.03763	3308.675
2834.56959	3300.075
2837.1	3280.575
2839.62884	3288.575
2842.15613	3284.675
2844.68186	3297.075
2847.20604	3256.675
2849.72867	3253.575
2852.24974	3260.875
2854.76927	3243.275
2857.28724	3188.975
2859.80367	3247.375
2862.31855	3257.175
2864.83189	3234.575
2867.34368	3228.075
2869.85393	3241.175
2872.36264	3214.375
2874.8698	3222.475
2877.37543	3225.875
2879.87952	3220.475
2882.38207	3188.275
2884.88308	3198.775
2887.38256	3200.475
2889.88051	3208.075
2892.37692	3201.275
2894.8718	3176.375
2897.36515	3202.175
2899.85698	3182.875
2902.34727	3180.475
2904.83604	3193.275
2907.32328	3203.975
2909.809	3192.975
2912.29319	3186.675
2914.77587	3199.275
2917.25702	3197.275
2919.73665	3204.775
2922.21476	3211.375
2924.69136	3208.975
2927.16644	3187.275
2929.64	3195.675
2932.11205	3174.875
2934.58258	3167.775
2937.05161	3144.675
2939.51912	3162.575
2941.98513	3185.175
2944.44962	3171.075
2946.91261	3133.075
2949.37409	3152.375
2951.83407	3143.475
2954.29254	3145.075
2956.74951	3133.375
2959.20498	3116.275
2961.65895	3127.475
2964.11142	3103.075
2966.56239	3103.275
2969.01186	3110.375
2971.45984	3101.375
2973.90632	3095.075
2976.35131	3091.875
2978.7948	3096.175
2981.23681	3071.875
2983.67732	3081.175
2986.11635	3070.475
2988.55388	3040.575
2990.98993	3055.575
2993.4245	3042.175
2995.85758	3026.375
2998.28917	3022.975
3000.71928	3008.575
3003.14791	3010.775
3005.57506	2995.975
3008.00073	2974.075
3010.42493	2922.975
3012.84764	2977.675
3015.26888	2969.575
3017.68865	2961.875
3020.10694	2915.275
3022.52376	2922.775
3024.9391	2934.775
3027.35298	2915.175
3029.76539	2901.575
3032.17632	2898.275
3034.5858	2886.975
3036.9938	2900.775
3039.40034	2896.175
3041.80542	2882.775
3044.20903	2872.375
3046.61118	2852.875
3049.01187	2866.575
3051.4111	2849.475
3053.80888	2836.975
3056.20519	2842.375
3058.60005	2809.275
3060.99345	2841.975
3063.3854	2810.475
3065.7759	2796.175
3068.16494	2794.575
3070.55254	2774.975
3072.93868	2800.475
3075.32338	2785.575
3077.70662	2775.875
3080.08842	2764.575
3082.46878	2749.575
3084.84769	2772.275
3087.22515	2747.175
3089.60118	2755.175
3091.97576	2730.775
3094.3489	2746.275
3096.72061	2745.175
3099.09087	2729.475
3101.4597	2731.775
3103.82709	2732.675
3106.19305	2718.075
3108.55757	2711.775
3110.92066	2705.675
3113.28232	2725.675
3115.64255	2718.275
3118.00134	2701.675
3120.35871	2677.975
3122.71466	2669.575
3125.06917	2679.775
3127.42226	2659.375
3129.77393	2630.975
3132.12417	2653.375
3134.47299	2659.175
3136.82039	2639.175
3139.16636	2610.975
3141.51092	2624.475
3143.85406	2644.475
3146.19579	2625.275
3148.53609	2609.675
3150.87499	2625.075
3153.21246	2619.975
3155.54853	2618.675
3157.88318	2618.775
3160.21642	2627.775
3162.54826	2616.275
3164.87868	2619.075
3167.2077	2582.075
3169.5353	2616.775
3171.86151	2608.375
3174.18631	2585.675
3176.5097	2589.875
3178.83169	2596.275
3181.15228	2581.175
3183.47147	2560.075
3185.78926	2540.975
3188.10565	2563.175
3190.42065	2540.575
3192.73424	2549.875
3195.04645	2522.675
3197.35725	2521.775
3199.66667	2530.075
3201.97469	2537.775
3204.28132	2511.775
3206.58656	2526.775
3208.8904	2542.075
3211.19287	2526.875
3213.49394	2511.275
3215.79363	2498.175
3218.09193	2522.275
3220.38884	2510.075
3222.68438	2515.975
3224.97853	2488.075
3227.2713	2514.275
3229.56269	2488.275
3231.8527	2493.075
