Data from AgNPs_UA_10uM_CRN_500uM_SU_RamanShift__96__13-21-20-272.txt Node

Date: Thu Aug 04 13:21:20 BST 2022
User: TCL
Spectrometer: QEP01345
Trigger mode: 4
Integration Time (sec): 1.000000E0
Scans to average: 10
Electric dark correction enabled: true
Nonlinearity correction enabled: false
Boxcar width: 0
XAxis mode: Raman Shifts
Number of Pixels in Spectrum: 1044
>>>>>Begin Spectral Data<<<<<
46.04893	0.2875
50.45542	-0.7125
54.85868	0.3875
59.25871	0.2875
63.6555	21.8875
68.04907	21.9875
72.43941	21.8875
76.82654	22.3875
81.21044	23.4875
85.59113	25.7875
89.96862	25.7875
94.34289	25.2875
98.71396	27.2875
103.08183	28.7875
107.4465	27.8875
111.80798	28.0875
116.16626	30.5875
120.52136	31.7875
124.87327	33.2875
129.222	36.8875
133.56755	39.3875
137.90993	40.1875
142.24913	48.3875
146.58517	56.8875
150.91804	65.5875
155.24774	78.6875
159.57429	94.7875
163.89768	128.8875
168.21792	168.4875
172.53501	233.5875
176.84895	325.9875
181.15975	460.0875
185.46741	657.5875
189.77193	912.0875
194.07331	1218.0875
198.37157	1571.0875
202.6667	1958.4875
206.9587	2320.4875
211.24758	2699.0875
215.53334	3060.9875
219.81599	3466.8875
224.09553	3913.8875
228.37195	4399.3875
232.64527	4913.4875
236.91549	5436.7875
241.18261	5934.9875
245.44663	6328.6875
249.70755	6663.7875
253.96539	6980.0875
258.22014	7238.6875
262.4718	7457.0875
266.72039	7616.4875
270.96589	7677.0875
275.20832	7634.6875
279.44768	7533.7875
283.68397	7443.8875
287.91719	7348.4875
292.14735	7360.6875
296.37445	7448.1875
300.59849	7608.9875
304.81948	7826.5875
309.03742	8037.3875
313.25231	8134.4875
317.46415	8038.5875
321.67296	7810.0875
325.87872	7570.9875
330.08145	7453.3875
334.28114	7461.2875
338.47781	7520.0875
342.67145	7655.0875
346.86207	7851.3875
351.04966	8108.2875
355.23424	8392.6875
359.4158	8623.2875
363.59435	8757.8875
367.76989	8807.4875
371.94243	8841.7875
376.11196	8835.5875
380.27849	8860.7875
384.44203	8881.5875
388.60257	8942.6875
392.76012	9017.5875
396.91468	9139.5875
401.06626	9265.7875
405.21485	9323.0875
409.36047	9250.3875
413.50311	9020.1875
417.64277	8786.7875
421.77947	8647.3875
425.9132	8593.0875
430.04396	8590.4875
434.17176	8649.5875
438.2966	8748.6875
442.41849	8908.9875
446.53742	9126.8875
450.6534	9336.8875
454.76644	9477.0875
458.87653	9542.3875
462.98368	9520.0875
467.08789	9447.1875
471.18916	9277.0875
475.2875	9092.7875
479.38291	8903.4875
483.4754	8808.2875
487.56496	8733.8875
491.6516	8697.6875
495.73531	8699.0875
499.81612	8749.1875
503.89401	8792.6875
507.96899	8846.4875
512.04106	8880.0875
516.11023	8936.7875
520.1765	8977.0875
524.23987	8989.6875
528.30034	9006.5875
532.35792	8972.5875
536.41261	8900.2875
540.46441	8790.2875
544.51333	8752.8875
548.55936	8839.0875
552.60252	8957.6875
556.64279	9095.1875
560.6802	9197.8875
564.71473	9280.7875
568.7464	9340.2875
572.7752	9340.3875
576.80114	9170.8875
580.82422	9027.9875
584.84444	9020.2875
588.86181	9063.1875
592.87633	9187.6875
596.888	9355.8875
600.89682	9725.1875
604.9028	10710.4875
608.90594	12665.5875
612.90624	14490.7875
616.90371	13397.3875
620.89834	10775.5875
624.89015	9766.9875
628.87913	9695.4875
632.86528	9789.5875
636.84862	9772.6875
640.82913	9486.7875
644.80683	9175.6875
648.78172	9009.0875
652.75379	9044.3875
656.72306	9298.3875
660.68952	9555.3875
664.65319	9532.0875
668.61405	9424.4875
672.57211	9511.7875
676.52738	9475.1875
680.47986	9294.1875
684.42955	9126.6875
688.37646	9105.1875
692.32058	9186.9875
696.26192	9374.5875
700.20048	9526.1875
704.13626	9511.6875
708.06928	9409.7875
711.99952	9323.9875
715.927	9317.5875
719.85171	9377.8875
723.77365	9372.3875
727.69284	9300.5875
731.60928	9229.3875
735.52295	9234.4875
739.43388	9281.8875
743.34206	9336.2875
747.24749	9358.8875
751.15017	9383.0875
755.05012	9459.5875
758.94733	9751.9875
762.8418	10457.5875
766.73354	11466.4875
770.62254	12322.5875
774.50882	12548.7875
778.39237	12150.4875
782.27321	11399.7875
786.15132	10547.6875
790.02671	9949.5875
793.89938	9655.8875
797.76935	9510.3875
801.6366	9425.4875
805.50115	9368.2875
809.36299	9368.2875
813.22213	9320.5875
817.07857	9329.4875
820.93231	9293.1875
824.78336	9301.9875
828.63172	9338.6875
832.47738	9341.2875
836.32036	9356.8875
840.16066	9387.1875
843.99827	9381.3875
847.8332	9370.1875
851.66546	9358.0875
855.49504	9377.9875
859.32195	9369.1875
863.1462	9379.7875
866.96777	9357.8875
870.78668	9342.1875
874.60293	9385.0875
878.41652	9428.6875
882.22745	9491.9875
886.03573	9539.4875
889.84136	9533.1875
893.64433	9503.6875
897.44466	9475.3875
901.24235	9445.9875
905.0374	9426.6875
908.8298	9388.8875
912.61957	9401.3875
916.40671	9434.3875
920.19121	9461.2875
923.97308	9531.4875
927.75233	9629.5875
931.52895	9729.1875
935.30295	9657.3875
939.07433	9477.3875
942.84309	9408.5875
946.60924	9392.3875
950.37278	9365.5875
954.13371	9326.5875
957.89203	9315.8875
961.64774	9266.5875
965.40086	9263.9875
969.15137	9259.7875
972.89929	9239.1875
976.64461	9245.3875
980.38733	9285.5875
984.12747	9328.1875
987.86502	9335.8875
991.59999	9433.4875
995.33237	9576.4875
999.06217	9767.0875
1002.78939	9991.8875
1006.51404	10142.3875
1010.23611	10220.3875
1013.95561	10347.3875
1017.67255	10399.4875
1021.38692	10402.9875
1025.09872	10386.0875
1028.80796	10456.3875
1032.51465	10631.2875
1036.21877	10741.0875
1039.92035	10727.3875
1043.61937	10615.9875
1047.31584	10475.4875
1051.00976	10342.0875
1054.70114	10274.2875
1058.38998	10271.1875
1062.07627	10321.0875
1065.76003	10355.6875
1069.44126	10427.3875
1073.11995	10578.2875
1076.79611	10745.9875
1080.46974	10854.1875
1084.14085	10940.1875
1087.80943	11030.2875
1091.47549	11063.3875
1095.13903	11007.0875
1098.80005	10972.0875
1102.45857	10987.4875
1106.11456	11012.1875
1109.76805	10902.2875
1113.41903	10925.9875
1117.06751	11022.7875
1120.71348	11181.2875
1124.35696	11369.5875
1127.99793	11422.1875
1131.63641	11281.5875
1135.2724	11035.5875
1138.90589	10827.1875
1142.5369	10658.0875
1146.16542	10550.1875
1149.79145	10443.3875
1153.415	10404.0875
1157.03607	10406.8875
1160.65467	10495.6875
1164.27079	10724.0875
1167.88443	11079.5875
1171.49561	11565.9875
1175.10432	12353.3875
1178.71056	13300.8875
1182.31434	14146.5875
1185.91565	14566.1875
1189.51451	14522.3875
1193.11091	14242.1875
1196.70485	13801.6875
1200.29634	13389.7875
1203.88538	12942.8875
1207.47197	12491.5875
1211.05612	12015.6875
1214.63782	11670.4875
1218.21708	11493.7875
1221.79391	11442.4875
1225.36829	11492.5875
1228.94024	11451.2875
1232.50976	11375.0875
1236.07685	11319.2875
1239.6415	11297.2875
1243.20374	11381.8875
1246.76355	11444.3875
1250.32093	11577.0875
1253.8759	11749.3875
1257.42845	12088.7875
1260.97859	12391.1875
1264.52631	12690.2875
1268.07163	12923.1875
1271.61453	13131.4875
1275.15503	13250.3875
1278.69312	13384.5875
1282.22882	13507.5875
1285.76211	13633.8875
1289.29301	13745.9875
1292.82151	13977.5875
1296.34761	14243.1875
1299.87133	14693.0875
1303.39266	15503.3875
1306.9116	16659.1875
1310.42815	17910.7875
1313.94233	18478.8875
1317.45412	18073.1875
1320.96354	17156.6875
1324.47058	16195.0875
1327.97525	15400.1875
1331.47754	14913.8875
1334.97747	14801.4875
1338.47502	14980.9875
1341.97022	15436.1875
1345.46305	16123.7875
1348.95352	17066.1875
1352.44163	18031.0875
1355.92738	19068.4875
1359.41078	20351.4875
1362.89183	21112.8875
1366.37053	20072.4875
1369.84688	17639.2875
1373.32088	15410.7875
1376.79254	14149.5875
1380.26186	13532.4875
1383.72883	13186.5875
1387.19347	12878.1875
1390.65578	12508.1875
1394.11575	12197.2875
1397.57339	11988.8875
1401.0287	11915.2875
1404.48168	11956.0875
1407.93234	12104.4875
1411.38068	12312.1875
1414.82669	12470.1875
1418.27039	12488.1875
1421.71177	12420.5875
1425.15083	12334.8875
1428.58758	12247.8875
1432.02203	12394.1875
1435.45416	12473.5875
1438.88399	12471.4875
1442.31151	12429.2875
1445.73673	12411.8875
1449.15965	12371.1875
1452.58027	12316.7875
1455.9986	12237.2875
1459.41463	12250.9875
1462.82837	12306.4875
1466.23982	12498.1875
1469.64898	12715.1875
1473.05586	12880.7875
1476.46045	13027.8875
1479.86276	13179.6875
1483.26279	13315.8875
1486.66054	13479.2875
1490.05602	13829.8875
1493.44922	14317.2875
1496.84016	15048.6875
1500.22882	16042.1875
1503.61521	17214.8875
1506.99934	18389.7875
1510.38121	19017.1875
1513.76081	18785.7875
1517.13816	17626.0875
1520.51324	16094.1875
1523.88607	14868.7875
1527.25665	14142.7875
1530.62498	13740.5875
1533.99105	13522.2875
1537.35488	13467.2875
1540.71647	13335.8875
1544.07581	13231.4875
1547.4329	13140.1875
1550.78776	12991.8875
1554.14038	12869.9875
1557.49077	12851.7875
1560.83892	12941.8875
1564.18484	13151.8875
1567.52853	13367.7875
1570.86999	13493.0875
1574.20922	13500.9875
1577.54624	13320.7875
1580.88103	12862.9875
1584.2136	12450.9875
1587.54395	12281.0875
1590.87208	12518.0875
1594.19801	13113.5875
1597.52172	13790.2875
1600.84321	14137.5875
1604.16251	13999.8875
1607.47959	13573.0875
1610.79447	12991.7875
1614.10715	12330.7875
1617.41763	11679.3875
1620.7259	11233.4875
1624.03199	11002.1875
1627.33587	10954.9875
1630.63757	11179.9875
1633.93707	11621.5875
1637.23439	12375.3875
1640.52951	13412.7875
1643.82246	14588.7875
1647.11321	15621.5875
1650.40179	15852.1875
1653.68819	14924.6875
1656.97241	13274.9875
1660.25446	11780.7875
1663.53433	10799.2875
1666.81203	10202.3875
1670.08756	9866.4875
1673.36092	9620.4875
1676.63211	9501.5875
1679.90115	9369.3875
1683.16801	9271.8875
1686.43272	9198.0875
1689.69527	9140.1875
1692.95567	9114.1875
1696.2139	9086.5875
1699.46999	9049.9875
1702.72392	9037.2875
1705.97571	9019.0875
1709.22535	9019.5875
1712.47284	9046.8875
1715.71819	9055.5875
1718.96139	9041.7875
1722.20246	9013.9875
1725.44139	8982.5875
1728.67818	8918.0875
1731.91284	8888.1875
1735.14537	8819.0875
1738.37576	8820.1875
1741.60403	8771.5875
1744.83017	8740.9875
1748.05418	8735.7875
1751.27607	8738.5875
1754.49584	8707.7875
1757.71349	8706.2875
1760.92903	8706.3875
1764.14244	8700.0875
1767.35375	8673.4875
1770.56294	8656.2875
1773.77002	8644.1875
1776.97499	8607.9875
1780.17785	8589.8875
1783.37861	8583.3875
1786.57727	8560.9875
1789.77382	8554.3875
1792.96828	8549.5875
1796.16064	8529.1875
1799.3509	8512.7875
1802.53907	8527.7875
1805.72514	8509.8875
1808.90913	8483.2875
1812.09102	8465.5875
1815.27083	8463.8875
1818.44856	8410.7875
1821.6242	8401.0875
1824.79776	8399.3875
1827.96924	8376.9875
1831.13864	8373.3875
1834.30597	8353.9875
1837.47122	8314.9875
1840.6344	8311.8875
1843.7955	8334.8875
1846.95454	8315.2875
1850.11151	8317.4875
1853.26642	8310.6875
1856.41926	8294.2875
1859.57004	8298.0875
1862.71876	8302.8875
1865.86542	8309.5875
1869.01003	8281.2875
1872.15258	8281.8875
1875.29308	8258.7875
1878.43152	8254.3875
1881.56792	8244.5875
1884.70227	8223.9875
1887.83457	8211.7875
1890.96482	8218.5875
1894.09304	8175.8875
1897.21921	8196.0875
1900.34335	8163.3875
1903.46544	8154.3875
1906.58551	8172.7875
1909.70353	8158.0875
1912.81953	8155.2875
1915.93349	8134.9875
1919.04543	8094.7875
1922.15534	8085.8875
1925.26322	8103.5875
1928.36908	8085.0875
1931.47292	8044.7875
1934.57473	8032.5875
1937.67453	8043.1875
1940.77232	8021.8875
1943.86808	7994.3875
1946.96184	7960.9875
1950.05358	7945.1875
1953.14331	7928.7875
1956.23103	7894.6875
1959.31675	7866.4875
1962.40046	7863.9875
1965.48217	7831.8875
1968.56188	7800.4875
1971.63959	7763.1875
1974.7153	7759.3875
1977.78901	7768.2875
1980.86073	7749.8875
1983.93046	7707.9875
1986.99819	7672.0875
1990.06394	7663.0875
1993.1277	7638.6875
1996.18947	7602.8875
1999.24925	7576.2875
2002.30706	7553.1875
2005.36288	7507.5875
2008.41672	7499.3875
2011.46859	7466.0875
2014.51848	7453.9875
2017.56639	7422.1875
2020.61233	7403.7875
2023.6563	7376.5875
2026.6983	7380.5875
2029.73833	7364.5875
2032.7764	7331.1875
2035.8125	7346.3875
2038.84664	7335.0875
2041.87881	7308.4875
2044.90903	7282.3875
2047.93729	7288.6875
2050.96359	7258.3875
2053.98794	7238.5875
2057.01034	7231.4875
2060.03078	7230.3875
2063.04927	7212.6875
2066.06582	7209.3875
2069.08042	7205.6875
2072.09307	7196.1875
2075.10378	7178.0875
2078.11255	7189.3875
2081.11938	7198.8875
2084.12426	7161.8875
2087.12722	7156.5875
2090.12824	7143.8875
2093.12732	7169.9875
2096.12447	7160.2875
2099.11969	7176.7875
2102.11299	7162.6875
2105.10435	7172.4875
2108.09379	7165.3875
2111.08131	7180.0875
2114.0669	7169.3875
2117.05057	7178.2875
2120.03233	7182.3875
2123.01216	7204.4875
2125.99008	7181.9875
2128.96609	7195.6875
2131.94018	7209.8875
2134.91236	7203.9875
2137.88263	7200.8875
2140.851	7192.1875
2143.81746	7200.9875
2146.78201	7197.8875
2149.74466	7184.5875
2152.7054	7220.3875
2155.66425	7195.6875
2158.6212	7198.0875
2161.57625	7167.1875
2164.52941	7178.5875
2167.48067	7167.5875
2170.43004	7173.4875
2173.37752	7144.1875
2176.32311	7147.0875
2179.26681	7173.0875
2182.20863	7165.8875
2185.14856	7173.3875
2188.08661	7153.1875
2191.02278	7165.4875
2193.95707	7148.3875
2196.88948	7153.9875
2199.82001	7137.8875
2202.74867	7160.3875
2205.67545	7159.0875
2208.60037	7165.8875
2211.52341	7134.2875
2214.44458	7106.1875
2217.36388	7095.4875
2220.28132	7087.2875
2223.1969	7054.6875
2226.11061	7034.6875
2229.02246	7033.4875
2231.93245	7015.4875
2234.84058	7011.4875
2237.74686	6985.5875
2240.65128	6976.1875
2243.55385	6957.5875
2246.45456	6964.3875
2249.35343	6949.5875
2252.25044	6931.9875
2255.14561	6947.9875
2258.03893	6928.8875
2260.93041	6931.6875
2263.82004	6925.5875
2266.70783	6884.0875
2269.59378	6866.0875
2272.4779	6840.0875
2275.36017	6813.4875
2278.24061	6825.9875
2281.11922	6794.5875
2283.996	6774.6875
2286.87094	6775.0875
2289.74405	6768.8875
2292.61534	6780.3875
2295.4848	6743.4875
2298.35243	6752.3875
2301.21824	6738.8875
2304.08223	6736.8875
2306.94439	6743.6875
2309.80474	6739.8875
2312.66327	6725.5875
2315.51999	6736.8875
2318.37489	6726.2875
2321.22797	6716.0875
2324.07925	6706.5875
2326.92871	6685.6875
2329.77637	6686.7875
2332.62222	6682.3875
2335.46626	6655.7875
2338.3085	6672.3875
2341.14893	6668.2875
2343.98756	6684.5875
2346.8244	6680.7875
2349.65943	6667.6875
2352.49267	6661.2875
2355.32411	6656.8875
2358.15376	6661.8875
2360.98161	6635.4875
2363.80768	6645.8875
2366.63195	6627.4875
2369.45444	6625.1875
2372.27514	6603.4875
2375.09405	6592.4875
2377.91118	6578.5875
2380.72652	6566.0875
2383.54009	6550.3875
2386.35187	6529.8875
2389.16188	6515.7875
2391.97011	6504.3875
2394.77657	6493.9875
2397.58125	6472.6875
2400.38416	6466.9875
2403.18529	6457.5875
2405.98466	6446.1875
2408.78226	6432.9875
2411.57809	6416.8875
2414.37216	6399.3875
2417.16446	6392.3875
2419.955	6391.0875
2422.74378	6391.5875
2425.5308	6377.3875
2428.31606	6379.2875
2431.09956	6376.9875
2433.88131	6351.6875
2436.6613	6360.5875
2439.43954	6328.9875
2442.21603	6349.6875
2444.99077	6337.2875
2447.76377	6325.4875
2450.53501	6346.1875
2453.30451	6317.1875
2456.07226	6331.7875
2458.83827	6311.3875
2461.60254	6293.3875
2464.36507	6288.3875
2467.12586	6270.6875
2469.88492	6272.7875
2472.64224	6292.3875
2475.39782	6283.4875
2478.15167	6268.4875
2480.90379	6259.9875
2483.65417	6265.4875
2486.40283	6256.4875
2489.14976	6278.3875
2491.89497	6265.7875
2494.63845	6270.6875
2497.3802	6263.2875
2500.12024	6238.3875
2502.85855	6247.2875
2505.59514	6236.2875
2508.33002	6228.6875
2511.06318	6195.6875
2513.79462	6192.3875
2516.52435	6199.3875
2519.25237	6177.5875
2521.97867	6149.7875
2524.70327	6162.9875
2527.42616	6139.5875
2530.14734	6140.5875
2532.86681	6137.7875
2535.58458	6166.2875
2538.30065	6142.9875
2541.01501	6146.2875
2543.72768	6122.0875
2546.43864	6119.9875
2549.14791	6090.8875
2551.85548	6106.7875
2554.56136	6096.3875
2557.26554	6094.0875
2559.96803	6077.8875
2562.66883	6044.8875
2565.36794	6044.4875
2568.06536	6034.7875
2570.7611	6003.2875
2573.45514	6007.4875
2576.14751	5994.7875
2578.83819	6007.2875
2581.52719	5996.2875
2584.21451	5984.5875
2586.90015	5979.2875
2589.58411	5976.8875
2592.2664	5967.3875
2594.94701	5950.6875
2597.62594	5953.4875
2600.30321	5932.6875
2602.9788	5949.8875
2605.65273	5930.5875
2608.32498	5927.0875
2610.99557	5898.5875
2613.66449	5921.4875
2616.33175	5916.8875
2618.99734	5920.0875
2621.66128	5897.8875
2624.32355	5861.0875
2626.98416	5887.0875
2629.64311	5875.1875
2632.30041	5871.0875
2634.95605	5868.1875
2637.61004	5860.3875
2640.26238	5840.9875
2642.91306	5834.6875
2645.56209	5833.8875
2648.20948	5828.7875
2650.85521	5820.8875
2653.4993	5810.3875
2656.14175	5817.2875
2658.78255	5814.3875
2661.42171	5794.4875
2664.05923	5798.2875
2666.6951	5822.9875
2669.32934	5830.3875
2671.96194	5803.0875
2674.59291	5839.5875
2677.22224	5822.1875
2679.84993	5828.0875
2682.476	5823.2875
2685.10043	5822.6875
2687.72324	5819.7875
2690.34441	5787.4875
2692.96396	5801.1875
2695.58188	5801.7875
2698.19818	5785.7875
2700.81285	5784.4875
2703.4259	5765.8875
2706.03733	5758.6875
2708.64714	5755.6875
2711.25533	5741.5875
2713.86191	5754.4875
2716.46687	5777.1875
2719.07021	5760.9875
2721.67194	5758.8875
2724.27206	5764.3875
2726.87057	5763.4875
2729.46747	5769.6875
2732.06276	5764.1875
2734.65644	5755.6875
2737.24852	5763.4875
2739.83899	5739.1875
2742.42786	5745.5875
2745.01513	5708.1875
2747.60079	5723.0875
2750.18486	5711.4875
2752.76733	5699.4875
2755.3482	5675.0875
2757.92747	5679.2875
2760.50515	5677.7875
2763.08123	5677.9875
2765.65573	5652.4875
2768.22863	5649.8875
2770.79994	5632.0875
2773.36967	5638.9875
2775.9378	5650.9875
2778.50435	5642.0875
2781.06932	5632.9875
2783.6327	5626.3875
2786.1945	5617.9875
2788.75471	5625.3875
2791.31335	5606.7875
2793.87041	5586.3875
2796.42589	5553.5875
2798.97979	5549.4875
2801.53212	5544.7875
2804.08288	5533.5875
2806.63206	5526.0875
2809.17967	5519.2875
2811.72571	5506.6875
2814.27018	5504.4875
2816.81308	5468.1875
2819.35442	5459.8875
2821.89419	5481.0875
2824.43239	5456.3875
2826.96904	5451.2875
2829.50412	5439.2875
2832.03763	5426.5875
2834.56959	5426.9875
2837.1	5411.7875
2839.62884	5407.1875
2842.15613	5409.6875
2844.68186	5404.5875
2847.20604	5402.5875
2849.72867	5378.8875
2852.24974	5363.5875
2854.76927	5359.5875
2857.28724	5350.4875
2859.80367	5345.3875
2862.31855	5332.9875
2864.83189	5345.6875
2867.34368	5345.0875
2869.85393	5320.8875
2872.36264	5331.5875
2874.8698	5309.0875
2877.37543	5300.9875
2879.87952	5298.9875
2882.38207	5284.9875
2884.88308	5286.8875
2887.38256	5297.6875
2889.88051	5280.3875
2892.37692	5272.6875
2894.8718	5277.8875
2897.36515	5287.5875
2899.85698	5278.7875
2902.34727	5267.9875
2904.83604	5302.9875
2907.32328	5293.5875
2909.809	5291.8875
2912.29319	5291.6875
2914.77587	5309.9875
2917.25702	5288.8875
2919.73665	5306.3875
2922.21476	5289.7875
2924.69136	5281.2875
2927.16644	5273.2875
2929.64	5277.0875
2932.11205	5247.3875
2934.58258	5223.9875
2937.05161	5239.6875
2939.51912	5228.2875
2941.98513	5225.7875
2944.44962	5234.8875
2946.91261	5196.6875
2949.37409	5222.5875
2951.83407	5216.9875
2954.29254	5218.8875
2956.74951	5203.7875
2959.20498	5189.6875
2961.65895	5207.0875
2964.11142	5201.6875
2966.56239	5188.6875
2969.01186	5189.4875
2971.45984	5189.8875
2973.90632	5167.9875
2976.35131	5155.4875
2978.7948	5163.9875
2981.23681	5156.4875
2983.67732	5123.9875
2986.11635	5109.8875
2988.55388	5099.3875
2990.98993	5081.0875
2993.4245	5078.1875
2995.85758	5067.8875
2998.28917	5048.4875
3000.71928	5050.2875
3003.14791	5017.1875
3005.57506	5006.2875
3008.00073	4998.6875
3010.42493	4998.4875
3012.84764	4980.4875
3015.26888	4982.4875
3017.68865	4972.2875
3020.10694	4956.2875
3022.52376	4941.7875
3024.9391	4926.7875
3027.35298	4912.1875
3029.76539	4898.5875
3032.17632	4905.5875
3034.5858	4891.3875
3036.9938	4886.4875
3039.40034	4857.9875
3041.80542	4852.9875
3044.20903	4848.7875
3046.61118	4854.1875
3049.01187	4823.5875
3051.4111	4814.6875
3053.80888	4809.9875
3056.20519	4802.6875
3058.60005	4779.5875
3060.99345	4773.4875
3063.3854	4757.7875
3065.7759	4749.8875
3068.16494	4754.4875
3070.55254	4720.3875
3072.93868	4688.2875
3075.32338	4696.8875
3077.70662	4667.6875
3080.08842	4678.1875
3082.46878	4683.9875
3084.84769	4652.3875
3087.22515	4651.0875
3089.60118	4657.8875
3091.97576	4647.5875
3094.3489	4633.3875
3096.72061	4639.4875
3099.09087	4628.1875
3101.4597	4629.6875
3103.82709	4635.9875
3106.19305	4603.5875
