Data from AgNPs_UA_5uM_CRN_500uM_SU_RamanShift__161__11-56-13-171.txt Node

Date: Thu Aug 04 11:56:13 BST 2022
User: TCL
Spectrometer: QEP01345
Trigger mode: 4
Integration Time (sec): 1.000000E0
Scans to average: 10
Electric dark correction enabled: true
Nonlinearity correction enabled: false
Boxcar width: 0
XAxis mode: Raman Shifts
Number of Pixels in Spectrum: 1044
>>>>>Begin Spectral Data<<<<<
46.04893	-0.175
50.45542	0.625
54.85868	0.325
59.25871	-1.775
63.6555	-57.375
68.04907	-39.775
72.43941	-72.175
76.82654	-58.175
81.21044	-57.275
85.59113	-50.075
89.96862	-74.575
94.34289	-55.875
98.71396	-78.475
103.08183	-59.275
107.4465	-48.575
111.80798	-56.875
116.16626	-44.675
120.52136	-72.575
124.87327	-51.175
129.222	-64.375
133.56755	-48.975
137.90993	-63.275
142.24913	-50.875
146.58517	-44.975
150.91804	-42.575
155.24774	-29.675
159.57429	-8.975
163.89768	-6.275
168.21792	39.425
172.53501	57.625
176.84895	144.525
181.15975	272.125
185.46741	421.825
189.77193	596.525
194.07331	889.925
198.37157	1170.225
202.6667	1460.925
206.9587	1784.525
211.24758	2085.825
215.53334	2414.625
219.81599	2759.525
224.09553	3187.725
228.37195	3607.425
232.64527	4062.125
236.91549	4527.325
241.18261	4878.525
245.44663	5174.725
249.70755	5351.825
253.96539	5478.725
258.22014	5579.725
262.4718	5657.125
266.72039	5702.525
270.96589	5653.625
275.20832	5550.725
279.44768	5461.125
283.68397	5346.925
287.91719	5288.225
292.14735	5304.025
296.37445	5472.225
300.59849	5744.025
304.81948	6067.925
309.03742	6427.025
313.25231	6678.725
317.46415	6607.325
321.67296	6211.225
325.87872	5843.125
330.08145	5639.425
334.28114	5623.625
338.47781	5674.225
342.67145	5826.525
346.86207	6057.625
351.04966	6425.125
355.23424	6791.925
359.4158	7080.725
363.59435	7103.825
367.76989	7033.725
371.94243	6909.425
376.11196	6785.625
380.27849	6719.425
384.44203	6654.925
388.60257	6624.825
392.76012	6614.325
396.91468	6747.125
401.06626	6880.425
405.21485	6921.425
409.36047	6774.425
413.50311	6476.325
417.64277	6165.325
421.77947	5980.525
425.9132	5903.025
430.04396	5925.825
434.17176	5957.125
438.2966	6041.325
442.41849	6143.825
446.53742	6237.025
450.6534	6348.425
454.76644	6433.325
458.87653	6438.225
462.98368	6397.525
467.08789	6350.025
471.18916	6278.125
475.2875	6156.325
479.38291	6053.325
483.4754	5973.825
487.56496	5946.625
491.6516	5871.125
495.73531	5888.625
499.81612	5912.325
503.89401	6013.625
507.96899	6054.325
512.04106	6133.925
516.11023	6240.025
520.1765	6328.625
524.23987	6334.125
528.30034	6341.225
532.35792	6264.825
536.41261	6241.925
540.46441	6115.725
544.51333	6082.725
548.55936	6132.125
552.60252	6246.525
556.64279	6333.525
560.6802	6477.625
564.71473	6611.925
568.7464	6796.625
572.7752	6779.525
576.80114	6447.825
580.82422	6205.925
584.84444	6112.025
588.86181	6089.625
592.87633	6149.625
596.888	6246.225
600.89682	6629.925
604.9028	7540.625
608.90594	9561.825
612.90624	11864.025
616.90371	11002.125
620.89834	8074.125
624.89015	6772.925
628.87913	6575.025
632.86528	6706.925
636.84862	6872.325
640.82913	6747.025
644.80683	6407.725
648.78172	6243.025
652.75379	6277.625
656.72306	6497.425
660.68952	6737.125
664.65319	6640.425
668.61405	6424.925
672.57211	6356.925
676.52738	6377.425
680.47986	6247.825
684.42955	6189.625
688.37646	6145.025
692.32058	6148.325
696.26192	6210.825
700.20048	6314.725
704.13626	6370.525
708.06928	6304.425
711.99952	6259.825
715.927	6238.225
719.85171	6290.025
723.77365	6347.425
727.69284	6314.025
731.60928	6299.625
735.52295	6273.425
739.43388	6314.725
743.34206	6344.425
747.24749	6361.825
751.15017	6363.325
755.05012	6429.325
758.94733	6787.025
762.8418	7594.725
766.73354	8853.725
770.62254	9805.225
774.50882	9897.725
778.39237	9408.125
782.27321	8547.325
786.15132	7533.025
790.02671	6883.725
793.89938	6512.925
797.76935	6412.025
801.6366	6332.125
805.50115	6292.325
809.36299	6293.425
813.22213	6274.325
817.07857	6272.525
820.93231	6264.425
824.78336	6310.225
828.63172	6311.125
832.47738	6324.325
836.32036	6324.225
840.16066	6292.325
843.99827	6266.325
847.8332	6261.425
851.66546	6278.725
855.49504	6282.725
859.32195	6311.225
863.1462	6307.125
866.96777	6317.225
870.78668	6304.925
874.60293	6341.525
878.41652	6338.725
882.22745	6429.225
886.03573	6460.725
889.84136	6457.425
893.64433	6452.725
897.44466	6453.225
901.24235	6442.825
905.0374	6448.525
908.8298	6354.025
912.61957	6331.625
916.40671	6283.925
920.19121	6340.925
923.97308	6426.125
927.75233	6481.325
931.52895	6538.425
935.30295	6519.925
939.07433	6387.125
942.84309	6265.625
946.60924	6250.725
950.37278	6209.825
954.13371	6205.625
957.89203	6207.725
961.64774	6213.225
965.40086	6210.425
969.15137	6161.225
972.89929	6198.125
976.64461	6203.925
980.38733	6217.125
984.12747	6206.025
987.86502	6236.525
991.59999	6281.725
995.33237	6346.525
999.06217	6404.925
1002.78939	6493.825
1006.51404	6621.725
1010.23611	6729.425
1013.95561	6793.125
1017.67255	6786.725
1021.38692	6775.825
1025.09872	6697.325
1028.80796	6603.025
1032.51465	6614.025
1036.21877	6595.025
1039.92035	6638.525
1043.61937	6687.525
1047.31584	6723.225
1051.00976	6751.225
1054.70114	6775.925
1058.38998	6763.325
1062.07627	6770.525
1065.76003	6794.925
1069.44126	6878.725
1073.11995	6964.125
1076.79611	7089.225
1080.46974	7223.925
1084.14085	7382.225
1087.80943	7502.325
1091.47549	7546.825
1095.13903	7459.925
1098.80005	7368.425
1102.45857	7256.525
1106.11456	7225.725
1109.76805	7181.325
1113.41903	7259.125
1117.06751	7431.125
1120.71348	7680.925
1124.35696	8020.725
1127.99793	8305.925
1131.63641	8153.225
1135.2724	7771.625
1138.90589	7494.125
1142.5369	7299.525
1146.16542	7207.125
1149.79145	7088.025
1153.415	7054.725
1157.03607	7041.125
1160.65467	7131.725
1164.27079	7293.725
1167.88443	7554.625
1171.49561	7938.825
1175.10432	8500.225
1178.71056	9379.225
1182.31434	10125.625
1185.91565	10361.125
1189.51451	10198.925
1193.11091	9962.525
1196.70485	9731.725
1200.29634	9541.825
1203.88538	9304.625
1207.47197	8866.825
1211.05612	8437.225
1214.63782	8061.325
1218.21708	7841.625
1221.79391	7693.625
1225.36829	7588.525
1228.94024	7576.425
1232.50976	7594.625
1236.07685	7633.325
1239.6415	7645.925
1243.20374	7661.825
1246.76355	7720.125
1250.32093	7815.425
1253.8759	7866.925
1257.42845	8054.425
1260.97859	8233.025
1264.52631	8455.625
1268.07163	8611.125
1271.61453	8709.925
1275.15503	8767.825
1278.69312	8764.125
1282.22882	8837.525
1285.76211	9024.425
1289.29301	9283.125
1292.82151	9515.725
1296.34761	9729.925
1299.87133	10095.325
1303.39266	10787.325
1306.9116	11871.325
1310.42815	13030.425
1313.94233	13441.025
1317.45412	12702.225
1320.96354	11605.325
1324.47058	10660.825
1327.97525	9936.125
1331.47754	9554.425
1334.97747	9451.325
1338.47502	9560.825
1341.97022	9940.025
1345.46305	10619.825
1348.95352	11628.025
1352.44163	12836.625
1355.92738	14069.625
1359.41078	15617.625
1362.89183	17042.225
1366.37053	16412.425
1369.84688	13710.625
1373.32088	11176.825
1376.79254	9885.325
1380.26186	9269.725
1383.72883	8913.325
1387.19347	8520.125
1390.65578	8183.425
1394.11575	7988.625
1397.57339	7829.025
1401.0287	7729.725
1404.48168	7677.125
1407.93234	7710.725
1411.38068	7732.825
1414.82669	7802.825
1418.27039	7870.125
1421.71177	7875.525
1425.15083	7775.625
1428.58758	7728.725
1432.02203	7735.125
1435.45416	7839.425
1438.88399	7828.425
1442.31151	7838.325
1445.73673	7873.725
1449.15965	7931.225
1452.58027	7977.225
1455.9986	7945.025
1459.41463	7966.625
1462.82837	8041.325
1466.23982	8226.025
1469.64898	8422.525
1473.05586	8560.725
1476.46045	8656.525
1479.86276	8714.525
1483.26279	8787.725
1486.66054	8942.625
1490.05602	9207.725
1493.44922	9707.825
1496.84016	10543.725
1500.22882	11847.425
1503.61521	13470.625
1506.99934	15142.225
1510.38121	16272.325
1513.76081	16172.725
1517.13816	14690.825
1520.51324	12678.125
1523.88607	11060.125
1527.25665	10103.725
1530.62498	9621.425
1533.99105	9410.325
1537.35488	9306.325
1540.71647	9215.725
1544.07581	9115.625
1547.4329	9013.525
1550.78776	8915.825
1554.14038	8818.625
1557.49077	8793.925
1560.83892	8879.925
1564.18484	9076.825
1567.52853	9400.725
1570.86999	9699.125
1574.20922	9844.725
1577.54624	9726.025
1580.88103	9227.225
1584.2136	8619.225
1587.54395	8270.325
1590.87208	8205.925
1594.19801	8367.625
1597.52172	8732.525
1600.84321	8872.425
1604.16251	8768.625
1607.47959	8566.325
1610.79447	8390.225
1614.10715	8103.125
1617.41763	7795.525
1620.7259	7534.425
1624.03199	7406.525
1627.33587	7314.925
1630.63757	7383.925
1633.93707	7575.125
1637.23439	7998.325
1640.52951	8671.625
1643.82246	9599.325
1647.11321	10666.925
1650.40179	11361.025
1653.68819	11039.625
1656.97241	9848.025
1660.25446	8511.225
1663.53433	7563.025
1666.81203	7019.025
1670.08756	6690.525
1673.36092	6515.125
1676.63211	6372.725
1679.90115	6274.325
1683.16801	6197.025
1686.43272	6094.625
1689.69527	6073.325
1692.95567	6012.725
1696.2139	5994.725
1699.46999	5941.025
1702.72392	5935.125
1705.97571	5949.625
1709.22535	5918.825
1712.47284	5951.425
1715.71819	5983.225
1718.96139	5969.425
1722.20246	5946.025
1725.44139	5924.525
1728.67818	5916.525
1731.91284	5859.825
1735.14537	5827.425
1738.37576	5792.725
1741.60403	5774.825
1744.83017	5739.825
1748.05418	5751.125
1751.27607	5748.725
1754.49584	5702.225
1757.71349	5685.325
1760.92903	5696.225
1764.14244	5640.325
1767.35375	5644.025
1770.56294	5645.925
1773.77002	5616.025
1776.97499	5626.425
1780.17785	5599.025
1783.37861	5594.425
1786.57727	5613.425
1789.77382	5543.425
1792.96828	5580.025
1796.16064	5586.925
1799.3509	5554.325
1802.53907	5569.025
1805.72514	5515.325
1808.90913	5506.425
1812.09102	5513.525
1815.27083	5481.525
1818.44856	5500.025
1821.6242	5476.325
1824.79776	5457.125
1827.96924	5447.725
1831.13864	5422.225
1834.30597	5439.625
1837.47122	5419.225
1840.6344	5397.525
1843.7955	5397.125
1846.95454	5390.525
1850.11151	5392.625
1853.26642	5359.325
1856.41926	5380.125
1859.57004	5375.625
1862.71876	5366.625
1865.86542	5384.925
1869.01003	5379.625
1872.15258	5322.925
1875.29308	5358.425
1878.43152	5351.825
1881.56792	5321.325
1884.70227	5320.925
1887.83457	5307.225
1890.96482	5286.225
1894.09304	5300.825
1897.21921	5278.725
1900.34335	5282.325
1903.46544	5250.925
1906.58551	5282.725
1909.70353	5265.525
1912.81953	5272.925
1915.93349	5256.025
1919.04543	5239.125
1922.15534	5226.825
1925.26322	5212.525
1928.36908	5209.825
1931.47292	5198.725
1934.57473	5221.325
1937.67453	5180.625
1940.77232	5138.325
1943.86808	5146.525
1946.96184	5129.225
1950.05358	5109.525
1953.14331	5087.925
1956.23103	5103.925
1959.31675	5055.625
1962.40046	5016.225
1965.48217	5045.725
1968.56188	5021.825
1971.63959	5021.625
1974.7153	5010.825
1977.78901	4993.525
1980.86073	4982.425
1983.93046	4925.725
1986.99819	4849.725
1990.06394	4877.325
1993.1277	4913.225
1996.18947	4882.925
1999.24925	4834.525
2002.30706	4856.725
2005.36288	4836.425
2008.41672	4814.425
2011.46859	4789.725
2014.51848	4772.025
2017.56639	4769.825
2020.61233	4737.525
2023.6563	4742.525
2026.6983	4693.725
2029.73833	4704.525
2032.7764	4729.525
2035.8125	4655.625
2038.84664	4674.725
2041.87881	4655.525
2044.90903	4661.625
2047.93729	4642.925
2050.96359	4621.325
2053.98794	4633.725
2057.01034	4635.925
2060.03078	4607.025
2063.04927	4594.625
2066.06582	4603.425
2069.08042	4585.925
2072.09307	4602.725
2075.10378	4576.625
2078.11255	4571.725
2081.11938	4577.525
2084.12426	4577.525
2087.12722	4561.525
2090.12824	4570.025
2093.12732	4564.825
2096.12447	4579.325
2099.11969	4554.125
2102.11299	4548.825
2105.10435	4586.525
2108.09379	4585.225
2111.08131	4556.125
2114.0669	4558.925
2117.05057	4566.525
2120.03233	4556.225
2123.01216	4578.725
2125.99008	4583.525
2128.96609	4562.225
2131.94018	4596.825
2134.91236	4578.525
2137.88263	4572.925
2140.851	4596.325
2143.81746	4609.025
2146.78201	4591.925
2149.74466	4574.425
2152.7054	4580.725
2155.66425	4572.025
2158.6212	4561.825
2161.57625	4541.825
2164.52941	4517.525
2167.48067	4530.725
2170.43004	4534.525
2173.37752	4553.925
2176.32311	4523.425
2179.26681	4538.625
2182.20863	4544.325
2185.14856	4535.625
2188.08661	4530.125
2191.02278	4555.125
2193.95707	4525.625
2196.88948	4508.625
2199.82001	4520.225
2202.74867	4492.325
2205.67545	4501.625
2208.60037	4517.225
2211.52341	4514.425
2214.44458	4489.825
2217.36388	4472.825
2220.28132	4452.425
2223.1969	4429.925
2226.11061	4441.425
2229.02246	4427.025
2231.93245	4419.925
2234.84058	4407.825
2237.74686	4399.325
2240.65128	4369.425
2243.55385	4393.225
2246.45456	4363.925
2249.35343	4383.325
2252.25044	4380.125
2255.14561	4366.625
2258.03893	4374.525
2260.93041	4355.025
2263.82004	4338.525
2266.70783	4347.125
2269.59378	4330.325
2272.4779	4293.625
2275.36017	4307.225
2278.24061	4298.625
2281.11922	4268.025
2283.996	4263.725
2286.87094	4260.325
2289.74405	4255.525
2292.61534	4236.425
2295.4848	4245.025
2298.35243	4230.525
2301.21824	4222.125
2304.08223	4209.025
2306.94439	4219.325
2309.80474	4231.425
2312.66327	4217.125
2315.51999	4193.025
2318.37489	4176.125
2321.22797	4173.725
2324.07925	4166.025
2326.92871	4173.525
2329.77637	4151.025
2332.62222	4144.525
2335.46626	4113.425
2338.3085	4125.125
2341.14893	4131.725
2343.98756	4144.925
2346.8244	4111.325
2349.65943	4099.325
2352.49267	4106.425
2355.32411	4104.325
2358.15376	4103.725
2360.98161	4112.925
2363.80768	4084.025
2366.63195	4097.825
2369.45444	4112.425
2372.27514	4097.325
2375.09405	4101.725
2377.91118	4070.325
2380.72652	4058.225
2383.54009	4053.325
2386.35187	4058.725
2389.16188	4024.725
2391.97011	4024.025
2394.77657	4030.625
2397.58125	4022.725
2400.38416	4011.825
2403.18529	3990.925
2405.98466	3964.025
2408.78226	3983.125
2411.57809	3973.425
2414.37216	3964.325
2417.16446	3950.625
2419.955	3933.525
2422.74378	3960.125
2425.5308	3939.725
2428.31606	3931.225
2431.09956	3930.525
2433.88131	3920.825
2436.6613	3925.825
2439.43954	3919.425
2442.21603	3912.425
2444.99077	3900.125
2447.76377	3900.125
2450.53501	3899.225
2453.30451	3871.225
2456.07226	3902.525
2458.83827	3886.625
2461.60254	3840.225
2464.36507	3862.125
2467.12586	3845.025
2469.88492	3856.725
2472.64224	3863.525
2475.39782	3847.825
2478.15167	3852.325
2480.90379	3846.025
2483.65417	3857.825
2486.40283	3869.725
2489.14976	3860.925
2491.89497	3847.825
2494.63845	3840.225
2497.3802	3840.325
2500.12024	3833.725
2502.85855	3832.625
2505.59514	3819.625
2508.33002	3823.925
2511.06318	3801.725
2513.79462	3798.125
2516.52435	3762.125
2519.25237	3745.025
2521.97867	3732.725
2524.70327	3763.625
2527.42616	3747.225
2530.14734	3761.425
2532.86681	3724.625
2535.58458	3736.325
2538.30065	3708.925
2541.01501	3731.425
2543.72768	3708.925
2546.43864	3706.925
2549.14791	3702.025
2551.85548	3690.325
2554.56136	3692.725
2557.26554	3697.825
2559.96803	3689.525
2562.66883	3680.725
2565.36794	3659.025
2568.06536	3617.925
2570.7611	3651.725
2573.45514	3632.725
2576.14751	3633.225
2578.83819	3585.425
2581.52719	3600.725
2584.21451	3606.825
2586.90015	3585.125
2589.58411	3565.725
2592.2664	3575.325
2594.94701	3572.125
2597.62594	3568.525
2600.30321	3506.625
2602.9788	3527.325
2605.65273	3528.125
2608.32498	3524.325
2610.99557	3525.425
2613.66449	3504.125
2616.33175	3526.225
2618.99734	3522.825
2621.66128	3517.925
2624.32355	3499.525
2626.98416	3473.325
2629.64311	3488.125
2632.30041	3467.425
2634.95605	3449.225
2637.61004	3433.425
2640.26238	3429.925
2642.91306	3430.325
2645.56209	3448.825
2648.20948	3446.425
2650.85521	3423.225
2653.4993	3435.625
2656.14175	3424.725
2658.78255	3416.125
2661.42171	3407.725
2664.05923	3432.925
2666.6951	3428.225
2669.32934	3438.425
2671.96194	3454.925
2674.59291	3439.125
2677.22224	3437.025
2679.84993	3437.925
2682.476	3404.825
2685.10043	3413.425
2687.72324	3406.525
2690.34441	3413.925
2692.96396	3419.225
2695.58188	3432.625
2698.19818	3418.125
2700.81285	3398.525
2703.4259	3380.825
2706.03733	3357.925
2708.64714	3372.425
2711.25533	3378.925
2713.86191	3393.625
2716.46687	3393.025
2719.07021	3386.525
2721.67194	3387.925
2724.27206	3415.125
2726.87057	3382.525
2729.46747	3370.725
2732.06276	3392.525
2734.65644	3358.125
2737.24852	3371.625
2739.83899	3347.425
2742.42786	3356.025
2745.01513	3351.525
2747.60079	3351.225
2750.18486	3325.925
2752.76733	3332.925
2755.3482	3321.825
2757.92747	3316.425
2760.50515	3313.025
2763.08123	3298.025
2765.65573	3308.325
2768.22863	3283.225
2770.79994	3272.225
2773.36967	3276.625
2775.9378	3261.925
2778.50435	3265.825
2781.06932	3255.825
2783.6327	3254.125
2786.1945	3274.925
2788.75471	3243.425
2791.31335	3231.425
2793.87041	3245.525
2796.42589	3205.825
2798.97979	3214.825
2801.53212	3213.125
2804.08288	3213.925
2806.63206	3198.325
2809.17967	3179.425
2811.72571	3198.025
2814.27018	3191.725
2816.81308	3175.825
2819.35442	3136.925
2821.89419	3157.925
2824.43239	3148.625
2826.96904	3168.725
2829.50412	3151.825
2832.03763	3140.825
2834.56959	3136.125
2837.1	3129.925
2839.62884	3133.425
2842.15613	3121.625
2844.68186	3135.925
2847.20604	3105.225
2849.72867	3099.425
2852.24974	3102.825
2854.76927	3070.525
2857.28724	3025.325
2859.80367	3090.825
2862.31855	3097.925
2864.83189	3096.825
2867.34368	3083.025
2869.85393	3092.925
2872.36264	3059.125
2874.8698	3065.725
2877.37543	3069.125
2879.87952	3075.025
2882.38207	3046.525
2884.88308	3059.325
2887.38256	3061.925
2889.88051	3056.725
2892.37692	3044.925
2894.8718	3018.725
2897.36515	3040.625
2899.85698	3033.525
2902.34727	3038.525
2904.83604	3034.125
2907.32328	3046.225
2909.809	3046.525
2912.29319	3037.625
2914.77587	3045.725
2917.25702	3063.925
2919.73665	3071.125
2922.21476	3064.125
2924.69136	3069.125
2927.16644	3042.525
2929.64	3046.525
2932.11205	3039.025
2934.58258	3032.725
2937.05161	3011.925
2939.51912	3020.125
2941.98513	3022.225
2944.44962	3010.625
2946.91261	2986.425
2949.37409	3000.225
2951.83407	2987.625
2954.29254	2999.125
2956.74951	2986.025
2959.20498	2974.525
2961.65895	2974.025
2964.11142	2951.525
2966.56239	2956.325
2969.01186	2972.625
2971.45984	2955.725
2973.90632	2934.625
2976.35131	2959.725
2978.7948	2941.025
2981.23681	2937.525
2983.67732	2926.525
2986.11635	2929.525
2988.55388	2900.025
2990.98993	2896.425
2993.4245	2881.025
2995.85758	2885.225
2998.28917	2874.525
3000.71928	2863.425
3003.14791	2868.325
3005.57506	2847.125
3008.00073	2830.325
3010.42493	2777.725
3012.84764	2844.925
3015.26888	2822.225
3017.68865	2827.125
3020.10694	2778.825
3022.52376	2779.025
3024.9391	2794.625
3027.35298	2778.925
3029.76539	2765.525
3032.17632	2769.725
3034.5858	2755.925
3036.9938	2754.325
3039.40034	2749.925
3041.80542	2745.825
3044.20903	2739.025
3046.61118	2729.525
3049.01187	2741.125
3051.4111	2712.425
3053.80888	2700.925
3056.20519	2705.325
3058.60005	2690.825
3060.99345	2711.925
3063.3854	2686.825
3065.7759	2664.625
3068.16494	2653.825
3070.55254	2637.525
3072.93868	2656.225
3075.32338	2634.025
3077.70662	2630.125
3080.08842	2628.125
3082.46878	2606.425
3084.84769	2632.525
3087.22515	2613.525
3089.60118	2617.325
3091.97576	2604.225
3094.3489	2621.725
3096.72061	2600.525
3099.09087	2584.925
3101.4597	2595.725
3103.82709	2589.825
3106.19305	2589.525
3108.55757	2593.325
3110.92066	2577.725
3113.28232	2585.525
3115.64255	2584.425
3118.00134	2576.725
3120.35871	2546.725
3122.71466	2526.725
3125.06917	2545.725
3127.42226	2532.125
3129.77393	2512.425
3132.12417	2542.525
3134.47299	2535.025
3136.82039	2503.625
3139.16636	2481.125
3141.51092	2510.925
3143.85406	2511.625
3146.19579	2501.125
3148.53609	2492.825
3150.87499	2502.725
3153.21246	2492.825
3155.54853	2503.225
3157.88318	2498.025
3160.21642	2500.825
3162.54826	2497.025
3164.87868	2504.125
3167.2077	2453.125
3169.5353	2484.425
3171.86151	2492.525
3174.18631	2466.925
3176.5097	2467.125
3178.83169	2470.825
3181.15228	2462.825
3183.47147	2433.725
3185.78926	2424.425
3188.10565	2444.725
3190.42065	2407.725
3192.73424	2421.225
3195.04645	2424.325
3197.35725	2395.325
3199.66667	2411.525
3201.97469	2403.025
3204.28132	2392.825
3206.58656	2410.625
3208.8904	2409.125
3211.19287	2397.125
3213.49394	2384.825
3215.79363	2389.825
3218.09193	2397.225
3220.38884	2393.625
3222.68438	2388.625
3224.97853	2368.425
3227.2713	2401.125
3229.56269	2368.625
3231.8527	2375.925
3234.14133	2362.525
