Data from AgNPs_UA_5uM_CRN_500uM_SU_RamanShift__289__12-17-33-198.txt Node

Date: Thu Aug 04 12:17:33 BST 2022
User: TCL
Spectrometer: QEP01345
Trigger mode: 4
Integration Time (sec): 1.000000E0
Scans to average: 10
Electric dark correction enabled: true
Nonlinearity correction enabled: false
Boxcar width: 0
XAxis mode: Raman Shifts
Number of Pixels in Spectrum: 1044
>>>>>Begin Spectral Data<<<<<
46.04893	-0.3625
50.45542	0.4375
54.85868	0.1375
59.25871	-1.4625
63.6555	-59.8625
68.04907	-39.7625
72.43941	-71.0625
76.82654	-57.6625
81.21044	-56.1625
85.59113	-49.8625
89.96862	-75.8625
94.34289	-57.3625
98.71396	-78.8625
103.08183	-58.8625
107.4465	-49.1625
111.80798	-56.0625
116.16626	-43.8625
120.52136	-75.9625
124.87327	-49.9625
129.222	-64.1625
133.56755	-48.9625
137.90993	-64.4625
142.24913	-50.1625
146.58517	-43.2625
150.91804	-42.1625
155.24774	-28.8625
159.57429	-9.3625
163.89768	-6.8625
168.21792	37.8375
172.53501	58.7375
176.84895	139.2375
181.15975	268.5375
185.46741	419.7375
189.77193	602.3375
194.07331	885.1375
198.37157	1182.1375
202.6667	1454.4375
206.9587	1776.2375
211.24758	2088.5375
215.53334	2420.3375
219.81599	2769.6375
224.09553	3174.5375
228.37195	3611.4375
232.64527	4071.9375
236.91549	4534.9375
241.18261	4905.1375
245.44663	5156.9375
249.70755	5340.4375
253.96539	5457.9375
258.22014	5568.9375
262.4718	5628.0375
266.72039	5678.0375
270.96589	5647.5375
275.20832	5563.3375
279.44768	5464.7375
283.68397	5345.1375
287.91719	5303.9375
292.14735	5342.2375
296.37445	5501.3375
300.59849	5802.3375
304.81948	6162.5375
309.03742	6538.2375
313.25231	6779.9375
317.46415	6752.9375
321.67296	6361.8375
325.87872	5950.1375
330.08145	5761.9375
334.28114	5693.6375
338.47781	5734.9375
342.67145	5884.3375
346.86207	6102.0375
351.04966	6477.0375
355.23424	6840.0375
359.4158	7120.8375
363.59435	7163.0375
367.76989	7098.8375
371.94243	6957.8375
376.11196	6841.6375
380.27849	6746.5375
384.44203	6701.2375
388.60257	6651.1375
392.76012	6647.7375
396.91468	6796.4375
401.06626	6950.7375
405.21485	6965.7375
409.36047	6786.5375
413.50311	6458.9375
417.64277	6181.3375
421.77947	5951.1375
425.9132	5893.4375
430.04396	5893.8375
434.17176	5900.1375
438.2966	6006.3375
442.41849	6073.5375
446.53742	6199.7375
450.6534	6295.4375
454.76644	6385.7375
458.87653	6378.5375
462.98368	6337.8375
467.08789	6273.3375
471.18916	6175.4375
475.2875	6039.6375
479.38291	5935.8375
483.4754	5831.6375
487.56496	5803.7375
491.6516	5745.3375
495.73531	5784.3375
499.81612	5801.7375
503.89401	5877.9375
507.96899	5925.9375
512.04106	6027.9375
516.11023	6132.3375
520.1765	6215.9375
524.23987	6209.1375
528.30034	6208.8375
532.35792	6144.6375
536.41261	6108.2375
540.46441	5983.6375
544.51333	5938.0375
548.55936	6001.8375
552.60252	6118.0375
556.64279	6220.4375
560.6802	6357.0375
564.71473	6462.9375
568.7464	6650.5375
572.7752	6640.3375
576.80114	6355.1375
580.82422	6115.6375
584.84444	6025.5375
588.86181	5995.9375
592.87633	6026.0375
596.888	6133.3375
600.89682	6529.9375
604.9028	7508.4375
608.90594	9644.4375
612.90624	12029.1375
616.90371	11169.2375
620.89834	8009.6375
624.89015	6643.8375
628.87913	6397.4375
632.86528	6562.2375
636.84862	6730.3375
640.82913	6602.7375
644.80683	6239.9375
648.78172	6056.7375
652.75379	6070.5375
656.72306	6298.2375
660.68952	6559.6375
664.65319	6459.8375
668.61405	6225.9375
672.57211	6139.6375
676.52738	6173.2375
680.47986	6055.2375
684.42955	5948.6375
688.37646	5902.2375
692.32058	5912.6375
696.26192	5986.3375
700.20048	6069.4375
704.13626	6128.2375
708.06928	6084.7375
711.99952	6042.7375
715.927	6018.8375
719.85171	6087.5375
723.77365	6115.2375
727.69284	6085.0375
731.60928	6054.2375
735.52295	6046.8375
739.43388	6066.3375
743.34206	6092.7375
747.24749	6113.3375
751.15017	6148.3375
755.05012	6206.1375
758.94733	6606.4375
762.8418	7490.6375
766.73354	8870.6375
770.62254	9947.6375
774.50882	10022.6375
778.39237	9458.8375
782.27321	8479.6375
786.15132	7403.1375
790.02671	6682.2375
793.89938	6311.7375
797.76935	6177.6375
801.6366	6091.7375
805.50115	6024.6375
809.36299	6011.8375
813.22213	6003.9375
817.07857	6006.4375
820.93231	6005.6375
824.78336	6017.6375
828.63172	6058.2375
832.47738	6042.0375
836.32036	6071.4375
840.16066	6014.5375
843.99827	5995.4375
847.8332	5989.8375
851.66546	5990.3375
855.49504	6008.6375
859.32195	6021.7375
863.1462	6023.2375
866.96777	6029.1375
870.78668	5986.6375
874.60293	6034.8375
878.41652	6056.4375
882.22745	6128.3375
886.03573	6154.6375
889.84136	6153.0375
893.64433	6161.2375
897.44466	6127.7375
901.24235	6128.4375
905.0374	6128.9375
908.8298	6063.5375
912.61957	6024.3375
916.40671	5991.6375
920.19121	6031.0375
923.97308	6149.1375
927.75233	6200.8375
931.52895	6257.6375
935.30295	6222.7375
939.07433	6071.7375
942.84309	5923.8375
946.60924	5909.0375
950.37278	5874.4375
954.13371	5872.8375
957.89203	5865.6375
961.64774	5881.0375
965.40086	5871.2375
969.15137	5839.7375
972.89929	5859.2375
976.64461	5858.7375
980.38733	5889.6375
984.12747	5873.8375
987.86502	5915.8375
991.59999	5936.6375
995.33237	5986.7375
999.06217	6050.2375
1002.78939	6136.5375
1006.51404	6256.3375
1010.23611	6392.4375
1013.95561	6421.0375
1017.67255	6423.1375
1021.38692	6410.5375
1025.09872	6341.7375
1028.80796	6261.2375
1032.51465	6267.3375
1036.21877	6245.3375
1039.92035	6281.1375
1043.61937	6324.1375
1047.31584	6375.5375
1051.00976	6409.2375
1054.70114	6414.0375
1058.38998	6396.7375
1062.07627	6422.7375
1065.76003	6464.2375
1069.44126	6529.8375
1073.11995	6605.2375
1076.79611	6748.4375
1080.46974	6902.6375
1084.14085	7055.3375
1087.80943	7196.4375
1091.47549	7258.5375
1095.13903	7155.0375
1098.80005	7017.2375
1102.45857	6935.5375
1106.11456	6898.4375
1109.76805	6840.7375
1113.41903	6963.9375
1117.06751	7142.7375
1120.71348	7407.0375
1124.35696	7804.6375
1127.99793	8104.5375
1131.63641	7932.4375
1135.2724	7520.3375
1138.90589	7204.1375
1142.5369	7007.1375
1146.16542	6864.5375
1149.79145	6759.7375
1153.415	6714.5375
1157.03607	6743.8375
1160.65467	6846.5375
1164.27079	7063.4375
1167.88443	7350.3375
1171.49561	7774.2375
1175.10432	8417.9375
1178.71056	9389.9375
1182.31434	10219.7375
1185.91565	10500.8375
1189.51451	10345.1375
1193.11091	10084.2375
1196.70485	9809.1375
1200.29634	9548.8375
1203.88538	9229.4375
1207.47197	8740.2375
1211.05612	8254.3375
1214.63782	7800.3375
1218.21708	7529.1375
1221.79391	7402.0375
1225.36829	7301.6375
1228.94024	7321.5375
1232.50976	7350.1375
1236.07685	7381.9375
1239.6415	7403.3375
1243.20374	7422.7375
1246.76355	7447.7375
1250.32093	7524.6375
1253.8759	7560.7375
1257.42845	7757.4375
1260.97859	7965.3375
1264.52631	8224.2375
1268.07163	8383.2375
1271.61453	8511.4375
1275.15503	8573.3375
1278.69312	8580.7375
1282.22882	8650.8375
1285.76211	8872.7375
1289.29301	9093.3375
1292.82151	9365.1375
1296.34761	9612.2375
1299.87133	10017.2375
1303.39266	10751.6375
1306.9116	11922.4375
1310.42815	13210.9375
1313.94233	13670.3375
1317.45412	12854.8375
1320.96354	11697.4375
1324.47058	10643.0375
1327.97525	9851.6375
1331.47754	9418.4375
1334.97747	9303.9375
1338.47502	9405.5375
1341.97022	9815.1375
1345.46305	10555.5375
1348.95352	11722.3375
1352.44163	13087.0375
1355.92738	14567.7375
1359.41078	16307.8375
1362.89183	17917.2375
1366.37053	17268.2375
1369.84688	14324.5375
1373.32088	11486.5375
1376.79254	9946.2375
1380.26186	9217.6375
1383.72883	8776.3375
1387.19347	8355.0375
1390.65578	8002.2375
1394.11575	7734.5375
1397.57339	7540.2375
1401.0287	7434.7375
1404.48168	7383.3375
1407.93234	7412.1375
1411.38068	7415.2375
1414.82669	7456.7375
1418.27039	7570.8375
1421.71177	7567.5375
1425.15083	7464.0375
1428.58758	7373.4375
1432.02203	7413.6375
1435.45416	7478.1375
1438.88399	7472.6375
1442.31151	7470.1375
1445.73673	7547.7375
1449.15965	7575.7375
1452.58027	7595.2375
1455.9986	7586.3375
1459.41463	7611.4375
1462.82837	7711.1375
1466.23982	7900.5375
1469.64898	8143.3375
1473.05586	8286.9375
1476.46045	8376.5375
1479.86276	8466.4375
1483.26279	8589.3375
1486.66054	8805.9375
1490.05602	9123.7375
1493.44922	9691.7375
1496.84016	10622.4375
1500.22882	12059.1375
1503.61521	13895.7375
1506.99934	15770.0375
1510.38121	17014.8375
1513.76081	16843.3375
1517.13816	15206.9375
1520.51324	12995.2375
1523.88607	11204.7375
1527.25665	10160.6375
1530.62498	9657.1375
1533.99105	9439.8375
1537.35488	9309.6375
1540.71647	9197.0375
1544.07581	9045.2375
1547.4329	8896.1375
1550.78776	8781.2375
1554.14038	8656.4375
1557.49077	8635.9375
1560.83892	8731.0375
1564.18484	8985.2375
1567.52853	9332.7375
1570.86999	9669.3375
1574.20922	9845.9375
1577.54624	9736.3375
1580.88103	9162.2375
1584.2136	8448.3375
1587.54395	8037.9375
1590.87208	7948.8375
1594.19801	8094.9375
1597.52172	8472.1375
1600.84321	8642.9375
1604.16251	8475.4375
1607.47959	8300.4375
1610.79447	8080.3375
1614.10715	7797.8375
1617.41763	7500.2375
1620.7259	7200.4375
1624.03199	7064.4375
1627.33587	6979.3375
1630.63757	7031.8375
1633.93707	7268.4375
1637.23439	7686.0375
1640.52951	8397.5375
1643.82246	9403.5375
1647.11321	10643.9375
1650.40179	11407.4375
1653.68819	11086.9375
1656.97241	9809.9375
1660.25446	8344.5375
1663.53433	7284.5375
1666.81203	6632.1375
1670.08756	6292.6375
1673.36092	6094.0375
1676.63211	5965.6375
1679.90115	5863.4375
1683.16801	5792.7375
1686.43272	5680.4375
1689.69527	5656.1375
1692.95567	5588.9375
1696.2139	5559.3375
1699.46999	5508.5375
1702.72392	5525.9375
1705.97571	5523.2375
1709.22535	5504.2375
1712.47284	5537.6375
1715.71819	5551.7375
1718.96139	5550.4375
1722.20246	5524.8375
1725.44139	5510.8375
1728.67818	5489.4375
1731.91284	5417.3375
1735.14537	5387.2375
1738.37576	5340.5375
1741.60403	5338.0375
1744.83017	5304.2375
1748.05418	5308.6375
1751.27607	5304.6375
1754.49584	5270.0375
1757.71349	5253.9375
1760.92903	5253.7375
1764.14244	5190.0375
1767.35375	5199.2375
1770.56294	5171.8375
1773.77002	5172.1375
1776.97499	5161.3375
1780.17785	5164.2375
1783.37861	5135.3375
1786.57727	5135.3375
1789.77382	5076.3375
1792.96828	5116.2375
1796.16064	5123.2375
1799.3509	5093.3375
1802.53907	5116.6375
1805.72514	5083.1375
1808.90913	5058.1375
1812.09102	5048.1375
1815.27083	5055.7375
1818.44856	5030.3375
1821.6242	5018.4375
1824.79776	5000.3375
1827.96924	5009.8375
1831.13864	4965.3375
1834.30597	4984.9375
1837.47122	4957.0375
1840.6344	4955.7375
1843.7955	4932.6375
1846.95454	4925.3375
1850.11151	4947.0375
1853.26642	4901.1375
1856.41926	4908.4375
1859.57004	4912.0375
1862.71876	4900.6375
1865.86542	4912.8375
1869.01003	4900.6375
1872.15258	4874.7375
1875.29308	4911.1375
1878.43152	4899.1375
1881.56792	4866.8375
1884.70227	4861.8375
1887.83457	4859.3375
1890.96482	4824.0375
1894.09304	4819.4375
1897.21921	4832.9375
1900.34335	4827.0375
1903.46544	4793.0375
1906.58551	4823.0375
1909.70353	4810.4375
1912.81953	4800.5375
1915.93349	4782.0375
1919.04543	4777.3375
1922.15534	4752.7375
1925.26322	4769.6375
1928.36908	4757.4375
1931.47292	4738.6375
1934.57473	4751.6375
1937.67453	4715.0375
1940.77232	4694.8375
1943.86808	4690.8375
1946.96184	4675.2375
1950.05358	4663.2375
1953.14331	4623.2375
1956.23103	4650.3375
1959.31675	4605.2375
1962.40046	4562.6375
1965.48217	4584.4375
1968.56188	4579.7375
1971.63959	4559.8375
1974.7153	4555.5375
1977.78901	4551.3375
1980.86073	4534.6375
1983.93046	4492.6375
1986.99819	4413.5375
1990.06394	4427.6375
1993.1277	4469.3375
1996.18947	4424.8375
1999.24925	4406.1375
2002.30706	4405.0375
2005.36288	4392.0375
2008.41672	4375.9375
2011.46859	4350.5375
2014.51848	4343.5375
2017.56639	4325.8375
2020.61233	4287.1375
2023.6563	4315.5375
2026.6983	4260.9375
2029.73833	4255.1375
2032.7764	4276.8375
2035.8125	4219.9375
2038.84664	4231.3375
2041.87881	4225.4375
2044.90903	4225.8375
2047.93729	4221.4375
2050.96359	4186.2375
2053.98794	4194.7375
2057.01034	4192.8375
2060.03078	4169.0375
2063.04927	4152.2375
2066.06582	4168.6375
2069.08042	4159.1375
2072.09307	4163.6375
2075.10378	4156.6375
2078.11255	4148.3375
2081.11938	4150.1375
2084.12426	4143.3375
2087.12722	4135.0375
2090.12824	4130.0375
2093.12732	4123.1375
2096.12447	4146.5375
2099.11969	4127.7375
2102.11299	4117.4375
2105.10435	4139.4375
2108.09379	4137.6375
2111.08131	4129.0375
2114.0669	4134.6375
2117.05057	4132.3375
2120.03233	4128.2375
2123.01216	4147.2375
2125.99008	4133.9375
2128.96609	4145.7375
2131.94018	4156.1375
2134.91236	4145.8375
2137.88263	4150.4375
2140.851	4150.6375
2143.81746	4162.5375
2146.78201	4148.1375
2149.74466	4150.5375
2152.7054	4152.3375
2155.66425	4128.2375
2158.6212	4117.2375
2161.57625	4103.5375
2164.52941	4086.0375
2167.48067	4091.2375
2170.43004	4095.1375
2173.37752	4123.5375
2176.32311	4102.9375
2179.26681	4093.4375
2182.20863	4099.9375
2185.14856	4108.8375
2188.08661	4107.3375
2191.02278	4115.8375
2193.95707	4084.0375
2196.88948	4070.2375
2199.82001	4091.3375
2202.74867	4081.7375
2205.67545	4056.2375
2208.60037	4079.6375
2211.52341	4065.3375
2214.44458	4052.1375
2217.36388	4034.9375
2220.28132	4016.2375
2223.1969	4013.7375
2226.11061	4009.5375
2229.02246	3997.9375
2231.93245	3983.3375
2234.84058	3969.7375
2237.74686	3976.4375
2240.65128	3946.3375
2243.55385	3973.0375
2246.45456	3936.8375
2249.35343	3959.2375
2252.25044	3929.5375
2255.14561	3942.0375
2258.03893	3930.7375
2260.93041	3930.7375
2263.82004	3919.9375
2266.70783	3917.9375
2269.59378	3895.3375
2272.4779	3885.2375
2275.36017	3881.7375
2278.24061	3866.2375
2281.11922	3839.2375
2283.996	3849.7375
2286.87094	3821.0375
2289.74405	3834.6375
2292.61534	3830.9375
2295.4848	3826.4375
2298.35243	3823.1375
2301.21824	3803.1375
2304.08223	3798.1375
2306.94439	3811.3375
2309.80474	3807.8375
2312.66327	3799.1375
2315.51999	3789.4375
2318.37489	3789.5375
2321.22797	3760.5375
2324.07925	3756.6375
2326.92871	3740.2375
2329.77637	3743.9375
2332.62222	3720.8375
2335.46626	3703.2375
2338.3085	3696.8375
2341.14893	3729.2375
2343.98756	3726.1375
2346.8244	3712.5375
2349.65943	3690.3375
2352.49267	3701.0375
2355.32411	3701.7375
2358.15376	3681.9375
2360.98161	3701.8375
2363.80768	3693.2375
2366.63195	3692.9375
2369.45444	3700.9375
2372.27514	3690.9375
2375.09405	3707.6375
2377.91118	3675.3375
2380.72652	3679.8375
2383.54009	3660.8375
2386.35187	3668.2375
2389.16188	3630.7375
2391.97011	3638.9375
2394.77657	3607.2375
2397.58125	3620.2375
2400.38416	3610.9375
2403.18529	3598.0375
2405.98466	3574.7375
2408.78226	3574.0375
2411.57809	3569.6375
2414.37216	3556.6375
2417.16446	3572.3375
2419.955	3536.9375
2422.74378	3549.9375
2425.5308	3527.2375
2428.31606	3548.1375
2431.09956	3533.2375
2433.88131	3522.4375
2436.6613	3532.4375
2439.43954	3529.2375
2442.21603	3510.0375
2444.99077	3503.7375
2447.76377	3517.6375
2450.53501	3504.2375
2453.30451	3504.0375
2456.07226	3505.2375
2458.83827	3499.7375
2461.60254	3438.0375
2464.36507	3487.9375
2467.12586	3472.4375
2469.88492	3482.1375
2472.64224	3472.3375
2475.39782	3455.0375
2478.15167	3477.7375
2480.90379	3462.1375
2483.65417	3481.1375
2486.40283	3486.6375
2489.14976	3499.3375
2491.89497	3475.0375
2494.63845	3455.3375
2497.3802	3459.7375
2500.12024	3460.6375
2502.85855	3448.3375
2505.59514	3464.6375
2508.33002	3443.2375
2511.06318	3410.0375
2513.79462	3412.5375
2516.52435	3379.5375
2519.25237	3364.8375
2521.97867	3374.3375
2524.70327	3373.9375
2527.42616	3372.3375
2530.14734	3387.0375
2532.86681	3351.7375
2535.58458	3351.2375
2538.30065	3346.3375
2541.01501	3363.4375
2543.72768	3334.7375
2546.43864	3336.6375
2549.14791	3334.5375
2551.85548	3306.7375
2554.56136	3319.9375
2557.26554	3324.6375
2559.96803	3301.8375
2562.66883	3313.7375
2565.36794	3277.1375
2568.06536	3255.9375
2570.7611	3279.6375
2573.45514	3268.6375
2576.14751	3256.9375
2578.83819	3236.4375
2581.52719	3238.8375
2584.21451	3231.8375
2586.90015	3225.1375
2589.58411	3208.6375
2592.2664	3213.5375
2594.94701	3219.6375
2597.62594	3202.9375
2600.30321	3132.8375
2602.9788	3176.0375
2605.65273	3155.0375
2608.32498	3161.1375
2610.99557	3194.5375
2613.66449	3138.9375
2616.33175	3153.6375
2618.99734	3159.2375
2621.66128	3151.5375
2624.32355	3153.9375
2626.98416	3131.4375
2629.64311	3118.2375
2632.30041	3118.2375
2634.95605	3101.7375
2637.61004	3087.0375
2640.26238	3067.5375
2642.91306	3085.4375
2645.56209	3095.5375
2648.20948	3086.6375
2650.85521	3078.8375
2653.4993	3095.9375
2656.14175	3073.1375
2658.78255	3068.8375
2661.42171	3035.3375
2664.05923	3074.0375
2666.6951	3082.4375
2669.32934	3089.1375
2671.96194	3100.9375
2674.59291	3070.6375
2677.22224	3071.5375
2679.84993	3082.2375
2682.476	3076.9375
2685.10043	3068.9375
2687.72324	3049.1375
2690.34441	3048.7375
2692.96396	3056.3375
2695.58188	3071.6375
2698.19818	3047.9375
2700.81285	3050.9375
2703.4259	3039.9375
2706.03733	3012.4375
2708.64714	3011.5375
2711.25533	3049.4375
2713.86191	3045.3375
2716.46687	3036.9375
2719.07021	3039.1375
2721.67194	3046.0375
2724.27206	3050.7375
2726.87057	3027.0375
2729.46747	3035.2375
2732.06276	3039.7375
2734.65644	3017.8375
2737.24852	3028.9375
2739.83899	2993.5375
2742.42786	3006.6375
2745.01513	3007.6375
2747.60079	2996.2375
2750.18486	2982.9375
2752.76733	2982.7375
2755.3482	2972.5375
2757.92747	2985.2375
2760.50515	2949.2375
2763.08123	2948.8375
2765.65573	2959.2375
2768.22863	2956.6375
2770.79994	2930.6375
2773.36967	2930.9375
2775.9378	2932.8375
2778.50435	2920.6375
2781.06932	2912.1375
2783.6327	2917.3375
2786.1945	2919.4375
2788.75471	2904.0375
2791.31335	2912.6375
2793.87041	2904.8375
2796.42589	2889.0375
2798.97979	2876.9375
2801.53212	2867.9375
2804.08288	2899.0375
2806.63206	2875.2375
2809.17967	2854.5375
2811.72571	2876.5375
2814.27018	2857.2375
2816.81308	2853.2375
2819.35442	2818.0375
2821.89419	2832.8375
2824.43239	2818.1375
2826.96904	2840.8375
2829.50412	2826.2375
2832.03763	2817.7375
2834.56959	2832.3375
2837.1	2806.0375
2839.62884	2815.7375
2842.15613	2808.0375
2844.68186	2827.5375
2847.20604	2790.1375
2849.72867	2781.8375
2852.24974	2797.8375
2854.76927	2767.1375
2857.28724	2731.1375
2859.80367	2781.2375
2862.31855	2779.6375
2864.83189	2774.7375
2867.34368	2779.0375
2869.85393	2794.3375
2872.36264	2770.5375
2874.8698	2763.5375
2877.37543	2769.3375
2879.87952	2764.0375
2882.38207	2744.7375
2884.88308	2749.4375
2887.38256	2756.1375
2889.88051	2738.9375
2892.37692	2751.0375
2894.8718	2729.6375
2897.36515	2742.2375
2899.85698	2741.0375
2902.34727	2732.6375
2904.83604	2746.9375
2907.32328	2751.1375
2909.809	2755.3375
2912.29319	2752.5375
2914.77587	2765.2375
2917.25702	2767.3375
2919.73665	2778.2375
2922.21476	2775.1375
2924.69136	2769.1375
2927.16644	2764.7375
2929.64	2755.3375
2932.11205	2731.8375
2934.58258	2740.1375
2937.05161	2720.5375
2939.51912	2726.8375
2941.98513	2735.8375
2944.44962	2720.0375
2946.91261	2690.5375
2949.37409	2695.8375
2951.83407	2692.0375
2954.29254	2688.5375
2956.74951	2696.2375
2959.20498	2675.0375
2961.65895	2666.8375
2964.11142	2658.4375
2966.56239	2675.5375
2969.01186	2674.2375
2971.45984	2664.2375
2973.90632	2648.1375
2976.35131	2661.5375
2978.7948	2653.2375
2981.23681	2633.2375
2983.67732	2639.9375
2986.11635	2635.5375
2988.55388	2601.3375
2990.98993	2610.7375
2993.4245	2599.0375
2995.85758	2587.8375
2998.28917	2596.0375
3000.71928	2582.9375
3003.14791	2576.0375
3005.57506	2557.0375
3008.00073	2554.1375
3010.42493	2501.9375
3012.84764	2556.7375
3015.26888	2548.4375
3017.68865	2541.0375
3020.10694	2506.2375
3022.52376	2503.2375
3024.9391	2510.9375
3027.35298	2497.1375
3029.76539	2491.4375
3032.17632	2493.8375
3034.5858	2488.8375
3036.9938	2495.0375
3039.40034	2483.4375
3041.80542	2471.5375
3044.20903	2449.3375
3046.61118	2449.3375
3049.01187	2456.2375
3051.4111	2435.0375
3053.80888	2433.4375
3056.20519	2430.8375
3058.60005	2402.3375
3060.99345	2430.5375
3063.3854	2415.6375
3065.7759	2397.0375
3068.16494	2393.4375
3070.55254	2368.0375
3072.93868	2405.7375
3075.32338	2382.2375
3077.70662	2370.2375
3080.08842	2370.8375
3082.46878	2362.3375
3084.84769	2371.7375
3087.22515	2342.0375
3089.60118	2358.6375
3091.97576	2344.7375
3094.3489	2346.5375
3096.72061	2343.0375
3099.09087	2330.9375
3101.4597	2345.2375
3103.82709	2333.6375
3106.19305	2318.3375
3108.55757	2323.4375
3110.92066	2309.6375
3113.28232	2319.3375
3115.64255	2313.4375
3118.00134	2314.1375
3120.35871	2283.0375
3122.71466	2285.4375
