Data from AgNPs_UA_5uM_CRN_500uM_SU_RamanShift__127__11-50-33-164.txt Node

Date: Thu Aug 04 11:50:33 BST 2022
User: TCL
Spectrometer: QEP01345
Trigger mode: 4
Integration Time (sec): 1.000000E0
Scans to average: 10
Electric dark correction enabled: true
Nonlinearity correction enabled: false
Boxcar width: 0
XAxis mode: Raman Shifts
Number of Pixels in Spectrum: 1044
>>>>>Begin Spectral Data<<<<<
46.04893	-1.525
50.45542	-0.025
54.85868	0.175
59.25871	0.275
63.6555	-57.225
68.04907	-38.825
72.43941	-71.225
76.82654	-57.925
81.21044	-55.225
85.59113	-47.725
89.96862	-75.825
94.34289	-56.725
98.71396	-79.325
103.08183	-57.425
107.4465	-50.525
111.80798	-56.125
116.16626	-43.625
120.52136	-74.725
124.87327	-49.225
129.222	-64.525
133.56755	-50.125
137.90993	-61.725
142.24913	-51.725
146.58517	-43.625
150.91804	-41.625
155.24774	-31.125
159.57429	-11.325
163.89768	-9.725
168.21792	36.675
172.53501	54.775
176.84895	131.675
181.15975	256.275
185.46741	405.675
189.77193	576.275
194.07331	861.175
198.37157	1139.475
202.6667	1411.475
206.9587	1733.275
211.24758	2034.875
215.53334	2349.475
219.81599	2674.375
224.09553	3062.075
228.37195	3496.475
232.64527	3924.775
236.91549	4409.075
241.18261	4776.675
245.44663	5108.775
249.70755	5292.175
253.96539	5446.175
258.22014	5547.975
262.4718	5614.875
266.72039	5637.275
270.96589	5590.275
275.20832	5486.575
279.44768	5375.575
283.68397	5247.575
287.91719	5205.875
292.14735	5187.875
296.37445	5319.675
300.59849	5547.075
304.81948	5789.775
309.03742	6080.675
313.25231	6261.075
317.46415	6199.575
321.67296	5883.175
325.87872	5591.375
330.08145	5436.275
334.28114	5420.475
338.47781	5486.375
342.67145	5606.075
346.86207	5799.475
351.04966	6121.175
355.23424	6437.275
359.4158	6675.675
363.59435	6703.375
367.76989	6656.175
371.94243	6582.875
376.11196	6494.675
380.27849	6455.175
384.44203	6411.775
388.60257	6407.175
392.76012	6421.675
396.91468	6530.675
401.06626	6675.075
405.21485	6697.975
409.36047	6573.375
413.50311	6344.275
417.64277	6127.575
421.77947	5955.275
425.9132	5902.075
430.04396	5900.675
434.17176	5945.475
438.2966	6028.375
442.41849	6127.575
446.53742	6241.975
450.6534	6332.975
454.76644	6415.275
458.87653	6436.875
462.98368	6413.275
467.08789	6390.575
471.18916	6331.975
475.2875	6243.375
479.38291	6169.075
483.4754	6074.075
487.56496	6013.475
491.6516	5975.475
495.73531	5967.975
499.81612	6005.575
503.89401	6062.575
507.96899	6116.975
512.04106	6180.675
516.11023	6276.375
520.1765	6331.275
524.23987	6372.975
528.30034	6379.575
532.35792	6345.775
536.41261	6282.175
540.46441	6199.075
544.51333	6178.975
548.55936	6219.075
552.60252	6320.475
556.64279	6407.675
560.6802	6524.575
564.71473	6634.375
568.7464	6766.075
572.7752	6737.475
576.80114	6509.675
580.82422	6276.675
584.84444	6225.075
588.86181	6207.675
592.87633	6238.475
596.888	6371.975
600.89682	6663.375
604.9028	7427.475
608.90594	9106.175
612.90624	10985.975
616.90371	10251.675
620.89834	7848.775
624.89015	6813.875
628.87913	6665.075
632.86528	6790.675
636.84862	6924.075
640.82913	6809.975
644.80683	6549.275
648.78172	6431.775
652.75379	6424.075
656.72306	6617.975
660.68952	6807.675
664.65319	6748.375
668.61405	6563.375
672.57211	6545.875
676.52738	6568.175
680.47986	6483.975
684.42955	6398.475
688.37646	6359.475
692.32058	6377.375
696.26192	6431.975
700.20048	6503.175
704.13626	6538.275
708.06928	6517.275
711.99952	6467.275
715.927	6474.175
719.85171	6484.975
723.77365	6537.875
727.69284	6523.675
731.60928	6501.975
735.52295	6490.375
739.43388	6544.075
743.34206	6528.875
747.24749	6568.275
751.15017	6568.575
755.05012	6609.275
758.94733	6912.575
762.8418	7569.175
766.73354	8586.775
770.62254	9357.675
774.50882	9445.375
778.39237	9066.575
782.27321	8357.275
786.15132	7528.675
790.02671	7011.375
793.89938	6697.575
797.76935	6612.075
801.6366	6554.675
805.50115	6512.775
809.36299	6521.575
813.22213	6517.475
817.07857	6517.275
820.93231	6506.175
824.78336	6534.175
828.63172	6560.075
832.47738	6540.775
836.32036	6564.575
840.16066	6531.175
843.99827	6536.975
847.8332	6533.675
851.66546	6555.775
855.49504	6530.275
859.32195	6589.075
863.1462	6589.675
866.96777	6590.575
870.78668	6583.775
874.60293	6609.775
878.41652	6610.875
882.22745	6693.275
886.03573	6715.975
889.84136	6711.775
893.64433	6712.775
897.44466	6710.675
901.24235	6715.075
905.0374	6673.175
908.8298	6634.775
912.61957	6622.775
916.40671	6561.175
920.19121	6622.175
923.97308	6695.975
927.75233	6737.875
931.52895	6800.175
935.30295	6806.575
939.07433	6668.975
942.84309	6586.275
946.60924	6549.075
950.37278	6509.475
954.13371	6519.975
957.89203	6518.875
961.64774	6529.775
965.40086	6526.075
969.15137	6497.875
972.89929	6523.675
976.64461	6519.175
980.38733	6535.075
984.12747	6515.475
987.86502	6551.075
991.59999	6601.375
995.33237	6668.975
999.06217	6711.275
1002.78939	6823.975
1006.51404	6962.175
1010.23611	7088.875
1013.95561	7151.475
1017.67255	7167.575
1021.38692	7132.775
1025.09872	7072.775
1028.80796	6990.075
1032.51465	6990.575
1036.21877	6962.475
1039.92035	7016.575
1043.61937	7041.675
1047.31584	7073.775
1051.00976	7105.875
1054.70114	7128.675
1058.38998	7108.675
1062.07627	7099.675
1065.76003	7157.575
1069.44126	7267.375
1073.11995	7336.775
1076.79611	7456.175
1080.46974	7585.775
1084.14085	7692.175
1087.80943	7791.475
1091.47549	7834.075
1095.13903	7792.175
1098.80005	7713.275
1102.45857	7630.075
1106.11456	7570.575
1109.76805	7486.475
1113.41903	7557.875
1117.06751	7663.575
1120.71348	7837.375
1124.35696	8141.775
1127.99793	8359.775
1131.63641	8251.275
1135.2724	7945.375
1138.90589	7752.975
1142.5369	7591.175
1146.16542	7550.675
1149.79145	7467.875
1153.415	7388.175
1157.03607	7380.175
1160.65467	7418.975
1164.27079	7570.875
1167.88443	7757.175
1171.49561	8099.375
1175.10432	8533.475
1178.71056	9238.875
1182.31434	9847.875
1185.91565	10057.575
1189.51451	9982.075
1193.11091	9835.075
1196.70485	9700.275
1200.29634	9562.675
1203.88538	9384.575
1207.47197	9070.275
1211.05612	8721.975
1214.63782	8459.175
1218.21708	8252.775
1221.79391	8097.475
1225.36829	7978.575
1228.94024	7926.275
1232.50976	7928.875
1236.07685	7971.375
1239.6415	8006.275
1243.20374	8009.775
1246.76355	8064.275
1250.32093	8151.875
1253.8759	8251.375
1257.42845	8429.975
1260.97859	8618.975
1264.52631	8811.175
1268.07163	8933.275
1271.61453	9000.375
1275.15503	9032.375
1278.69312	9034.775
1282.22882	9067.475
1285.76211	9248.475
1289.29301	9409.075
1292.82151	9655.275
1296.34761	9808.975
1299.87133	10171.175
1303.39266	10729.475
1306.9116	11568.575
1310.42815	12511.075
1313.94233	12846.575
1317.45412	12256.275
1320.96354	11428.275
1324.47058	10631.775
1327.97525	10095.175
1331.47754	9771.275
1334.97747	9728.975
1338.47502	9840.075
1341.97022	10155.775
1345.46305	10757.675
1348.95352	11608.175
1352.44163	12551.875
1355.92738	13478.875
1359.41078	14680.075
1362.89183	15726.175
1366.37053	15112.075
1369.84688	12912.975
1373.32088	10895.775
1376.79254	9867.675
1380.26186	9366.875
1383.72883	9068.975
1387.19347	8764.375
1390.65578	8484.975
1394.11575	8319.575
1397.57339	8187.675
1401.0287	8089.775
1404.48168	8048.375
1407.93234	8076.675
1411.38068	8094.375
1414.82669	8174.075
1418.27039	8242.475
1421.71177	8231.475
1425.15083	8112.375
1428.58758	8064.475
1432.02203	8099.275
1435.45416	8177.075
1438.88399	8196.675
1442.31151	8196.875
1445.73673	8277.975
1449.15965	8355.875
1452.58027	8363.675
1455.9986	8336.675
1459.41463	8380.075
1462.82837	8445.775
1466.23982	8589.075
1469.64898	8784.875
1473.05586	8909.575
1476.46045	8960.075
1479.86276	9022.875
1483.26279	9060.975
1486.66054	9190.675
1490.05602	9381.775
1493.44922	9782.675
1496.84016	10437.275
1500.22882	11499.675
1503.61521	12746.775
1506.99934	14061.275
1510.38121	14891.875
1513.76081	14771.575
1517.13816	13637.975
1520.51324	12071.175
1523.88607	10821.575
1527.25665	10038.075
1530.62498	9675.175
1533.99105	9531.675
1537.35488	9438.575
1540.71647	9440.575
1544.07581	9371.975
1547.4329	9290.675
1550.78776	9168.875
1554.14038	9060.675
1557.49077	8985.875
1560.83892	9023.675
1564.18484	9186.175
1567.52853	9398.775
1570.86999	9628.675
1574.20922	9708.175
1577.54624	9623.275
1580.88103	9271.475
1584.2136	8753.275
1587.54395	8509.475
1590.87208	8500.075
1594.19801	8674.575
1597.52172	8984.575
1600.84321	9161.275
1604.16251	9091.975
1607.47959	8944.575
1610.79447	8771.875
1614.10715	8489.075
1617.41763	8171.875
1620.7259	7900.575
1624.03199	7750.075
1627.33587	7674.575
1630.63757	7730.175
1633.93707	7925.075
1637.23439	8288.575
1640.52951	8867.075
1643.82246	9633.675
1647.11321	10505.975
1650.40179	10995.475
1653.68819	10675.175
1656.97241	9699.375
1660.25446	8599.875
1663.53433	7799.075
1666.81203	7330.075
1670.08756	7028.475
1673.36092	6905.575
1676.63211	6776.675
1679.90115	6694.775
1683.16801	6629.475
1686.43272	6534.475
1689.69527	6504.475
1692.95567	6432.975
1696.2139	6403.975
1699.46999	6341.275
1702.72392	6326.775
1705.97571	6358.675
1709.22535	6354.175
1712.47284	6377.475
1715.71819	6380.875
1718.96139	6376.775
1722.20246	6375.075
1725.44139	6334.275
1728.67818	6325.875
1731.91284	6286.375
1735.14537	6260.375
1738.37576	6230.775
1741.60403	6208.875
1744.83017	6177.075
1748.05418	6205.275
1751.27607	6194.975
1754.49584	6155.575
1757.71349	6141.975
1760.92903	6138.375
1764.14244	6088.375
1767.35375	6087.875
1770.56294	6079.575
1773.77002	6070.775
1776.97499	6079.375
1780.17785	6044.775
1783.37861	6046.675
1786.57727	6076.375
1789.77382	5996.775
1792.96828	6032.575
1796.16064	6040.775
1799.3509	6019.975
1802.53907	6034.375
1805.72514	5995.575
1808.90913	5959.675
1812.09102	5967.375
1815.27083	5946.475
1818.44856	5943.575
1821.6242	5928.175
1824.79776	5906.875
1827.96924	5910.875
1831.13864	5885.175
1834.30597	5896.075
1837.47122	5854.275
1840.6344	5872.275
1843.7955	5855.075
1846.95454	5839.275
1850.11151	5868.575
1853.26642	5811.475
1856.41926	5828.675
1859.57004	5833.175
1862.71876	5829.375
1865.86542	5827.375
1869.01003	5809.075
1872.15258	5792.975
1875.29308	5822.675
1878.43152	5814.475
1881.56792	5776.975
1884.70227	5763.475
1887.83457	5778.375
1890.96482	5747.775
1894.09304	5748.775
1897.21921	5743.875
1900.34335	5741.475
1903.46544	5722.975
1906.58551	5730.775
1909.70353	5731.875
1912.81953	5703.575
1915.93349	5691.975
1919.04543	5708.575
1922.15534	5670.075
1925.26322	5695.075
1928.36908	5662.275
1931.47292	5647.175
1934.57473	5659.375
1937.67453	5641.975
1940.77232	5603.675
1943.86808	5597.775
1946.96184	5585.275
1950.05358	5559.275
1953.14331	5543.075
1956.23103	5560.775
1959.31675	5504.175
1962.40046	5456.775
1965.48217	5472.875
1968.56188	5484.975
1971.63959	5442.075
1974.7153	5465.675
1977.78901	5430.875
1980.86073	5405.675
1983.93046	5357.175
1986.99819	5307.775
1990.06394	5319.575
1993.1277	5343.475
1996.18947	5314.475
1999.24925	5271.875
2002.30706	5268.075
2005.36288	5259.075
2008.41672	5244.475
2011.46859	5211.775
2014.51848	5223.575
2017.56639	5207.575
2020.61233	5169.075
2023.6563	5169.575
2026.6983	5131.875
2029.73833	5136.175
2032.7764	5152.075
2035.8125	5089.875
2038.84664	5096.075
2041.87881	5070.375
2044.90903	5084.075
2047.93729	5063.275
2050.96359	5044.575
2053.98794	5044.375
2057.01034	5051.675
2060.03078	5034.075
2063.04927	5026.075
2066.06582	5030.875
2069.08042	5031.075
2072.09307	5025.875
2075.10378	5018.075
2078.11255	5006.375
2081.11938	5001.575
2084.12426	4992.575
2087.12722	4991.075
2090.12824	4994.375
2093.12732	5009.775
2096.12447	4998.575
2099.11969	5009.275
2102.11299	4988.875
2105.10435	5003.475
2108.09379	5002.075
2111.08131	4991.175
2114.0669	4990.875
2117.05057	4997.075
2120.03233	4976.775
2123.01216	4987.575
2125.99008	5001.875
2128.96609	5005.575
2131.94018	5028.775
2134.91236	5014.175
2137.88263	5008.675
2140.851	5012.975
2143.81746	5027.675
2146.78201	5031.575
2149.74466	5004.875
2152.7054	5017.975
2155.66425	5009.975
2158.6212	4999.075
2161.57625	4991.275
2164.52941	4958.275
2167.48067	4961.275
2170.43004	4973.975
2173.37752	4997.075
2176.32311	4972.675
2179.26681	4975.875
2182.20863	4984.475
2185.14856	4978.475
2188.08661	4978.175
2191.02278	4984.375
2193.95707	4966.475
2196.88948	4942.375
2199.82001	4960.675
2202.74867	4940.875
2205.67545	4938.575
2208.60037	4954.675
2211.52341	4925.975
2214.44458	4903.475
2217.36388	4902.375
2220.28132	4889.675
2223.1969	4857.175
2226.11061	4869.375
2229.02246	4850.975
2231.93245	4860.275
2234.84058	4832.175
2237.74686	4810.575
2240.65128	4834.775
2243.55385	4812.575
2246.45456	4794.775
2249.35343	4811.675
2252.25044	4780.975
2255.14561	4794.575
2258.03893	4773.775
2260.93041	4787.275
2263.82004	4764.675
2266.70783	4768.275
2269.59378	4728.175
2272.4779	4707.475
2275.36017	4725.275
2278.24061	4703.875
2281.11922	4673.475
2283.996	4684.475
2286.87094	4677.075
2289.74405	4672.775
2292.61534	4666.775
2295.4848	4656.975
2298.35243	4651.475
2301.21824	4635.175
2304.08223	4641.475
2306.94439	4646.775
2309.80474	4646.075
2312.66327	4621.775
2315.51999	4602.375
2318.37489	4604.575
2321.22797	4599.075
2324.07925	4578.275
2326.92871	4589.175
2329.77637	4551.075
2332.62222	4555.675
2335.46626	4534.975
2338.3085	4525.175
2341.14893	4543.875
2343.98756	4547.875
2346.8244	4519.075
2349.65943	4504.375
2352.49267	4514.075
2355.32411	4514.975
2358.15376	4507.375
2360.98161	4526.075
2363.80768	4488.675
2366.63195	4496.275
2369.45444	4512.675
2372.27514	4486.275
2375.09405	4505.975
2377.91118	4460.675
2380.72652	4478.475
2383.54009	4466.975
2386.35187	4470.175
2389.16188	4430.775
2391.97011	4440.375
2394.77657	4420.175
2397.58125	4425.775
2400.38416	4416.875
2403.18529	4395.175
2405.98466	4382.875
2408.78226	4372.075
2411.57809	4374.075
2414.37216	4349.375
2417.16446	4365.575
2419.955	4338.475
2422.74378	4348.575
2425.5308	4330.475
2428.31606	4344.975
2431.09956	4337.175
2433.88131	4310.975
2436.6613	4334.675
2439.43954	4305.175
2442.21603	4301.075
2444.99077	4303.475
2447.76377	4316.975
2450.53501	4296.975
2453.30451	4282.575
2456.07226	4281.375
2458.83827	4262.675
2461.60254	4222.675
2464.36507	4243.875
2467.12586	4243.775
2469.88492	4254.275
2472.64224	4238.175
2475.39782	4221.175
2478.15167	4237.875
2480.90379	4215.575
2483.65417	4240.675
2486.40283	4236.075
2489.14976	4251.975
2491.89497	4229.775
2494.63845	4238.175
2497.3802	4225.675
2500.12024	4206.475
2502.85855	4200.575
2505.59514	4218.275
2508.33002	4202.675
2511.06318	4178.875
2513.79462	4184.775
2516.52435	4156.275
2519.25237	4126.075
2521.97867	4127.275
2524.70327	4144.075
2527.42616	4132.175
2530.14734	4143.675
2532.86681	4117.275
2535.58458	4103.075
2538.30065	4104.475
2541.01501	4130.675
2543.72768	4099.175
2546.43864	4103.575
2549.14791	4092.475
2551.85548	4070.075
2554.56136	4064.975
2557.26554	4068.775
2559.96803	4074.875
2562.66883	4059.075
2565.36794	4039.675
2568.06536	4003.875
2570.7611	4029.075
2573.45514	4004.775
2576.14751	4014.575
2578.83819	3980.875
2581.52719	3989.875
2584.21451	3979.475
2586.90015	3957.175
2589.58411	3933.475
2592.2664	3960.675
2594.94701	3940.375
2597.62594	3947.775
2600.30321	3886.575
2602.9788	3888.275
2605.65273	3892.475
2608.32498	3905.275
2610.99557	3910.375
2613.66449	3891.475
2616.33175	3901.875
2618.99734	3894.975
2621.66128	3898.375
2624.32355	3878.875
2626.98416	3844.875
2629.64311	3847.875
2632.30041	3834.875
2634.95605	3830.275
2637.61004	3824.875
2640.26238	3805.375
2642.91306	3809.675
2645.56209	3815.675
2648.20948	3817.675
2650.85521	3786.275
2653.4993	3817.375
2656.14175	3792.175
2658.78255	3801.275
2661.42171	3766.275
2664.05923	3808.975
2666.6951	3797.675
2669.32934	3796.875
2671.96194	3812.375
2674.59291	3796.475
2677.22224	3803.075
2679.84993	3785.075
2682.476	3786.375
2685.10043	3780.775
2687.72324	3757.475
2690.34441	3783.075
2692.96396	3759.675
2695.58188	3784.075
2698.19818	3781.375
2700.81285	3766.575
2703.4259	3747.975
2706.03733	3729.175
2708.64714	3729.875
2711.25533	3750.875
2713.86191	3756.275
2716.46687	3759.375
2719.07021	3757.175
2721.67194	3744.975
2724.27206	3755.775
2726.87057	3755.875
2729.46747	3749.675
2732.06276	3752.475
2734.65644	3727.375
2737.24852	3724.475
2739.83899	3705.075
2742.42786	3719.875
2745.01513	3731.775
2747.60079	3716.875
2750.18486	3679.575
2752.76733	3697.775
2755.3482	3667.475
2757.92747	3681.075
2760.50515	3650.875
2763.08123	3666.275
2765.65573	3667.775
2768.22863	3649.775
2770.79994	3635.175
2773.36967	3624.775
2775.9378	3623.375
2778.50435	3611.675
2781.06932	3591.875
2783.6327	3605.375
2786.1945	3613.175
2788.75471	3599.875
2791.31335	3590.075
2793.87041	3590.075
2796.42589	3562.075
2798.97979	3573.575
2801.53212	3555.875
2804.08288	3575.675
2806.63206	3558.475
2809.17967	3529.375
2811.72571	3552.075
2814.27018	3536.575
2816.81308	3524.375
2819.35442	3484.975
2821.89419	3500.575
2824.43239	3482.275
2826.96904	3515.475
2829.50412	3485.475
2832.03763	3491.175
2834.56959	3480.075
2837.1	3468.675
2839.62884	3466.175
2842.15613	3458.075
2844.68186	3465.875
2847.20604	3438.975
2849.72867	3425.675
2852.24974	3432.875
2854.76927	3405.775
2857.28724	3349.175
2859.80367	3430.175
2862.31855	3420.875
2864.83189	3407.375
2867.34368	3405.375
2869.85393	3407.275
2872.36264	3377.075
2874.8698	3385.775
2877.37543	3404.575
2879.87952	3388.375
2882.38207	3357.975
2884.88308	3364.675
2887.38256	3362.175
2889.88051	3372.075
2892.37692	3369.775
2894.8718	3350.475
2897.36515	3364.175
2899.85698	3353.575
2902.34727	3352.175
2904.83604	3351.875
2907.32328	3352.375
2909.809	3362.575
2912.29319	3366.175
2914.77587	3374.675
2917.25702	3368.375
2919.73665	3376.575
2922.21476	3383.975
2924.69136	3372.875
2927.16644	3366.475
2929.64	3360.475
2932.11205	3334.475
2934.58258	3331.475
2937.05161	3340.175
2939.51912	3337.275
2941.98513	3346.775
2944.44962	3335.475
2946.91261	3308.175
2949.37409	3307.375
2951.83407	3297.575
2954.29254	3309.375
2956.74951	3300.375
2959.20498	3277.575
2961.65895	3283.675
2964.11142	3277.975
2966.56239	3278.475
2969.01186	3286.175
2971.45984	3273.775
2973.90632	3255.675
2976.35131	3271.875
2978.7948	3261.475
2981.23681	3234.475
2983.67732	3248.075
2986.11635	3235.175
2988.55388	3217.075
2990.98993	3215.875
2993.4245	3207.675
2995.85758	3197.275
2998.28917	3183.475
3000.71928	3183.575
3003.14791	3164.475
3005.57506	3149.275
3008.00073	3146.975
3010.42493	3085.175
3012.84764	3139.275
3015.26888	3140.075
3017.68865	3132.175
3020.10694	3066.175
3022.52376	3093.175
3024.9391	3087.475
3027.35298	3083.275
3029.76539	3067.575
3032.17632	3081.375
3034.5858	3053.375
3036.9938	3054.875
3039.40034	3042.775
3041.80542	3021.275
3044.20903	3024.275
3046.61118	3028.375
3049.01187	3042.975
3051.4111	3007.275
3053.80888	3009.475
3056.20519	2991.575
3058.60005	2970.375
3060.99345	2993.775
3063.3854	2970.275
3065.7759	2951.875
3068.16494	2954.875
3070.55254	2942.075
3072.93868	2941.975
3075.32338	2933.375
3077.70662	2923.375
3080.08842	2915.375
3082.46878	2896.875
3084.84769	2926.775
3087.22515	2912.475
3089.60118	2908.375
3091.97576	2889.275
3094.3489	2904.275
3096.72061	2878.575
3099.09087	2877.575
3101.4597	2892.175
3103.82709	2882.575
3106.19305	2864.675
3108.55757	2871.175
3110.92066	2855.475
3113.28232	2853.375
3115.64255	2856.675
3118.00134	2863.875
3120.35871	2832.275
3122.71466	2821.175
3125.06917	2822.475
3127.42226	2817.575
3129.77393	2781.075
3132.12417	2814.175
3134.47299	2817.175
3136.82039	2780.675
3139.16636	2757.975
3141.51092	2783.675
3143.85406	2784.575
3146.19579	2759.775
3148.53609	2772.075
3150.87499	2769.775
3153.21246	2771.675
3155.54853	2779.275
3157.88318	2776.475
3160.21642	2786.875
3162.54826	2756.975
3164.87868	2774.975
3167.2077	2729.575
3169.5353	2743.775
3171.86151	2759.875
3174.18631	2757.175
3176.5097	2733.975
3178.83169	2739.075
3181.15228	2741.975
3183.47147	2705.075
3185.78926	2691.775
3188.10565	2697.575
3190.42065	2686.975
3192.73424	2700.075
3195.04645	2683.875
3197.35725	2672.375
3199.66667	2678.975
3201.97469	2678.675
3204.28132	2646.775
3206.58656	2678.975
3208.8904	2670.475
3211.19287	2671.375
3213.49394	2654.575
3215.79363	2657.475
3218.09193	2660.375
3220.38884	2646.575
3222.68438	2659.975
3224.97853	2641.075
3227.2713	2650.575
3229.56269	2638.175
3231.8527	2645.375
3234.14133	2616.575
