Data from AgNPs_UA_5uM_CRN_500uM_SU_RamanShift__57__11-38-53-149.txt Node

Date: Thu Aug 04 11:38:53 BST 2022
User: TCL
Spectrometer: QEP01345
Trigger mode: 4
Integration Time (sec): 1.000000E0
Scans to average: 10
Electric dark correction enabled: true
Nonlinearity correction enabled: false
Boxcar width: 0
XAxis mode: Raman Shifts
Number of Pixels in Spectrum: 1044
>>>>>Begin Spectral Data<<<<<
46.04893	-0.1875
50.45542	0.3125
54.85868	-0.3875
59.25871	-1.0875
63.6555	-56.0875
68.04907	-38.8875
72.43941	-71.6875
76.82654	-55.2875
81.21044	-54.4875
85.59113	-47.0875
89.96862	-73.8875
94.34289	-53.0875
98.71396	-76.8875
103.08183	-55.6875
107.4465	-46.6875
111.80798	-52.7875
116.16626	-40.1875
120.52136	-69.5875
124.87327	-44.8875
129.222	-58.8875
133.56755	-43.9875
137.90993	-55.7875
142.24913	-39.5875
146.58517	-33.9875
150.91804	-25.5875
155.24774	-11.0875
159.57429	14.4125
163.89768	26.6125
168.21792	81.3125
172.53501	123.9125
176.84895	231.3125
181.15975	409.6125
185.46741	620.3125
189.77193	871.5125
194.07331	1260.3125
198.37157	1661.4125
202.6667	2050.1125
206.9587	2539.4125
211.24758	2996.5125
215.53334	3516.9125
219.81599	4119.2125
224.09553	4801.0125
228.37195	5520.8125
232.64527	6192.9125
236.91549	6789.8125
241.18261	7122.6125
245.44663	7282.7125
249.70755	7315.5125
253.96539	7361.9125
258.22014	7462.2125
262.4718	7554.5125
266.72039	7573.4125
270.96589	7458.6125
275.20832	7216.3125
279.44768	6948.4125
283.68397	6739.7125
287.91719	6655.2125
292.14735	6794.2125
296.37445	7200.9125
300.59849	7935.9125
304.81948	8916.2125
309.03742	10054.0125
313.25231	10879.8125
317.46415	10765.7125
321.67296	9574.8125
325.87872	8197.4125
330.08145	7455.6125
334.28114	7290.9125
338.47781	7496.9125
342.67145	7925.8125
346.86207	8654.1125
351.04966	9771.0125
355.23424	10860.6125
359.4158	11351.0125
363.59435	11006.5125
367.76989	10383.0125
371.94243	9760.8125
376.11196	9253.3125
380.27849	8910.9125
384.44203	8622.0125
388.60257	8478.1125
392.76012	8508.7125
396.91468	8779.3125
401.06626	9083.7125
405.21485	9084.4125
409.36047	8641.2125
413.50311	7822.8125
417.64277	7048.0125
421.77947	6556.0125
425.9132	6315.3125
430.04396	6225.5125
434.17176	6218.4125
438.2966	6320.0125
442.41849	6483.9125
446.53742	6660.9125
450.6534	6792.7125
454.76644	6816.7125
458.87653	6763.6125
462.98368	6676.7125
467.08789	6557.3125
471.18916	6393.7125
475.2875	6162.8125
479.38291	5951.4125
483.4754	5830.4125
487.56496	5787.8125
491.6516	5722.5125
495.73531	5720.9125
499.81612	5794.9125
503.89401	5942.7125
507.96899	6057.0125
512.04106	6286.8125
516.11023	6506.6125
520.1765	6662.0125
524.23987	6742.5125
528.30034	6699.1125
532.35792	6568.4125
536.41261	6450.5125
540.46441	6270.5125
544.51333	6145.3125
548.55936	6133.3125
552.60252	6302.7125
556.64279	6471.4125
560.6802	6801.2125
564.71473	7539.6125
568.7464	8440.1125
572.7752	8365.0125
576.80114	7155.0125
580.82422	6200.5125
584.84444	5776.7125
588.86181	5667.4125
592.87633	5686.9125
596.888	5857.7125
600.89682	6497.1125
604.9028	8589.2125
608.90594	13795.4125
612.90624	20094.8125
616.90371	18331.3125
620.89834	10514.0125
624.89015	7087.3125
628.87913	6703.9125
632.86528	7191.2125
636.84862	7435.5125
640.82913	6855.5125
644.80683	6017.7125
648.78172	5642.4125
652.75379	5759.6125
656.72306	6384.2125
660.68952	6986.8125
664.65319	6697.0125
668.61405	5943.5125
672.57211	5649.5125
676.52738	5671.3125
680.47986	5572.1125
684.42955	5432.5125
688.37646	5351.7125
692.32058	5356.8125
696.26192	5474.6125
700.20048	5610.2125
704.13626	5650.0125
708.06928	5543.0125
711.99952	5505.1125
715.927	5539.9125
719.85171	5700.4125
723.77365	5817.4125
727.69284	5699.4125
731.60928	5584.3125
735.52295	5534.5125
739.43388	5588.2125
743.34206	5634.5125
747.24749	5657.6125
751.15017	5654.8125
755.05012	5888.6125
758.94733	6903.8125
762.8418	9164.6125
766.73354	12161.6125
770.62254	13709.9125
774.50882	13187.9125
778.39237	12104.3125
782.27321	10438.7125
786.15132	8176.0125
790.02671	6640.8125
793.89938	5896.9125
797.76935	5666.6125
801.6366	5536.4125
805.50115	5469.4125
809.36299	5432.8125
813.22213	5430.6125
817.07857	5409.2125
820.93231	5459.8125
824.78336	5533.4125
828.63172	5615.7125
832.47738	5650.3125
836.32036	5590.8125
840.16066	5435.3125
843.99827	5330.3125
847.8332	5318.8125
851.66546	5296.2125
855.49504	5274.9125
859.32195	5302.0125
863.1462	5255.9125
866.96777	5240.0125
870.78668	5226.7125
874.60293	5270.1125
878.41652	5318.0125
882.22745	5442.2125
886.03573	5517.8125
889.84136	5498.0125
893.64433	5482.8125
897.44466	5480.0125
901.24235	5499.6125
905.0374	5427.5125
908.8298	5262.6125
912.61957	5183.5125
916.40671	5130.2125
920.19121	5159.5125
923.97308	5331.5125
927.75233	5612.1125
931.52895	5942.0125
935.30295	5776.3125
939.07433	5324.3125
942.84309	5008.9125
946.60924	4916.5125
950.37278	4851.4125
954.13371	4846.1125
957.89203	4832.2125
961.64774	4854.7125
965.40086	4830.1125
969.15137	4798.3125
972.89929	4828.9125
976.64461	4784.3125
980.38733	4805.2125
984.12747	4800.4125
987.86502	4803.4125
991.59999	4822.6125
995.33237	4889.6125
999.06217	4987.2125
1002.78939	5120.2125
1006.51404	5367.8125
1010.23611	5495.6125
1013.95561	5422.3125
1017.67255	5291.7125
1021.38692	5145.1125
1025.09872	5042.5125
1028.80796	4960.0125
1032.51465	5003.9125
1036.21877	5013.3125
1039.92035	5074.8125
1043.61937	5124.8125
1047.31584	5213.5125
1051.00976	5222.0125
1054.70114	5191.9125
1058.38998	5147.8125
1062.07627	5138.4125
1065.76003	5151.2125
1069.44126	5212.1125
1073.11995	5323.5125
1076.79611	5566.6125
1080.46974	5955.2125
1084.14085	6507.9125
1087.80943	6965.1125
1091.47549	6972.5125
1095.13903	6537.5125
1098.80005	6121.7125
1102.45857	5914.5125
1106.11456	5885.8125
1109.76805	5910.2125
1113.41903	6184.5125
1117.06751	6656.9125
1120.71348	7428.9125
1124.35696	8574.9125
1127.99793	9366.9125
1131.63641	8771.1125
1135.2724	7504.8125
1138.90589	6662.7125
1142.5369	6169.5125
1146.16542	5902.5125
1149.79145	5667.6125
1153.415	5594.6125
1157.03607	5631.3125
1160.65467	5792.2125
1164.27079	6113.8125
1167.88443	6556.4125
1171.49561	7374.2125
1175.10432	8727.4125
1178.71056	10641.8125
1182.31434	11996.9125
1185.91565	11842.4125
1189.51451	10681.9125
1193.11091	9423.9125
1196.70485	8617.9125
1200.29634	8271.1125
1203.88538	7835.5125
1207.47197	7072.7125
1211.05612	6325.0125
1214.63782	5844.1125
1218.21708	5592.4125
1221.79391	5515.3125
1225.36829	5462.2125
1228.94024	5484.6125
1232.50976	5475.8125
1236.07685	5488.4125
1239.6415	5542.9125
1243.20374	5623.8125
1246.76355	5758.0125
1250.32093	5904.7125
1253.8759	6117.8125
1257.42845	6528.7125
1260.97859	7023.1125
1264.52631	7545.1125
1268.07163	7850.4125
1271.61453	7887.3125
1275.15503	7728.6125
1278.69312	7535.4125
1282.22882	7659.5125
1285.76211	8326.6125
1289.29301	9255.5125
1292.82151	9888.2125
1296.34761	10156.1125
1299.87133	10806.6125
1303.39266	12410.8125
1306.9116	15440.2125
1310.42815	19037.7125
1313.94233	20315.9125
1317.45412	17513.9125
1320.96354	13563.0125
1324.47058	10606.3125
1327.97525	8723.9125
1331.47754	7763.5125
1334.97747	7446.6125
1338.47502	7568.7125
1341.97022	8336.5125
1345.46305	10020.3125
1348.95352	12338.7125
1352.44163	14761.7125
1355.92738	17577.6125
1359.41078	22501.5125
1362.89183	27883.6125
1366.37053	26730.3125
1369.84688	19125.5125
1373.32088	12766.1125
1376.79254	10009.5125
1380.26186	8762.5125
1383.72883	7833.1125
1387.19347	6946.8125
1390.65578	6263.9125
1394.11575	5882.3125
1397.57339	5678.3125
1401.0287	5543.1125
1404.48168	5440.6125
1407.93234	5404.2125
1411.38068	5498.2125
1414.82669	5791.7125
1418.27039	6133.9125
1421.71177	6214.4125
1425.15083	6071.0125
1428.58758	6043.4125
1432.02203	6340.7125
1435.45416	6606.2125
1438.88399	6393.1125
1442.31151	6105.3125
1445.73673	6063.0125
1449.15965	6050.1125
1452.58027	5964.8125
1455.9986	5841.7125
1459.41463	5735.7125
1462.82837	5756.3125
1466.23982	5928.8125
1469.64898	6207.9125
1473.05586	6316.8125
1476.46045	6336.4125
1479.86276	6359.6125
1483.26279	6581.9125
1486.66054	7068.1125
1490.05602	7820.6125
1493.44922	9056.0125
1496.84016	11002.1125
1500.22882	14019.2125
1503.61521	18181.2125
1506.99934	23446.1125
1510.38121	28457.8125
1513.76081	30213.7125
1517.13816	26700.8125
1520.51324	20346.3125
1523.88607	14683.5125
1527.25665	11123.2125
1530.62498	9116.8125
1533.99105	7970.5125
1537.35488	7234.7125
1540.71647	6780.6125
1544.07581	6616.6125
1547.4329	6615.9125
1550.78776	6722.3125
1554.14038	6960.5125
1557.49077	7377.1125
1560.83892	8027.6125
1564.18484	9115.1125
1567.52853	10313.6125
1570.86999	11056.3125
1574.20922	11188.7125
1577.54624	10726.7125
1580.88103	9334.7125
1584.2136	7610.3125
1587.54395	6630.2125
1590.87208	6346.4125
1594.19801	6664.2125
1597.52172	7206.2125
1600.84321	7231.3125
1604.16251	6645.4125
1607.47959	6091.5125
1610.79447	5747.9125
1614.10715	5447.2125
1617.41763	5232.1125
1620.7259	5107.7125
1624.03199	5119.0125
1627.33587	5230.5125
1630.63757	5480.7125
1633.93707	5998.8125
1637.23439	6901.2125
1640.52951	8583.8125
1643.82246	11399.8125
1647.11321	15221.4125
1650.40179	18259.9125
1653.68819	17977.9125
1656.97241	14410.5125
1660.25446	10317.9125
1663.53433	7528.2125
1666.81203	6008.6125
1670.08756	5237.4125
1673.36092	4817.3125
1676.63211	4551.4125
1679.90115	4386.2125
1683.16801	4253.9125
1686.43272	4148.7125
1689.69527	4096.4125
1692.95567	4019.9125
1696.2139	3981.0125
1699.46999	3944.9125
1702.72392	3937.1125
1705.97571	3932.7125
1709.22535	3915.0125
1712.47284	3967.1125
1715.71819	3998.1125
1718.96139	4005.0125
1722.20246	3974.7125
1725.44139	3946.7125
1728.67818	3893.6125
1731.91284	3818.4125
1735.14537	3771.1125
1738.37576	3742.5125
1741.60403	3720.7125
1744.83017	3690.1125
1748.05418	3682.4125
1751.27607	3672.5125
1754.49584	3623.7125
1757.71349	3562.9125
1760.92903	3556.4125
1764.14244	3497.7125
1767.35375	3489.6125
1770.56294	3443.6125
1773.77002	3413.6125
1776.97499	3405.2125
1780.17785	3388.5125
1783.37861	3358.3125
1786.57727	3368.0125
1789.77382	3317.1125
1792.96828	3336.7125
1796.16064	3352.7125
1799.3509	3325.1125
1802.53907	3332.6125
1805.72514	3305.3125
1808.90913	3272.0125
1812.09102	3275.2125
1815.27083	3273.1125
1818.44856	3246.0125
1821.6242	3251.7125
1824.79776	3228.7125
1827.96924	3210.5125
1831.13864	3186.0125
1834.30597	3182.2125
1837.47122	3159.2125
1840.6344	3150.3125
1843.7955	3128.3125
1846.95454	3099.6125
1850.11151	3113.9125
1853.26642	3091.5125
1856.41926	3094.7125
1859.57004	3088.7125
1862.71876	3083.6125
1865.86542	3092.6125
1869.01003	3087.2125
1872.15258	3078.2125
1875.29308	3104.3125
1878.43152	3096.7125
1881.56792	3085.1125
1884.70227	3052.6125
1887.83457	3059.0125
1890.96482	3021.9125
1894.09304	3036.9125
1897.21921	3028.3125
1900.34335	3027.8125
1903.46544	3004.3125
1906.58551	3035.9125
1909.70353	3008.4125
1912.81953	3014.9125
1915.93349	3004.4125
1919.04543	2993.0125
1922.15534	2970.6125
1925.26322	2967.3125
1928.36908	2937.2125
1931.47292	2923.8125
1934.57473	2921.6125
1937.67453	2879.0125
1940.77232	2863.4125
1943.86808	2846.7125
1946.96184	2843.9125
1950.05358	2831.1125
1953.14331	2814.8125
1956.23103	2810.2125
1959.31675	2797.5125
1962.40046	2765.1125
1965.48217	2806.3125
1968.56188	2808.3125
1971.63959	2801.3125
1974.7153	2798.9125
1977.78901	2803.7125
1980.86073	2771.2125
1983.93046	2720.6125
1986.99819	2643.9125
1990.06394	2651.0125
1993.1277	2677.8125
1996.18947	2662.7125
1999.24925	2618.1125
2002.30706	2639.0125
2005.36288	2620.4125
2008.41672	2605.8125
2011.46859	2578.8125
2014.51848	2577.5125
2017.56639	2559.0125
2020.61233	2550.3125
2023.6563	2554.6125
2026.6983	2518.4125
2029.73833	2526.2125
2032.7764	2541.0125
2035.8125	2481.2125
2038.84664	2502.8125
2041.87881	2486.2125
2044.90903	2496.2125
2047.93729	2478.0125
2050.96359	2457.9125
2053.98794	2474.6125
2057.01034	2463.1125
2060.03078	2442.1125
2063.04927	2425.2125
2066.06582	2429.9125
2069.08042	2412.9125
2072.09307	2413.1125
2075.10378	2412.8125
2078.11255	2403.6125
2081.11938	2398.4125
2084.12426	2403.9125
2087.12722	2396.1125
2090.12824	2393.8125
2093.12732	2401.9125
2096.12447	2414.2125
2099.11969	2383.2125
2102.11299	2388.4125
2105.10435	2415.6125
2108.09379	2400.6125
2111.08131	2395.5125
2114.0669	2409.5125
2117.05057	2399.0125
2120.03233	2401.5125
2123.01216	2433.5125
2125.99008	2437.1125
2128.96609	2435.2125
2131.94018	2459.0125
2134.91236	2430.2125
2137.88263	2426.6125
2140.851	2409.1125
2143.81746	2420.9125
2146.78201	2404.8125
2149.74466	2382.5125
2152.7054	2385.1125
2155.66425	2371.4125
2158.6212	2358.4125
2161.57625	2332.1125
2164.52941	2310.7125
2167.48067	2335.4125
2170.43004	2342.6125
2173.37752	2346.9125
2176.32311	2339.5125
2179.26681	2343.4125
2182.20863	2353.9125
2185.14856	2353.7125
2188.08661	2341.5125
2191.02278	2348.5125
2193.95707	2318.1125
2196.88948	2293.8125
2199.82001	2309.8125
2202.74867	2302.5125
2205.67545	2301.4125
2208.60037	2320.5125
2211.52341	2290.5125
2214.44458	2289.5125
2217.36388	2279.6125
2220.28132	2259.5125
2223.1969	2247.5125
2226.11061	2259.8125
2229.02246	2238.8125
2231.93245	2248.5125
2234.84058	2221.7125
2237.74686	2218.0125
2240.65128	2210.7125
2243.55385	2224.7125
2246.45456	2205.3125
2249.35343	2232.4125
2252.25044	2229.5125
2255.14561	2241.4125
2258.03893	2259.2125
2260.93041	2262.2125
2263.82004	2266.8125
2266.70783	2278.5125
2269.59378	2257.7125
2272.4779	2235.9125
2275.36017	2254.5125
2278.24061	2241.5125
2281.11922	2201.4125
2283.996	2210.8125
2286.87094	2191.8125
2289.74405	2196.8125
2292.61534	2180.3125
2295.4848	2175.6125
2298.35243	2150.0125
2301.21824	2143.3125
2304.08223	2140.6125
2306.94439	2140.2125
2309.80474	2145.7125
2312.66327	2142.5125
2315.51999	2131.9125
2318.37489	2131.7125
2321.22797	2115.0125
2324.07925	2112.5125
2326.92871	2119.3125
2329.77637	2099.4125
2332.62222	2088.7125
2335.46626	2075.5125
2338.3085	2076.6125
2341.14893	2093.7125
2343.98756	2103.2125
2346.8244	2087.2125
2349.65943	2082.7125
2352.49267	2108.1125
2355.32411	2111.3125
2358.15376	2106.6125
2360.98161	2129.9125
2363.80768	2127.2125
2366.63195	2136.0125
2369.45444	2165.1125
2372.27514	2155.2125
2375.09405	2163.9125
2377.91118	2118.9125
2380.72652	2122.5125
2383.54009	2116.0125
2386.35187	2110.5125
2389.16188	2082.4125
2391.97011	2075.3125
2394.77657	2052.9125
2397.58125	2050.1125
2400.38416	2045.1125
2403.18529	2021.9125
2405.98466	2005.1125
2408.78226	2019.8125
2411.57809	2008.4125
2414.37216	1998.1125
2417.16446	2003.7125
2419.955	1978.0125
2422.74378	2003.5125
2425.5308	1983.1125
2428.31606	1994.8125
2431.09956	1994.3125
2433.88131	1985.9125
2436.6613	2007.1125
2439.43954	1999.9125
2442.21603	1997.0125
2444.99077	1997.2125
2447.76377	2014.6125
2450.53501	2014.0125
2453.30451	2003.4125
2456.07226	2022.0125
2458.83827	2002.9125
2461.60254	1968.6125
2464.36507	1998.0125
2467.12586	1985.1125
2469.88492	1999.0125
2472.64224	1986.5125
2475.39782	1990.1125
2478.15167	2009.9125
2480.90379	2006.4125
2483.65417	2039.4125
2486.40283	2042.1125
2489.14976	2057.7125
2491.89497	2048.0125
2494.63845	2044.8125
2497.3802	2023.5125
2500.12024	2031.3125
2502.85855	2018.2125
2505.59514	2005.3125
2508.33002	1988.0125
2511.06318	1943.2125
2513.79462	1945.7125
2516.52435	1895.2125
2519.25237	1867.3125
2521.97867	1853.2125
2524.70327	1844.4125
2527.42616	1854.5125
2530.14734	1857.1125
2532.86681	1831.7125
2535.58458	1836.2125
2538.30065	1826.3125
2541.01501	1859.0125
2543.72768	1843.1125
2546.43864	1842.5125
2549.14791	1844.8125
2551.85548	1843.1125
2554.56136	1837.4125
2557.26554	1846.1125
2559.96803	1850.4125
2562.66883	1846.9125
2565.36794	1834.8125
2568.06536	1808.5125
2570.7611	1845.1125
2573.45514	1819.0125
2576.14751	1826.0125
2578.83819	1804.6125
2581.52719	1797.1125
2584.21451	1806.4125
2586.90015	1781.8125
2589.58411	1769.7125
2592.2664	1782.8125
2594.94701	1774.4125
2597.62594	1774.7125
2600.30321	1721.8125
2602.9788	1738.9125
2605.65273	1752.4125
2608.32498	1753.1125
2610.99557	1774.1125
2613.66449	1742.9125
2616.33175	1745.0125
2618.99734	1763.3125
2621.66128	1761.4125
2624.32355	1732.9125
2626.98416	1730.4125
2629.64311	1713.8125
2632.30041	1710.5125
2634.95605	1689.2125
2637.61004	1680.3125
2640.26238	1656.9125
2642.91306	1658.8125
2645.56209	1684.8125
2648.20948	1671.7125
2650.85521	1645.8125
2653.4993	1675.7125
2656.14175	1669.3125
2658.78255	1661.4125
2661.42171	1643.7125
2664.05923	1685.6125
2666.6951	1701.1125
2669.32934	1697.0125
2671.96194	1710.4125
2674.59291	1705.9125
2677.22224	1702.3125
2679.84993	1700.8125
2682.476	1684.7125
2685.10043	1690.2125
2687.72324	1672.3125
2690.34441	1671.9125
2692.96396	1668.4125
2695.58188	1682.8125
2698.19818	1670.4125
2700.81285	1652.5125
2703.4259	1651.3125
2706.03733	1617.3125
2708.64714	1629.5125
2711.25533	1653.6125
2713.86191	1667.1125
2716.46687	1659.4125
2719.07021	1664.1125
2721.67194	1662.7125
2724.27206	1678.1125
2726.87057	1649.0125
2729.46747	1638.9125
2732.06276	1641.4125
2734.65644	1612.4125
2737.24852	1612.9125
2739.83899	1599.4125
2742.42786	1614.0125
2745.01513	1626.5125
2747.60079	1584.4125
2750.18486	1579.3125
2752.76733	1578.5125
2755.3482	1563.2125
2757.92747	1566.0125
2760.50515	1551.8125
2763.08123	1546.6125
2765.65573	1546.5125
2768.22863	1539.4125
2770.79994	1521.4125
2773.36967	1532.3125
2775.9378	1527.5125
2778.50435	1518.7125
2781.06932	1523.0125
2783.6327	1508.9125
2786.1945	1536.1125
2788.75471	1513.0125
2791.31335	1514.2125
2793.87041	1525.7125
2796.42589	1527.9125
2798.97979	1506.7125
2801.53212	1521.2125
2804.08288	1541.3125
2806.63206	1539.9125
2809.17967	1519.1125
2811.72571	1545.4125
2814.27018	1548.4125
2816.81308	1549.0125
2819.35442	1525.2125
2821.89419	1557.9125
2824.43239	1556.2125
2826.96904	1580.4125
2829.50412	1562.8125
2832.03763	1562.6125
2834.56959	1565.0125
2837.1	1536.9125
2839.62884	1532.7125
2842.15613	1531.3125
2844.68186	1548.3125
2847.20604	1510.5125
2849.72867	1511.8125
2852.24974	1528.3125
2854.76927	1504.2125
2857.28724	1480.2125
2859.80367	1551.8125
2862.31855	1562.4125
2864.83189	1557.7125
2867.34368	1581.6125
2869.85393	1596.7125
2872.36264	1573.2125
2874.8698	1578.0125
2877.37543	1588.0125
2879.87952	1560.7125
2882.38207	1543.0125
2884.88308	1542.1125
2887.38256	1539.8125
2889.88051	1523.6125
2892.37692	1510.7125
2894.8718	1497.2125
2897.36515	1512.2125
2899.85698	1504.4125
2902.34727	1506.0125
2904.83604	1523.7125
2907.32328	1533.1125
2909.809	1554.6125
2912.29319	1560.1125
2914.77587	1562.6125
2917.25702	1579.4125
2919.73665	1573.1125
2922.21476	1559.7125
2924.69136	1549.9125
2927.16644	1518.9125
2929.64	1513.6125
2932.11205	1490.1125
2934.58258	1489.7125
2937.05161	1474.5125
2939.51912	1470.0125
2941.98513	1493.5125
2944.44962	1483.4125
2946.91261	1457.7125
2949.37409	1467.8125
2951.83407	1459.0125
2954.29254	1469.6125
2956.74951	1470.0125
2959.20498	1461.5125
2961.65895	1457.4125
2964.11142	1453.1125
2966.56239	1457.9125
2969.01186	1453.4125
2971.45984	1452.9125
2973.90632	1439.8125
2976.35131	1456.5125
2978.7948	1445.1125
2981.23681	1442.3125
2983.67732	1451.6125
2986.11635	1453.3125
2988.55388	1429.4125
2990.98993	1444.8125
2993.4245	1433.6125
2995.85758	1432.1125
2998.28917	1427.8125
3000.71928	1421.0125
3003.14791	1422.6125
3005.57506	1420.7125
3008.00073	1402.8125
3010.42493	1348.9125
3012.84764	1415.0125
3015.26888	1405.3125
3017.68865	1399.3125
3020.10694	1355.9125
3022.52376	1370.3125
3024.9391	1373.6125
3027.35298	1357.3125
3029.76539	1342.1125
3032.17632	1337.5125
3034.5858	1326.2125
3036.9938	1321.2125
3039.40034	1312.0125
3041.80542	1297.9125
3044.20903	1280.7125
3046.61118	1265.7125
3049.01187	1279.0125
3051.4111	1268.3125
3053.80888	1261.0125
3056.20519	1265.6125
3058.60005	1248.1125
3060.99345	1268.9125
3063.3854	1250.8125
3065.7759	1226.4125
3068.16494	1233.1125
3070.55254	1228.7125
3072.93868	1237.7125
3075.32338	1224.2125
3077.70662	1215.5125
3080.08842	1214.1125
3082.46878	1199.0125
3084.84769	1228.7125
3087.22515	1202.5125
3089.60118	1213.2125
3091.97576	1195.4125
3094.3489	1202.1125
3096.72061	1193.2125
3099.09087	1190.7125
3101.4597	1196.3125
3103.82709	1184.0125
3106.19305	1180.3125
3108.55757	1176.6125
3110.92066	1170.2125
3113.28232	1193.1125
3115.64255	1184.9125
3118.00134	1186.7125
3120.35871	1173.0125
