Data from AgNPs_UA_5uM_CRN_500uM_SU_RamanShift__63__11-39-53-151.txt Node

Date: Thu Aug 04 11:39:53 BST 2022
User: TCL
Spectrometer: QEP01345
Trigger mode: 4
Integration Time (sec): 1.000000E0
Scans to average: 10
Electric dark correction enabled: true
Nonlinearity correction enabled: false
Boxcar width: 0
XAxis mode: Raman Shifts
Number of Pixels in Spectrum: 1044
>>>>>Begin Spectral Data<<<<<
46.04893	0.4125
50.45542	0.5125
54.85868	0.1125
59.25871	-0.4875
63.6555	-54.2875
68.04907	-41.0875
72.43941	-69.3875
76.82654	-55.9875
81.21044	-54.8875
85.59113	-46.5875
89.96862	-74.4875
94.34289	-54.1875
98.71396	-76.1875
103.08183	-56.9875
107.4465	-49.6875
111.80798	-54.0875
116.16626	-42.7875
120.52136	-72.2875
124.87327	-47.1875
129.222	-58.4875
133.56755	-43.6875
137.90993	-56.9875
142.24913	-43.4875
146.58517	-34.4875
150.91804	-27.8875
155.24774	-16.4875
159.57429	11.0125
163.89768	17.2125
168.21792	80.2125
172.53501	113.5125
176.84895	222.4125
181.15975	384.2125
185.46741	581.4125
189.77193	827.9125
194.07331	1197.3125
198.37157	1579.7125
202.6667	1952.8125
206.9587	2398.6125
211.24758	2848.1125
215.53334	3343.7125
219.81599	3908.6125
224.09553	4543.6125
228.37195	5206.9125
232.64527	5871.1125
236.91549	6421.8125
241.18261	6747.2125
245.44663	6928.7125
249.70755	6958.2125
253.96539	7058.3125
258.22014	7172.9125
262.4718	7251.6125
266.72039	7289.7125
270.96589	7169.3125
275.20832	6948.5125
279.44768	6697.8125
283.68397	6531.2125
287.91719	6443.2125
292.14735	6556.2125
296.37445	6914.3125
300.59849	7585.3125
304.81948	8482.3125
309.03742	9492.2125
313.25231	10248.6125
317.46415	10125.4125
321.67296	9075.7125
325.87872	7875.2125
330.08145	7176.0125
334.28114	7017.7125
338.47781	7201.9125
342.67145	7588.0125
346.86207	8270.8125
351.04966	9248.5125
355.23424	10260.5125
359.4158	10689.4125
363.59435	10406.8125
367.76989	9839.4125
371.94243	9304.0125
376.11196	8849.6125
380.27849	8525.4125
384.44203	8290.8125
388.60257	8150.9125
392.76012	8206.8125
396.91468	8432.6125
401.06626	8731.5125
405.21485	8745.7125
409.36047	8344.3125
413.50311	7571.1125
417.64277	6902.8125
421.77947	6460.8125
425.9132	6237.4125
430.04396	6136.0125
434.17176	6136.4125
438.2966	6217.7125
442.41849	6378.9125
446.53742	6567.7125
450.6534	6700.9125
454.76644	6724.6125
458.87653	6683.0125
462.98368	6612.2125
467.08789	6503.3125
471.18916	6344.8125
475.2875	6142.2125
479.38291	5970.7125
483.4754	5845.8125
487.56496	5788.8125
491.6516	5720.9125
495.73531	5730.0125
499.81612	5782.5125
503.89401	5921.3125
507.96899	6055.6125
512.04106	6229.6125
516.11023	6427.9125
520.1765	6573.6125
524.23987	6628.9125
528.30034	6634.1125
532.35792	6494.4125
536.41261	6384.6125
540.46441	6215.6125
544.51333	6105.7125
548.55936	6107.2125
552.60252	6247.1125
556.64279	6403.5125
560.6802	6747.3125
564.71473	7373.1125
568.7464	8192.1125
572.7752	8124.0125
576.80114	7029.9125
580.82422	6161.2125
584.84444	5804.6125
588.86181	5663.8125
592.87633	5691.2125
596.888	5861.3125
600.89682	6478.5125
604.9028	8382.4125
608.90594	13133.0125
612.90624	18808.4125
616.90371	17180.0125
620.89834	10091.1125
624.89015	6992.5125
628.87913	6642.6125
632.86528	7128.7125
636.84862	7332.1125
640.82913	6809.1125
644.80683	6030.0125
648.78172	5710.0125
652.75379	5795.7125
656.72306	6348.6125
660.68952	6934.1125
664.65319	6658.6125
668.61405	5981.6125
672.57211	5756.4125
676.52738	5774.6125
680.47986	5649.6125
684.42955	5509.3125
688.37646	5455.3125
692.32058	5469.7125
696.26192	5572.4125
700.20048	5695.7125
704.13626	5741.9125
708.06928	5642.7125
711.99952	5608.0125
715.927	5625.5125
719.85171	5767.4125
723.77365	5881.7125
727.69284	5768.9125
731.60928	5665.1125
735.52295	5604.0125
739.43388	5675.8125
743.34206	5708.2125
747.24749	5723.0125
751.15017	5748.7125
755.05012	5959.2125
758.94733	6848.0125
762.8418	8895.8125
766.73354	11639.6125
770.62254	13006.6125
774.50882	12547.3125
778.39237	11592.5125
782.27321	10073.1125
786.15132	8091.2125
790.02671	6660.9125
793.89938	5984.3125
797.76935	5769.0125
801.6366	5637.4125
805.50115	5569.5125
809.36299	5557.6125
813.22213	5523.7125
817.07857	5514.7125
820.93231	5545.5125
824.78336	5621.8125
828.63172	5696.5125
832.47738	5736.0125
836.32036	5678.7125
840.16066	5546.9125
843.99827	5451.8125
847.8332	5425.4125
851.66546	5428.7125
855.49504	5413.3125
859.32195	5418.6125
863.1462	5383.0125
866.96777	5371.0125
870.78668	5365.0125
874.60293	5402.7125
878.41652	5451.9125
882.22745	5579.1125
886.03573	5636.3125
889.84136	5600.4125
893.64433	5601.6125
897.44466	5601.6125
901.24235	5592.8125
905.0374	5556.4125
908.8298	5421.4125
912.61957	5336.1125
916.40671	5269.3125
920.19121	5293.8125
923.97308	5446.9125
927.75233	5721.7125
931.52895	5991.0125
935.30295	5848.5125
939.07433	5438.6125
942.84309	5165.4125
946.60924	5085.0125
950.37278	5022.2125
954.13371	5027.4125
957.89203	5035.0125
961.64774	5036.6125
965.40086	5002.5125
969.15137	4976.3125
972.89929	4994.0125
976.64461	4984.9125
980.38733	4994.1125
984.12747	4981.9125
987.86502	4999.9125
991.59999	5012.7125
995.33237	5067.0125
999.06217	5170.5125
1002.78939	5285.4125
1006.51404	5517.1125
1010.23611	5638.4125
1013.95561	5555.3125
1017.67255	5448.0125
1021.38692	5346.1125
1025.09872	5247.6125
1028.80796	5143.9125
1032.51465	5185.3125
1036.21877	5193.6125
1039.92035	5260.6125
1043.61937	5311.5125
1047.31584	5364.5125
1051.00976	5407.5125
1054.70114	5362.2125
1058.38998	5334.9125
1062.07627	5329.0125
1065.76003	5353.1125
1069.44126	5401.2125
1073.11995	5518.8125
1076.79611	5741.7125
1080.46974	6113.7125
1084.14085	6590.9125
1087.80943	7001.9125
1091.47549	7003.6125
1095.13903	6654.3125
1098.80005	6283.5125
1102.45857	6102.2125
1106.11456	6086.4125
1109.76805	6073.0125
1113.41903	6332.4125
1117.06751	6741.1125
1120.71348	7429.7125
1124.35696	8456.5125
1127.99793	9173.8125
1131.63641	8610.6125
1135.2724	7493.7125
1138.90589	6726.0125
1142.5369	6295.3125
1146.16542	6023.6125
1149.79145	5823.5125
1153.415	5752.2125
1157.03607	5770.3125
1160.65467	5915.0125
1164.27079	6212.3125
1167.88443	6622.6125
1171.49561	7352.9125
1175.10432	8597.0125
1178.71056	10320.9125
1182.31434	11564.0125
1185.91565	11431.3125
1189.51451	10416.6125
1193.11091	9298.3125
1196.70485	8596.7125
1200.29634	8244.7125
1203.88538	7861.4125
1207.47197	7142.6125
1211.05612	6479.1125
1214.63782	6028.6125
1218.21708	5802.8125
1221.79391	5706.7125
1225.36829	5653.4125
1228.94024	5679.7125
1232.50976	5662.8125
1236.07685	5690.6125
1239.6415	5734.0125
1243.20374	5837.7125
1246.76355	5912.7125
1250.32093	6081.6125
1253.8759	6270.8125
1257.42845	6618.1125
1260.97859	7108.8125
1264.52631	7618.1125
1268.07163	7859.6125
1271.61453	7905.9125
1275.15503	7761.8125
1278.69312	7586.8125
1282.22882	7718.4125
1285.76211	8307.8125
1289.29301	9108.8125
1292.82151	9696.1125
1296.34761	9929.5125
1299.87133	10499.5125
1303.39266	11932.0125
1306.9116	14652.9125
1310.42815	17945.1125
1313.94233	19066.2125
1317.45412	16619.3125
1320.96354	13050.7125
1324.47058	10399.6125
1327.97525	8693.7125
1331.47754	7819.9125
1334.97747	7522.9125
1338.47502	7651.6125
1341.97022	8358.3125
1345.46305	9844.9125
1348.95352	12007.9125
1352.44163	14213.2125
1355.92738	16756.2125
1359.41078	21165.7125
1362.89183	25934.3125
1366.37053	24914.2125
1369.84688	18049.8125
1373.32088	12326.2125
1376.79254	9814.0125
1380.26186	8691.9125
1383.72883	7825.3125
1387.19347	7035.8125
1390.65578	6386.7125
1394.11575	6016.3125
1397.57339	5834.0125
1401.0287	5714.2125
1404.48168	5628.7125
1407.93234	5607.7125
1411.38068	5690.5125
1414.82669	5962.3125
1418.27039	6276.9125
1421.71177	6340.2125
1425.15083	6200.4125
1428.58758	6179.4125
1432.02203	6452.9125
1435.45416	6659.0125
1438.88399	6470.2125
1442.31151	6226.3125
1445.73673	6196.3125
1449.15965	6157.0125
1452.58027	6092.4125
1455.9986	5976.1125
1459.41463	5872.9125
1462.82837	5900.4125
1466.23982	6071.4125
1469.64898	6317.6125
1473.05586	6425.7125
1476.46045	6445.9125
1479.86276	6495.4125
1483.26279	6684.5125
1486.66054	7153.5125
1490.05602	7819.1125
1493.44922	8966.2125
1496.84016	10755.7125
1500.22882	13446.4125
1503.61521	17205.3125
1506.99934	21875.9125
1510.38121	26379.4125
1513.76081	27943.3125
1517.13816	24842.6125
1520.51324	19065.9125
1523.88607	13998.8125
1527.25665	10741.5125
1530.62498	8972.3125
1533.99105	7935.8125
1537.35488	7247.8125
1540.71647	6862.1125
1544.07581	6699.7125
1547.4329	6702.8125
1550.78776	6814.3125
1554.14038	7023.0125
1557.49077	7383.9125
1560.83892	7999.8125
1564.18484	8945.2125
1567.52853	10021.9125
1570.86999	10705.1125
1574.20922	10813.1125
1577.54624	10413.0125
1580.88103	9147.3125
1584.2136	7599.4125
1587.54395	6688.1125
1590.87208	6479.6125
1594.19801	6735.3125
1597.52172	7250.2125
1600.84321	7268.8125
1604.16251	6750.8125
1607.47959	6224.7125
1610.79447	5925.4125
1614.10715	5624.7125
1617.41763	5431.5125
1620.7259	5308.1125
1624.03199	5306.9125
1627.33587	5411.8125
1630.63757	5643.5125
1633.93707	6086.7125
1637.23439	6929.0125
1640.52951	8479.4125
1643.82246	11043.2125
1647.11321	14494.7125
1650.40179	17204.2125
1653.68819	16888.0125
1656.97241	13673.5125
1660.25446	10018.4125
1663.53433	7465.7125
1666.81203	6091.5125
1670.08756	5367.6125
1673.36092	5004.8125
1676.63211	4751.5125
1679.90115	4608.2125
1683.16801	4490.6125
1686.43272	4382.2125
1689.69527	4341.8125
1692.95567	4272.9125
1696.2139	4249.3125
1699.46999	4174.2125
1702.72392	4184.1125
1705.97571	4194.7125
1709.22535	4183.8125
1712.47284	4214.4125
1715.71819	4252.4125
1718.96139	4246.4125
1722.20246	4223.4125
1725.44139	4177.1125
1728.67818	4150.2125
1731.91284	4086.8125
1735.14537	4043.3125
1738.37576	4009.0125
1741.60403	3994.7125
1744.83017	3958.6125
1748.05418	3957.9125
1751.27607	3953.9125
1754.49584	3898.6125
1757.71349	3851.9125
1760.92903	3831.7125
1764.14244	3777.1125
1767.35375	3765.0125
1770.56294	3736.1125
1773.77002	3710.4125
1776.97499	3697.1125
1780.17785	3668.8125
1783.37861	3657.9125
1786.57727	3662.3125
1789.77382	3591.2125
1792.96828	3634.6125
1796.16064	3643.0125
1799.3509	3626.7125
1802.53907	3643.1125
1805.72514	3592.8125
1808.90913	3575.2125
1812.09102	3583.3125
1815.27083	3570.7125
1818.44856	3550.0125
1821.6242	3547.1125
1824.79776	3516.9125
1827.96924	3507.5125
1831.13864	3485.9125
1834.30597	3484.7125
1837.47122	3457.0125
1840.6344	3459.2125
1843.7955	3425.1125
1846.95454	3419.8125
1850.11151	3429.9125
1853.26642	3379.7125
1856.41926	3395.2125
1859.57004	3396.8125
1862.71876	3386.9125
1865.86542	3406.9125
1869.01003	3391.6125
1872.15258	3371.6125
1875.29308	3399.3125
1878.43152	3403.2125
1881.56792	3378.4125
1884.70227	3355.1125
1887.83457	3368.4125
1890.96482	3333.3125
1894.09304	3329.3125
1897.21921	3328.2125
1900.34335	3337.9125
1903.46544	3302.7125
1906.58551	3318.3125
1909.70353	3318.6125
1912.81953	3303.2125
1915.93349	3282.9125
1919.04543	3286.5125
1922.15534	3263.3125
1925.26322	3266.1125
1928.36908	3229.1125
1931.47292	3228.6125
1934.57473	3234.6125
1937.67453	3184.5125
1940.77232	3144.8125
1943.86808	3151.4125
1946.96184	3155.5125
1950.05358	3124.5125
1953.14331	3105.4125
1956.23103	3118.1125
1959.31675	3099.7125
1962.40046	3060.1125
1965.48217	3099.3125
1968.56188	3110.7125
1971.63959	3086.3125
1974.7153	3106.8125
1977.78901	3092.5125
1980.86073	3060.7125
1983.93046	3016.2125
1986.99819	2942.4125
1990.06394	2947.6125
1993.1277	2974.3125
1996.18947	2944.9125
1999.24925	2920.6125
2002.30706	2918.1125
2005.36288	2914.8125
2008.41672	2891.2125
2011.46859	2873.3125
2014.51848	2865.6125
2017.56639	2842.8125
2020.61233	2846.3125
2023.6563	2843.7125
2026.6983	2807.7125
2029.73833	2810.4125
2032.7764	2825.5125
2035.8125	2762.2125
2038.84664	2788.5125
2041.87881	2777.6125
2044.90903	2780.2125
2047.93729	2771.8125
2050.96359	2747.4125
2053.98794	2737.3125
2057.01034	2755.6125
2060.03078	2729.4125
2063.04927	2701.2125
2066.06582	2707.4125
2069.08042	2703.1125
2072.09307	2704.5125
2075.10378	2699.9125
2078.11255	2678.0125
2081.11938	2694.7125
2084.12426	2691.9125
2087.12722	2684.7125
2090.12824	2684.2125
2093.12732	2689.8125
2096.12447	2699.3125
2099.11969	2681.9125
2102.11299	2677.1125
2105.10435	2700.9125
2108.09379	2689.2125
2111.08131	2684.1125
2114.0669	2688.8125
2117.05057	2692.0125
2120.03233	2693.1125
2123.01216	2716.0125
2125.99008	2717.3125
2128.96609	2712.2125
2131.94018	2731.6125
2134.91236	2709.5125
2137.88263	2694.4125
2140.851	2701.7125
2143.81746	2705.8125
2146.78201	2685.7125
2149.74466	2663.5125
2152.7054	2675.7125
2155.66425	2661.8125
2158.6212	2641.2125
2161.57625	2612.6125
2164.52941	2594.8125
2167.48067	2614.1125
2170.43004	2620.8125
2173.37752	2636.3125
2176.32311	2622.6125
2179.26681	2646.2125
2182.20863	2644.9125
2185.14856	2638.9125
2188.08661	2642.7125
2191.02278	2631.6125
2193.95707	2609.0125
2196.88948	2586.2125
2199.82001	2598.8125
2202.74867	2584.1125
2205.67545	2604.8125
2208.60037	2601.4125
2211.52341	2587.4125
2214.44458	2575.5125
2217.36388	2569.2125
2220.28132	2557.1125
2223.1969	2532.1125
2226.11061	2523.8125
2229.02246	2522.4125
2231.93245	2532.8125
2234.84058	2519.5125
2237.74686	2508.6125
2240.65128	2501.1125
2243.55385	2502.3125
2246.45456	2485.1125
2249.35343	2516.4125
2252.25044	2505.1125
2255.14561	2520.4125
2258.03893	2531.8125
2260.93041	2547.8125
2263.82004	2532.9125
2266.70783	2551.2125
2269.59378	2523.6125
2272.4779	2506.6125
2275.36017	2527.0125
2278.24061	2504.5125
2281.11922	2472.4125
2283.996	2472.0125
2286.87094	2460.3125
2289.74405	2462.8125
2292.61534	2452.0125
2295.4848	2446.9125
2298.35243	2421.6125
2301.21824	2420.0125
2304.08223	2406.6125
2306.94439	2421.5125
2309.80474	2434.3125
2312.66327	2407.9125
2315.51999	2404.0125
2318.37489	2396.6125
2321.22797	2381.5125
2324.07925	2370.7125
2326.92871	2371.4125
2329.77637	2369.0125
2332.62222	2368.0125
2335.46626	2350.3125
2338.3085	2339.1125
2341.14893	2359.9125
2343.98756	2365.0125
2346.8244	2355.1125
2349.65943	2341.4125
2352.49267	2359.7125
2355.32411	2371.6125
2358.15376	2372.9125
2360.98161	2389.8125
2363.80768	2375.0125
2366.63195	2392.0125
2369.45444	2410.0125
2372.27514	2400.7125
2375.09405	2419.8125
2377.91118	2375.8125
2380.72652	2379.1125
2383.54009	2363.2125
2386.35187	2369.7125
2389.16188	2333.3125
2391.97011	2337.6125
2394.77657	2308.7125
2397.58125	2307.8125
2400.38416	2297.4125
2403.18529	2275.9125
2405.98466	2258.4125
2408.78226	2272.2125
2411.57809	2261.7125
2414.37216	2246.1125
2417.16446	2252.0125
2419.955	2240.7125
2422.74378	2262.2125
2425.5308	2226.2125
2428.31606	2255.5125
2431.09956	2252.7125
2433.88131	2238.5125
2436.6613	2259.3125
2439.43954	2245.2125
2442.21603	2254.9125
2444.99077	2251.6125
2447.76377	2274.6125
2450.53501	2256.3125
2453.30451	2247.2125
2456.07226	2277.4125
2458.83827	2249.2125
2461.60254	2212.3125
2464.36507	2244.1125
2467.12586	2224.7125
2469.88492	2235.0125
2472.64224	2238.1125
2475.39782	2227.5125
2478.15167	2245.8125
2480.90379	2247.3125
2483.65417	2269.0125
2486.40283	2261.9125
2489.14976	2275.3125
2491.89497	2282.7125
2494.63845	2283.7125
2497.3802	2261.9125
2500.12024	2252.4125
2502.85855	2249.2125
2505.59514	2241.2125
2508.33002	2212.9125
2511.06318	2175.2125
2513.79462	2185.5125
2516.52435	2127.1125
2519.25237	2091.4125
2521.97867	2099.3125
2524.70327	2107.1125
2527.42616	2101.0125
2530.14734	2099.1125
2532.86681	2084.1125
2535.58458	2086.0125
2538.30065	2077.1125
2541.01501	2095.5125
2543.72768	2079.6125
2546.43864	2093.8125
2549.14791	2082.2125
2551.85548	2080.8125
2554.56136	2080.7125
2557.26554	2088.3125
2559.96803	2083.1125
2562.66883	2081.2125
2565.36794	2072.2125
2568.06536	2045.0125
2570.7611	2067.6125
2573.45514	2065.2125
2576.14751	2053.4125
2578.83819	2038.7125
2581.52719	2019.4125
2584.21451	2031.4125
2586.90015	2013.7125
2589.58411	1991.0125
2592.2664	2012.0125
2594.94701	2006.9125
2597.62594	2013.8125
2600.30321	1958.2125
2602.9788	1967.9125
2605.65273	1969.9125
2608.32498	1982.3125
2610.99557	2005.3125
2613.66449	1970.6125
2616.33175	1987.6125
2618.99734	1975.6125
2621.66128	1990.5125
2624.32355	1967.7125
2626.98416	1947.2125
2629.64311	1950.5125
2632.30041	1943.6125
2634.95605	1919.6125
2637.61004	1911.5125
2640.26238	1882.4125
2642.91306	1879.4125
2645.56209	1895.6125
2648.20948	1888.0125
2650.85521	1871.8125
2653.4993	1901.8125
2656.14175	1893.3125
2658.78255	1883.3125
2661.42171	1866.0125
2664.05923	1907.1125
2666.6951	1915.4125
2669.32934	1919.7125
2671.96194	1919.1125
2674.59291	1921.3125
2677.22224	1918.6125
2679.84993	1923.8125
2682.476	1908.0125
2685.10043	1907.9125
2687.72324	1891.1125
2690.34441	1888.5125
2692.96396	1884.2125
2695.58188	1897.8125
2698.19818	1886.8125
2700.81285	1877.5125
2703.4259	1864.5125
2706.03733	1832.5125
2708.64714	1837.5125
2711.25533	1873.6125
2713.86191	1886.0125
2716.46687	1872.3125
2719.07021	1883.6125
2721.67194	1876.5125
2724.27206	1885.5125
2726.87057	1868.0125
2729.46747	1859.2125
2732.06276	1864.2125
2734.65644	1844.2125
2737.24852	1837.4125
2739.83899	1824.5125
2742.42786	1824.4125
2745.01513	1840.2125
2747.60079	1809.0125
2750.18486	1804.9125
2752.76733	1807.2125
2755.3482	1793.6125
2757.92747	1790.1125
2760.50515	1765.8125
2763.08123	1777.8125
2765.65573	1770.4125
2768.22863	1753.2125
2770.79994	1754.4125
2773.36967	1750.7125
2775.9378	1748.3125
2778.50435	1743.4125
2781.06932	1746.7125
2783.6327	1726.6125
2786.1945	1752.2125
2788.75471	1745.0125
2791.31335	1735.1125
2793.87041	1731.6125
2796.42589	1728.5125
2798.97979	1719.5125
2801.53212	1731.5125
2804.08288	1755.9125
2806.63206	1737.9125
2809.17967	1733.9125
2811.72571	1759.4125
2814.27018	1749.0125
2816.81308	1753.3125
2819.35442	1727.5125
2821.89419	1751.7125
2824.43239	1747.6125
2826.96904	1785.6125
2829.50412	1752.8125
2832.03763	1759.4125
2834.56959	1760.9125
2837.1	1738.0125
2839.62884	1732.6125
2842.15613	1722.9125
2844.68186	1731.5125
2847.20604	1714.0125
2849.72867	1712.7125
2852.24974	1732.6125
2854.76927	1692.7125
2857.28724	1679.0125
2859.80367	1724.6125
2862.31855	1754.0125
2864.83189	1754.1125
2867.34368	1759.4125
2869.85393	1769.9125
2872.36264	1749.8125
2874.8698	1760.3125
2877.37543	1767.7125
2879.87952	1735.8125
2882.38207	1716.7125
2884.88308	1733.2125
2887.38256	1718.9125
2889.88051	1703.0125
2892.37692	1705.8125
2894.8718	1686.6125
2897.36515	1695.8125
2899.85698	1693.5125
2902.34727	1686.1125
2904.83604	1696.6125
2907.32328	1720.0125
2909.809	1725.7125
2912.29319	1727.3125
2914.77587	1745.9125
2917.25702	1751.5125
2919.73665	1762.8125
2922.21476	1739.8125
2924.69136	1726.0125
2927.16644	1703.5125
2929.64	1696.4125
2932.11205	1679.3125
2934.58258	1675.9125
2937.05161	1661.9125
2939.51912	1661.5125
2941.98513	1674.5125
2944.44962	1652.3125
2946.91261	1633.4125
2949.37409	1650.6125
2951.83407	1645.2125
2954.29254	1655.0125
2956.74951	1651.2125
2959.20498	1633.4125
2961.65895	1642.5125
2964.11142	1635.8125
2966.56239	1629.2125
2969.01186	1639.5125
2971.45984	1627.2125
2973.90632	1627.6125
2976.35131	1644.2125
2978.7948	1637.4125
2981.23681	1631.4125
2983.67732	1626.1125
2986.11635	1636.8125
2988.55388	1608.2125
2990.98993	1621.2125
2993.4245	1611.7125
2995.85758	1609.2125
2998.28917	1608.2125
3000.71928	1606.1125
3003.14791	1607.5125
3005.57506	1599.4125
3008.00073	1581.6125
3010.42493	1529.1125
3012.84764	1592.1125
3015.26888	1583.7125
3017.68865	1573.1125
3020.10694	1533.4125
3022.52376	1555.3125
3024.9391	1543.5125
3027.35298	1535.0125
3029.76539	1508.6125
3032.17632	1506.9125
3034.5858	1497.5125
3036.9938	1505.2125
3039.40034	1491.4125
3041.80542	1466.8125
3044.20903	1461.0125
3046.61118	1450.6125
3049.01187	1466.1125
3051.4111	1453.1125
3053.80888	1436.2125
3056.20519	1441.4125
3058.60005	1424.9125
3060.99345	1436.8125
3063.3854	1421.3125
3065.7759	1410.2125
3068.16494	1405.6125
3070.55254	1406.4125
3072.93868	1414.2125
3075.32338	1400.0125
3077.70662	1395.4125
3080.08842	1392.4125
3082.46878	1370.0125
3084.84769	1394.6125
3087.22515	1375.6125
3089.60118	1393.5125
3091.97576	1365.6125
3094.3489	1390.9125
3096.72061	1373.3125
3099.09087	1358.9125
3101.4597	1368.3125
3103.82709	1364.7125
3106.19305	1349.4125
3108.55757	1360.4125
3110.92066	1346.5125
3113.28232	1364.5125
3115.64255	1365.5125
3118.00134	1359.9125
3120.35871	1345.2125
