Data from AgNPs_UA_50uM_CRN_500uM_SU_RamanShift__29__14-00-40-318.txt Node

Date: Thu Aug 04 14:00:40 BST 2022
User: TCL
Spectrometer: QEP01345
Trigger mode: 4
Integration Time (sec): 1.000000E0
Scans to average: 10
Electric dark correction enabled: true
Nonlinearity correction enabled: false
Boxcar width: 0
XAxis mode: Raman Shifts
Number of Pixels in Spectrum: 1044
>>>>>Begin Spectral Data<<<<<
46.04893	1.025
50.45542	-2.275
54.85868	-0.175
59.25871	0.325
63.6555	13.925
68.04907	11.625
72.43941	12.525
76.82654	13.925
81.21044	14.725
85.59113	16.725
89.96862	16.925
94.34289	16.925
98.71396	17.125
103.08183	16.625
107.4465	15.425
111.80798	18.725
116.16626	20.325
120.52136	21.125
124.87327	22.225
129.222	25.225
133.56755	27.025
137.90993	27.325
142.24913	28.325
146.58517	30.925
150.91804	38.625
155.24774	48.425
159.57429	57.325
163.89768	75.925
168.21792	101.425
172.53501	139.925
176.84895	201.725
181.15975	283.925
185.46741	398.225
189.77193	562.625
194.07331	746.125
198.37157	962.825
202.6667	1198.525
206.9587	1427.325
211.24758	1663.425
215.53334	1911.125
219.81599	2165.625
224.09553	2459.725
228.37195	2777.925
232.64527	3127.625
236.91549	3470.225
241.18261	3764.925
245.44663	3994.625
249.70755	4181.725
253.96539	4320.925
258.22014	4449.325
262.4718	4548.925
266.72039	4628.125
270.96589	4659.225
275.20832	4602.825
279.44768	4537.325
283.68397	4463.625
287.91719	4401.425
292.14735	4421.125
296.37445	4498.325
300.59849	4666.425
304.81948	4872.025
309.03742	5065.725
313.25231	5193.425
317.46415	5133.025
321.67296	4930.925
325.87872	4673.425
330.08145	4543.525
334.28114	4536.325
338.47781	4582.825
342.67145	4685.925
346.86207	4843.325
351.04966	5063.125
355.23424	5268.425
359.4158	5428.725
363.59435	5472.425
367.76989	5461.025
371.94243	5444.825
376.11196	5383.125
380.27849	5344.325
384.44203	5339.825
388.60257	5330.725
392.76012	5372.125
396.91468	5441.425
401.06626	5521.525
405.21485	5555.725
409.36047	5432.925
413.50311	5259.625
417.64277	5051.325
421.77947	4954.625
425.9132	4902.225
430.04396	4917.425
434.17176	4943.325
438.2966	5008.625
442.41849	5098.725
446.53742	5185.725
450.6534	5278.025
454.76644	5333.125
458.87653	5353.525
462.98368	5325.225
467.08789	5298.125
471.18916	5208.825
475.2875	5115.425
479.38291	5024.925
483.4754	4984.725
487.56496	4957.225
491.6516	4926.825
495.73531	4919.325
499.81612	4949.425
503.89401	4976.125
507.96899	5028.625
512.04106	5053.125
516.11023	5131.825
520.1765	5175.525
524.23987	5202.225
528.30034	5183.225
532.35792	5150.325
536.41261	5118.825
540.46441	5025.325
544.51333	5012.825
548.55936	5055.325
552.60252	5116.525
556.64279	5211.425
560.6802	5265.425
564.71473	5323.725
568.7464	5435.025
572.7752	5427.125
576.80114	5263.825
580.82422	5140.225
584.84444	5098.925
588.86181	5087.225
592.87633	5120.725
596.888	5204.725
600.89682	5463.025
604.9028	6080.625
608.90594	7439.125
612.90624	8883.125
616.90371	8210.425
620.89834	6263.425
624.89015	5424.625
628.87913	5324.725
632.86528	5430.825
636.84862	5510.325
640.82913	5426.825
644.80683	5215.625
648.78172	5108.425
652.75379	5118.925
656.72306	5285.925
660.68952	5436.625
664.65319	5372.025
668.61405	5252.125
672.57211	5227.325
676.52738	5226.525
680.47986	5169.125
684.42955	5078.125
688.37646	5065.225
692.32058	5084.625
696.26192	5161.525
700.20048	5229.725
704.13626	5270.925
708.06928	5225.525
711.99952	5193.425
715.927	5180.425
719.85171	5206.825
723.77365	5230.325
727.69284	5210.525
731.60928	5157.525
735.52295	5143.825
739.43388	5156.925
743.34206	5185.425
747.24749	5202.225
751.15017	5194.825
755.05012	5260.325
758.94733	5476.325
762.8418	6017.625
766.73354	6817.725
770.62254	7449.325
774.50882	7527.625
778.39237	7162.825
782.27321	6555.025
786.15132	5931.825
790.02671	5490.425
793.89938	5303.425
797.76935	5206.825
801.6366	5152.225
805.50115	5130.325
809.36299	5114.925
813.22213	5108.325
817.07857	5092.725
820.93231	5113.425
824.78336	5125.225
828.63172	5135.925
832.47738	5158.125
836.32036	5129.625
840.16066	5108.225
843.99827	5111.625
847.8332	5097.425
851.66546	5107.325
855.49504	5136.425
859.32195	5140.425
863.1462	5126.825
866.96777	5118.625
870.78668	5127.325
874.60293	5137.125
878.41652	5170.525
882.22745	5203.325
886.03573	5231.725
889.84136	5221.725
893.64433	5205.425
897.44466	5197.525
901.24235	5201.325
905.0374	5163.425
908.8298	5144.925
912.61957	5128.525
916.40671	5122.325
920.19121	5164.125
923.97308	5203.125
927.75233	5256.725
931.52895	5272.425
935.30295	5237.225
939.07433	5138.325
942.84309	5076.925
946.60924	5052.825
950.37278	5022.225
954.13371	5031.425
957.89203	5021.725
961.64774	5029.825
965.40086	5027.225
969.15137	5010.925
972.89929	5008.725
976.64461	5016.825
980.38733	4998.725
984.12747	5026.125
987.86502	5041.925
991.59999	5058.525
995.33237	5092.525
999.06217	5154.125
1002.78939	5212.625
1006.51404	5310.125
1010.23611	5406.625
1013.95561	5449.325
1017.67255	5438.625
1021.38692	5397.725
1025.09872	5322.425
1028.80796	5270.225
1032.51465	5245.225
1036.21877	5256.725
1039.92035	5291.925
1043.61937	5304.925
1047.31584	5334.225
1051.00976	5327.525
1054.70114	5341.025
1058.38998	5345.325
1062.07627	5349.825
1065.76003	5407.225
1069.44126	5459.325
1073.11995	5548.725
1076.79611	5667.425
1080.46974	5764.325
1084.14085	5844.625
1087.80943	5907.225
1091.47549	5953.025
1095.13903	5912.525
1098.80005	5853.025
1102.45857	5778.725
1106.11456	5748.025
1109.76805	5673.525
1113.41903	5734.925
1117.06751	5804.025
1120.71348	5947.725
1124.35696	6139.925
1127.99793	6287.725
1131.63641	6186.125
1135.2724	5972.525
1138.90589	5798.225
1142.5369	5713.225
1146.16542	5659.325
1149.79145	5637.025
1153.415	5565.925
1157.03607	5521.825
1160.65467	5560.225
1164.27079	5668.225
1167.88443	5817.825
1171.49561	6082.425
1175.10432	6524.225
1178.71056	7093.225
1182.31434	7576.425
1185.91565	7705.725
1189.51451	7569.625
1193.11091	7368.525
1196.70485	7175.825
1200.29634	7014.125
1203.88538	6846.725
1207.47197	6599.825
1211.05612	6357.425
1214.63782	6162.225
1218.21708	6028.325
1221.79391	5922.725
1225.36829	5876.925
1228.94024	5838.925
1232.50976	5818.225
1236.07685	5842.225
1239.6415	5867.225
1243.20374	5891.825
1246.76355	5909.725
1250.32093	5977.725
1253.8759	6077.325
1257.42845	6239.025
1260.97859	6401.625
1264.52631	6548.425
1268.07163	6647.825
1271.61453	6734.225
1275.15503	6745.525
1278.69312	6739.125
1282.22882	6736.425
1285.76211	6821.525
1289.29301	6974.925
1292.82151	7105.625
1296.34761	7244.025
1299.87133	7502.125
1303.39266	7921.325
1306.9116	8609.525
1310.42815	9268.225
1313.94233	9421.725
1317.45412	9009.425
1320.96354	8368.625
1324.47058	7842.925
1327.97525	7366.525
1331.47754	7112.125
1334.97747	7068.425
1338.47502	7157.325
1341.97022	7399.725
1345.46305	7848.925
1348.95352	8513.925
1352.44163	9216.225
1355.92738	10011.025
1359.41078	11005.625
1362.89183	11824.725
1366.37053	11363.825
1369.84688	9726.125
1373.32088	8180.425
1376.79254	7315.125
1380.26186	6908.925
1383.72883	6683.225
1387.19347	6461.725
1390.65578	6229.625
1394.11575	6066.925
1397.57339	5952.325
1401.0287	5860.625
1404.48168	5817.725
1407.93234	5829.525
1411.38068	5883.425
1414.82669	5939.625
1418.27039	5964.925
1421.71177	5942.325
1425.15083	5891.425
1428.58758	5839.225
1432.02203	5876.725
1435.45416	5927.325
1438.88399	5938.425
1442.31151	5947.725
1445.73673	6002.625
1449.15965	6034.225
1452.58027	6011.025
1455.9986	5964.425
1459.41463	5939.625
1462.82837	5984.025
1466.23982	6109.425
1469.64898	6237.925
1473.05586	6319.325
1476.46045	6381.225
1479.86276	6442.725
1483.26279	6518.525
1486.66054	6661.725
1490.05602	6862.925
1493.44922	7181.425
1496.84016	7697.625
1500.22882	8497.925
1503.61521	9488.625
1506.99934	10480.825
1510.38121	11079.125
1513.76081	10903.925
1517.13816	9979.425
1520.51324	8795.925
1523.88607	7829.325
1527.25665	7282.525
1530.62498	7011.525
1533.99105	6905.525
1537.35488	6809.525
1540.71647	6739.625
1544.07581	6688.225
1547.4329	6626.325
1550.78776	6550.325
1554.14038	6480.325
1557.49077	6495.025
1560.83892	6589.125
1564.18484	6728.725
1567.52853	6975.925
1570.86999	7130.325
1574.20922	7212.025
1577.54624	7106.125
1580.88103	6770.725
1584.2136	6391.425
1587.54395	6151.325
1590.87208	6122.925
1594.19801	6292.625
1597.52172	6503.125
1600.84321	6608.825
1604.16251	6558.125
1607.47959	6437.125
1610.79447	6245.225
1614.10715	5991.125
1617.41763	5742.225
1620.7259	5561.425
1624.03199	5456.025
1627.33587	5415.925
1630.63757	5462.425
1633.93707	5610.925
1637.23439	5894.525
1640.52951	6344.725
1643.82246	7016.125
1647.11321	7752.225
1650.40179	8184.425
1653.68819	7925.525
1656.97241	7131.325
1660.25446	6253.825
1663.53433	5651.625
1666.81203	5273.425
1670.08756	5070.125
1673.36092	4937.925
1676.63211	4838.625
1679.90115	4797.525
1683.16801	4749.325
1686.43272	4702.325
1689.69527	4685.625
1692.95567	4656.125
1696.2139	4650.625
1699.46999	4630.325
1702.72392	4622.625
1705.97571	4618.625
1709.22535	4614.025
1712.47284	4613.425
1715.71819	4623.125
1718.96139	4597.125
1722.20246	4615.725
1725.44139	4579.925
1728.67818	4548.225
1731.91284	4528.425
1735.14537	4508.125
1738.37576	4500.625
1741.60403	4483.225
1744.83017	4485.225
1748.05418	4463.625
1751.27607	4459.725
1754.49584	4429.425
1757.71349	4431.525
1760.92903	4429.025
1764.14244	4416.625
1767.35375	4422.125
1770.56294	4415.725
1773.77002	4384.825
1776.97499	4373.725
1780.17785	4375.425
1783.37861	4349.425
1786.57727	4337.625
1789.77382	4332.025
1792.96828	4314.525
1796.16064	4322.225
1799.3509	4310.725
1802.53907	4314.625
1805.72514	4301.225
1808.90913	4291.625
1812.09102	4280.625
1815.27083	4268.225
1818.44856	4261.725
1821.6242	4245.825
1824.79776	4242.725
1827.96924	4226.925
1831.13864	4208.325
1834.30597	4215.025
1837.47122	4192.025
1840.6344	4190.925
1843.7955	4210.525
1846.95454	4198.925
1850.11151	4209.725
1853.26642	4196.325
1856.41926	4177.725
1859.57004	4205.025
1862.71876	4185.025
1865.86542	4180.925
1869.01003	4182.925
1872.15258	4188.125
1875.29308	4174.625
1878.43152	4174.925
1881.56792	4157.325
1884.70227	4159.125
1887.83457	4139.425
1890.96482	4141.925
1894.09304	4118.125
1897.21921	4127.025
1900.34335	4106.625
1903.46544	4109.025
1906.58551	4090.325
1909.70353	4091.525
1912.81953	4091.525
1915.93349	4082.425
1919.04543	4092.025
1922.15534	4056.425
1925.26322	4061.525
1928.36908	4054.925
1931.47292	4038.025
1934.57473	4033.825
1937.67453	4031.625
1940.77232	4004.625
1943.86808	4005.425
1946.96184	3985.225
1950.05358	3976.925
1953.14331	3957.125
1956.23103	3946.525
1959.31675	3938.525
1962.40046	3934.725
1965.48217	3932.425
1968.56188	3917.725
1971.63959	3915.225
1974.7153	3908.325
1977.78901	3873.525
1980.86073	3869.225
1983.93046	3854.325
1986.99819	3851.925
1990.06394	3828.425
1993.1277	3827.025
1996.18947	3809.425
1999.24925	3797.925
2002.30706	3769.725
2005.36288	3759.725
2008.41672	3751.425
2011.46859	3750.625
2014.51848	3738.125
2017.56639	3730.425
2020.61233	3713.325
2023.6563	3697.925
2026.6983	3690.725
2029.73833	3682.725
2032.7764	3659.025
2035.8125	3664.625
2038.84664	3659.625
2041.87881	3645.925
2044.90903	3623.325
2047.93729	3624.425
2050.96359	3619.525
2053.98794	3612.425
2057.01034	3604.225
2060.03078	3608.925
2063.04927	3609.225
2066.06582	3605.625
2069.08042	3597.325
2072.09307	3585.225
2075.10378	3577.225
2078.11255	3574.725
2081.11938	3589.125
2084.12426	3581.825
2087.12722	3585.025
2090.12824	3586.925
2093.12732	3585.825
2096.12447	3578.625
2099.11969	3590.625
2102.11299	3584.025
2105.10435	3601.525
2108.09379	3581.625
2111.08131	3565.825
2114.0669	3580.225
2117.05057	3591.325
2120.03233	3579.525
2123.01216	3584.025
2125.99008	3575.625
2128.96609	3600.925
2131.94018	3592.025
2134.91236	3585.525
2137.88263	3591.025
2140.851	3600.925
2143.81746	3606.125
2146.78201	3584.825
2149.74466	3600.125
2152.7054	3591.725
2155.66425	3576.725
2158.6212	3589.525
2161.57625	3589.125
2164.52941	3570.225
2167.48067	3574.525
2170.43004	3583.325
2173.37752	3566.925
2176.32311	3584.425
2179.26681	3579.825
2182.20863	3566.925
2185.14856	3571.725
2188.08661	3568.825
2191.02278	3563.325
2193.95707	3556.625
2196.88948	3562.125
2199.82001	3562.525
2202.74867	3533.525
2205.67545	3533.625
2208.60037	3529.525
2211.52341	3532.925
2214.44458	3530.025
2217.36388	3520.725
2220.28132	3506.225
2223.1969	3498.025
2226.11061	3484.925
2229.02246	3483.225
2231.93245	3480.825
2234.84058	3484.725
2237.74686	3474.125
2240.65128	3484.925
2243.55385	3460.625
2246.45456	3455.725
2249.35343	3458.325
2252.25044	3449.025
2255.14561	3443.725
2258.03893	3441.025
2260.93041	3433.825
2263.82004	3431.625
2266.70783	3431.425
2269.59378	3409.625
2272.4779	3393.925
2275.36017	3388.625
2278.24061	3374.925
2281.11922	3373.525
2283.996	3357.225
2286.87094	3352.825
2289.74405	3359.525
2292.61534	3338.825
2295.4848	3351.525
2298.35243	3366.425
2301.21824	3341.225
2304.08223	3340.825
2306.94439	3337.025
2309.80474	3344.025
2312.66327	3335.725
2315.51999	3336.425
2318.37489	3315.725
2321.22797	3317.525
2324.07925	3305.225
2326.92871	3302.725
2329.77637	3292.125
2332.62222	3287.425
2335.46626	3274.025
2338.3085	3287.125
2341.14893	3269.625
2343.98756	3271.725
2346.8244	3268.025
2349.65943	3265.525
2352.49267	3267.425
2355.32411	3260.325
2358.15376	3255.725
2360.98161	3259.025
2363.80768	3254.125
2366.63195	3251.825
2369.45444	3255.525
2372.27514	3264.325
2375.09405	3254.325
2377.91118	3251.925
2380.72652	3244.525
2383.54009	3232.125
2386.35187	3220.925
2389.16188	3201.825
2391.97011	3212.725
2394.77657	3198.025
2397.58125	3182.925
2400.38416	3183.025
2403.18529	3168.825
2405.98466	3175.225
2408.78226	3151.925
2411.57809	3156.025
2414.37216	3156.725
2417.16446	3159.625
2419.955	3154.425
2422.74378	3139.125
2425.5308	3141.925
2428.31606	3142.225
2431.09956	3130.325
2433.88131	3129.725
2436.6613	3119.725
2439.43954	3137.325
2442.21603	3122.025
2444.99077	3120.525
2447.76377	3120.025
2450.53501	3120.125
2453.30451	3123.525
2456.07226	3115.025
2458.83827	3117.825
2461.60254	3104.025
2464.36507	3091.525
2467.12586	3100.425
2469.88492	3103.025
2472.64224	3099.125
2475.39782	3092.825
2478.15167	3094.525
2480.90379	3090.225
2483.65417	3088.525
2486.40283	3095.925
2489.14976	3098.825
2491.89497	3091.825
2494.63845	3089.125
2497.3802	3081.025
2500.12024	3084.125
2502.85855	3061.725
2505.59514	3067.425
2508.33002	3074.025
2511.06318	3058.425
2513.79462	3047.325
2516.52435	3021.025
2519.25237	3026.425
2521.97867	3019.625
2524.70327	3013.925
2527.42616	3018.225
2530.14734	3011.225
2532.86681	3003.225
2535.58458	3007.925
2538.30065	3009.325
2541.01501	3008.125
2543.72768	3009.425
2546.43864	2997.425
2549.14791	2983.625
2551.85548	2990.125
2554.56136	2981.625
2557.26554	2974.525
2559.96803	2973.125
2562.66883	2972.225
2565.36794	2968.425
2568.06536	2945.525
2570.7611	2946.825
2573.45514	2945.025
2576.14751	2929.325
2578.83819	2917.425
2581.52719	2906.125
2584.21451	2895.725
2586.90015	2897.625
2589.58411	2883.325
2592.2664	2880.425
2594.94701	2892.925
2597.62594	2890.525
2600.30321	2881.625
2602.9788	2869.525
2605.65273	2864.025
2608.32498	2870.525
2610.99557	2867.725
2613.66449	2868.025
2616.33175	2849.725
2618.99734	2849.625
2621.66128	2852.825
2624.32355	2848.725
2626.98416	2833.025
2629.64311	2833.325
2632.30041	2817.125
2634.95605	2812.025
2637.61004	2796.825
2640.26238	2807.725
2642.91306	2800.025
2645.56209	2804.325
2648.20948	2806.825
2650.85521	2798.125
2653.4993	2792.425
2656.14175	2798.225
2658.78255	2799.225
2661.42171	2796.025
2664.05923	2795.625
2666.6951	2803.125
2669.32934	2787.625
2671.96194	2793.625
2674.59291	2787.125
2677.22224	2771.725
2679.84993	2790.225
2682.476	2789.425
2685.10043	2778.725
2687.72324	2774.725
2690.34441	2772.125
2692.96396	2769.925
2695.58188	2774.825
2698.19818	2768.525
2700.81285	2781.825
2703.4259	2783.225
2706.03733	2773.225
2708.64714	2764.925
2711.25533	2769.125
2713.86191	2762.825
2716.46687	2768.225
2719.07021	2764.225
2721.67194	2755.425
2724.27206	2771.025
2726.87057	2765.525
2729.46747	2760.025
2732.06276	2755.225
2734.65644	2749.125
2737.24852	2758.925
2739.83899	2759.225
2742.42786	2750.425
2745.01513	2744.725
2747.60079	2745.925
2750.18486	2735.925
2752.76733	2732.625
2755.3482	2732.425
2757.92747	2716.825
2760.50515	2714.725
2763.08123	2714.325
2765.65573	2704.625
2768.22863	2687.725
2770.79994	2685.025
2773.36967	2683.225
2775.9378	2680.025
2778.50435	2678.125
2781.06932	2686.925
2783.6327	2678.725
2786.1945	2677.225
2788.75471	2672.825
2791.31335	2656.625
2793.87041	2658.325
2796.42589	2659.925
2798.97979	2643.225
2801.53212	2646.825
2804.08288	2639.325
2806.63206	2635.125
2809.17967	2619.325
2811.72571	2622.125
2814.27018	2613.425
2816.81308	2609.825
2819.35442	2619.025
2821.89419	2592.125
2824.43239	2586.625
2826.96904	2585.325
2829.50412	2580.625
2832.03763	2581.025
2834.56959	2576.125
2837.1	2562.325
2839.62884	2564.825
2842.15613	2560.125
2844.68186	2560.225
2847.20604	2556.825
2849.72867	2560.425
2852.24974	2537.025
2854.76927	2544.325
2857.28724	2532.925
2859.80367	2544.025
2862.31855	2531.925
2864.83189	2535.225
2867.34368	2525.225
2869.85393	2528.525
2872.36264	2525.725
2874.8698	2524.725
2877.37543	2528.325
2879.87952	2517.125
2882.38207	2514.825
2884.88308	2506.125
2887.38256	2507.225
2889.88051	2509.125
2892.37692	2512.925
2894.8718	2487.625
2897.36515	2502.525
2899.85698	2501.325
2902.34727	2499.525
2904.83604	2505.225
2907.32328	2502.225
2909.809	2497.725
2912.29319	2502.725
2914.77587	2506.925
2917.25702	2507.825
2919.73665	2507.925
2922.21476	2503.025
2924.69136	2506.825
2927.16644	2485.925
2929.64	2487.325
2932.11205	2488.825
2934.58258	2462.025
2937.05161	2482.725
2939.51912	2481.425
2941.98513	2471.925
2944.44962	2462.325
2946.91261	2453.525
2949.37409	2455.825
2951.83407	2462.925
2954.29254	2469.325
2956.74951	2454.325
2959.20498	2451.225
2961.65895	2438.625
2964.11142	2442.125
2966.56239	2446.725
2969.01186	2435.725
2971.45984	2437.125
2973.90632	2438.825
2976.35131	2423.325
2978.7948	2429.725
2981.23681	2433.525
2983.67732	2416.525
2986.11635	2418.525
2988.55388	2417.325
2990.98993	2416.525
2993.4245	2384.325
2995.85758	2394.025
2998.28917	2402.025
3000.71928	2381.925
3003.14791	2376.825
3005.57506	2378.125
3008.00073	2363.825
3010.42493	2374.125
3012.84764	2362.025
3015.26888	2358.225
3017.68865	2341.825
3020.10694	2356.425
3022.52376	2348.025
3024.9391	2325.325
3027.35298	2332.525
3029.76539	2325.725
3032.17632	2321.425
3034.5858	2308.925
3036.9938	2301.125
3039.40034	2301.225
3041.80542	2294.925
3044.20903	2305.125
3046.61118	2289.625
3049.01187	2283.825
3051.4111	2283.125
3053.80888	2281.625
3056.20519	2268.025
3058.60005	2274.825
3060.99345	2265.025
3063.3854	2260.325
3065.7759	2260.125
3068.16494	2251.025
3070.55254	2235.725
3072.93868	2231.625
3075.32338	2225.125
3077.70662	2223.125
3080.08842	2209.725
3082.46878	2204.025
3084.84769	2203.125
3087.22515	2202.525
3089.60118	2198.425
3091.97576	2192.625
3094.3489	2198.125
3096.72061	2193.325
3099.09087	2203.325
3101.4597	2188.525
3103.82709	2188.825
3106.19305	2188.225
3108.55757	2185.025
3110.92066	2186.825
3113.28232	2175.025
3115.64255	2172.625
3118.00134	2167.425
3120.35871	2157.925
3122.71466	2146.425
3125.06917	2153.125
3127.42226	2136.625
3129.77393	2148.825
3132.12417	2139.525
3134.47299	2150.125
3136.82039	2140.525
3139.16636	2137.625
3141.51092	2127.125
3143.85406	2121.825
3146.19579	2133.025
3148.53609	2135.625
3150.87499	2130.625
3153.21246	2128.425
3155.54853	2135.325
3157.88318	2134.725
3160.21642	2129.125
3162.54826	2123.325
3164.87868	2132.825
3167.2077	2113.325
3169.5353	2118.025
3171.86151	2119.225
3174.18631	2120.225
3176.5097	2119.425
3178.83169	2114.525
3181.15228	2106.125
3183.47147	2098.725
3185.78926	2085.025
3188.10565	2088.725
3190.42065	2084.225
3192.73424	2089.625
3195.04645	2068.925
3197.35725	2076.825
3199.66667	2069.625
3201.97469	2074.725
3204.28132	2078.725
3206.58656	2068.225
3208.8904	2075.125
3211.19287	2076.725
3213.49394	2081.125
3215.79363	2081.125
3218.09193	2068.525
3220.38884	2070.125
3222.68438	2072.325
3224.97853	2072.725
3227.2713	2062.625
3229.56269	2068.025
3231.8527	2060.525
3234.14133	2043.325
3236.42858	2045.525
3238.71446	2050.925
