Data from AgNPs_UA_10uM_CRN_500uM_SU_RamanShift__148__13-30-00-283.txt Node

Date: Thu Aug 04 13:30:00 BST 2022
User: TCL
Spectrometer: QEP01345
Trigger mode: 4
Integration Time (sec): 1.000000E0
Scans to average: 10
Electric dark correction enabled: true
Nonlinearity correction enabled: false
Boxcar width: 0
XAxis mode: Raman Shifts
Number of Pixels in Spectrum: 1044
>>>>>Begin Spectral Data<<<<<
46.04893	0
50.45542	-0.7
54.85868	0.7
59.25871	-0.7
63.6555	18.1
68.04907	18.2
72.43941	18.8
76.82654	20.5
81.21044	20.1
85.59113	22.6
89.96862	21.3
94.34289	23.6
98.71396	21.2
103.08183	23.8
107.4465	25.5
111.80798	24.9
116.16626	25.5
120.52136	27.6
124.87327	27.6
129.222	30.2
133.56755	30.3
137.90993	33.8
142.24913	38.2
146.58517	44
150.91804	50.4
155.24774	63.8
159.57429	74.5
163.89768	102.9
168.21792	132
172.53501	178.1
176.84895	250.1
181.15975	356.2
185.46741	496.6
189.77193	689.2
194.07331	921
198.37157	1185.2
202.6667	1456.5
206.9587	1734.5
211.24758	2003.5
215.53334	2288.6
219.81599	2570.3
224.09553	2894.4
228.37195	3265.6
232.64527	3649.8
236.91549	4046.3
241.18261	4428.5
245.44663	4771.4
249.70755	5060.4
253.96539	5307.4
258.22014	5527.6
262.4718	5699.3
266.72039	5833.3
270.96589	5908.7
275.20832	5895.8
279.44768	5819.7
283.68397	5727.4
287.91719	5672.1
292.14735	5655.5
296.37445	5718.1
300.59849	5826.5
304.81948	5973
309.03742	6074.3
313.25231	6099.3
317.46415	6018.7
321.67296	5892.3
325.87872	5717.8
330.08145	5682.2
334.28114	5690.8
338.47781	5769.5
342.67145	5879.4
346.86207	6027.3
351.04966	6244.6
355.23424	6408.7
359.4158	6602.6
363.59435	6718.1
367.76989	6788.3
371.94243	6831.6
376.11196	6871.5
380.27849	6913.4
384.44203	6954.4
388.60257	6975.4
392.76012	7037.2
396.91468	7119.2
401.06626	7260.8
405.21485	7335.5
409.36047	7285.2
413.50311	7131.6
417.64277	6978.5
421.77947	6895.8
425.9132	6889.4
430.04396	6931.6
434.17176	7061.4
438.2966	7228.3
442.41849	7466.4
446.53742	7789.6
450.6534	8078
454.76644	8219.7
458.87653	8233.3
462.98368	8086.3
467.08789	7862.4
471.18916	7593.2
475.2875	7366.1
479.38291	7173.7
483.4754	7061.1
487.56496	6966.3
491.6516	6903.7
495.73531	6886.7
499.81612	6879.8
503.89401	6938.4
507.96899	6956.9
512.04106	6999.2
516.11023	7048.4
520.1765	7100.5
524.23987	7151.8
528.30034	7160.9
532.35792	7117.4
536.41261	7037.6
540.46441	6946.8
544.51333	6916.2
548.55936	6984.8
552.60252	7074
556.64279	7188.4
560.6802	7235.2
564.71473	7198.2
568.7464	7227.5
572.7752	7248.1
576.80114	7192.8
580.82422	7194.9
584.84444	7305.4
588.86181	7512.3
592.87633	7777.6
596.888	7975.5
600.89682	8195.9
604.9028	8904.2
608.90594	10308.5
612.90624	11464.7
616.90371	10518.6
620.89834	8632.2
624.89015	7968.3
628.87913	7907.6
632.86528	7811.5
636.84862	7632.8
640.82913	7425.9
644.80683	7168.9
648.78172	7039.7
652.75379	7118.6
656.72306	7326.4
660.68952	7518
664.65319	7487.7
668.61405	7393
672.57211	7406.7
676.52738	7368.5
680.47986	7267.5
684.42955	7177.3
688.37646	7198.3
692.32058	7273.3
696.26192	7388.9
700.20048	7507.9
704.13626	7522.8
708.06928	7396.7
711.99952	7302.9
715.927	7343.4
719.85171	7382.2
723.77365	7354.1
727.69284	7274.6
731.60928	7227
735.52295	7272.6
739.43388	7355.1
743.34206	7414
747.24749	7429.7
751.15017	7452.8
755.05012	7558.2
758.94733	7810.1
762.8418	8276.4
766.73354	9032.6
770.62254	9697.2
774.50882	9955
778.39237	9586.4
782.27321	8879.7
786.15132	8189.9
790.02671	7767.4
793.89938	7576.1
797.76935	7494.9
801.6366	7457
805.50115	7400.8
809.36299	7387.3
813.22213	7346.5
817.07857	7349.6
820.93231	7337
824.78336	7332.5
828.63172	7350.5
832.47738	7383.1
836.32036	7422.6
840.16066	7468.1
843.99827	7477.3
847.8332	7474.5
851.66546	7424.6
855.49504	7393.7
859.32195	7418.9
863.1462	7391.4
866.96777	7382.7
870.78668	7348.4
874.60293	7357.6
878.41652	7399.7
882.22745	7461.7
886.03573	7501.5
889.84136	7491.5
893.64433	7458.8
897.44466	7428.1
901.24235	7407.8
905.0374	7402.2
908.8298	7374.5
912.61957	7392.8
916.40671	7433.2
920.19121	7523.5
923.97308	7599.2
927.75233	7686.2
931.52895	7732.8
935.30295	7662.5
939.07433	7520.8
942.84309	7425
946.60924	7402.3
950.37278	7391
954.13371	7344.6
957.89203	7296.8
961.64774	7264.5
965.40086	7232.8
969.15137	7225.7
972.89929	7224.3
976.64461	7238.8
980.38733	7262.7
984.12747	7314.7
987.86502	7385
991.59999	7471.5
995.33237	7667.1
999.06217	8003.8
1002.78939	8305.4
1006.51404	8429.8
1010.23611	8463.7
1013.95561	8603.7
1017.67255	8684.6
1021.38692	8685.5
1025.09872	8635.2
1028.80796	8800.1
1032.51465	9059.9
1036.21877	9229
1039.92035	9178.3
1043.61937	8995.3
1047.31584	8706.1
1051.00976	8446.7
1054.70114	8355.1
1058.38998	8306.3
1062.07627	8330
1065.76003	8330.7
1069.44126	8384.3
1073.11995	8465.2
1076.79611	8557.6
1080.46974	8619.8
1084.14085	8691.3
1087.80943	8767.8
1091.47549	8761.1
1095.13903	8634.7
1098.80005	8513.7
1102.45857	8444.3
1106.11456	8434.6
1109.76805	8459
1113.41903	8521.5
1117.06751	8674.8
1120.71348	8834
1124.35696	8993.5
1127.99793	9060.7
1131.63641	8978.2
1135.2724	8768.8
1138.90589	8629
1142.5369	8475.3
1146.16542	8394.3
1149.79145	8340.7
1153.415	8345.8
1157.03607	8384.9
1160.65467	8519.5
1164.27079	8724
1167.88443	9056.3
1171.49561	9557.4
1175.10432	10317.9
1178.71056	11299.2
1182.31434	12242.1
1185.91565	12773.7
1189.51451	12868.6
1193.11091	12445.6
1196.70485	11767.3
1200.29634	11160.3
1203.88538	10605.4
1207.47197	10128.2
1211.05612	9801
1214.63782	9617.7
1218.21708	9561.4
1221.79391	9663
1225.36829	9738.6
1228.94024	9708.1
1232.50976	9608.3
1236.07685	9563.3
1239.6415	9591.8
1243.20374	9649.4
1246.76355	9703.1
1250.32093	9820.1
1253.8759	10043.6
1257.42845	10373.2
1260.97859	10670.9
1264.52631	10921.8
1268.07163	11141.3
1271.61453	11357.3
1275.15503	11518
1278.69312	11748.3
1282.22882	12020.2
1285.76211	12247.2
1289.29301	12484.9
1292.82151	12770.9
1296.34761	13074
1299.87133	13537.6
1303.39266	14321.7
1306.9116	15420.7
1310.42815	16488.5
1313.94233	16964.2
1317.45412	16605.9
1320.96354	15863.7
1324.47058	15031.1
1327.97525	14494.5
1331.47754	14362.3
1334.97747	14518.8
1338.47502	14838.4
1341.97022	15164
1345.46305	15479.2
1348.95352	15920.1
1352.44163	16489.4
1355.92738	17249.2
1359.41078	18215
1362.89183	18598.5
1366.37053	17588.2
1369.84688	15682
1373.32088	13924.6
1376.79254	12890.9
1380.26186	12344.7
1383.72883	12069.8
1387.19347	11741.8
1390.65578	11372.1
1394.11575	11065.4
1397.57339	10930.9
1401.0287	10990.9
1404.48168	11181.2
1407.93234	11463.4
1411.38068	11737.1
1414.82669	11856.8
1418.27039	11721.7
1421.71177	11489.4
1425.15083	11428
1428.58758	11538.3
1432.02203	11792.8
1435.45416	11947.2
1438.88399	11943.7
1442.31151	11859.2
1445.73673	11779.3
1449.15965	11672.7
1452.58027	11541.5
1455.9986	11369.2
1459.41463	11323.3
1462.82837	11404.5
1466.23982	11691.1
1469.64898	11908.6
1473.05586	12118.9
1476.46045	12306.2
1479.86276	12431.5
1483.26279	12518.6
1486.66054	12606.2
1490.05602	12777.5
1493.44922	13083.9
1496.84016	13517.3
1500.22882	14107.8
1503.61521	14823
1506.99934	15560.9
1510.38121	15824.1
1513.76081	15455
1517.13816	14557.5
1520.51324	13573.5
1523.88607	12899.1
1527.25665	12555.1
1530.62498	12432.6
1533.99105	12417.9
1537.35488	12481.9
1540.71647	12463.1
1544.07581	12375.5
1547.4329	12211.6
1550.78776	11958.7
1554.14038	11709.4
1557.49077	11513.7
1560.83892	11455.4
1564.18484	11465.4
1567.52853	11534.8
1570.86999	11597.7
1574.20922	11583.7
1577.54624	11438.2
1580.88103	11163.7
1584.2136	10928.2
1587.54395	10970.2
1590.87208	11477.9
1594.19801	12446.9
1597.52172	13576.6
1600.84321	14249.5
1604.16251	14144.5
1607.47959	13381.4
1610.79447	12317.1
1614.10715	11241.6
1617.41763	10389.9
1620.7259	9874.9
1624.03199	9609
1627.33587	9637.8
1630.63757	9902
1633.93707	10454.9
1637.23439	11310.5
1640.52951	12381
1643.82246	13483.2
1647.11321	14172.1
1650.40179	13876.9
1653.68819	12694.8
1656.97241	11135.7
1660.25446	9858.2
1663.53433	9006.5
1666.81203	8480.6
1670.08756	8174.8
1673.36092	7967.7
1676.63211	7838.8
1679.90115	7712.9
1683.16801	7640.3
1686.43272	7568.7
1689.69527	7529.9
1692.95567	7492
1696.2139	7471.6
1699.46999	7453.4
1702.72392	7465.7
1705.97571	7414.2
1709.22535	7424.2
1712.47284	7446.1
1715.71819	7440.2
1718.96139	7420.6
1722.20246	7390.2
1725.44139	7377.6
1728.67818	7333.5
1731.91284	7313.8
1735.14537	7258.2
1738.37576	7244.9
1741.60403	7214.8
1744.83017	7195.2
1748.05418	7180
1751.27607	7191
1754.49584	7172
1757.71349	7165.6
1760.92903	7156.1
1764.14244	7148.2
1767.35375	7131.9
1770.56294	7132
1773.77002	7110.5
1776.97499	7098.6
1780.17785	7084.6
1783.37861	7088.8
1786.57727	7063.2
1789.77382	7076.7
1792.96828	7057
1796.16064	7064.5
1799.3509	7058
1802.53907	7036.8
1805.72514	7027.7
1808.90913	7020.4
1812.09102	6999.5
1815.27083	6970.7
1818.44856	6969.9
1821.6242	6948.9
1824.79776	6950.1
1827.96924	6926.8
1831.13864	6933.6
1834.30597	6935.4
1837.47122	6890.2
1840.6344	6910.3
1843.7955	6879.4
1846.95454	6906.7
1850.11151	6903.5
1853.26642	6923.9
1856.41926	6907.4
1859.57004	6924.2
1862.71876	6918
1865.86542	6919.7
1869.01003	6902.5
1872.15258	6898.2
1875.29308	6872.1
1878.43152	6883.1
1881.56792	6895.2
1884.70227	6863.7
1887.83457	6837
1890.96482	6870.8
1894.09304	6826.9
1897.21921	6837.4
1900.34335	6833.6
1903.46544	6841
1906.58551	6829
1909.70353	6825.6
1912.81953	6816.6
1915.93349	6838.9
1919.04543	6797.2
1922.15534	6799.2
1925.26322	6807.5
1928.36908	6781.9
1931.47292	6770.3
1934.57473	6767.5
1937.67453	6756.1
1940.77232	6745.1
1943.86808	6738.1
1946.96184	6713.2
1950.05358	6700.7
1953.14331	6695.4
1956.23103	6647.8
1959.31675	6611.8
1962.40046	6625.6
1965.48217	6595.4
1968.56188	6571.9
1971.63959	6547.1
1974.7153	6538.2
1977.78901	6563.6
1980.86073	6522.6
1983.93046	6493.8
1986.99819	6475.3
1990.06394	6451
1993.1277	6443
1996.18947	6412.5
1999.24925	6415.2
2002.30706	6362.9
2005.36288	6354.9
2008.41672	6349.7
2011.46859	6312.7
2014.51848	6309
2017.56639	6297.9
2020.61233	6266
2023.6563	6255.2
2026.6983	6256.6
2029.73833	6234.7
2032.7764	6209.5
2035.8125	6237.9
2038.84664	6213.2
2041.87881	6197.6
2044.90903	6199
2047.93729	6174.2
2050.96359	6163
2053.98794	6165.8
2057.01034	6144
2060.03078	6157.7
2063.04927	6157.9
2066.06582	6149.1
2069.08042	6148.7
2072.09307	6137.4
2075.10378	6118.9
2078.11255	6133.5
2081.11938	6091.1
2084.12426	6098.6
2087.12722	6090.4
2090.12824	6091.4
2093.12732	6090.2
2096.12447	6092.8
2099.11969	6095.3
2102.11299	6094.6
2105.10435	6095.6
2108.09379	6110.2
2111.08131	6101.5
2114.0669	6097.7
2117.05057	6124.8
2120.03233	6121.3
2123.01216	6116.7
2125.99008	6102.5
2128.96609	6130.9
2131.94018	6135.3
2134.91236	6122.1
2137.88263	6146
2140.851	6123.6
2143.81746	6128.5
2146.78201	6107.4
2149.74466	6134.6
2152.7054	6146.8
2155.66425	6144.2
2158.6212	6123
2161.57625	6126
2164.52941	6106.1
2167.48067	6131.9
2170.43004	6096.1
2173.37752	6094.2
2176.32311	6110.1
2179.26681	6120.6
2182.20863	6120
2185.14856	6112.7
2188.08661	6136.1
2191.02278	6136.1
2193.95707	6145.7
2196.88948	6124.7
2199.82001	6122.3
2202.74867	6115.8
2205.67545	6132.7
2208.60037	6144
2211.52341	6096.2
2214.44458	6090.3
2217.36388	6083
2220.28132	6076.9
2223.1969	6048.3
2226.11061	6050.4
2229.02246	6033.8
2231.93245	6035.1
2234.84058	6048.2
2237.74686	6003.2
2240.65128	6001.3
2243.55385	5982.4
2246.45456	5972.7
2249.35343	5967.1
2252.25044	5972
2255.14561	5959.8
2258.03893	5974.1
2260.93041	5962.1
2263.82004	5939.3
2266.70783	5927.1
2269.59378	5914.1
2272.4779	5888.9
2275.36017	5866.9
2278.24061	5864.6
2281.11922	5868
2283.996	5820.5
2286.87094	5836.9
2289.74405	5843.6
2292.61534	5825.4
2295.4848	5829
2298.35243	5816.4
2301.21824	5813.5
2304.08223	5796.5
2306.94439	5824.5
2309.80474	5824.3
2312.66327	5832.8
2315.51999	5829.7
2318.37489	5828.6
2321.22797	5829.5
2324.07925	5833.4
2326.92871	5817.6
2329.77637	5814.3
2332.62222	5809.1
2335.46626	5797.3
2338.3085	5799.9
2341.14893	5824.7
2343.98756	5817
2346.8244	5830.6
2349.65943	5829
2352.49267	5792.8
2355.32411	5807.8
2358.15376	5807.9
2360.98161	5793.6
2363.80768	5791.4
2366.63195	5776.3
2369.45444	5764.1
2372.27514	5755.2
2375.09405	5764.4
2377.91118	5726.2
2380.72652	5717.9
2383.54009	5703.5
2386.35187	5692.3
2389.16188	5678.6
2391.97011	5665.3
2394.77657	5665.8
2397.58125	5637.2
2400.38416	5657
2403.18529	5621.1
2405.98466	5616.6
2408.78226	5607.6
2411.57809	5588.1
2414.37216	5592.7
2417.16446	5581.5
2419.955	5568.9
2422.74378	5559.1
2425.5308	5568.6
2428.31606	5557.5
2431.09956	5553
2433.88131	5547
2436.6613	5547.4
2439.43954	5551.9
2442.21603	5525
2444.99077	5553.4
2447.76377	5544.3
2450.53501	5541.2
2453.30451	5522.4
2456.07226	5530.8
2458.83827	5520.1
2461.60254	5501.9
2464.36507	5492.4
2467.12586	5482
2469.88492	5469.9
2472.64224	5510.7
2475.39782	5515.2
2478.15167	5505.8
2480.90379	5501.7
2483.65417	5484.4
2486.40283	5485.3
2489.14976	5513.5
2491.89497	5509.3
2494.63845	5519.9
2497.3802	5511.1
2500.12024	5502.3
2502.85855	5496.6
2505.59514	5506.4
2508.33002	5509.7
2511.06318	5484.7
2513.79462	5460.2
2516.52435	5463.8
2519.25237	5457.6
2521.97867	5449.5
2524.70327	5438.2
2527.42616	5439.9
2530.14734	5436.3
2532.86681	5436.5
2535.58458	5455.2
2538.30065	5453.1
2541.01501	5444.6
2543.72768	5440.7
2546.43864	5423.4
2549.14791	5427.8
2551.85548	5432.2
2554.56136	5418.3
2557.26554	5397.2
2559.96803	5396.4
2562.66883	5389.4
2565.36794	5384.8
2568.06536	5381.2
2570.7611	5349.4
2573.45514	5354.4
2576.14751	5345.5
2578.83819	5350.2
2581.52719	5339.7
2584.21451	5346.2
2586.90015	5349.1
2589.58411	5340.1
2592.2664	5340.1
2594.94701	5338.4
2597.62594	5343
2600.30321	5332.6
2602.9788	5339.4
2605.65273	5330.7
2608.32498	5332.1
2610.99557	5312.3
2613.66449	5317.1
2616.33175	5329.4
2618.99734	5347.9
2621.66128	5311.5
2624.32355	5329.9
2626.98416	5312.7
2629.64311	5328.6
2632.30041	5321.2
2634.95605	5323.1
2637.61004	5311.9
2640.26238	5287.2
2642.91306	5303.8
2645.56209	5291.2
2648.20948	5289.1
2650.85521	5296.7
2653.4993	5284.4
2656.14175	5260.4
2658.78255	5266.3
2661.42171	5275.4
2664.05923	5279.2
2666.6951	5301.5
2669.32934	5299.8
2671.96194	5295.7
2674.59291	5291.7
2677.22224	5282.8
2679.84993	5315.8
2682.476	5295
2685.10043	5288.2
2687.72324	5287.1
2690.34441	5289.6
2692.96396	5285.7
2695.58188	5264.5
2698.19818	5271
2700.81285	5271.6
2703.4259	5240.7
2706.03733	5250.7
2708.64714	5238.1
2711.25533	5248.3
2713.86191	5254.3
2716.46687	5267.7
2719.07021	5257.6
2721.67194	5266.7
2724.27206	5262.7
2726.87057	5268.4
2729.46747	5258.2
2732.06276	5259.1
2734.65644	5273.7
2737.24852	5257.5
2739.83899	5259.2
2742.42786	5243.8
2745.01513	5244.1
2747.60079	5199.4
2750.18486	5226.7
2752.76733	5235
2755.3482	5224.5
2757.92747	5204.1
2760.50515	5206.6
2763.08123	5183.8
2765.65573	5209.5
2768.22863	5191.1
2770.79994	5199.9
2773.36967	5191.5
2775.9378	5185.3
2778.50435	5198
2781.06932	5181
2783.6327	5201.3
2786.1945	5217.6
2788.75471	5183.1
2791.31335	5175.6
2793.87041	5174.3
2796.42589	5158.2
2798.97979	5147.3
2801.53212	5150
2804.08288	5130.6
2806.63206	5111.7
2809.17967	5098.8
2811.72571	5100.5
2814.27018	5088.8
2816.81308	5100.2
2819.35442	5085.2
2821.89419	5087.9
2824.43239	5080.2
2826.96904	5059.4
2829.50412	5047.1
2832.03763	5030.8
2834.56959	5031.1
2837.1	5040.9
2839.62884	5023.1
2842.15613	5031.7
2844.68186	5046.4
2847.20604	5027.8
2849.72867	5024.8
2852.24974	4988.9
2854.76927	5001.2
2857.28724	4991.2
2859.80367	4986.3
2862.31855	4991.6
2864.83189	4972.4
2867.34368	4986.5
2869.85393	4973
2872.36264	4966.7
2874.8698	4952.2
2877.37543	4949
2879.87952	4959.4
2882.38207	4946.7
2884.88308	4932.8
2887.38256	4946.7
2889.88051	4939.2
2892.37692	4937.9
2894.8718	4944
2897.36515	4937.8
2899.85698	4932.7
2902.34727	4948.4
2904.83604	4946.6
2907.32328	4954.6
2909.809	4941.1
2912.29319	4958.9
2914.77587	4944.8
2917.25702	4957.9
2919.73665	4953.2
2922.21476	4945.6
2924.69136	4934.5
2927.16644	4946.4
2929.64	4926.5
2932.11205	4896.2
2934.58258	4898.7
2937.05161	4897.9
2939.51912	4905.5
2941.98513	4913.1
2944.44962	4894.4
2946.91261	4878.7
2949.37409	4894.8
2951.83407	4886
2954.29254	4885.3
2956.74951	4874.4
2959.20498	4872.7
2961.65895	4880.2
2964.11142	4880.1
2966.56239	4846.4
2969.01186	4863.7
2971.45984	4850.5
2973.90632	4861.4
2976.35131	4828.2
2978.7948	4824.9
2981.23681	4807.1
2983.67732	4811.1
2986.11635	4785.4
2988.55388	4772.9
2990.98993	4752.2
2993.4245	4741
2995.85758	4727.7
2998.28917	4724.7
3000.71928	4712.2
3003.14791	4690.3
3005.57506	4685.1
3008.00073	4663.3
3010.42493	4655.7
3012.84764	4653.7
3015.26888	4650.4
3017.68865	4643.4
3020.10694	4637.4
3022.52376	4614.1
3024.9391	4595.8
3027.35298	4574.1
3029.76539	4575.6
3032.17632	4574.2
3034.5858	4567.5
3036.9938	4565.4
3039.40034	4565.5
3041.80542	4543.8
3044.20903	4545.2
3046.61118	4521.2
3049.01187	4511.3
3051.4111	4513
3053.80888	4512.5
3056.20519	4481.5
3058.60005	4460
3060.99345	4453.4
3063.3854	4460.5
3065.7759	4432.5
3068.16494	4417.2
3070.55254	4399.9
3072.93868	4386.5
3075.32338	4366.3
3077.70662	4355.1
3080.08842	4348.8
3082.46878	4357
3084.84769	4343.9
3087.22515	4332.1
3089.60118	4329
3091.97576	4323
3094.3489	4321.7
3096.72061	4323.7
3099.09087	4314.9
3101.4597	4310.4
3103.82709	4304.4
3106.19305	4304.3
3108.55757	4303.3
3110.92066	4298.3
3113.28232	4284.6
3115.64255	4268.9
3118.00134	4263.6
3120.35871	4259.7
3122.71466	4246.4
3125.06917	4227
3127.42226	4217
3129.77393	4216.5
3132.12417	4200.5
3134.47299	4205.1
3136.82039	4189.2
3139.16636	4197.5
3141.51092	4196.5
3143.85406	4181.4
3146.19579	4174.8
3148.53609	4180
3150.87499	4190.6
3153.21246	4170.7
3155.54853	4172.6
3157.88318	4151.1
3160.21642	4157.8
3162.54826	4154.2
3164.87868	4166.6
3167.2077	4151.7
3169.5353	4145.9
3171.86151	4142
3174.18631	4138.3
3176.5097	4110
3178.83169	4113.7
3181.15228	4101.9
3183.47147	4103.4
3185.78926	4097.1
3188.10565	4080.1
3190.42065	4063.1
3192.73424	4065.9
3195.04645	4075.4
3197.35725	4075.4
3199.66667	4062.2
3201.97469	4076.5
3204.28132	4071
3206.58656	4047.6
3208.8904	4064.4
3211.19287	4064.7
3213.49394	4065
3215.79363	4054.5
3218.09193	4053.5
3220.38884	4065.1
3222.68438	4069.3
3224.97853	4049.6
3227.2713	4042.6
3229.56269	4036.8
3231.8527	4039.5
3234.14133	4027
3236.42858	4013.9
3238.71446	4013.4
3240.99896	3992.8
3243.28209	3992.7
3245.56384	3982.6
3247.84423	3980.9
3250.12324	3964.3
3252.40088	3956.4
3254.67715	3969.6
3256.95205	3958.4
3259.22558	3957.3
3261.49775	3950.7
3263.76855	3955.8
3266.03799	3948.7
3268.30606	3947.3
3270.57277	3954.5
3272.83812	3934.3
3275.10211	3927.8
3277.36474	3903.2
3279.62601	3907.4
3281.88593	3912.9
3284.14448	3895.3
3286.40168	3903.5
3288.65753	3886.1
3290.91202	3893.9
3293.16516	3888.5
3295.41695	3869.2
3297.66738	3861.9
3299.91647	3845.9
3302.16421	3808.5
3304.4106	3797.3
3306.65564	3779.7
3308.89933	3748.1
3311.14169	3711.1
3313.38269	3683
3315.62236	3666.7
3317.86068	3641.8
3320.09766	3609.3
3322.3333	3579.4
3324.5676	3561.7
3326.80056	3490.2
3329.03219	3473
3331.26248	1.2
3333.49143	-0.3
3335.71905	0.2
