Data from AgNPs_UA_50uM_CRN_500uM_SU_RamanShift__77__14-08-40-328.txt Node

Date: Thu Aug 04 14:08:40 BST 2022
User: TCL
Spectrometer: QEP01345
Trigger mode: 4
Integration Time (sec): 1.000000E0
Scans to average: 10
Electric dark correction enabled: true
Nonlinearity correction enabled: false
Boxcar width: 0
XAxis mode: Raman Shifts
Number of Pixels in Spectrum: 1044
>>>>>Begin Spectral Data<<<<<
46.04893	1.075
50.45542	-0.025
54.85868	-0.925
59.25871	-0.525
63.6555	16.475
68.04907	16.275
72.43941	17.075
76.82654	20.475
81.21044	20.075
85.59113	19.775
89.96862	21.775
94.34289	22.675
98.71396	22.575
103.08183	23.175
107.4465	22.575
111.80798	21.675
116.16626	24.675
120.52136	26.175
124.87327	27.875
129.222	29.375
133.56755	31.875
137.90993	34.975
142.24913	38.275
146.58517	43.175
150.91804	48.375
155.24774	57.675
159.57429	76.575
163.89768	99.375
168.21792	131.975
172.53501	180.275
176.84895	251.575
181.15975	357.975
185.46741	496.475
189.77193	696.975
194.07331	933.075
198.37157	1196.075
202.6667	1495.675
206.9587	1773.475
211.24758	2052.575
215.53334	2344.475
219.81599	2631.875
224.09553	2984.075
228.37195	3351.675
232.64527	3753.475
236.91549	4165.175
241.18261	4533.175
245.44663	4830.575
249.70755	5084.175
253.96539	5290.575
258.22014	5479.875
262.4718	5660.675
266.72039	5781.375
270.96589	5829.875
275.20832	5812.275
279.44768	5748.575
283.68397	5622.875
287.91719	5566.475
292.14735	5564.975
296.37445	5656.575
300.59849	5815.975
304.81948	6018.175
309.03742	6191.475
313.25231	6261.075
317.46415	6165.675
321.67296	5948.275
325.87872	5698.275
330.08145	5604.575
334.28114	5616.875
338.47781	5684.075
342.67145	5827.375
346.86207	5996.075
351.04966	6237.375
355.23424	6480.575
359.4158	6668.075
363.59435	6773.175
367.76989	6851.975
371.94243	6854.275
376.11196	6838.675
380.27849	6850.275
384.44203	6843.475
388.60257	6883.175
392.76012	6925.175
396.91468	6998.275
401.06626	7114.675
405.21485	7187.375
409.36047	7076.375
413.50311	6847.075
417.64277	6610.375
421.77947	6494.675
425.9132	6445.675
430.04396	6467.375
434.17176	6557.075
438.2966	6698.275
442.41849	6903.975
446.53742	7169.175
450.6534	7374.175
454.76644	7542.575
458.87653	7560.575
462.98368	7478.975
467.08789	7328.675
471.18916	7107.775
475.2875	6859.975
479.38291	6676.375
483.4754	6573.275
487.56496	6471.075
491.6516	6402.275
495.73531	6385.575
499.81612	6391.475
503.89401	6430.875
507.96899	6461.475
512.04106	6521.375
516.11023	6594.975
520.1765	6672.475
524.23987	6711.175
528.30034	6699.675
532.35792	6655.075
536.41261	6579.475
540.46441	6462.475
544.51333	6442.475
548.55936	6503.475
552.60252	6605.075
556.64279	6721.175
560.6802	6739.475
564.71473	6785.675
568.7464	6889.875
572.7752	6891.075
576.80114	6756.375
580.82422	6668.675
584.84444	6722.475
588.86181	6881.675
592.87633	7102.975
596.888	7319.075
600.89682	7573.975
604.9028	8403.875
608.90594	10160.675
612.90624	11736.775
616.90371	10657.675
620.89834	8315.175
624.89015	7484.475
628.87913	7423.975
632.86528	7343.875
636.84862	7171.475
640.82913	6903.075
644.80683	6608.575
648.78172	6470.575
652.75379	6510.475
656.72306	6747.475
660.68952	6982.875
664.65319	6946.475
668.61405	6784.275
672.57211	6754.875
676.52738	6712.175
680.47986	6626.675
684.42955	6530.375
688.37646	6538.775
692.32058	6603.075
696.26192	6702.475
700.20048	6804.175
704.13626	6829.675
708.06928	6711.175
711.99952	6670.175
715.927	6672.375
719.85171	6706.175
723.77365	6691.275
727.69284	6604.875
731.60928	6571.975
735.52295	6581.175
739.43388	6645.675
743.34206	6696.575
747.24749	6711.875
751.15017	6755.675
755.05012	6848.475
758.94733	7103.275
762.8418	7714.575
766.73354	8649.275
770.62254	9446.875
774.50882	9654.075
778.39237	9201.975
782.27321	8351.275
786.15132	7538.175
790.02671	7064.575
793.89938	6835.575
797.76935	6762.075
801.6366	6734.975
805.50115	6687.775
809.36299	6646.975
813.22213	6612.075
817.07857	6607.675
820.93231	6582.775
824.78336	6615.175
828.63172	6629.475
832.47738	6656.775
836.32036	6678.875
840.16066	6717.275
843.99827	6752.275
847.8332	6717.475
851.66546	6667.675
855.49504	6669.175
859.32195	6655.675
863.1462	6631.075
866.96777	6591.775
870.78668	6581.875
874.60293	6573.975
878.41652	6616.275
882.22745	6656.075
886.03573	6692.175
889.84136	6676.175
893.64433	6630.075
897.44466	6612.375
901.24235	6620.175
905.0374	6601.775
908.8298	6579.875
912.61957	6586.975
916.40671	6612.575
920.19121	6704.175
923.97308	6824.675
927.75233	6945.675
931.52895	6977.375
935.30295	6926.075
939.07433	6722.275
942.84309	6624.575
946.60924	6590.775
950.37278	6540.975
954.13371	6514.775
957.89203	6441.375
961.64774	6399.775
965.40086	6376.475
969.15137	6356.375
972.89929	6364.875
976.64461	6353.575
980.38733	6368.675
984.12747	6416.775
987.86502	6476.075
991.59999	6577.775
995.33237	6797.475
999.06217	7142.975
1002.78939	7443.675
1006.51404	7553.175
1010.23611	7564.275
1013.95561	7642.075
1017.67255	7745.575
1021.38692	7743.475
1025.09872	7768.675
1028.80796	7959.675
1032.51465	8316.475
1036.21877	8533.275
1039.92035	8453.075
1043.61937	8244.375
1047.31584	7888.175
1051.00976	7576.675
1054.70114	7414.275
1058.38998	7374.275
1062.07627	7354.475
1065.76003	7313.675
1069.44126	7345.775
1073.11995	7391.275
1076.79611	7479.975
1080.46974	7559.775
1084.14085	7707.975
1087.80943	7794.775
1091.47549	7778.475
1095.13903	7629.575
1098.80005	7448.775
1102.45857	7412.775
1106.11456	7415.975
1109.76805	7458.375
1113.41903	7584.075
1117.06751	7696.275
1120.71348	7878.975
1124.35696	8097.875
1127.99793	8197.975
1131.63641	8096.775
1135.2724	7833.175
1138.90589	7635.075
1142.5369	7478.475
1146.16542	7366.675
1149.79145	7313.675
1153.415	7306.875
1157.03607	7340.975
1160.65467	7446.875
1164.27079	7667.175
1167.88443	8003.575
1171.49561	8521.975
1175.10432	9340.075
1178.71056	10341.075
1182.31434	11300.475
1185.91565	11718.775
1189.51451	11610.075
1193.11091	11047.475
1196.70485	10292.675
1200.29634	9730.375
1203.88538	9291.375
1207.47197	8820.475
1211.05612	8470.675
1214.63782	8308.375
1218.21708	8262.475
1221.79391	8395.775
1225.36829	8499.475
1228.94024	8460.475
1232.50976	8325.575
1236.07685	8231.675
1239.6415	8186.675
1243.20374	8221.075
1246.76355	8291.375
1250.32093	8424.475
1253.8759	8648.775
1257.42845	8943.875
1260.97859	9227.675
1264.52631	9510.175
1268.07163	9718.175
1271.61453	9899.575
1275.15503	10137.375
1278.69312	10394.875
1282.22882	10640.675
1285.76211	10839.775
1289.29301	11016.475
1292.82151	11186.175
1296.34761	11481.875
1299.87133	12009.575
1303.39266	12892.375
1306.9116	14167.275
1310.42815	15487.975
1313.94233	16024.075
1317.45412	15540.775
1320.96354	14501.575
1324.47058	13463.175
1327.97525	12658.575
1331.47754	12255.375
1334.97747	12218.775
1338.47502	12399.975
1341.97022	12683.275
1345.46305	13138.775
1348.95352	13688.775
1352.44163	14419.075
1355.92738	15446.975
1359.41078	16890.475
1362.89183	17750.675
1366.37053	16766.575
1369.84688	14464.975
1373.32088	12366.475
1376.79254	11148.675
1380.26186	10590.875
1383.72883	10302.375
1387.19347	10011.875
1390.65578	9652.375
1394.11575	9334.475
1397.57339	9246.475
1401.0287	9261.275
1404.48168	9385.375
1407.93234	9522.075
1411.38068	9719.375
1414.82669	9858.775
1418.27039	9778.975
1421.71177	9600.875
1425.15083	9485.775
1428.58758	9500.575
1432.02203	9709.975
1435.45416	9865.875
1438.88399	9881.175
1442.31151	9844.475
1445.73673	9788.475
1449.15965	9748.775
1452.58027	9596.775
1455.9986	9428.775
1459.41463	9373.975
1462.82837	9463.575
1466.23982	9674.575
1469.64898	9862.675
1473.05586	10038.575
1476.46045	10180.475
1479.86276	10320.575
1483.26279	10417.475
1486.66054	10561.275
1490.05602	10778.775
1493.44922	11128.275
1496.84016	11649.875
1500.22882	12399.775
1503.61521	13406.075
1506.99934	14405.275
1510.38121	15045.075
1513.76081	14849.475
1517.13816	13835.275
1520.51324	12586.575
1523.88607	11625.275
1527.25665	11022.375
1530.62498	10728.175
1533.99105	10546.775
1537.35488	10436.275
1540.71647	10349.975
1544.07581	10272.275
1547.4329	10109.275
1550.78776	9960.075
1554.14038	9834.275
1557.49077	9765.975
1560.83892	9778.875
1564.18484	9873.875
1567.52853	10026.975
1570.86999	10123.675
1574.20922	10112.075
1577.54624	9951.975
1580.88103	9603.975
1584.2136	9271.875
1587.54395	9254.675
1590.87208	9673.675
1594.19801	10528.975
1597.52172	11511.775
1600.84321	12026.875
1604.16251	11837.075
1607.47959	11040.375
1610.79447	10164.975
1614.10715	9287.775
1617.41763	8609.875
1620.7259	8205.475
1624.03199	8029.775
1627.33587	8072.675
1630.63757	8344.675
1633.93707	8874.675
1637.23439	9615.975
1640.52951	10566.575
1643.82246	11642.675
1647.11321	12458.475
1650.40179	12500.475
1653.68819	11459.375
1656.97241	9953.475
1660.25446	8624.275
1663.53433	7773.275
1666.81203	7221.875
1670.08756	6900.175
1673.36092	6710.875
1676.63211	6563.475
1679.90115	6462.975
1683.16801	6380.775
1686.43272	6316.775
1689.69527	6283.775
1692.95567	6258.275
1696.2139	6247.975
1699.46999	6226.675
1702.72392	6234.675
1705.97571	6211.375
1709.22535	6211.275
1712.47284	6227.775
1715.71819	6221.775
1718.96139	6204.375
1722.20246	6195.075
1725.44139	6161.575
1728.67818	6118.775
1731.91284	6090.175
1735.14537	6053.175
1738.37576	6031.575
1741.60403	6013.275
1744.83017	5967.675
1748.05418	5979.575
1751.27607	5975.375
1754.49584	5946.475
1757.71349	5934.975
1760.92903	5926.975
1764.14244	5924.975
1767.35375	5928.575
1770.56294	5922.975
1773.77002	5914.775
1776.97499	5886.175
1780.17785	5886.375
1783.37861	5866.675
1786.57727	5854.975
1789.77382	5850.675
1792.96828	5841.375
1796.16064	5842.375
1799.3509	5829.875
1802.53907	5833.875
1805.72514	5819.075
1808.90913	5814.375
1812.09102	5794.675
1815.27083	5772.975
1818.44856	5758.375
1821.6242	5736.175
1824.79776	5762.475
1827.96924	5718.475
1831.13864	5697.575
1834.30597	5693.275
1837.47122	5688.375
1840.6344	5693.975
1843.7955	5698.475
1846.95454	5677.775
1850.11151	5695.675
1853.26642	5703.975
1856.41926	5707.375
1859.57004	5690.175
1862.71876	5684.775
1865.86542	5679.775
1869.01003	5676.875
1872.15258	5675.675
1875.29308	5684.975
1878.43152	5682.175
1881.56792	5658.975
1884.70227	5664.475
1887.83457	5665.275
1890.96482	5648.475
1894.09304	5640.575
1897.21921	5619.775
1900.34335	5622.175
1903.46544	5606.175
1906.58551	5611.575
1909.70353	5599.975
1912.81953	5607.875
1915.93349	5590.475
1919.04543	5587.775
1922.15534	5577.775
1925.26322	5581.475
1928.36908	5599.275
1931.47292	5570.475
1934.57473	5541.275
1937.67453	5546.175
1940.77232	5518.875
1943.86808	5514.075
1946.96184	5503.775
1950.05358	5487.675
1953.14331	5471.075
1956.23103	5450.175
1959.31675	5429.375
1962.40046	5430.575
1965.48217	5401.875
1968.56188	5392.775
1971.63959	5382.775
1974.7153	5376.975
1977.78901	5354.475
1980.86073	5340.075
1983.93046	5316.375
1986.99819	5307.275
1990.06394	5293.775
1993.1277	5274.175
1996.18947	5252.975
1999.24925	5241.675
2002.30706	5211.575
2005.36288	5188.075
2008.41672	5165.775
2011.46859	5173.875
2014.51848	5157.975
2017.56639	5153.075
2020.61233	5134.675
2023.6563	5128.575
2026.6983	5081.875
2029.73833	5098.975
2032.7764	5084.475
2035.8125	5079.975
2038.84664	5068.575
2041.87881	5071.675
2044.90903	5049.275
2047.93729	5037.375
2050.96359	5041.975
2053.98794	5038.175
2057.01034	5023.975
2060.03078	5032.575
2063.04927	5037.075
2066.06582	5038.075
2069.08042	5024.775
2072.09307	5005.075
2075.10378	4987.375
2078.11255	4988.875
2081.11938	4985.475
2084.12426	4982.475
2087.12722	4992.375
2090.12824	4988.375
2093.12732	4971.675
2096.12447	4979.375
2099.11969	4983.275
2102.11299	4984.875
2105.10435	4972.175
2108.09379	4967.875
2111.08131	4982.075
2114.0669	4980.875
2117.05057	4983.875
2120.03233	4992.275
2123.01216	4987.175
2125.99008	4983.475
2128.96609	5004.375
2131.94018	5000.175
2134.91236	4976.175
2137.88263	4996.175
2140.851	5003.875
2143.81746	5001.775
2146.78201	5003.275
2149.74466	5001.875
2152.7054	5000.175
2155.66425	4983.275
2158.6212	4996.675
2161.57625	4989.975
2164.52941	4974.175
2167.48067	4992.775
2170.43004	4993.975
2173.37752	4989.175
2176.32311	4972.175
2179.26681	5000.475
2182.20863	4978.675
2185.14856	4998.475
2188.08661	4985.675
2191.02278	4987.375
2193.95707	4983.175
2196.88948	4979.975
2199.82001	4982.075
2202.74867	4985.075
2205.67545	4982.475
2208.60037	4978.675
2211.52341	4983.475
2214.44458	4998.175
2217.36388	4987.275
2220.28132	4978.775
2223.1969	4963.675
2226.11061	4914.975
2229.02246	4923.475
2231.93245	4929.475
2234.84058	4915.575
2237.74686	4897.875
2240.65128	4892.075
2243.55385	4881.175
2246.45456	4869.275
2249.35343	4885.775
2252.25044	4858.675
2255.14561	4882.375
2258.03893	4863.375
2260.93041	4848.875
2263.82004	4847.875
2266.70783	4847.675
2269.59378	4828.275
2272.4779	4801.475
2275.36017	4787.775
2278.24061	4769.575
2281.11922	4762.675
2283.996	4763.675
2286.87094	4752.475
2289.74405	4762.375
2292.61534	4758.275
2295.4848	4751.875
2298.35243	4755.875
2301.21824	4746.075
2304.08223	4752.975
2306.94439	4771.175
2309.80474	4768.775
2312.66327	4763.275
2315.51999	4764.675
2318.37489	4763.675
2321.22797	4755.875
2324.07925	4758.075
2326.92871	4745.075
2329.77637	4748.775
2332.62222	4734.875
2335.46626	4733.775
2338.3085	4745.975
2341.14893	4740.475
2343.98756	4754.275
2346.8244	4762.575
2349.65943	4752.175
2352.49267	4753.775
2355.32411	4760.875
2358.15376	4759.475
2360.98161	4750.375
2363.80768	4748.675
2366.63195	4730.075
2369.45444	4729.275
2372.27514	4719.075
2375.09405	4706.375
2377.91118	4695.175
2380.72652	4664.575
2383.54009	4650.575
2386.35187	4650.275
2389.16188	4644.975
2391.97011	4653.475
2394.77657	4630.975
2397.58125	4623.475
2400.38416	4613.575
2403.18529	4602.775
2405.98466	4602.575
2408.78226	4571.575
2411.57809	4563.775
2414.37216	4538.475
2417.16446	4538.975
2419.955	4539.075
2422.74378	4540.475
2425.5308	4509.975
2428.31606	4530.575
2431.09956	4516.975
2433.88131	4506.175
2436.6613	4513.375
2439.43954	4515.275
2442.21603	4520.375
2444.99077	4514.775
2447.76377	4510.775
2450.53501	4508.375
2453.30451	4505.675
2456.07226	4497.575
2458.83827	4497.375
2461.60254	4497.275
2464.36507	4487.875
2467.12586	4482.875
2469.88492	4492.875
2472.64224	4487.275
2475.39782	4476.075
2478.15167	4489.875
2480.90379	4489.175
2483.65417	4504.875
2486.40283	4518.075
2489.14976	4514.275
2491.89497	4524.075
2494.63845	4496.375
2497.3802	4507.975
2500.12024	4504.775
2502.85855	4502.675
2505.59514	4488.375
2508.33002	4487.575
2511.06318	4481.775
2513.79462	4463.375
2516.52435	4455.175
2519.25237	4454.975
2521.97867	4428.175
2524.70327	4439.975
2527.42616	4447.175
2530.14734	4453.575
2532.86681	4444.075
2535.58458	4450.475
2538.30065	4464.375
2541.01501	4439.475
2543.72768	4432.375
2546.43864	4428.675
2549.14791	4445.875
2551.85548	4448.575
2554.56136	4430.475
2557.26554	4403.875
2559.96803	4405.375
2562.66883	4388.475
2565.36794	4397.775
2568.06536	4394.175
2570.7611	4373.075
2573.45514	4383.975
2576.14751	4372.175
2578.83819	4369.075
2581.52719	4365.875
2584.21451	4372.675
2586.90015	4369.675
2589.58411	4372.275
2592.2664	4380.875
2594.94701	4374.175
2597.62594	4361.875
2600.30321	4365.475
2602.9788	4353.475
2605.65273	4348.775
2608.32498	4345.775
2610.99557	4352.075
2613.66449	4353.575
2616.33175	4359.375
2618.99734	4359.275
2621.66128	4356.875
2624.32355	4358.275
2626.98416	4347.675
2629.64311	4358.675
2632.30041	4363.275
2634.95605	4354.575
2637.61004	4334.975
2640.26238	4335.975
2642.91306	4329.875
2645.56209	4316.975
2648.20948	4315.275
2650.85521	4300.375
2653.4993	4306.875
2656.14175	4300.975
2658.78255	4305.675
2661.42171	4295.475
2664.05923	4309.575
2666.6951	4323.375
2669.32934	4317.175
2671.96194	4300.975
2674.59291	4304.475
2677.22224	4311.675
2679.84993	4306.275
2682.476	4297.875
2685.10043	4292.675
2687.72324	4293.175
2690.34441	4290.975
2692.96396	4280.675
2695.58188	4259.775
2698.19818	4259.675
2700.81285	4272.675
2703.4259	4266.475
2706.03733	4269.975
2708.64714	4264.175
2711.25533	4251.075
2713.86191	4241.975
2716.46687	4262.575
2719.07021	4264.875
2721.67194	4264.075
2724.27206	4265.575
2726.87057	4273.775
2729.46747	4265.775
2732.06276	4263.175
2734.65644	4251.475
2737.24852	4256.775
2739.83899	4247.875
2742.42786	4242.975
2745.01513	4242.775
2747.60079	4234.575
2750.18486	4231.075
2752.76733	4237.675
2755.3482	4217.175
2757.92747	4217.875
2760.50515	4217.375
2763.08123	4222.775
2765.65573	4213.575
2768.22863	4182.975
2770.79994	4192.275
2773.36967	4206.075
2775.9378	4213.975
2778.50435	4212.575
2781.06932	4215.875
2783.6327	4207.675
2786.1945	4212.375
2788.75471	4190.875
2791.31335	4189.475
2793.87041	4191.875
2796.42589	4174.975
2798.97979	4163.875
2801.53212	4170.575
2804.08288	4151.075
2806.63206	4146.775
2809.17967	4129.975
2811.72571	4114.575
2814.27018	4126.075
2816.81308	4119.675
2819.35442	4119.175
2821.89419	4110.775
2824.43239	4088.075
2826.96904	4087.675
2829.50412	4081.575
2832.03763	4077.575
2834.56959	4077.975
2837.1	4058.275
2839.62884	4070.575
2842.15613	4064.575
2844.68186	4053.775
2847.20604	4056.875
2849.72867	4054.575
2852.24974	4044.175
2854.76927	4039.775
2857.28724	4023.775
2859.80367	4033.875
2862.31855	4036.375
2864.83189	4022.175
2867.34368	4009.775
2869.85393	4002.875
2872.36264	4010.975
2874.8698	4000.175
2877.37543	4010.075
2879.87952	3995.475
2882.38207	3999.775
2884.88308	4000.875
2887.38256	3979.075
2889.88051	4004.575
2892.37692	3991.075
2894.8718	3974.775
2897.36515	3981.475
2899.85698	3978.675
2902.34727	3989.475
2904.83604	3998.075
2907.32328	4007.775
2909.809	4002.675
2912.29319	4026.575
2914.77587	4019.275
2917.25702	4036.275
2919.73665	4011.475
2922.21476	4006.775
2924.69136	4013.375
2927.16644	3998.475
2929.64	3986.375
2932.11205	3974.975
2934.58258	3961.875
2937.05161	3973.475
2939.51912	3968.675
2941.98513	3968.275
2944.44962	3955.875
2946.91261	3944.875
2949.37409	3954.275
2951.83407	3948.575
2954.29254	3957.075
2956.74951	3945.375
2959.20498	3934.275
2961.65895	3935.875
2964.11142	3926.075
2966.56239	3912.375
2969.01186	3908.475
2971.45984	3898.575
2973.90632	3914.775
2976.35131	3910.575
2978.7948	3894.275
2981.23681	3865.975
2983.67732	3876.475
2986.11635	3863.075
2988.55388	3851.075
2990.98993	3841.475
2993.4245	3837.475
2995.85758	3822.575
2998.28917	3822.175
3000.71928	3810.575
3003.14791	3804.075
3005.57506	3803.275
3008.00073	3777.275
3010.42493	3760.875
3012.84764	3768.275
3015.26888	3771.875
3017.68865	3747.475
3020.10694	3743.275
3022.52376	3716.375
3024.9391	3724.875
3027.35298	3703.575
3029.76539	3697.675
3032.17632	3694.875
3034.5858	3694.575
3036.9938	3680.575
3039.40034	3679.175
3041.80542	3665.675
3044.20903	3661.075
3046.61118	3680.475
3049.01187	3660.975
3051.4111	3649.675
3053.80888	3648.175
3056.20519	3624.775
3058.60005	3631.075
3060.99345	3609.875
3063.3854	3605.475
3065.7759	3585.275
3068.16494	3591.275
3070.55254	3564.875
3072.93868	3552.675
3075.32338	3546.175
3077.70662	3555.975
3080.08842	3525.175
3082.46878	3542.475
3084.84769	3519.975
3087.22515	3522.275
3089.60118	3509.875
3091.97576	3521.075
3094.3489	3499.375
3096.72061	3518.375
3099.09087	3512.275
3101.4597	3502.175
3103.82709	3487.275
3106.19305	3475.875
3108.55757	3492.975
3110.92066	3472.675
3113.28232	3484.675
3115.64255	3465.475
3118.00134	3459.075
3120.35871	3453.375
3122.71466	3446.275
3125.06917	3440.075
3127.42226	3433.075
3129.77393	3433.775
3132.12417	3432.275
3134.47299	3435.775
3136.82039	3411.375
3139.16636	3414.075
3141.51092	3402.975
3143.85406	3408.975
3146.19579	3390.875
3148.53609	3404.375
3150.87499	3403.475
3153.21246	3407.475
3155.54853	3407.475
3157.88318	3402.475
3160.21642	3401.175
3162.54826	3391.775
3164.87868	3397.175
3167.2077	3374.275
3169.5353	3382.575
3171.86151	3381.775
3174.18631	3370.775
3176.5097	3371.375
3178.83169	3371.275
3181.15228	3384.475
3183.47147	3337.875
3185.78926	3356.175
3188.10565	3332.975
3190.42065	3331.275
3192.73424	3345.475
3195.04645	3331.875
3197.35725	3329.575
3199.66667	3325.975
3201.97469	3332.075
3204.28132	3333.175
3206.58656	3324.475
3208.8904	3329.975
3211.19287	3331.775
3213.49394	3332.975
3215.79363	3335.475
3218.09193	3311.075
3220.38884	3320.775
3222.68438	3323.075
3224.97853	3315.375
3227.2713	3315.975
3229.56269	3306.575
3231.8527	3289.875
