Data from AgNPs_UA_10uM_CRN_500uM_SU_RamanShift__129__13-26-50-279.txt Node

Date: Thu Aug 04 13:26:50 BST 2022
User: TCL
Spectrometer: QEP01345
Trigger mode: 4
Integration Time (sec): 1.000000E0
Scans to average: 10
Electric dark correction enabled: true
Nonlinearity correction enabled: false
Boxcar width: 0
XAxis mode: Raman Shifts
Number of Pixels in Spectrum: 1044
>>>>>Begin Spectral Data<<<<<
46.04893	-0.3125
50.45542	-1.5125
54.85868	0.3875
59.25871	0.0875
63.6555	19.7875
68.04907	21.6875
72.43941	23.0875
76.82654	23.2875
81.21044	21.8875
85.59113	25.1875
89.96862	28.0875
94.34289	27.0875
98.71396	28.5875
103.08183	29.1875
107.4465	30.5875
111.80798	29.6875
116.16626	32.9875
120.52136	34.2875
124.87327	34.5875
129.222	39.0875
133.56755	38.4875
137.90993	41.9875
142.24913	48.4875
146.58517	53.7875
150.91804	61.9875
155.24774	79.7875
159.57429	96.6875
163.89768	131.6875
168.21792	172.9875
172.53501	235.9875
176.84895	335.5875
181.15975	478.8875
185.46741	674.3875
189.77193	926.8875
194.07331	1262.1875
198.37157	1616.4875
202.6667	1997.7875
206.9587	2372.0875
211.24758	2760.5875
215.53334	3140.3875
219.81599	3552.1875
224.09553	4008.7875
228.37195	4521.2875
232.64527	5052.4875
236.91549	5596.6875
241.18261	6080.9875
245.44663	6479.3875
249.70755	6803.6875
253.96539	7081.0875
258.22014	7372.6875
262.4718	7583.9875
266.72039	7739.9875
270.96589	7782.1875
275.20832	7742.1875
279.44768	7637.6875
283.68397	7528.5875
287.91719	7414.0875
292.14735	7453.0875
296.37445	7560.4875
300.59849	7772.8875
304.81948	8053.6875
309.03742	8272.2875
313.25231	8394.4875
317.46415	8295.3875
321.67296	8008.1875
325.87872	7715.5875
330.08145	7567.6875
334.28114	7559.3875
338.47781	7641.9875
342.67145	7799.7875
346.86207	7999.6875
351.04966	8325.2875
355.23424	8616.6875
359.4158	8885.3875
363.59435	8967.7875
367.76989	9071.8875
371.94243	9047.3875
376.11196	9035.4875
380.27849	9022.6875
384.44203	9038.7875
388.60257	9075.8875
392.76012	9137.3875
396.91468	9260.5875
401.06626	9413.4875
405.21485	9471.8875
409.36047	9374.0875
413.50311	9062.7875
417.64277	8800.0875
421.77947	8630.7875
425.9132	8582.9875
430.04396	8583.5875
434.17176	8635.7875
438.2966	8764.2875
442.41849	8996.3875
446.53742	9202.6875
450.6534	9430.3875
454.76644	9585.3875
458.87653	9608.1875
462.98368	9573.2875
467.08789	9428.7875
471.18916	9262.6875
475.2875	9037.5875
479.38291	8864.1875
483.4754	8742.0875
487.56496	8652.0875
491.6516	8612.3875
495.73531	8590.0875
499.81612	8631.3875
503.89401	8705.6875
507.96899	8767.7875
512.04106	8774.8875
516.11023	8876.7875
520.1765	8908.5875
524.23987	8931.8875
528.30034	8948.8875
532.35792	8915.0875
536.41261	8823.2875
540.46441	8709.4875
544.51333	8658.9875
548.55936	8747.6875
552.60252	8899.5875
556.64279	9021.0875
560.6802	9162.0875
564.71473	9224.1875
568.7464	9348.3875
572.7752	9330.3875
576.80114	9154.6875
580.82422	9008.0875
584.84444	8995.0875
588.86181	9084.5875
592.87633	9219.8875
596.888	9406.1875
600.89682	9774.6875
604.9028	10855.7875
608.90594	13057.7875
612.90624	15129.4875
616.90371	13873.5875
620.89834	10881.9875
624.89015	9732.8875
628.87913	9654.7875
632.86528	9739.5875
636.84862	9676.3875
640.82913	9397.9875
644.80683	9022.3875
648.78172	8840.6875
652.75379	8860.2875
656.72306	9160.6875
660.68952	9461.4875
664.65319	9390.5875
668.61405	9254.3875
672.57211	9284.9875
676.52738	9253.1875
680.47986	9086.6875
684.42955	8916.9875
688.37646	8900.7875
692.32058	9007.1875
696.26192	9169.2875
700.20048	9323.7875
704.13626	9326.2875
708.06928	9206.2875
711.99952	9101.1875
715.927	9100.9875
719.85171	9187.0875
723.77365	9197.9875
727.69284	9091.7875
731.60928	9008.8875
735.52295	9024.7875
739.43388	9095.6875
743.34206	9127.1875
747.24749	9160.8875
751.15017	9176.7875
755.05012	9289.9875
758.94733	9662.0875
762.8418	10433.3875
766.73354	11637.2875
770.62254	12630.7875
774.50882	12808.8875
778.39237	12283.6875
782.27321	11370.1875
786.15132	10402.2875
790.02671	9754.9875
793.89938	9438.7875
797.76935	9300.4875
801.6366	9219.1875
805.50115	9154.2875
809.36299	9106.7875
813.22213	9109.7875
817.07857	9106.9875
820.93231	9084.8875
824.78336	9075.6875
828.63172	9090.2875
832.47738	9136.6875
836.32036	9128.7875
840.16066	9136.2875
843.99827	9153.2875
847.8332	9139.2875
851.66546	9127.1875
855.49504	9102.2875
859.32195	9132.8875
863.1462	9122.6875
866.96777	9092.4875
870.78668	9097.1875
874.60293	9120.2875
878.41652	9160.5875
882.22745	9263.3875
886.03573	9289.5875
889.84136	9305.3875
893.64433	9248.5875
897.44466	9183.9875
901.24235	9161.3875
905.0374	9179.6875
908.8298	9128.6875
912.61957	9130.4875
916.40671	9148.2875
920.19121	9198.1875
923.97308	9293.8875
927.75233	9429.3875
931.52895	9496.5875
935.30295	9425.5875
939.07433	9250.3875
942.84309	9093.8875
946.60924	9098.1875
950.37278	9061.4875
954.13371	9023.3875
957.89203	9000.2875
961.64774	8964.7875
965.40086	8949.1875
969.15137	8934.4875
972.89929	8945.8875
976.64461	8942.6875
980.38733	8963.2875
984.12747	9018.4875
987.86502	9076.2875
991.59999	9156.8875
995.33237	9310.0875
999.06217	9544.4875
1002.78939	9799.0875
1006.51404	9942.4875
1010.23611	10021.3875
1013.95561	10138.7875
1017.67255	10208.8875
1021.38692	10211.9875
1025.09872	10197.7875
1028.80796	10279.1875
1032.51465	10483.0875
1036.21877	10639.2875
1039.92035	10629.1875
1043.61937	10517.7875
1047.31584	10303.8875
1051.00976	10109.4875
1054.70114	10060.2875
1058.38998	10037.1875
1062.07627	10066.1875
1065.76003	10061.6875
1069.44126	10104.4875
1073.11995	10258.1875
1076.79611	10414.4875
1080.46974	10564.1875
1084.14085	10690.9875
1087.80943	10774.6875
1091.47549	10801.0875
1095.13903	10707.5875
1098.80005	10610.3875
1102.45857	10631.6875
1106.11456	10608.8875
1109.76805	10565.4875
1113.41903	10604.6875
1117.06751	10760.5875
1120.71348	10957.1875
1124.35696	11187.9875
1127.99793	11309.0875
1131.63641	11145.0875
1135.2724	10830.7875
1138.90589	10589.4875
1142.5369	10392.2875
1146.16542	10266.6875
1149.79145	10158.9875
1153.415	10159.1875
1157.03607	10153.6875
1160.65467	10291.6875
1164.27079	10533.5875
1167.88443	10922.4875
1171.49561	11542.6875
1175.10432	12409.5875
1178.71056	13528.5875
1182.31434	14491.9875
1185.91565	14895.8875
1189.51451	14767.6875
1193.11091	14352.9875
1196.70485	13793.1875
1200.29634	13254.9875
1203.88538	12767.0875
1207.47197	12254.2875
1211.05612	11783.9875
1214.63782	11437.5875
1218.21708	11275.6875
1221.79391	11255.6875
1225.36829	11348.6875
1228.94024	11322.1875
1232.50976	11182.4875
1236.07685	11127.2875
1239.6415	11117.0875
1243.20374	11152.8875
1246.76355	11212.4875
1250.32093	11374.3875
1253.8759	11581.3875
1257.42845	11922.2875
1260.97859	12231.7875
1264.52631	12591.1875
1268.07163	12859.3875
1271.61453	13098.1875
1275.15503	13260.4875
1278.69312	13418.6875
1282.22882	13562.8875
1285.76211	13762.0875
1289.29301	13908.5875
1292.82151	14162.0875
1296.34761	14467.4875
1299.87133	15033.8875
1303.39266	15996.3875
1306.9116	17366.9875
1310.42815	18834.8875
1313.94233	19509.0875
1317.45412	18976.6875
1320.96354	17903.9875
1324.47058	16715.3875
1327.97525	15777.7875
1331.47754	15214.8875
1334.97747	15000.2875
1338.47502	15193.4875
1341.97022	15645.4875
1345.46305	16360.3875
1348.95352	17311.2875
1352.44163	18395.6875
1355.92738	19618.5875
1359.41078	21179.2875
1362.89183	22220.6875
1366.37053	21123.8875
1369.84688	18353.0875
1373.32088	15791.9875
1376.79254	14335.1875
1380.26186	13687.6875
1383.72883	13310.5875
1387.19347	12960.8875
1390.65578	12554.6875
1394.11575	12214.3875
1397.57339	12011.3875
1401.0287	11998.6875
1404.48168	12054.2875
1407.93234	12155.3875
1411.38068	12368.9875
1414.82669	12476.8875
1418.27039	12526.3875
1421.71177	12433.2875
1425.15083	12330.7875
1428.58758	12291.5875
1432.02203	12462.8875
1435.45416	12580.2875
1438.88399	12639.3875
1442.31151	12568.1875
1445.73673	12534.3875
1449.15965	12490.0875
1452.58027	12409.7875
1455.9986	12343.1875
1459.41463	12287.8875
1462.82837	12390.9875
1466.23982	12586.5875
1469.64898	12816.1875
1473.05586	12988.0875
1476.46045	13156.4875
1479.86276	13273.9875
1483.26279	13439.2875
1486.66054	13648.7875
1490.05602	13977.5875
1493.44922	14493.2875
1496.84016	15228.3875
1500.22882	16311.9875
1503.61521	17687.5875
1506.99934	19070.6875
1510.38121	19900.9875
1513.76081	19654.1875
1517.13816	18345.0875
1520.51324	16589.5875
1523.88607	15165.1875
1527.25665	14319.5875
1530.62498	13877.9875
1533.99105	13621.2875
1537.35488	13503.8875
1540.71647	13370.2875
1544.07581	13233.1875
1547.4329	13122.2875
1550.78776	13006.2875
1554.14038	12861.1875
1557.49077	12883.0875
1560.83892	12993.6875
1564.18484	13254.1875
1567.52853	13491.3875
1570.86999	13633.3875
1574.20922	13612.6875
1577.54624	13434.1875
1580.88103	12933.3875
1584.2136	12450.0875
1587.54395	12257.9875
1590.87208	12555.5875
1594.19801	13254.8875
1597.52172	14102.5875
1600.84321	14435.2875
1604.16251	14232.4875
1607.47959	13694.1875
1610.79447	13009.6875
1614.10715	12262.5875
1617.41763	11563.1875
1620.7259	11090.2875
1624.03199	10841.7875
1627.33587	10847.7875
1630.63757	11121.0875
1633.93707	11648.2875
1637.23439	12507.3875
1640.52951	13676.0875
1643.82246	15005.6875
1647.11321	16211.7875
1650.40179	16467.7875
1653.68819	15405.1875
1656.97241	13545.5875
1660.25446	11840.0875
1663.53433	10706.5875
1666.81203	10047.2875
1670.08756	9627.1875
1673.36092	9406.5875
1676.63211	9236.0875
1679.90115	9119.5875
1683.16801	9009.6875
1686.43272	8934.2875
1689.69527	8878.4875
1692.95567	8843.5875
1696.2139	8799.1875
1699.46999	8780.7875
1702.72392	8764.8875
1705.97571	8766.6875
1709.22535	8756.0875
1712.47284	8757.1875
1715.71819	8767.3875
1718.96139	8758.0875
1722.20246	8718.2875
1725.44139	8693.1875
1728.67818	8638.5875
1731.91284	8610.1875
1735.14537	8552.9875
1738.37576	8523.5875
1741.60403	8491.5875
1744.83017	8476.8875
1748.05418	8469.5875
1751.27607	8437.4875
1754.49584	8423.3875
1757.71349	8438.1875
1760.92903	8412.6875
1764.14244	8388.5875
1767.35375	8347.0875
1770.56294	8374.0875
1773.77002	8365.3875
1776.97499	8319.9875
1780.17785	8301.4875
1783.37861	8273.4875
1786.57727	8261.6875
1789.77382	8267.7875
1792.96828	8269.3875
1796.16064	8246.3875
1799.3509	8232.3875
1802.53907	8227.6875
1805.72514	8192.7875
1808.90913	8192.9875
1812.09102	8174.9875
1815.27083	8147.5875
1818.44856	8102.4875
1821.6242	8096.5875
1824.79776	8091.3875
1827.96924	8069.3875
1831.13864	8081.9875
1834.30597	8042.7875
1837.47122	8048.3875
1840.6344	8026.4875
1843.7955	8034.8875
1846.95454	8019.5875
1850.11151	8031.6875
1853.26642	8006.8875
1856.41926	8025.3875
1859.57004	8017.3875
1862.71876	8043.5875
1865.86542	8019.7875
1869.01003	8004.9875
1872.15258	8009.0875
1875.29308	7987.8875
1878.43152	7982.2875
1881.56792	7958.1875
1884.70227	7961.1875
1887.83457	7934.4875
1890.96482	7919.4875
1894.09304	7906.2875
1897.21921	7908.0875
1900.34335	7897.5875
1903.46544	7876.9875
1906.58551	7884.5875
1909.70353	7882.5875
1912.81953	7888.6875
1915.93349	7870.5875
1919.04543	7823.7875
1922.15534	7853.6875
1925.26322	7836.8875
1928.36908	7815.0875
1931.47292	7779.3875
1934.57473	7766.1875
1937.67453	7767.8875
1940.77232	7757.7875
1943.86808	7740.9875
1946.96184	7693.6875
1950.05358	7680.7875
1953.14331	7686.0875
1956.23103	7653.5875
1959.31675	7610.9875
1962.40046	7589.4875
1965.48217	7568.7875
1968.56188	7542.6875
1971.63959	7537.7875
1974.7153	7510.2875
1977.78901	7510.0875
1980.86073	7497.8875
1983.93046	7440.7875
1986.99819	7425.5875
1990.06394	7412.1875
1993.1277	7397.8875
1996.18947	7327.2875
1999.24925	7319.5875
2002.30706	7308.6875
2005.36288	7281.5875
2008.41672	7263.5875
2011.46859	7243.3875
2014.51848	7217.0875
2017.56639	7186.7875
2020.61233	7177.0875
2023.6563	7154.0875
2026.6983	7134.4875
2029.73833	7147.1875
2032.7764	7107.8875
2035.8125	7091.5875
2038.84664	7076.3875
2041.87881	7081.2875
2044.90903	7062.6875
2047.93729	7040.3875
2050.96359	7033.2875
2053.98794	7012.3875
2057.01034	7017.6875
2060.03078	7023.1875
2063.04927	7011.9875
2066.06582	7000.6875
2069.08042	6997.7875
2072.09307	6983.7875
2075.10378	6982.4875
2078.11255	6961.9875
2081.11938	6969.1875
2084.12426	6937.2875
2087.12722	6950.7875
2090.12824	6940.3875
2093.12732	6964.2875
2096.12447	6936.2875
2099.11969	6950.9875
2102.11299	6955.8875
2105.10435	6962.9875
2108.09379	6966.2875
2111.08131	6955.7875
2114.0669	6973.0875
2117.05057	6988.6875
2120.03233	6992.3875
2123.01216	6980.4875
2125.99008	6994.6875
2128.96609	6978.2875
2131.94018	6975.7875
2134.91236	7006.7875
2137.88263	6980.1875
2140.851	6970.4875
2143.81746	6993.8875
2146.78201	6975.8875
2149.74466	6971.7875
2152.7054	7010.9875
2155.66425	6990.6875
2158.6212	6986.5875
2161.57625	6975.2875
2164.52941	6956.7875
2167.48067	6965.1875
2170.43004	6957.0875
2173.37752	6934.1875
2176.32311	6941.3875
2179.26681	6954.1875
2182.20863	6966.1875
2185.14856	6993.0875
2188.08661	6948.1875
2191.02278	6958.5875
2193.95707	6959.3875
2196.88948	6971.1875
2199.82001	6956.8875
2202.74867	6949.5875
2205.67545	6951.3875
2208.60037	6953.6875
2211.52341	6917.8875
2214.44458	6921.5875
2217.36388	6907.8875
2220.28132	6894.1875
2223.1969	6868.8875
2226.11061	6856.6875
2229.02246	6837.4875
2231.93245	6842.2875
2234.84058	6817.6875
2237.74686	6812.1875
2240.65128	6804.9875
2243.55385	6801.4875
2246.45456	6783.2875
2249.35343	6771.9875
2252.25044	6759.0875
2255.14561	6757.0875
2258.03893	6751.2875
2260.93041	6747.3875
2263.82004	6730.7875
2266.70783	6726.6875
2269.59378	6698.1875
2272.4779	6663.7875
2275.36017	6657.8875
2278.24061	6652.9875
2281.11922	6634.3875
2283.996	6616.1875
2286.87094	6594.9875
2289.74405	6611.5875
2292.61534	6600.3875
2295.4848	6564.7875
2298.35243	6570.5875
2301.21824	6605.0875
2304.08223	6578.3875
2306.94439	6573.6875
2309.80474	6576.5875
2312.66327	6586.1875
2315.51999	6570.0875
2318.37489	6566.4875
2321.22797	6558.4875
2324.07925	6521.6875
2326.92871	6542.2875
2329.77637	6523.9875
2332.62222	6523.5875
2335.46626	6510.7875
2338.3085	6522.7875
2341.14893	6510.7875
2343.98756	6538.0875
2346.8244	6537.0875
2349.65943	6517.3875
2352.49267	6497.3875
2355.32411	6503.3875
2358.15376	6520.3875
2360.98161	6504.9875
2363.80768	6498.9875
2366.63195	6508.5875
2369.45444	6479.8875
2372.27514	6469.8875
2375.09405	6443.7875
2377.91118	6446.9875
2380.72652	6430.6875
2383.54009	6410.0875
2386.35187	6396.2875
2389.16188	6375.7875
2391.97011	6364.0875
2394.77657	6354.0875
2397.58125	6329.5875
2400.38416	6345.8875
2403.18529	6313.9875
2405.98466	6307.6875
2408.78226	6304.8875
2411.57809	6285.8875
2414.37216	6263.6875
2417.16446	6265.3875
2419.955	6257.9875
2422.74378	6267.5875
2425.5308	6232.6875
2428.31606	6253.4875
2431.09956	6232.9875
2433.88131	6228.9875
2436.6613	6229.6875
2439.43954	6209.6875
2442.21603	6216.6875
2444.99077	6220.6875
2447.76377	6213.9875
2450.53501	6200.9875
2453.30451	6210.6875
2456.07226	6185.9875
2458.83827	6199.8875
2461.60254	6157.7875
2464.36507	6147.4875
2467.12586	6166.8875
2469.88492	6163.6875
2472.64224	6171.2875
2475.39782	6172.5875
2478.15167	6148.6875
2480.90379	6149.3875
2483.65417	6151.5875
2486.40283	6142.7875
2489.14976	6174.0875
2491.89497	6154.3875
2494.63845	6160.7875
2497.3802	6163.3875
2500.12024	6157.4875
2502.85855	6128.9875
2505.59514	6144.8875
2508.33002	6143.7875
2511.06318	6111.7875
2513.79462	6090.3875
2516.52435	6078.3875
2519.25237	6085.2875
2521.97867	6074.6875
2524.70327	6078.0875
2527.42616	6054.2875
2530.14734	6034.6875
2532.86681	6033.7875
2535.58458	6051.3875
2538.30065	6055.3875
2541.01501	6043.4875
2543.72768	6027.4875
2546.43864	6042.7875
2549.14791	6016.5875
2551.85548	6021.5875
2554.56136	6008.6875
2557.26554	6005.0875
2559.96803	5989.6875
2562.66883	5972.5875
2565.36794	5965.7875
2568.06536	5953.8875
2570.7611	5937.5875
2573.45514	5932.2875
2576.14751	5916.8875
2578.83819	5938.3875
2581.52719	5922.1875
2584.21451	5912.6875
2586.90015	5914.1875
2589.58411	5888.7875
2592.2664	5881.0875
2594.94701	5883.4875
2597.62594	5881.3875
2600.30321	5865.1875
2602.9788	5876.6875
2605.65273	5883.5875
2608.32498	5857.7875
2610.99557	5850.5875
2613.66449	5821.0875
2616.33175	5843.6875
2618.99734	5830.6875
2621.66128	5834.9875
2624.32355	5832.6875
2626.98416	5830.3875
2629.64311	5830.0875
2632.30041	5806.1875
2634.95605	5805.3875
2637.61004	5807.3875
2640.26238	5801.8875
2642.91306	5795.8875
2645.56209	5786.6875
2648.20948	5773.4875
2650.85521	5761.9875
2653.4993	5752.3875
2656.14175	5772.6875
2658.78255	5751.1875
2661.42171	5751.4875
2664.05923	5775.8875
2666.6951	5784.9875
2669.32934	5774.2875
2671.96194	5788.3875
2674.59291	5776.5875
2677.22224	5782.9875
2679.84993	5764.8875
2682.476	5769.1875
2685.10043	5773.7875
2687.72324	5766.0875
2690.34441	5765.9875
2692.96396	5752.9875
2695.58188	5749.5875
2698.19818	5750.8875
2700.81285	5755.7875
2703.4259	5732.5875
2706.03733	5726.4875
2708.64714	5711.5875
2711.25533	5728.1875
2713.86191	5711.0875
2716.46687	5725.5875
2719.07021	5726.3875
2721.67194	5725.8875
2724.27206	5729.0875
2726.87057	5738.5875
2729.46747	5716.8875
2732.06276	5726.8875
2734.65644	5714.9875
2737.24852	5720.9875
2739.83899	5681.2875
2742.42786	5677.1875
2745.01513	5667.9875
2747.60079	5665.2875
2750.18486	5670.4875
2752.76733	5671.1875
2755.3482	5649.4875
2757.92747	5663.2875
2760.50515	5637.4875
2763.08123	5638.4875
2765.65573	5628.0875
2768.22863	5612.5875
2770.79994	5615.1875
2773.36967	5610.7875
2775.9378	5595.0875
2778.50435	5580.4875
2781.06932	5595.0875
2783.6327	5608.8875
2786.1945	5605.6875
2788.75471	5579.0875
2791.31335	5564.4875
2793.87041	5582.9875
2796.42589	5562.6875
2798.97979	5542.5875
2801.53212	5516.9875
2804.08288	5515.8875
2806.63206	5494.0875
2809.17967	5490.0875
2811.72571	5488.9875
2814.27018	5487.2875
2816.81308	5472.2875
2819.35442	5469.7875
2821.89419	5443.1875
2824.43239	5453.2875
2826.96904	5434.6875
2829.50412	5441.1875
2832.03763	5418.5875
2834.56959	5418.0875
2837.1	5397.9875
2839.62884	5393.4875
2842.15613	5400.5875
2844.68186	5399.1875
2847.20604	5388.6875
2849.72867	5395.1875
2852.24974	5360.5875
2854.76927	5351.6875
2857.28724	5343.1875
2859.80367	5344.1875
2862.31855	5343.6875
2864.83189	5340.7875
2867.34368	5335.6875
2869.85393	5338.1875
2872.36264	5311.1875
2874.8698	5312.7875
2877.37543	5310.0875
2879.87952	5310.1875
2882.38207	5307.6875
2884.88308	5291.9875
2887.38256	5314.3875
2889.88051	5302.8875
2892.37692	5282.5875
2894.8718	5296.2875
2897.36515	5279.9875
2899.85698	5270.1875
2902.34727	5285.7875
2904.83604	5308.1875
2907.32328	5320.2875
2909.809	5306.6875
2912.29319	5330.8875
2914.77587	5329.0875
2917.25702	5318.6875
2919.73665	5320.0875
2922.21476	5305.3875
2924.69136	5298.8875
2927.16644	5292.5875
2929.64	5284.4875
2932.11205	5261.1875
2934.58258	5245.7875
2937.05161	5256.0875
2939.51912	5253.1875
2941.98513	5250.8875
2944.44962	5236.6875
2946.91261	5241.7875
2949.37409	5235.5875
2951.83407	5229.7875
2954.29254	5230.4875
2956.74951	5211.3875
2959.20498	5226.0875
2961.65895	5220.5875
2964.11142	5225.3875
2966.56239	5200.1875
2969.01186	5199.5875
2971.45984	5202.2875
2973.90632	5190.0875
2976.35131	5166.7875
2978.7948	5168.0875
2981.23681	5160.3875
2983.67732	5148.8875
2986.11635	5137.1875
2988.55388	5116.8875
2990.98993	5106.3875
2993.4245	5082.6875
2995.85758	5077.3875
2998.28917	5075.3875
3000.71928	5072.6875
3003.14791	5045.0875
3005.57506	5029.3875
3008.00073	5021.2875
3010.42493	5004.4875
3012.84764	5008.7875
3015.26888	4985.7875
3017.68865	4998.4875
3020.10694	4991.1875
3022.52376	4962.3875
3024.9391	4936.7875
3027.35298	4937.1875
3029.76539	4926.2875
3032.17632	4916.1875
3034.5858	4913.6875
3036.9938	4889.8875
3039.40034	4888.5875
3041.80542	4881.7875
3044.20903	4871.3875
3046.61118	4858.7875
3049.01187	4859.6875
3051.4111	4837.9875
3053.80888	4825.2875
3056.20519	4811.6875
3058.60005	4807.0875
3060.99345	4791.9875
3063.3854	4796.9875
3065.7759	4779.3875
3068.16494	4765.2875
3070.55254	4729.8875
3072.93868	4726.3875
3075.32338	4707.4875
3077.70662	4703.3875
3080.08842	4700.6875
3082.46878	4698.3875
3084.84769	4678.5875
3087.22515	4677.8875
3089.60118	4670.3875
3091.97576	4670.9875
3094.3489	4646.3875
3096.72061	4641.4875
3099.09087	4644.5875
3101.4597	4656.8875
3103.82709	4645.1875
3106.19305	4653.6875
