Data from AgNPs_UA_5uM_CRN_500uM_SU_RamanShift__192__12-01-23-178.txt Node

Date: Thu Aug 04 12:01:23 BST 2022
User: TCL
Spectrometer: QEP01345
Trigger mode: 4
Integration Time (sec): 1.000000E0
Scans to average: 10
Electric dark correction enabled: true
Nonlinearity correction enabled: false
Boxcar width: 0
XAxis mode: Raman Shifts
Number of Pixels in Spectrum: 1044
>>>>>Begin Spectral Data<<<<<
46.04893	-0.9
50.45542	-1.2
54.85868	1.1
59.25871	0.1
63.6555	-57.9
68.04907	-39.5
72.43941	-73.7
76.82654	-55.7
81.21044	-57
85.59113	-47.8
89.96862	-76.3
94.34289	-56.2
98.71396	-77.1
103.08183	-59.6
107.4465	-49.3
111.80798	-56.3
116.16626	-44.6
120.52136	-76.4
124.87327	-49.7
129.222	-61.2
133.56755	-51
137.90993	-62.1
142.24913	-50.1
146.58517	-42.6
150.91804	-40.5
155.24774	-29.9
159.57429	-7.8
163.89768	-5.1
168.21792	37.7
172.53501	60.4
176.84895	141.5
181.15975	272.9
185.46741	421.7
189.77193	606.6
194.07331	897.6
198.37157	1182.1
202.6667	1468.8
206.9587	1786
211.24758	2096.7
215.53334	2427.9
219.81599	2790.3
224.09553	3196
228.37195	3633.1
232.64527	4104.8
236.91549	4580
241.18261	4923.3
245.44663	5204.8
249.70755	5381.3
253.96539	5512.3
258.22014	5608.3
262.4718	5690.1
266.72039	5721.3
270.96589	5692.8
275.20832	5603.3
279.44768	5495.5
283.68397	5359.7
287.91719	5316.2
292.14735	5354.6
296.37445	5497.4
300.59849	5803.4
304.81948	6146.8
309.03742	6525
313.25231	6764.7
317.46415	6708.3
321.67296	6319
325.87872	5920.7
330.08145	5709.4
334.28114	5681.4
338.47781	5738.2
342.67145	5889.2
346.86207	6108.8
351.04966	6482.8
355.23424	6873.2
359.4158	7159.6
363.59435	7195.5
367.76989	7108
371.94243	6978.5
376.11196	6865.3
380.27849	6790.1
384.44203	6729.5
388.60257	6675.3
392.76012	6710.9
396.91468	6810.8
401.06626	6983.7
405.21485	6999.3
409.36047	6823.1
413.50311	6519.1
417.64277	6249.8
421.77947	6011.7
425.9132	5935.1
430.04396	5932.2
434.17176	5969.3
438.2966	6055.3
442.41849	6158.4
446.53742	6270.1
450.6534	6389.9
454.76644	6446
458.87653	6458.6
462.98368	6434.1
467.08789	6349.5
471.18916	6266.1
475.2875	6155.4
479.38291	6047.5
483.4754	5960.8
487.56496	5901
491.6516	5868.9
495.73531	5879.2
499.81612	5909.9
503.89401	6013.1
507.96899	6047.9
512.04106	6143.4
516.11023	6240.2
520.1765	6318
524.23987	6360.5
528.30034	6340.7
532.35792	6269.8
536.41261	6219.9
540.46441	6111.6
544.51333	6065.5
548.55936	6108
552.60252	6251.4
556.64279	6352.3
560.6802	6474.5
564.71473	6613.1
568.7464	6796.5
572.7752	6773.8
576.80114	6459
580.82422	6199
584.84444	6120.7
588.86181	6089.7
592.87633	6125
596.888	6261.6
600.89682	6635.3
604.9028	7570.5
608.90594	9698
612.90624	12035.2
616.90371	11187.2
620.89834	8096.7
624.89015	6781.7
628.87913	6567.9
632.86528	6705.2
636.84862	6882.6
640.82913	6754.9
644.80683	6406.8
648.78172	6210.8
652.75379	6253.6
656.72306	6483.3
660.68952	6742.8
664.65319	6656.8
668.61405	6396.1
672.57211	6337.2
676.52738	6305.7
680.47986	6228.9
684.42955	6128.7
688.37646	6091.9
692.32058	6117.2
696.26192	6177
700.20048	6263.2
704.13626	6308.1
708.06928	6266.9
711.99952	6224.7
715.927	6201.5
719.85171	6238.3
723.77365	6310
727.69284	6275.1
731.60928	6262.2
735.52295	6228.4
739.43388	6268.1
743.34206	6294.9
747.24749	6306.1
751.15017	6305.3
755.05012	6382.1
758.94733	6773.7
762.8418	7605.4
766.73354	8944.4
770.62254	9936.1
774.50882	10044.4
778.39237	9526.7
782.27321	8592.1
786.15132	7551.9
790.02671	6865.3
793.89938	6485.4
797.76935	6368
801.6366	6274.7
805.50115	6244.4
809.36299	6205.6
813.22213	6213.6
817.07857	6233.6
820.93231	6233.8
824.78336	6242.2
828.63172	6259.9
832.47738	6254.1
836.32036	6251.8
840.16066	6232.2
843.99827	6218.4
847.8332	6230.1
851.66546	6227.2
855.49504	6224.2
859.32195	6253.1
863.1462	6246
866.96777	6254.3
870.78668	6236
874.60293	6268.5
878.41652	6303.1
882.22745	6358.3
886.03573	6397.5
889.84136	6391.1
893.64433	6384.9
897.44466	6365.8
901.24235	6358.9
905.0374	6376.8
908.8298	6294.7
912.61957	6266.4
916.40671	6209.5
920.19121	6283.1
923.97308	6371.7
927.75233	6430.8
931.52895	6487.7
935.30295	6440
939.07433	6323.6
942.84309	6195.1
946.60924	6157.1
950.37278	6118.2
954.13371	6125.1
957.89203	6112.9
961.64774	6150.6
965.40086	6122.9
969.15137	6098.5
972.89929	6123.3
976.64461	6105.7
980.38733	6132.7
984.12747	6128.9
987.86502	6165.7
991.59999	6184.1
995.33237	6253.5
999.06217	6324.1
1002.78939	6390.6
1006.51404	6531.2
1010.23611	6651
1013.95561	6693.7
1017.67255	6716.6
1021.38692	6701.4
1025.09872	6609.1
1028.80796	6544.2
1032.51465	6526.6
1036.21877	6496.5
1039.92035	6563.1
1043.61937	6592.8
1047.31584	6661
1051.00976	6682.9
1054.70114	6683
1058.38998	6677.2
1062.07627	6683.5
1065.76003	6725.8
1069.44126	6808
1073.11995	6868.6
1076.79611	7001.2
1080.46974	7158.4
1084.14085	7306.9
1087.80943	7448.1
1091.47549	7495.2
1095.13903	7394.3
1098.80005	7275.1
1102.45857	7191
1106.11456	7142.5
1109.76805	7095.1
1113.41903	7198.7
1117.06751	7368.4
1120.71348	7632.8
1124.35696	8011.3
1127.99793	8280.6
1131.63641	8140.6
1135.2724	7735.7
1138.90589	7455.4
1142.5369	7225.9
1146.16542	7132.1
1149.79145	7022
1153.415	6969.4
1157.03607	6962.2
1160.65467	7070.5
1164.27079	7251.3
1167.88443	7514.4
1171.49561	7940
1175.10432	8548.2
1178.71056	9425.3
1182.31434	10239.8
1185.91565	10482
1189.51451	10320.1
1193.11091	10076.1
1196.70485	9835.9
1200.29634	9620.9
1203.88538	9325.1
1207.47197	8898.2
1211.05612	8439.1
1214.63782	8026.2
1218.21708	7776.4
1221.79391	7610.3
1225.36829	7536.3
1228.94024	7533.9
1232.50976	7544.2
1236.07685	7592.1
1239.6415	7605
1243.20374	7610.3
1246.76355	7659
1250.32093	7743.1
1253.8759	7792.5
1257.42845	7992.7
1260.97859	8194.4
1264.52631	8432.1
1268.07163	8566.3
1271.61453	8690.9
1275.15503	8737.9
1278.69312	8764
1282.22882	8821
1285.76211	9028.1
1289.29301	9252.8
1292.82151	9545.6
1296.34761	9755.2
1299.87133	10151.9
1303.39266	10854.3
1306.9116	12003
1310.42815	13248.4
1313.94233	13665.4
1317.45412	12894.5
1320.96354	11742.4
1324.47058	10703.9
1327.97525	9966.3
1331.47754	9574.8
1334.97747	9461.9
1338.47502	9573.3
1341.97022	9951.1
1345.46305	10652
1348.95352	11746.6
1352.44163	13015
1355.92738	14348.7
1359.41078	16029.9
1362.89183	17509.9
1366.37053	16896
1369.84688	14068
1373.32088	11404
1376.79254	9971.9
1380.26186	9331.7
1383.72883	8927.6
1387.19347	8512.3
1390.65578	8147
1394.11575	7925
1397.57339	7790.6
1401.0287	7656.9
1404.48168	7624.7
1407.93234	7630.6
1411.38068	7676
1414.82669	7715.2
1418.27039	7829.9
1421.71177	7821.2
1425.15083	7718.9
1428.58758	7643.6
1432.02203	7653.6
1435.45416	7760.9
1438.88399	7764.7
1442.31151	7757
1445.73673	7814.7
1449.15965	7863.4
1452.58027	7881.1
1455.9986	7857.7
1459.41463	7890.9
1462.82837	7980
1466.23982	8140.7
1469.64898	8388.5
1473.05586	8519.4
1476.46045	8610.7
1479.86276	8696.2
1483.26279	8759.8
1486.66054	8965.3
1490.05602	9250.8
1493.44922	9806.5
1496.84016	10643.2
1500.22882	12031.6
1503.61521	13732.5
1506.99934	15515
1510.38121	16745.7
1513.76081	16598.1
1517.13816	15068.4
1520.51324	12906.2
1523.88607	11219.4
1527.25665	10222.8
1530.62498	9707.9
1533.99105	9467.2
1537.35488	9368.2
1540.71647	9290.4
1544.07581	9150
1547.4329	9004.1
1550.78776	8902.4
1554.14038	8812.3
1557.49077	8803.4
1560.83892	8885.1
1564.18484	9128
1567.52853	9443.6
1570.86999	9766.1
1574.20922	9939.1
1577.54624	9791.2
1580.88103	9286.3
1584.2136	8610.8
1587.54395	8244.6
1590.87208	8155
1594.19801	8333.4
1597.52172	8701.7
1600.84321	8837
1604.16251	8716.4
1607.47959	8512
1610.79447	8326.7
1614.10715	8049.5
1617.41763	7752.4
1620.7259	7476.3
1624.03199	7316.5
1627.33587	7243.7
1630.63757	7291
1633.93707	7527.3
1637.23439	7936.9
1640.52951	8635.9
1643.82246	9623.4
1647.11321	10769.7
1650.40179	11492.4
1653.68819	11179.3
1656.97241	9918.6
1660.25446	8544.8
1663.53433	7535.6
1666.81203	6920.7
1670.08756	6603.9
1673.36092	6415.4
1676.63211	6241.6
1679.90115	6172.8
1683.16801	6093.2
1686.43272	6002.7
1689.69527	5952.6
1692.95567	5887.7
1696.2139	5872.7
1699.46999	5798.1
1702.72392	5816.5
1705.97571	5827.2
1709.22535	5819
1712.47284	5854.8
1715.71819	5863.7
1718.96139	5850
1722.20246	5839.8
1725.44139	5803
1728.67818	5780.8
1731.91284	5720.9
1735.14537	5695.3
1738.37576	5679.2
1741.60403	5660.5
1744.83017	5625.1
1748.05418	5630.8
1751.27607	5631.8
1754.49584	5596.3
1757.71349	5562.7
1760.92903	5568.8
1764.14244	5499.8
1767.35375	5531
1770.56294	5500.2
1773.77002	5472.9
1776.97499	5504.7
1780.17785	5466.2
1783.37861	5475.9
1786.57727	5492.1
1789.77382	5408.5
1792.96828	5440
1796.16064	5445.1
1799.3509	5416.4
1802.53907	5445.1
1805.72514	5425.3
1808.90913	5382.6
1812.09102	5372.4
1815.27083	5371.3
1818.44856	5335.5
1821.6242	5346.1
1824.79776	5314
1827.96924	5315
1831.13864	5293.1
1834.30597	5296.2
1837.47122	5277.6
1840.6344	5266.6
1843.7955	5259.4
1846.95454	5256.4
1850.11151	5288.1
1853.26642	5225
1856.41926	5237.1
1859.57004	5252.3
1862.71876	5225.2
1865.86542	5240.7
1869.01003	5219.2
1872.15258	5202
1875.29308	5215.6
1878.43152	5208.1
1881.56792	5199.6
1884.70227	5172.7
1887.83457	5164.9
1890.96482	5150.7
1894.09304	5146.3
1897.21921	5156.6
1900.34335	5153.8
1903.46544	5123.2
1906.58551	5137.9
1909.70353	5143.4
1912.81953	5137.3
1915.93349	5110.6
1919.04543	5102.2
1922.15534	5077.1
1925.26322	5093.5
1928.36908	5065.6
1931.47292	5076.5
1934.57473	5072.6
1937.67453	5037.4
1940.77232	5020
1943.86808	5017.2
1946.96184	5012.8
1950.05358	4972.9
1953.14331	4958
1956.23103	4956.4
1959.31675	4931.8
1962.40046	4893.7
1965.48217	4908.9
1968.56188	4890.2
1971.63959	4877.7
1974.7153	4893.7
1977.78901	4860.7
1980.86073	4843.7
1983.93046	4794.3
1986.99819	4718.7
1990.06394	4756.1
1993.1277	4758.4
1996.18947	4763.3
1999.24925	4718.3
2002.30706	4719.8
2005.36288	4701.2
2008.41672	4702.9
2011.46859	4660.3
2014.51848	4653.8
2017.56639	4633.7
2020.61233	4613.3
2023.6563	4615.1
2026.6983	4565.1
2029.73833	4570.7
2032.7764	4569.2
2035.8125	4527.3
2038.84664	4542.4
2041.87881	4526.1
2044.90903	4537.2
2047.93729	4512.3
2050.96359	4476.5
2053.98794	4497.7
2057.01034	4505.3
2060.03078	4471
2063.04927	4459.5
2066.06582	4473
2069.08042	4460
2072.09307	4453.1
2075.10378	4456.1
2078.11255	4454.9
2081.11938	4443.4
2084.12426	4442.1
2087.12722	4429.8
2090.12824	4440.2
2093.12732	4442.9
2096.12447	4464.4
2099.11969	4428.5
2102.11299	4424.9
2105.10435	4450.1
2108.09379	4437.5
2111.08131	4440
2114.0669	4445.7
2117.05057	4425.6
2120.03233	4434.2
2123.01216	4438.8
2125.99008	4445.6
2128.96609	4439.6
2131.94018	4470.4
2134.91236	4456.6
2137.88263	4443
2140.851	4464.1
2143.81746	4470.4
2146.78201	4443
2149.74466	4445.2
2152.7054	4445
2155.66425	4430.8
2158.6212	4444.1
2161.57625	4399.2
2164.52941	4395.7
2167.48067	4397.1
2170.43004	4414.4
2173.37752	4415.5
2176.32311	4423.8
2179.26681	4402.6
2182.20863	4414.7
2185.14856	4407.4
2188.08661	4411.8
2191.02278	4415.7
2193.95707	4373.1
2196.88948	4374.3
2199.82001	4385.3
2202.74867	4357.5
2205.67545	4387.3
2208.60037	4361.4
2211.52341	4360.7
2214.44458	4353.9
2217.36388	4332.9
2220.28132	4339.6
2223.1969	4290.8
2226.11061	4295.2
2229.02246	4294.2
2231.93245	4304.7
2234.84058	4242.9
2237.74686	4261.8
2240.65128	4258.9
2243.55385	4254.6
2246.45456	4218.9
2249.35343	4249.1
2252.25044	4245
2255.14561	4242.6
2258.03893	4227.3
2260.93041	4218
2263.82004	4216
2266.70783	4192
2269.59378	4189.5
2272.4779	4175.8
2275.36017	4183.7
2278.24061	4166.1
2281.11922	4128.1
2283.996	4145.9
2286.87094	4107.5
2289.74405	4122.9
2292.61534	4113.1
2295.4848	4103.2
2298.35243	4100
2301.21824	4091.9
2304.08223	4080.8
2306.94439	4092.7
2309.80474	4084.9
2312.66327	4096.4
2315.51999	4056.9
2318.37489	4055
2321.22797	4056.5
2324.07925	4053.2
2326.92871	4029.6
2329.77637	4021.3
2332.62222	4000.1
2335.46626	3988
2338.3085	3996.1
2341.14893	4014.8
2343.98756	4013.8
2346.8244	3976.5
2349.65943	3984.6
2352.49267	3977.6
2355.32411	3973.8
2358.15376	3986.2
2360.98161	3980.6
2363.80768	3963.1
2366.63195	3961.9
2369.45444	3976.5
2372.27514	3968.6
2375.09405	3985
2377.91118	3961.3
2380.72652	3943.9
2383.54009	3928.3
2386.35187	3936
2389.16188	3903.8
2391.97011	3915
2394.77657	3890.4
2397.58125	3891.8
2400.38416	3883.4
2403.18529	3870.5
2405.98466	3852.5
2408.78226	3855.3
2411.57809	3844.7
2414.37216	3821.6
2417.16446	3825
2419.955	3816.3
2422.74378	3825
2425.5308	3795.2
2428.31606	3807.1
2431.09956	3815.3
2433.88131	3779.9
2436.6613	3798.8
2439.43954	3793
2442.21603	3782.3
2444.99077	3783
2447.76377	3798.9
2450.53501	3783.3
2453.30451	3776.2
2456.07226	3778.9
2458.83827	3743.8
2461.60254	3713.7
2464.36507	3746.2
2467.12586	3729
2469.88492	3740.1
2472.64224	3734.3
2475.39782	3723.4
2478.15167	3731.7
2480.90379	3723.6
2483.65417	3729.3
2486.40283	3728.2
2489.14976	3751
2491.89497	3723.9
2494.63845	3719.6
2497.3802	3706.5
2500.12024	3711.6
2502.85855	3703.9
2505.59514	3725.9
2508.33002	3697.6
2511.06318	3668.3
2513.79462	3678.3
2516.52435	3636.1
2519.25237	3621.4
2521.97867	3622.4
2524.70327	3618.6
2527.42616	3605.1
2530.14734	3635.7
2532.86681	3588.2
2535.58458	3607.6
2538.30065	3595
2541.01501	3597.5
2543.72768	3604.3
2546.43864	3587.7
2549.14791	3581.4
2551.85548	3565.3
2554.56136	3566
2557.26554	3570.6
2559.96803	3549.2
2562.66883	3558.9
2565.36794	3539.5
2568.06536	3506.1
2570.7611	3522.5
2573.45514	3515.6
2576.14751	3502.7
2578.83819	3484.3
2581.52719	3487.2
2584.21451	3474.8
2586.90015	3448.2
2589.58411	3445.2
2592.2664	3452.8
2594.94701	3448.3
2597.62594	3460.1
2600.30321	3395.8
2602.9788	3396.8
2605.65273	3396.8
2608.32498	3405.2
2610.99557	3427.5
2613.66449	3392.8
2616.33175	3399.6
2618.99734	3407.9
2621.66128	3394.6
2624.32355	3376.9
2626.98416	3367.4
2629.64311	3348.3
2632.30041	3356.1
2634.95605	3339.5
2637.61004	3338.4
2640.26238	3299.2
2642.91306	3315.3
2645.56209	3345.2
2648.20948	3327.2
2650.85521	3300.4
2653.4993	3327.3
2656.14175	3310.8
2658.78255	3309.5
2661.42171	3291.3
2664.05923	3315.4
2666.6951	3315.8
2669.32934	3322.1
2671.96194	3340.3
2674.59291	3314.1
2677.22224	3322.3
2679.84993	3317.6
2682.476	3309.3
2685.10043	3301.7
2687.72324	3295.5
2690.34441	3287.3
2692.96396	3287.9
2695.58188	3305.8
2698.19818	3301.9
2700.81285	3288.3
2703.4259	3277.1
2706.03733	3243.2
2708.64714	3257.3
2711.25533	3277.5
2713.86191	3279.5
2716.46687	3260.5
2719.07021	3274.8
2721.67194	3285.2
2724.27206	3289.9
2726.87057	3272.4
2729.46747	3267.7
2732.06276	3284.9
2734.65644	3251.3
2737.24852	3250.9
2739.83899	3228.4
2742.42786	3246
2745.01513	3243.4
2747.60079	3224.9
2750.18486	3201.8
2752.76733	3220.9
2755.3482	3198.5
2757.92747	3217.4
2760.50515	3189.6
2763.08123	3192.8
2765.65573	3183.8
2768.22863	3176.2
2770.79994	3157.3
2773.36967	3163
2775.9378	3161.1
2778.50435	3156.3
2781.06932	3149.5
2783.6327	3124.8
2786.1945	3158.4
2788.75471	3134.9
2791.31335	3128.7
2793.87041	3118.7
2796.42589	3106
2798.97979	3092.1
2801.53212	3101.3
2804.08288	3115.8
2806.63206	3078.3
2809.17967	3075.4
2811.72571	3088.5
2814.27018	3080.6
2816.81308	3060.2
2819.35442	3043.5
2821.89419	3057.7
2824.43239	3048.9
2826.96904	3065.5
2829.50412	3046.8
2832.03763	3044.1
2834.56959	3048
2837.1	3028.9
2839.62884	3025.6
2842.15613	3018.7
2844.68186	3032.5
2847.20604	3003.8
2849.72867	3008.5
2852.24974	3001.4
2854.76927	2973.2
2857.28724	2941.7
2859.80367	2998.6
2862.31855	2985.1
2864.83189	2985.6
2867.34368	2980.3
2869.85393	3000.2
2872.36264	2949.1
2874.8698	2965.2
2877.37543	2975.6
2879.87952	2972.4
2882.38207	2941.1
2884.88308	2944.5
2887.38256	2947
2889.88051	2947.3
2892.37692	2948.1
2894.8718	2934.4
2897.36515	2953.4
2899.85698	2939.3
2902.34727	2928.4
2904.83604	2927.9
2907.32328	2942.4
2909.809	2942.5
2912.29319	2945.6
2914.77587	2961.9
2917.25702	2968.2
2919.73665	2971
2922.21476	2970.6
2924.69136	2974.8
2927.16644	2949.2
2929.64	2944.9
2932.11205	2932
2934.58258	2931.8
2937.05161	2927.9
2939.51912	2929.7
2941.98513	2924.7
2944.44962	2925.1
2946.91261	2887.4
2949.37409	2898.5
2951.83407	2900.8
2954.29254	2900.3
2956.74951	2896.4
2959.20498	2863.5
2961.65895	2872.8
2964.11142	2871.9
2966.56239	2858.1
2969.01186	2875.2
2971.45984	2859.5
2973.90632	2843.7
2976.35131	2860.8
2978.7948	2838.7
2981.23681	2841.1
2983.67732	2839.6
2986.11635	2831.6
2988.55388	2792.6
2990.98993	2807.6
2993.4245	2811.6
2995.85758	2790.1
2998.28917	2796
3000.71928	2770
3003.14791	2782.3
3005.57506	2758.2
3008.00073	2738.7
3010.42493	2691.6
3012.84764	2746.2
3015.26888	2744.9
3017.68865	2728.3
3020.10694	2684.9
3022.52376	2687.8
3024.9391	2692.8
3027.35298	2684
3029.76539	2675.5
3032.17632	2681.6
3034.5858	2663.3
3036.9938	2678.7
3039.40034	2668.2
3041.80542	2662
3044.20903	2647.6
3046.61118	2621.8
3049.01187	2654.5
3051.4111	2634.6
3053.80888	2616.6
3056.20519	2597.3
3058.60005	2584.9
3060.99345	2624.8
3063.3854	2583.4
3065.7759	2577.4
3068.16494	2557.4
3070.55254	2554.9
3072.93868	2573.3
3075.32338	2555.4
3077.70662	2554.6
3080.08842	2527.2
3082.46878	2525.5
3084.84769	2549
3087.22515	2520.8
3089.60118	2536.6
3091.97576	2518.7
3094.3489	2535.2
3096.72061	2516.5
3099.09087	2505
3101.4597	2511.4
3103.82709	2515
3106.19305	2503.5
3108.55757	2501
3110.92066	2489.9
3113.28232	2485.2
3115.64255	2486.3
3118.00134	2488.8
3120.35871	2464.1
3122.71466	2444.5
3125.06917	2458.5
3127.42226	2434.7
3129.77393	2423.2
3132.12417	2440.4
3134.47299	2452.1
3136.82039	2425.8
3139.16636	2392.7
3141.51092	2423.1
3143.85406	2428.2
3146.19579	2411.8
3148.53609	2406.9
3150.87499	2411
3153.21246	2400.8
3155.54853	2405.5
3157.88318	2410.2
3160.21642	2418.1
3162.54826	2396.8
3164.87868	2407
3167.2077	2376.1
3169.5353	2392.2
3171.86151	2402.8
3174.18631	2384
3176.5097	2378.8
3178.83169	2377.4
3181.15228	2379.4
3183.47147	2359.3
3185.78926	2330.3
3188.10565	2348.3
3190.42065	2326.4
3192.73424	2336.9
3195.04645	2333.4
3197.35725	2314.1
3199.66667	2324.8
3201.97469	2319.5
3204.28132	2318.8
3206.58656	2322
3208.8904	2326.5
3211.19287	2314.8
3213.49394	2304.1
3215.79363	2299.2
3218.09193	2314.5
3220.38884	2317.8
3222.68438	2305.1
3224.97853	2287
3227.2713	2306.2
3229.56269	2293
3231.8527	2281.7
3234.14133	2277.5
3236.42858	2271.1
3238.71446	2250
3240.99896	2264.2
3243.28209	2249.3
3245.56384	2257.5
3247.84423	2242.4
3250.12324	2259.2
3252.40088	2238.2
3254.67715	2239.5
3256.95205	2228.7
3259.22558	2227.4
3261.49775	2234.7
3263.76855	2230.6
3266.03799	2234.3
3268.30606	2231.5
3270.57277	2230.7
3272.83812	2212.9
3275.10211	2208.1
3277.36474	2227.4
3279.62601	2221.3
3281.88593	2189
3284.14448	2168.1
3286.40168	2188
3288.65753	2189.6
3290.91202	2189.5
3293.16516	2160.2
3295.41695	2182.2
3297.66738	2183.6
3299.91647	2160.2
3302.16421	2148.7
3304.4106	2101.6
3306.65564	2129.7
3308.89933	2097.6
3311.14169	2087.7
3313.38269	2069.7
3315.62236	2053
3317.86068	2038
3320.09766	2042.6
3322.3333	2004.6
3324.5676	1998.8
3326.80056	1964.2
3329.03219	1965.5
3331.26248	0.9
3333.49143	-0.5
3335.71905	0.4
