Data from AgNPs_UA_20uM_CRN_500uM_SU_RamanShift__86__13-50-50-308.txt Node

Date: Thu Aug 04 13:50:50 BST 2022
User: TCL
Spectrometer: QEP01345
Trigger mode: 4
Integration Time (sec): 1.000000E0
Scans to average: 10
Electric dark correction enabled: true
Nonlinearity correction enabled: false
Boxcar width: 0
XAxis mode: Raman Shifts
Number of Pixels in Spectrum: 1044
>>>>>Begin Spectral Data<<<<<
46.04893	-2.025
50.45542	0.475
54.85868	1.375
59.25871	-0.625
63.6555	12.775
68.04907	11.575
72.43941	15.475
76.82654	12.575
81.21044	12.575
85.59113	15.075
89.96862	16.675
94.34289	15.475
98.71396	16.675
103.08183	18.475
107.4465	16.175
111.80798	18.375
116.16626	19.375
120.52136	20.175
124.87327	19.275
129.222	25.475
133.56755	22.575
137.90993	26.375
142.24913	28.775
146.58517	29.575
150.91804	36.575
155.24774	44.275
159.57429	54.275
163.89768	71.875
168.21792	96.275
172.53501	133.275
176.84895	186.575
181.15975	260.275
185.46741	366.275
189.77193	508.075
194.07331	687.775
198.37157	890.475
202.6667	1096.875
206.9587	1309.775
211.24758	1518.575
215.53334	1728.075
219.81599	1955.775
224.09553	2223.975
228.37195	2516.775
232.64527	2823.375
236.91549	3132.775
241.18261	3411.175
245.44663	3618.175
249.70755	3762.675
253.96539	3904.275
258.22014	4028.275
262.4718	4103.775
266.72039	4207.175
270.96589	4236.475
275.20832	4201.575
279.44768	4138.275
283.68397	4073.475
287.91719	4013.675
292.14735	4025.975
296.37445	4104.475
300.59849	4243.675
304.81948	4442.375
309.03742	4625.175
313.25231	4705.175
317.46415	4672.175
321.67296	4455.175
325.87872	4255.175
330.08145	4160.375
334.28114	4138.975
338.47781	4191.175
342.67145	4282.575
346.86207	4435.375
351.04966	4591.375
355.23424	4770.475
359.4158	4918.175
363.59435	4956.275
367.76989	4983.675
371.94243	4973.275
376.11196	4939.775
380.27849	4935.775
384.44203	4917.975
388.60257	4932.075
392.76012	4973.975
396.91468	5019.375
401.06626	5100.275
405.21485	5139.475
409.36047	5028.675
413.50311	4849.375
417.64277	4656.575
421.77947	4536.575
425.9132	4525.775
430.04396	4544.375
434.17176	4589.875
438.2966	4680.875
442.41849	4802.875
446.53742	4967.975
450.6534	5115.975
454.76644	5184.875
458.87653	5142.375
462.98368	5102.375
467.08789	5009.275
471.18916	4926.075
475.2875	4812.475
479.38291	4681.975
483.4754	4592.675
487.56496	4548.275
491.6516	4519.375
495.73531	4502.875
499.81612	4511.775
503.89401	4559.175
507.96899	4592.375
512.04106	4625.775
516.11023	4695.275
520.1765	4714.475
524.23987	4753.675
528.30034	4753.375
532.35792	4717.075
536.41261	4659.075
540.46441	4580.575
544.51333	4556.175
548.55936	4591.475
552.60252	4684.575
556.64279	4782.375
560.6802	4836.675
564.71473	4881.275
568.7464	4960.375
572.7752	4975.175
576.80114	4860.875
580.82422	4777.575
584.84444	4768.675
588.86181	4859.875
592.87633	5007.275
596.888	5123.075
600.89682	5287.275
604.9028	5878.375
608.90594	7226.075
612.90624	8569.175
616.90371	7813.275
620.89834	5922.775
624.89015	5136.175
628.87913	5048.175
632.86528	5077.375
636.84862	5035.575
640.82913	4901.775
644.80683	4717.075
648.78172	4583.375
652.75379	4626.775
656.72306	4797.875
660.68952	4974.275
664.65319	4895.675
668.61405	4768.175
672.57211	4712.975
676.52738	4701.575
680.47986	4645.775
684.42955	4577.675
688.37646	4575.775
692.32058	4626.375
696.26192	4676.275
700.20048	4763.975
704.13626	4773.275
708.06928	4730.275
711.99952	4693.575
715.927	4695.075
719.85171	4729.675
723.77365	4725.575
727.69284	4669.475
731.60928	4633.175
735.52295	4640.375
739.43388	4689.875
743.34206	4711.675
747.24749	4713.675
751.15017	4733.975
755.05012	4803.375
758.94733	5018.075
762.8418	5530.875
766.73354	6320.875
770.62254	6967.875
774.50882	7105.375
778.39237	6662.575
782.27321	5978.375
786.15132	5357.375
790.02671	4986.975
793.89938	4820.575
797.76935	4743.775
801.6366	4694.275
805.50115	4685.875
809.36299	4659.575
813.22213	4630.975
817.07857	4624.375
820.93231	4632.975
824.78336	4644.475
828.63172	4666.175
832.47738	4670.575
836.32036	4667.275
840.16066	4674.875
843.99827	4719.875
847.8332	4703.775
851.66546	4670.375
855.49504	4685.075
859.32195	4684.575
863.1462	4690.175
866.96777	4664.975
870.78668	4646.375
874.60293	4632.275
878.41652	4669.175
882.22745	4695.275
886.03573	4719.875
889.84136	4708.875
893.64433	4693.275
897.44466	4678.275
901.24235	4665.175
905.0374	4664.775
908.8298	4624.275
912.61957	4617.175
916.40671	4648.675
920.19121	4713.575
923.97308	4797.075
927.75233	4847.975
931.52895	4880.775
935.30295	4823.875
939.07433	4724.475
942.84309	4643.075
946.60924	4612.175
950.37278	4582.275
954.13371	4565.575
957.89203	4553.175
961.64774	4537.275
965.40086	4513.975
969.15137	4504.775
972.89929	4513.375
976.64461	4512.975
980.38733	4522.975
984.12747	4556.075
987.86502	4585.075
991.59999	4663.075
995.33237	4764.875
999.06217	4899.675
1002.78939	5059.975
1006.51404	5154.575
1010.23611	5212.275
1013.95561	5236.575
1017.67255	5278.075
1021.38692	5251.875
1025.09872	5224.175
1028.80796	5278.175
1032.51465	5411.075
1036.21877	5505.375
1039.92035	5507.275
1043.61937	5398.775
1047.31584	5288.375
1051.00976	5171.575
1054.70114	5087.875
1058.38998	5091.475
1062.07627	5094.575
1065.76003	5128.175
1069.44126	5164.575
1073.11995	5219.875
1076.79611	5312.275
1080.46974	5369.375
1084.14085	5462.575
1087.80943	5524.475
1091.47549	5557.475
1095.13903	5488.675
1098.80005	5370.075
1102.45857	5282.375
1106.11456	5224.175
1109.76805	5261.875
1113.41903	5338.775
1117.06751	5450.575
1120.71348	5599.375
1124.35696	5780.975
1127.99793	5898.475
1131.63641	5784.975
1135.2724	5597.375
1138.90589	5443.175
1142.5369	5322.075
1146.16542	5281.575
1149.79145	5250.275
1153.415	5232.875
1157.03607	5216.475
1160.65467	5273.375
1164.27079	5426.275
1167.88443	5633.775
1171.49561	5979.775
1175.10432	6539.075
1178.71056	7244.475
1182.31434	7856.375
1185.91565	8066.975
1189.51451	7942.975
1193.11091	7591.475
1196.70485	7189.875
1200.29634	6913.575
1203.88538	6621.575
1207.47197	6333.675
1211.05612	6054.975
1214.63782	5907.975
1218.21708	5845.675
1221.79391	5867.175
1225.36829	5891.775
1228.94024	5885.675
1232.50976	5807.175
1236.07685	5720.875
1239.6415	5716.375
1243.20374	5728.975
1246.76355	5776.175
1250.32093	5860.575
1253.8759	6003.875
1257.42845	6200.875
1260.97859	6382.275
1264.52631	6573.675
1268.07163	6698.575
1271.61453	6841.275
1275.15503	6962.275
1278.69312	7074.175
1282.22882	7175.475
1285.76211	7308.375
1289.29301	7490.675
1292.82151	7692.575
1296.34761	7924.375
1299.87133	8308.075
1303.39266	8921.275
1306.9116	9772.275
1310.42815	10638.075
1313.94233	10947.275
1317.45412	10583.875
1320.96354	9863.075
1324.47058	9125.775
1327.97525	8485.175
1331.47754	8117.175
1334.97747	8001.175
1338.47502	8074.675
1341.97022	8269.575
1345.46305	8603.275
1348.95352	9118.675
1352.44163	9751.375
1355.92738	10629.275
1359.41078	11763.475
1362.89183	12597.975
1366.37053	12009.075
1369.84688	10213.575
1373.32088	8589.975
1376.79254	7637.975
1380.26186	7247.475
1383.72883	7036.875
1387.19347	6832.575
1390.65578	6622.775
1394.11575	6437.175
1397.57339	6307.475
1401.0287	6278.375
1404.48168	6285.075
1407.93234	6286.775
1411.38068	6346.475
1414.82669	6414.675
1418.27039	6418.175
1421.71177	6369.275
1425.15083	6324.575
1428.58758	6318.375
1432.02203	6440.275
1435.45416	6533.075
1438.88399	6570.275
1442.31151	6550.275
1445.73673	6525.575
1449.15965	6496.675
1452.58027	6437.675
1455.9986	6351.175
1459.41463	6360.975
1462.82837	6401.875
1466.23982	6504.675
1469.64898	6629.075
1473.05586	6729.375
1476.46045	6797.075
1479.86276	6867.775
1483.26279	6932.075
1486.66054	7048.675
1490.05602	7246.675
1493.44922	7564.275
1496.84016	8066.575
1500.22882	8800.275
1503.61521	9768.575
1506.99934	10729.575
1510.38121	11253.475
1513.76081	11126.275
1517.13816	10223.675
1520.51324	9123.575
1523.88607	8217.875
1527.25665	7712.875
1530.62498	7457.775
1533.99105	7320.375
1537.35488	7235.675
1540.71647	7164.775
1544.07581	7090.875
1547.4329	6992.475
1550.78776	6907.075
1554.14038	6844.975
1557.49077	6812.375
1560.83892	6848.775
1564.18484	6997.775
1567.52853	7178.075
1570.86999	7323.975
1574.20922	7329.675
1577.54624	7204.175
1580.88103	6893.575
1584.2136	6558.775
1587.54395	6430.475
1590.87208	6574.575
1594.19801	6993.175
1597.52172	7518.675
1600.84321	7805.775
1604.16251	7675.375
1607.47959	7343.575
1610.79447	6876.575
1614.10715	6419.575
1617.41763	6021.275
1620.7259	5749.075
1624.03199	5603.375
1627.33587	5631.875
1630.63757	5759.275
1633.93707	6083.075
1637.23439	6560.675
1640.52951	7238.275
1643.82246	8101.175
1647.11321	8827.575
1650.40179	9049.975
1653.68819	8426.275
1656.97241	7280.175
1660.25446	6250.975
1663.53433	5543.875
1666.81203	5132.275
1670.08756	4910.475
1673.36092	4772.975
1676.63211	4646.975
1679.90115	4583.075
1683.16801	4525.075
1686.43272	4477.575
1689.69527	4467.875
1692.95567	4448.075
1696.2139	4438.275
1699.46999	4421.875
1702.72392	4396.075
1705.97571	4417.175
1709.22535	4401.875
1712.47284	4413.975
1715.71819	4389.475
1718.96139	4391.075
1722.20246	4383.475
1725.44139	4370.275
1728.67818	4345.575
1731.91284	4322.775
1735.14537	4306.175
1738.37576	4287.975
1741.60403	4268.675
1744.83017	4257.275
1748.05418	4229.675
1751.27607	4247.275
1754.49584	4226.575
1757.71349	4214.875
1760.92903	4213.675
1764.14244	4194.275
1767.35375	4209.575
1770.56294	4185.675
1773.77002	4208.775
1776.97499	4175.275
1780.17785	4166.575
1783.37861	4167.675
1786.57727	4152.375
1789.77382	4140.875
1792.96828	4144.075
1796.16064	4115.675
1799.3509	4130.675
1802.53907	4125.475
1805.72514	4119.975
1808.90913	4100.475
1812.09102	4097.575
1815.27083	4096.075
1818.44856	4063.575
1821.6242	4071.475
1824.79776	4074.275
1827.96924	4049.575
1831.13864	4066.475
1834.30597	4057.275
1837.47122	4044.175
1840.6344	4034.275
1843.7955	4038.175
1846.95454	4039.175
1850.11151	4026.375
1853.26642	4022.975
1856.41926	4039.675
1859.57004	4019.875
1862.71876	4021.675
1865.86542	4030.475
1869.01003	4006.175
1872.15258	3999.975
1875.29308	4017.075
1878.43152	4003.475
1881.56792	4003.675
1884.70227	4000.975
1887.83457	4001.775
1890.96482	4006.875
1894.09304	3979.975
1897.21921	3979.775
1900.34335	3984.675
1903.46544	3970.175
1906.58551	3992.775
1909.70353	3990.875
1912.81953	3975.075
1915.93349	3971.075
1919.04543	3954.675
1922.15534	3959.575
1925.26322	3942.875
1928.36908	3942.775
1931.47292	3946.275
1934.57473	3946.875
1937.67453	3937.075
1940.77232	3918.375
1943.86808	3904.675
1946.96184	3899.275
1950.05358	3895.075
1953.14331	3886.175
1956.23103	3858.475
1959.31675	3840.175
1962.40046	3846.975
1965.48217	3830.575
1968.56188	3827.375
1971.63959	3819.375
1974.7153	3795.075
1977.78901	3795.575
1980.86073	3786.375
1983.93046	3772.475
1986.99819	3757.575
1990.06394	3744.475
1993.1277	3731.975
1996.18947	3728.775
1999.24925	3722.975
2002.30706	3703.375
2005.36288	3689.775
2008.41672	3678.175
2011.46859	3666.375
2014.51848	3661.075
2017.56639	3649.175
2020.61233	3648.075
2023.6563	3645.375
2026.6983	3631.675
2029.73833	3625.375
2032.7764	3612.775
2035.8125	3614.475
2038.84664	3604.075
2041.87881	3604.975
2044.90903	3602.775
2047.93729	3590.675
2050.96359	3592.475
2053.98794	3586.175
2057.01034	3574.275
2060.03078	3573.975
2063.04927	3566.675
2066.06582	3572.075
2069.08042	3560.375
2072.09307	3559.075
2075.10378	3549.875
2078.11255	3561.175
2081.11938	3547.775
2084.12426	3545.675
2087.12722	3544.075
2090.12824	3538.675
2093.12732	3546.375
2096.12447	3549.975
2099.11969	3556.075
2102.11299	3552.675
2105.10435	3551.275
2108.09379	3558.075
2111.08131	3558.075
2114.0669	3553.875
2117.05057	3551.575
2120.03233	3558.475
2123.01216	3550.775
2125.99008	3556.875
2128.96609	3574.975
2131.94018	3579.475
2134.91236	3588.875
2137.88263	3574.975
2140.851	3551.775
2143.81746	3572.375
2146.78201	3563.075
2149.74466	3574.775
2152.7054	3578.775
2155.66425	3577.575
2158.6212	3580.675
2161.57625	3563.375
2164.52941	3572.275
2167.48067	3578.675
2170.43004	3570.775
2173.37752	3565.475
2176.32311	3564.775
2179.26681	3575.775
2182.20863	3577.775
2185.14856	3565.275
2188.08661	3582.975
2191.02278	3586.375
2193.95707	3567.975
2196.88948	3572.375
2199.82001	3569.875
2202.74867	3556.475
2205.67545	3587.375
2208.60037	3570.475
2211.52341	3573.075
2214.44458	3541.275
2217.36388	3537.675
2220.28132	3539.075
2223.1969	3517.275
2226.11061	3532.375
2229.02246	3527.975
2231.93245	3521.675
2234.84058	3489.575
2237.74686	3503.175
2240.65128	3504.875
2243.55385	3522.175
2246.45456	3494.175
2249.35343	3501.775
2252.25044	3479.475
2255.14561	3482.075
2258.03893	3482.175
2260.93041	3485.775
2263.82004	3473.775
2266.70783	3459.275
2269.59378	3454.475
2272.4779	3446.675
2275.36017	3437.175
2278.24061	3425.275
2281.11922	3422.675
2283.996	3406.475
2286.87094	3403.775
2289.74405	3402.575
2292.61534	3394.775
2295.4848	3401.175
2298.35243	3402.575
2301.21824	3401.075
2304.08223	3408.775
2306.94439	3412.775
2309.80474	3412.775
2312.66327	3425.175
2315.51999	3405.075
2318.37489	3408.475
2321.22797	3393.775
2324.07925	3408.775
2326.92871	3397.175
2329.77637	3380.275
2332.62222	3393.575
2335.46626	3394.075
2338.3085	3383.475
2341.14893	3394.975
2343.98756	3389.675
2346.8244	3397.875
2349.65943	3383.075
2352.49267	3387.275
2355.32411	3376.275
2358.15376	3389.675
2360.98161	3388.975
2363.80768	3379.375
2366.63195	3384.875
2369.45444	3374.875
2372.27514	3369.375
2375.09405	3362.375
2377.91118	3371.575
2380.72652	3360.675
2383.54009	3338.875
2386.35187	3348.675
2389.16188	3329.375
2391.97011	3323.075
2394.77657	3332.875
2397.58125	3314.375
2400.38416	3297.575
2403.18529	3288.675
2405.98466	3299.575
2408.78226	3290.075
2411.57809	3279.375
2414.37216	3274.375
2417.16446	3277.475
2419.955	3262.275
2422.74378	3260.575
2425.5308	3260.375
2428.31606	3256.875
2431.09956	3254.175
2433.88131	3252.475
2436.6613	3263.575
2439.43954	3255.975
2442.21603	3237.075
2444.99077	3253.175
2447.76377	3264.375
2450.53501	3237.975
2453.30451	3239.675
2456.07226	3247.975
2458.83827	3232.675
2461.60254	3236.375
2464.36507	3231.675
2467.12586	3215.275
2469.88492	3231.275
2472.64224	3239.875
2475.39782	3236.675
2478.15167	3242.275
2480.90379	3229.175
2483.65417	3234.375
2486.40283	3237.375
2489.14976	3246.575
2491.89497	3249.375
2494.63845	3248.275
2497.3802	3238.575
2500.12024	3234.575
2502.85855	3233.675
2505.59514	3220.575
2508.33002	3221.475
2511.06318	3203.775
2513.79462	3203.175
2516.52435	3195.675
2519.25237	3201.775
2521.97867	3192.775
2524.70327	3191.575
2527.42616	3175.475
2530.14734	3188.875
2532.86681	3174.775
2535.58458	3193.975
2538.30065	3197.475
2541.01501	3188.975
2543.72768	3190.875
2546.43864	3193.975
2549.14791	3178.675
2551.85548	3185.475
2554.56136	3183.675
2557.26554	3176.975
2559.96803	3174.175
2562.66883	3154.375
2565.36794	3163.575
2568.06536	3155.575
2570.7611	3129.675
2573.45514	3132.375
2576.14751	3151.075
2578.83819	3134.275
2581.52719	3139.275
2584.21451	3128.275
2586.90015	3117.875
2589.58411	3115.675
2592.2664	3104.275
2594.94701	3121.875
2597.62594	3121.675
2600.30321	3107.875
2602.9788	3113.475
2605.65273	3107.075
2608.32498	3111.475
2610.99557	3098.375
2613.66449	3097.175
2616.33175	3104.475
2618.99734	3092.775
2621.66128	3098.775
2624.32355	3099.275
2626.98416	3105.075
2629.64311	3096.575
2632.30041	3107.875
2634.95605	3101.475
2637.61004	3089.175
2640.26238	3094.475
2642.91306	3086.175
2645.56209	3076.375
2648.20948	3076.975
2650.85521	3073.175
2653.4993	3059.775
2656.14175	3084.575
2658.78255	3061.475
2661.42171	3081.275
2664.05923	3076.075
2666.6951	3100.875
2669.32934	3091.575
2671.96194	3082.875
2674.59291	3085.975
2677.22224	3099.975
2679.84993	3082.175
2682.476	3077.075
2685.10043	3058.375
2687.72324	3055.975
2690.34441	3072.175
2692.96396	3069.775
2695.58188	3059.675
2698.19818	3064.475
2700.81285	3066.175
2703.4259	3072.175
2706.03733	3050.875
2708.64714	3061.875
2711.25533	3032.475
2713.86191	3055.975
2716.46687	3043.375
2719.07021	3057.975
2721.67194	3069.775
2724.27206	3057.975
2726.87057	3057.375
2729.46747	3063.075
2732.06276	3072.075
2734.65644	3048.375
2737.24852	3054.575
2739.83899	3049.975
2742.42786	3056.975
2745.01513	3035.875
2747.60079	3042.075
2750.18486	3037.075
2752.76733	3036.575
2755.3482	3045.375
2757.92747	3039.275
2760.50515	3020.575
2763.08123	3027.675
2765.65573	3013.275
2768.22863	3008.375
2770.79994	3009.775
2773.36967	3031.175
2775.9378	3018.675
2778.50435	3003.775
2781.06932	2994.075
2783.6327	3005.175
2786.1945	2998.675
2788.75471	2990.375
2791.31335	2997.175
2793.87041	2980.575
2796.42589	2985.475
2798.97979	2972.375
2801.53212	2984.975
2804.08288	2983.875
2806.63206	2974.875
2809.17967	2965.875
2811.72571	2958.575
2814.27018	2974.175
2816.81308	2947.675
2819.35442	2954.775
2821.89419	2939.875
2824.43239	2944.675
2826.96904	2935.575
2829.50412	2938.275
2832.03763	2930.575
2834.56959	2922.575
2837.1	2923.675
2839.62884	2922.775
2842.15613	2922.175
2844.68186	2918.675
2847.20604	2917.775
2849.72867	2903.675
2852.24974	2902.775
2854.76927	2893.675
2857.28724	2893.575
2859.80367	2885.075
2862.31855	2893.975
2864.83189	2883.675
2867.34368	2881.275
2869.85393	2882.875
2872.36264	2866.375
2874.8698	2880.375
2877.37543	2859.575
2879.87952	2875.175
2882.38207	2869.775
2884.88308	2871.375
2887.38256	2874.175
2889.88051	2873.275
2892.37692	2855.975
2894.8718	2866.875
2897.36515	2862.575
2899.85698	2874.275
2902.34727	2872.475
2904.83604	2869.275
2907.32328	2884.175
2909.809	2885.275
2912.29319	2891.175
2914.77587	2888.375
2917.25702	2880.375
2919.73665	2887.975
2922.21476	2891.975
2924.69136	2873.875
2927.16644	2885.875
2929.64	2868.775
2932.11205	2873.175
2934.58258	2858.175
2937.05161	2852.775
2939.51912	2855.975
2941.98513	2841.675
2944.44962	2847.775
2946.91261	2840.375
2949.37409	2855.075
2951.83407	2859.675
2954.29254	2849.875
2956.74951	2855.375
2959.20498	2842.375
2961.65895	2831.975
2964.11142	2832.175
2966.56239	2823.275
2969.01186	2826.575
2971.45984	2832.175
2973.90632	2829.275
2976.35131	2820.375
2978.7948	2813.375
2981.23681	2794.875
2983.67732	2801.075
2986.11635	2808.475
2988.55388	2796.875
2990.98993	2784.075
2993.4245	2779.975
2995.85758	2785.175
2998.28917	2778.975
3000.71928	2776.275
3003.14791	2766.575
3005.57506	2755.675
3008.00073	2743.175
3010.42493	2723.675
3012.84764	2725.075
3015.26888	2728.375
3017.68865	2733.775
3020.10694	2724.175
3022.52376	2727.675
3024.9391	2708.375
3027.35298	2692.175
3029.76539	2694.575
3032.17632	2693.775
3034.5858	2697.575
3036.9938	2684.875
3039.40034	2683.975
3041.80542	2665.575
3044.20903	2677.975
3046.61118	2666.975
3049.01187	2651.775
3051.4111	2654.575
3053.80888	2649.675
3056.20519	2653.675
3058.60005	2628.475
3060.99345	2640.575
3063.3854	2631.775
3065.7759	2639.075
3068.16494	2633.475
3070.55254	2619.475
3072.93868	2608.075
3075.32338	2605.975
3077.70662	2596.375
3080.08842	2584.975
3082.46878	2580.675
3084.84769	2565.975
3087.22515	2574.875
3089.60118	2582.875
3091.97576	2572.875
3094.3489	2576.375
3096.72061	2571.275
3099.09087	2569.075
3101.4597	2567.875
3103.82709	2560.575
3106.19305	2557.875
3108.55757	2568.775
3110.92066	2565.275
3113.28232	2558.975
3115.64255	2550.675
3118.00134	2539.375
3120.35871	2525.375
3122.71466	2540.575
3125.06917	2537.275
3127.42226	2529.275
3129.77393	2527.675
3132.12417	2523.475
3134.47299	2520.475
3136.82039	2517.975
3139.16636	2528.375
3141.51092	2514.175
3143.85406	2512.275
3146.19579	2521.475
3148.53609	2521.975
3150.87499	2513.175
3153.21246	2518.575
3155.54853	2510.275
3157.88318	2524.375
3160.21642	2512.675
3162.54826	2517.875
3164.87868	2515.675
3167.2077	2501.975
3169.5353	2511.675
3171.86151	2505.275
3174.18631	2502.975
3176.5097	2500.075
3178.83169	2496.575
3181.15228	2492.275
3183.47147	2484.175
3185.78926	2472.975
3188.10565	2466.275
3190.42065	2469.275
3192.73424	2479.875
3195.04645	2460.375
3197.35725	2455.975
3199.66667	2463.475
3201.97469	2460.275
3204.28132	2456.675
3206.58656	2463.975
3208.8904	2458.775
3211.19287	2459.975
3213.49394	2470.975
3215.79363	2476.875
3218.09193	2467.175
3220.38884	2457.275
3222.68438	2454.275
3224.97853	2461.175
3227.2713	2474.175
3229.56269	2462.475
3231.8527	2459.975
3234.14133	2464.075
3236.42858	2448.075
3238.71446	2436.775
