Data from AgNPs_UA_5uM_CRN_500uM_SU_RamanShift__184__12-00-03-176.txt Node

Date: Thu Aug 04 12:00:03 BST 2022
User: TCL
Spectrometer: QEP01345
Trigger mode: 4
Integration Time (sec): 1.000000E0
Scans to average: 10
Electric dark correction enabled: true
Nonlinearity correction enabled: false
Boxcar width: 0
XAxis mode: Raman Shifts
Number of Pixels in Spectrum: 1044
>>>>>Begin Spectral Data<<<<<
46.04893	0.975
50.45542	-0.525
54.85868	0.375
59.25871	-1.025
63.6555	-58.125
68.04907	-40.425
72.43941	-70.825
76.82654	-56.325
81.21044	-55.725
85.59113	-47.725
89.96862	-75.525
94.34289	-54.925
98.71396	-77.325
103.08183	-59.025
107.4465	-47.925
111.80798	-56.525
116.16626	-44.725
120.52136	-73.025
124.87327	-51.525
129.222	-64.525
133.56755	-49.325
137.90993	-61.625
142.24913	-50.925
146.58517	-43.425
150.91804	-38.025
155.24774	-27.625
159.57429	-9.625
163.89768	-2.425
168.21792	41.075
172.53501	62.275
176.84895	142.075
181.15975	280.675
185.46741	433.075
189.77193	612.475
194.07331	909.375
198.37157	1201.175
202.6667	1490.275
206.9587	1813.075
211.24758	2141.875
215.53334	2459.475
219.81599	2811.575
224.09553	3246.975
228.37195	3689.875
232.64527	4134.975
236.91549	4614.975
241.18261	4983.375
245.44663	5275.375
249.70755	5450.775
253.96539	5583.775
258.22014	5687.275
262.4718	5758.075
266.72039	5803.875
270.96589	5756.375
275.20832	5673.775
279.44768	5542.775
283.68397	5437.275
287.91719	5371.775
292.14735	5413.675
296.37445	5569.375
300.59849	5858.375
304.81948	6228.375
309.03742	6605.175
313.25231	6831.675
317.46415	6781.275
321.67296	6385.575
325.87872	5965.275
330.08145	5782.975
334.28114	5726.675
338.47781	5819.575
342.67145	5955.375
346.86207	6177.075
351.04966	6568.975
355.23424	6955.775
359.4158	7250.275
363.59435	7263.575
367.76989	7199.975
371.94243	7080.475
376.11196	6949.275
380.27849	6876.875
384.44203	6816.275
388.60257	6754.375
392.76012	6773.875
396.91468	6884.175
401.06626	7045.175
405.21485	7078.075
409.36047	6920.975
413.50311	6596.575
417.64277	6292.175
421.77947	6089.475
425.9132	6019.375
430.04396	6013.975
434.17176	6046.575
438.2966	6149.875
442.41849	6227.875
446.53742	6365.575
450.6534	6444.075
454.76644	6523.275
458.87653	6530.975
462.98368	6514.375
467.08789	6452.875
471.18916	6377.375
475.2875	6235.575
479.38291	6118.875
483.4754	6047.975
487.56496	5987.475
491.6516	5953.575
495.73531	5947.375
499.81612	5969.275
503.89401	6064.675
507.96899	6118.575
512.04106	6225.575
516.11023	6321.575
520.1765	6417.275
524.23987	6451.675
528.30034	6430.775
532.35792	6360.875
536.41261	6324.975
540.46441	6197.575
544.51333	6166.075
548.55936	6201.175
552.60252	6320.675
556.64279	6444.675
560.6802	6569.675
564.71473	6688.775
568.7464	6902.275
572.7752	6865.675
576.80114	6562.675
580.82422	6296.275
584.84444	6186.675
588.86181	6181.675
592.87633	6212.875
596.888	6337.775
600.89682	6707.175
604.9028	7688.975
608.90594	9811.175
612.90624	12208.575
616.90371	11311.275
620.89834	8197.075
624.89015	6869.375
628.87913	6637.575
632.86528	6816.075
636.84862	6965.275
640.82913	6833.075
644.80683	6498.175
648.78172	6305.975
652.75379	6332.275
656.72306	6584.775
660.68952	6813.875
664.65319	6718.875
668.61405	6498.275
672.57211	6412.775
676.52738	6410.675
680.47986	6327.975
684.42955	6229.975
688.37646	6172.275
692.32058	6194.675
696.26192	6262.475
700.20048	6364.075
704.13626	6400.375
708.06928	6352.975
711.99952	6325.575
715.927	6302.175
719.85171	6335.775
723.77365	6385.075
727.69284	6354.775
731.60928	6351.475
735.52295	6331.375
739.43388	6346.375
743.34206	6380.875
747.24749	6406.875
751.15017	6422.175
755.05012	6483.175
758.94733	6864.575
762.8418	7729.375
766.73354	9075.675
770.62254	10055.175
774.50882	10147.675
778.39237	9630.775
782.27321	8714.675
786.15132	7650.875
790.02671	6941.775
793.89938	6573.675
797.76935	6448.275
801.6366	6381.575
805.50115	6334.175
809.36299	6314.275
813.22213	6321.875
817.07857	6311.175
820.93231	6295.275
824.78336	6341.675
828.63172	6352.775
832.47738	6358.675
836.32036	6378.075
840.16066	6342.475
843.99827	6314.175
847.8332	6303.975
851.66546	6324.875
855.49504	6327.475
859.32195	6353.275
863.1462	6346.175
866.96777	6342.575
870.78668	6344.775
874.60293	6377.475
878.41652	6393.775
882.22745	6467.675
886.03573	6487.875
889.84136	6493.975
893.64433	6472.575
897.44466	6487.875
901.24235	6466.175
905.0374	6464.675
908.8298	6376.575
912.61957	6353.375
916.40671	6321.275
920.19121	6389.575
923.97308	6468.275
927.75233	6524.575
931.52895	6594.775
935.30295	6575.975
939.07433	6421.475
942.84309	6288.475
946.60924	6250.975
950.37278	6239.275
954.13371	6226.375
957.89203	6218.875
961.64774	6234.075
965.40086	6228.575
969.15137	6208.375
972.89929	6229.075
976.64461	6218.475
980.38733	6234.275
984.12747	6235.875
987.86502	6240.175
991.59999	6291.675
995.33237	6353.375
999.06217	6437.475
1002.78939	6530.075
1006.51404	6655.675
1010.23611	6762.175
1013.95561	6821.875
1017.67255	6801.075
1021.38692	6780.675
1025.09872	6724.575
1028.80796	6620.975
1032.51465	6652.875
1036.21877	6628.975
1039.92035	6684.975
1043.61937	6698.275
1047.31584	6744.675
1051.00976	6785.375
1054.70114	6788.875
1058.38998	6777.075
1062.07627	6786.575
1065.76003	6832.375
1069.44126	6920.075
1073.11995	6986.075
1076.79611	7114.375
1080.46974	7274.875
1084.14085	7449.475
1087.80943	7550.375
1091.47549	7617.775
1095.13903	7527.675
1098.80005	7405.875
1102.45857	7275.875
1106.11456	7259.875
1109.76805	7206.675
1113.41903	7326.375
1117.06751	7499.475
1120.71348	7762.175
1124.35696	8134.175
1127.99793	8419.975
1131.63641	8266.375
1135.2724	7851.175
1138.90589	7539.175
1142.5369	7366.075
1146.16542	7250.475
1149.79145	7152.275
1153.415	7120.375
1157.03607	7085.275
1160.65467	7171.275
1164.27079	7381.175
1167.88443	7623.075
1171.49561	8067.075
1175.10432	8648.275
1178.71056	9580.275
1182.31434	10373.575
1185.91565	10591.475
1189.51451	10435.175
1193.11091	10223.775
1196.70485	9949.475
1200.29634	9725.675
1203.88538	9459.475
1207.47197	9012.675
1211.05612	8559.375
1214.63782	8132.375
1218.21708	7893.275
1221.79391	7744.875
1225.36829	7675.175
1228.94024	7659.275
1232.50976	7665.775
1236.07685	7697.675
1239.6415	7723.575
1243.20374	7749.875
1246.76355	7786.775
1250.32093	7865.575
1253.8759	7920.075
1257.42845	8109.675
1260.97859	8332.975
1264.52631	8546.575
1268.07163	8713.775
1271.61453	8834.275
1275.15503	8877.875
1278.69312	8879.575
1282.22882	8956.575
1285.76211	9151.175
1289.29301	9404.175
1292.82151	9678.375
1296.34761	9903.075
1299.87133	10318.375
1303.39266	11010.375
1306.9116	12140.675
1310.42815	13401.075
1313.94233	13850.675
1317.45412	13049.875
1320.96354	11884.375
1324.47058	10891.875
1327.97525	10131.875
1331.47754	9709.275
1334.97747	9606.175
1338.47502	9739.975
1341.97022	10082.475
1345.46305	10816.375
1348.95352	11899.075
1352.44163	13186.975
1355.92738	14519.975
1359.41078	16204.275
1362.89183	17706.475
1366.37053	17073.775
1369.84688	14182.475
1373.32088	11514.775
1376.79254	10099.075
1380.26186	9472.575
1383.72883	9051.875
1387.19347	8654.375
1390.65578	8302.275
1394.11575	8060.675
1397.57339	7904.875
1401.0287	7807.875
1404.48168	7755.475
1407.93234	7776.075
1411.38068	7781.575
1414.82669	7870.475
1418.27039	7943.675
1421.71177	7955.975
1425.15083	7844.975
1428.58758	7776.275
1432.02203	7811.175
1435.45416	7893.775
1438.88399	7873.175
1442.31151	7893.375
1445.73673	7944.875
1449.15965	8004.775
1452.58027	8013.475
1455.9986	8006.075
1459.41463	8011.175
1462.82837	8103.875
1466.23982	8300.875
1469.64898	8518.975
1473.05586	8656.075
1476.46045	8784.875
1479.86276	8819.775
1483.26279	8909.275
1486.66054	9117.275
1490.05602	9403.475
1493.44922	9938.375
1496.84016	10793.275
1500.22882	12171.775
1503.61521	13883.675
1506.99934	15723.375
1510.38121	16922.175
1513.76081	16808.775
1517.13816	15229.075
1520.51324	13086.175
1523.88607	11364.875
1527.25665	10342.675
1530.62498	9847.075
1533.99105	9616.075
1537.35488	9483.275
1540.71647	9397.175
1544.07581	9280.575
1547.4329	9159.775
1550.78776	9045.875
1554.14038	8957.775
1557.49077	8941.375
1560.83892	9035.375
1564.18484	9272.475
1567.52853	9573.675
1570.86999	9922.975
1574.20922	10068.275
1577.54624	9963.375
1580.88103	9410.975
1584.2136	8753.275
1587.54395	8382.075
1590.87208	8301.375
1594.19801	8481.575
1597.52172	8840.675
1600.84321	9000.075
1604.16251	8863.575
1607.47959	8659.375
1610.79447	8471.875
1614.10715	8172.375
1617.41763	7879.875
1620.7259	7600.375
1624.03199	7428.475
1627.33587	7382.275
1630.63757	7440.875
1633.93707	7667.075
1637.23439	8094.575
1640.52951	8801.675
1643.82246	9762.175
1647.11321	10925.875
1650.40179	11669.575
1653.68819	11332.875
1656.97241	10060.175
1660.25446	8649.675
1663.53433	7648.675
1666.81203	7055.875
1670.08756	6721.575
1673.36092	6541.675
1676.63211	6401.675
1679.90115	6286.575
1683.16801	6201.675
1686.43272	6121.375
1689.69527	6069.675
1692.95567	6002.075
1696.2139	5990.575
1699.46999	5936.975
1702.72392	5933.575
1705.97571	5928.975
1709.22535	5939.675
1712.47284	5972.075
1715.71819	5972.375
1718.96139	5976.175
1722.20246	5950.175
1725.44139	5920.775
1728.67818	5907.775
1731.91284	5851.775
1735.14537	5825.775
1738.37576	5777.675
1741.60403	5769.275
1744.83017	5746.175
1748.05418	5758.175
1751.27607	5750.675
1754.49584	5693.775
1757.71349	5681.575
1760.92903	5664.075
1764.14244	5629.775
1767.35375	5639.575
1770.56294	5626.975
1773.77002	5591.675
1776.97499	5617.075
1780.17785	5580.975
1783.37861	5568.175
1786.57727	5584.975
1789.77382	5533.875
1792.96828	5540.475
1796.16064	5583.975
1799.3509	5557.175
1802.53907	5545.475
1805.72514	5532.375
1808.90913	5475.775
1812.09102	5479.775
1815.27083	5467.775
1818.44856	5458.675
1821.6242	5456.375
1824.79776	5443.675
1827.96924	5429.175
1831.13864	5411.775
1834.30597	5418.875
1837.47122	5400.975
1840.6344	5387.575
1843.7955	5377.975
1846.95454	5343.975
1850.11151	5394.375
1853.26642	5339.275
1856.41926	5352.575
1859.57004	5356.475
1862.71876	5340.175
1865.86542	5347.675
1869.01003	5327.275
1872.15258	5309.875
1875.29308	5334.875
1878.43152	5332.975
1881.56792	5290.675
1884.70227	5274.175
1887.83457	5292.475
1890.96482	5269.375
1894.09304	5274.375
1897.21921	5261.375
1900.34335	5254.175
1903.46544	5244.475
1906.58551	5250.775
1909.70353	5244.675
1912.81953	5231.975
1915.93349	5218.575
1919.04543	5211.575
1922.15534	5194.375
1925.26322	5201.675
1928.36908	5186.175
1931.47292	5165.375
1934.57473	5181.775
1937.67453	5141.275
1940.77232	5115.975
1943.86808	5113.375
1946.96184	5125.375
1950.05358	5086.175
1953.14331	5064.675
1956.23103	5067.075
1959.31675	5038.475
1962.40046	4974.575
1965.48217	5004.675
1968.56188	4999.875
1971.63959	4999.475
1974.7153	4981.875
1977.78901	4961.775
1980.86073	4943.875
1983.93046	4901.675
1986.99819	4819.775
1990.06394	4848.675
1993.1277	4864.875
1996.18947	4848.275
1999.24925	4823.975
2002.30706	4824.375
2005.36288	4814.075
2008.41672	4780.975
2011.46859	4761.775
2014.51848	4762.975
2017.56639	4730.875
2020.61233	4724.875
2023.6563	4697.875
2026.6983	4668.875
2029.73833	4666.975
2032.7764	4672.575
2035.8125	4621.675
2038.84664	4648.475
2041.87881	4618.475
2044.90903	4623.475
2047.93729	4611.875
2050.96359	4598.275
2053.98794	4597.475
2057.01034	4605.375
2060.03078	4578.075
2063.04927	4563.675
2066.06582	4561.675
2069.08042	4556.275
2072.09307	4554.775
2075.10378	4543.975
2078.11255	4553.275
2081.11938	4555.175
2084.12426	4528.475
2087.12722	4524.875
2090.12824	4534.175
2093.12732	4536.875
2096.12447	4537.075
2099.11969	4549.275
2102.11299	4515.575
2105.10435	4565.975
2108.09379	4535.875
2111.08131	4542.475
2114.0669	4550.675
2117.05057	4525.675
2120.03233	4516.575
2123.01216	4556.675
2125.99008	4539.175
2128.96609	4551.175
2131.94018	4570.875
2134.91236	4552.575
2137.88263	4546.175
2140.851	4548.275
2143.81746	4578.475
2146.78201	4564.675
2149.74466	4543.175
2152.7054	4549.575
2155.66425	4535.875
2158.6212	4540.975
2161.57625	4505.575
2164.52941	4483.975
2167.48067	4510.475
2170.43004	4495.975
2173.37752	4525.775
2176.32311	4496.675
2179.26681	4500.175
2182.20863	4500.875
2185.14856	4499.975
2188.08661	4504.975
2191.02278	4517.575
2193.95707	4479.375
2196.88948	4481.075
2199.82001	4482.075
2202.74867	4474.075
2205.67545	4470.275
2208.60037	4491.075
2211.52341	4457.475
2214.44458	4454.275
2217.36388	4438.175
2220.28132	4414.875
2223.1969	4398.675
2226.11061	4393.175
2229.02246	4391.675
2231.93245	4386.175
2234.84058	4369.375
2237.74686	4366.975
2240.65128	4359.775
2243.55385	4339.875
2246.45456	4330.775
2249.35343	4345.475
2252.25044	4341.675
2255.14561	4323.375
2258.03893	4337.575
2260.93041	4314.475
2263.82004	4298.775
2266.70783	4294.175
2269.59378	4289.075
2272.4779	4270.575
2275.36017	4284.975
2278.24061	4265.075
2281.11922	4237.175
2283.996	4245.575
2286.87094	4220.775
2289.74405	4216.875
2292.61534	4217.275
2295.4848	4205.475
2298.35243	4195.775
2301.21824	4193.675
2304.08223	4180.075
2306.94439	4192.675
2309.80474	4198.375
2312.66327	4176.875
2315.51999	4158.475
2318.37489	4138.075
2321.22797	4133.575
2324.07925	4124.075
2326.92871	4120.975
2329.77637	4107.075
2332.62222	4110.875
2335.46626	4087.275
2338.3085	4085.375
2341.14893	4095.075
2343.98756	4104.875
2346.8244	4076.775
2349.65943	4066.775
2352.49267	4066.575
2355.32411	4071.875
2358.15376	4070.675
2360.98161	4063.075
2363.80768	4062.875
2366.63195	4065.875
2369.45444	4075.775
2372.27514	4066.075
2375.09405	4079.675
2377.91118	4045.375
2380.72652	4033.175
2383.54009	4040.775
2386.35187	4025.175
2389.16188	4001.075
2391.97011	4002.675
2394.77657	3989.875
2397.58125	3993.675
2400.38416	3970.775
2403.18529	3959.775
2405.98466	3953.075
2408.78226	3944.175
2411.57809	3935.375
2414.37216	3921.275
2417.16446	3923.175
2419.955	3910.775
2422.74378	3907.875
2425.5308	3895.675
2428.31606	3911.475
2431.09956	3902.275
2433.88131	3883.875
2436.6613	3883.775
2439.43954	3873.375
2442.21603	3885.775
2444.99077	3864.575
2447.76377	3877.975
2450.53501	3866.875
2453.30451	3850.175
2456.07226	3868.275
2458.83827	3860.075
2461.60254	3809.375
2464.36507	3849.175
2467.12586	3797.675
2469.88492	3830.075
2472.64224	3832.875
2475.39782	3820.175
2478.15167	3817.775
2480.90379	3800.575
2483.65417	3819.875
2486.40283	3825.175
2489.14976	3830.675
2491.89497	3818.075
2494.63845	3811.975
2497.3802	3817.475
2500.12024	3800.475
2502.85855	3804.975
2505.59514	3799.075
2508.33002	3787.875
2511.06318	3769.875
2513.79462	3765.075
2516.52435	3728.275
2519.25237	3699.775
2521.97867	3722.775
2524.70327	3715.675
2527.42616	3704.475
2530.14734	3716.575
2532.86681	3698.175
2535.58458	3694.675
2538.30065	3682.875
2541.01501	3703.675
2543.72768	3679.075
2546.43864	3679.275
2549.14791	3678.175
2551.85548	3659.275
2554.56136	3647.975
2557.26554	3650.275
2559.96803	3652.375
2562.66883	3640.675
2565.36794	3621.575
2568.06536	3582.875
2570.7611	3617.375
2573.45514	3604.675
2576.14751	3589.375
2578.83819	3576.275
2581.52719	3566.975
2584.21451	3554.375
2586.90015	3550.875
2589.58411	3526.375
2592.2664	3538.375
2594.94701	3545.175
2597.62594	3542.575
2600.30321	3478.275
2602.9788	3499.775
2605.65273	3483.175
2608.32498	3484.775
2610.99557	3504.375
2613.66449	3478.775
2616.33175	3501.075
2618.99734	3487.975
2621.66128	3473.875
2624.32355	3480.275
2626.98416	3454.075
2629.64311	3438.375
2632.30041	3441.975
2634.95605	3425.675
2637.61004	3413.475
2640.26238	3391.675
2642.91306	3397.975
2645.56209	3408.575
2648.20948	3412.575
2650.85521	3391.775
2653.4993	3408.775
2656.14175	3385.075
2658.78255	3392.375
2661.42171	3363.775
2664.05923	3390.875
2666.6951	3411.075
2669.32934	3410.975
2671.96194	3424.275
2674.59291	3393.075
2677.22224	3395.375
2679.84993	3387.975
2682.476	3401.475
2685.10043	3381.175
2687.72324	3368.275
2690.34441	3371.875
2692.96396	3367.675
2695.58188	3387.875
2698.19818	3372.075
2700.81285	3363.975
2703.4259	3348.675
2706.03733	3326.375
2708.64714	3333.275
2711.25533	3368.475
2713.86191	3358.375
2716.46687	3351.875
2719.07021	3357.075
2721.67194	3357.775
2724.27206	3366.675
2726.87057	3345.975
2729.46747	3341.875
2732.06276	3351.175
2734.65644	3314.175
2737.24852	3334.475
2739.83899	3312.475
2742.42786	3326.175
2745.01513	3319.475
2747.60079	3303.175
2750.18486	3293.775
2752.76733	3293.975
2755.3482	3287.175
2757.92747	3287.575
2760.50515	3266.475
2763.08123	3266.975
2765.65573	3256.875
2768.22863	3260.075
2770.79994	3242.875
2773.36967	3242.175
2775.9378	3230.275
2778.50435	3232.575
2781.06932	3233.375
2783.6327	3212.175
2786.1945	3244.175
2788.75471	3207.075
2791.31335	3214.875
2793.87041	3211.275
2796.42589	3173.675
2798.97979	3163.075
2801.53212	3187.775
2804.08288	3198.375
2806.63206	3171.775
2809.17967	3149.475
2811.72571	3157.775
2814.27018	3162.375
2816.81308	3146.575
2819.35442	3115.175
2821.89419	3127.475
2824.43239	3109.775
2826.96904	3133.075
2829.50412	3110.075
2832.03763	3115.675
2834.56959	3106.475
2837.1	3100.575
2839.62884	3102.675
2842.15613	3096.975
2844.68186	3100.675
2847.20604	3067.875
2849.72867	3066.875
2852.24974	3071.875
2854.76927	3055.875
2857.28724	3003.375
2859.80367	3062.275
2862.31855	3055.975
2864.83189	3051.475
2867.34368	3064.075
2869.85393	3066.075
2872.36264	3030.775
2874.8698	3038.375
2877.37543	3050.875
2879.87952	3032.575
2882.38207	3026.675
2884.88308	3028.075
2887.38256	3023.975
2889.88051	3016.775
2892.37692	3021.275
2894.8718	3005.175
2897.36515	3023.375
2899.85698	3002.975
2902.34727	3013.775
2904.83604	3007.775
2907.32328	3027.975
2909.809	3023.175
2912.29319	3021.475
2914.77587	3021.875
2917.25702	3040.475
2919.73665	3032.475
2922.21476	3041.375
2924.69136	3039.775
2927.16644	3015.075
2929.64	3020.475
2932.11205	3009.175
2934.58258	3006.175
2937.05161	2993.675
2939.51912	2994.775
2941.98513	3012.975
2944.44962	2993.275
2946.91261	2952.375
2949.37409	2959.675
2951.83407	2963.275
2954.29254	2962.375
2956.74951	2960.275
2959.20498	2952.175
2961.65895	2945.975
2964.11142	2939.475
2966.56239	2936.775
2969.01186	2942.475
2971.45984	2919.075
2973.90632	2930.975
2976.35131	2939.275
2978.7948	2910.275
2981.23681	2903.875
2983.67732	2910.275
2986.11635	2900.275
2988.55388	2869.075
2990.98993	2889.275
2993.4245	2868.675
2995.85758	2857.375
2998.28917	2849.875
3000.71928	2831.775
3003.14791	2834.875
3005.57506	2812.075
3008.00073	2814.975
3010.42493	2747.775
3012.84764	2808.475
3015.26888	2812.175
3017.68865	2800.475
3020.10694	2750.075
3022.52376	2778.175
3024.9391	2769.575
3027.35298	2753.475
3029.76539	2738.475
3032.17632	2743.875
3034.5858	2730.875
3036.9938	2735.375
3039.40034	2732.775
3041.80542	2724.075
3044.20903	2700.675
3046.61118	2698.175
3049.01187	2706.475
3051.4111	2687.075
3053.80888	2682.575
3056.20519	2676.875
3058.60005	2655.175
3060.99345	2675.175
3063.3854	2652.475
3065.7759	2650.575
3068.16494	2632.475
3070.55254	2630.275
3072.93868	2635.275
3075.32338	2629.975
3077.70662	2614.175
3080.08842	2595.875
3082.46878	2593.375
3084.84769	2617.775
3087.22515	2580.675
3089.60118	2600.175
3091.97576	2580.075
3094.3489	2588.275
3096.72061	2590.075
3099.09087	2580.175
3101.4597	2574.775
3103.82709	2570.175
3106.19305	2553.075
3108.55757	2566.075
3110.92066	2538.675
3113.28232	2570.975
3115.64255	2556.175
3118.00134	2550.475
3120.35871	2524.475
3122.71466	2511.475
3125.06917	2516.075
3127.42226	2508.275
3129.77393	2502.875
3132.12417	2509.875
3134.47299	2509.375
3136.82039	2489.375
3139.16636	2454.875
3141.51092	2491.575
3143.85406	2487.375
3146.19579	2476.275
3148.53609	2457.575
3150.87499	2479.775
3153.21246	2459.975
3155.54853	2471.875
3157.88318	2472.175
3160.21642	2475.375
3162.54826	2473.975
3164.87868	2478.675
3167.2077	2428.475
3169.5353	2455.375
3171.86151	2451.575
3174.18631	2442.675
3176.5097	2436.175
3178.83169	2437.975
3181.15228	2444.475
3183.47147	2413.075
3185.78926	2400.475
3188.10565	2397.675
3190.42065	2389.775
3192.73424	2401.975
3195.04645	2387.975
3197.35725	2372.775
3199.66667	2384.275
3201.97469	2386.175
3204.28132	2374.275
3206.58656	2374.675
3208.8904	2377.975
3211.19287	2380.175
3213.49394	2371.475
3215.79363	2352.375
3218.09193	2384.275
3220.38884	2363.475
3222.68438	2370.075
3224.97853	2338.075
3227.2713	2359.575
3229.56269	2353.975
3231.8527	2347.775
