Data from AgNPs_UA_50uM_CRN_500uM_SU_RamanShift__75__14-08-20-328.txt Node

Date: Thu Aug 04 14:08:20 BST 2022
User: TCL
Spectrometer: QEP01345
Trigger mode: 4
Integration Time (sec): 1.000000E0
Scans to average: 10
Electric dark correction enabled: true
Nonlinearity correction enabled: false
Boxcar width: 0
XAxis mode: Raman Shifts
Number of Pixels in Spectrum: 1044
>>>>>Begin Spectral Data<<<<<
46.04893	0.875
50.45542	-0.925
54.85868	0.375
59.25871	-1.225
63.6555	19.275
68.04907	13.775
72.43941	19.975
76.82654	19.775
81.21044	19.475
85.59113	20.875
89.96862	23.975
94.34289	21.775
98.71396	22.675
103.08183	24.675
107.4465	20.775
111.80798	23.075
116.16626	24.775
120.52136	27.075
124.87327	28.775
129.222	31.275
133.56755	33.575
137.90993	36.375
142.24913	37.375
146.58517	42.875
150.91804	52.975
155.24774	63.275
159.57429	79.275
163.89768	101.775
168.21792	137.275
172.53501	187.175
176.84895	262.075
181.15975	379.275
185.46741	520.575
189.77193	724.675
194.07331	980.175
198.37157	1256.475
202.6667	1545.975
206.9587	1858.975
211.24758	2143.775
215.53334	2425.175
219.81599	2755.375
224.09553	3106.675
228.37195	3505.575
232.64527	3930.175
236.91549	4352.875
241.18261	4733.375
245.44663	5038.375
249.70755	5295.175
253.96539	5502.575
258.22014	5713.975
262.4718	5875.275
266.72039	5995.175
270.96589	6070.975
275.20832	6033.875
279.44768	5961.075
283.68397	5853.975
287.91719	5786.075
292.14735	5782.675
296.37445	5867.175
300.59849	6064.175
304.81948	6274.875
309.03742	6454.575
313.25231	6537.575
317.46415	6423.175
321.67296	6188.975
325.87872	5937.275
330.08145	5823.775
334.28114	5831.775
338.47781	5926.375
342.67145	6073.275
346.86207	6253.175
351.04966	6506.675
355.23424	6755.575
359.4158	6954.875
363.59435	7067.475
367.76989	7109.475
371.94243	7136.275
376.11196	7119.275
380.27849	7112.075
384.44203	7139.775
388.60257	7136.275
392.76012	7194.975
396.91468	7280.875
401.06626	7388.875
405.21485	7461.275
409.36047	7351.675
413.50311	7115.175
417.64277	6870.775
421.77947	6721.975
425.9132	6690.475
430.04396	6719.075
434.17176	6811.675
438.2966	6963.375
442.41849	7155.475
446.53742	7413.075
450.6534	7637.575
454.76644	7802.675
458.87653	7823.375
462.98368	7716.775
467.08789	7584.675
471.18916	7361.275
475.2875	7127.575
479.38291	6942.575
483.4754	6825.075
487.56496	6732.675
491.6516	6671.075
495.73531	6643.975
499.81612	6640.675
503.89401	6688.875
507.96899	6728.775
512.04106	6784.675
516.11023	6864.375
520.1765	6954.875
524.23987	6974.375
528.30034	6955.475
532.35792	6912.175
536.41261	6827.375
540.46441	6730.075
544.51333	6707.175
548.55936	6744.075
552.60252	6871.575
556.64279	6963.975
560.6802	7032.175
564.71473	7077.175
568.7464	7158.475
572.7752	7157.175
576.80114	7032.875
580.82422	6929.075
584.84444	6968.375
588.86181	7129.575
592.87633	7354.675
596.888	7574.175
600.89682	7847.075
604.9028	8687.575
608.90594	10501.575
612.90624	12137.275
616.90371	11050.075
620.89834	8627.775
624.89015	7758.775
628.87913	7689.075
632.86528	7627.275
636.84862	7430.775
640.82913	7160.575
644.80683	6882.475
648.78172	6724.675
652.75379	6769.575
656.72306	7017.875
660.68952	7262.275
664.65319	7225.175
668.61405	7072.075
672.57211	7019.075
676.52738	6982.975
680.47986	6870.375
684.42955	6784.475
688.37646	6813.375
692.32058	6883.275
696.26192	6999.375
700.20048	7077.675
704.13626	7088.575
708.06928	6981.075
711.99952	6920.275
715.927	6935.275
719.85171	6991.175
723.77365	6961.275
727.69284	6895.975
731.60928	6827.575
735.52295	6833.675
739.43388	6909.075
743.34206	6958.775
747.24749	6987.575
751.15017	7028.575
755.05012	7105.675
758.94733	7379.375
762.8418	8016.475
766.73354	8994.775
770.62254	9810.275
774.50882	10044.375
778.39237	9539.675
782.27321	8668.275
786.15132	7851.775
790.02671	7359.575
793.89938	7124.075
797.76935	7027.275
801.6366	6979.475
805.50115	6950.475
809.36299	6915.875
813.22213	6869.575
817.07857	6852.575
820.93231	6857.075
824.78336	6879.575
828.63172	6904.475
832.47738	6928.275
836.32036	6924.575
840.16066	6965.675
843.99827	7003.475
847.8332	6958.975
851.66546	6921.775
855.49504	6910.275
859.32195	6916.875
863.1462	6891.375
866.96777	6860.475
870.78668	6850.075
874.60293	6847.675
878.41652	6861.875
882.22745	6928.575
886.03573	6945.375
889.84136	6958.575
893.64433	6901.575
897.44466	6869.975
901.24235	6871.075
905.0374	6853.675
908.8298	6848.775
912.61957	6830.075
916.40671	6888.675
920.19121	6969.275
923.97308	7094.475
927.75233	7204.875
931.52895	7267.175
935.30295	7166.075
939.07433	6984.275
942.84309	6862.175
946.60924	6864.775
950.37278	6814.875
954.13371	6744.875
957.89203	6697.375
961.64774	6658.675
965.40086	6617.975
969.15137	6615.175
972.89929	6613.775
976.64461	6615.875
980.38733	6632.275
984.12747	6671.975
987.86502	6738.375
991.59999	6845.675
995.33237	7058.175
999.06217	7397.675
1002.78939	7704.375
1006.51404	7824.175
1010.23611	7810.275
1013.95561	7906.675
1017.67255	7998.175
1021.38692	8030.375
1025.09872	8009.775
1028.80796	8209.875
1032.51465	8546.075
1036.21877	8777.075
1039.92035	8735.175
1043.61937	8483.275
1047.31584	8139.475
1051.00976	7812.175
1054.70114	7682.075
1058.38998	7645.575
1062.07627	7598.775
1065.76003	7582.375
1069.44126	7594.775
1073.11995	7661.875
1076.79611	7736.875
1080.46974	7834.975
1084.14085	7977.575
1087.80943	8099.275
1091.47549	8061.975
1095.13903	7909.775
1098.80005	7772.075
1102.45857	7697.275
1106.11456	7707.175
1109.76805	7740.575
1113.41903	7817.175
1117.06751	7982.075
1120.71348	8193.575
1124.35696	8367.475
1127.99793	8505.275
1131.63641	8383.675
1135.2724	8138.475
1138.90589	7926.675
1142.5369	7734.375
1146.16542	7648.475
1149.79145	7578.075
1153.415	7596.175
1157.03607	7632.375
1160.65467	7719.375
1164.27079	7944.475
1167.88443	8292.575
1171.49561	8825.075
1175.10432	9636.275
1178.71056	10684.675
1182.31434	11626.175
1185.91565	12060.775
1189.51451	11942.775
1193.11091	11333.775
1196.70485	10639.975
1200.29634	10074.375
1203.88538	9590.075
1207.47197	9113.875
1211.05612	8772.975
1214.63782	8587.275
1218.21708	8554.075
1221.79391	8672.175
1225.36829	8764.875
1228.94024	8748.675
1232.50976	8605.175
1236.07685	8485.075
1239.6415	8472.875
1243.20374	8487.275
1246.76355	8556.175
1250.32093	8667.775
1253.8759	8929.175
1257.42845	9220.975
1260.97859	9535.875
1264.52631	9773.875
1268.07163	10008.675
1271.61453	10225.375
1275.15503	10442.375
1278.69312	10682.875
1282.22882	10929.475
1285.76211	11134.275
1289.29301	11295.875
1292.82151	11466.375
1296.34761	11761.775
1299.87133	12335.275
1303.39266	13205.375
1306.9116	14495.575
1310.42815	15820.275
1313.94233	16424.175
1317.45412	15915.175
1320.96354	14853.975
1324.47058	13799.675
1327.97525	12937.875
1331.47754	12522.275
1334.97747	12491.875
1338.47502	12652.875
1341.97022	12964.675
1345.46305	13431.975
1348.95352	14044.775
1352.44163	14801.275
1355.92738	15868.375
1359.41078	17351.675
1362.89183	18221.475
1366.37053	17217.475
1369.84688	14861.975
1373.32088	12706.475
1376.79254	11446.075
1380.26186	10860.475
1383.72883	10573.075
1387.19347	10264.775
1390.65578	9901.275
1394.11575	9603.075
1397.57339	9463.875
1401.0287	9511.975
1404.48168	9623.975
1407.93234	9753.575
1411.38068	9955.075
1414.82669	10087.675
1418.27039	10026.875
1421.71177	9877.075
1425.15083	9731.875
1428.58758	9761.375
1432.02203	9922.775
1435.45416	10113.275
1438.88399	10125.675
1442.31151	10088.075
1445.73673	10034.575
1449.15965	9996.475
1452.58027	9846.275
1455.9986	9678.475
1459.41463	9622.975
1462.82837	9712.675
1466.23982	9922.575
1469.64898	10103.275
1473.05586	10273.975
1476.46045	10447.875
1479.86276	10578.775
1483.26279	10709.675
1486.66054	10854.475
1490.05602	11075.975
1493.44922	11412.375
1496.84016	11949.375
1500.22882	12763.675
1503.61521	13805.775
1506.99934	14862.775
1510.38121	15499.175
1513.76081	15305.475
1517.13816	14284.575
1520.51324	12958.575
1523.88607	11943.975
1527.25665	11312.575
1530.62498	10975.975
1533.99105	10796.875
1537.35488	10718.175
1540.71647	10625.175
1544.07581	10537.075
1547.4329	10387.475
1550.78776	10194.275
1554.14038	10076.275
1557.49077	10028.975
1560.83892	10060.875
1564.18484	10159.475
1567.52853	10329.875
1570.86999	10435.675
1574.20922	10414.775
1577.54624	10225.875
1580.88103	9875.575
1584.2136	9565.975
1587.54395	9501.575
1590.87208	9949.675
1594.19801	10763.975
1597.52172	11734.175
1600.84321	12272.075
1604.16251	12039.875
1607.47959	11286.575
1610.79447	10385.675
1614.10715	9514.575
1617.41763	8839.675
1620.7259	8427.775
1624.03199	8253.375
1627.33587	8308.275
1630.63757	8560.675
1633.93707	9103.775
1637.23439	9870.475
1640.52951	10841.175
1643.82246	11928.775
1647.11321	12793.475
1650.40179	12796.675
1653.68819	11797.075
1656.97241	10237.275
1660.25446	8906.575
1663.53433	8001.275
1666.81203	7468.775
1670.08756	7137.175
1673.36092	6910.175
1676.63211	6791.475
1679.90115	6678.475
1683.16801	6611.975
1686.43272	6543.675
1689.69527	6490.175
1692.95567	6461.475
1696.2139	6437.075
1699.46999	6429.775
1702.72392	6436.475
1705.97571	6433.175
1709.22535	6421.175
1712.47284	6420.275
1715.71819	6438.175
1718.96139	6413.175
1722.20246	6373.275
1725.44139	6360.975
1728.67818	6308.675
1731.91284	6282.575
1735.14537	6265.075
1738.37576	6247.875
1741.60403	6224.075
1744.83017	6196.475
1748.05418	6210.375
1751.27607	6174.875
1754.49584	6172.575
1757.71349	6139.175
1760.92903	6133.675
1764.14244	6130.475
1767.35375	6133.375
1770.56294	6136.875
1773.77002	6116.775
1776.97499	6098.475
1780.17785	6081.475
1783.37861	6083.975
1786.57727	6065.275
1789.77382	6059.275
1792.96828	6053.775
1796.16064	6058.075
1799.3509	6034.875
1802.53907	6026.875
1805.72514	6021.875
1808.90913	5985.375
1812.09102	5974.575
1815.27083	5955.675
1818.44856	5961.075
1821.6242	5927.475
1824.79776	5932.975
1827.96924	5927.075
1831.13864	5882.175
1834.30597	5895.075
1837.47122	5888.275
1840.6344	5889.975
1843.7955	5882.575
1846.95454	5891.975
1850.11151	5889.175
1853.26642	5883.075
1856.41926	5875.775
1859.57004	5882.675
1862.71876	5881.875
1865.86542	5860.275
1869.01003	5874.175
1872.15258	5865.575
1875.29308	5863.475
1878.43152	5875.175
1881.56792	5861.275
1884.70227	5867.775
1887.83457	5856.675
1890.96482	5844.875
1894.09304	5824.575
1897.21921	5821.075
1900.34335	5816.275
1903.46544	5790.575
1906.58551	5781.475
1909.70353	5785.875
1912.81953	5787.475
1915.93349	5780.975
1919.04543	5774.775
1922.15534	5770.775
1925.26322	5763.575
1928.36908	5775.075
1931.47292	5764.075
1934.57473	5745.475
1937.67453	5739.775
1940.77232	5723.375
1943.86808	5690.075
1946.96184	5690.575
1950.05358	5671.875
1953.14331	5649.475
1956.23103	5623.675
1959.31675	5604.275
1962.40046	5598.075
1965.48217	5588.775
1968.56188	5576.575
1971.63959	5546.575
1974.7153	5550.075
1977.78901	5546.275
1980.86073	5508.475
1983.93046	5498.175
1986.99819	5479.275
1990.06394	5449.075
1993.1277	5442.075
1996.18947	5405.275
1999.24925	5408.975
2002.30706	5378.575
2005.36288	5357.975
2008.41672	5357.675
2011.46859	5342.875
2014.51848	5321.475
2017.56639	5320.575
2020.61233	5289.875
2023.6563	5290.975
2026.6983	5273.275
2029.73833	5255.275
2032.7764	5241.075
2035.8125	5221.775
2038.84664	5230.475
2041.87881	5244.275
2044.90903	5218.375
2047.93729	5207.875
2050.96359	5213.475
2053.98794	5185.175
2057.01034	5205.375
2060.03078	5185.175
2063.04927	5211.475
2066.06582	5176.675
2069.08042	5164.675
2072.09307	5153.575
2075.10378	5153.375
2078.11255	5139.475
2081.11938	5136.875
2084.12426	5148.975
2087.12722	5155.675
2090.12824	5144.775
2093.12732	5131.475
2096.12447	5137.775
2099.11969	5144.675
2102.11299	5123.275
2105.10435	5146.275
2108.09379	5152.575
2111.08131	5146.575
2114.0669	5134.675
2117.05057	5144.375
2120.03233	5138.075
2123.01216	5136.275
2125.99008	5148.275
2128.96609	5178.775
2131.94018	5164.875
2134.91236	5152.875
2137.88263	5147.475
2140.851	5157.375
2143.81746	5163.875
2146.78201	5156.875
2149.74466	5155.775
2152.7054	5147.475
2155.66425	5153.275
2158.6212	5166.075
2161.57625	5142.675
2164.52941	5138.075
2167.48067	5143.675
2170.43004	5148.975
2173.37752	5144.475
2176.32311	5134.575
2179.26681	5147.875
2182.20863	5151.875
2185.14856	5147.775
2188.08661	5143.975
2191.02278	5140.875
2193.95707	5145.775
2196.88948	5122.875
2199.82001	5140.375
2202.74867	5139.775
2205.67545	5122.275
2208.60037	5138.875
2211.52341	5144.675
2214.44458	5144.275
2217.36388	5129.575
2220.28132	5137.375
2223.1969	5091.075
2226.11061	5082.675
2229.02246	5089.575
2231.93245	5078.775
2234.84058	5055.175
2237.74686	5035.075
2240.65128	5038.475
2243.55385	5010.675
2246.45456	5032.675
2249.35343	5024.975
2252.25044	5018.475
2255.14561	5005.975
2258.03893	5008.975
2260.93041	5012.475
2263.82004	5001.175
2266.70783	4987.575
2269.59378	4973.375
2272.4779	4945.675
2275.36017	4929.175
2278.24061	4911.175
2281.11922	4903.275
2283.996	4899.075
2286.87094	4899.175
2289.74405	4889.975
2292.61534	4894.375
2295.4848	4890.775
2298.35243	4886.775
2301.21824	4883.775
2304.08223	4897.175
2306.94439	4894.475
2309.80474	4914.675
2312.66327	4913.175
2315.51999	4905.175
2318.37489	4916.475
2321.22797	4907.775
2324.07925	4894.675
2326.92871	4892.475
2329.77637	4898.275
2332.62222	4879.375
2335.46626	4884.275
2338.3085	4886.875
2341.14893	4899.375
2343.98756	4913.475
2346.8244	4892.275
2349.65943	4895.175
2352.49267	4900.675
2355.32411	4897.575
2358.15376	4913.375
2360.98161	4886.375
2363.80768	4874.375
2366.63195	4862.675
2369.45444	4852.075
2372.27514	4845.375
2375.09405	4843.875
2377.91118	4840.675
2380.72652	4799.175
2383.54009	4795.975
2386.35187	4793.475
2389.16188	4782.775
2391.97011	4783.775
2394.77657	4770.275
2397.58125	4746.175
2400.38416	4738.875
2403.18529	4736.275
2405.98466	4732.175
2408.78226	4721.475
2411.57809	4705.075
2414.37216	4666.175
2417.16446	4666.975
2419.955	4659.975
2422.74378	4657.675
2425.5308	4659.275
2428.31606	4649.275
2431.09956	4652.375
2433.88131	4651.575
2436.6613	4660.075
2439.43954	4651.075
2442.21603	4644.075
2444.99077	4648.475
2447.76377	4646.575
2450.53501	4651.975
2453.30451	4642.875
2456.07226	4633.275
2458.83827	4627.275
2461.60254	4628.875
2464.36507	4615.475
2467.12586	4612.975
2469.88492	4627.175
2472.64224	4618.175
2475.39782	4618.375
2478.15167	4612.875
2480.90379	4613.175
2483.65417	4606.975
2486.40283	4637.775
2489.14976	4645.275
2491.89497	4647.875
2494.63845	4648.675
2497.3802	4613.175
2500.12024	4632.475
2502.85855	4615.375
2505.59514	4626.675
2508.33002	4610.175
2511.06318	4606.875
2513.79462	4581.275
2516.52435	4576.375
2519.25237	4580.375
2521.97867	4568.275
2524.70327	4565.875
2527.42616	4562.875
2530.14734	4570.575
2532.86681	4555.275
2535.58458	4574.375
2538.30065	4576.275
2541.01501	4562.575
2543.72768	4571.975
2546.43864	4563.675
2549.14791	4541.575
2551.85548	4540.075
2554.56136	4545.475
2557.26554	4516.175
2559.96803	4523.175
2562.66883	4499.975
2565.36794	4512.775
2568.06536	4519.475
2570.7611	4503.975
2573.45514	4507.075
2576.14751	4494.475
2578.83819	4484.475
2581.52719	4479.175
2584.21451	4486.575
2586.90015	4487.875
2589.58411	4500.675
2592.2664	4477.775
2594.94701	4469.175
2597.62594	4484.075
2600.30321	4473.475
2602.9788	4479.175
2605.65273	4462.475
2608.32498	4463.875
2610.99557	4470.875
2613.66449	4470.975
2616.33175	4486.175
2618.99734	4482.175
2621.66128	4478.375
2624.32355	4488.475
2626.98416	4480.675
2629.64311	4466.275
2632.30041	4470.175
2634.95605	4466.775
2637.61004	4462.175
2640.26238	4435.675
2642.91306	4441.575
2645.56209	4441.875
2648.20948	4425.375
2650.85521	4420.575
2653.4993	4432.175
2656.14175	4406.875
2658.78255	4418.375
2661.42171	4396.975
2664.05923	4417.575
2666.6951	4426.975
2669.32934	4428.175
2671.96194	4421.475
2674.59291	4412.275
2677.22224	4403.375
2679.84993	4417.375
2682.476	4408.075
2685.10043	4407.275
2687.72324	4393.275
2690.34441	4390.375
2692.96396	4388.275
2695.58188	4355.475
2698.19818	4358.575
2700.81285	4378.775
2703.4259	4365.975
2706.03733	4363.575
2708.64714	4365.575
2711.25533	4349.375
2713.86191	4356.475
2716.46687	4360.375
2719.07021	4365.175
2721.67194	4369.475
2724.27206	4370.075
2726.87057	4378.675
2729.46747	4374.475
2732.06276	4367.475
2734.65644	4370.675
2737.24852	4383.375
2739.83899	4350.075
2742.42786	4352.275
2745.01513	4334.475
2747.60079	4342.975
2750.18486	4347.075
2752.76733	4331.375
2755.3482	4327.275
2757.92747	4306.575
2760.50515	4318.275
2763.08123	4318.575
2765.65573	4317.575
2768.22863	4299.775
2770.79994	4294.375
2773.36967	4302.475
2775.9378	4327.975
2778.50435	4310.175
2781.06932	4304.175
2783.6327	4299.875
2786.1945	4288.875
2788.75471	4296.275
2791.31335	4288.375
2793.87041	4277.575
2796.42589	4279.475
2798.97979	4264.375
2801.53212	4261.275
2804.08288	4258.975
2806.63206	4250.375
2809.17967	4231.275
2811.72571	4215.075
2814.27018	4227.475
2816.81308	4200.775
2819.35442	4205.375
2821.89419	4214.875
2824.43239	4190.475
2826.96904	4186.075
2829.50412	4190.975
2832.03763	4182.775
2834.56959	4181.775
2837.1	4171.975
2839.62884	4168.975
2842.15613	4155.375
2844.68186	4146.175
2847.20604	4147.175
2849.72867	4150.675
2852.24974	4137.275
2854.76927	4140.275
2857.28724	4136.575
2859.80367	4136.275
2862.31855	4121.575
2864.83189	4131.675
2867.34368	4124.075
2869.85393	4120.175
2872.36264	4103.875
2874.8698	4112.675
2877.37543	4117.975
2879.87952	4108.475
2882.38207	4104.275
2884.88308	4092.575
2887.38256	4085.275
2889.88051	4083.175
2892.37692	4077.375
2894.8718	4067.775
2897.36515	4079.275
2899.85698	4094.875
2902.34727	4091.975
2904.83604	4094.375
2907.32328	4100.175
2909.809	4097.775
2912.29319	4108.075
2914.77587	4102.775
2917.25702	4114.475
2919.73665	4113.275
2922.21476	4116.275
2924.69136	4085.575
2927.16644	4104.775
2929.64	4088.775
2932.11205	4075.275
2934.58258	4058.775
2937.05161	4063.275
2939.51912	4066.375
2941.98513	4055.175
2944.44962	4047.175
2946.91261	4044.275
2949.37409	4039.175
2951.83407	4030.175
2954.29254	4053.775
2956.74951	4055.675
2959.20498	4045.175
2961.65895	4026.675
2964.11142	4011.675
2966.56239	4014.975
2969.01186	4016.575
2971.45984	4003.475
2973.90632	3994.575
2976.35131	3995.375
2978.7948	3986.675
2981.23681	3967.875
2983.67732	3958.475
2986.11635	3943.875
2988.55388	3941.075
2990.98993	3937.875
2993.4245	3921.275
2995.85758	3919.975
2998.28917	3926.375
3000.71928	3908.675
3003.14791	3895.775
3005.57506	3888.375
3008.00073	3864.075
3010.42493	3861.875
3012.84764	3856.975
3015.26888	3840.775
3017.68865	3823.875
3020.10694	3828.375
3022.52376	3816.575
3024.9391	3809.475
3027.35298	3792.375
3029.76539	3775.175
3032.17632	3783.875
3034.5858	3780.475
3036.9938	3777.175
3039.40034	3766.775
3041.80542	3769.175
3044.20903	3760.175
3046.61118	3764.675
3049.01187	3735.375
3051.4111	3738.575
3053.80888	3734.675
3056.20519	3723.775
3058.60005	3708.175
3060.99345	3706.075
3063.3854	3695.075
3065.7759	3681.175
3068.16494	3662.775
3070.55254	3653.275
3072.93868	3633.675
3075.32338	3624.475
3077.70662	3629.675
3080.08842	3611.175
3082.46878	3612.975
3084.84769	3604.375
3087.22515	3600.075
3089.60118	3600.375
3091.97576	3598.575
3094.3489	3587.875
3096.72061	3592.175
3099.09087	3587.175
3101.4597	3585.475
3103.82709	3579.275
3106.19305	3565.675
3108.55757	3568.175
3110.92066	3553.075
3113.28232	3550.375
3115.64255	3539.075
3118.00134	3543.175
3120.35871	3525.775
3122.71466	3533.175
3125.06917	3521.275
3127.42226	3510.075
3129.77393	3516.375
3132.12417	3494.275
3134.47299	3512.275
3136.82039	3503.975
3139.16636	3493.975
3141.51092	3482.075
3143.85406	3482.775
3146.19579	3472.475
3148.53609	3478.975
3150.87499	3492.175
3153.21246	3472.175
3155.54853	3484.475
3157.88318	3480.375
3160.21642	3481.175
3162.54826	3469.175
3164.87868	3470.675
3167.2077	3465.575
3169.5353	3453.575
3171.86151	3453.775
3174.18631	3443.575
3176.5097	3447.975
3178.83169	3451.975
3181.15228	3442.075
3183.47147	3438.975
3185.78926	3435.375
3188.10565	3417.375
3190.42065	3431.975
3192.73424	3423.375
3195.04645	3415.475
3197.35725	3404.575
3199.66667	3406.075
3201.97469	3406.675
3204.28132	3403.575
3206.58656	3396.875
3208.8904	3416.375
3211.19287	3393.375
3213.49394	3388.375
3215.79363	3399.075
3218.09193	3393.275
3220.38884	3396.875
3222.68438	3412.975
3224.97853	3397.375
3227.2713	3385.775
3229.56269	3392.075
