Data from AgNPs_UA_10uM_CRN_500uM_SU_RamanShift__67__13-16-30-267.txt Node

Date: Thu Aug 04 13:16:30 BST 2022
User: TCL
Spectrometer: QEP01345
Trigger mode: 4
Integration Time (sec): 1.000000E0
Scans to average: 10
Electric dark correction enabled: true
Nonlinearity correction enabled: false
Boxcar width: 0
XAxis mode: Raman Shifts
Number of Pixels in Spectrum: 1044
>>>>>Begin Spectral Data<<<<<
46.04893	0.725
50.45542	0.025
54.85868	-0.075
59.25871	0.025
63.6555	23.525
68.04907	21.225
72.43941	24.725
76.82654	23.325
81.21044	25.125
85.59113	26.625
89.96862	26.525
94.34289	26.525
98.71396	27.725
103.08183	30.325
107.4465	29.125
111.80798	32.825
116.16626	32.925
120.52136	35.625
124.87327	38.825
129.222	40.625
133.56755	42.025
137.90993	46.625
142.24913	52.425
146.58517	56.825
150.91804	67.525
155.24774	85.225
159.57429	105.525
163.89768	135.425
168.21792	182.525
172.53501	249.125
176.84895	353.125
181.15975	498.625
185.46741	704.825
189.77193	981.225
194.07331	1336.325
198.37157	1713.425
202.6667	2123.325
206.9587	2537.325
211.24758	2951.925
215.53334	3364.025
219.81599	3814.025
224.09553	4293.225
228.37195	4826.225
232.64527	5417.725
236.91549	6005.525
241.18261	6515.825
245.44663	7000.325
249.70755	7361.925
253.96539	7684.825
258.22014	7967.625
262.4718	8218.625
266.72039	8354.325
270.96589	8388.625
275.20832	8365.725
279.44768	8259.625
283.68397	8156.025
287.91719	8052.725
292.14735	8044.825
296.37445	8124.125
300.59849	8277.025
304.81948	8504.725
309.03742	8704.725
313.25231	8839.225
317.46415	8767.025
321.67296	8530.725
325.87872	8290.825
330.08145	8174.825
334.28114	8164.425
338.47781	8243.225
342.67145	8376.725
346.86207	8552.225
351.04966	8858.325
355.23424	9170.625
359.4158	9361.925
363.59435	9496.425
367.76989	9559.625
371.94243	9548.225
376.11196	9552.525
380.27849	9589.025
384.44203	9661.325
388.60257	9741.125
392.76012	9837.125
396.91468	9969.325
401.06626	10108.425
405.21485	10164.825
409.36047	10081.625
413.50311	9869.525
417.64277	9680.425
421.77947	9545.725
425.9132	9457.325
430.04396	9369.925
434.17176	9405.025
438.2966	9491.425
442.41849	9621.025
446.53742	9800.825
450.6534	9989.425
454.76644	10134.625
458.87653	10246.425
462.98368	10272.325
467.08789	10254.525
471.18916	10125.825
475.2875	9953.925
479.38291	9793.825
483.4754	9688.625
487.56496	9616.425
491.6516	9603.725
495.73531	9602.625
499.81612	9634.725
503.89401	9747.225
507.96899	9780.825
512.04106	9809.525
516.11023	9834.525
520.1765	9861.525
524.23987	9854.625
528.30034	9865.025
532.35792	9854.425
536.41261	9797.725
540.46441	9720.525
544.51333	9708.125
548.55936	9788.025
552.60252	9873.625
556.64279	10020.525
560.6802	10137.725
564.71473	10222.825
568.7464	10267.625
572.7752	10189.725
576.80114	9966.325
580.82422	9802.525
584.84444	9724.325
588.86181	9723.425
592.87633	9766.525
596.888	9926.425
600.89682	10361.225
604.9028	11390.225
608.90594	13421.225
612.90624	15264.725
616.90371	14195.825
620.89834	11528.325
624.89015	10431.425
628.87913	10385.025
632.86528	10586.425
636.84862	10728.725
640.82913	10515.925
644.80683	10152.425
648.78172	9969.825
652.75379	9992.425
656.72306	10240.225
660.68952	10518.825
664.65319	10463.925
668.61405	10433.725
672.57211	10627.625
676.52738	10594.625
680.47986	10338.425
684.42955	10085.925
688.37646	10042.425
692.32058	10122.925
696.26192	10325.025
700.20048	10504.925
704.13626	10570.525
708.06928	10435.625
711.99952	10301.125
715.927	10285.225
719.85171	10336.225
723.77365	10348.925
727.69284	10293.025
731.60928	10213.125
735.52295	10180.525
739.43388	10230.225
743.34206	10257.425
747.24749	10248.225
751.15017	10256.825
755.05012	10301.525
758.94733	10593.525
762.8418	11312.325
766.73354	12330.125
770.62254	13127.125
774.50882	13367.725
778.39237	13195.225
782.27321	12617.425
786.15132	11747.225
790.02671	11060.025
793.89938	10673.925
797.76935	10465.925
801.6366	10333.525
805.50115	10269.425
809.36299	10248.625
813.22213	10259.125
817.07857	10245.825
820.93231	10255.425
824.78336	10268.725
828.63172	10280.625
832.47738	10297.225
836.32036	10263.925
840.16066	10253.025
843.99827	10250.325
847.8332	10276.225
851.66546	10274.425
855.49504	10302.725
859.32195	10298.525
863.1462	10292.425
866.96777	10293.325
870.78668	10316.825
874.60293	10329.325
878.41652	10414.725
882.22745	10482.925
886.03573	10503.025
889.84136	10532.525
893.64433	10484.725
897.44466	10404.925
901.24235	10423.025
905.0374	10405.625
908.8298	10378.825
912.61957	10353.725
916.40671	10375.025
920.19121	10384.925
923.97308	10422.425
927.75233	10489.825
931.52895	10534.225
935.30295	10485.025
939.07433	10387.725
942.84309	10307.925
946.60924	10273.125
950.37278	10240.725
954.13371	10231.425
957.89203	10258.525
961.64774	10262.125
965.40086	10240.225
969.15137	10236.425
972.89929	10221.825
976.64461	10219.425
980.38733	10247.425
984.12747	10249.725
987.86502	10302.325
991.59999	10324.725
995.33237	10369.725
999.06217	10439.325
1002.78939	10512.225
1006.51404	10694.225
1010.23611	10868.725
1013.95561	10956.525
1017.67255	10991.725
1021.38692	10977.625
1025.09872	10918.625
1028.80796	10816.525
1032.51465	10767.225
1036.21877	10779.525
1039.92035	10808.025
1043.61937	10878.325
1047.31584	10897.325
1051.00976	10961.125
1054.70114	10988.325
1058.38998	11049.525
1062.07627	11072.825
1065.76003	11142.225
1069.44126	11278.825
1073.11995	11507.525
1076.79611	11733.825
1080.46974	11902.925
1084.14085	11969.525
1087.80943	12015.925
1091.47549	12074.325
1095.13903	12147.625
1098.80005	12321.525
1102.45857	12540.625
1106.11456	12557.225
1109.76805	12260.325
1113.41903	12139.325
1117.06751	12187.525
1120.71348	12303.025
1124.35696	12376.425
1127.99793	12441.325
1131.63641	12274.125
1135.2724	11970.625
1138.90589	11745.325
1142.5369	11607.825
1146.16542	11545.125
1149.79145	11475.325
1153.415	11351.225
1157.03607	11294.325
1160.65467	11338.325
1164.27079	11542.225
1167.88443	11816.725
1171.49561	12231.325
1175.10432	12832.925
1178.71056	13672.825
1182.31434	14390.125
1185.91565	14684.625
1189.51451	14752.725
1193.11091	14682.925
1196.70485	14549.525
1200.29634	14328.925
1203.88538	13985.625
1207.47197	13561.425
1211.05612	13093.725
1214.63782	12669.325
1218.21708	12316.625
1221.79391	12090.025
1225.36829	11986.725
1228.94024	11954.925
1232.50976	11967.425
1236.07685	12030.125
1239.6415	12102.525
1243.20374	12135.025
1246.76355	12199.725
1250.32093	12293.325
1253.8759	12426.825
1257.42845	12691.025
1260.97859	13032.325
1264.52631	13330.225
1268.07163	13556.525
1271.61453	13631.625
1275.15503	13627.325
1278.69312	13574.925
1282.22882	13548.525
1285.76211	13571.525
1289.29301	13706.125
1292.82151	13889.525
1296.34761	14087.125
1299.87133	14399.025
1303.39266	14975.425
1306.9116	15835.825
1310.42815	16762.125
1313.94233	17122.425
1317.45412	16719.125
1320.96354	16061.725
1324.47058	15442.125
1327.97525	14817.825
1331.47754	14407.925
1334.97747	14242.225
1338.47502	14428.525
1341.97022	14891.525
1345.46305	15739.925
1348.95352	16950.525
1352.44163	18221.325
1355.92738	19301.625
1359.41078	20300.225
1362.89183	20857.425
1366.37053	19819.825
1369.84688	17567.525
1373.32088	15484.925
1376.79254	14267.425
1380.26186	13692.825
1383.72883	13275.225
1387.19347	12894.325
1390.65578	12542.425
1394.11575	12221.625
1397.57339	11983.925
1401.0287	11872.625
1404.48168	11869.225
1407.93234	11954.525
1411.38068	12154.625
1414.82669	12346.525
1418.27039	12397.125
1421.71177	12405.925
1425.15083	12289.725
1428.58758	12158.925
1432.02203	12094.025
1435.45416	12039.225
1438.88399	12009.325
1442.31151	11980.525
1445.73673	12008.025
1449.15965	12021.825
1452.58027	12012.025
1455.9986	11962.425
1459.41463	11983.925
1462.82837	12050.925
1466.23982	12270.425
1469.64898	12481.225
1473.05586	12655.625
1476.46045	12815.125
1479.86276	12980.125
1483.26279	13138.325
1486.66054	13340.925
1490.05602	13701.825
1493.44922	14282.625
1496.84016	15084.225
1500.22882	16206.725
1503.61521	17538.925
1506.99934	18582.625
1510.38121	19113.125
1513.76081	18728.525
1517.13816	17506.225
1520.51324	16013.825
1523.88607	14833.925
1527.25665	14070.325
1530.62498	13695.425
1533.99105	13524.025
1537.35488	13432.325
1540.71647	13323.325
1544.07581	13216.125
1547.4329	13095.725
1550.78776	12907.325
1554.14038	12803.925
1557.49077	12778.225
1560.83892	12894.125
1564.18484	13160.325
1567.52853	13405.025
1570.86999	13609.025
1574.20922	13711.325
1577.54624	13600.125
1580.88103	13165.925
1584.2136	12624.225
1587.54395	12331.825
1590.87208	12304.225
1594.19801	12554.025
1597.52172	12901.525
1600.84321	13007.325
1604.16251	12939.425
1607.47959	12838.625
1610.79447	12572.425
1614.10715	12126.025
1617.41763	11711.525
1620.7259	11372.525
1624.03199	11170.825
1627.33587	11063.125
1630.63757	11132.625
1633.93707	11367.325
1637.23439	11855.825
1640.52951	12672.125
1643.82246	13740.425
1647.11321	14847.025
1650.40179	15315.525
1653.68819	14753.325
1656.97241	13413.425
1660.25446	12108.925
1663.53433	11213.825
1666.81203	10639.125
1670.08756	10327.425
1673.36092	10137.425
1676.63211	9988.525
1679.90115	9873.725
1683.16801	9820.225
1686.43272	9710.125
1689.69527	9673.225
1692.95567	9601.725
1696.2139	9599.925
1699.46999	9565.825
1702.72392	9534.925
1705.97571	9539.925
1709.22535	9555.225
1712.47284	9530.325
1715.71819	9537.125
1718.96139	9529.925
1722.20246	9538.625
1725.44139	9500.025
1728.67818	9418.225
1731.91284	9406.025
1735.14537	9366.225
1738.37576	9307.325
1741.60403	9273.425
1744.83017	9280.825
1748.05418	9247.325
1751.27607	9230.425
1754.49584	9203.225
1757.71349	9190.825
1760.92903	9172.725
1764.14244	9142.025
1767.35375	9109.325
1770.56294	9114.225
1773.77002	9099.125
1776.97499	9081.325
1780.17785	9024.625
1783.37861	8997.725
1786.57727	9014.525
1789.77382	9011.225
1792.96828	8991.925
1796.16064	8947.625
1799.3509	8942.825
1802.53907	8928.825
1805.72514	8915.925
1808.90913	8877.625
1812.09102	8888.925
1815.27083	8841.325
1818.44856	8814.125
1821.6242	8790.425
1824.79776	8794.325
1827.96924	8775.125
1831.13864	8764.325
1834.30597	8753.425
1837.47122	8716.625
1840.6344	8684.925
1843.7955	8684.925
1846.95454	8684.025
1850.11151	8659.425
1853.26642	8663.425
1856.41926	8679.225
1859.57004	8666.425
1862.71876	8657.225
1865.86542	8662.225
1869.01003	8630.725
1872.15258	8619.825
1875.29308	8606.625
1878.43152	8588.425
1881.56792	8587.625
1884.70227	8556.625
1887.83457	8541.625
1890.96482	8526.725
1894.09304	8487.025
1897.21921	8475.625
1900.34335	8473.225
1903.46544	8452.225
1906.58551	8433.525
1909.70353	8450.725
1912.81953	8446.325
1915.93349	8400.725
1919.04543	8394.525
1922.15534	8376.525
1925.26322	8367.625
1928.36908	8338.925
1931.47292	8306.725
1934.57473	8282.025
1937.67453	8273.225
1940.77232	8278.725
1943.86808	8240.125
1946.96184	8199.125
1950.05358	8164.325
1953.14331	8171.425
1956.23103	8127.725
1959.31675	8097.225
1962.40046	8080.925
1965.48217	8052.625
1968.56188	8025.225
1971.63959	7993.425
1974.7153	7963.525
1977.78901	7963.925
1980.86073	7954.125
1983.93046	7918.825
1986.99819	7877.125
1990.06394	7862.825
1993.1277	7821.225
1996.18947	7792.625
1999.24925	7746.325
2002.30706	7735.525
2005.36288	7689.525
2008.41672	7661.925
2011.46859	7661.625
2014.51848	7627.925
2017.56639	7610.625
2020.61233	7584.025
2023.6563	7557.225
2026.6983	7512.825
2029.73833	7513.725
2032.7764	7479.425
2035.8125	7455.925
2038.84664	7458.325
2041.87881	7437.925
2044.90903	7405.425
2047.93729	7405.025
2050.96359	7398.325
2053.98794	7357.425
2057.01034	7365.325
2060.03078	7351.625
2063.04927	7324.025
2066.06582	7314.625
2069.08042	7306.725
2072.09307	7290.225
2075.10378	7296.025
2078.11255	7286.025
2081.11938	7272.025
2084.12426	7275.925
2087.12722	7259.525
2090.12824	7262.825
2093.12732	7272.525
2096.12447	7269.725
2099.11969	7264.625
2102.11299	7266.225
2105.10435	7260.225
2108.09379	7267.525
2111.08131	7263.525
2114.0669	7247.525
2117.05057	7266.925
2120.03233	7265.225
2123.01216	7286.825
2125.99008	7272.025
2128.96609	7282.425
2131.94018	7278.325
2134.91236	7275.525
2137.88263	7254.925
2140.851	7247.525
2143.81746	7282.825
2146.78201	7241.725
2149.74466	7234.525
2152.7054	7256.325
2155.66425	7264.425
2158.6212	7234.025
2161.57625	7210.525
2164.52941	7228.325
2167.48067	7221.125
2170.43004	7203.425
2173.37752	7195.425
2176.32311	7201.225
2179.26681	7183.625
2182.20863	7214.425
2185.14856	7213.125
2188.08661	7186.825
2191.02278	7183.325
2193.95707	7193.225
2196.88948	7179.825
2199.82001	7166.025
2202.74867	7147.325
2205.67545	7166.925
2208.60037	7137.225
2211.52341	7118.225
2214.44458	7095.925
2217.36388	7063.425
2220.28132	7043.925
2223.1969	7024.325
2226.11061	6998.125
2229.02246	6996.225
2231.93245	6969.425
2234.84058	6958.025
2237.74686	6943.925
2240.65128	6935.725
2243.55385	6927.525
2246.45456	6910.825
2249.35343	6914.125
2252.25044	6899.525
2255.14561	6888.525
2258.03893	6886.925
2260.93041	6866.825
2263.82004	6846.625
2266.70783	6828.125
2269.59378	6824.325
2272.4779	6796.625
2275.36017	6780.225
2278.24061	6759.025
2281.11922	6755.125
2283.996	6733.025
2286.87094	6723.725
2289.74405	6722.025
2292.61534	6696.725
2295.4848	6672.725
2298.35243	6672.025
2301.21824	6664.925
2304.08223	6635.925
2306.94439	6639.325
2309.80474	6643.225
2312.66327	6603.925
2315.51999	6607.925
2318.37489	6607.025
2321.22797	6577.625
2324.07925	6571.425
2326.92871	6557.825
2329.77637	6545.325
2332.62222	6516.525
2335.46626	6500.225
2338.3085	6495.425
2341.14893	6487.325
2343.98756	6500.825
2346.8244	6492.225
2349.65943	6460.225
2352.49267	6458.725
2355.32411	6448.825
2358.15376	6445.425
2360.98161	6454.125
2363.80768	6450.125
2366.63195	6429.625
2369.45444	6433.125
2372.27514	6415.325
2375.09405	6425.025
2377.91118	6407.625
2380.72652	6377.725
2383.54009	6362.125
2386.35187	6357.725
2389.16188	6335.525
2391.97011	6308.325
2394.77657	6292.925
2397.58125	6265.225
2400.38416	6270.125
2403.18529	6254.225
2405.98466	6243.025
2408.78226	6236.325
2411.57809	6231.225
2414.37216	6205.525
2417.16446	6212.225
2419.955	6192.125
2422.74378	6184.725
2425.5308	6181.725
2428.31606	6188.125
2431.09956	6170.825
2433.88131	6165.625
2436.6613	6147.325
2439.43954	6137.425
2442.21603	6156.125
2444.99077	6141.225
2447.76377	6133.825
2450.53501	6109.325
2453.30451	6125.925
2456.07226	6099.625
2458.83827	6094.225
2461.60254	6078.225
2464.36507	6049.925
2467.12586	6073.625
2469.88492	6030.725
2472.64224	6048.525
2475.39782	6040.625
2478.15167	6046.025
2480.90379	6030.825
2483.65417	6003.525
2486.40283	5992.725
2489.14976	6006.725
2491.89497	5993.625
2494.63845	5997.125
2497.3802	5993.225
2500.12024	5967.525
2502.85855	5955.325
2505.59514	5962.525
2508.33002	5963.125
2511.06318	5932.225
2513.79462	5922.725
2516.52435	5910.525
2519.25237	5896.425
2521.97867	5874.125
2524.70327	5872.825
2527.42616	5853.325
2530.14734	5828.525
2532.86681	5830.225
2535.58458	5844.125
2538.30065	5836.625
2541.01501	5827.425
2543.72768	5816.525
2546.43864	5826.825
2549.14791	5788.025
2551.85548	5775.225
2554.56136	5774.925
2557.26554	5784.025
2559.96803	5737.225
2562.66883	5732.225
2565.36794	5699.325
2568.06536	5692.325
2570.7611	5671.825
2573.45514	5664.925
2576.14751	5659.325
2578.83819	5631.425
2581.52719	5643.725
2584.21451	5619.325
2586.90015	5622.125
2589.58411	5600.525
2592.2664	5591.525
2594.94701	5580.425
2597.62594	5567.225
2600.30321	5537.125
2602.9788	5556.625
2605.65273	5549.925
2608.32498	5520.625
2610.99557	5505.025
2613.66449	5510.725
2616.33175	5500.525
2618.99734	5488.725
2621.66128	5467.325
2624.32355	5454.225
2626.98416	5428.325
2629.64311	5436.025
2632.30041	5410.525
2634.95605	5413.025
2637.61004	5377.725
2640.26238	5392.725
2642.91306	5370.725
2645.56209	5361.525
2648.20948	5352.625
2650.85521	5371.525
2653.4993	5326.225
2656.14175	5351.625
2658.78255	5328.625
2661.42171	5329.025
2664.05923	5343.925
2666.6951	5347.725
2669.32934	5339.225
2671.96194	5342.725
2674.59291	5343.325
2677.22224	5345.225
2679.84993	5332.825
2682.476	5329.625
2685.10043	5329.025
2687.72324	5342.525
2690.34441	5317.425
2692.96396	5312.725
2695.58188	5332.625
2698.19818	5298.125
2700.81285	5313.325
2703.4259	5288.825
2706.03733	5292.325
2708.64714	5294.525
2711.25533	5272.025
2713.86191	5266.825
2716.46687	5284.025
2719.07021	5278.925
2721.67194	5261.825
2724.27206	5282.525
2726.87057	5271.325
2729.46747	5264.225
2732.06276	5252.325
2734.65644	5245.125
2737.24852	5247.225
2739.83899	5235.025
2742.42786	5221.825
2745.01513	5206.125
2747.60079	5198.225
2750.18486	5175.725
2752.76733	5177.925
2755.3482	5165.625
2757.92747	5160.725
2760.50515	5151.625
2763.08123	5147.325
2765.65573	5133.925
2768.22863	5112.225
2770.79994	5102.125
2773.36967	5090.225
2775.9378	5089.125
2778.50435	5083.925
2781.06932	5070.525
2783.6327	5069.725
2786.1945	5057.125
2788.75471	5038.225
2791.31335	5021.525
2793.87041	5011.225
2796.42589	5011.325
2798.97979	5001.425
2801.53212	4959.025
2804.08288	4964.025
2806.63206	4947.425
2809.17967	4943.025
2811.72571	4939.325
2814.27018	4930.425
2816.81308	4899.025
2819.35442	4904.725
2821.89419	4897.125
2824.43239	4882.625
2826.96904	4876.725
2829.50412	4872.825
2832.03763	4846.025
2834.56959	4842.325
2837.1	4826.025
2839.62884	4810.225
2842.15613	4797.425
2844.68186	4808.725
2847.20604	4796.525
2849.72867	4777.725
2852.24974	4761.125
2854.76927	4762.125
2857.28724	4761.525
2859.80367	4730.525
2862.31855	4735.625
2864.83189	4739.325
2867.34368	4736.125
2869.85393	4727.525
2872.36264	4720.825
2874.8698	4714.725
2877.37543	4697.925
2879.87952	4694.725
2882.38207	4677.825
2884.88308	4677.825
2887.38256	4680.925
2889.88051	4664.925
2892.37692	4655.225
2894.8718	4646.425
2897.36515	4656.925
2899.85698	4642.225
2902.34727	4645.225
2904.83604	4647.025
2907.32328	4667.325
2909.809	4639.825
2912.29319	4659.025
2914.77587	4641.725
2917.25702	4673.525
2919.73665	4654.825
2922.21476	4656.925
2924.69136	4638.025
2927.16644	4648.825
2929.64	4620.225
2932.11205	4621.825
2934.58258	4596.925
2937.05161	4598.025
2939.51912	4589.525
2941.98513	4591.925
2944.44962	4586.725
2946.91261	4570.925
2949.37409	4577.625
2951.83407	4552.325
2954.29254	4556.525
2956.74951	4553.525
2959.20498	4544.625
2961.65895	4555.825
2964.11142	4537.725
2966.56239	4531.225
2969.01186	4534.625
2971.45984	4534.525
2973.90632	4519.825
2976.35131	4508.725
2978.7948	4496.625
2981.23681	4477.925
2983.67732	4486.025
2986.11635	4465.125
2988.55388	4473.025
2990.98993	4445.725
2993.4245	4440.125
2995.85758	4433.325
2998.28917	4419.425
3000.71928	4399.425
3003.14791	4397.425
3005.57506	4378.825
3008.00073	4365.225
3010.42493	4360.125
3012.84764	4357.325
3015.26888	4352.125
3017.68865	4334.725
3020.10694	4339.725
3022.52376	4304.225
3024.9391	4291.825
3027.35298	4269.725
3029.76539	4271.325
3032.17632	4257.525
3034.5858	4257.325
3036.9938	4233.925
3039.40034	4229.225
3041.80542	4227.225
3044.20903	4195.025
3046.61118	4204.425
3049.01187	4190.725
3051.4111	4178.025
3053.80888	4177.525
3056.20519	4174.025
3058.60005	4154.425
3060.99345	4132.425
3063.3854	4136.025
3065.7759	4128.025
3068.16494	4110.525
3070.55254	4090.225
3072.93868	4070.025
3075.32338	4062.725
3077.70662	4059.525
3080.08842	4044.025
3082.46878	4045.425
3084.84769	4024.125
3087.22515	4030.125
3089.60118	4033.825
3091.97576	4017.525
3094.3489	4014.825
3096.72061	4006.825
3099.09087	3989.625
3101.4597	3981.425
3103.82709	3991.525
3106.19305	3992.725
3108.55757	4005.425
3110.92066	3980.725
3113.28232	3961.325
3115.64255	3948.225
3118.00134	3947.925
3120.35871	3925.525
3122.71466	3925.025
3125.06917	3911.825
3127.42226	3921.825
3129.77393	3882.225
3132.12417	3891.525
3134.47299	3883.925
3136.82039	3875.125
3139.16636	3878.825
3141.51092	3873.725
3143.85406	3869.525
3146.19579	3868.525
3148.53609	3854.225
3150.87499	3856.725
3153.21246	3854.525
3155.54853	3858.425
3157.88318	3849.225
3160.21642	3852.125
3162.54826	3840.525
3164.87868	3833.025
3167.2077	3829.725
3169.5353	3822.025
3171.86151	3815.325
3174.18631	3805.325
3176.5097	3781.925
3178.83169	3783.825
3181.15228	3777.625
3183.47147	3774.725
3185.78926	3769.025
3188.10565	3730.825
3190.42065	3726.125
3192.73424	3737.825
3195.04645	3718.025
3197.35725	3716.625
3199.66667	3717.125
3201.97469	3706.125
3204.28132	3712.925
