Data from AgNPs_UA_5uM_CRN_500uM_SU_RamanShift__54__11-38-23-149.txt Node

Date: Thu Aug 04 11:38:23 BST 2022
User: TCL
Spectrometer: QEP01345
Trigger mode: 4
Integration Time (sec): 1.000000E0
Scans to average: 10
Electric dark correction enabled: true
Nonlinearity correction enabled: false
Boxcar width: 0
XAxis mode: Raman Shifts
Number of Pixels in Spectrum: 1044
>>>>>Begin Spectral Data<<<<<
46.04893	0.1125
50.45542	0.5125
54.85868	0.7125
59.25871	-1.6875
63.6555	-54.8875
68.04907	-38.4875
72.43941	-67.7875
76.82654	-54.1875
81.21044	-54.1875
85.59113	-48.1875
89.96862	-73.4875
94.34289	-51.5875
98.71396	-75.5875
103.08183	-54.9875
107.4465	-46.8875
111.80798	-53.2875
116.16626	-40.0875
120.52136	-70.2875
124.87327	-44.6875
129.222	-57.0875
133.56755	-43.2875
137.90993	-53.5875
142.24913	-42.2875
146.58517	-30.9875
150.91804	-24.7875
155.24774	-9.1875
159.57429	17.0125
163.89768	28.8125
168.21792	88.2125
172.53501	137.1125
176.84895	249.0125
181.15975	429.6125
185.46741	643.5125
189.77193	907.0125
194.07331	1308.0125
198.37157	1711.2125
202.6667	2148.9125
206.9587	2625.4125
211.24758	3122.4125
215.53334	3660.4125
219.81599	4300.9125
224.09553	5009.4125
228.37195	5756.3125
232.64527	6482.0125
236.91549	7099.1125
241.18261	7416.4125
245.44663	7585.8125
249.70755	7587.0125
253.96539	7649.2125
258.22014	7715.5125
262.4718	7809.6125
266.72039	7822.1125
270.96589	7678.6125
275.20832	7433.5125
279.44768	7154.1125
283.68397	6931.0125
287.91719	6833.5125
292.14735	6976.2125
296.37445	7429.1125
300.59849	8200.0125
304.81948	9289.3125
309.03742	10492.0125
313.25231	11370.4125
317.46415	11262.8125
321.67296	9962.4125
325.87872	8529.8125
330.08145	7696.4125
334.28114	7526.9125
338.47781	7748.4125
342.67145	8211.8125
346.86207	8979.9125
351.04966	10159.1125
355.23424	11345.7125
359.4158	11870.7125
363.59435	11493.5125
367.76989	10812.0125
371.94243	10145.3125
376.11196	9605.7125
380.27849	9217.9125
384.44203	8907.4125
388.60257	8754.0125
392.76012	8767.7125
396.91468	9033.8125
401.06626	9382.2125
405.21485	9400.6125
409.36047	8909.8125
413.50311	8014.9125
417.64277	7202.9125
421.77947	6678.7125
425.9132	6424.6125
430.04396	6310.7125
434.17176	6297.8125
438.2966	6406.6125
442.41849	6581.6125
446.53742	6776.3125
450.6534	6887.6125
454.76644	6920.1125
458.87653	6861.3125
462.98368	6762.4125
467.08789	6635.2125
471.18916	6456.8125
475.2875	6202.3125
479.38291	5990.0125
483.4754	5857.6125
487.56496	5830.6125
491.6516	5750.9125
495.73531	5743.1125
499.81612	5819.7125
503.89401	5979.5125
507.96899	6138.7125
512.04106	6344.1125
516.11023	6581.8125
520.1765	6758.2125
524.23987	6843.3125
528.30034	6782.6125
532.35792	6671.0125
536.41261	6525.0125
540.46441	6342.7125
544.51333	6201.2125
548.55936	6198.3125
552.60252	6360.7125
556.64279	6519.8125
560.6802	6902.4125
564.71473	7649.5125
568.7464	8662.8125
572.7752	8579.4125
576.80114	7293.0125
580.82422	6254.4125
584.84444	5809.2125
588.86181	5671.3125
592.87633	5681.7125
596.888	5870.9125
600.89682	6559.0125
604.9028	8763.9125
608.90594	14366.6125
612.90624	21106.6125
616.90371	19226.6125
620.89834	10853.6125
624.89015	7179.9125
628.87913	6755.9125
632.86528	7299.9125
636.84862	7571.5125
640.82913	6938.9125
644.80683	6022.0125
648.78172	5643.4125
652.75379	5769.0125
656.72306	6420.1125
660.68952	7075.4125
664.65319	6747.9125
668.61405	5926.2125
672.57211	5629.8125
676.52738	5623.8125
680.47986	5515.9125
684.42955	5376.2125
688.37646	5332.3125
692.32058	5323.6125
696.26192	5424.7125
700.20048	5559.2125
704.13626	5590.9125
708.06928	5510.1125
711.99952	5463.6125
715.927	5497.8125
719.85171	5666.0125
723.77365	5784.4125
727.69284	5662.0125
731.60928	5557.5125
735.52295	5510.1125
739.43388	5546.4125
743.34206	5601.9125
747.24749	5599.9125
751.15017	5619.8125
755.05012	5876.6125
758.94733	6965.4125
762.8418	9391.2125
766.73354	12602.7125
770.62254	14242.7125
774.50882	13661.2125
778.39237	12506.9125
782.27321	10697.3125
786.15132	8298.9125
790.02671	6656.2125
793.89938	5887.9125
797.76935	5624.5125
801.6366	5494.5125
805.50115	5400.3125
809.36299	5374.6125
813.22213	5360.0125
817.07857	5375.6125
820.93231	5398.8125
824.78336	5480.3125
828.63172	5575.7125
832.47738	5602.7125
836.32036	5534.8125
840.16066	5371.1125
843.99827	5272.4125
847.8332	5243.8125
851.66546	5230.1125
855.49504	5205.0125
859.32195	5234.8125
863.1462	5171.2125
866.96777	5189.6125
870.78668	5156.4125
874.60293	5210.8125
878.41652	5269.9125
882.22745	5373.3125
886.03573	5461.4125
889.84136	5434.3125
893.64433	5406.6125
897.44466	5420.6125
901.24235	5429.4125
905.0374	5366.5125
908.8298	5195.8125
912.61957	5104.6125
916.40671	5017.6125
920.19121	5080.9125
923.97308	5247.9125
927.75233	5547.3125
931.52895	5897.0125
935.30295	5733.0125
939.07433	5228.4125
942.84309	4900.0125
946.60924	4813.2125
950.37278	4729.6125
954.13371	4726.7125
957.89203	4732.8125
961.64774	4752.9125
965.40086	4699.8125
969.15137	4679.7125
972.89929	4715.0125
976.64461	4674.2125
980.38733	4702.7125
984.12747	4678.6125
987.86502	4688.6125
991.59999	4721.0125
995.33237	4794.1125
999.06217	4874.6125
1002.78939	5042.0125
1006.51404	5291.3125
1010.23611	5442.7125
1013.95561	5311.8125
1017.67255	5176.6125
1021.38692	5052.0125
1025.09872	4912.7125
1028.80796	4840.0125
1032.51465	4879.0125
1036.21877	4887.0125
1039.92035	4974.3125
1043.61937	5019.9125
1047.31584	5075.4125
1051.00976	5119.7125
1054.70114	5070.5125
1058.38998	5031.0125
1062.07627	5018.4125
1065.76003	5015.1125
1069.44126	5088.3125
1073.11995	5193.4125
1076.79611	5460.7125
1080.46974	5893.1125
1084.14085	6453.0125
1087.80943	6951.5125
1091.47549	6937.9125
1095.13903	6479.1125
1098.80005	6019.0125
1102.45857	5780.5125
1106.11456	5741.3125
1109.76805	5783.3125
1113.41903	6087.1125
1117.06751	6606.2125
1120.71348	7437.4125
1124.35696	8678.9125
1127.99793	9558.7125
1131.63641	8889.2125
1135.2724	7542.7125
1138.90589	6633.2125
1142.5369	6123.3125
1146.16542	5802.4125
1149.79145	5576.4125
1153.415	5508.0125
1157.03607	5533.3125
1160.65467	5716.2125
1164.27079	6025.6125
1167.88443	6544.0125
1171.49561	7381.8125
1175.10432	8858.3125
1178.71056	10893.2125
1182.31434	12345.6125
1185.91565	12151.4125
1189.51451	10886.5125
1193.11091	9541.2125
1196.70485	8654.7125
1200.29634	8307.8125
1203.88538	7872.8125
1207.47197	7015.7125
1211.05612	6238.3125
1214.63782	5728.2125
1218.21708	5467.1125
1221.79391	5365.1125
1225.36829	5355.8125
1228.94024	5355.7125
1232.50976	5332.3125
1236.07685	5366.3125
1239.6415	5409.8125
1243.20374	5511.2125
1246.76355	5636.7125
1250.32093	5813.7125
1253.8759	6033.2125
1257.42845	6449.5125
1260.97859	6993.7125
1264.52631	7557.7125
1268.07163	7839.5125
1271.61453	7891.0125
1275.15503	7737.1125
1278.69312	7539.8125
1282.22882	7686.5125
1285.76211	8387.5125
1289.29301	9392.8125
1292.82151	10058.4125
1296.34761	10375.0125
1299.87133	11042.9125
1303.39266	12764.5125
1306.9116	16010.1125
1310.42815	19910.6125
1313.94233	21216.7125
1317.45412	18221.1125
1320.96354	13962.9125
1324.47058	10748.4125
1327.97525	8787.9125
1331.47754	7755.1125
1334.97747	7418.3125
1338.47502	7541.8125
1341.97022	8347.7125
1345.46305	10118.0125
1348.95352	12628.2125
1352.44163	15198.1125
1355.92738	18254.1125
1359.41078	23568.0125
1362.89183	29330.4125
1366.37053	28113.9125
1369.84688	19966.2125
1373.32088	13157.4125
1376.79254	10194.3125
1380.26186	8882.8125
1383.72883	7889.3125
1387.19347	6946.5125
1390.65578	6212.9125
1394.11575	5811.6125
1397.57339	5587.3125
1401.0287	5444.3125
1404.48168	5320.1125
1407.93234	5300.3125
1411.38068	5377.6125
1414.82669	5678.3125
1418.27039	6037.9125
1421.71177	6127.6125
1425.15083	5955.9125
1428.58758	5940.2125
1432.02203	6288.8125
1435.45416	6565.2125
1438.88399	6353.5125
1442.31151	6062.4125
1445.73673	6011.4125
1449.15965	5992.8125
1452.58027	5910.7125
1455.9986	5775.4125
1459.41463	5646.2125
1462.82837	5658.7125
1466.23982	5876.4125
1469.64898	6148.6125
1473.05586	6275.8125
1476.46045	6269.7125
1479.86276	6310.7125
1483.26279	6528.5125
1486.66054	7053.0125
1490.05602	7838.6125
1493.44922	9185.9125
1496.84016	11294.3125
1500.22882	14501.1125
1503.61521	18962.8125
1506.99934	24613.6125
1510.38121	30028.9125
1513.76081	31944.2125
1517.13816	28161.6125
1520.51324	21306.8125
1523.88607	15206.1125
1527.25665	11397.8125
1530.62498	9253.7125
1533.99105	8029.1125
1537.35488	7234.5125
1540.71647	6759.2125
1544.07581	6575.4125
1547.4329	6575.9125
1550.78776	6706.0125
1554.14038	6989.7125
1557.49077	7425.0125
1560.83892	8128.7125
1564.18484	9264.8125
1567.52853	10563.4125
1570.86999	11360.6125
1574.20922	11518.2125
1577.54624	10999.0125
1580.88103	9501.5125
1584.2136	7680.6125
1587.54395	6596.3125
1590.87208	6309.2125
1594.19801	6621.8125
1597.52172	7207.9125
1600.84321	7249.1125
1604.16251	6635.8125
1607.47959	6017.7125
1610.79447	5658.6125
1614.10715	5327.9125
1617.41763	5105.2125
1620.7259	4994.0125
1624.03199	5006.1125
1627.33587	5129.7125
1630.63757	5420.2125
1633.93707	5948.8125
1637.23439	6927.9125
1640.52951	8712.9125
1643.82246	11736.3125
1647.11321	15859.9125
1650.40179	19092.7125
1653.68819	18738.5125
1656.97241	14990.4125
1660.25446	10609.6125
1663.53433	7618.4125
1666.81203	5987.0125
1670.08756	5147.9125
1673.36092	4721.2125
1676.63211	4413.4125
1679.90115	4257.4125
1683.16801	4122.4125
1686.43272	4017.0125
1689.69527	3937.7125
1692.95567	3870.3125
1696.2139	3829.5125
1699.46999	3777.2125
1702.72392	3770.0125
1705.97571	3793.7125
1709.22535	3757.1125
1712.47284	3823.2125
1715.71819	3827.6125
1718.96139	3852.6125
1722.20246	3816.2125
1725.44139	3765.7125
1728.67818	3717.9125
1731.91284	3658.7125
1735.14537	3614.4125
1738.37576	3581.9125
1741.60403	3557.9125
1744.83017	3509.0125
1748.05418	3510.2125
1751.27607	3500.7125
1754.49584	3453.5125
1757.71349	3406.4125
1760.92903	3380.4125
1764.14244	3328.2125
1767.35375	3318.0125
1770.56294	3268.3125
1773.77002	3248.8125
1776.97499	3223.4125
1780.17785	3200.7125
1783.37861	3168.1125
1786.57727	3171.6125
1789.77382	3106.9125
1792.96828	3150.4125
1796.16064	3159.6125
1799.3509	3131.3125
1802.53907	3155.2125
1805.72514	3109.4125
1808.90913	3085.6125
1812.09102	3092.6125
1815.27083	3085.9125
1818.44856	3069.8125
1821.6242	3056.9125
1824.79776	3041.9125
1827.96924	3026.5125
1831.13864	3004.2125
1834.30597	3000.1125
1837.47122	2961.1125
1840.6344	2953.0125
1843.7955	2930.3125
1846.95454	2913.9125
1850.11151	2928.5125
1853.26642	2891.8125
1856.41926	2899.0125
1859.57004	2897.9125
1862.71876	2900.6125
1865.86542	2911.1125
1869.01003	2914.1125
1872.15258	2880.2125
1875.29308	2904.2125
1878.43152	2919.7125
1881.56792	2896.2125
1884.70227	2868.3125
1887.83457	2868.6125
1890.96482	2836.5125
1894.09304	2843.0125
1897.21921	2850.2125
1900.34335	2832.0125
1903.46544	2814.9125
1906.58551	2832.3125
1909.70353	2827.8125
1912.81953	2823.1125
1915.93349	2801.5125
1919.04543	2805.2125
1922.15534	2768.3125
1925.26322	2771.8125
1928.36908	2750.5125
1931.47292	2733.3125
1934.57473	2725.6125
1937.67453	2690.0125
1940.77232	2661.9125
1943.86808	2648.7125
1946.96184	2652.5125
1950.05358	2634.1125
1953.14331	2608.2125
1956.23103	2631.2125
1959.31675	2594.2125
1962.40046	2583.5125
1965.48217	2610.5125
1968.56188	2614.0125
1971.63959	2622.9125
1974.7153	2633.4125
1977.78901	2610.5125
1980.86073	2584.8125
1983.93046	2538.7125
1986.99819	2466.6125
1990.06394	2482.3125
1993.1277	2503.2125
1996.18947	2467.7125
1999.24925	2446.0125
2002.30706	2450.1125
2005.36288	2433.4125
2008.41672	2420.7125
2011.46859	2399.1125
2014.51848	2394.1125
2017.56639	2377.2125
2020.61233	2362.7125
2023.6563	2362.9125
2026.6983	2328.6125
2029.73833	2341.0125
2032.7764	2350.5125
2035.8125	2299.8125
2038.84664	2318.1125
2041.87881	2297.6125
2044.90903	2320.4125
2047.93729	2308.9125
2050.96359	2271.5125
2053.98794	2287.1125
2057.01034	2285.9125
2060.03078	2254.7125
2063.04927	2244.8125
2066.06582	2238.5125
2069.08042	2232.0125
2072.09307	2233.4125
2075.10378	2238.3125
2078.11255	2214.4125
2081.11938	2220.0125
2084.12426	2209.3125
2087.12722	2225.6125
2090.12824	2215.5125
2093.12732	2223.4125
2096.12447	2229.7125
2099.11969	2224.6125
2102.11299	2196.5125
2105.10435	2235.0125
2108.09379	2233.1125
2111.08131	2207.5125
2114.0669	2213.0125
2117.05057	2224.2125
2120.03233	2222.6125
2123.01216	2245.0125
2125.99008	2263.4125
2128.96609	2261.3125
2131.94018	2270.5125
2134.91236	2253.1125
2137.88263	2222.9125
2140.851	2224.8125
2143.81746	2247.1125
2146.78201	2202.4125
2149.74466	2188.9125
2152.7054	2195.0125
2155.66425	2175.3125
2158.6212	2156.2125
2161.57625	2147.5125
2164.52941	2128.3125
2167.48067	2137.0125
2170.43004	2143.5125
2173.37752	2165.8125
2176.32311	2165.0125
2179.26681	2158.4125
2182.20863	2171.1125
2185.14856	2166.8125
2188.08661	2152.1125
2191.02278	2161.6125
2193.95707	2130.7125
2196.88948	2118.0125
2199.82001	2109.0125
2202.74867	2104.9125
2205.67545	2110.2125
2208.60037	2134.1125
2211.52341	2111.0125
2214.44458	2094.6125
2217.36388	2095.0125
2220.28132	2075.3125
2223.1969	2064.3125
2226.11061	2072.5125
2229.02246	2056.5125
2231.93245	2061.5125
2234.84058	2031.6125
2237.74686	2030.4125
2240.65128	2035.3125
2243.55385	2038.3125
2246.45456	2024.1125
2249.35343	2064.5125
2252.25044	2054.7125
2255.14561	2074.1125
2258.03893	2088.6125
2260.93041	2096.2125
2263.82004	2092.7125
2266.70783	2105.3125
2269.59378	2074.5125
2272.4779	2066.5125
2275.36017	2079.5125
2278.24061	2070.8125
2281.11922	2040.6125
2283.996	2049.4125
2286.87094	2026.4125
2289.74405	2033.5125
2292.61534	2014.4125
2295.4848	1986.8125
2298.35243	1979.4125
2301.21824	1975.1125
2304.08223	1961.1125
2306.94439	1977.5125
2309.80474	1971.5125
2312.66327	1963.1125
2315.51999	1953.8125
2318.37489	1958.5125
2321.22797	1932.2125
2324.07925	1932.1125
2326.92871	1941.7125
2329.77637	1923.9125
2332.62222	1916.0125
2335.46626	1901.9125
2338.3085	1903.6125
2341.14893	1922.5125
2343.98756	1937.4125
2346.8244	1921.9125
2349.65943	1917.9125
2352.49267	1928.5125
2355.32411	1943.2125
2358.15376	1941.8125
2360.98161	1964.8125
2363.80768	1956.3125
2366.63195	1973.5125
2369.45444	1992.2125
2372.27514	1988.1125
2375.09405	2004.1125
2377.91118	1967.4125
2380.72652	1961.7125
2383.54009	1951.9125
2386.35187	1942.2125
2389.16188	1921.7125
2391.97011	1917.6125
2394.77657	1895.5125
2397.58125	1896.2125
2400.38416	1877.2125
2403.18529	1853.7125
2405.98466	1849.3125
2408.78226	1844.7125
2411.57809	1838.1125
2414.37216	1838.7125
2417.16446	1833.8125
2419.955	1817.4125
2422.74378	1842.1125
2425.5308	1827.4125
2428.31606	1839.0125
2431.09956	1848.2125
2433.88131	1832.0125
2436.6613	1848.4125
2439.43954	1836.6125
2442.21603	1837.6125
2444.99077	1841.7125
2447.76377	1859.4125
2450.53501	1859.3125
2453.30451	1856.8125
2456.07226	1867.8125
2458.83827	1854.8125
2461.60254	1805.1125
2464.36507	1853.0125
2467.12586	1831.8125
2469.88492	1834.7125
2472.64224	1838.6125
2475.39782	1837.2125
2478.15167	1858.1125
2480.90379	1853.3125
2483.65417	1890.7125
2486.40283	1907.6125
2489.14976	1907.1125
2491.89497	1910.6125
2494.63845	1907.5125
2497.3802	1893.7125
2500.12024	1877.5125
2502.85855	1863.0125
2505.59514	1870.2125
2508.33002	1848.6125
2511.06318	1797.4125
2513.79462	1787.7125
2516.52435	1741.9125
2519.25237	1704.7125
2521.97867	1702.6125
2524.70327	1696.9125
2527.42616	1701.6125
2530.14734	1701.0125
2532.86681	1674.8125
2535.58458	1681.6125
2538.30065	1676.6125
2541.01501	1694.8125
2543.72768	1689.5125
2546.43864	1691.2125
2549.14791	1690.9125
2551.85548	1687.0125
2554.56136	1692.6125
2557.26554	1705.8125
2559.96803	1695.1125
2562.66883	1701.5125
2565.36794	1697.2125
2568.06536	1670.4125
2570.7611	1699.4125
2573.45514	1676.8125
2576.14751	1685.1125
2578.83819	1655.5125
2581.52719	1647.0125
2584.21451	1648.3125
2586.90015	1638.4125
2589.58411	1621.1125
2592.2664	1634.8125
2594.94701	1638.3125
2597.62594	1628.5125
2600.30321	1584.5125
2602.9788	1604.1125
2605.65273	1594.4125
2608.32498	1611.6125
2610.99557	1632.6125
2613.66449	1596.4125
2616.33175	1622.9125
2618.99734	1620.3125
2621.66128	1622.8125
2624.32355	1599.1125
2626.98416	1586.8125
2629.64311	1585.9125
2632.30041	1573.6125
2634.95605	1552.5125
2637.61004	1542.1125
2640.26238	1528.2125
2642.91306	1517.0125
2645.56209	1536.7125
2648.20948	1533.5125
2650.85521	1518.6125
2653.4993	1536.3125
2656.14175	1531.3125
2658.78255	1527.9125
2661.42171	1508.4125
2664.05923	1550.6125
2666.6951	1555.2125
2669.32934	1567.9125
2671.96194	1572.0125
2674.59291	1557.9125
2677.22224	1566.5125
2679.84993	1559.9125
2682.476	1545.3125
2685.10043	1544.2125
2687.72324	1533.9125
2690.34441	1536.9125
2692.96396	1528.7125
2695.58188	1539.5125
2698.19818	1523.1125
2700.81285	1512.8125
2703.4259	1507.5125
2706.03733	1476.6125
2708.64714	1490.3125
2711.25533	1517.2125
2713.86191	1518.3125
2716.46687	1515.6125
2719.07021	1524.7125
2721.67194	1519.0125
2724.27206	1526.2125
2726.87057	1520.2125
2729.46747	1495.6125
2732.06276	1504.9125
2734.65644	1478.7125
2737.24852	1476.3125
2739.83899	1460.2125
2742.42786	1471.3125
2745.01513	1482.8125
2747.60079	1456.0125
2750.18486	1437.0125
2752.76733	1436.9125
2755.3482	1430.6125
2757.92747	1430.0125
2760.50515	1416.6125
2763.08123	1403.3125
2765.65573	1409.7125
2768.22863	1402.8125
2770.79994	1387.9125
2773.36967	1391.2125
2775.9378	1400.1125
2778.50435	1387.0125
2781.06932	1390.5125
2783.6327	1374.1125
2786.1945	1405.3125
2788.75471	1389.2125
2791.31335	1389.4125
2793.87041	1395.7125
2796.42589	1376.9125
2798.97979	1379.4125
2801.53212	1393.2125
2804.08288	1411.1125
2806.63206	1402.0125
2809.17967	1399.4125
2811.72571	1419.2125
2814.27018	1425.6125
2816.81308	1432.1125
2819.35442	1401.6125
2821.89419	1440.2125
2824.43239	1430.5125
2826.96904	1469.6125
2829.50412	1435.7125
2832.03763	1441.3125
2834.56959	1432.7125
2837.1	1413.2125
2839.62884	1417.4125
2842.15613	1402.9125
2844.68186	1412.5125
2847.20604	1390.3125
2849.72867	1401.2125
2852.24974	1415.3125
2854.76927	1382.9125
2857.28724	1356.9125
2859.80367	1426.7125
2862.31855	1442.9125
2864.83189	1452.8125
2867.34368	1462.5125
2869.85393	1478.2125
2872.36264	1454.7125
2874.8698	1470.9125
2877.37543	1469.5125
2879.87952	1456.3125
2882.38207	1422.4125
2884.88308	1418.6125
2887.38256	1412.5125
2889.88051	1410.3125
2892.37692	1411.7125
2894.8718	1387.4125
2897.36515	1396.5125
2899.85698	1390.9125
2902.34727	1396.0125
2904.83604	1396.1125
2907.32328	1427.5125
2909.809	1449.1125
2912.29319	1445.0125
2914.77587	1458.4125
2917.25702	1469.9125
2919.73665	1457.6125
2922.21476	1448.1125
2924.69136	1434.4125
2927.16644	1408.3125
2929.64	1395.0125
2932.11205	1381.4125
2934.58258	1373.2125
2937.05161	1358.5125
2939.51912	1367.0125
2941.98513	1370.3125
2944.44962	1356.2125
2946.91261	1341.1125
2949.37409	1352.7125
2951.83407	1352.2125
2954.29254	1362.6125
2956.74951	1358.7125
2959.20498	1351.7125
2961.65895	1346.7125
2964.11142	1342.2125
2966.56239	1344.9125
2969.01186	1345.4125
2971.45984	1330.0125
2973.90632	1320.6125
2976.35131	1345.2125
2978.7948	1337.5125
2981.23681	1326.8125
2983.67732	1337.7125
2986.11635	1338.6125
2988.55388	1321.3125
2990.98993	1333.8125
2993.4245	1322.4125
2995.85758	1318.2125
2998.28917	1324.6125
3000.71928	1314.2125
3003.14791	1319.0125
3005.57506	1310.6125
3008.00073	1294.4125
3010.42493	1240.7125
3012.84764	1296.2125
3015.26888	1297.9125
3017.68865	1284.6125
3020.10694	1248.0125
3022.52376	1259.5125
3024.9391	1261.7125
3027.35298	1247.4125
3029.76539	1239.2125
3032.17632	1230.6125
3034.5858	1215.5125
3036.9938	1212.3125
3039.40034	1198.2125
3041.80542	1180.1125
3044.20903	1165.3125
3046.61118	1157.7125
3049.01187	1177.2125
3051.4111	1152.8125
3053.80888	1153.9125
3056.20519	1144.7125
3058.60005	1130.0125
3060.99345	1161.4125
3063.3854	1134.9125
3065.7759	1122.9125
3068.16494	1119.3125
3070.55254	1122.4125
3072.93868	1123.0125
3075.32338	1121.8125
3077.70662	1117.2125
3080.08842	1096.6125
3082.46878	1080.6125
3084.84769	1102.6125
3087.22515	1088.8125
3089.60118	1095.7125
3091.97576	1087.8125
3094.3489	1085.3125
3096.72061	1088.5125
3099.09087	1064.3125
3101.4597	1082.4125
3103.82709	1076.7125
3106.19305	1059.0125
3108.55757	1076.2125
3110.92066	1066.7125
3113.28232	1076.2125
3115.64255	1079.2125
3118.00134	1077.5125
3120.35871	1061.7125
