Data from AgNPs_UA_10uM_CRN_500uM_SU_RamanShift__35__13-11-10-260.txt Node

Date: Thu Aug 04 13:11:10 BST 2022
User: TCL
Spectrometer: QEP01345
Trigger mode: 4
Integration Time (sec): 1.000000E0
Scans to average: 10
Electric dark correction enabled: true
Nonlinearity correction enabled: false
Boxcar width: 0
XAxis mode: Raman Shifts
Number of Pixels in Spectrum: 1044
>>>>>Begin Spectral Data<<<<<
46.04893	0.2125
50.45542	0.1125
54.85868	0.8125
59.25871	-0.2875
63.6555	17.8125
68.04907	17.1125
72.43941	18.2125
76.82654	18.4125
81.21044	19.1125
85.59113	22.3125
89.96862	19.7125
94.34289	21.5125
98.71396	21.6125
103.08183	24.6125
107.4465	23.3125
111.80798	24.5125
116.16626	25.5125
120.52136	26.4125
124.87327	29.6125
129.222	29.8125
133.56755	30.7125
137.90993	34.2125
142.24913	37.5125
146.58517	41.9125
150.91804	47.1125
155.24774	60.5125
159.57429	71.8125
163.89768	96.6125
168.21792	123.5125
172.53501	170.0125
176.84895	242.1125
181.15975	342.1125
185.46741	481.4125
189.77193	666.4125
194.07331	897.2125
198.37157	1163.9125
202.6667	1436.9125
206.9587	1705.7125
211.24758	1982.8125
215.53334	2253.1125
219.81599	2546.2125
224.09553	2863.5125
228.37195	3207.4125
232.64527	3589.4125
236.91549	3965.0125
241.18261	4374.3125
245.44663	4687.0125
249.70755	5015.4125
253.96539	5252.5125
258.22014	5488.6125
262.4718	5651.2125
266.72039	5748.1125
270.96589	5796.5125
275.20832	5786.7125
279.44768	5716.7125
283.68397	5654.5125
287.91719	5568.8125
292.14735	5524.5125
296.37445	5556.1125
300.59849	5629.8125
304.81948	5719.0125
309.03742	5793.0125
313.25231	5857.5125
317.46415	5846.9125
321.67296	5740.6125
325.87872	5631.9125
330.08145	5567.7125
334.28114	5592.1125
338.47781	5674.9125
342.67145	5732.8125
346.86207	5868.0125
351.04966	6040.3125
355.23424	6197.1125
359.4158	6329.9125
363.59435	6404.3125
367.76989	6448.3125
371.94243	6472.0125
376.11196	6502.6125
380.27849	6505.5125
384.44203	6576.8125
388.60257	6607.8125
392.76012	6685.8125
396.91468	6773.8125
401.06626	6835.8125
405.21485	6882.1125
409.36047	6878.6125
413.50311	6797.9125
417.64277	6698.7125
421.77947	6655.0125
425.9132	6639.6125
430.04396	6640.8125
434.17176	6673.5125
438.2966	6742.8125
442.41849	6838.3125
446.53742	6949.7125
450.6534	7044.6125
454.76644	7115.7125
458.87653	7184.0125
462.98368	7201.7125
467.08789	7181.2125
471.18916	7146.9125
475.2875	7075.9125
479.38291	7010.0125
483.4754	6956.5125
487.56496	6931.6125
491.6516	6945.0125
495.73531	6930.9125
499.81612	6975.1125
503.89401	7023.5125
507.96899	7053.6125
512.04106	7081.8125
516.11023	7124.6125
520.1765	7150.1125
524.23987	7165.3125
528.30034	7152.9125
532.35792	7191.5125
536.41261	7159.0125
540.46441	7117.4125
544.51333	7115.6125
548.55936	7167.6125
552.60252	7233.1125
556.64279	7295.8125
560.6802	7368.9125
564.71473	7412.1125
568.7464	7453.8125
572.7752	7434.3125
576.80114	7358.1125
580.82422	7316.5125
584.84444	7306.9125
588.86181	7309.1125
592.87633	7337.8125
596.888	7435.5125
600.89682	7654.3125
604.9028	8120.1125
608.90594	9000.9125
612.90624	9872.9125
616.90371	9407.7125
620.89834	8200.5125
624.89015	7700.1125
628.87913	7684.5125
632.86528	7775.0125
636.84862	7820.5125
640.82913	7764.6125
644.80683	7623.2125
648.78172	7525.7125
652.75379	7564.5125
656.72306	7675.5125
660.68952	7805.0125
664.65319	7791.5125
668.61405	7791.1125
672.57211	7844.9125
676.52738	7836.7125
680.47986	7761.8125
684.42955	7678.7125
688.37646	7695.9125
692.32058	7711.3125
696.26192	7806.5125
700.20048	7914.4125
704.13626	7947.9125
708.06928	7887.5125
711.99952	7843.4125
715.927	7840.1125
719.85171	7891.5125
723.77365	7888.1125
727.69284	7893.7125
731.60928	7871.1125
735.52295	7864.9125
739.43388	7895.5125
743.34206	7919.9125
747.24749	7923.5125
751.15017	7925.4125
755.05012	8012.3125
758.94733	8131.5125
762.8418	8463.2125
766.73354	8982.4125
770.62254	9370.8125
774.50882	9517.2125
778.39237	9370.6125
782.27321	9067.1125
786.15132	8659.3125
790.02671	8347.0125
793.89938	8189.1125
797.76935	8119.1125
801.6366	8057.0125
805.50115	8037.3125
809.36299	8022.2125
813.22213	8029.9125
817.07857	8037.2125
820.93231	8045.6125
824.78336	8055.4125
828.63172	8069.0125
832.47738	8080.6125
836.32036	8090.1125
840.16066	8077.6125
843.99827	8083.0125
847.8332	8125.2125
851.66546	8123.5125
855.49504	8132.9125
859.32195	8174.8125
863.1462	8164.8125
866.96777	8164.5125
870.78668	8195.5125
874.60293	8223.3125
878.41652	8242.9125
882.22745	8295.0125
886.03573	8326.0125
889.84136	8327.0125
893.64433	8312.5125
897.44466	8304.6125
901.24235	8283.0125
905.0374	8281.1125
908.8298	8295.6125
912.61957	8296.9125
916.40671	8288.2125
920.19121	8310.4125
923.97308	8316.1125
927.75233	8324.6125
931.52895	8385.0125
935.30295	8358.8125
939.07433	8276.2125
942.84309	8252.9125
946.60924	8238.5125
950.37278	8248.8125
954.13371	8244.4125
957.89203	8248.5125
961.64774	8224.4125
965.40086	8258.9125
969.15137	8230.9125
972.89929	8242.3125
976.64461	8199.9125
980.38733	8209.8125
984.12747	8234.7125
987.86502	8252.3125
991.59999	8286.1125
995.33237	8351.1125
999.06217	8363.8125
1002.78939	8430.8125
1006.51404	8530.5125
1010.23611	8620.6125
1013.95561	8639.5125
1017.67255	8682.6125
1021.38692	8668.9125
1025.09872	8634.0125
1028.80796	8582.8125
1032.51465	8589.4125
1036.21877	8593.2125
1039.92035	8589.7125
1043.61937	8615.8125
1047.31584	8653.2125
1051.00976	8682.1125
1054.70114	8681.8125
1058.38998	8715.6125
1062.07627	8746.8125
1065.76003	8806.5125
1069.44126	8861.2125
1073.11995	8972.0125
1076.79611	9072.2125
1080.46974	9145.4125
1084.14085	9163.7125
1087.80943	9199.1125
1091.47549	9209.3125
1095.13903	9264.9125
1098.80005	9287.3125
1102.45857	9338.3125
1106.11456	9323.3125
1109.76805	9211.6125
1113.41903	9159.6125
1117.06751	9198.4125
1120.71348	9276.9125
1124.35696	9367.0125
1127.99793	9425.9125
1131.63641	9352.2125
1135.2724	9236.3125
1138.90589	9108.0125
1142.5369	9046.2125
1146.16542	9019.5125
1149.79145	8979.8125
1153.415	8920.4125
1157.03607	8902.6125
1160.65467	8926.0125
1164.27079	9036.6125
1167.88443	9198.3125
1171.49561	9418.5125
1175.10432	9724.7125
1178.71056	10143.2125
1182.31434	10518.8125
1185.91565	10684.9125
1189.51451	10714.6125
1193.11091	10674.5125
1196.70485	10598.7125
1200.29634	10497.9125
1203.88538	10349.4125
1207.47197	10136.7125
1211.05612	9922.1125
1214.63782	9704.6125
1218.21708	9566.8125
1221.79391	9455.3125
1225.36829	9413.7125
1228.94024	9390.5125
1232.50976	9403.7125
1236.07685	9446.7125
1239.6415	9456.3125
1243.20374	9515.4125
1246.76355	9540.9125
1250.32093	9607.8125
1253.8759	9670.2125
1257.42845	9807.0125
1260.97859	9971.7125
1264.52631	10091.1125
1268.07163	10189.8125
1271.61453	10251.7125
1275.15503	10250.3125
1278.69312	10230.7125
1282.22882	10238.1125
1285.76211	10269.0125
1289.29301	10350.6125
1292.82151	10456.3125
1296.34761	10554.2125
1299.87133	10700.0125
1303.39266	10996.7125
1306.9116	11444.7125
1310.42815	11910.3125
1313.94233	12062.8125
1317.45412	11877.7125
1320.96354	11596.3125
1324.47058	11259.1125
1327.97525	10987.5125
1331.47754	10815.5125
1334.97747	10793.2125
1338.47502	10838.4125
1341.97022	11057.1125
1345.46305	11432.9125
1348.95352	11961.4125
1352.44163	12520.7125
1355.92738	13008.6125
1359.41078	13486.3125
1362.89183	13791.8125
1366.37053	13374.8125
1369.84688	12298.2125
1373.32088	11222.8125
1376.79254	10594.3125
1380.26186	10319.9125
1383.72883	10118.0125
1387.19347	9937.6125
1390.65578	9725.1125
1394.11575	9584.4125
1397.57339	9445.4125
1401.0287	9400.3125
1404.48168	9393.2125
1407.93234	9429.6125
1411.38068	9511.4125
1414.82669	9550.9125
1418.27039	9546.9125
1421.71177	9525.8125
1425.15083	9490.9125
1428.58758	9418.4125
1432.02203	9429.6125
1435.45416	9407.0125
1438.88399	9410.2125
1442.31151	9406.0125
1445.73673	9422.5125
1449.15965	9428.1125
1452.58027	9442.5125
1455.9986	9440.8125
1459.41463	9442.6125
1462.82837	9514.0125
1466.23982	9640.4125
1469.64898	9767.7125
1473.05586	9874.0125
1476.46045	9931.0125
1479.86276	9987.9125
1483.26279	10061.2125
1486.66054	10143.5125
1490.05602	10295.2125
1493.44922	10549.4125
1496.84016	10858.8125
1500.22882	11410.8125
1503.61521	11976.1125
1506.99934	12511.6125
1510.38121	12765.7125
1513.76081	12656.0125
1517.13816	12099.9125
1520.51324	11400.7125
1523.88607	10842.5125
1527.25665	10499.8125
1530.62498	10335.1125
1533.99105	10294.0125
1537.35488	10249.1125
1540.71647	10211.4125
1544.07581	10158.8125
1547.4329	10124.6125
1550.78776	10058.6125
1554.14038	9993.5125
1557.49077	9954.3125
1560.83892	10010.0125
1564.18484	10096.9125
1567.52853	10227.9125
1570.86999	10307.3125
1574.20922	10361.8125
1577.54624	10300.3125
1580.88103	10092.9125
1584.2136	9829.3125
1587.54395	9718.8125
1590.87208	9736.8125
1594.19801	9905.0125
1597.52172	10071.7125
1600.84321	10146.1125
1604.16251	10148.7125
1607.47959	10046.9125
1610.79447	9915.4125
1614.10715	9674.2125
1617.41763	9416.5125
1620.7259	9212.2125
1624.03199	9098.6125
1627.33587	9046.8125
1630.63757	9040.1125
1633.93707	9209.5125
1637.23439	9473.9125
1640.52951	9848.1125
1643.82246	10403.5125
1647.11321	10871.7125
1650.40179	11070.8125
1653.68819	10799.5125
1656.97241	10150.2125
1660.25446	9494.2125
1663.53433	9035.7125
1666.81203	8733.9125
1670.08756	8579.3125
1673.36092	8483.3125
1676.63211	8408.3125
1679.90115	8352.3125
1683.16801	8288.2125
1686.43272	8254.2125
1689.69527	8221.3125
1692.95567	8171.3125
1696.2139	8156.3125
1699.46999	8146.4125
1702.72392	8128.9125
1705.97571	8142.8125
1709.22535	8143.4125
1712.47284	8145.7125
1715.71819	8120.3125
1718.96139	8131.6125
1722.20246	8141.8125
1725.44139	8127.5125
1728.67818	8093.4125
1731.91284	8053.3125
1735.14537	8027.6125
1738.37576	8011.1125
1741.60403	7996.7125
1744.83017	7997.6125
1748.05418	7993.1125
1751.27607	7971.8125
1754.49584	7965.0125
1757.71349	7981.1125
1760.92903	7956.8125
1764.14244	7943.3125
1767.35375	7910.1125
1770.56294	7926.9125
1773.77002	7913.5125
1776.97499	7893.9125
1780.17785	7871.8125
1783.37861	7847.4125
1786.57727	7853.4125
1789.77382	7864.9125
1792.96828	7844.0125
1796.16064	7831.6125
1799.3509	7815.8125
1802.53907	7833.9125
1805.72514	7791.1125
1808.90913	7797.6125
1812.09102	7770.7125
1815.27083	7750.4125
1818.44856	7744.2125
1821.6242	7722.8125
1824.79776	7720.9125
1827.96924	7706.3125
1831.13864	7684.7125
1834.30597	7684.1125
1837.47122	7684.2125
1840.6344	7634.3125
1843.7955	7670.3125
1846.95454	7676.1125
1850.11151	7659.9125
1853.26642	7655.8125
1856.41926	7655.2125
1859.57004	7676.4125
1862.71876	7660.7125
1865.86542	7667.4125
1869.01003	7648.7125
1872.15258	7637.6125
1875.29308	7607.4125
1878.43152	7618.2125
1881.56792	7595.2125
1884.70227	7587.7125
1887.83457	7570.4125
1890.96482	7557.7125
1894.09304	7531.7125
1897.21921	7530.7125
1900.34335	7522.6125
1903.46544	7517.7125
1906.58551	7524.2125
1909.70353	7516.0125
1912.81953	7512.8125
1915.93349	7496.9125
1919.04543	7477.4125
1922.15534	7459.1125
1925.26322	7469.9125
1928.36908	7427.8125
1931.47292	7410.8125
1934.57473	7421.0125
1937.67453	7393.5125
1940.77232	7377.5125
1943.86808	7371.3125
1946.96184	7347.3125
1950.05358	7319.5125
1953.14331	7303.4125
1956.23103	7292.2125
1959.31675	7258.4125
1962.40046	7236.8125
1965.48217	7204.1125
1968.56188	7192.7125
1971.63959	7177.7125
1974.7153	7158.4125
1977.78901	7154.8125
1980.86073	7112.5125
1983.93046	7109.5125
1986.99819	7083.6125
1990.06394	7065.7125
1993.1277	7038.6125
1996.18947	7012.3125
1999.24925	6996.8125
2002.30706	6968.0125
2005.36288	6956.1125
2008.41672	6942.5125
2011.46859	6907.4125
2014.51848	6893.0125
2017.56639	6862.2125
2020.61233	6857.1125
2023.6563	6822.8125
2026.6983	6812.8125
2029.73833	6796.4125
2032.7764	6785.6125
2035.8125	6771.6125
2038.84664	6755.7125
2041.87881	6733.1125
2044.90903	6721.9125
2047.93729	6703.9125
2050.96359	6693.2125
2053.98794	6690.0125
2057.01034	6677.4125
2060.03078	6675.1125
2063.04927	6680.5125
2066.06582	6674.0125
2069.08042	6658.9125
2072.09307	6670.7125
2075.10378	6645.5125
2078.11255	6656.2125
2081.11938	6638.1125
2084.12426	6612.1125
2087.12722	6612.7125
2090.12824	6627.2125
2093.12732	6626.7125
2096.12447	6643.6125
2099.11969	6642.2125
2102.11299	6635.1125
2105.10435	6632.1125
2108.09379	6656.9125
2111.08131	6621.4125
2114.0669	6626.1125
2117.05057	6652.8125
2120.03233	6651.9125
2123.01216	6659.1125
2125.99008	6635.0125
2128.96609	6655.5125
2131.94018	6665.7125
2134.91236	6647.8125
2137.88263	6660.0125
2140.851	6672.4125
2143.81746	6661.9125
2146.78201	6655.0125
2149.74466	6658.8125
2152.7054	6668.2125
2155.66425	6664.1125
2158.6212	6653.5125
2161.57625	6659.5125
2164.52941	6657.4125
2167.48067	6653.6125
2170.43004	6636.0125
2173.37752	6639.3125
2176.32311	6651.7125
2179.26681	6633.1125
2182.20863	6655.8125
2185.14856	6667.5125
2188.08661	6630.8125
2191.02278	6623.9125
2193.95707	6647.5125
2196.88948	6631.8125
2199.82001	6638.8125
2202.74867	6623.3125
2205.67545	6627.4125
2208.60037	6601.5125
2211.52341	6593.1125
2214.44458	6584.4125
2217.36388	6563.3125
2220.28132	6549.1125
2223.1969	6516.3125
2226.11061	6498.0125
2229.02246	6511.1125
2231.93245	6474.5125
2234.84058	6486.0125
2237.74686	6444.7125
2240.65128	6469.6125
2243.55385	6448.6125
2246.45456	6433.6125
2249.35343	6440.5125
2252.25044	6386.4125
2255.14561	6411.1125
2258.03893	6404.5125
2260.93041	6414.0125
2263.82004	6375.1125
2266.70783	6374.6125
2269.59378	6336.2125
2272.4779	6335.2125
2275.36017	6304.7125
2278.24061	6311.8125
2281.11922	6293.0125
2283.996	6276.1125
2286.87094	6279.1125
2289.74405	6281.4125
2292.61534	6255.5125
2295.4848	6242.3125
2298.35243	6223.6125
2301.21824	6225.6125
2304.08223	6209.6125
2306.94439	6212.1125
2309.80474	6213.9125
2312.66327	6200.3125
2315.51999	6195.4125
2318.37489	6187.4125
2321.22797	6173.4125
2324.07925	6162.4125
2326.92871	6139.1125
2329.77637	6142.3125
2332.62222	6126.2125
2335.46626	6105.2125
2338.3085	6101.5125
2341.14893	6094.1125
2343.98756	6078.8125
2346.8244	6074.0125
2349.65943	6078.0125
2352.49267	6035.9125
2355.32411	6056.2125
2358.15376	6037.6125
2360.98161	6045.0125
2363.80768	6049.1125
2366.63195	6030.7125
2369.45444	6040.0125
2372.27514	6028.9125
2375.09405	6022.9125
2377.91118	5986.4125
2380.72652	6004.0125
2383.54009	5976.5125
2386.35187	5960.7125
2389.16188	5963.8125
2391.97011	5943.4125
2394.77657	5921.7125
2397.58125	5910.1125
2400.38416	5919.4125
2403.18529	5898.2125
2405.98466	5889.6125
2408.78226	5873.4125
2411.57809	5881.6125
2414.37216	5867.7125
2417.16446	5860.1125
2419.955	5837.4125
2422.74378	5851.4125
2425.5308	5848.7125
2428.31606	5836.0125
2431.09956	5825.2125
2433.88131	5815.2125
2436.6613	5797.4125
2439.43954	5790.5125
2442.21603	5791.9125
2444.99077	5774.5125
2447.76377	5802.9125
2450.53501	5794.6125
2453.30451	5778.1125
2456.07226	5767.4125
2458.83827	5753.7125
2461.60254	5738.0125
2464.36507	5725.2125
2467.12586	5714.1125
2469.88492	5704.3125
2472.64224	5728.9125
2475.39782	5723.2125
2478.15167	5704.7125
2480.90379	5684.8125
2483.65417	5680.3125
2486.40283	5678.0125
2489.14976	5682.3125
2491.89497	5671.8125
2494.63845	5698.7125
2497.3802	5672.0125
2500.12024	5646.7125
2502.85855	5640.9125
2505.59514	5643.3125
2508.33002	5628.5125
2511.06318	5630.8125
2513.79462	5615.3125
2516.52435	5610.3125
2519.25237	5586.1125
2521.97867	5564.6125
2524.70327	5572.8125
2527.42616	5555.2125
2530.14734	5532.7125
2532.86681	5528.7125
2535.58458	5555.2125
2538.30065	5547.4125
2541.01501	5511.8125
2543.72768	5519.6125
2546.43864	5502.4125
2549.14791	5494.7125
2551.85548	5491.7125
2554.56136	5482.2125
2557.26554	5477.8125
2559.96803	5450.6125
2562.66883	5441.8125
2565.36794	5429.4125
2568.06536	5409.1125
2570.7611	5404.1125
2573.45514	5386.6125
2576.14751	5397.9125
2578.83819	5371.9125
2581.52719	5348.4125
2584.21451	5357.0125
2586.90015	5354.9125
2589.58411	5338.0125
2592.2664	5322.0125
2594.94701	5324.8125
2597.62594	5310.3125
2600.30321	5304.1125
2602.9788	5281.5125
2605.65273	5285.0125
2608.32498	5281.0125
2610.99557	5248.5125
2613.66449	5237.7125
2616.33175	5230.9125
2618.99734	5245.6125
2621.66128	5212.3125
2624.32355	5198.5125
2626.98416	5207.6125
2629.64311	5190.6125
2632.30041	5180.7125
2634.95605	5161.0125
2637.61004	5158.5125
2640.26238	5151.1125
2642.91306	5141.2125
2645.56209	5134.6125
2648.20948	5128.3125
2650.85521	5129.4125
2653.4993	5119.4125
2656.14175	5128.7125
2658.78255	5107.0125
2661.42171	5094.7125
2664.05923	5114.3125
2666.6951	5100.3125
2669.32934	5112.7125
2671.96194	5117.3125
2674.59291	5105.1125
2677.22224	5127.2125
2679.84993	5116.0125
2682.476	5092.8125
2685.10043	5096.4125
2687.72324	5104.3125
2690.34441	5107.0125
2692.96396	5093.2125
2695.58188	5084.1125
2698.19818	5093.6125
2700.81285	5088.9125
2703.4259	5065.2125
2706.03733	5071.3125
2708.64714	5061.5125
2711.25533	5088.4125
2713.86191	5065.8125
2716.46687	5073.1125
2719.07021	5078.0125
2721.67194	5063.5125
2724.27206	5079.7125
2726.87057	5083.3125
2729.46747	5056.5125
2732.06276	5053.1125
2734.65644	5057.2125
2737.24852	5043.6125
2739.83899	5021.3125
2742.42786	5011.8125
2745.01513	5000.8125
2747.60079	4985.4125
2750.18486	4992.5125
2752.76733	4989.6125
2755.3482	4981.6125
2757.92747	4978.9125
2760.50515	4970.4125
2763.08123	4961.2125
2765.65573	4940.0125
2768.22863	4932.5125
2770.79994	4917.3125
2773.36967	4917.4125
2775.9378	4916.5125
2778.50435	4894.5125
2781.06932	4902.6125
2783.6327	4895.3125
2786.1945	4887.2125
2788.75471	4889.8125
2791.31335	4872.6125
2793.87041	4857.8125
2796.42589	4843.3125
2798.97979	4821.6125
2801.53212	4807.9125
2804.08288	4801.2125
2806.63206	4798.5125
2809.17967	4792.4125
2811.72571	4788.1125
2814.27018	4780.2125
2816.81308	4752.5125
2819.35442	4737.8125
2821.89419	4732.9125
2824.43239	4719.4125
2826.96904	4700.0125
2829.50412	4711.2125
2832.03763	4680.1125
2834.56959	4682.2125
2837.1	4674.7125
2839.62884	4653.4125
2842.15613	4644.7125
2844.68186	4653.5125
2847.20604	4649.7125
2849.72867	4637.8125
2852.24974	4631.8125
2854.76927	4604.4125
2857.28724	4609.5125
2859.80367	4601.3125
2862.31855	4582.6125
2864.83189	4600.1125
2867.34368	4595.2125
2869.85393	4583.8125
2872.36264	4574.8125
2874.8698	4581.7125
2877.37543	4569.4125
2879.87952	4561.3125
2882.38207	4555.1125
2884.88308	4542.9125
2887.38256	4543.3125
2889.88051	4554.3125
2892.37692	4544.7125
2894.8718	4536.0125
2897.36515	4525.6125
2899.85698	4516.0125
2902.34727	4522.8125
2904.83604	4524.7125
2907.32328	4514.7125
2909.809	4516.6125
2912.29319	4531.6125
2914.77587	4532.8125
2917.25702	4544.9125
2919.73665	4535.0125
2922.21476	4533.7125
2924.69136	4537.1125
2927.16644	4517.9125
2929.64	4511.1125
2932.11205	4502.9125
2934.58258	4475.7125
2937.05161	4497.7125
2939.51912	4496.0125
2941.98513	4490.8125
2944.44962	4486.3125
2946.91261	4471.2125
2949.37409	4472.6125
2951.83407	4472.4125
2954.29254	4463.7125
2956.74951	4465.6125
2959.20498	4474.7125
2961.65895	4452.0125
2964.11142	4457.4125
2966.56239	4456.8125
2969.01186	4458.2125
2971.45984	4448.3125
2973.90632	4446.6125
2976.35131	4440.1125
2978.7948	4427.3125
2981.23681	4421.9125
2983.67732	4408.9125
2986.11635	4401.3125
2988.55388	4395.1125
2990.98993	4363.7125
2993.4245	4364.1125
2995.85758	4352.6125
2998.28917	4346.8125
3000.71928	4334.4125
3003.14791	4317.3125
3005.57506	4327.0125
3008.00073	4292.7125
3010.42493	4286.0125
3012.84764	4290.6125
3015.26888	4273.3125
3017.68865	4278.7125
3020.10694	4262.9125
3022.52376	4254.3125
3024.9391	4252.1125
3027.35298	4222.6125
3029.76539	4222.2125
3032.17632	4213.6125
3034.5858	4222.9125
3036.9938	4204.0125
3039.40034	4199.2125
3041.80542	4179.9125
3044.20903	4173.3125
3046.61118	4168.0125
3049.01187	4171.2125
3051.4111	4159.2125
3053.80888	4150.0125
3056.20519	4132.8125
3058.60005	4114.6125
3060.99345	4112.0125
3063.3854	4119.0125
3065.7759	4092.7125
3068.16494	4085.9125
3070.55254	4064.6125
3072.93868	4061.4125
3075.32338	4053.1125
3077.70662	4039.9125
3080.08842	4042.7125
3082.46878	4034.7125
3084.84769	4022.6125
3087.22515	4017.4125
3089.60118	4009.8125
3091.97576	4012.8125
3094.3489	4008.2125
3096.72061	4005.5125
3099.09087	3991.9125
3101.4597	4002.7125
3103.82709	3986.4125
3106.19305	4001.5125
3108.55757	3988.8125
3110.92066	3967.1125
3113.28232	3994.2125
3115.64255	3962.4125
3118.00134	3949.7125
3120.35871	3947.4125
