Data from AgNPs_UA_10uM_CRN_500uM_SU_RamanShift__18__13-08-20-257.txt Node

Date: Thu Aug 04 13:08:20 BST 2022
User: TCL
Spectrometer: QEP01345
Trigger mode: 4
Integration Time (sec): 1.000000E0
Scans to average: 10
Electric dark correction enabled: true
Nonlinearity correction enabled: false
Boxcar width: 0
XAxis mode: Raman Shifts
Number of Pixels in Spectrum: 1044
>>>>>Begin Spectral Data<<<<<
46.04893	-0.825
50.45542	-0.325
54.85868	1.075
59.25871	0.275
63.6555	15.575
68.04907	18.275
72.43941	18.375
76.82654	19.575
81.21044	18.575
85.59113	21.575
89.96862	21.675
94.34289	23.275
98.71396	21.475
103.08183	24.175
107.4465	23.875
111.80798	24.775
116.16626	26.675
120.52136	28.575
124.87327	30.675
129.222	31.675
133.56755	32.475
137.90993	34.375
142.24913	38.475
146.58517	45.075
150.91804	53.375
155.24774	65.075
159.57429	78.875
163.89768	104.575
168.21792	141.375
172.53501	192.675
176.84895	270.475
181.15975	383.475
185.46741	552.575
189.77193	763.275
194.07331	1023.975
198.37157	1317.475
202.6667	1638.175
206.9587	1944.575
211.24758	2276.175
215.53334	2594.075
219.81599	2948.875
224.09553	3341.675
228.37195	3772.875
232.64527	4215.675
236.91549	4663.275
241.18261	5071.975
245.44663	5371.675
249.70755	5624.875
253.96539	5825.875
258.22014	6008.175
262.4718	6145.475
266.72039	6254.175
270.96589	6266.075
275.20832	6213.875
279.44768	6132.975
283.68397	6002.875
287.91719	5955.475
292.14735	5987.975
296.37445	6090.175
300.59849	6282.975
304.81948	6545.475
309.03742	6803.675
313.25231	6961.275
317.46415	6923.775
321.67296	6645.375
325.87872	6343.575
330.08145	6186.475
334.28114	6145.575
338.47781	6206.975
342.67145	6324.575
346.86207	6535.975
351.04966	6834.075
355.23424	7135.675
359.4158	7321.675
363.59435	7394.475
367.76989	7363.275
371.94243	7330.375
376.11196	7267.475
380.27849	7262.175
384.44203	7271.775
388.60257	7302.375
392.76012	7333.575
396.91468	7450.575
401.06626	7578.375
405.21485	7624.375
409.36047	7498.275
413.50311	7267.575
417.64277	7046.875
421.77947	6901.075
425.9132	6818.575
430.04396	6796.975
434.17176	6819.175
438.2966	6873.175
442.41849	6993.075
446.53742	7145.575
450.6534	7255.875
454.76644	7340.575
458.87653	7393.875
462.98368	7397.875
467.08789	7361.575
471.18916	7263.775
475.2875	7111.275
479.38291	6988.675
483.4754	6877.675
487.56496	6834.075
491.6516	6810.575
495.73531	6794.075
499.81612	6835.875
503.89401	6931.375
507.96899	6968.375
512.04106	7009.375
516.11023	7079.175
520.1765	7085.775
524.23987	7116.275
528.30034	7097.475
532.35792	7092.675
536.41261	7027.875
540.46441	6925.575
544.51333	6909.375
548.55936	6962.575
552.60252	7060.875
556.64279	7168.675
560.6802	7282.475
564.71473	7397.475
568.7464	7490.275
572.7752	7448.975
576.80114	7224.675
580.82422	7045.675
584.84444	6955.275
588.86181	6944.375
592.87633	6963.875
596.888	7091.775
600.89682	7450.475
604.9028	8340.375
608.90594	10217.175
612.90624	12119.075
616.90371	11157.375
620.89834	8574.175
624.89015	7525.675
628.87913	7424.875
632.86528	7576.475
636.84862	7694.575
640.82913	7507.975
644.80683	7198.575
648.78172	7021.275
652.75379	7049.875
656.72306	7258.675
660.68952	7470.275
664.65319	7436.175
668.61405	7326.675
672.57211	7356.375
676.52738	7351.375
680.47986	7163.675
684.42955	7030.775
688.37646	6977.475
692.32058	7010.175
696.26192	7162.275
700.20048	7285.875
704.13626	7309.775
708.06928	7241.975
711.99952	7122.075
715.927	7131.375
719.85171	7174.375
723.77365	7205.475
727.69284	7165.275
731.60928	7093.675
735.52295	7092.475
739.43388	7134.875
743.34206	7158.475
747.24749	7134.475
751.15017	7141.475
755.05012	7221.575
758.94733	7525.475
762.8418	8228.775
766.73354	9299.875
770.62254	10075.675
774.50882	10215.575
778.39237	9888.375
782.27321	9209.775
786.15132	8339.575
790.02671	7732.175
793.89938	7430.075
797.76935	7258.875
801.6366	7181.075
805.50115	7129.475
809.36299	7082.875
813.22213	7079.475
817.07857	7065.675
820.93231	7090.475
824.78336	7102.775
828.63172	7104.275
832.47738	7122.275
836.32036	7114.675
840.16066	7084.975
843.99827	7055.875
847.8332	7066.875
851.66546	7086.175
855.49504	7110.375
859.32195	7109.775
863.1462	7094.475
866.96777	7085.975
870.78668	7095.275
874.60293	7110.475
878.41652	7150.675
882.22745	7209.975
886.03573	7257.675
889.84136	7234.775
893.64433	7227.375
897.44466	7209.475
901.24235	7190.775
905.0374	7169.375
908.8298	7155.175
912.61957	7144.475
916.40671	7127.375
920.19121	7149.675
923.97308	7195.775
927.75233	7262.575
931.52895	7328.375
935.30295	7275.775
939.07433	7130.875
942.84309	7065.975
946.60924	7029.275
950.37278	7002.975
954.13371	7023.275
957.89203	7014.675
961.64774	7014.175
965.40086	7000.375
969.15137	6995.575
972.89929	6990.375
976.64461	6992.575
980.38733	6985.375
984.12747	7004.875
987.86502	7038.875
991.59999	7059.775
995.33237	7107.275
999.06217	7147.375
1002.78939	7261.375
1006.51404	7402.275
1010.23611	7530.575
1013.95561	7594.275
1017.67255	7588.175
1021.38692	7594.575
1025.09872	7552.175
1028.80796	7454.075
1032.51465	7430.875
1036.21877	7446.175
1039.92035	7463.175
1043.61937	7496.875
1047.31584	7540.375
1051.00976	7565.275
1054.70114	7574.975
1058.38998	7589.275
1062.07627	7635.575
1065.76003	7692.975
1069.44126	7751.175
1073.11995	7926.875
1076.79611	8078.975
1080.46974	8205.575
1084.14085	8301.275
1087.80943	8398.975
1091.47549	8446.875
1095.13903	8452.075
1098.80005	8462.575
1102.45857	8504.375
1106.11456	8495.975
1109.76805	8362.175
1113.41903	8320.575
1117.06751	8438.375
1120.71348	8619.875
1124.35696	8821.675
1127.99793	8950.475
1131.63641	8808.175
1135.2724	8482.575
1138.90589	8247.775
1142.5369	8109.475
1146.16542	8047.675
1149.79145	7957.675
1153.415	7879.575
1157.03607	7872.075
1160.65467	7943.275
1164.27079	8125.375
1167.88443	8397.975
1171.49561	8788.275
1175.10432	9349.375
1178.71056	10114.075
1182.31434	10757.975
1185.91565	10994.575
1189.51451	10985.875
1193.11091	10895.075
1196.70485	10695.175
1200.29634	10489.775
1203.88538	10196.375
1207.47197	9833.375
1211.05612	9378.775
1214.63782	8991.875
1218.21708	8693.375
1221.79391	8519.275
1225.36829	8429.375
1228.94024	8423.875
1232.50976	8445.975
1236.07685	8488.475
1239.6415	8536.475
1243.20374	8567.875
1246.76355	8623.275
1250.32093	8698.775
1253.8759	8789.575
1257.42845	9014.675
1260.97859	9274.475
1264.52631	9540.175
1268.07163	9687.275
1271.61453	9776.975
1275.15503	9784.375
1278.69312	9769.775
1282.22882	9772.675
1285.76211	9865.775
1289.29301	10044.975
1292.82151	10256.375
1296.34761	10449.375
1299.87133	10772.375
1303.39266	11363.675
1306.9116	12244.275
1310.42815	13242.775
1313.94233	13602.975
1317.45412	13093.275
1320.96354	12318.975
1324.47058	11563.475
1327.97525	10938.375
1331.47754	10613.175
1334.97747	10482.075
1338.47502	10599.575
1341.97022	10996.675
1345.46305	11698.375
1348.95352	12787.675
1352.44163	13957.075
1355.92738	15121.975
1359.41078	16378.775
1362.89183	17242.675
1366.37053	16365.075
1369.84688	13992.675
1373.32088	11833.075
1376.79254	10645.775
1380.26186	10065.175
1383.72883	9685.975
1387.19347	9375.275
1390.65578	9028.075
1394.11575	8768.175
1397.57339	8563.375
1401.0287	8507.075
1404.48168	8483.875
1407.93234	8551.775
1411.38068	8682.675
1414.82669	8783.275
1418.27039	8860.075
1421.71177	8862.975
1425.15083	8746.675
1428.58758	8672.875
1432.02203	8649.075
1435.45416	8672.175
1438.88399	8639.275
1442.31151	8619.375
1445.73673	8681.575
1449.15965	8691.475
1452.58027	8675.775
1455.9986	8655.175
1459.41463	8661.375
1462.82837	8764.975
1466.23982	8925.275
1469.64898	9130.075
1473.05586	9259.275
1476.46045	9387.375
1479.86276	9504.375
1483.26279	9625.675
1486.66054	9815.175
1490.05602	10124.975
1493.44922	10640.075
1496.84016	11413.475
1500.22882	12532.475
1503.61521	13866.575
1506.99934	15202.375
1510.38121	15969.675
1513.76081	15816.775
1517.13816	14570.575
1520.51324	12945.675
1523.88607	11611.475
1527.25665	10802.475
1530.62498	10354.375
1533.99105	10184.675
1537.35488	10066.175
1540.71647	9991.875
1544.07581	9861.575
1547.4329	9755.475
1550.78776	9616.875
1554.14038	9502.675
1557.49077	9480.675
1560.83892	9575.575
1564.18484	9803.175
1567.52853	10112.475
1570.86999	10286.975
1574.20922	10359.475
1577.54624	10228.675
1580.88103	9830.575
1584.2136	9288.175
1587.54395	9009.775
1590.87208	8951.275
1594.19801	9165.575
1597.52172	9496.675
1600.84321	9628.675
1604.16251	9550.975
1607.47959	9411.775
1610.79447	9175.175
1614.10715	8862.175
1617.41763	8514.975
1620.7259	8232.975
1624.03199	8041.975
1627.33587	7963.975
1630.63757	8046.475
1633.93707	8271.375
1637.23439	8733.375
1640.52951	9464.175
1643.82246	10501.175
1647.11321	11612.975
1650.40179	12148.275
1653.68819	11651.875
1656.97241	10355.475
1660.25446	9062.075
1663.53433	8159.575
1666.81203	7618.475
1670.08756	7292.575
1673.36092	7115.775
1676.63211	6992.675
1679.90115	6886.675
1683.16801	6814.675
1686.43272	6751.375
1689.69527	6709.875
1692.95567	6670.575
1696.2139	6639.275
1699.46999	6613.975
1702.72392	6621.175
1705.97571	6597.375
1709.22535	6593.175
1712.47284	6595.875
1715.71819	6605.275
1718.96139	6582.375
1722.20246	6581.375
1725.44139	6564.975
1728.67818	6523.175
1731.91284	6479.775
1735.14537	6449.375
1738.37576	6428.075
1741.60403	6384.175
1744.83017	6371.675
1748.05418	6374.175
1751.27607	6353.175
1754.49584	6327.075
1757.71349	6344.475
1760.92903	6305.375
1764.14244	6294.175
1767.35375	6275.275
1770.56294	6261.375
1773.77002	6250.475
1776.97499	6224.275
1780.17785	6193.675
1783.37861	6178.175
1786.57727	6174.875
1789.77382	6183.275
1792.96828	6170.975
1796.16064	6146.075
1799.3509	6131.275
1802.53907	6125.275
1805.72514	6111.375
1808.90913	6098.075
1812.09102	6078.475
1815.27083	6073.475
1818.44856	6049.475
1821.6242	6023.175
1824.79776	6007.875
1827.96924	6018.975
1831.13864	6001.275
1834.30597	5988.575
1837.47122	5966.175
1840.6344	5957.875
1843.7955	5960.575
1846.95454	5958.375
1850.11151	5950.475
1853.26642	5940.075
1856.41926	5949.375
1859.57004	5947.475
1862.71876	5948.575
1865.86542	5936.275
1869.01003	5923.975
1872.15258	5911.075
1875.29308	5878.975
1878.43152	5870.975
1881.56792	5889.275
1884.70227	5866.775
1887.83457	5855.375
1890.96482	5831.875
1894.09304	5811.375
1897.21921	5824.675
1900.34335	5814.175
1903.46544	5807.975
1906.58551	5796.375
1909.70353	5798.575
1912.81953	5796.175
1915.93349	5773.475
1919.04543	5765.575
1922.15534	5745.175
1925.26322	5739.475
1928.36908	5710.075
1931.47292	5707.075
1934.57473	5682.275
1937.67453	5683.175
1940.77232	5681.075
1943.86808	5660.675
1946.96184	5624.075
1950.05358	5628.275
1953.14331	5602.875
1956.23103	5588.675
1959.31675	5561.875
1962.40046	5547.975
1965.48217	5526.375
1968.56188	5510.575
1971.63959	5492.875
1974.7153	5504.475
1977.78901	5496.275
1980.86073	5464.875
1983.93046	5445.275
1986.99819	5409.175
1990.06394	5386.175
1993.1277	5386.275
1996.18947	5349.875
1999.24925	5318.575
2002.30706	5313.175
2005.36288	5278.975
2008.41672	5273.475
2011.46859	5262.575
2014.51848	5240.075
2017.56639	5233.375
2020.61233	5206.475
2023.6563	5199.075
2026.6983	5176.175
2029.73833	5149.075
2032.7764	5130.175
2035.8125	5138.675
2038.84664	5108.875
2041.87881	5115.275
2044.90903	5094.875
2047.93729	5082.175
2050.96359	5068.575
2053.98794	5072.375
2057.01034	5063.975
2060.03078	5055.775
2063.04927	5058.175
2066.06582	5055.775
2069.08042	5033.875
2072.09307	5027.775
2075.10378	5017.375
2078.11255	5008.875
2081.11938	4996.075
2084.12426	4994.675
2087.12722	4989.875
2090.12824	4983.875
2093.12732	4992.275
2096.12447	4995.775
2099.11969	4987.775
2102.11299	5015.975
2105.10435	4993.875
2108.09379	4998.675
2111.08131	4997.975
2114.0669	5002.875
2117.05057	4996.675
2120.03233	5013.175
2123.01216	5007.975
2125.99008	5003.275
2128.96609	5007.875
2131.94018	5012.475
2134.91236	4997.775
2137.88263	5002.475
2140.851	5001.075
2143.81746	5005.175
2146.78201	4979.575
2149.74466	4974.475
2152.7054	4994.575
2155.66425	4984.175
2158.6212	4970.775
2161.57625	4958.275
2164.52941	4979.975
2167.48067	4960.975
2170.43004	4974.575
2173.37752	4949.675
2176.32311	4950.475
2179.26681	4964.675
2182.20863	4970.475
2185.14856	4964.975
2188.08661	4955.475
2191.02278	4955.375
2193.95707	4951.975
2196.88948	4935.875
2199.82001	4934.275
2202.74867	4920.475
2205.67545	4930.075
2208.60037	4900.875
2211.52341	4915.575
2214.44458	4888.175
2217.36388	4875.875
2220.28132	4874.075
2223.1969	4845.975
2226.11061	4835.075
2229.02246	4803.675
2231.93245	4805.475
2234.84058	4791.375
2237.74686	4801.875
2240.65128	4790.175
2243.55385	4783.975
2246.45456	4766.275
2249.35343	4754.975
2252.25044	4767.475
2255.14561	4755.375
2258.03893	4761.175
2260.93041	4759.075
2263.82004	4733.475
2266.70783	4733.575
2269.59378	4713.875
2272.4779	4686.975
2275.36017	4676.375
2278.24061	4672.275
2281.11922	4652.775
2283.996	4638.075
2286.87094	4633.575
2289.74405	4630.275
2292.61534	4628.675
2295.4848	4605.875
2298.35243	4605.875
2301.21824	4592.575
2304.08223	4599.975
2306.94439	4576.775
2309.80474	4568.975
2312.66327	4589.875
2315.51999	4559.175
2318.37489	4572.875
2321.22797	4547.075
2324.07925	4537.175
2326.92871	4533.775
2329.77637	4503.575
2332.62222	4511.375
2335.46626	4496.075
2338.3085	4489.975
2341.14893	4485.475
2343.98756	4486.475
2346.8244	4480.875
2349.65943	4453.475
2352.49267	4469.175
2355.32411	4442.975
2358.15376	4464.675
2360.98161	4459.575
2363.80768	4469.275
2366.63195	4471.475
2369.45444	4455.175
2372.27514	4453.975
2375.09405	4455.975
2377.91118	4433.375
2380.72652	4425.875
2383.54009	4420.675
2386.35187	4417.975
2389.16188	4382.975
2391.97011	4380.375
2394.77657	4374.675
2397.58125	4343.075
2400.38416	4342.075
2403.18529	4348.175
2405.98466	4331.775
2408.78226	4334.875
2411.57809	4320.975
2414.37216	4288.875
2417.16446	4302.575
2419.955	4288.975
2422.74378	4275.875
2425.5308	4291.175
2428.31606	4308.075
2431.09956	4293.175
2433.88131	4254.675
2436.6613	4270.675
2439.43954	4255.775
2442.21603	4258.675
2444.99077	4244.975
2447.76377	4248.875
2450.53501	4264.275
2453.30451	4256.275
2456.07226	4245.775
2458.83827	4231.975
2461.60254	4222.875
2464.36507	4218.575
2467.12586	4210.575
2469.88492	4204.275
2472.64224	4201.075
2475.39782	4206.575
2478.15167	4193.275
2480.90379	4189.475
2483.65417	4183.975
2486.40283	4183.675
2489.14976	4189.375
2491.89497	4190.875
2494.63845	4197.175
2497.3802	4182.475
2500.12024	4166.875
2502.85855	4168.375
2505.59514	4153.375
2508.33002	4139.875
2511.06318	4130.675
2513.79462	4126.575
2516.52435	4124.375
2519.25237	4088.875
2521.97867	4108.575
2524.70327	4089.775
2527.42616	4074.975
2530.14734	4076.075
2532.86681	4048.575
2535.58458	4066.875
2538.30065	4061.175
2541.01501	4066.175
2543.72768	4050.275
2546.43864	4043.675
2549.14791	4040.275
2551.85548	4035.175
2554.56136	4019.875
2557.26554	4031.975
2559.96803	4015.675
2562.66883	3994.675
2565.36794	3983.675
2568.06536	3972.875
2570.7611	3957.375
2573.45514	3950.775
2576.14751	3956.175
2578.83819	3936.675
2581.52719	3928.075
2584.21451	3921.075
2586.90015	3906.775
2589.58411	3912.575
2592.2664	3897.375
2594.94701	3899.475
2597.62594	3906.775
2600.30321	3861.575
2602.9788	3860.975
2605.65273	3873.475
2608.32498	3865.275
2610.99557	3842.275
2613.66449	3856.375
2616.33175	3841.675
2618.99734	3853.975
2621.66128	3835.475
2624.32355	3826.475
2626.98416	3801.375
2629.64311	3813.475
2632.30041	3781.475
2634.95605	3796.475
2637.61004	3777.375
2640.26238	3781.075
2642.91306	3767.175
2645.56209	3758.775
2648.20948	3753.575
2650.85521	3748.575
2653.4993	3752.875
2656.14175	3747.975
2658.78255	3735.875
2661.42171	3732.175
2664.05923	3735.475
2666.6951	3747.475
2669.32934	3754.075
2671.96194	3743.075
2674.59291	3749.475
2677.22224	3735.375
2679.84993	3738.975
2682.476	3738.175
2685.10043	3735.975
2687.72324	3739.075
2690.34441	3744.875
2692.96396	3735.175
2695.58188	3718.775
2698.19818	3733.675
2700.81285	3727.475
2703.4259	3714.675
2706.03733	3722.675
2708.64714	3715.575
2711.25533	3711.575
2713.86191	3711.575
2716.46687	3729.175
2719.07021	3713.775
2721.67194	3695.375
2724.27206	3700.075
2726.87057	3704.375
2729.46747	3696.175
2732.06276	3698.675
2734.65644	3691.075
2737.24852	3688.375
2739.83899	3671.375
2742.42786	3684.975
2745.01513	3663.875
2747.60079	3646.475
2750.18486	3641.575
2752.76733	3641.475
2755.3482	3637.075
2757.92747	3630.475
2760.50515	3626.175
2763.08123	3603.775
2765.65573	3607.575
2768.22863	3592.375
2770.79994	3586.075
2773.36967	3583.575
2775.9378	3573.775
2778.50435	3570.175
2781.06932	3569.775
2783.6327	3571.975
2786.1945	3580.675
2788.75471	3552.675
2791.31335	3546.275
2793.87041	3542.675
2796.42589	3527.375
2798.97979	3523.575
2801.53212	3512.475
2804.08288	3507.675
2806.63206	3499.675
2809.17967	3511.175
2811.72571	3499.175
2814.27018	3484.875
2816.81308	3477.975
2819.35442	3471.175
2821.89419	3466.675
2824.43239	3468.675
2826.96904	3463.875
2829.50412	3443.375
2832.03763	3427.375
2834.56959	3440.775
2837.1	3420.275
2839.62884	3422.775
2842.15613	3414.375
2844.68186	3416.275
2847.20604	3401.675
2849.72867	3402.175
2852.24974	3396.175
2854.76927	3384.275
2857.28724	3373.575
2859.80367	3375.075
2862.31855	3371.375
2864.83189	3380.875
2867.34368	3359.275
2869.85393	3363.275
2872.36264	3348.875
2874.8698	3347.275
2877.37543	3355.375
2879.87952	3329.875
2882.38207	3345.575
2884.88308	3335.575
2887.38256	3325.975
2889.88051	3328.975
2892.37692	3320.875
2894.8718	3310.975
2897.36515	3320.175
2899.85698	3304.175
2902.34727	3316.575
2904.83604	3319.975
2907.32328	3319.775
2909.809	3326.075
2912.29319	3340.875
2914.77587	3323.675
2917.25702	3337.375
2919.73665	3336.575
2922.21476	3334.675
2924.69136	3321.475
2927.16644	3315.175
2929.64	3304.475
2932.11205	3298.375
2934.58258	3285.775
2937.05161	3284.975
2939.51912	3288.675
2941.98513	3281.975
2944.44962	3264.275
2946.91261	3254.575
2949.37409	3258.575
2951.83407	3249.175
2954.29254	3238.775
2956.74951	3256.175
2959.20498	3249.275
2961.65895	3259.075
2964.11142	3243.975
2966.56239	3238.075
2969.01186	3239.575
2971.45984	3238.075
2973.90632	3227.275
2976.35131	3213.475
2978.7948	3216.775
2981.23681	3198.475
2983.67732	3208.075
2986.11635	3184.475
2988.55388	3189.575
2990.98993	3170.075
2993.4245	3170.675
2995.85758	3156.475
2998.28917	3159.275
3000.71928	3142.075
3003.14791	3130.975
3005.57506	3139.175
3008.00073	3108.475
3010.42493	3107.075
3012.84764	3101.575
3015.26888	3107.875
3017.68865	3097.075
3020.10694	3087.775
3022.52376	3079.475
3024.9391	3071.975
3027.35298	3043.575
3029.76539	3040.775
3032.17632	3042.075
3034.5858	3047.475
3036.9938	3031.175
3039.40034	3018.975
3041.80542	3007.375
3044.20903	2991.775
3046.61118	3004.675
3049.01187	2997.275
3051.4111	2981.775
3053.80888	2977.875
3056.20519	2956.375
3058.60005	2952.875
3060.99345	2958.975
3063.3854	2937.575
3065.7759	2936.075
3068.16494	2931.575
3070.55254	2918.975
3072.93868	2914.175
3075.32338	2900.675
3077.70662	2884.975
3080.08842	2899.975
3082.46878	2874.875
3084.84769	2862.875
3087.22515	2862.175
3089.60118	2876.975
3091.97576	2858.175
3094.3489	2864.975
3096.72061	2855.675
3099.09087	2860.375
3101.4597	2842.475
3103.82709	2857.375
3106.19305	2851.475
3108.55757	2850.275
3110.92066	2828.775
3113.28232	2834.975
3115.64255	2816.775
3118.00134	2813.775
3120.35871	2809.775
3122.71466	2799.375
3125.06917	2796.775
3127.42226	2782.275
3129.77393	2780.975
3132.12417	2772.075
3134.47299	2778.675
3136.82039	2764.975
3139.16636	2760.275
3141.51092	2764.775
3143.85406	2774.575
3146.19579	2761.775
3148.53609	2759.275
3150.87499	2760.875
3153.21246	2758.875
3155.54853	2760.375
3157.88318	2758.175
3160.21642	2756.275
3162.54826	2745.575
3164.87868	2727.975
3167.2077	2729.975
3169.5353	2731.075
3171.86151	2709.675
3174.18631	2710.575
3176.5097	2700.775
3178.83169	2703.575
3181.15228	2705.675
3183.47147	2685.875
3185.78926	2686.075
3188.10565	2677.375
3190.42065	2656.875
3192.73424	2673.375
3195.04645	2664.475
3197.35725	2652.175
3199.66667	2646.875
3201.97469	2653.675
3204.28132	2657.975
3206.58656	2659.475
3208.8904	2646.575
3211.19287	2656.575
3213.49394	2654.775
3215.79363	2652.475
3218.09193	2649.275
3220.38884	2646.475
3222.68438	2644.075
3224.97853	2646.575
3227.2713	2647.075
3229.56269	2628.075
3231.8527	2633.575
