Data from AgNPs_UA_5uM_CRN_500uM_SU_RamanShift__55__11-38-33-149.txt Node

Date: Thu Aug 04 11:38:33 BST 2022
User: TCL
Spectrometer: QEP01345
Trigger mode: 4
Integration Time (sec): 1.000000E0
Scans to average: 10
Electric dark correction enabled: true
Nonlinearity correction enabled: false
Boxcar width: 0
XAxis mode: Raman Shifts
Number of Pixels in Spectrum: 1044
>>>>>Begin Spectral Data<<<<<
46.04893	-0.425
50.45542	0.075
54.85868	0.675
59.25871	-0.425
63.6555	-55.425
68.04907	-36.825
72.43941	-68.225
76.82654	-53.625
81.21044	-54.925
85.59113	-47.125
89.96862	-72.025
94.34289	-54.125
98.71396	-74.825
103.08183	-54.325
107.4465	-45.325
111.80798	-52.425
116.16626	-42.725
120.52136	-68.425
124.87327	-45.825
129.222	-59.625
133.56755	-43.125
137.90993	-56.725
142.24913	-42.325
146.58517	-33.025
150.91804	-26.125
155.24774	-11.025
159.57429	16.775
163.89768	27.975
168.21792	88.175
172.53501	130.775
176.84895	241.075
181.15975	413.275
185.46741	624.875
189.77193	890.275
194.07331	1280.475
198.37157	1687.875
202.6667	2092.275
206.9587	2557.375
211.24758	3037.275
215.53334	3585.175
219.81599	4189.375
224.09553	4882.975
228.37195	5629.175
232.64527	6317.775
236.91549	6908.075
241.18261	7242.275
245.44663	7378.975
249.70755	7417.575
253.96539	7465.375
258.22014	7561.375
262.4718	7634.975
266.72039	7676.275
270.96589	7522.975
275.20832	7268.575
279.44768	7004.075
283.68397	6791.875
287.91719	6713.375
292.14735	6844.575
296.37445	7257.475
300.59849	8031.075
304.81948	9055.975
309.03742	10245.875
313.25231	11087.975
317.46415	10952.975
321.67296	9716.675
325.87872	8325.675
330.08145	7530.575
334.28114	7355.175
338.47781	7575.175
342.67145	8042.875
346.86207	8782.175
351.04966	9920.275
355.23424	11065.975
359.4158	11564.675
363.59435	11195.975
367.76989	10562.275
371.94243	9927.875
376.11196	9397.375
380.27849	9000.375
384.44203	8697.975
388.60257	8566.575
392.76012	8587.875
396.91468	8861.675
401.06626	9169.975
405.21485	9234.075
409.36047	8731.975
413.50311	7858.975
417.64277	7080.475
421.77947	6579.975
425.9132	6326.975
430.04396	6222.675
434.17176	6202.375
438.2966	6300.775
442.41849	6466.075
446.53742	6661.375
450.6534	6787.275
454.76644	6823.475
458.87653	6751.375
462.98368	6657.475
467.08789	6549.375
471.18916	6382.275
475.2875	6123.775
479.38291	5932.375
483.4754	5801.575
487.56496	5741.275
491.6516	5684.375
495.73531	5681.375
499.81612	5727.875
503.89401	5898.575
507.96899	6045.575
512.04106	6271.875
516.11023	6505.975
520.1765	6668.775
524.23987	6739.475
528.30034	6703.875
532.35792	6578.075
536.41261	6448.075
540.46441	6249.475
544.51333	6114.375
548.55936	6112.075
552.60252	6267.175
556.64279	6460.775
560.6802	6808.675
564.71473	7525.775
568.7464	8470.875
572.7752	8409.575
576.80114	7175.875
580.82422	6189.275
584.84444	5736.575
588.86181	5626.975
592.87633	5634.475
596.888	5820.075
600.89682	6475.775
604.9028	8617.275
608.90594	14002.575
612.90624	20510.075
616.90371	18740.875
620.89834	10636.575
624.89015	7091.175
628.87913	6681.575
632.86528	7195.375
636.84862	7438.475
640.82913	6855.375
644.80683	5975.075
648.78172	5590.575
652.75379	5699.875
656.72306	6349.975
660.68952	6984.075
664.65319	6662.975
668.61405	5883.775
672.57211	5585.075
676.52738	5590.775
680.47986	5492.275
684.42955	5334.675
688.37646	5286.075
692.32058	5279.175
696.26192	5407.375
700.20048	5524.875
704.13626	5545.875
708.06928	5467.875
711.99952	5440.075
715.927	5473.375
719.85171	5622.575
723.77365	5750.675
727.69284	5635.975
731.60928	5505.375
735.52295	5474.075
739.43388	5523.575
743.34206	5549.775
747.24749	5579.475
751.15017	5581.375
755.05012	5825.075
758.94733	6864.575
762.8418	9212.975
766.73354	12321.375
770.62254	13936.175
774.50882	13359.075
778.39237	12222.875
782.27321	10511.175
786.15132	8176.875
790.02671	6582.575
793.89938	5827.175
797.76935	5600.875
801.6366	5460.675
805.50115	5376.875
809.36299	5348.775
813.22213	5335.475
817.07857	5343.675
820.93231	5361.675
824.78336	5436.175
828.63172	5545.075
832.47738	5575.675
836.32036	5511.275
840.16066	5324.475
843.99827	5253.275
847.8332	5193.075
851.66546	5204.475
855.49504	5195.675
859.32195	5192.975
863.1462	5152.675
866.96777	5156.775
870.78668	5141.775
874.60293	5188.075
878.41652	5221.875
882.22745	5356.775
886.03573	5444.975
889.84136	5412.375
893.64433	5380.775
897.44466	5376.375
901.24235	5391.875
905.0374	5331.075
908.8298	5194.375
912.61957	5080.675
916.40671	5012.075
920.19121	5056.275
923.97308	5215.375
927.75233	5536.475
931.52895	5854.375
935.30295	5698.075
939.07433	5207.675
942.84309	4926.375
946.60924	4792.675
950.37278	4741.275
954.13371	4730.175
957.89203	4723.375
961.64774	4761.475
965.40086	4714.175
969.15137	4685.875
972.89929	4711.975
976.64461	4688.875
980.38733	4701.475
984.12747	4689.975
987.86502	4705.075
991.59999	4725.375
995.33237	4795.375
999.06217	4864.375
1002.78939	5016.475
1006.51404	5290.575
1010.23611	5396.775
1013.95561	5310.475
1017.67255	5170.075
1021.38692	5051.375
1025.09872	4917.075
1028.80796	4840.875
1032.51465	4866.075
1036.21877	4900.075
1039.92035	4967.875
1043.61937	5018.875
1047.31584	5100.375
1051.00976	5124.175
1054.70114	5070.775
1058.38998	5032.475
1062.07627	5023.775
1065.76003	5044.175
1069.44126	5090.175
1073.11995	5201.775
1076.79611	5456.775
1080.46974	5845.675
1084.14085	6422.975
1087.80943	6891.875
1091.47549	6897.975
1095.13903	6436.875
1098.80005	5995.275
1102.45857	5773.575
1106.11456	5745.675
1109.76805	5779.475
1113.41903	6071.575
1117.06751	6564.875
1120.71348	7352.675
1124.35696	8569.475
1127.99793	9399.375
1131.63641	8763.475
1135.2724	7497.775
1138.90589	6574.475
1142.5369	6094.775
1146.16542	5788.075
1149.79145	5558.875
1153.415	5485.475
1157.03607	5514.575
1160.65467	5690.575
1164.27079	6004.175
1167.88443	6483.175
1171.49561	7290.175
1175.10432	8727.375
1178.71056	10698.475
1182.31434	12101.275
1185.91565	11926.275
1189.51451	10709.075
1193.11091	9427.775
1196.70485	8586.975
1200.29634	8228.375
1203.88538	7788.875
1207.47197	6987.675
1211.05612	6220.475
1214.63782	5707.375
1218.21708	5483.675
1221.79391	5389.175
1225.36829	5350.475
1228.94024	5340.575
1232.50976	5355.875
1236.07685	5362.975
1239.6415	5425.475
1243.20374	5479.675
1246.76355	5631.675
1250.32093	5804.575
1253.8759	6041.275
1257.42845	6400.375
1260.97859	6961.975
1264.52631	7481.475
1268.07163	7779.275
1271.61453	7832.075
1275.15503	7687.575
1278.69312	7469.675
1282.22882	7605.475
1285.76211	8300.975
1289.29301	9258.475
1292.82151	9915.175
1296.34761	10189.675
1299.87133	10852.875
1303.39266	12504.975
1306.9116	15636.475
1310.42815	19396.575
1313.94233	20690.375
1317.45412	17779.475
1320.96354	13699.575
1324.47058	10612.975
1327.97525	8691.775
1331.47754	7710.575
1334.97747	7350.875
1338.47502	7494.075
1341.97022	8255.075
1345.46305	9961.875
1348.95352	12384.275
1352.44163	14862.775
1355.92738	17853.975
1359.41078	22957.575
1362.89183	28486.775
1366.37053	27352.875
1369.84688	19483.975
1373.32088	12904.075
1376.79254	10033.675
1380.26186	8790.075
1383.72883	7784.475
1387.19347	6887.475
1390.65578	6180.775
1394.11575	5795.275
1397.57339	5604.375
1401.0287	5451.475
1404.48168	5340.975
1407.93234	5299.775
1411.38068	5393.675
1414.82669	5669.275
1418.27039	6015.675
1421.71177	6103.575
1425.15083	5951.175
1428.58758	5941.675
1432.02203	6251.675
1435.45416	6521.875
1438.88399	6326.075
1442.31151	6025.575
1445.73673	5986.375
1449.15965	5969.475
1452.58027	5857.975
1455.9986	5744.275
1459.41463	5617.175
1462.82837	5650.275
1466.23982	5831.875
1469.64898	6120.875
1473.05586	6242.075
1476.46045	6254.075
1479.86276	6285.175
1483.26279	6492.175
1486.66054	7001.675
1490.05602	7791.475
1493.44922	9046.775
1496.84016	11062.675
1500.22882	14189.375
1503.61521	18501.775
1506.99934	23964.375
1510.38121	29194.675
1513.76081	30957.675
1517.13816	27367.675
1520.51324	20755.475
1523.88607	14903.075
1527.25665	11191.075
1530.62498	9123.175
1533.99105	7938.675
1537.35488	7170.175
1540.71647	6722.175
1544.07581	6538.075
1547.4329	6544.475
1550.78776	6669.575
1554.14038	6933.775
1557.49077	7329.675
1560.83892	8047.175
1564.18484	9138.175
1567.52853	10347.575
1570.86999	11134.375
1574.20922	11262.275
1577.54624	10804.775
1580.88103	9345.975
1584.2136	7589.875
1587.54395	6551.975
1590.87208	6281.775
1594.19801	6601.375
1597.52172	7147.675
1600.84321	7156.075
1604.16251	6576.775
1607.47959	5991.375
1610.79447	5637.475
1614.10715	5327.275
1617.41763	5112.975
1620.7259	4979.175
1624.03199	5009.675
1627.33587	5128.975
1630.63757	5401.375
1633.93707	5911.475
1637.23439	6844.875
1640.52951	8580.875
1643.82246	11477.175
1647.11321	15455.975
1650.40179	18576.875
1653.68819	18290.275
1656.97241	14644.275
1660.25446	10406.375
1663.53433	7521.375
1666.81203	5942.475
1670.08756	5145.175
1673.36092	4721.975
1676.63211	4438.175
1679.90115	4260.175
1683.16801	4126.675
1686.43272	4026.975
1689.69527	3968.375
1692.95567	3893.475
1696.2139	3857.975
1699.46999	3800.875
1702.72392	3794.675
1705.97571	3810.975
1709.22535	3784.775
1712.47284	3836.275
1715.71819	3862.775
1718.96139	3876.175
1722.20246	3846.875
1725.44139	3803.075
1728.67818	3738.275
1731.91284	3679.075
1735.14537	3641.575
1738.37576	3597.375
1741.60403	3594.675
1744.83017	3550.775
1748.05418	3556.575
1751.27607	3518.975
1754.49584	3480.475
1757.71349	3424.475
1760.92903	3421.475
1764.14244	3350.775
1767.35375	3348.575
1770.56294	3298.975
1773.77002	3274.575
1776.97499	3275.375
1780.17785	3229.775
1783.37861	3210.775
1786.57727	3218.475
1789.77382	3154.875
1792.96828	3201.075
1796.16064	3203.275
1799.3509	3187.575
1802.53907	3192.175
1805.72514	3153.975
1808.90913	3133.875
1812.09102	3129.975
1815.27083	3133.775
1818.44856	3112.475
1821.6242	3105.675
1824.79776	3086.875
1827.96924	3076.875
1831.13864	3052.375
1834.30597	3037.675
1837.47122	3009.975
1840.6344	2993.975
1843.7955	2977.375
1846.95454	2959.775
1850.11151	2963.075
1853.26642	2931.375
1856.41926	2942.175
1859.57004	2946.475
1862.71876	2948.775
1865.86542	2954.575
1869.01003	2953.775
1872.15258	2919.775
1875.29308	2962.075
1878.43152	2961.375
1881.56792	2943.375
1884.70227	2921.075
1887.83457	2916.375
1890.96482	2881.875
1894.09304	2885.275
1897.21921	2888.175
1900.34335	2885.475
1903.46544	2859.075
1906.58551	2883.675
1909.70353	2880.875
1912.81953	2875.775
1915.93349	2857.575
1919.04543	2854.875
1922.15534	2828.475
1925.26322	2822.075
1928.36908	2785.875
1931.47292	2784.375
1934.57473	2783.275
1937.67453	2745.275
1940.77232	2696.575
1943.86808	2704.775
1946.96184	2691.675
1950.05358	2666.775
1953.14331	2659.775
1956.23103	2677.175
1959.31675	2654.375
1962.40046	2631.775
1965.48217	2655.975
1968.56188	2662.975
1971.63959	2673.475
1974.7153	2673.075
1977.78901	2664.675
1980.86073	2634.475
1983.93046	2584.875
1986.99819	2505.575
1990.06394	2521.675
1993.1277	2535.575
1996.18947	2526.875
1999.24925	2494.775
2002.30706	2497.175
2005.36288	2481.575
2008.41672	2477.575
2011.46859	2454.875
2014.51848	2452.475
2017.56639	2421.275
2020.61233	2414.875
2023.6563	2407.975
2026.6983	2369.475
2029.73833	2394.775
2032.7764	2397.175
2035.8125	2345.975
2038.84664	2360.975
2041.87881	2351.075
2044.90903	2360.075
2047.93729	2354.475
2050.96359	2323.775
2053.98794	2332.175
2057.01034	2337.775
2060.03078	2305.575
2063.04927	2291.775
2066.06582	2291.675
2069.08042	2271.975
2072.09307	2277.975
2075.10378	2274.575
2078.11255	2279.775
2081.11938	2264.375
2084.12426	2275.775
2087.12722	2260.875
2090.12824	2261.775
2093.12732	2262.475
2096.12447	2269.875
2099.11969	2257.975
2102.11299	2264.275
2105.10435	2275.975
2108.09379	2264.575
2111.08131	2263.975
2114.0669	2266.875
2117.05057	2274.175
2120.03233	2264.475
2123.01216	2305.475
2125.99008	2311.575
2128.96609	2303.375
2131.94018	2326.475
2134.91236	2293.075
2137.88263	2295.875
2140.851	2280.975
2143.81746	2283.775
2146.78201	2267.775
2149.74466	2241.475
2152.7054	2245.375
2155.66425	2222.875
2158.6212	2218.475
2161.57625	2197.675
2164.52941	2172.175
2167.48067	2191.175
2170.43004	2187.075
2173.37752	2200.275
2176.32311	2203.575
2179.26681	2204.775
2182.20863	2214.475
2185.14856	2217.475
2188.08661	2209.875
2191.02278	2217.875
2193.95707	2181.575
2196.88948	2162.375
2199.82001	2180.475
2202.74867	2159.075
2205.67545	2173.475
2208.60037	2178.375
2211.52341	2162.675
2214.44458	2148.775
2217.36388	2136.875
2220.28132	2142.275
2223.1969	2116.875
2226.11061	2121.075
2229.02246	2113.775
2231.93245	2105.475
2234.84058	2088.575
2237.74686	2090.875
2240.65128	2082.675
2243.55385	2096.975
2246.45456	2075.075
2249.35343	2104.575
2252.25044	2099.875
2255.14561	2113.275
2258.03893	2127.575
2260.93041	2139.275
2263.82004	2147.475
2266.70783	2146.175
2269.59378	2133.575
2272.4779	2120.575
2275.36017	2125.375
2278.24061	2106.675
2281.11922	2077.575
2283.996	2101.975
2286.87094	2061.575
2289.74405	2075.575
2292.61534	2054.475
2295.4848	2033.975
2298.35243	2035.275
2301.21824	2014.975
2304.08223	2011.975
2306.94439	2019.775
2309.80474	2015.575
2312.66327	2012.575
2315.51999	2009.875
2318.37489	1990.675
2321.22797	1984.975
2324.07925	1978.975
2326.92871	1985.175
2329.77637	1962.175
2332.62222	1969.575
2335.46626	1954.075
2338.3085	1962.675
2341.14893	1978.775
2343.98756	1984.275
2346.8244	1964.575
2349.65943	1964.375
2352.49267	1971.975
2355.32411	1986.775
2358.15376	1987.275
2360.98161	2020.675
2363.80768	2000.275
2366.63195	2014.075
2369.45444	2052.575
2372.27514	2035.775
2375.09405	2046.175
2377.91118	2008.275
2380.72652	2002.575
2383.54009	1990.375
2386.35187	1986.475
2389.16188	1965.775
2391.97011	1950.575
2394.77657	1936.075
2397.58125	1940.975
2400.38416	1914.175
2403.18529	1908.675
2405.98466	1884.675
2408.78226	1893.975
2411.57809	1891.575
2414.37216	1882.575
2417.16446	1888.175
2419.955	1870.775
2422.74378	1885.575
2425.5308	1868.075
2428.31606	1876.775
2431.09956	1890.775
2433.88131	1879.475
2436.6613	1901.675
2439.43954	1888.175
2442.21603	1887.675
2444.99077	1877.975
2447.76377	1908.275
2450.53501	1902.375
2453.30451	1895.575
2456.07226	1903.675
2458.83827	1888.375
2461.60254	1855.475
2464.36507	1890.075
2467.12586	1868.975
2469.88492	1879.675
2472.64224	1882.775
2475.39782	1865.175
2478.15167	1891.975
2480.90379	1905.675
2483.65417	1918.075
2486.40283	1926.875
2489.14976	1954.775
2491.89497	1941.175
2494.63845	1938.975
2497.3802	1919.475
2500.12024	1913.175
2502.85855	1899.275
2505.59514	1898.175
2508.33002	1871.975
2511.06318	1838.575
2513.79462	1843.775
2516.52435	1783.775
2519.25237	1746.275
2521.97867	1746.475
2524.70327	1740.375
2527.42616	1742.675
2530.14734	1745.675
2532.86681	1717.375
2535.58458	1737.475
2538.30065	1730.575
2541.01501	1744.875
2543.72768	1727.475
2546.43864	1745.075
2549.14791	1736.675
2551.85548	1732.875
2554.56136	1726.475
2557.26554	1738.975
2559.96803	1738.175
2562.66883	1740.975
2565.36794	1735.975
2568.06536	1704.675
2570.7611	1735.275
2573.45514	1731.575
2576.14751	1718.175
2578.83819	1709.675
2581.52719	1697.675
2584.21451	1690.675
2586.90015	1681.575
2589.58411	1659.075
2592.2664	1669.875
2594.94701	1671.075
2597.62594	1674.675
2600.30321	1612.075
2602.9788	1647.175
2605.65273	1648.475
2608.32498	1642.175
2610.99557	1667.875
2613.66449	1636.975
2616.33175	1658.075
2618.99734	1663.675
2621.66128	1660.375
2624.32355	1643.875
2626.98416	1627.075
2629.64311	1618.275
2632.30041	1617.675
2634.95605	1592.475
2637.61004	1575.275
2640.26238	1547.775
2642.91306	1553.475
2645.56209	1580.875
2648.20948	1571.475
2650.85521	1555.275
2653.4993	1583.975
2656.14175	1575.975
2658.78255	1554.075
2661.42171	1546.775
2664.05923	1574.475
2666.6951	1597.875
2669.32934	1602.275
2671.96194	1612.875
2674.59291	1595.475
2677.22224	1609.575
2679.84993	1598.675
2682.476	1587.775
2685.10043	1580.575
2687.72324	1567.475
2690.34441	1569.075
2692.96396	1573.575
2695.58188	1575.575
2698.19818	1570.575
2700.81285	1564.875
2703.4259	1553.275
2706.03733	1520.675
2708.64714	1530.675
2711.25533	1547.175
2713.86191	1564.975
2716.46687	1565.175
2719.07021	1554.375
2721.67194	1556.175
2724.27206	1574.575
2726.87057	1547.475
2729.46747	1534.775
2732.06276	1540.075
2734.65644	1521.875
2737.24852	1527.475
2739.83899	1499.475
2742.42786	1510.175
2745.01513	1514.375
2747.60079	1495.975
2750.18486	1484.775
2752.76733	1479.075
2755.3482	1470.275
2757.92747	1475.975
2760.50515	1453.475
2763.08123	1440.275
2765.65573	1451.375
2768.22863	1437.275
2770.79994	1434.575
2773.36967	1429.075
2775.9378	1432.775
2778.50435	1423.475
2781.06932	1429.675
2783.6327	1418.875
2786.1945	1440.675
2788.75471	1421.475
2791.31335	1432.375
2793.87041	1434.075
2796.42589	1415.775
2798.97979	1414.075
2801.53212	1428.675
2804.08288	1448.275
2806.63206	1437.375
2809.17967	1429.475
2811.72571	1460.575
2814.27018	1459.675
2816.81308	1463.275
2819.35442	1435.975
2821.89419	1472.675
2824.43239	1467.975
2826.96904	1503.175
2829.50412	1474.875
2832.03763	1477.375
2834.56959	1473.675
2837.1	1447.275
2839.62884	1440.875
2842.15613	1434.275
2844.68186	1456.175
2847.20604	1433.475
2849.72867	1432.875
2852.24974	1450.175
2854.76927	1427.175
2857.28724	1392.975
2859.80367	1461.675
2862.31855	1484.675
2864.83189	1480.875
2867.34368	1500.675
2869.85393	1503.675
2872.36264	1494.975
2874.8698	1504.075
2877.37543	1493.975
2879.87952	1480.975
2882.38207	1457.575
2884.88308	1454.475
2887.38256	1451.475
2889.88051	1441.975
2892.37692	1428.375
2894.8718	1420.175
2897.36515	1436.275
2899.85698	1426.475
2902.34727	1424.275
2904.83604	1436.475
2907.32328	1456.075
2909.809	1467.375
2912.29319	1471.775
2914.77587	1489.075
2917.25702	1495.275
2919.73665	1493.875
2922.21476	1484.575
2924.69136	1467.075
2927.16644	1429.375
2929.64	1438.875
2932.11205	1402.975
2934.58258	1414.975
2937.05161	1397.875
2939.51912	1392.475
2941.98513	1421.775
2944.44962	1395.875
2946.91261	1370.575
2949.37409	1383.375
2951.83407	1376.975
2954.29254	1384.075
2956.74951	1385.775
2959.20498	1378.375
2961.65895	1379.675
2964.11142	1376.375
2966.56239	1372.275
2969.01186	1371.075
2971.45984	1369.475
2973.90632	1356.275
2976.35131	1377.875
2978.7948	1367.575
2981.23681	1364.875
2983.67732	1369.475
2986.11635	1371.775
2988.55388	1346.875
2990.98993	1358.575
2993.4245	1352.175
2995.85758	1348.075
2998.28917	1350.575
3000.71928	1345.175
3003.14791	1338.675
3005.57506	1350.575
3008.00073	1333.175
3010.42493	1269.175
3012.84764	1328.275
3015.26888	1325.075
3017.68865	1313.175
3020.10694	1283.075
3022.52376	1293.475
3024.9391	1290.775
3027.35298	1269.175
3029.76539	1250.875
3032.17632	1261.475
3034.5858	1238.375
3036.9938	1241.075
3039.40034	1235.375
3041.80542	1218.675
3044.20903	1197.575
3046.61118	1192.275
3049.01187	1202.775
3051.4111	1183.675
3053.80888	1177.975
3056.20519	1175.175
3058.60005	1161.075
3060.99345	1189.675
3063.3854	1168.875
3065.7759	1157.875
3068.16494	1140.375
3070.55254	1142.375
3072.93868	1158.775
3075.32338	1142.775
3077.70662	1135.975
3080.08842	1130.975
3082.46878	1119.475
3084.84769	1135.675
3087.22515	1122.875
3089.60118	1137.975
3091.97576	1107.075
3094.3489	1130.075
3096.72061	1118.275
3099.09087	1103.775
3101.4597	1113.975
3103.82709	1109.875
3106.19305	1096.875
3108.55757	1110.675
3110.92066	1090.875
3113.28232	1109.175
3115.64255	1110.775
3118.00134	1107.675
3120.35871	1087.275
3122.71466	1081.475
3125.06917	1083.575
3127.42226	1076.075
3129.77393	1061.375
3132.12417	1086.475
3134.47299	1090.675
3136.82039	1074.175
3139.16636	1051.975
3141.51092	1081.575
3143.85406	1080.375
3146.19579	1072.075
3148.53609	1070.975
3150.87499	1080.775
3153.21246	1068.775
3155.54853	1085.675
3157.88318	1081.875
3160.21642	1082.275
3162.54826	1072.775
3164.87868	1083.475
3167.2077	1040.175
3169.5353	1062.275
3171.86151	1066.475
3174.18631	1047.075
3176.5097	1043.375
3178.83169	1045.275
3181.15228	1047.575
3183.47147	1029.375
3185.78926	1005.975
3188.10565	1018.775
3190.42065	997.475
3192.73424	1006.575
3195.04645	1006.875
3197.35725	991.175
3199.66667	1003.975
3201.97469	998.875
3204.28132	997.275
3206.58656	1003.375
3208.8904	1018.175
3211.19287	1011.375
3213.49394	1003.275
3215.79363	998.675
3218.09193	1018.475
3220.38884	1004.775
3222.68438	1003.775
3224.97853	982.075
3227.2713	1006.775
3229.56269	991.475
3231.8527	994.175
