Data from AgNPs_UA_5uM_CRN_500uM_SU_RamanShift__30__11-34-23-144.txt Node

Date: Thu Aug 04 11:34:23 BST 2022
User: TCL
Spectrometer: QEP01345
Trigger mode: 4
Integration Time (sec): 1.000000E0
Scans to average: 10
Electric dark correction enabled: true
Nonlinearity correction enabled: false
Boxcar width: 0
XAxis mode: Raman Shifts
Number of Pixels in Spectrum: 1044
>>>>>Begin Spectral Data<<<<<
46.04893	0.175
50.45542	0.675
54.85868	-0.325
59.25871	-1.325
63.6555	-53.025
68.04907	-35.625
72.43941	-64.825
76.82654	-52.325
81.21044	-52.725
85.59113	-43.725
89.96862	-69.625
94.34289	-47.625
98.71396	-69.925
103.08183	-51.125
107.4465	-42.625
111.80798	-47.025
116.16626	-37.625
120.52136	-64.225
124.87327	-39.925
129.222	-49.125
133.56755	-35.125
137.90993	-46.125
142.24913	-30.525
146.58517	-18.725
150.91804	-10.825
155.24774	10.275
159.57429	45.875
163.89768	68.375
168.21792	145.575
172.53501	205.575
176.84895	358.575
181.15975	577.375
185.46741	857.575
189.77193	1213.475
194.07331	1701.675
198.37157	2231.575
202.6667	2790.675
206.9587	3403.775
211.24758	4039.875
215.53334	4756.675
219.81599	5579.075
224.09553	6556.275
228.37195	7555.675
232.64527	8488.275
236.91549	9255.575
241.18261	9658.275
245.44663	9762.575
249.70755	9726.475
253.96539	9726.775
258.22014	9827.275
262.4718	9902.475
266.72039	9899.475
270.96589	9654.975
275.20832	9260.175
279.44768	8808.175
283.68397	8518.375
287.91719	8398.675
292.14735	8601.975
296.37445	9245.075
300.59849	10419.975
304.81948	12054.575
309.03742	13845.575
313.25231	15171.175
317.46415	14985.275
321.67296	13106.375
325.87872	10973.475
330.08145	9762.675
334.28114	9497.375
338.47781	9829.575
342.67145	10518.975
346.86207	11660.975
351.04966	13352.975
355.23424	15013.375
359.4158	15620.275
363.59435	15045.375
367.76989	14003.875
371.94243	13023.975
376.11196	12189.775
380.27849	11590.075
384.44203	11088.475
388.60257	10811.675
392.76012	10849.775
396.91468	11233.475
401.06626	11679.675
405.21485	11697.375
409.36047	10921.375
413.50311	9605.975
417.64277	8372.175
421.77947	7621.675
425.9132	7258.575
430.04396	7079.875
434.17176	7061.875
438.2966	7207.275
442.41849	7456.775
446.53742	7716.875
450.6534	7860.575
454.76644	7853.775
458.87653	7707.275
462.98368	7538.675
467.08789	7361.275
471.18916	7095.175
475.2875	6739.075
479.38291	6438.475
483.4754	6253.575
487.56496	6175.575
491.6516	6090.675
495.73531	6057.375
499.81612	6143.075
503.89401	6335.175
507.96899	6575.875
512.04106	6873.475
516.11023	7211.375
520.1765	7481.075
524.23987	7594.475
528.30034	7555.575
532.35792	7400.375
536.41261	7216.275
540.46441	6985.175
544.51333	6767.075
548.55936	6768.475
552.60252	6932.275
556.64279	7224.175
560.6802	7756.475
564.71473	8941.575
568.7464	10521.375
572.7752	10456.075
576.80114	8458.975
580.82422	6848.575
584.84444	6151.075
588.86181	5931.375
592.87633	5937.175
596.888	6172.775
600.89682	7142.875
604.9028	10351.675
608.90594	18563.175
612.90624	28471.275
616.90371	25708.675
620.89834	13416.975
624.89015	8066.475
628.87913	7496.975
632.86528	8281.875
636.84862	8557.675
640.82913	7535.775
644.80683	6255.575
648.78172	5693.775
652.75379	5894.675
656.72306	6847.375
660.68952	7777.175
664.65319	7258.275
668.61405	5999.275
672.57211	5471.975
676.52738	5468.275
680.47986	5382.975
684.42955	5217.675
688.37646	5131.675
692.32058	5122.975
696.26192	5234.575
700.20048	5376.075
704.13626	5428.975
708.06928	5317.275
711.99952	5284.675
715.927	5349.475
719.85171	5631.775
723.77365	5821.075
727.69284	5631.975
731.60928	5443.275
735.52295	5379.575
739.43388	5462.475
743.34206	5512.575
747.24749	5509.675
751.15017	5540.575
755.05012	5959.975
758.94733	7591.975
762.8418	11215.175
766.73354	15886.275
770.62254	18246.575
774.50882	17269.875
778.39237	15391.275
782.27321	12552.075
786.15132	9073.975
790.02671	6834.275
793.89938	5805.675
797.76935	5450.575
801.6366	5292.375
805.50115	5182.075
809.36299	5127.875
813.22213	5109.875
817.07857	5113.275
820.93231	5153.175
824.78336	5283.275
828.63172	5432.075
832.47738	5491.775
836.32036	5366.375
840.16066	5078.875
843.99827	4914.175
847.8332	4874.375
851.66546	4868.275
855.49504	4833.575
859.32195	4847.875
863.1462	4789.575
866.96777	4770.975
870.78668	4753.575
874.60293	4806.475
878.41652	4905.475
882.22745	5070.075
886.03573	5178.275
889.84136	5143.175
893.64433	5106.675
897.44466	5120.675
901.24235	5140.375
905.0374	5039.575
908.8298	4833.375
912.61957	4661.375
916.40671	4583.275
920.19121	4653.475
923.97308	4911.475
927.75233	5392.775
931.52895	5913.975
935.30295	5615.975
939.07433	4881.775
942.84309	4426.975
946.60924	4241.675
950.37278	4174.075
954.13371	4161.775
957.89203	4138.375
961.64774	4161.675
965.40086	4125.475
969.15137	4095.475
972.89929	4104.975
976.64461	4090.875
980.38733	4083.275
984.12747	4081.575
987.86502	4085.075
991.59999	4116.975
995.33237	4198.875
999.06217	4348.775
1002.78939	4557.275
1006.51404	4940.875
1010.23611	5091.175
1013.95561	4923.275
1017.67255	4681.675
1021.38692	4482.475
1025.09872	4320.175
1028.80796	4197.675
1032.51465	4261.375
1036.21877	4307.475
1039.92035	4402.675
1043.61937	4473.675
1047.31584	4563.575
1051.00976	4572.075
1054.70114	4511.075
1058.38998	4433.675
1062.07627	4395.275
1065.76003	4402.275
1069.44126	4467.275
1073.11995	4570.975
1076.79611	4908.475
1080.46974	5536.175
1084.14085	6389.475
1087.80943	7131.075
1091.47549	7055.875
1095.13903	6326.975
1098.80005	5561.275
1102.45857	5163.175
1106.11456	5106.175
1109.76805	5263.075
1113.41903	5761.475
1117.06751	6554.075
1120.71348	7816.375
1124.35696	9710.875
1127.99793	10961.175
1131.63641	9959.375
1135.2724	7969.775
1138.90589	6681.775
1142.5369	5933.475
1146.16542	5473.475
1149.79145	5190.475
1153.415	5114.375
1157.03607	5198.775
1160.65467	5453.475
1164.27079	5975.875
1167.88443	6703.175
1171.49561	7914.675
1175.10432	10007.975
1178.71056	12830.875
1182.31434	14763.175
1185.91565	14385.875
1189.51451	12521.775
1193.11091	10607.775
1196.70485	9364.375
1200.29634	8862.775
1203.88538	8278.675
1207.47197	7093.875
1211.05612	6004.575
1214.63782	5311.175
1218.21708	4994.975
1221.79391	4885.175
1225.36829	4861.475
1228.94024	4864.075
1232.50976	4847.975
1236.07685	4868.675
1239.6415	4956.275
1243.20374	5113.875
1246.76355	5318.575
1250.32093	5584.875
1253.8759	5945.475
1257.42845	6608.775
1260.97859	7427.775
1264.52631	8172.175
1268.07163	8526.875
1271.61453	8461.675
1275.15503	8165.975
1278.69312	7864.375
1282.22882	8102.175
1285.76211	9219.475
1289.29301	10678.075
1292.82151	11622.975
1296.34761	12034.575
1299.87133	12993.975
1303.39266	15487.275
1306.9116	20151.575
1310.42815	25903.775
1313.94233	28127.875
1317.45412	23884.075
1320.96354	17444.175
1324.47058	12537.075
1327.97525	9602.275
1331.47754	8111.275
1334.97747	7647.175
1338.47502	7844.175
1341.97022	9008.875
1345.46305	11485.475
1348.95352	15007.075
1352.44163	18736.075
1355.92738	23383.775
1359.41078	31542.175
1362.89183	39927.475
1366.37053	37640.375
1369.84688	25657.775
1373.32088	15975.175
1376.79254	11840.975
1380.26186	9935.475
1383.72883	8465.475
1387.19347	7155.475
1390.65578	6177.275
1394.11575	5630.275
1397.57339	5377.575
1401.0287	5185.775
1404.48168	4989.975
1407.93234	4891.075
1411.38068	5024.175
1414.82669	5459.375
1418.27039	5958.875
1421.71177	6059.075
1425.15083	5823.975
1428.58758	5938.775
1432.02203	6602.375
1435.45416	7110.575
1438.88399	6756.175
1442.31151	6297.775
1445.73673	6187.175
1449.15965	6134.475
1452.58027	5978.475
1455.9986	5734.775
1459.41463	5544.275
1462.82837	5560.575
1466.23982	5844.675
1469.64898	6199.575
1473.05586	6340.075
1476.46045	6274.675
1479.86276	6322.675
1483.26279	6645.875
1486.66054	7360.875
1490.05602	8492.575
1493.44922	10326.875
1496.84016	13216.475
1500.22882	17662.775
1503.61521	23945.575
1506.99934	32185.275
1510.38121	40460.275
1513.76081	44082.275
1517.13816	39321.075
1520.51324	29446.475
1523.88607	20316.675
1527.25665	14357.575
1530.62498	10954.675
1533.99105	8981.175
1537.35488	7704.275
1540.71647	6998.475
1544.07581	6718.075
1547.4329	6699.975
1550.78776	6883.975
1554.14038	7243.275
1557.49077	7896.975
1560.83892	9069.975
1564.18484	10857.275
1567.52853	12731.275
1570.86999	13759.775
1574.20922	13773.575
1577.54624	12973.475
1580.88103	10776.975
1584.2136	8172.275
1587.54395	6667.175
1590.87208	6298.175
1594.19801	6796.675
1597.52172	7625.275
1600.84321	7681.975
1604.16251	6756.175
1607.47959	5875.675
1610.79447	5360.875
1614.10715	4953.575
1617.41763	4682.675
1620.7259	4541.975
1624.03199	4608.475
1627.33587	4861.375
1630.63757	5294.275
1633.93707	6147.875
1637.23439	7631.875
1640.52951	10374.375
1643.82246	15076.675
1647.11321	21342.975
1650.40179	26347.175
1653.68819	25804.575
1656.97241	19948.275
1660.25446	13222.575
1663.53433	8686.375
1666.81203	6261.875
1670.08756	4993.975
1673.36092	4305.175
1676.63211	3893.075
1679.90115	3626.875
1683.16801	3440.675
1686.43272	3297.275
1689.69527	3224.775
1692.95567	3132.375
1696.2139	3087.775
1699.46999	3004.375
1702.72392	2998.775
1705.97571	2998.175
1709.22535	2983.675
1712.47284	3042.975
1715.71819	3053.275
1718.96139	3061.775
1722.20246	3037.475
1725.44139	2960.675
1728.67818	2889.075
1731.91284	2799.675
1735.14537	2736.275
1738.37576	2677.075
1741.60403	2666.975
1744.83017	2634.575
1748.05418	2600.775
1751.27607	2578.175
1754.49584	2525.875
1757.71349	2461.175
1760.92903	2425.375
1764.14244	2347.875
1767.35375	2320.875
1770.56294	2275.275
1773.77002	2213.575
1776.97499	2207.375
1780.17785	2149.075
1783.37861	2127.075
1786.57727	2128.475
1789.77382	2062.575
1792.96828	2096.375
1796.16064	2092.975
1799.3509	2065.775
1802.53907	2090.875
1805.72514	2044.375
1808.90913	2035.975
1812.09102	2021.375
1815.27083	2014.875
1818.44856	2001.275
1821.6242	2002.475
1824.79776	1980.875
1827.96924	1963.675
1831.13864	1926.475
1834.30597	1934.375
1837.47122	1890.075
1840.6344	1871.775
1843.7955	1834.575
1846.95454	1818.375
1850.11151	1826.575
1853.26642	1792.275
1856.41926	1795.475
1859.57004	1801.975
1862.71876	1804.275
1865.86542	1810.775
1869.01003	1818.575
1872.15258	1797.775
1875.29308	1824.475
1878.43152	1832.175
1881.56792	1818.775
1884.70227	1795.875
1887.83457	1800.475
1890.96482	1757.375
1894.09304	1751.875
1897.21921	1744.875
1900.34335	1752.475
1903.46544	1729.975
1906.58551	1762.775
1909.70353	1746.475
1912.81953	1738.275
1915.93349	1731.875
1919.04543	1716.975
1922.15534	1690.175
1925.26322	1691.475
1928.36908	1650.775
1931.47292	1635.975
1934.57473	1624.475
1937.67453	1569.575
1940.77232	1535.375
1943.86808	1527.475
1946.96184	1532.375
1950.05358	1505.275
1953.14331	1493.275
1956.23103	1520.675
1959.31675	1506.975
1962.40046	1475.075
1965.48217	1524.575
1968.56188	1546.675
1971.63959	1555.875
1974.7153	1574.875
1977.78901	1559.175
1980.86073	1507.775
1983.93046	1462.975
1986.99819	1377.275
1990.06394	1384.975
1993.1277	1400.875
1996.18947	1380.275
1999.24925	1356.075
2002.30706	1362.675
2005.36288	1349.375
2008.41672	1328.275
2011.46859	1307.675
2014.51848	1292.275
2017.56639	1292.475
2020.61233	1278.075
2023.6563	1283.575
2026.6983	1248.575
2029.73833	1255.075
2032.7764	1271.275
2035.8125	1225.175
2038.84664	1240.775
2041.87881	1233.475
2044.90903	1236.675
2047.93729	1239.475
2050.96359	1214.675
2053.98794	1212.275
2057.01034	1214.075
2060.03078	1189.975
2063.04927	1171.675
2066.06582	1163.475
2069.08042	1149.975
2072.09307	1140.475
2075.10378	1150.975
2078.11255	1134.475
2081.11938	1142.375
2084.12426	1137.975
2087.12722	1134.875
2090.12824	1134.375
2093.12732	1133.175
2096.12447	1140.075
2099.11969	1133.475
2102.11299	1122.775
2105.10435	1147.675
2108.09379	1135.475
2111.08131	1135.075
2114.0669	1146.675
2117.05057	1155.175
2120.03233	1160.175
2123.01216	1193.375
2125.99008	1210.875
2128.96609	1212.875
2131.94018	1222.175
2134.91236	1187.875
2137.88263	1169.975
2140.851	1157.275
2143.81746	1151.375
2146.78201	1120.075
2149.74466	1095.075
2152.7054	1088.175
2155.66425	1062.775
2158.6212	1058.375
2161.57625	1034.375
2164.52941	1011.075
2167.48067	1027.275
2170.43004	1043.375
2173.37752	1059.775
2176.32311	1057.275
2179.26681	1067.775
2182.20863	1079.175
2185.14856	1071.375
2188.08661	1064.175
2191.02278	1054.075
2193.95707	1023.175
2196.88948	1004.075
2199.82001	1010.575
2202.74867	992.675
2205.67545	997.075
2208.60037	1005.875
2211.52341	999.875
2214.44458	994.775
2217.36388	996.075
2220.28132	979.275
2223.1969	964.975
2226.11061	972.175
2229.02246	950.475
2231.93245	956.675
2234.84058	944.275
2237.74686	940.175
2240.65128	941.475
2243.55385	955.475
2246.45456	937.375
2249.35343	970.875
2252.25044	974.975
2255.14561	1016.475
2258.03893	1042.475
2260.93041	1066.175
2263.82004	1073.975
2266.70783	1082.975
2269.59378	1066.475
2272.4779	1046.875
2275.36017	1064.575
2278.24061	1043.875
2281.11922	1014.975
2283.996	1027.575
2286.87094	999.975
2289.74405	994.475
2292.61534	965.775
2295.4848	952.575
2298.35243	940.575
2301.21824	921.275
2304.08223	920.675
2306.94439	924.875
2309.80474	928.675
2312.66327	932.275
2315.51999	919.875
2318.37489	916.175
2321.22797	901.075
2324.07925	893.975
2326.92871	909.075
2329.77637	884.675
2332.62222	892.675
2335.46626	878.175
2338.3085	884.775
2341.14893	909.575
2343.98756	926.575
2346.8244	903.975
2349.65943	913.975
2352.49267	929.875
2355.32411	949.775
2358.15376	957.475
2360.98161	990.175
2363.80768	977.375
2366.63195	1013.775
2369.45444	1022.775
2372.27514	1027.275
2375.09405	1041.875
2377.91118	1009.975
2380.72652	989.175
2383.54009	984.875
2386.35187	977.375
2389.16188	944.375
2391.97011	934.475
2394.77657	920.675
2397.58125	917.575
2400.38416	901.775
2403.18529	879.875
2405.98466	866.975
2408.78226	869.675
2411.57809	863.675
2414.37216	852.475
2417.16446	864.675
2419.955	846.175
2422.74378	876.275
2425.5308	859.175
2428.31606	875.575
2431.09956	887.275
2433.88131	873.375
2436.6613	896.275
2439.43954	895.175
2442.21603	905.775
2444.99077	906.975
2447.76377	929.575
2450.53501	929.875
2453.30451	929.075
2456.07226	944.675
2458.83827	938.375
2461.60254	889.875
2464.36507	926.375
2467.12586	911.675
2469.88492	926.875
2472.64224	926.075
2475.39782	921.975
2478.15167	942.875
2480.90379	959.175
2483.65417	999.075
2486.40283	1017.775
2489.14976	1035.675
2491.89497	1024.875
2494.63845	1030.075
2497.3802	1026.075
2500.12024	1002.375
2502.85855	992.075
2505.59514	980.775
2508.33002	946.875
2511.06318	904.075
2513.79462	888.975
2516.52435	828.975
2519.25237	784.675
2521.97867	783.675
2524.70327	776.175
2527.42616	766.775
2530.14734	776.975
2532.86681	752.375
2535.58458	756.675
2538.30065	757.575
2541.01501	778.575
2543.72768	777.175
2546.43864	792.275
2549.14791	787.775
2551.85548	784.775
2554.56136	790.575
2557.26554	813.775
2559.96803	811.875
2562.66883	819.775
2565.36794	815.675
2568.06536	802.175
2570.7611	823.775
2573.45514	818.075
2576.14751	814.375
2578.83819	794.175
2581.52719	787.175
2584.21451	784.475
2586.90015	762.275
2589.58411	750.575
2592.2664	760.475
2594.94701	770.775
2597.62594	767.675
2600.30321	710.475
2602.9788	738.275
2605.65273	745.375
2608.32498	742.375
2610.99557	781.275
2613.66449	755.375
2616.33175	769.275
2618.99734	781.375
2621.66128	778.575
2624.32355	766.875
2626.98416	740.075
2629.64311	738.175
2632.30041	726.775
2634.95605	709.175
2637.61004	691.975
2640.26238	669.575
2642.91306	679.275
2645.56209	689.575
2648.20948	681.775
2650.85521	669.475
2653.4993	696.375
2656.14175	694.775
2658.78255	694.875
2661.42171	677.375
2664.05923	714.075
2666.6951	731.375
2669.32934	740.875
2671.96194	755.575
2674.59291	738.875
2677.22224	753.275
2679.84993	745.475
2682.476	726.575
2685.10043	720.275
2687.72324	710.175
2690.34441	709.875
2692.96396	712.575
2695.58188	716.375
2698.19818	700.575
2700.81285	688.675
2703.4259	688.075
2706.03733	665.075
2708.64714	669.875
2711.25533	703.675
2713.86191	713.375
2716.46687	714.775
2719.07021	709.675
2721.67194	704.675
2724.27206	725.875
2726.87057	696.575
2729.46747	685.675
2732.06276	683.575
2734.65644	659.975
2737.24852	671.875
2739.83899	641.875
2742.42786	651.775
2745.01513	652.775
2747.60079	631.275
2750.18486	613.875
2752.76733	613.475
2755.3482	598.675
2757.92747	600.675
2760.50515	583.275
2763.08123	579.575
2765.65573	581.575
2768.22863	568.675
2770.79994	574.075
2773.36967	569.675
2775.9378	572.475
2778.50435	570.675
2781.06932	573.975
2783.6327	562.275
2786.1945	588.175
2788.75471	577.775
2791.31335	587.975
2793.87041	594.875
2796.42589	584.775
2798.97979	589.975
2801.53212	605.775
2804.08288	630.375
2806.63206	631.275
2809.17967	633.375
2811.72571	666.675
2814.27018	677.275
2816.81308	691.775
2819.35442	678.175
2821.89419	713.775
2824.43239	722.175
2826.96904	754.075
2829.50412	734.975
2832.03763	733.675
2834.56959	723.575
2837.1	698.275
2839.62884	699.775
2842.15613	685.075
2844.68186	696.575
2847.20604	676.175
2849.72867	685.375
2852.24974	699.575
2854.76927	683.775
2857.28724	661.975
2859.80367	744.975
2862.31855	768.075
2864.83189	767.975
2867.34368	800.675
2869.85393	829.675
2872.36264	813.575
2874.8698	824.175
2877.37543	821.375
2879.87952	810.475
2882.38207	777.475
2884.88308	768.575
2887.38256	754.675
2889.88051	738.975
2892.37692	734.975
2894.8718	713.275
2897.36515	730.475
2899.85698	729.375
2902.34727	728.675
2904.83604	753.775
2907.32328	776.375
2909.809	802.575
2912.29319	806.975
2914.77587	819.275
2917.25702	827.475
2919.73665	819.375
2922.21476	794.075
2924.69136	778.475
2927.16644	741.175
2929.64	726.175
2932.11205	705.075
2934.58258	701.375
2937.05161	683.775
2939.51912	690.275
2941.98513	710.975
2944.44962	692.975
2946.91261	664.775
2949.37409	679.875
2951.83407	683.675
2954.29254	688.875
2956.74951	699.875
2959.20498	689.575
2961.65895	690.475
2964.11142	677.875
2966.56239	682.375
2969.01186	677.175
2971.45984	664.375
2973.90632	661.175
2976.35131	668.375
2978.7948	668.475
2981.23681	662.475
2983.67732	676.375
2986.11635	677.375
2988.55388	657.875
2990.98993	679.375
2993.4245	671.175
2995.85758	668.475
2998.28917	672.575
3000.71928	670.775
3003.14791	679.075
3005.57506	674.275
3008.00073	663.475
3010.42493	608.775
3012.84764	669.275
3015.26888	663.075
3017.68865	659.075
3020.10694	614.775
3022.52376	637.775
3024.9391	632.475
3027.35298	614.675
3029.76539	589.675
3032.17632	596.975
3034.5858	568.975
3036.9938	572.775
3039.40034	548.475
3041.80542	526.475
3044.20903	513.375
3046.61118	494.475
3049.01187	509.375
3051.4111	495.675
3053.80888	491.975
3056.20519	492.075
3058.60005	474.275
3060.99345	501.275
3063.3854	473.375
3065.7759	465.275
3068.16494	462.975
3070.55254	454.275
3072.93868	469.175
3075.32338	460.675
3077.70662	458.875
3080.08842	446.175
3082.46878	434.175
3084.84769	454.775
3087.22515	438.175
3089.60118	449.175
3091.97576	431.275
3094.3489	434.275
3096.72061	432.975
3099.09087	413.175
3101.4597	429.875
3103.82709	418.475
3106.19305	405.975
3108.55757	414.375
3110.92066	412.375
3113.28232	424.275
3115.64255	428.375
3118.00134	434.075
3120.35871	415.175
3122.71466	401.975
3125.06917	420.375
3127.42226	417.275
3129.77393	405.775
3132.12417	421.475
3134.47299	425.875
3136.82039	411.975
3139.16636	391.675
3141.51092	419.975
3143.85406	428.575
3146.19579	406.075
3148.53609	411.475
3150.87499	419.775
3153.21246	417.275
3155.54853	430.675
3157.88318	434.675
3160.21642	428.075
3162.54826	422.975
3164.87868	429.975
3167.2077	388.175
3169.5353	410.675
3171.86151	408.875
3174.18631	390.375
3176.5097	377.175
3178.83169	378.775
3181.15228	375.575
3183.47147	353.275
3185.78926	336.675
3188.10565	353.875
3190.42065	331.575
3192.73424	339.175
3195.04645	342.175
3197.35725	328.475
3199.66667	346.075
3201.97469	341.075
3204.28132	333.275
3206.58656	355.275
3208.8904	367.075
3211.19287	358.675
3213.49394	356.875
3215.79363	353.475
3218.09193	369.275
3220.38884	360.775
3222.68438	357.275
3224.97853	342.075
3227.2713	364.275
3229.56269	343.975
3231.8527	349.375
3234.14133	339.575
3236.42858	334.375
3238.71446	320.175
3240.99896	337.975
3243.28209	323.075
3245.56384	336.575
3247.84423	325.775
3250.12324	331.475
3252.40088	329.275
3254.67715	319.875
3256.95205	311.375
3259.22558	325.875
3261.49775	328.575
3263.76855	326.275
3266.03799	332.275
3268.30606	331.175
3270.57277	341.275
3272.83812	327.075
