Data from AgNPs_UA_50uM_CRN_500uM_SU_RamanShift__17__13-58-40-316.txt Node

Date: Thu Aug 04 13:58:40 BST 2022
User: TCL
Spectrometer: QEP01345
Trigger mode: 4
Integration Time (sec): 1.000000E0
Scans to average: 10
Electric dark correction enabled: true
Nonlinearity correction enabled: false
Boxcar width: 0
XAxis mode: Raman Shifts
Number of Pixels in Spectrum: 1044
>>>>>Begin Spectral Data<<<<<
46.04893	1.875
50.45542	-0.425
54.85868	-0.225
59.25871	-0.525
63.6555	14.975
68.04907	12.975
72.43941	16.275
76.82654	17.675
81.21044	15.375
85.59113	18.875
89.96862	21.075
94.34289	18.475
98.71396	19.675
103.08183	19.475
107.4465	18.775
111.80798	20.975
116.16626	20.375
120.52136	23.475
124.87327	23.775
129.222	25.875
133.56755	28.275
137.90993	29.875
142.24913	31.275
146.58517	35.375
150.91804	43.975
155.24774	53.675
159.57429	67.375
163.89768	87.375
168.21792	115.975
172.53501	157.175
176.84895	226.875
181.15975	321.575
185.46741	449.475
189.77193	632.375
194.07331	840.975
198.37157	1084.575
202.6667	1353.775
206.9587	1625.975
211.24758	1894.875
215.53334	2174.875
219.81599	2469.275
224.09553	2818.875
228.37195	3194.775
232.64527	3589.575
236.91549	3991.675
241.18261	4326.775
245.44663	4554.775
249.70755	4739.475
253.96539	4874.175
258.22014	4978.975
262.4718	5089.675
266.72039	5157.375
270.96589	5166.875
275.20832	5103.275
279.44768	5029.375
283.68397	4932.875
287.91719	4888.875
292.14735	4906.875
296.37445	5023.175
300.59849	5259.575
304.81948	5565.275
309.03742	5869.975
313.25231	6034.575
317.46415	5990.375
321.67296	5671.875
325.87872	5334.975
330.08145	5131.075
334.28114	5105.875
338.47781	5171.675
342.67145	5301.175
346.86207	5503.575
351.04966	5784.375
355.23424	6059.575
359.4158	6239.075
363.59435	6289.675
367.76989	6265.875
371.94243	6189.875
376.11196	6091.275
380.27849	6042.575
384.44203	5969.475
388.60257	5973.375
392.76012	5998.375
396.91468	6089.175
401.06626	6203.075
405.21485	6237.875
409.36047	6078.575
413.50311	5794.475
417.64277	5535.275
421.77947	5396.775
425.9132	5325.675
430.04396	5352.875
434.17176	5389.575
438.2966	5443.475
442.41849	5563.675
446.53742	5663.875
450.6534	5765.175
454.76644	5816.675
458.87653	5823.175
462.98368	5778.775
467.08789	5740.775
471.18916	5640.375
475.2875	5513.375
479.38291	5408.775
483.4754	5314.675
487.56496	5271.875
491.6516	5262.675
495.73531	5261.875
499.81612	5281.875
503.89401	5306.475
507.96899	5375.175
512.04106	5423.575
516.11023	5520.175
520.1765	5587.775
524.23987	5597.075
528.30034	5574.675
532.35792	5565.075
536.41261	5502.175
540.46441	5395.375
544.51333	5356.075
548.55936	5404.875
552.60252	5505.375
556.64279	5587.875
560.6802	5658.275
564.71473	5760.275
568.7464	5912.775
572.7752	5901.575
576.80114	5673.475
580.82422	5504.275
584.84444	5417.775
588.86181	5426.375
592.87633	5416.975
596.888	5541.275
600.89682	5862.675
604.9028	6682.175
608.90594	8505.975
612.90624	10440.675
616.90371	9596.275
620.89834	6944.575
624.89015	5807.875
628.87913	5648.575
632.86528	5812.375
636.84862	5912.375
640.82913	5771.475
644.80683	5523.075
648.78172	5369.175
652.75379	5386.575
656.72306	5581.175
660.68952	5804.675
664.65319	5704.675
668.61405	5504.175
672.57211	5436.075
676.52738	5453.075
680.47986	5369.875
684.42955	5287.575
688.37646	5238.175
692.32058	5280.175
696.26192	5364.075
700.20048	5455.975
704.13626	5504.275
708.06928	5424.575
711.99952	5378.875
715.927	5392.475
719.85171	5415.875
723.77365	5439.575
727.69284	5391.975
731.60928	5348.175
735.52295	5329.575
739.43388	5351.475
743.34206	5382.475
747.24749	5390.875
751.15017	5387.475
755.05012	5471.875
758.94733	5771.575
762.8418	6481.575
766.73354	7574.575
770.62254	8413.975
774.50882	8475.875
778.39237	7951.475
782.27321	7127.175
786.15132	6298.275
790.02671	5752.675
793.89938	5492.675
797.76935	5367.675
801.6366	5303.575
805.50115	5290.975
809.36299	5263.075
813.22213	5248.475
817.07857	5240.775
820.93231	5239.175
824.78336	5253.975
828.63172	5293.875
832.47738	5302.875
836.32036	5271.275
840.16066	5251.075
843.99827	5221.875
847.8332	5220.275
851.66546	5225.875
855.49504	5248.175
859.32195	5261.375
863.1462	5240.275
866.96777	5234.875
870.78668	5237.475
874.60293	5257.475
878.41652	5291.075
882.22745	5342.275
886.03573	5353.075
889.84136	5353.275
893.64433	5317.875
897.44466	5313.175
901.24235	5309.875
905.0374	5286.175
908.8298	5264.975
912.61957	5229.175
916.40671	5235.975
920.19121	5269.575
923.97308	5323.475
927.75233	5400.675
931.52895	5424.675
935.30295	5383.975
939.07433	5245.075
942.84309	5146.675
946.60924	5122.575
950.37278	5088.975
954.13371	5094.175
957.89203	5092.175
961.64774	5089.675
965.40086	5068.675
969.15137	5068.775
972.89929	5073.975
976.64461	5071.075
980.38733	5060.375
984.12747	5083.075
987.86502	5118.275
991.59999	5126.675
995.33237	5180.875
999.06217	5242.475
1002.78939	5359.675
1006.51404	5489.675
1010.23611	5603.275
1013.95561	5643.775
1017.67255	5617.575
1021.38692	5570.575
1025.09872	5484.975
1028.80796	5388.275
1032.51465	5367.175
1036.21877	5400.275
1039.92035	5432.875
1043.61937	5468.575
1047.31584	5483.975
1051.00976	5489.775
1054.70114	5466.575
1058.38998	5481.275
1062.07627	5488.475
1065.76003	5542.575
1069.44126	5621.075
1073.11995	5742.475
1076.79611	5872.575
1080.46974	6023.775
1084.14085	6124.675
1087.80943	6216.475
1091.47549	6255.375
1095.13903	6226.675
1098.80005	6123.475
1102.45857	5981.375
1106.11456	5905.375
1109.76805	5847.675
1113.41903	5891.875
1117.06751	6019.475
1120.71348	6223.175
1124.35696	6511.775
1127.99793	6702.375
1131.63641	6572.375
1135.2724	6277.275
1138.90589	6044.175
1142.5369	5933.475
1146.16542	5914.375
1149.79145	5865.375
1153.415	5780.175
1157.03607	5716.775
1160.65467	5776.175
1164.27079	5874.875
1167.88443	6069.575
1171.49561	6411.875
1175.10432	6962.975
1178.71056	7716.875
1182.31434	8359.175
1185.91565	8490.775
1189.51451	8341.075
1193.11091	8053.775
1196.70485	7798.975
1200.29634	7618.275
1203.88538	7386.975
1207.47197	7064.075
1211.05612	6771.175
1214.63782	6559.375
1218.21708	6361.275
1221.79391	6223.475
1225.36829	6115.275
1228.94024	6096.475
1232.50976	6077.375
1236.07685	6068.175
1239.6415	6102.475
1243.20374	6137.275
1246.76355	6182.575
1250.32093	6259.975
1253.8759	6397.875
1257.42845	6628.675
1260.97859	6854.175
1264.52631	7040.675
1268.07163	7157.175
1271.61453	7226.775
1275.15503	7232.075
1278.69312	7265.375
1282.22882	7275.775
1285.76211	7400.775
1289.29301	7586.575
1292.82151	7788.075
1296.34761	7975.475
1299.87133	8293.375
1303.39266	8850.075
1306.9116	9729.575
1310.42815	10671.275
1313.94233	10889.875
1317.45412	10296.475
1320.96354	9437.575
1324.47058	8698.575
1327.97525	8064.175
1331.47754	7719.475
1334.97747	7659.275
1338.47502	7764.075
1341.97022	8098.775
1345.46305	8683.375
1348.95352	9522.975
1352.44163	10466.675
1355.92738	11521.175
1359.41078	12892.975
1362.89183	14042.675
1366.37053	13453.975
1369.84688	11212.175
1373.32088	9166.775
1376.79254	8002.675
1380.26186	7498.975
1383.72883	7189.275
1387.19347	6907.775
1390.65578	6640.275
1394.11575	6439.875
1397.57339	6272.075
1401.0287	6171.475
1404.48168	6115.875
1407.93234	6115.175
1411.38068	6180.575
1414.82669	6267.475
1418.27039	6287.675
1421.71177	6257.475
1425.15083	6191.475
1428.58758	6163.175
1432.02203	6179.375
1435.45416	6271.675
1438.88399	6318.475
1442.31151	6331.275
1445.73673	6381.175
1449.15965	6444.475
1452.58027	6409.475
1455.9986	6341.975
1459.41463	6314.375
1462.82837	6356.975
1466.23982	6518.075
1469.64898	6691.375
1473.05586	6790.475
1476.46045	6856.775
1479.86276	6915.875
1483.26279	7003.175
1486.66054	7172.575
1490.05602	7449.875
1493.44922	7868.075
1496.84016	8545.875
1500.22882	9601.475
1503.61521	10994.375
1506.99934	12352.675
1510.38121	13199.375
1513.76081	13002.775
1517.13816	11769.475
1520.51324	10179.075
1523.88607	8906.175
1527.25665	8115.575
1530.62498	7730.375
1533.99105	7549.475
1537.35488	7464.275
1540.71647	7378.675
1544.07581	7300.175
1547.4329	7222.875
1550.78776	7120.775
1554.14038	7055.975
1557.49077	7056.175
1560.83892	7124.775
1564.18484	7330.075
1567.52853	7662.475
1570.86999	7886.175
1574.20922	7963.575
1577.54624	7823.675
1580.88103	7378.575
1584.2136	6864.775
1587.54395	6567.275
1590.87208	6517.175
1594.19801	6722.075
1597.52172	7023.675
1600.84321	7163.275
1604.16251	7078.775
1607.47959	6939.175
1610.79447	6714.675
1614.10715	6374.075
1617.41763	6049.275
1620.7259	5801.775
1624.03199	5677.975
1627.33587	5667.375
1630.63757	5715.475
1633.93707	5898.875
1637.23439	6261.875
1640.52951	6857.575
1643.82246	7726.075
1647.11321	8731.475
1650.40179	9308.075
1653.68819	8995.675
1656.97241	7929.175
1660.25446	6771.475
1663.53433	5946.475
1666.81203	5456.875
1670.08756	5184.875
1673.36092	5003.475
1676.63211	4915.475
1679.90115	4826.075
1683.16801	4772.975
1686.43272	4709.375
1689.69527	4678.075
1692.95567	4653.275
1696.2139	4638.375
1699.46999	4635.175
1702.72392	4623.175
1705.97571	4626.275
1709.22535	4615.175
1712.47284	4660.475
1715.71819	4642.875
1718.96139	4614.375
1722.20246	4589.775
1725.44139	4566.375
1728.67818	4541.375
1731.91284	4502.575
1735.14537	4500.575
1738.37576	4483.975
1741.60403	4468.475
1744.83017	4432.575
1748.05418	4443.675
1751.27607	4427.075
1754.49584	4410.675
1757.71349	4400.075
1760.92903	4421.275
1764.14244	4394.575
1767.35375	4381.275
1770.56294	4378.675
1773.77002	4353.075
1776.97499	4331.475
1780.17785	4325.375
1783.37861	4309.375
1786.57727	4299.575
1789.77382	4286.075
1792.96828	4276.875
1796.16064	4262.475
1799.3509	4275.175
1802.53907	4259.375
1805.72514	4257.875
1808.90913	4235.675
1812.09102	4215.775
1815.27083	4214.475
1818.44856	4202.875
1821.6242	4196.275
1824.79776	4186.275
1827.96924	4186.875
1831.13864	4153.875
1834.30597	4155.075
1837.47122	4139.075
1840.6344	4142.775
1843.7955	4140.375
1846.95454	4152.975
1850.11151	4156.275
1853.26642	4133.075
1856.41926	4138.275
1859.57004	4142.975
1862.71876	4130.675
1865.86542	4124.775
1869.01003	4122.875
1872.15258	4114.375
1875.29308	4113.675
1878.43152	4104.775
1881.56792	4097.475
1884.70227	4086.875
1887.83457	4084.775
1890.96482	4069.475
1894.09304	4077.575
1897.21921	4054.875
1900.34335	4052.575
1903.46544	4050.575
1906.58551	4046.975
1909.70353	4036.275
1912.81953	4021.375
1915.93349	4006.975
1919.04543	4011.875
1922.15534	4002.275
1925.26322	4002.875
1928.36908	3983.275
1931.47292	3985.475
1934.57473	3964.575
1937.67453	3974.975
1940.77232	3954.375
1943.86808	3941.575
1946.96184	3936.975
1950.05358	3914.675
1953.14331	3904.375
1956.23103	3868.875
1959.31675	3879.475
1962.40046	3872.075
1965.48217	3857.475
1968.56188	3854.075
1971.63959	3836.875
1974.7153	3826.575
1977.78901	3837.575
1980.86073	3816.375
1983.93046	3792.275
1986.99819	3782.075
1990.06394	3771.375
1993.1277	3751.275
1996.18947	3759.975
1999.24925	3728.375
2002.30706	3720.475
2005.36288	3709.475
2008.41672	3686.175
2011.46859	3696.175
2014.51848	3680.775
2017.56639	3680.675
2020.61233	3648.175
2023.6563	3635.175
2026.6983	3630.675
2029.73833	3593.575
2032.7764	3588.875
2035.8125	3594.675
2038.84664	3585.275
2041.87881	3589.575
2044.90903	3559.175
2047.93729	3556.075
2050.96359	3560.875
2053.98794	3556.575
2057.01034	3540.475
2060.03078	3546.275
2063.04927	3542.775
2066.06582	3530.975
2069.08042	3526.875
2072.09307	3524.175
2075.10378	3503.475
2078.11255	3524.275
2081.11938	3516.375
2084.12426	3512.675
2087.12722	3513.575
2090.12824	3523.175
2093.12732	3524.475
2096.12447	3521.575
2099.11969	3530.475
2102.11299	3527.275
2105.10435	3509.775
2108.09379	3522.675
2111.08131	3519.275
2114.0669	3514.375
2117.05057	3521.075
2120.03233	3523.075
2123.01216	3522.275
2125.99008	3531.275
2128.96609	3530.275
2131.94018	3531.575
2134.91236	3516.275
2137.88263	3530.775
2140.851	3529.175
2143.81746	3533.775
2146.78201	3523.975
2149.74466	3536.175
2152.7054	3510.775
2155.66425	3525.575
2158.6212	3523.175
2161.57625	3514.475
2164.52941	3504.875
2167.48067	3526.175
2170.43004	3512.575
2173.37752	3500.275
2176.32311	3517.675
2179.26681	3508.175
2182.20863	3527.875
2185.14856	3502.575
2188.08661	3515.075
2191.02278	3504.375
2193.95707	3488.375
2196.88948	3490.775
2199.82001	3479.975
2202.74867	3484.875
2205.67545	3460.975
2208.60037	3474.675
2211.52341	3480.175
2214.44458	3461.575
2217.36388	3467.775
2220.28132	3454.575
2223.1969	3429.175
2226.11061	3423.575
2229.02246	3420.375
2231.93245	3415.775
2234.84058	3421.075
2237.74686	3404.375
2240.65128	3411.575
2243.55385	3402.975
2246.45456	3395.475
2249.35343	3383.475
2252.25044	3389.575
2255.14561	3391.475
2258.03893	3385.575
2260.93041	3372.575
2263.82004	3387.175
2266.70783	3367.575
2269.59378	3364.075
2272.4779	3346.875
2275.36017	3337.875
2278.24061	3324.775
2281.11922	3325.175
2283.996	3320.775
2286.87094	3310.675
2289.74405	3299.875
2292.61534	3312.675
2295.4848	3302.975
2298.35243	3306.675
2301.21824	3292.775
2304.08223	3281.575
2306.94439	3295.375
2309.80474	3282.975
2312.66327	3286.875
2315.51999	3274.975
2318.37489	3276.875
2321.22797	3268.475
2324.07925	3245.675
2326.92871	3235.575
2329.77637	3244.075
2332.62222	3241.375
2335.46626	3251.175
2338.3085	3243.175
2341.14893	3238.875
2343.98756	3234.375
2346.8244	3226.175
2349.65943	3216.675
2352.49267	3218.475
2355.32411	3239.075
2358.15376	3228.775
2360.98161	3221.875
2363.80768	3227.075
2366.63195	3232.675
2369.45444	3225.975
2372.27514	3213.275
2375.09405	3222.875
2377.91118	3217.175
2380.72652	3215.975
2383.54009	3195.175
2386.35187	3186.975
2389.16188	3176.575
2391.97011	3161.475
2394.77657	3163.975
2397.58125	3152.975
2400.38416	3137.775
2403.18529	3139.975
2405.98466	3148.175
2408.78226	3131.175
2411.57809	3118.475
2414.37216	3108.575
2417.16446	3112.275
2419.955	3096.375
2422.74378	3117.675
2425.5308	3108.775
2428.31606	3106.575
2431.09956	3103.075
2433.88131	3101.875
2436.6613	3106.475
2439.43954	3093.575
2442.21603	3098.875
2444.99077	3098.875
2447.76377	3095.275
2450.53501	3098.875
2453.30451	3086.575
2456.07226	3092.875
2458.83827	3080.175
2461.60254	3073.375
2464.36507	3083.275
2467.12586	3078.775
2469.88492	3071.875
2472.64224	3076.575
2475.39782	3079.975
2478.15167	3081.275
2480.90379	3067.075
2483.65417	3065.275
2486.40283	3087.275
2489.14976	3087.975
2491.89497	3080.475
2494.63845	3071.675
2497.3802	3060.875
2500.12024	3049.875
2502.85855	3058.875
2505.59514	3054.875
2508.33002	3048.575
2511.06318	3038.875
2513.79462	3041.775
2516.52435	3010.675
2519.25237	3006.175
2521.97867	3004.075
2524.70327	2988.075
2527.42616	3003.575
2530.14734	2990.875
2532.86681	3002.675
2535.58458	3000.475
2538.30065	3000.275
2541.01501	2997.175
2543.72768	2989.475
2546.43864	2991.775
2549.14791	2974.675
2551.85548	2983.575
2554.56136	2973.575
2557.26554	2962.375
2559.96803	2959.075
2562.66883	2959.075
2565.36794	2949.875
2568.06536	2938.375
2570.7611	2939.375
2573.45514	2925.075
2576.14751	2919.875
2578.83819	2902.475
2581.52719	2902.775
2584.21451	2908.675
2586.90015	2906.675
2589.58411	2898.075
2592.2664	2886.575
2594.94701	2879.275
2597.62594	2876.675
2600.30321	2876.975
2602.9788	2870.775
2605.65273	2878.875
2608.32498	2866.575
2610.99557	2863.275
2613.66449	2876.475
2616.33175	2869.475
2618.99734	2844.975
2621.66128	2843.275
2624.32355	2845.175
2626.98416	2832.975
2629.64311	2828.975
2632.30041	2825.775
2634.95605	2815.475
2637.61004	2802.875
2640.26238	2812.775
2642.91306	2793.875
2645.56209	2801.275
2648.20948	2788.375
2650.85521	2801.675
2653.4993	2804.375
2656.14175	2802.575
2658.78255	2810.575
2661.42171	2789.375
2664.05923	2799.975
2666.6951	2815.775
2669.32934	2788.975
2671.96194	2790.175
2674.59291	2786.775
2677.22224	2792.075
2679.84993	2802.575
2682.476	2776.975
2685.10043	2785.475
2687.72324	2792.775
2690.34441	2787.975
2692.96396	2778.175
2695.58188	2785.175
2698.19818	2777.575
2700.81285	2778.475
2703.4259	2774.875
2706.03733	2789.575
2708.64714	2772.875
2711.25533	2783.675
2713.86191	2770.875
2716.46687	2763.575
2719.07021	2780.475
2721.67194	2778.775
2724.27206	2782.575
2726.87057	2767.675
2729.46747	2772.375
2732.06276	2774.675
2734.65644	2767.875
2737.24852	2768.775
2739.83899	2762.375
2742.42786	2756.375
2745.01513	2749.175
2747.60079	2745.575
2750.18486	2755.875
2752.76733	2740.975
2755.3482	2740.875
2757.92747	2730.975
2760.50515	2720.375
2763.08123	2721.675
2765.65573	2706.575
2768.22863	2700.975
2770.79994	2691.675
2773.36967	2698.075
2775.9378	2701.675
2778.50435	2696.775
2781.06932	2692.475
2783.6327	2696.075
2786.1945	2684.275
2788.75471	2701.875
2791.31335	2667.275
2793.87041	2669.175
2796.42589	2674.275
2798.97979	2678.475
2801.53212	2667.375
2804.08288	2663.575
2806.63206	2654.975
2809.17967	2649.475
2811.72571	2635.175
2814.27018	2646.975
2816.81308	2632.575
2819.35442	2630.475
2821.89419	2612.075
2824.43239	2610.475
2826.96904	2613.875
2829.50412	2615.175
2832.03763	2596.675
2834.56959	2599.075
2837.1	2592.375
2839.62884	2584.275
2842.15613	2564.975
2844.68186	2576.975
2847.20604	2567.775
2849.72867	2571.775
2852.24974	2568.775
2854.76927	2568.175
2857.28724	2564.775
2859.80367	2566.275
2862.31855	2563.075
2864.83189	2567.575
2867.34368	2558.375
2869.85393	2555.475
2872.36264	2559.075
2874.8698	2555.475
2877.37543	2562.275
2879.87952	2542.475
2882.38207	2547.075
2884.88308	2542.475
2887.38256	2526.875
2889.88051	2531.475
2892.37692	2520.775
2894.8718	2516.975
2897.36515	2523.275
2899.85698	2517.775
2902.34727	2520.975
2904.83604	2521.475
2907.32328	2528.975
2909.809	2530.675
2912.29319	2534.675
2914.77587	2543.075
2917.25702	2536.975
2919.73665	2542.275
2922.21476	2535.875
2924.69136	2528.275
2927.16644	2516.875
2929.64	2519.975
2932.11205	2509.675
2934.58258	2510.475
2937.05161	2493.875
2939.51912	2508.375
2941.98513	2490.475
2944.44962	2491.575
2946.91261	2489.275
2949.37409	2493.475
2951.83407	2478.375
2954.29254	2503.775
2956.74951	2484.175
2959.20498	2480.075
2961.65895	2462.775
2964.11142	2474.175
2966.56239	2458.175
2969.01186	2453.375
2971.45984	2467.175
2973.90632	2478.775
2976.35131	2459.575
2978.7948	2456.475
2981.23681	2445.775
2983.67732	2460.475
2986.11635	2444.575
2988.55388	2436.575
2990.98993	2435.375
2993.4245	2418.975
2995.85758	2414.575
2998.28917	2418.775
3000.71928	2409.775
3003.14791	2417.875
3005.57506	2404.375
3008.00073	2385.575
3010.42493	2401.875
3012.84764	2384.175
3015.26888	2386.475
3017.68865	2370.675
3020.10694	2367.475
3022.52376	2369.475
3024.9391	2359.875
3027.35298	2350.475
3029.76539	2338.375
3032.17632	2340.575
3034.5858	2331.375
3036.9938	2327.775
3039.40034	2314.175
3041.80542	2323.375
3044.20903	2323.375
3046.61118	2307.475
3049.01187	2291.975
3051.4111	2289.175
3053.80888	2289.475
3056.20519	2284.575
3058.60005	2284.275
3060.99345	2285.175
3063.3854	2272.375
3065.7759	2284.675
3068.16494	2271.175
3070.55254	2259.775
3072.93868	2253.675
3075.32338	2248.875
3077.70662	2245.475
3080.08842	2239.975
3082.46878	2232.075
3084.84769	2213.075
3087.22515	2222.875
3089.60118	2220.775
3091.97576	2219.875
3094.3489	2200.875
3096.72061	2211.375
3099.09087	2209.975
3101.4597	2205.075
3103.82709	2209.775
3106.19305	2194.775
3108.55757	2196.975
3110.92066	2195.875
3113.28232	2200.975
3115.64255	2189.675
3118.00134	2183.175
3120.35871	2193.275
3122.71466	2175.275
3125.06917	2161.975
3127.42226	2155.375
3129.77393	2158.775
3132.12417	2155.775
3134.47299	2165.775
3136.82039	2153.975
3139.16636	2158.475
3141.51092	2140.275
3143.85406	2141.275
3146.19579	2142.975
3148.53609	2148.375
3150.87499	2146.175
3153.21246	2157.075
3155.54853	2160.875
3157.88318	2144.975
3160.21642	2146.875
3162.54826	2151.575
3164.87868	2144.575
3167.2077	2143.675
3169.5353	2129.975
3171.86151	2132.175
3174.18631	2123.475
3176.5097	2122.575
3178.83169	2126.975
3181.15228	2122.775
3183.47147	2114.975
3185.78926	2113.575
3188.10565	2101.075
3190.42065	2098.075
3192.73424	2092.575
3195.04645	2098.175
3197.35725	2093.075
3199.66667	2087.675
3201.97469	2085.975
3204.28132	2079.975
3206.58656	2093.975
3208.8904	2086.575
3211.19287	2085.475
3213.49394	2099.275
3215.79363	2088.775
3218.09193	2088.975
3220.38884	2085.275
3222.68438	2097.475
3224.97853	2085.275
3227.2713	2079.075
3229.56269	2082.975
3231.8527	2064.175
3234.14133	2065.675
3236.42858	2064.275
3238.71446	2051.575
