Data from AgNPs_UA_10uM_CRN_500uM_SU_RamanShift__147__13-29-50-283.txt Node

Date: Thu Aug 04 13:29:50 BST 2022
User: TCL
Spectrometer: QEP01345
Trigger mode: 4
Integration Time (sec): 1.000000E0
Scans to average: 10
Electric dark correction enabled: true
Nonlinearity correction enabled: false
Boxcar width: 0
XAxis mode: Raman Shifts
Number of Pixels in Spectrum: 1044
>>>>>Begin Spectral Data<<<<<
46.04893	-0.1125
50.45542	0.1875
54.85868	0.7875
59.25871	-1.4125
63.6555	19.3875
68.04907	18.7875
72.43941	21.7875
76.82654	22.1875
81.21044	20.9875
85.59113	22.6875
89.96862	25.1875
94.34289	23.5875
98.71396	24.2875
103.08183	25.6875
107.4465	26.8875
111.80798	26.3875
116.16626	28.0875
120.52136	30.6875
124.87327	31.6875
129.222	31.3875
133.56755	34.1875
137.90993	38.2875
142.24913	43.0875
146.58517	47.2875
150.91804	55.0875
155.24774	65.9875
159.57429	80.8875
163.89768	108.5875
168.21792	143.1875
172.53501	199.5875
176.84895	275.0875
181.15975	388.1875
185.46741	543.1875
189.77193	751.8875
194.07331	1010.5875
198.37157	1306.1875
202.6667	1603.9875
206.9587	1894.7875
211.24758	2210.3875
215.53334	2521.0875
219.81599	2822.7875
224.09553	3192.3875
228.37195	3588.4875
232.64527	4034.2875
236.91549	4458.7875
241.18261	4869.0875
245.44663	5242.3875
249.70755	5535.1875
253.96539	5815.9875
258.22014	6069.3875
262.4718	6243.3875
266.72039	6391.5875
270.96589	6431.1875
275.20832	6444.2875
279.44768	6340.3875
283.68397	6269.4875
287.91719	6190.2875
292.14735	6172.4875
296.37445	6244.9875
300.59849	6367.3875
304.81948	6556.7875
309.03742	6644.2875
313.25231	6699.7875
317.46415	6595.2875
321.67296	6430.2875
325.87872	6261.4875
330.08145	6195.3875
334.28114	6211.3875
338.47781	6310.8875
342.67145	6432.4875
346.86207	6573.5875
351.04966	6808.4875
355.23424	7036.8875
359.4158	7211.8875
363.59435	7339.6875
367.76989	7427.8875
371.94243	7477.1875
376.11196	7517.8875
380.27849	7555.6875
384.44203	7587.8875
388.60257	7614.0875
392.76012	7675.7875
396.91468	7787.2875
401.06626	7920.3875
405.21485	7991.3875
409.36047	7951.7875
413.50311	7760.6875
417.64277	7572.7875
421.77947	7473.2875
425.9132	7445.9875
430.04396	7490.0875
434.17176	7599.3875
438.2966	7751.5875
442.41849	7987.6875
446.53742	8291.9875
450.6534	8582.0875
454.76644	8762.4875
458.87653	8758.8875
462.98368	8628.3875
467.08789	8421.2875
471.18916	8177.8875
475.2875	7949.3875
479.38291	7751.9875
483.4754	7627.7875
487.56496	7536.5875
491.6516	7479.1875
495.73531	7456.4875
499.81612	7473.8875
503.89401	7519.0875
507.96899	7544.2875
512.04106	7578.3875
516.11023	7651.2875
520.1765	7723.5875
524.23987	7743.0875
528.30034	7746.5875
532.35792	7698.6875
536.41261	7595.1875
540.46441	7482.6875
544.51333	7488.0875
548.55936	7543.2875
552.60252	7671.9875
556.64279	7764.6875
560.6802	7835.4875
564.71473	7820.3875
568.7464	7862.2875
572.7752	7872.5875
576.80114	7788.1875
580.82422	7797.5875
584.84444	7864.2875
588.86181	8047.1875
592.87633	8296.2875
596.888	8476.4875
600.89682	8758.0875
604.9028	9597.4875
608.90594	11200.2875
612.90624	12576.7875
616.90371	11502.6875
620.89834	9371.2875
624.89015	8660.0875
628.87913	8603.1875
632.86528	8506.0875
636.84862	8299.2875
640.82913	8057.4875
644.80683	7792.9875
648.78172	7634.7875
652.75379	7703.3875
656.72306	7937.3875
660.68952	8153.9875
664.65319	8116.3875
668.61405	8011.3875
672.57211	8033.3875
676.52738	7995.3875
680.47986	7873.8875
684.42955	7774.9875
688.37646	7798.0875
692.32058	7863.6875
696.26192	8001.2875
700.20048	8120.5875
704.13626	8117.8875
708.06928	7995.9875
711.99952	7906.5875
715.927	7940.7875
719.85171	7988.1875
723.77365	7972.8875
727.69284	7872.8875
731.60928	7827.2875
735.52295	7852.7875
739.43388	7946.7875
743.34206	8005.1875
747.24749	8023.3875
751.15017	8050.3875
755.05012	8184.4875
758.94733	8440.5875
762.8418	8991.0875
766.73354	9830.8875
770.62254	10570.0875
774.50882	10829.4875
778.39237	10439.8875
782.27321	9648.6875
786.15132	8895.0875
790.02671	8416.1875
793.89938	8193.4875
797.76935	8098.7875
801.6366	8062.8875
805.50115	8011.2875
809.36299	7991.5875
813.22213	7940.0875
817.07857	7941.7875
820.93231	7915.9875
824.78336	7922.7875
828.63172	7966.6875
832.47738	7960.8875
836.32036	8001.4875
840.16066	8069.5875
843.99827	8095.5875
847.8332	8079.1875
851.66546	8033.8875
855.49504	8017.4875
859.32195	8038.7875
863.1462	7988.6875
866.96777	7965.8875
870.78668	7984.6875
874.60293	7967.3875
878.41652	8006.0875
882.22745	8069.1875
886.03573	8109.0875
889.84136	8110.2875
893.64433	8058.9875
897.44466	8028.8875
901.24235	8004.1875
905.0374	7994.5875
908.8298	7954.6875
912.61957	7994.5875
916.40671	8023.6875
920.19121	8127.1875
923.97308	8235.0875
927.75233	8331.6875
931.52895	8388.0875
935.30295	8323.6875
939.07433	8131.1875
942.84309	8036.8875
946.60924	8015.4875
950.37278	7997.3875
954.13371	7935.8875
957.89203	7874.7875
961.64774	7859.8875
965.40086	7832.8875
969.15137	7825.1875
972.89929	7832.3875
976.64461	7831.9875
980.38733	7864.4875
984.12747	7929.0875
987.86502	7952.5875
991.59999	8089.7875
995.33237	8304.9875
999.06217	8628.9875
1002.78939	8984.3875
1006.51404	9124.5875
1010.23611	9166.7875
1013.95561	9294.2875
1017.67255	9392.8875
1021.38692	9398.0875
1025.09872	9424.0875
1028.80796	9601.4875
1032.51465	9895.8875
1036.21877	10126.8875
1039.92035	10043.5875
1043.61937	9828.6875
1047.31584	9504.3875
1051.00976	9180.4875
1054.70114	9044.8875
1058.38998	9031.4875
1062.07627	9023.0875
1065.76003	9018.0875
1069.44126	9047.1875
1073.11995	9119.9875
1076.79611	9247.1875
1080.46974	9320.0875
1084.14085	9423.1875
1087.80943	9502.4875
1091.47549	9511.3875
1095.13903	9367.0875
1098.80005	9202.1875
1102.45857	9179.6875
1106.11456	9158.7875
1109.76805	9189.3875
1113.41903	9280.9875
1117.06751	9420.6875
1120.71348	9582.6875
1124.35696	9731.3875
1127.99793	9819.6875
1131.63641	9683.4875
1135.2724	9493.8875
1138.90589	9329.0875
1142.5369	9154.4875
1146.16542	9074.0875
1149.79145	8993.1875
1153.415	9000.9875
1157.03607	9041.5875
1160.65467	9151.5875
1164.27079	9399.6875
1167.88443	9808.9875
1171.49561	10333.8875
1175.10432	11157.0875
1178.71056	12219.0875
1182.31434	13208.5875
1185.91565	13775.7875
1189.51451	13778.0875
1193.11091	13301.5875
1196.70485	12604.7875
1200.29634	11988.5875
1203.88538	11391.0875
1207.47197	10941.3875
1211.05612	10540.9875
1214.63782	10341.2875
1218.21708	10328.1875
1221.79391	10418.1875
1225.36829	10496.9875
1228.94024	10461.0875
1232.50976	10319.9875
1236.07685	10250.0875
1239.6415	10254.9875
1243.20374	10284.1875
1246.76355	10391.6875
1250.32093	10533.4875
1253.8759	10762.1875
1257.42845	11066.1875
1260.97859	11405.3875
1264.52631	11710.9875
1268.07163	11921.7875
1271.61453	12156.5875
1275.15503	12396.0875
1278.69312	12659.0875
1282.22882	12956.6875
1285.76211	13208.5875
1289.29301	13344.1875
1292.82151	13623.4875
1296.34761	13948.3875
1299.87133	14470.8875
1303.39266	15388.7875
1306.9116	16662.7875
1310.42815	17887.7875
1313.94233	18449.1875
1317.45412	18054.7875
1320.96354	17133.7875
1324.47058	16126.0875
1327.97525	15420.2875
1331.47754	15144.6875
1334.97747	15223.5875
1338.47502	15501.9875
1341.97022	15901.2875
1345.46305	16324.0875
1348.95352	16872.1875
1352.44163	17545.4875
1355.92738	18420.7875
1359.41078	19543.4875
1362.89183	20101.6875
1366.37053	18974.3875
1369.84688	16818.8875
1373.32088	14813.7875
1376.79254	13638.5875
1380.26186	13086.9875
1383.72883	12748.0875
1387.19347	12448.6875
1390.65578	12073.1875
1394.11575	11790.0875
1397.57339	11641.7875
1401.0287	11679.7875
1404.48168	11864.6875
1407.93234	12112.0875
1411.38068	12389.2875
1414.82669	12486.3875
1418.27039	12374.5875
1421.71177	12171.6875
1425.15083	12058.1875
1428.58758	12133.7875
1432.02203	12373.9875
1435.45416	12558.7875
1438.88399	12563.0875
1442.31151	12469.8875
1445.73673	12420.0875
1449.15965	12348.3875
1452.58027	12215.3875
1455.9986	12070.0875
1459.41463	12001.5875
1462.82837	12118.9875
1466.23982	12359.1875
1469.64898	12613.2875
1473.05586	12800.2875
1476.46045	12958.5875
1479.86276	13115.7875
1483.26279	13213.6875
1486.66054	13342.3875
1490.05602	13559.9875
1493.44922	13884.2875
1496.84016	14388.6875
1500.22882	15072.7875
1503.61521	15926.4875
1506.99934	16777.3875
1510.38121	17167.1875
1513.76081	16797.9875
1517.13816	15773.4875
1520.51324	14638.9875
1523.88607	13812.4875
1527.25665	13410.8875
1530.62498	13213.9875
1533.99105	13207.6875
1537.35488	13190.8875
1540.71647	13114.6875
1544.07581	13054.6875
1547.4329	12909.2875
1550.78776	12699.2875
1554.14038	12441.4875
1557.49077	12313.9875
1560.83892	12247.4875
1564.18484	12301.3875
1567.52853	12411.5875
1570.86999	12450.9875
1574.20922	12441.3875
1577.54624	12267.6875
1580.88103	11961.6875
1584.2136	11663.2875
1587.54395	11712.0875
1590.87208	12234.9875
1594.19801	13213.1875
1597.52172	14339.7875
1600.84321	15020.2875
1604.16251	14877.3875
1607.47959	14067.4875
1610.79447	13012.7875
1614.10715	11939.7875
1617.41763	11072.8875
1620.7259	10528.8875
1624.03199	10257.9875
1627.33587	10296.7875
1630.63757	10590.3875
1633.93707	11189.5875
1637.23439	12076.7875
1640.52951	13189.6875
1643.82246	14313.7875
1647.11321	15062.6875
1650.40179	14821.2875
1653.68819	13590.9875
1656.97241	11921.5875
1660.25446	10554.9875
1663.53433	9659.2875
1666.81203	9084.9875
1670.08756	8758.9875
1673.36092	8571.7875
1676.63211	8405.9875
1679.90115	8279.4875
1683.16801	8194.2875
1686.43272	8110.7875
1689.69527	8074.9875
1692.95567	8041.6875
1696.2139	8006.7875
1699.46999	7983.0875
1702.72392	7984.0875
1705.97571	7969.9875
1709.22535	7962.9875
1712.47284	7977.5875
1715.71819	7970.8875
1718.96139	7964.5875
1722.20246	7936.4875
1725.44139	7913.8875
1728.67818	7855.3875
1731.91284	7848.4875
1735.14537	7793.4875
1738.37576	7772.0875
1741.60403	7755.5875
1744.83017	7732.5875
1748.05418	7728.1875
1751.27607	7689.2875
1754.49584	7674.3875
1757.71349	7688.7875
1760.92903	7684.9875
1764.14244	7662.2875
1767.35375	7648.8875
1770.56294	7664.2875
1773.77002	7632.2875
1776.97499	7613.5875
1780.17785	7612.0875
1783.37861	7596.5875
1786.57727	7572.8875
1789.77382	7596.4875
1792.96828	7572.6875
1796.16064	7552.3875
1799.3509	7568.7875
1802.53907	7553.8875
1805.72514	7546.5875
1808.90913	7527.5875
1812.09102	7504.7875
1815.27083	7474.6875
1818.44856	7469.4875
1821.6242	7442.7875
1824.79776	7460.5875
1827.96924	7431.3875
1831.13864	7398.2875
1834.30597	7410.4875
1837.47122	7403.7875
1840.6344	7383.0875
1843.7955	7412.1875
1846.95454	7404.6875
1850.11151	7401.0875
1853.26642	7393.3875
1856.41926	7388.8875
1859.57004	7416.3875
1862.71876	7430.6875
1865.86542	7411.2875
1869.01003	7413.1875
1872.15258	7404.3875
1875.29308	7389.7875
1878.43152	7375.7875
1881.56792	7383.9875
1884.70227	7375.1875
1887.83457	7338.2875
1890.96482	7343.1875
1894.09304	7311.6875
1897.21921	7316.0875
1900.34335	7323.6875
1903.46544	7314.2875
1906.58551	7310.1875
1909.70353	7313.9875
1912.81953	7321.4875
1915.93349	7315.6875
1919.04543	7293.1875
1922.15534	7277.5875
1925.26322	7284.6875
1928.36908	7236.4875
1931.47292	7249.8875
1934.57473	7233.9875
1937.67453	7229.3875
1940.77232	7205.0875
1943.86808	7207.5875
1946.96184	7187.2875
1950.05358	7161.8875
1953.14331	7137.2875
1956.23103	7137.4875
1959.31675	7101.1875
1962.40046	7078.7875
1965.48217	7048.6875
1968.56188	7030.1875
1971.63959	7016.4875
1974.7153	7014.7875
1977.78901	7000.2875
1980.86073	6988.5875
1983.93046	6958.9875
1986.99819	6919.0875
1990.06394	6917.3875
1993.1277	6892.3875
1996.18947	6857.9875
1999.24925	6861.0875
2002.30706	6826.5875
2005.36288	6782.8875
2008.41672	6775.8875
2011.46859	6768.3875
2014.51848	6743.8875
2017.56639	6725.2875
2020.61233	6719.2875
2023.6563	6690.3875
2026.6983	6682.8875
2029.73833	6683.1875
2032.7764	6655.3875
2035.8125	6666.3875
2038.84664	6640.8875
2041.87881	6632.3875
2044.90903	6636.0875
2047.93729	6625.1875
2050.96359	6612.1875
2053.98794	6591.3875
2057.01034	6584.2875
2060.03078	6592.9875
2063.04927	6590.2875
2066.06582	6573.3875
2069.08042	6557.1875
2072.09307	6551.7875
2075.10378	6569.6875
2078.11255	6536.0875
2081.11938	6535.6875
2084.12426	6527.1875
2087.12722	6500.9875
2090.12824	6533.8875
2093.12732	6521.5875
2096.12447	6531.6875
2099.11969	6522.2875
2102.11299	6530.7875
2105.10435	6516.5875
2108.09379	6530.0875
2111.08131	6515.2875
2114.0669	6518.9875
2117.05057	6554.3875
2120.03233	6551.5875
2123.01216	6544.9875
2125.99008	6556.3875
2128.96609	6560.6875
2131.94018	6550.1875
2134.91236	6547.2875
2137.88263	6548.7875
2140.851	6551.1875
2143.81746	6575.3875
2146.78201	6553.9875
2149.74466	6561.4875
2152.7054	6576.5875
2155.66425	6553.8875
2158.6212	6563.0875
2161.57625	6554.8875
2164.52941	6545.9875
2167.48067	6567.3875
2170.43004	6542.8875
2173.37752	6531.9875
2176.32311	6546.5875
2179.26681	6557.8875
2182.20863	6542.5875
2185.14856	6575.2875
2188.08661	6547.6875
2191.02278	6566.2875
2193.95707	6569.7875
2196.88948	6564.7875
2199.82001	6553.3875
2202.74867	6548.2875
2205.67545	6552.2875
2208.60037	6552.4875
2211.52341	6542.7875
2214.44458	6528.4875
2217.36388	6529.3875
2220.28132	6533.6875
2223.1969	6500.2875
2226.11061	6502.9875
2229.02246	6487.7875
2231.93245	6472.0875
2234.84058	6467.2875
2237.74686	6440.1875
2240.65128	6429.8875
2243.55385	6424.4875
2246.45456	6416.2875
2249.35343	6397.7875
2252.25044	6387.9875
2255.14561	6388.1875
2258.03893	6396.4875
2260.93041	6388.9875
2263.82004	6362.0875
2266.70783	6349.4875
2269.59378	6340.8875
2272.4779	6326.5875
2275.36017	6288.5875
2278.24061	6286.8875
2281.11922	6276.7875
2283.996	6248.0875
2286.87094	6250.6875
2289.74405	6241.7875
2292.61534	6243.6875
2295.4848	6247.1875
2298.35243	6229.2875
2301.21824	6225.2875
2304.08223	6223.4875
2306.94439	6244.3875
2309.80474	6275.8875
2312.66327	6247.4875
2315.51999	6252.6875
2318.37489	6251.4875
2321.22797	6232.6875
2324.07925	6247.0875
2326.92871	6215.8875
2329.77637	6231.1875
2332.62222	6213.0875
2335.46626	6208.3875
2338.3085	6234.4875
2341.14893	6236.3875
2343.98756	6245.1875
2346.8244	6240.9875
2349.65943	6237.7875
2352.49267	6216.6875
2355.32411	6214.6875
2358.15376	6217.1875
2360.98161	6216.3875
2363.80768	6207.0875
2366.63195	6217.1875
2369.45444	6182.8875
2372.27514	6183.4875
2375.09405	6160.7875
2377.91118	6144.7875
2380.72652	6140.1875
2383.54009	6119.7875
2386.35187	6099.5875
2389.16188	6101.6875
2391.97011	6100.2875
2394.77657	6071.8875
2397.58125	6049.8875
2400.38416	6058.0875
2403.18529	6032.1875
2405.98466	6040.9875
2408.78226	5996.8875
2411.57809	5996.4875
2414.37216	5987.8875
2417.16446	5974.8875
2419.955	5980.8875
2422.74378	5967.7875
2425.5308	5970.0875
2428.31606	5962.7875
2431.09956	5966.1875
2433.88131	5940.7875
2436.6613	5932.1875
2439.43954	5939.5875
2442.21603	5958.1875
2444.99077	5941.5875
2447.76377	5934.5875
2450.53501	5939.5875
2453.30451	5926.2875
2456.07226	5914.9875
2458.83827	5912.7875
2461.60254	5903.3875
2464.36507	5880.9875
2467.12586	5883.8875
2469.88492	5895.2875
2472.64224	5902.4875
2475.39782	5905.0875
2478.15167	5906.6875
2480.90379	5888.4875
2483.65417	5878.9875
2486.40283	5901.0875
2489.14976	5926.0875
2491.89497	5901.8875
2494.63845	5923.7875
2497.3802	5914.7875
2500.12024	5912.0875
2502.85855	5905.6875
2505.59514	5900.8875
2508.33002	5898.2875
2511.06318	5872.1875
2513.79462	5861.5875
2516.52435	5858.3875
2519.25237	5851.8875
2521.97867	5848.1875
2524.70327	5824.9875
2527.42616	5830.6875
2530.14734	5817.8875
2532.86681	5833.9875
2535.58458	5853.4875
2538.30065	5840.9875
2541.01501	5847.7875
2543.72768	5829.0875
2546.43864	5837.2875
2549.14791	5809.4875
2551.85548	5817.0875
2554.56136	5816.0875
2557.26554	5819.4875
2559.96803	5793.9875
2562.66883	5776.6875
2565.36794	5776.0875
2568.06536	5759.9875
2570.7611	5765.0875
2573.45514	5748.3875
2576.14751	5742.9875
2578.83819	5729.9875
2581.52719	5712.3875
2584.21451	5734.3875
2586.90015	5741.2875
2589.58411	5735.0875
2592.2664	5723.9875
2594.94701	5722.6875
2597.62594	5726.3875
2600.30321	5717.8875
2602.9788	5721.0875
2605.65273	5719.4875
2608.32498	5731.4875
2610.99557	5695.3875
2613.66449	5714.6875
2616.33175	5717.5875
2618.99734	5723.2875
2621.66128	5711.2875
2624.32355	5719.5875
2626.98416	5722.5875
2629.64311	5738.5875
2632.30041	5716.2875
2634.95605	5703.0875
2637.61004	5685.5875
2640.26238	5681.2875
2642.91306	5675.0875
2645.56209	5686.5875
2648.20948	5672.8875
2650.85521	5663.5875
2653.4993	5661.3875
2656.14175	5655.7875
2658.78255	5660.3875
2661.42171	5652.4875
2664.05923	5661.1875
2666.6951	5670.9875
2669.32934	5697.4875
2671.96194	5674.0875
2674.59291	5686.6875
2677.22224	5655.5875
2679.84993	5664.1875
2682.476	5666.8875
2685.10043	5673.2875
2687.72324	5660.8875
2690.34441	5671.0875
2692.96396	5635.5875
2695.58188	5653.7875
2698.19818	5624.4875
2700.81285	5640.3875
2703.4259	5627.8875
2706.03733	5628.1875
2708.64714	5605.0875
2711.25533	5596.9875
2713.86191	5621.1875
2716.46687	5615.7875
2719.07021	5634.8875
2721.67194	5616.3875
2724.27206	5627.6875
2726.87057	5612.5875
2729.46747	5626.9875
2732.06276	5636.5875
2734.65644	5638.6875
2737.24852	5625.9875
2739.83899	5620.4875
2742.42786	5611.3875
2745.01513	5591.5875
2747.60079	5593.9875
2750.18486	5596.5875
2752.76733	5586.3875
2755.3482	5571.4875
2757.92747	5568.1875
2760.50515	5578.5875
2763.08123	5564.4875
2765.65573	5550.2875
2768.22863	5544.2875
2770.79994	5558.6875
2773.36967	5544.9875
2775.9378	5553.6875
2778.50435	5554.6875
2781.06932	5558.9875
2783.6327	5557.9875
2786.1945	5551.8875
2788.75471	5542.7875
2791.31335	5544.1875
2793.87041	5531.9875
2796.42589	5505.4875
2798.97979	5490.4875
2801.53212	5487.8875
2804.08288	5465.7875
2806.63206	5471.9875
2809.17967	5463.4875
2811.72571	5454.4875
2814.27018	5462.8875
2816.81308	5433.8875
2819.35442	5427.3875
2821.89419	5437.4875
2824.43239	5416.2875
2826.96904	5415.1875
2829.50412	5412.4875
2832.03763	5394.0875
2834.56959	5397.9875
2837.1	5378.3875
2839.62884	5367.3875
2842.15613	5370.4875
2844.68186	5398.7875
2847.20604	5373.8875
2849.72867	5355.4875
2852.24974	5337.4875
2854.76927	5338.6875
2857.28724	5314.7875
2859.80367	5328.4875
2862.31855	5320.6875
2864.83189	5323.3875
2867.34368	5309.4875
2869.85393	5301.3875
2872.36264	5303.4875
2874.8698	5296.8875
2877.37543	5292.1875
2879.87952	5304.8875
2882.38207	5289.7875
2884.88308	5279.2875
2887.38256	5295.6875
2889.88051	5294.8875
2892.37692	5278.2875
2894.8718	5289.0875
2897.36515	5284.5875
2899.85698	5270.5875
2902.34727	5300.6875
2904.83604	5302.1875
2907.32328	5284.5875
2909.809	5295.5875
2912.29319	5294.5875
2914.77587	5299.1875
2917.25702	5301.9875
2919.73665	5304.6875
2922.21476	5293.9875
2924.69136	5275.6875
2927.16644	5265.6875
2929.64	5255.9875
2932.11205	5253.5875
2934.58258	5235.8875
2937.05161	5243.9875
2939.51912	5254.1875
2941.98513	5250.4875
2944.44962	5229.0875
2946.91261	5220.5875
2949.37409	5242.0875
2951.83407	5220.5875
2954.29254	5224.9875
2956.74951	5216.2875
2959.20498	5215.1875
2961.65895	5212.2875
2964.11142	5191.2875
2966.56239	5200.9875
2969.01186	5184.3875
2971.45984	5187.9875
2973.90632	5176.0875
2976.35131	5161.1875
2978.7948	5168.6875
2981.23681	5134.0875
2983.67732	5137.5875
2986.11635	5116.4875
2988.55388	5115.6875
2990.98993	5085.7875
2993.4245	5073.7875
2995.85758	5062.1875
2998.28917	5042.0875
3000.71928	5041.1875
3003.14791	5004.4875
3005.57506	5000.7875
3008.00073	4981.0875
3010.42493	4978.8875
3012.84764	4985.5875
3015.26888	4978.3875
3017.68865	4970.8875
3020.10694	4946.8875
3022.52376	4943.7875
3024.9391	4922.7875
3027.35298	4894.9875
3029.76539	4902.5875
3032.17632	4872.8875
3034.5858	4892.4875
3036.9938	4901.8875
3039.40034	4884.7875
3041.80542	4857.9875
3044.20903	4879.3875
3046.61118	4850.9875
3049.01187	4831.0875
3051.4111	4823.6875
3053.80888	4807.6875
3056.20519	4803.2875
3058.60005	4779.5875
3060.99345	4793.9875
3063.3854	4768.7875
3065.7759	4742.6875
3068.16494	4734.6875
3070.55254	4705.3875
3072.93868	4703.8875
3075.32338	4687.6875
3077.70662	4681.5875
3080.08842	4674.4875
3082.46878	4668.3875
3084.84769	4650.4875
3087.22515	4639.0875
3089.60118	4648.9875
3091.97576	4631.3875
3094.3489	4621.7875
3096.72061	4626.4875
3099.09087	4619.2875
3101.4597	4624.4875
3103.82709	4617.7875
3106.19305	4619.6875
3108.55757	4629.3875
3110.92066	4603.9875
