Data from AgNPs_UA_5uM_CRN_500uM_SU_RamanShift__232__12-08-03-186.txt Node

Date: Thu Aug 04 12:08:03 BST 2022
User: TCL
Spectrometer: QEP01345
Trigger mode: 4
Integration Time (sec): 1.000000E0
Scans to average: 10
Electric dark correction enabled: true
Nonlinearity correction enabled: false
Boxcar width: 0
XAxis mode: Raman Shifts
Number of Pixels in Spectrum: 1044
>>>>>Begin Spectral Data<<<<<
46.04893	-1.275
50.45542	0.925
54.85868	-0.175
59.25871	0.125
63.6555	-58.675
68.04907	-37.875
72.43941	-71.275
76.82654	-56.575
81.21044	-55.375
85.59113	-49.175
89.96862	-76.675
94.34289	-56.475
98.71396	-76.675
103.08183	-58.775
107.4465	-50.575
111.80798	-56.675
116.16626	-44.975
120.52136	-74.775
124.87327	-49.375
129.222	-62.875
133.56755	-49.375
137.90993	-63.475
142.24913	-51.475
146.58517	-43.875
150.91804	-40.475
155.24774	-28.375
159.57429	-10.975
163.89768	-6.775
168.21792	34.925
172.53501	55.525
176.84895	136.625
181.15975	264.425
185.46741	408.925
189.77193	591.025
194.07331	877.325
198.37157	1158.725
202.6667	1437.325
206.9587	1745.525
211.24758	2053.825
215.53334	2381.725
219.81599	2720.825
224.09553	3141.625
228.37195	3565.525
232.64527	4014.125
236.91549	4465.225
241.18261	4830.025
245.44663	5103.825
249.70755	5252.625
253.96539	5392.425
258.22014	5498.025
262.4718	5566.525
266.72039	5595.025
270.96589	5570.625
275.20832	5485.925
279.44768	5369.625
283.68397	5262.525
287.91719	5212.825
292.14735	5233.425
296.37445	5419.825
300.59849	5709.225
304.81948	6046.825
309.03742	6422.825
313.25231	6650.425
317.46415	6631.925
321.67296	6226.525
325.87872	5831.125
330.08145	5634.025
334.28114	5574.225
338.47781	5650.825
342.67145	5763.725
346.86207	6009.525
351.04966	6356.825
355.23424	6748.325
359.4158	7025.325
363.59435	7039.725
367.76989	6989.925
371.94243	6846.425
376.11196	6749.725
380.27849	6646.825
384.44203	6577.125
388.60257	6558.525
392.76012	6550.525
396.91468	6685.325
401.06626	6839.225
405.21485	6864.425
409.36047	6701.525
413.50311	6384.225
417.64277	6093.925
421.77947	5898.725
425.9132	5814.025
430.04396	5813.525
434.17176	5851.625
438.2966	5931.525
442.41849	6011.725
446.53742	6132.925
450.6534	6240.125
454.76644	6320.325
458.87653	6317.225
462.98368	6258.125
467.08789	6207.825
471.18916	6109.925
475.2875	5992.625
479.38291	5897.725
483.4754	5788.525
487.56496	5766.325
491.6516	5732.125
495.73531	5738.125
499.81612	5771.625
503.89401	5851.725
507.96899	5886.525
512.04106	5982.725
516.11023	6087.025
520.1765	6160.825
524.23987	6195.425
528.30034	6186.525
532.35792	6092.125
536.41261	6071.025
540.46441	5978.125
544.51333	5909.825
548.55936	5967.225
552.60252	6090.525
556.64279	6180.025
560.6802	6307.125
564.71473	6416.025
568.7464	6637.725
572.7752	6608.725
576.80114	6293.425
580.82422	6079.525
584.84444	5969.325
588.86181	5951.625
592.87633	5991.225
596.888	6102.525
600.89682	6454.125
604.9028	7421.725
608.90594	9499.125
612.90624	11853.725
616.90371	11014.625
620.89834	7943.225
624.89015	6588.825
628.87913	6385.125
632.86528	6530.625
636.84862	6708.525
640.82913	6582.525
644.80683	6218.525
648.78172	6028.325
652.75379	6062.125
656.72306	6290.325
660.68952	6521.325
664.65319	6447.225
668.61405	6223.725
672.57211	6146.725
676.52738	6146.725
680.47986	6045.425
684.42955	5955.825
688.37646	5899.525
692.32058	5902.125
696.26192	5986.625
700.20048	6077.625
704.13626	6111.225
708.06928	6074.425
711.99952	6048.625
715.927	5992.725
719.85171	6057.525
723.77365	6110.225
727.69284	6074.125
731.60928	6061.825
735.52295	6049.425
739.43388	6050.825
743.34206	6072.025
747.24749	6126.725
751.15017	6127.325
755.05012	6188.425
758.94733	6583.825
762.8418	7432.125
766.73354	8771.025
770.62254	9803.625
774.50882	9875.525
778.39237	9346.825
782.27321	8415.825
786.15132	7363.025
790.02671	6668.425
793.89938	6301.525
797.76935	6177.425
801.6366	6082.625
805.50115	6046.425
809.36299	6028.525
813.22213	6019.525
817.07857	6026.125
820.93231	6004.425
824.78336	6055.825
828.63172	6067.925
832.47738	6061.125
836.32036	6051.925
840.16066	6028.225
843.99827	6022.025
847.8332	6009.525
851.66546	6027.625
855.49504	6022.125
859.32195	6060.325
863.1462	6039.125
866.96777	6043.925
870.78668	6025.025
874.60293	6057.725
878.41652	6065.925
882.22745	6141.325
886.03573	6181.025
889.84136	6162.625
893.64433	6181.025
897.44466	6158.625
901.24235	6156.825
905.0374	6151.325
908.8298	6088.725
912.61957	6065.725
916.40671	6025.125
920.19121	6066.525
923.97308	6141.425
927.75233	6206.525
931.52895	6274.125
935.30295	6249.625
939.07433	6086.725
942.84309	5975.325
946.60924	5959.925
950.37278	5899.825
954.13371	5912.425
957.89203	5900.625
961.64774	5910.825
965.40086	5898.425
969.15137	5872.525
972.89929	5908.925
976.64461	5902.725
980.38733	5929.125
984.12747	5903.125
987.86502	5948.425
991.59999	5953.325
995.33237	6022.225
999.06217	6086.825
1002.78939	6177.625
1006.51404	6288.725
1010.23611	6414.525
1013.95561	6469.125
1017.67255	6450.425
1021.38692	6434.825
1025.09872	6373.825
1028.80796	6285.225
1032.51465	6307.225
1036.21877	6274.425
1039.92035	6326.525
1043.61937	6378.125
1047.31584	6406.525
1051.00976	6459.525
1054.70114	6471.225
1058.38998	6464.825
1062.07627	6451.925
1065.76003	6500.225
1069.44126	6546.825
1073.11995	6640.825
1076.79611	6777.825
1080.46974	6915.925
1084.14085	7106.525
1087.80943	7225.925
1091.47549	7268.725
1095.13903	7168.425
1098.80005	7043.425
1102.45857	6949.125
1106.11456	6915.925
1109.76805	6851.525
1113.41903	6980.225
1117.06751	7155.425
1120.71348	7415.025
1124.35696	7799.625
1127.99793	8057.425
1131.63641	7911.825
1135.2724	7514.725
1138.90589	7196.225
1142.5369	7008.125
1146.16542	6902.825
1149.79145	6801.725
1153.415	6737.425
1157.03607	6758.425
1160.65467	6837.925
1164.27079	7074.125
1167.88443	7301.825
1171.49561	7768.825
1175.10432	8384.925
1178.71056	9269.825
1182.31434	10080.825
1185.91565	10352.425
1189.51451	10171.125
1193.11091	9948.825
1196.70485	9678.925
1200.29634	9449.325
1203.88538	9141.025
1207.47197	8707.125
1211.05612	8190.425
1214.63782	7803.825
1218.21708	7555.525
1221.79391	7397.425
1225.36829	7322.425
1228.94024	7323.425
1232.50976	7333.825
1236.07685	7369.325
1239.6415	7396.825
1243.20374	7411.525
1246.76355	7444.025
1250.32093	7512.525
1253.8759	7575.225
1257.42845	7756.025
1260.97859	7961.925
1264.52631	8187.125
1268.07163	8359.525
1271.61453	8489.725
1275.15503	8531.025
1278.69312	8539.825
1282.22882	8616.925
1285.76211	8806.125
1289.29301	9041.925
1292.82151	9323.925
1296.34761	9541.725
1299.87133	9920.725
1303.39266	10649.525
1306.9116	11790.725
1310.42815	13027.125
1313.94233	13481.625
1317.45412	12707.025
1320.96354	11562.125
1324.47058	10543.425
1327.97525	9786.525
1331.47754	9369.225
1334.97747	9261.225
1338.47502	9364.925
1341.97022	9723.425
1345.46305	10465.325
1348.95352	11543.425
1352.44163	12856.325
1355.92738	14260.325
1359.41078	15961.925
1362.89183	17461.525
1366.37053	16862.725
1369.84688	14004.125
1373.32088	11266.825
1376.79254	9815.525
1380.26186	9134.025
1383.72883	8711.325
1387.19347	8308.325
1390.65578	7964.025
1394.11575	7717.725
1397.57339	7568.625
1401.0287	7441.925
1404.48168	7393.825
1407.93234	7426.125
1411.38068	7435.425
1414.82669	7515.925
1418.27039	7577.825
1421.71177	7590.825
1425.15083	7489.325
1428.58758	7411.425
1432.02203	7419.925
1435.45416	7519.325
1438.88399	7504.825
1442.31151	7501.525
1445.73673	7550.325
1449.15965	7589.625
1452.58027	7614.825
1455.9986	7606.225
1459.41463	7636.625
1462.82837	7740.225
1466.23982	7930.025
1469.64898	8120.625
1473.05586	8281.325
1476.46045	8386.425
1479.86276	8457.525
1483.26279	8565.525
1486.66054	8738.525
1490.05602	9043.925
1493.44922	9595.325
1496.84016	10469.625
1500.22882	11862.625
1503.61521	13631.025
1506.99934	15434.025
1510.38121	16640.225
1513.76081	16526.025
1517.13816	14932.425
1520.51324	12776.725
1523.88607	11050.925
1527.25665	10036.225
1530.62498	9507.125
1533.99105	9325.525
1537.35488	9195.825
1540.71647	9084.925
1544.07581	8964.425
1547.4329	8838.225
1550.78776	8700.325
1554.14038	8620.425
1557.49077	8581.525
1560.83892	8667.225
1564.18484	8921.325
1567.52853	9247.025
1570.86999	9577.325
1574.20922	9733.825
1577.54624	9634.825
1580.88103	9098.725
1584.2136	8409.525
1587.54395	8038.325
1590.87208	7947.725
1594.19801	8112.925
1597.52172	8468.525
1600.84321	8626.125
1604.16251	8473.625
1607.47959	8284.425
1610.79447	8099.825
1614.10715	7806.725
1617.41763	7507.525
1620.7259	7245.925
1624.03199	7092.225
1627.33587	7011.625
1630.63757	7035.525
1633.93707	7277.225
1637.23439	7714.725
1640.52951	8392.625
1643.82246	9372.025
1647.11321	10566.525
1650.40179	11295.125
1653.68819	10952.125
1656.97241	9718.525
1660.25446	8310.925
1663.53433	7297.425
1666.81203	6678.025
1670.08756	6358.625
1673.36092	6166.525
1676.63211	6025.625
1679.90115	5921.825
1683.16801	5842.325
1686.43272	5769.925
1689.69527	5729.325
1692.95567	5666.925
1696.2139	5642.925
1699.46999	5574.825
1702.72392	5585.025
1705.97571	5598.825
1709.22535	5578.925
1712.47284	5629.925
1715.71819	5624.925
1718.96139	5609.025
1722.20246	5607.825
1725.44139	5569.525
1728.67818	5540.325
1731.91284	5503.025
1735.14537	5470.025
1738.37576	5437.125
1741.60403	5415.725
1744.83017	5387.825
1748.05418	5399.925
1751.27607	5395.125
1754.49584	5351.125
1757.71349	5323.925
1760.92903	5319.925
1764.14244	5279.725
1767.35375	5270.725
1770.56294	5274.125
1773.77002	5242.425
1776.97499	5264.325
1780.17785	5253.225
1783.37861	5220.625
1786.57727	5239.625
1789.77382	5171.825
1792.96828	5197.425
1796.16064	5211.425
1799.3509	5199.525
1802.53907	5181.625
1805.72514	5169.125
1808.90913	5148.725
1812.09102	5130.425
1815.27083	5136.125
1818.44856	5115.325
1821.6242	5104.125
1824.79776	5096.625
1827.96924	5074.125
1831.13864	5068.525
1834.30597	5066.825
1837.47122	5033.225
1840.6344	5031.125
1843.7955	5030.425
1846.95454	5009.025
1850.11151	5049.825
1853.26642	5004.325
1856.41926	5011.825
1859.57004	4994.025
1862.71876	4999.925
1865.86542	5013.025
1869.01003	4986.925
1872.15258	4957.125
1875.29308	4986.725
1878.43152	4978.425
1881.56792	4967.425
1884.70227	4934.825
1887.83457	4951.925
1890.96482	4933.325
1894.09304	4915.225
1897.21921	4917.125
1900.34335	4925.225
1903.46544	4887.825
1906.58551	4907.425
1909.70353	4892.825
1912.81953	4897.725
1915.93349	4874.525
1919.04543	4862.325
1922.15534	4862.125
1925.26322	4851.925
1928.36908	4835.525
1931.47292	4824.125
1934.57473	4847.425
1937.67453	4813.825
1940.77232	4780.325
1943.86808	4782.225
1946.96184	4779.425
1950.05358	4737.325
1953.14331	4725.725
1956.23103	4751.825
1959.31675	4684.325
1962.40046	4649.525
1965.48217	4670.925
1968.56188	4678.225
1971.63959	4653.025
1974.7153	4644.625
1977.78901	4625.425
1980.86073	4615.825
1983.93046	4593.325
1986.99819	4495.025
1990.06394	4517.025
1993.1277	4531.225
1996.18947	4532.525
1999.24925	4489.825
2002.30706	4493.725
2005.36288	4486.025
2008.41672	4453.525
2011.46859	4444.725
2014.51848	4425.225
2017.56639	4415.025
2020.61233	4380.125
2023.6563	4392.325
2026.6983	4352.925
2029.73833	4363.725
2032.7764	4360.825
2035.8125	4314.225
2038.84664	4325.325
2041.87881	4297.625
2044.90903	4314.825
2047.93729	4294.825
2050.96359	4272.225
2053.98794	4273.625
2057.01034	4291.525
2060.03078	4250.625
2063.04927	4260.725
2066.06582	4259.225
2069.08042	4244.925
2072.09307	4256.625
2075.10378	4255.325
2078.11255	4235.425
2081.11938	4225.825
2084.12426	4215.725
2087.12722	4219.625
2090.12824	4213.625
2093.12732	4230.025
2096.12447	4222.325
2099.11969	4210.125
2102.11299	4217.925
2105.10435	4242.925
2108.09379	4226.625
2111.08131	4203.225
2114.0669	4233.625
2117.05057	4218.125
2120.03233	4211.025
2123.01216	4245.225
2125.99008	4242.125
2128.96609	4236.025
2131.94018	4228.825
2134.91236	4228.025
2137.88263	4235.725
2140.851	4217.025
2143.81746	4254.325
2146.78201	4234.625
2149.74466	4216.725
2152.7054	4237.825
2155.66425	4218.625
2158.6212	4219.925
2161.57625	4179.625
2164.52941	4172.025
2167.48067	4181.225
2170.43004	4168.525
2173.37752	4209.525
2176.32311	4168.225
2179.26681	4178.525
2182.20863	4199.125
2185.14856	4184.625
2188.08661	4184.425
2191.02278	4204.525
2193.95707	4162.725
2196.88948	4149.325
2199.82001	4161.125
2202.74867	4148.825
2205.67545	4138.825
2208.60037	4157.325
2211.52341	4149.525
2214.44458	4117.225
2217.36388	4126.625
2220.28132	4099.225
2223.1969	4074.325
2226.11061	4089.525
2229.02246	4076.725
2231.93245	4076.125
2234.84058	4048.325
2237.74686	4048.025
2240.65128	4033.625
2243.55385	4038.525
2246.45456	4018.725
2249.35343	4030.425
2252.25044	4006.125
2255.14561	4014.725
2258.03893	4019.025
2260.93041	3994.325
2263.82004	3999.625
2266.70783	3983.225
2269.59378	3976.925
2272.4779	3964.425
2275.36017	3978.725
2278.24061	3947.925
2281.11922	3932.225
2283.996	3922.525
2286.87094	3911.725
2289.74405	3922.425
2292.61534	3919.025
2295.4848	3903.625
2298.35243	3895.725
2301.21824	3878.325
2304.08223	3869.425
2306.94439	3883.425
2309.80474	3879.525
2312.66327	3880.325
2315.51999	3858.025
2318.37489	3863.025
2321.22797	3842.025
2324.07925	3834.125
2326.92871	3814.325
2329.77637	3815.525
2332.62222	3816.925
2335.46626	3778.825
2338.3085	3783.025
2341.14893	3800.725
2343.98756	3808.225
2346.8244	3776.625
2349.65943	3762.925
2352.49267	3771.525
2355.32411	3773.025
2358.15376	3753.625
2360.98161	3788.625
2363.80768	3755.225
2366.63195	3777.925
2369.45444	3777.725
2372.27514	3770.425
2375.09405	3784.625
2377.91118	3745.525
2380.72652	3736.225
2383.54009	3736.125
2386.35187	3731.525
2389.16188	3706.225
2391.97011	3700.525
2394.77657	3694.925
2397.58125	3690.725
2400.38416	3691.525
2403.18529	3663.925
2405.98466	3659.025
2408.78226	3650.025
2411.57809	3642.225
2414.37216	3632.925
2417.16446	3632.825
2419.955	3606.525
2422.74378	3636.825
2425.5308	3610.025
2428.31606	3614.025
2431.09956	3629.925
2433.88131	3588.325
2436.6613	3614.825
2439.43954	3595.425
2442.21603	3580.825
2444.99077	3580.525
2447.76377	3595.325
2450.53501	3577.625
2453.30451	3569.925
2456.07226	3567.625
2458.83827	3556.725
2461.60254	3510.425
2464.36507	3567.525
2467.12586	3532.525
2469.88492	3550.325
2472.64224	3549.225
2475.39782	3520.225
2478.15167	3528.725
2480.90379	3519.825
2483.65417	3544.825
2486.40283	3543.125
2489.14976	3546.525
2491.89497	3547.725
2494.63845	3555.125
2497.3802	3539.025
2500.12024	3525.925
2502.85855	3523.325
2505.59514	3525.725
2508.33002	3508.625
2511.06318	3481.525
2513.79462	3483.625
2516.52435	3446.325
2519.25237	3433.125
2521.97867	3423.325
2524.70327	3428.225
2527.42616	3435.625
2530.14734	3440.925
2532.86681	3420.825
2535.58458	3425.425
2538.30065	3409.025
2541.01501	3430.825
2543.72768	3403.825
2546.43864	3414.725
2549.14791	3391.025
2551.85548	3389.025
2554.56136	3379.725
2557.26554	3378.425
2559.96803	3386.525
2562.66883	3373.125
2565.36794	3348.725
2568.06536	3321.225
2570.7611	3357.325
2573.45514	3316.125
2576.14751	3317.225
2578.83819	3310.025
2581.52719	3302.325
2584.21451	3303.425
2586.90015	3264.425
2589.58411	3271.325
2592.2664	3281.525
2594.94701	3269.425
2597.62594	3268.825
2600.30321	3221.425
2602.9788	3224.525
2605.65273	3218.425
2608.32498	3230.325
2610.99557	3248.125
2613.66449	3206.425
2616.33175	3228.725
2618.99734	3225.825
2621.66128	3219.325
2624.32355	3213.825
2626.98416	3195.425
2629.64311	3182.725
2632.30041	3181.925
2634.95605	3166.925
2637.61004	3156.725
2640.26238	3134.325
2642.91306	3147.825
2645.56209	3151.925
2648.20948	3152.225
2650.85521	3134.825
2653.4993	3159.625
2656.14175	3137.925
2658.78255	3125.625
2661.42171	3107.725
2664.05923	3141.325
2666.6951	3150.625
2669.32934	3155.225
2671.96194	3154.125
2674.59291	3137.925
2677.22224	3155.025
2679.84993	3145.525
2682.476	3128.425
2685.10043	3137.225
2687.72324	3119.025
2690.34441	3114.925
2692.96396	3117.525
2695.58188	3140.925
2698.19818	3124.425
2700.81285	3109.225
2703.4259	3106.325
2706.03733	3088.825
2708.64714	3075.125
2711.25533	3103.125
2713.86191	3108.525
2716.46687	3117.125
2719.07021	3111.225
2721.67194	3103.925
2724.27206	3104.525
2726.87057	3095.425
2729.46747	3107.325
2732.06276	3094.525
2734.65644	3081.025
2737.24852	3096.425
2739.83899	3061.225
2742.42786	3071.025
2745.01513	3076.625
2747.60079	3067.625
2750.18486	3039.225
2752.76733	3049.925
2755.3482	3043.325
2757.92747	3037.725
2760.50515	3015.025
2763.08123	3014.525
2765.65573	3018.825
2768.22863	3011.425
2770.79994	3007.525
2773.36967	2987.125
2775.9378	2987.125
2778.50435	2983.425
2781.06932	2978.125
2783.6327	2957.325
2786.1945	2986.625
2788.75471	2964.825
2791.31335	2963.025
2793.87041	2963.725
2796.42589	2939.825
2798.97979	2941.725
2801.53212	2932.225
2804.08288	2947.225
2806.63206	2934.825
2809.17967	2922.925
2811.72571	2930.925
2814.27018	2914.225
2816.81308	2904.925
2819.35442	2870.025
2821.89419	2887.125
2824.43239	2875.525
2826.96904	2900.925
2829.50412	2883.225
2832.03763	2890.025
2834.56959	2884.925
2837.1	2871.625
2839.62884	2876.325
2842.15613	2862.725
2844.68186	2874.925
2847.20604	2842.025
2849.72867	2838.925
2852.24974	2833.725
2854.76927	2809.225
2857.28724	2774.225
2859.80367	2839.225
2862.31855	2835.725
2864.83189	2831.625
2867.34368	2837.025
2869.85393	2852.025
2872.36264	2801.725
2874.8698	2815.525
2877.37543	2822.225
2879.87952	2813.625
2882.38207	2793.025
2884.88308	2794.725
2887.38256	2807.125
2889.88051	2797.625
2892.37692	2801.625
2894.8718	2775.725
2897.36515	2791.025
2899.85698	2794.325
2902.34727	2783.725
2904.83604	2778.325
2907.32328	2800.225
2909.809	2795.925
2912.29319	2792.725
2914.77587	2808.025
2917.25702	2812.825
2919.73665	2821.325
2922.21476	2823.625
2924.69136	2824.225
2927.16644	2804.925
2929.64	2803.025
2932.11205	2789.725
2934.58258	2782.025
2937.05161	2769.725
2939.51912	2767.825
2941.98513	2791.625
2944.44962	2762.725
2946.91261	2732.825
2949.37409	2743.425
2951.83407	2742.025
2954.29254	2733.125
2956.74951	2737.925
2959.20498	2711.725
2961.65895	2723.825
2964.11142	2707.925
2966.56239	2725.425
2969.01186	2713.925
2971.45984	2708.325
2973.90632	2706.225
2976.35131	2719.125
2978.7948	2704.025
2981.23681	2676.725
2983.67732	2698.425
2986.11635	2682.125
2988.55388	2664.425
2990.98993	2667.225
2993.4245	2647.225
2995.85758	2640.025
2998.28917	2641.425
3000.71928	2631.925
3003.14791	2621.225
3005.57506	2603.325
3008.00073	2594.125
3010.42493	2537.225
3012.84764	2591.825
3015.26888	2592.925
3017.68865	2577.425
3020.10694	2542.425
3022.52376	2556.425
3024.9391	2548.925
3027.35298	2544.525
3029.76539	2532.325
3032.17632	2527.025
3034.5858	2520.925
3036.9938	2530.725
3039.40034	2525.625
3041.80542	2512.025
3044.20903	2483.825
3046.61118	2494.425
3049.01187	2518.025
3051.4111	2484.325
3053.80888	2477.825
3056.20519	2472.125
3058.60005	2457.625
3060.99345	2475.425
3063.3854	2455.525
3065.7759	2439.025
3068.16494	2438.225
3070.55254	2415.225
3072.93868	2430.125
3075.32338	2430.125
3077.70662	2419.025
3080.08842	2406.525
3082.46878	2392.925
3084.84769	2406.925
3087.22515	2400.325
3089.60118	2404.825
3091.97576	2392.325
3094.3489	2395.825
3096.72061	2379.125
3099.09087	2377.525
3101.4597	2381.125
3103.82709	2374.725
3106.19305	2370.725
3108.55757	2367.025
3110.92066	2359.625
3113.28232	2361.425
3115.64255	2361.525
3118.00134	2350.825
3120.35871	2332.725
3122.71466	2319.525
3125.06917	2324.625
3127.42226	2312.225
3129.77393	2307.125
3132.12417	2311.825
3134.47299	2310.925
3136.82039	2291.425
3139.16636	2268.925
3141.51092	2286.825
3143.85406	2298.325
3146.19579	2278.925
3148.53609	2276.825
3150.87499	2284.625
3153.21246	2265.725
3155.54853	2291.225
3157.88318	2292.725
3160.21642	2295.825
3162.54826	2284.125
3164.87868	2286.125
3167.2077	2248.225
3169.5353	2264.325
3171.86151	2262.825
3174.18631	2252.525
3176.5097	2257.425
3178.83169	2265.625
3181.15228	2250.525
3183.47147	2229.525
3185.78926	2208.225
3188.10565	2226.625
3190.42065	2208.725
3192.73424	2217.025
3195.04645	2206.825
3197.35725	2186.125
3199.66667	2199.925
3201.97469	2204.125
3204.28132	2186.325
3206.58656	2186.925
3208.8904	2204.125
3211.19287	2193.425
3213.49394	2181.625
3215.79363	2173.825
3218.09193	2188.525
3220.38884	2190.025
3222.68438	2183.025
3224.97853	2163.225
3227.2713	2180.925
3229.56269	2174.425
3231.8527	2168.425
3234.14133	2158.325
