Data from AgNPs_UA_5uM_CRN_500uM_SU_RamanShift__276__12-15-23-195.txt Node

Date: Thu Aug 04 12:15:23 BST 2022
User: TCL
Spectrometer: QEP01345
Trigger mode: 4
Integration Time (sec): 1.000000E0
Scans to average: 10
Electric dark correction enabled: true
Nonlinearity correction enabled: false
Boxcar width: 0
XAxis mode: Raman Shifts
Number of Pixels in Spectrum: 1044
>>>>>Begin Spectral Data<<<<<
46.04893	-0.2
50.45542	0.8
54.85868	-0.4
59.25871	-0.9
63.6555	-59.2
68.04907	-42
72.43941	-71.2
76.82654	-58.5
81.21044	-57.3
85.59113	-49.2
89.96862	-75.2
94.34289	-56.1
98.71396	-78.8
103.08183	-59.4
107.4465	-51.5
111.80798	-57.8
116.16626	-45.7
120.52136	-77.3
124.87327	-50.9
129.222	-64.3
133.56755	-52.7
137.90993	-64.5
142.24913	-53.9
146.58517	-44.5
150.91804	-42.9
155.24774	-33.8
159.57429	-12
163.89768	-7.8
168.21792	35.6
172.53501	51.4
176.84895	139.7
181.15975	263.9
185.46741	406.7
189.77193	588.9
194.07331	876.9
198.37157	1152
202.6667	1427.1
206.9587	1734.8
211.24758	2045.6
215.53334	2371.3
219.81599	2712.5
224.09553	3107.3
228.37195	3539.9
232.64527	3986
236.91549	4448.3
241.18261	4780.6
245.44663	5068.1
249.70755	5209.8
253.96539	5343.9
258.22014	5445.3
262.4718	5515.3
266.72039	5558.9
270.96589	5544.4
275.20832	5430.9
279.44768	5330.7
283.68397	5223.6
287.91719	5185.5
292.14735	5222.8
296.37445	5385.8
300.59849	5669.4
304.81948	6024.4
309.03742	6403.1
313.25231	6649.7
317.46415	6604.6
321.67296	6207
325.87872	5812.9
330.08145	5602.4
334.28114	5584.5
338.47781	5605.2
342.67145	5747.1
346.86207	5976.7
351.04966	6330.7
355.23424	6711.3
359.4158	6954.4
363.59435	7008.4
367.76989	6934.1
371.94243	6817.9
376.11196	6713.3
380.27849	6604.2
384.44203	6531.7
388.60257	6509
392.76012	6522.2
396.91468	6637.4
401.06626	6800.3
405.21485	6840
409.36047	6640.3
413.50311	6332.8
417.64277	6037.9
421.77947	5835.4
425.9132	5767
430.04396	5752.7
434.17176	5798.8
438.2966	5859.3
442.41849	5958.9
446.53742	6058.4
450.6534	6162.4
454.76644	6248.2
458.87653	6252.6
462.98368	6208.6
467.08789	6130.7
471.18916	6020.6
475.2875	5910.8
479.38291	5818.8
483.4754	5721
487.56496	5670.3
491.6516	5646.6
495.73531	5661.7
499.81612	5692.3
503.89401	5777.2
507.96899	5820.3
512.04106	5910.9
516.11023	6006.7
520.1765	6086.3
524.23987	6111.4
528.30034	6109.8
532.35792	6026.6
536.41261	5975.2
540.46441	5869.7
544.51333	5823.6
548.55936	5868.1
552.60252	6004.5
556.64279	6098
560.6802	6222.6
564.71473	6345.2
568.7464	6544.9
572.7752	6514.5
576.80114	6216.1
580.82422	5998.8
584.84444	5904.9
588.86181	5866
592.87633	5910.9
596.888	6032.3
600.89682	6390.7
604.9028	7384
608.90594	9460.5
612.90624	11784.1
616.90371	10907.3
620.89834	7824.4
624.89015	6507.9
628.87913	6279.6
632.86528	6425.8
636.84862	6598.8
640.82913	6469.9
644.80683	6128.5
648.78172	5932.5
652.75379	5962.2
656.72306	6190.4
660.68952	6443.9
664.65319	6334.6
668.61405	6100.5
672.57211	6026
676.52738	6034.3
680.47986	5933.3
684.42955	5855.4
688.37646	5799
692.32058	5797.7
696.26192	5865
700.20048	5958
704.13626	5989.1
708.06928	5959.1
711.99952	5915.7
715.927	5896.4
719.85171	5953.8
723.77365	5999
727.69284	5974.6
731.60928	5947.8
735.52295	5919.6
739.43388	5954.4
743.34206	5975.5
747.24749	5984.9
751.15017	6015.3
755.05012	6116.8
758.94733	6481.2
762.8418	7347.6
766.73354	8684.1
770.62254	9745
774.50882	9809.3
778.39237	9261
782.27321	8298
786.15132	7250.7
790.02671	6571.6
793.89938	6179.2
797.76935	6069.5
801.6366	5960.8
805.50115	5913.3
809.36299	5905.2
813.22213	5891.6
817.07857	5900.5
820.93231	5906
824.78336	5944.2
828.63172	5953.4
832.47738	5932.9
836.32036	5942.1
840.16066	5896.4
843.99827	5892.8
847.8332	5885.1
851.66546	5896.8
855.49504	5908.2
859.32195	5918.4
863.1462	5908.2
866.96777	5909.6
870.78668	5881.5
874.60293	5922.7
878.41652	5943.2
882.22745	6028.3
886.03573	6037.2
889.84136	6037.9
893.64433	6037.6
897.44466	6021
901.24235	6028.3
905.0374	6007.7
908.8298	5942.5
912.61957	5940.3
916.40671	5897.3
920.19121	5923.1
923.97308	6019.2
927.75233	6083.3
931.52895	6147.7
935.30295	6128.9
939.07433	5961
942.84309	5843.3
946.60924	5811.1
950.37278	5770.1
954.13371	5777.5
957.89203	5757.4
961.64774	5797.2
965.40086	5767
969.15137	5718.4
972.89929	5771.7
976.64461	5762.9
980.38733	5775.8
984.12747	5771.1
987.86502	5791.3
991.59999	5815
995.33237	5884.5
999.06217	5941
1002.78939	6010.9
1006.51404	6157.4
1010.23611	6264
1013.95561	6324.4
1017.67255	6301.6
1021.38692	6305
1025.09872	6214.5
1028.80796	6142.9
1032.51465	6147.6
1036.21877	6126.3
1039.92035	6174.8
1043.61937	6212.9
1047.31584	6260.1
1051.00976	6316.8
1054.70114	6320.9
1058.38998	6306.1
1062.07627	6317.7
1065.76003	6352.4
1069.44126	6423.4
1073.11995	6506
1076.79611	6633.9
1080.46974	6802
1084.14085	6958.7
1087.80943	7082.4
1091.47549	7138.8
1095.13903	7012.1
1098.80005	6899.3
1102.45857	6802.7
1106.11456	6779.3
1109.76805	6726.9
1113.41903	6834.6
1117.06751	7006.8
1120.71348	7278.6
1124.35696	7680.6
1127.99793	7954
1131.63641	7796
1135.2724	7394.7
1138.90589	7080.6
1142.5369	6868.2
1146.16542	6764.8
1149.79145	6627.6
1153.415	6614.7
1157.03607	6613.1
1160.65467	6697.3
1164.27079	6927.2
1167.88443	7200
1171.49561	7660.2
1175.10432	8270.9
1178.71056	9184.4
1182.31434	10003
1185.91565	10287.2
1189.51451	10114.9
1193.11091	9851
1196.70485	9603.2
1200.29634	9352
1203.88538	9057.1
1207.47197	8607.6
1211.05612	8104.6
1214.63782	7662
1218.21708	7411.8
1221.79391	7253.3
1225.36829	7184.5
1228.94024	7188.4
1232.50976	7226.7
1236.07685	7222.8
1239.6415	7250.6
1243.20374	7268.7
1246.76355	7307.7
1250.32093	7389.9
1253.8759	7423.9
1257.42845	7615.2
1260.97859	7818.3
1264.52631	8073.1
1268.07163	8219.3
1271.61453	8332.3
1275.15503	8413
1278.69312	8398.6
1282.22882	8490.9
1285.76211	8675.7
1289.29301	8934.2
1292.82151	9198.5
1296.34761	9439.6
1299.87133	9842.8
1303.39266	10530.9
1306.9116	11706.6
1310.42815	12915.3
1313.94233	13389
1317.45412	12588.8
1320.96354	11442.7
1324.47058	10430
1327.97525	9651.8
1331.47754	9240.7
1334.97747	9128.9
1338.47502	9233.4
1341.97022	9635.3
1345.46305	10363.3
1348.95352	11469.2
1352.44163	12843.9
1355.92738	14249.3
1359.41078	15981.5
1362.89183	17509.5
1366.37053	16874
1369.84688	13974.7
1373.32088	11212.5
1376.79254	9722.9
1380.26186	9046.5
1383.72883	8611.2
1387.19347	8187.8
1390.65578	7857.5
1394.11575	7586.7
1397.57339	7408.5
1401.0287	7302.7
1404.48168	7273.6
1407.93234	7280.8
1411.38068	7285.4
1414.82669	7357.8
1418.27039	7432.1
1421.71177	7433.1
1425.15083	7330.9
1428.58758	7250.4
1432.02203	7282.6
1435.45416	7360.4
1438.88399	7340.7
1442.31151	7363
1445.73673	7399.9
1449.15965	7461
1452.58027	7468.7
1455.9986	7456.4
1459.41463	7486.2
1462.82837	7597.6
1466.23982	7764.6
1469.64898	8009.3
1473.05586	8128.5
1476.46045	8258.9
1479.86276	8331.1
1483.26279	8431.9
1486.66054	8636.7
1490.05602	8933.7
1493.44922	9516.6
1496.84016	10411.6
1500.22882	11822.3
1503.61521	13603.6
1506.99934	15440.4
1510.38121	16640.9
1513.76081	16501.1
1517.13816	14867
1520.51324	12708.1
1523.88607	10962.6
1527.25665	9959.2
1530.62498	9447.7
1533.99105	9254
1537.35488	9145.1
1540.71647	9024.9
1544.07581	8870.4
1547.4329	8724
1550.78776	8625
1554.14038	8502.6
1557.49077	8474.3
1560.83892	8577.5
1564.18484	8827.8
1567.52853	9162.9
1570.86999	9483.9
1574.20922	9660.4
1577.54624	9551.7
1580.88103	9001
1584.2136	8291.3
1587.54395	7902.6
1590.87208	7807.2
1594.19801	7981.7
1597.52172	8348.2
1600.84321	8488.7
1604.16251	8315.6
1607.47959	8132.5
1610.79447	7970.5
1614.10715	7647.3
1617.41763	7381
1620.7259	7102.9
1624.03199	6942.1
1627.33587	6868.1
1630.63757	6900.8
1633.93707	7146.7
1637.23439	7546.8
1640.52951	8261.1
1643.82246	9233.5
1647.11321	10422.9
1650.40179	11197.2
1653.68819	10837.1
1656.97241	9574.8
1660.25446	8206
1663.53433	7159.7
1666.81203	6531.1
1670.08756	6207.5
1673.36092	6021.9
1676.63211	5844.2
1679.90115	5782.7
1683.16801	5693.5
1686.43272	5604.4
1689.69527	5562.7
1692.95567	5503.1
1696.2139	5487
1699.46999	5435.6
1702.72392	5447.3
1705.97571	5457.9
1709.22535	5436.3
1712.47284	5466.1
1715.71819	5472.3
1718.96139	5475.9
1722.20246	5451.2
1725.44139	5416.2
1728.67818	5394.7
1731.91284	5325.2
1735.14537	5296.8
1738.37576	5286.2
1741.60403	5261.7
1744.83017	5233.1
1748.05418	5236.4
1751.27607	5238.1
1754.49584	5180.8
1757.71349	5159.4
1760.92903	5163.3
1764.14244	5092.1
1767.35375	5116.3
1770.56294	5116.1
1773.77002	5112.5
1776.97499	5084.2
1780.17785	5083.1
1783.37861	5068.9
1786.57727	5072.9
1789.77382	4998.6
1792.96828	5052.1
1796.16064	5048.1
1799.3509	5022.5
1802.53907	5049.4
1805.72514	5011
1808.90913	4987
1812.09102	4973.8
1815.27083	4993.6
1818.44856	4963.7
1821.6242	4959
1824.79776	4929.3
1827.96924	4943.3
1831.13864	4904.8
1834.30597	4926.9
1837.47122	4886.2
1840.6344	4890.2
1843.7955	4858
1846.95454	4867.8
1850.11151	4885.6
1853.26642	4835
1856.41926	4853.7
1859.57004	4852.6
1862.71876	4838.7
1865.86542	4848.5
1869.01003	4851.6
1872.15258	4811
1875.29308	4829.1
1878.43152	4840.6
1881.56792	4801.5
1884.70227	4780.6
1887.83457	4786
1890.96482	4756.9
1894.09304	4756.3
1897.21921	4749.1
1900.34335	4758.8
1903.46544	4734.9
1906.58551	4767.6
1909.70353	4758.3
1912.81953	4733.8
1915.93349	4725.2
1919.04543	4704.2
1922.15534	4691.9
1925.26322	4709.6
1928.36908	4667.3
1931.47292	4688.2
1934.57473	4687.4
1937.67453	4655.5
1940.77232	4619.4
1943.86808	4631.3
1946.96184	4618.1
1950.05358	4592
1953.14331	4588.1
1956.23103	4571.1
1959.31675	4540.5
1962.40046	4488.1
1965.48217	4546.6
1968.56188	4517.9
1971.63959	4505.4
1974.7153	4504.5
1977.78901	4495
1980.86073	4474.5
1983.93046	4443.5
1986.99819	4357.3
1990.06394	4377.1
1993.1277	4400.3
1996.18947	4378.8
1999.24925	4354.6
2002.30706	4344.1
2005.36288	4330
2008.41672	4301.5
2011.46859	4276.5
2014.51848	4286.7
2017.56639	4251.7
2020.61233	4238.7
2023.6563	4246.2
2026.6983	4197.5
2029.73833	4202.2
2032.7764	4224.1
2035.8125	4159.2
2038.84664	4169.6
2041.87881	4143.9
2044.90903	4164.3
2047.93729	4144.7
2050.96359	4128.2
2053.98794	4138.7
2057.01034	4141.8
2060.03078	4109.9
2063.04927	4116.8
2066.06582	4115.9
2069.08042	4099.2
2072.09307	4115.8
2075.10378	4115.7
2078.11255	4100
2081.11938	4099.5
2084.12426	4074.7
2087.12722	4071
2090.12824	4069.2
2093.12732	4078.9
2096.12447	4094.6
2099.11969	4079
2102.11299	4074.1
2105.10435	4091.5
2108.09379	4071.9
2111.08131	4072.3
2114.0669	4074.9
2117.05057	4073.1
2120.03233	4050.6
2123.01216	4090
2125.99008	4095.4
2128.96609	4082.3
2131.94018	4109.3
2134.91236	4089.4
2137.88263	4075.1
2140.851	4089.6
2143.81746	4102.6
2146.78201	4085.1
2149.74466	4078.1
2152.7054	4100.4
2155.66425	4085.2
2158.6212	4075.1
2161.57625	4039.9
2164.52941	4019.1
2167.48067	4034.8
2170.43004	4043
2173.37752	4064
2176.32311	4056.1
2179.26681	4050.8
2182.20863	4049.5
2185.14856	4049
2188.08661	4043.3
2191.02278	4056.5
2193.95707	4030.5
2196.88948	4005.8
2199.82001	4019.4
2202.74867	4021.2
2205.67545	4019.6
2208.60037	4011.3
2211.52341	4011.7
2214.44458	3997.8
2217.36388	3985.2
2220.28132	3956.6
2223.1969	3946.4
2226.11061	3934.7
2229.02246	3931
2231.93245	3930.9
2234.84058	3914.5
2237.74686	3911.2
2240.65128	3890.7
2243.55385	3917
2246.45456	3875.8
2249.35343	3899.7
2252.25044	3880.8
2255.14561	3885.5
2258.03893	3885.5
2260.93041	3876.5
2263.82004	3879.2
2266.70783	3861.2
2269.59378	3845
2272.4779	3831.4
2275.36017	3827.4
2278.24061	3824.6
2281.11922	3782.9
2283.996	3793.9
2286.87094	3781
2289.74405	3785
2292.61534	3775.5
2295.4848	3769.6
2298.35243	3763.8
2301.21824	3751.3
2304.08223	3744.8
2306.94439	3744.8
2309.80474	3746.5
2312.66327	3739.1
2315.51999	3721.2
2318.37489	3728.2
2321.22797	3706.4
2324.07925	3695.8
2326.92871	3695.6
2329.77637	3689
2332.62222	3678.5
2335.46626	3661.8
2338.3085	3664.9
2341.14893	3660.3
2343.98756	3685.8
2346.8244	3641.9
2349.65943	3636
2352.49267	3649.2
2355.32411	3645.6
2358.15376	3658.6
2360.98161	3652.9
2363.80768	3627.3
2366.63195	3644.9
2369.45444	3644.6
2372.27514	3640.9
2375.09405	3663.1
2377.91118	3626.9
2380.72652	3604.5
2383.54009	3627.7
2386.35187	3613.5
2389.16188	3578.7
2391.97011	3574.1
2394.77657	3567.8
2397.58125	3575.2
2400.38416	3561.1
2403.18529	3529.9
2405.98466	3531.2
2408.78226	3543
2411.57809	3514.7
2414.37216	3502.3
2417.16446	3523.7
2419.955	3482.9
2422.74378	3512.3
2425.5308	3487.7
2428.31606	3487.4
2431.09956	3507.9
2433.88131	3478.9
2436.6613	3487.3
2439.43954	3471.4
2442.21603	3453.8
2444.99077	3454.2
2447.76377	3462.8
2450.53501	3458.2
2453.30451	3457.3
2456.07226	3455.4
2458.83827	3435.4
2461.60254	3421.6
2464.36507	3434.8
2467.12586	3428.1
2469.88492	3436.9
2472.64224	3425.3
2475.39782	3414
2478.15167	3427.3
2480.90379	3421.6
2483.65417	3427.3
2486.40283	3422.8
2489.14976	3439.3
2491.89497	3414.3
2494.63845	3424.1
2497.3802	3409.5
2500.12024	3409.9
2502.85855	3408.4
2505.59514	3407.7
2508.33002	3396.6
2511.06318	3363.5
2513.79462	3382.5
2516.52435	3327.2
2519.25237	3309.9
2521.97867	3319.4
2524.70327	3323.3
2527.42616	3319.1
2530.14734	3306.3
2532.86681	3306.4
2535.58458	3308.1
2538.30065	3295.1
2541.01501	3305.3
2543.72768	3283.4
2546.43864	3284.4
2549.14791	3281.5
2551.85548	3268.1
2554.56136	3257.4
2557.26554	3257
2559.96803	3267.9
2562.66883	3256.6
2565.36794	3231.9
2568.06536	3196.3
2570.7611	3247.9
2573.45514	3210.5
2576.14751	3211.3
2578.83819	3190.7
2581.52719	3167.5
2584.21451	3180.1
2586.90015	3167.6
2589.58411	3148.8
2592.2664	3178.1
2594.94701	3155
2597.62594	3165.6
2600.30321	3101.1
2602.9788	3103.6
2605.65273	3108.6
2608.32498	3100.2
2610.99557	3134.8
2613.66449	3089.1
2616.33175	3112.6
2618.99734	3121.3
2621.66128	3107.9
2624.32355	3094.7
2626.98416	3090.2
2629.64311	3069.6
2632.30041	3063.1
2634.95605	3048.8
2637.61004	3037.8
2640.26238	3029.4
2642.91306	3032.2
2645.56209	3046.2
2648.20948	3040.2
2650.85521	3017.7
2653.4993	3050.9
2656.14175	3032.7
2658.78255	3031.6
2661.42171	2998.5
2664.05923	3031.4
2666.6951	3037.2
2669.32934	3033.8
2671.96194	3054.5
2674.59291	3041
2677.22224	3035.8
2679.84993	3041.2
2682.476	3021.5
2685.10043	3023.7
2687.72324	3010.4
2690.34441	3009.1
2692.96396	3013
2695.58188	3024.6
2698.19818	3019.5
2700.81285	3007.4
2703.4259	2996.9
2706.03733	2964.3
2708.64714	2965.2
2711.25533	2994
2713.86191	2993.8
2716.46687	3010.7
2719.07021	2988.4
2721.67194	2990.5
2724.27206	3022.4
2726.87057	2989.8
2729.46747	2975.7
2732.06276	2991
2734.65644	2979.7
2737.24852	2979.2
2739.83899	2949.8
2742.42786	2963.6
2745.01513	2959.9
2747.60079	2947
2750.18486	2951.7
2752.76733	2947.5
2755.3482	2934.1
2757.92747	2932.6
2760.50515	2909.1
2763.08123	2913.8
2765.65573	2913.5
2768.22863	2900
2770.79994	2891.8
2773.36967	2879.3
2775.9378	2884.9
2778.50435	2879
2781.06932	2874.3
2783.6327	2874.4
2786.1945	2877.1
2788.75471	2870.5
2791.31335	2858.7
2793.87041	2864.8
2796.42589	2841
2798.97979	2823.8
2801.53212	2841.4
2804.08288	2843.4
2806.63206	2830.7
2809.17967	2808.2
2811.72571	2831.8
2814.27018	2817.1
2816.81308	2804.4
2819.35442	2775.6
2821.89419	2803.2
2824.43239	2784.7
2826.96904	2804.5
2829.50412	2774.7
2832.03763	2789.6
2834.56959	2791.4
2837.1	2769.5
2839.62884	2765
2842.15613	2775.9
2844.68186	2776.2
2847.20604	2742.7
2849.72867	2739
2852.24974	2757.2
2854.76927	2730.4
2857.28724	2683.4
2859.80367	2731.2
2862.31855	2744.7
2864.83189	2737.6
2867.34368	2737.1
2869.85393	2754
2872.36264	2725.7
2874.8698	2714
2877.37543	2723.4
2879.87952	2723.2
2882.38207	2701.4
2884.88308	2720.5
2887.38256	2704.2
2889.88051	2694.7
2892.37692	2699.4
2894.8718	2684.7
2897.36515	2703.1
2899.85698	2697.1
2902.34727	2689.9
2904.83604	2697.6
2907.32328	2698.8
2909.809	2722.2
2912.29319	2703.4
2914.77587	2713.9
2917.25702	2740.5
2919.73665	2724.9
2922.21476	2730.9
2924.69136	2721.6
2927.16644	2706.6
2929.64	2699.9
2932.11205	2693.7
2934.58258	2691
2937.05161	2685.4
2939.51912	2683.4
2941.98513	2696.8
2944.44962	2681.1
2946.91261	2642.2
2949.37409	2656
2951.83407	2651.9
2954.29254	2656.7
2956.74951	2649.2
2959.20498	2628.2
2961.65895	2643.3
2964.11142	2616.1
2966.56239	2610.7
2969.01186	2631.6
2971.45984	2611.2
2973.90632	2612.8
2976.35131	2620.8
2978.7948	2621.7
2981.23681	2597.2
2983.67732	2605.7
2986.11635	2595.5
2988.55388	2573.7
2990.98993	2574.4
2993.4245	2567
2995.85758	2557.5
2998.28917	2553.4
3000.71928	2532
3003.14791	2532.7
3005.57506	2521.8
3008.00073	2508.9
3010.42493	2444.1
3012.84764	2505.5
3015.26888	2513.9
3017.68865	2496.6
3020.10694	2452.9
3022.52376	2461.3
3024.9391	2467.6
3027.35298	2461.7
3029.76539	2454.1
3032.17632	2459.7
3034.5858	2436
3036.9938	2454.9
3039.40034	2434.2
3041.80542	2433.2
3044.20903	2411.1
3046.61118	2404.6
3049.01187	2418.6
3051.4111	2415.1
3053.80888	2396.4
3056.20519	2387.4
3058.60005	2374.7
3060.99345	2398.9
3063.3854	2374.9
3065.7759	2355.1
3068.16494	2352
3070.55254	2335.5
3072.93868	2351.8
3075.32338	2349.8
3077.70662	2336.8
3080.08842	2316.1
3082.46878	2307.2
3084.84769	2336.6
3087.22515	2313.9
3089.60118	2331.2
3091.97576	2311.4
3094.3489	2323.3
3096.72061	2300.4
3099.09087	2292.3
3101.4597	2307.5
3103.82709	2299
3106.19305	2290.5
3108.55757	2291.6
3110.92066	2270
3113.28232	2288.4
3115.64255	2280.9
3118.00134	2284.1
3120.35871	2258.5
3122.71466	2246.6
3125.06917	2252.1
3127.42226	2239.7
3129.77393	2224
3132.12417	2238
3134.47299	2241.2
3136.82039	2223.3
3139.16636	2199.6
3141.51092	2218.8
3143.85406	2222.5
3146.19579	2206.5
3148.53609	2216.3
3150.87499	2208.1
3153.21246	2200.9
3155.54853	2206.7
3157.88318	2207.6
3160.21642	2205.9
3162.54826	2202
3164.87868	2207.2
3167.2077	2171.3
3169.5353	2191.8
3171.86151	2191.1
3174.18631	2180.7
3176.5097	2173.3
3178.83169	2178.3
3181.15228	2175.9
3183.47147	2154
3185.78926	2139.4
3188.10565	2145.6
3190.42065	2118.7
3192.73424	2140.7
3195.04645	2136.8
3197.35725	2119.4
3199.66667	2133.1
3201.97469	2128.2
3204.28132	2113.8
3206.58656	2114.6
3208.8904	2129.2
3211.19287	2130
3213.49394	2115.1
3215.79363	2100.8
3218.09193	2113.6
3220.38884	2119.4
3222.68438	2121.5
3224.97853	2083.2
3227.2713	2110.1
3229.56269	2101.7
3231.8527	2103.8
3234.14133	2090
3236.42858	2095.5
3238.71446	2055.8
3240.99896	2084.1
3243.28209	2067.3
3245.56384	2071.9
3247.84423	2055.7
3250.12324	2062.2
3252.40088	2050.1
3254.67715	2046.3
3256.95205	2034.9
3259.22558	2059.2
3261.49775	2055.3
3263.76855	2047.2
3266.03799	2041.6
3268.30606	2043.4
3270.57277	2039.6
3272.83812	2026.5
3275.10211	2015.8
3277.36474	2048.1
3279.62601	2012.2
3281.88593	2010.6
3284.14448	1984.5
3286.40168	2001.4
3288.65753	1994.7
3290.91202	2001.2
3293.16516	1982.6
3295.41695	2005.2
3297.66738	2010.3
3299.91647	1979.8
3302.16421	1968.5
3304.4106	1934.1
3306.65564	1951.5
3308.89933	1917
3311.14169	1919
3313.38269	1905.2
3315.62236	1875.1
3317.86068	1877.8
3320.09766	1871.5
3322.3333	1842.1
3324.5676	1833.4
3326.80056	1800.2
3329.03219	1798.4
3331.26248	0.1
3333.49143	0.6
3335.71905	-0.6
