Data from AgNPs_UA_50uM_CRN_500uM_SU_RamanShift__73__14-08-00-328.txt Node

Date: Thu Aug 04 14:08:00 BST 2022
User: TCL
Spectrometer: QEP01345
Trigger mode: 4
Integration Time (sec): 1.000000E0
Scans to average: 10
Electric dark correction enabled: true
Nonlinearity correction enabled: false
Boxcar width: 0
XAxis mode: Raman Shifts
Number of Pixels in Spectrum: 1044
>>>>>Begin Spectral Data<<<<<
46.04893	0.475
50.45542	-2.025
54.85868	0.675
59.25871	-0.925
63.6555	16.775
68.04907	17.675
72.43941	17.775
76.82654	18.575
81.21044	19.375
85.59113	22.175
89.96862	21.075
94.34289	21.575
98.71396	22.875
103.08183	21.175
107.4465	22.975
111.80798	22.575
116.16626	22.775
120.52136	28.175
124.87327	28.075
129.222	29.375
133.56755	31.575
137.90993	34.975
142.24913	34.775
146.58517	43.375
150.91804	51.675
155.24774	61.075
159.57429	78.275
163.89768	101.975
168.21792	133.975
172.53501	182.775
176.84895	255.375
181.15975	370.675
185.46741	513.075
189.77193	712.175
194.07331	958.675
198.37157	1227.875
202.6667	1527.075
206.9587	1806.975
211.24758	2113.375
215.53334	2387.275
219.81599	2708.775
224.09553	3051.775
228.37195	3451.975
232.64527	3876.375
236.91549	4275.875
241.18261	4666.975
245.44663	4953.475
249.70755	5201.775
253.96539	5422.875
258.22014	5609.675
262.4718	5774.975
266.72039	5917.275
270.96589	5954.375
275.20832	5949.775
279.44768	5851.275
283.68397	5768.775
287.91719	5688.375
292.14735	5675.275
296.37445	5766.775
300.59849	5937.875
304.81948	6161.975
309.03742	6359.175
313.25231	6442.775
317.46415	6319.775
321.67296	6095.375
325.87872	5868.775
330.08145	5737.975
334.28114	5749.675
338.47781	5815.075
342.67145	5958.475
346.86207	6126.875
351.04966	6392.875
355.23424	6640.175
359.4158	6830.475
363.59435	6955.875
367.76989	7000.775
371.94243	6965.375
376.11196	6992.975
380.27849	6986.575
384.44203	7005.375
388.60257	7010.975
392.76012	7036.575
396.91468	7133.475
401.06626	7271.375
405.21485	7317.575
409.36047	7211.375
413.50311	6950.575
417.64277	6744.475
421.77947	6598.175
425.9132	6534.875
430.04396	6575.875
434.17176	6647.675
438.2966	6789.575
442.41849	6980.075
446.53742	7230.375
450.6534	7460.875
454.76644	7596.775
458.87653	7635.975
462.98368	7560.175
467.08789	7391.575
471.18916	7196.275
475.2875	6972.075
479.38291	6770.375
483.4754	6643.475
487.56496	6588.675
491.6516	6523.675
495.73531	6476.575
499.81612	6492.675
503.89401	6533.375
507.96899	6582.875
512.04106	6647.775
516.11023	6719.375
520.1765	6785.475
524.23987	6830.875
528.30034	6810.475
532.35792	6757.075
536.41261	6680.775
540.46441	6541.675
544.51333	6537.575
548.55936	6592.775
552.60252	6710.175
556.64279	6826.275
560.6802	6872.975
564.71473	6915.375
568.7464	7015.075
572.7752	7018.675
576.80114	6872.675
580.82422	6791.175
584.84444	6823.475
588.86181	6958.875
592.87633	7180.275
596.888	7374.175
600.89682	7642.575
604.9028	8497.575
608.90594	10268.775
612.90624	11934.575
616.90371	10849.075
620.89834	8409.275
624.89015	7577.075
628.87913	7492.575
632.86528	7453.975
636.84862	7283.875
640.82913	7027.875
644.80683	6725.975
648.78172	6566.475
652.75379	6622.975
656.72306	6849.675
660.68952	7099.675
664.65319	7045.575
668.61405	6904.475
672.57211	6878.375
676.52738	6841.775
680.47986	6740.375
684.42955	6632.975
688.37646	6660.275
692.32058	6709.575
696.26192	6830.675
700.20048	6928.675
704.13626	6939.875
708.06928	6817.375
711.99952	6757.575
715.927	6781.675
719.85171	6816.375
723.77365	6814.975
727.69284	6722.875
731.60928	6683.275
735.52295	6695.775
739.43388	6738.875
743.34206	6788.675
747.24749	6826.475
751.15017	6868.575
755.05012	6961.775
758.94733	7220.075
762.8418	7877.375
766.73354	8833.575
770.62254	9620.075
774.50882	9847.275
778.39237	9366.775
782.27321	8495.775
786.15132	7677.075
790.02671	7169.975
793.89938	6967.975
797.76935	6876.875
801.6366	6832.375
805.50115	6793.175
809.36299	6733.275
813.22213	6721.975
817.07857	6700.775
820.93231	6697.975
824.78336	6701.475
828.63172	6735.475
832.47738	6755.075
836.32036	6772.175
840.16066	6802.575
843.99827	6841.675
847.8332	6799.875
851.66546	6749.775
855.49504	6729.575
859.32195	6746.275
863.1462	6709.275
866.96777	6687.575
870.78668	6682.975
874.60293	6672.875
878.41652	6701.475
882.22745	6754.875
886.03573	6791.775
889.84136	6781.775
893.64433	6730.375
897.44466	6737.775
901.24235	6723.275
905.0374	6688.675
908.8298	6680.375
912.61957	6649.875
916.40671	6708.475
920.19121	6791.075
923.97308	6906.775
927.75233	7026.875
931.52895	7068.075
935.30295	7001.575
939.07433	6824.575
942.84309	6701.475
946.60924	6671.075
950.37278	6649.175
954.13371	6582.975
957.89203	6530.975
961.64774	6507.175
965.40086	6467.475
969.15137	6472.975
972.89929	6453.675
976.64461	6464.575
980.38733	6493.675
984.12747	6522.975
987.86502	6577.175
991.59999	6673.275
995.33237	6871.475
999.06217	7197.275
1002.78939	7523.775
1006.51404	7598.375
1010.23611	7595.875
1013.95561	7689.875
1017.67255	7799.775
1021.38692	7804.075
1025.09872	7791.075
1028.80796	7968.875
1032.51465	8314.075
1036.21877	8531.275
1039.92035	8465.975
1043.61937	8246.775
1047.31584	7918.275
1051.00976	7615.575
1054.70114	7479.975
1058.38998	7413.075
1062.07627	7416.675
1065.76003	7387.775
1069.44126	7396.975
1073.11995	7457.075
1076.79611	7545.875
1080.46974	7674.875
1084.14085	7811.375
1087.80943	7889.275
1091.47549	7886.675
1095.13903	7716.075
1098.80005	7573.975
1102.45857	7527.875
1106.11456	7510.075
1109.76805	7554.375
1113.41903	7675.075
1117.06751	7823.475
1120.71348	7983.875
1124.35696	8196.475
1127.99793	8310.675
1131.63641	8170.775
1135.2724	7947.275
1138.90589	7734.075
1142.5369	7566.975
1146.16542	7471.475
1149.79145	7425.975
1153.415	7407.275
1157.03607	7422.075
1160.65467	7539.875
1164.27079	7753.875
1167.88443	8080.375
1171.49561	8621.975
1175.10432	9424.275
1178.71056	10449.175
1182.31434	11363.575
1185.91565	11767.775
1189.51451	11630.475
1193.11091	11049.575
1196.70485	10362.575
1200.29634	9811.275
1203.88538	9346.575
1207.47197	8916.675
1211.05612	8549.475
1214.63782	8365.875
1218.21708	8330.275
1221.79391	8435.375
1225.36829	8547.175
1228.94024	8503.475
1232.50976	8371.975
1236.07685	8253.275
1239.6415	8233.275
1243.20374	8269.075
1246.76355	8315.875
1250.32093	8460.275
1253.8759	8680.575
1257.42845	8980.475
1260.97859	9277.075
1264.52631	9541.175
1268.07163	9750.675
1271.61453	9955.475
1275.15503	10155.475
1278.69312	10411.075
1282.22882	10623.875
1285.76211	10808.375
1289.29301	10969.475
1292.82151	11158.275
1296.34761	11426.475
1299.87133	11978.575
1303.39266	12851.575
1306.9116	14101.275
1310.42815	15455.575
1313.94233	16008.175
1317.45412	15537.775
1320.96354	14503.575
1324.47058	13386.075
1327.97525	12568.875
1331.47754	12183.275
1334.97747	12087.875
1338.47502	12228.175
1341.97022	12561.775
1345.46305	13027.675
1348.95352	13640.475
1352.44163	14406.275
1355.92738	15460.875
1359.41078	16942.275
1362.89183	17807.675
1366.37053	16849.075
1369.84688	14497.875
1373.32088	12378.775
1376.79254	11145.475
1380.26186	10582.275
1383.72883	10270.475
1387.19347	10010.575
1390.65578	9616.875
1394.11575	9330.275
1397.57339	9209.375
1401.0287	9250.475
1404.48168	9331.575
1407.93234	9491.175
1411.38068	9657.775
1414.82669	9801.875
1418.27039	9724.575
1421.71177	9565.975
1425.15083	9451.675
1428.58758	9464.475
1432.02203	9634.475
1435.45416	9789.075
1438.88399	9826.775
1442.31151	9778.775
1445.73673	9708.175
1449.15965	9699.175
1452.58027	9557.075
1455.9986	9397.875
1459.41463	9349.175
1462.82837	9437.875
1466.23982	9631.175
1469.64898	9827.475
1473.05586	10004.175
1476.46045	10171.875
1479.86276	10291.575
1483.26279	10410.675
1486.66054	10549.575
1490.05602	10774.575
1493.44922	11130.175
1496.84016	11661.275
1500.22882	12459.375
1503.61521	13500.275
1506.99934	14518.075
1510.38121	15194.675
1513.76081	14977.375
1517.13816	13966.175
1520.51324	12689.075
1523.88607	11597.975
1527.25665	10991.875
1530.62498	10670.275
1533.99105	10501.575
1537.35488	10402.575
1540.71647	10338.175
1544.07581	10215.575
1547.4329	10069.975
1550.78776	9902.975
1554.14038	9782.775
1557.49077	9755.775
1560.83892	9789.275
1564.18484	9903.875
1567.52853	10052.575
1570.86999	10182.775
1574.20922	10159.175
1577.54624	10010.375
1580.88103	9639.875
1584.2136	9297.075
1587.54395	9236.475
1590.87208	9649.375
1594.19801	10447.975
1597.52172	11362.775
1600.84321	11872.975
1604.16251	11648.275
1607.47959	10941.575
1610.79447	10056.875
1614.10715	9234.975
1617.41763	8589.475
1620.7259	8185.975
1624.03199	8023.675
1627.33587	8077.875
1630.63757	8327.375
1633.93707	8842.275
1637.23439	9581.975
1640.52951	10543.275
1643.82246	11604.675
1647.11321	12477.275
1650.40179	12497.075
1653.68819	11541.475
1656.97241	10034.575
1660.25446	8685.575
1663.53433	7819.875
1666.81203	7266.675
1670.08756	6954.475
1673.36092	6735.775
1676.63211	6605.075
1679.90115	6515.975
1683.16801	6416.175
1686.43272	6384.575
1689.69527	6324.275
1692.95567	6319.275
1696.2139	6289.475
1699.46999	6278.375
1702.72392	6273.475
1705.97571	6274.775
1709.22535	6266.975
1712.47284	6270.975
1715.71819	6273.775
1718.96139	6260.975
1722.20246	6229.975
1725.44139	6221.675
1728.67818	6169.475
1731.91284	6138.675
1735.14537	6073.375
1738.37576	6082.775
1741.60403	6062.375
1744.83017	6052.775
1748.05418	6025.075
1751.27607	6005.075
1754.49584	5988.175
1757.71349	5984.275
1760.92903	5994.275
1764.14244	5978.275
1767.35375	5979.275
1770.56294	5963.475
1773.77002	5946.675
1776.97499	5936.775
1780.17785	5927.975
1783.37861	5906.075
1786.57727	5890.275
1789.77382	5891.875
1792.96828	5885.475
1796.16064	5870.475
1799.3509	5886.175
1802.53907	5880.775
1805.72514	5858.375
1808.90913	5850.375
1812.09102	5803.775
1815.27083	5808.175
1818.44856	5801.275
1821.6242	5785.275
1824.79776	5785.775
1827.96924	5753.075
1831.13864	5750.175
1834.30597	5740.775
1837.47122	5715.375
1840.6344	5715.375
1843.7955	5725.175
1846.95454	5722.675
1850.11151	5743.975
1853.26642	5713.475
1856.41926	5712.875
1859.57004	5728.875
1862.71876	5707.975
1865.86542	5719.575
1869.01003	5712.475
1872.15258	5698.675
1875.29308	5706.675
1878.43152	5707.575
1881.56792	5723.275
1884.70227	5695.175
1887.83457	5696.775
1890.96482	5685.975
1894.09304	5678.575
1897.21921	5665.875
1900.34335	5660.375
1903.46544	5654.075
1906.58551	5653.675
1909.70353	5628.675
1912.81953	5625.175
1915.93349	5626.075
1919.04543	5618.475
1922.15534	5605.775
1925.26322	5600.575
1928.36908	5590.475
1931.47292	5614.575
1934.57473	5590.875
1937.67453	5581.675
1940.77232	5553.875
1943.86808	5543.375
1946.96184	5539.575
1950.05358	5522.075
1953.14331	5485.075
1956.23103	5473.375
1959.31675	5458.675
1962.40046	5429.175
1965.48217	5436.575
1968.56188	5424.075
1971.63959	5407.375
1974.7153	5402.875
1977.78901	5367.675
1980.86073	5362.375
1983.93046	5346.475
1986.99819	5334.075
1990.06394	5309.275
1993.1277	5297.175
1996.18947	5276.375
1999.24925	5253.975
2002.30706	5235.575
2005.36288	5218.575
2008.41672	5211.075
2011.46859	5185.475
2014.51848	5192.575
2017.56639	5153.475
2020.61233	5145.075
2023.6563	5139.875
2026.6983	5121.775
2029.73833	5109.975
2032.7764	5112.675
2035.8125	5095.775
2038.84664	5100.475
2041.87881	5076.075
2044.90903	5076.775
2047.93729	5073.175
2050.96359	5065.375
2053.98794	5047.575
2057.01034	5056.875
2060.03078	5053.575
2063.04927	5049.475
2066.06582	5042.475
2069.08042	5027.075
2072.09307	5005.475
2075.10378	5017.175
2078.11255	4994.475
2081.11938	5010.775
2084.12426	5005.075
2087.12722	5012.375
2090.12824	4999.175
2093.12732	5006.675
2096.12447	4993.275
2099.11969	5006.975
2102.11299	5006.175
2105.10435	4996.975
2108.09379	5004.075
2111.08131	4988.875
2114.0669	4988.975
2117.05057	5004.375
2120.03233	4982.475
2123.01216	4994.475
2125.99008	5014.875
2128.96609	5005.375
2131.94018	5012.575
2134.91236	5001.975
2137.88263	5001.775
2140.851	5012.675
2143.81746	5026.375
2146.78201	5014.675
2149.74466	4998.175
2152.7054	5003.475
2155.66425	5015.175
2158.6212	5008.975
2161.57625	5010.175
2164.52941	4992.675
2167.48067	4987.275
2170.43004	5000.875
2173.37752	5001.675
2176.32311	5012.475
2179.26681	5012.675
2182.20863	5000.975
2185.14856	5003.075
2188.08661	5007.675
2191.02278	5008.675
2193.95707	4998.475
2196.88948	4991.275
2199.82001	4994.975
2202.74867	4989.875
2205.67545	4987.575
2208.60037	5006.675
2211.52341	4999.375
2214.44458	5006.075
2217.36388	5001.075
2220.28132	4985.475
2223.1969	4966.875
2226.11061	4967.275
2229.02246	4925.375
2231.93245	4942.075
2234.84058	4932.475
2237.74686	4915.075
2240.65128	4913.475
2243.55385	4881.675
2246.45456	4896.175
2249.35343	4881.075
2252.25044	4888.875
2255.14561	4874.275
2258.03893	4877.375
2260.93041	4867.775
2263.82004	4864.475
2266.70783	4850.775
2269.59378	4806.775
2272.4779	4803.575
2275.36017	4793.675
2278.24061	4777.075
2281.11922	4756.375
2283.996	4754.775
2286.87094	4757.975
2289.74405	4766.975
2292.61534	4756.375
2295.4848	4759.975
2298.35243	4759.275
2301.21824	4757.075
2304.08223	4761.675
2306.94439	4771.375
2309.80474	4765.975
2312.66327	4770.175
2315.51999	4779.375
2318.37489	4793.275
2321.22797	4777.475
2324.07925	4755.875
2326.92871	4745.675
2329.77637	4758.275
2332.62222	4736.075
2335.46626	4728.675
2338.3085	4731.675
2341.14893	4756.475
2343.98756	4750.475
2346.8244	4762.175
2349.65943	4771.375
2352.49267	4754.175
2355.32411	4743.175
2358.15376	4755.675
2360.98161	4746.275
2363.80768	4747.575
2366.63195	4738.775
2369.45444	4722.775
2372.27514	4720.575
2375.09405	4718.075
2377.91118	4698.575
2380.72652	4689.775
2383.54009	4645.475
2386.35187	4648.875
2389.16188	4656.075
2391.97011	4653.075
2394.77657	4618.075
2397.58125	4615.975
2400.38416	4623.175
2403.18529	4597.475
2405.98466	4599.875
2408.78226	4570.575
2411.57809	4558.875
2414.37216	4546.475
2417.16446	4530.575
2419.955	4548.075
2422.74378	4525.275
2425.5308	4542.275
2428.31606	4535.975
2431.09956	4516.075
2433.88131	4509.675
2436.6613	4509.375
2439.43954	4514.075
2442.21603	4524.475
2444.99077	4512.375
2447.76377	4511.875
2450.53501	4512.575
2453.30451	4509.775
2456.07226	4503.475
2458.83827	4495.475
2461.60254	4495.375
2464.36507	4487.775
2467.12586	4477.575
2469.88492	4478.875
2472.64224	4474.875
2475.39782	4471.975
2478.15167	4483.075
2480.90379	4481.475
2483.65417	4500.675
2486.40283	4492.975
2489.14976	4506.075
2491.89497	4510.775
2494.63845	4529.475
2497.3802	4508.375
2500.12024	4497.875
2502.85855	4482.875
2505.59514	4493.575
2508.33002	4491.475
2511.06318	4478.875
2513.79462	4467.275
2516.52435	4444.275
2519.25237	4435.875
2521.97867	4433.275
2524.70327	4438.175
2527.42616	4431.275
2530.14734	4444.775
2532.86681	4435.475
2535.58458	4441.575
2538.30065	4466.875
2541.01501	4443.075
2543.72768	4436.975
2546.43864	4423.475
2549.14791	4419.875
2551.85548	4409.175
2554.56136	4411.975
2557.26554	4408.775
2559.96803	4389.475
2562.66883	4395.375
2565.36794	4394.275
2568.06536	4377.875
2570.7611	4366.875
2573.45514	4369.775
2576.14751	4370.975
2578.83819	4349.775
2581.52719	4356.075
2584.21451	4346.475
2586.90015	4349.475
2589.58411	4349.575
2592.2664	4345.975
2594.94701	4340.775
2597.62594	4338.175
2600.30321	4340.175
2602.9788	4342.175
2605.65273	4338.975
2608.32498	4333.875
2610.99557	4336.675
2613.66449	4338.175
2616.33175	4330.075
2618.99734	4344.675
2621.66128	4330.875
2624.32355	4337.875
2626.98416	4336.075
2629.64311	4332.775
2632.30041	4345.875
2634.95605	4322.075
2637.61004	4318.475
2640.26238	4308.075
2642.91306	4306.375
2645.56209	4286.875
2648.20948	4300.575
2650.85521	4292.075
2653.4993	4289.275
2656.14175	4286.575
2658.78255	4285.875
2661.42171	4293.675
2664.05923	4289.575
2666.6951	4289.875
2669.32934	4281.175
2671.96194	4290.775
2674.59291	4298.475
2677.22224	4277.475
2679.84993	4288.175
2682.476	4269.475
2685.10043	4276.375
2687.72324	4267.275
2690.34441	4269.875
2692.96396	4249.375
2695.58188	4250.875
2698.19818	4237.375
2700.81285	4249.575
2703.4259	4259.975
2706.03733	4249.875
2708.64714	4255.375
2711.25533	4238.775
2713.86191	4244.075
2716.46687	4229.475
2719.07021	4246.075
2721.67194	4248.375
2724.27206	4237.275
2726.87057	4245.575
2729.46747	4237.375
2732.06276	4262.375
2734.65644	4229.475
2737.24852	4230.375
2739.83899	4238.975
2742.42786	4219.275
2745.01513	4208.875
2747.60079	4216.375
2750.18486	4215.975
2752.76733	4210.175
2755.3482	4198.275
2757.92747	4197.075
2760.50515	4190.775
2763.08123	4191.875
2765.65573	4183.675
2768.22863	4183.475
2770.79994	4165.975
2773.36967	4163.675
2775.9378	4165.975
2778.50435	4194.375
2781.06932	4187.275
2783.6327	4175.775
2786.1945	4175.375
2788.75471	4161.975
2791.31335	4158.775
2793.87041	4145.975
2796.42589	4141.575
2798.97979	4139.075
2801.53212	4150.475
2804.08288	4124.875
2806.63206	4121.375
2809.17967	4105.075
2811.72571	4098.075
2814.27018	4096.575
2816.81308	4098.475
2819.35442	4083.575
2821.89419	4067.275
2824.43239	4062.875
2826.96904	4066.875
2829.50412	4050.675
2832.03763	4053.675
2834.56959	4048.175
2837.1	4044.875
2839.62884	4039.975
2842.15613	4039.375
2844.68186	4048.775
2847.20604	4035.275
2849.72867	4017.475
2852.24974	4014.475
2854.76927	4012.275
2857.28724	3997.075
2859.80367	4002.175
2862.31855	3992.175
2864.83189	3998.475
2867.34368	3998.475
2869.85393	3978.275
2872.36264	3962.475
2874.8698	3991.975
2877.37543	3986.775
2879.87952	3984.475
2882.38207	3976.675
2884.88308	3980.375
2887.38256	3975.375
2889.88051	3966.975
2892.37692	3949.275
2894.8718	3950.575
2897.36515	3957.275
2899.85698	3953.675
2902.34727	3968.475
2904.83604	3967.375
2907.32328	3972.875
2909.809	3981.375
2912.29319	3974.475
2914.77587	3979.475
2917.25702	3988.175
2919.73665	3977.775
2922.21476	3973.375
2924.69136	3974.575
2927.16644	3959.675
2929.64	3950.775
2932.11205	3958.775
2934.58258	3931.875
2937.05161	3933.475
2939.51912	3952.375
2941.98513	3921.775
2944.44962	3930.675
2946.91261	3922.075
2949.37409	3922.875
2951.83407	3909.475
2954.29254	3929.575
2956.74951	3910.475
2959.20498	3907.775
2961.65895	3906.475
2964.11142	3899.175
2966.56239	3907.775
2969.01186	3880.575
2971.45984	3882.275
2973.90632	3849.075
2976.35131	3850.175
2978.7948	3864.475
2981.23681	3848.575
2983.67732	3851.375
2986.11635	3842.975
2988.55388	3827.775
2990.98993	3803.775
2993.4245	3799.675
2995.85758	3804.975
2998.28917	3787.575
3000.71928	3788.875
3003.14791	3775.075
3005.57506	3760.375
3008.00073	3748.775
3010.42493	3746.575
3012.84764	3739.275
3015.26888	3733.475
3017.68865	3726.775
3020.10694	3717.475
3022.52376	3695.175
3024.9391	3682.675
3027.35298	3674.675
3029.76539	3666.575
3032.17632	3675.275
3034.5858	3667.375
3036.9938	3653.175
3039.40034	3651.175
3041.80542	3642.075
3044.20903	3636.775
3046.61118	3630.575
3049.01187	3625.475
3051.4111	3620.075
3053.80888	3629.475
3056.20519	3607.275
3058.60005	3593.775
3060.99345	3600.775
3063.3854	3584.575
3065.7759	3569.375
3068.16494	3555.175
3070.55254	3545.875
3072.93868	3542.975
3075.32338	3519.975
3077.70662	3529.375
3080.08842	3507.875
3082.46878	3498.375
3084.84769	3492.375
3087.22515	3493.175
3089.60118	3491.975
3091.97576	3486.475
3094.3489	3475.975
3096.72061	3490.775
3099.09087	3492.275
3101.4597	3482.675
3103.82709	3469.775
3106.19305	3445.975
3108.55757	3456.075
3110.92066	3444.775
3113.28232	3457.475
3115.64255	3442.675
3118.00134	3434.175
3120.35871	3439.975
3122.71466	3426.775
3125.06917	3404.575
3127.42226	3403.975
3129.77393	3417.175
3132.12417	3397.975
3134.47299	3401.075
3136.82039	3381.275
3139.16636	3400.875
3141.51092	3385.475
3143.85406	3378.475
3146.19579	3371.275
3148.53609	3384.975
3150.87499	3383.375
3153.21246	3384.975
3155.54853	3389.375
3157.88318	3373.075
3160.21642	3382.875
3162.54826	3382.475
3164.87868	3375.875
3167.2077	3363.775
3169.5353	3347.175
3171.86151	3366.675
3174.18631	3353.075
3176.5097	3354.675
3178.83169	3339.075
3181.15228	3347.075
3183.47147	3341.975
3185.78926	3331.075
3188.10565	3317.975
3190.42065	3302.475
3192.73424	3324.475
3195.04645	3300.675
3197.35725	3307.575
3199.66667	3306.375
3201.97469	3311.575
3204.28132	3302.275
3206.58656	3304.975
3208.8904	3299.075
3211.19287	3308.475
3213.49394	3296.175
3215.79363	3317.275
3218.09193	3302.375
3220.38884	3308.375
3222.68438	3315.175
3224.97853	3290.675
3227.2713	3295.675
3229.56269	3289.275
3231.8527	3279.475
