Data from AgNPs_UA_50uM_CRN_500uM_SU_RamanShift__27__14-00-20-319.txt Node

Date: Thu Aug 04 14:00:20 BST 2022
User: TCL
Spectrometer: QEP01345
Trigger mode: 4
Integration Time (sec): 1.000000E0
Scans to average: 10
Electric dark correction enabled: true
Nonlinearity correction enabled: false
Boxcar width: 0
XAxis mode: Raman Shifts
Number of Pixels in Spectrum: 1044
>>>>>Begin Spectral Data<<<<<
46.04893	0.475
50.45542	-0.325
54.85868	-1.225
59.25871	-0.425
63.6555	13.075
68.04907	12.875
72.43941	13.375
76.82654	16.375
81.21044	13.775
85.59113	17.475
89.96862	17.475
94.34289	17.775
98.71396	17.475
103.08183	18.175
107.4465	16.475
111.80798	18.275
116.16626	19.475
120.52136	19.775
124.87327	22.975
129.222	24.075
133.56755	24.475
137.90993	28.475
142.24913	30.675
146.58517	34.875
150.91804	39.075
155.24774	46.475
159.57429	58.575
163.89768	79.375
168.21792	102.475
172.53501	145.475
176.84895	202.975
181.15975	289.975
185.46741	413.675
189.77193	575.775
194.07331	764.975
198.37157	992.775
202.6667	1238.675
206.9587	1484.075
211.24758	1721.175
215.53334	1970.875
219.81599	2232.875
224.09553	2535.375
228.37195	2878.375
232.64527	3239.575
236.91549	3582.175
241.18261	3895.975
245.44663	4122.575
249.70755	4312.275
253.96539	4435.575
258.22014	4579.275
262.4718	4674.775
266.72039	4750.575
270.96589	4768.775
275.20832	4723.575
279.44768	4647.175
283.68397	4578.975
287.91719	4530.875
292.14735	4553.775
296.37445	4638.775
300.59849	4806.775
304.81948	5029.875
309.03742	5266.275
313.25231	5389.375
317.46415	5342.275
321.67296	5109.775
325.87872	4838.975
330.08145	4710.175
334.28114	4677.775
338.47781	4728.075
342.67145	4864.975
346.86207	5001.075
351.04966	5238.375
355.23424	5472.775
359.4158	5614.875
363.59435	5669.275
367.76989	5654.075
371.94243	5611.475
376.11196	5553.775
380.27849	5499.875
384.44203	5491.375
388.60257	5479.475
392.76012	5518.675
396.91468	5602.175
401.06626	5693.375
405.21485	5722.775
409.36047	5615.175
413.50311	5395.975
417.64277	5182.675
421.77947	5068.575
425.9132	5007.175
430.04396	5036.175
434.17176	5048.675
438.2966	5106.075
442.41849	5211.675
446.53742	5314.875
450.6534	5386.075
454.76644	5452.375
458.87653	5454.675
462.98368	5431.775
467.08789	5401.475
471.18916	5301.575
475.2875	5209.875
479.38291	5105.575
483.4754	5050.875
487.56496	5024.775
491.6516	5005.875
495.73531	4999.775
499.81612	5017.575
503.89401	5052.975
507.96899	5100.875
512.04106	5147.275
516.11023	5221.075
520.1765	5280.275
524.23987	5294.575
528.30034	5296.475
532.35792	5244.675
536.41261	5186.275
540.46441	5133.575
544.51333	5080.075
548.55936	5121.175
552.60252	5193.975
556.64279	5276.275
560.6802	5345.375
564.71473	5409.875
568.7464	5529.675
572.7752	5512.475
576.80114	5363.975
580.82422	5231.775
584.84444	5176.375
588.86181	5163.275
592.87633	5184.875
596.888	5293.875
600.89682	5551.375
604.9028	6221.075
608.90594	7700.175
612.90624	9238.375
616.90371	8532.575
620.89834	6407.075
624.89015	5515.875
628.87913	5374.075
632.86528	5510.075
636.84862	5607.675
640.82913	5491.975
644.80683	5283.275
648.78172	5157.875
652.75379	5167.075
656.72306	5330.875
660.68952	5501.075
664.65319	5431.375
668.61405	5278.475
672.57211	5259.975
676.52738	5252.975
680.47986	5199.575
684.42955	5117.675
688.37646	5093.175
692.32058	5124.675
696.26192	5184.175
700.20048	5288.275
704.13626	5294.175
708.06928	5255.075
711.99952	5221.575
715.927	5214.775
719.85171	5265.875
723.77365	5263.275
727.69284	5237.775
731.60928	5201.175
735.52295	5196.475
739.43388	5186.275
743.34206	5207.875
747.24749	5218.275
751.15017	5231.075
755.05012	5295.875
758.94733	5518.775
762.8418	6104.775
766.73354	6980.175
770.62254	7657.775
774.50882	7733.575
778.39237	7328.475
782.27321	6681.575
786.15132	5991.075
790.02671	5534.975
793.89938	5326.075
797.76935	5228.175
801.6366	5188.375
805.50115	5165.375
809.36299	5129.675
813.22213	5129.875
817.07857	5124.475
820.93231	5120.275
824.78336	5125.975
828.63172	5152.875
832.47738	5154.875
836.32036	5151.975
840.16066	5121.875
843.99827	5106.175
847.8332	5105.575
851.66546	5120.175
855.49504	5126.275
859.32195	5139.275
863.1462	5136.675
866.96777	5141.175
870.78668	5134.975
874.60293	5146.075
878.41652	5159.975
882.22745	5214.075
886.03573	5252.975
889.84136	5220.575
893.64433	5208.875
897.44466	5189.175
901.24235	5187.975
905.0374	5183.175
908.8298	5166.975
912.61957	5125.475
916.40671	5117.475
920.19121	5167.175
923.97308	5214.575
927.75233	5278.775
931.52895	5297.275
935.30295	5233.875
939.07433	5137.675
942.84309	5051.775
946.60924	5025.875
950.37278	5016.675
954.13371	5020.575
957.89203	4998.075
961.64774	5011.675
965.40086	5005.575
969.15137	4984.775
972.89929	4996.475
976.64461	4990.275
980.38733	4995.475
984.12747	5012.075
987.86502	5020.675
991.59999	5060.975
995.33237	5091.875
999.06217	5128.975
1002.78939	5223.475
1006.51404	5337.275
1010.23611	5411.575
1013.95561	5460.775
1017.67255	5443.975
1021.38692	5413.575
1025.09872	5342.275
1028.80796	5259.475
1032.51465	5242.775
1036.21877	5245.575
1039.92035	5279.275
1043.61937	5310.175
1047.31584	5323.575
1051.00976	5353.875
1054.70114	5347.275
1058.38998	5334.575
1062.07627	5361.375
1065.76003	5400.875
1069.44126	5477.475
1073.11995	5585.875
1076.79611	5671.875
1080.46974	5781.275
1084.14085	5895.075
1087.80943	5956.075
1091.47549	5972.975
1095.13903	5947.975
1098.80005	5860.375
1102.45857	5799.175
1106.11456	5718.175
1109.76805	5682.975
1113.41903	5700.775
1117.06751	5813.775
1120.71348	5956.175
1124.35696	6186.075
1127.99793	6331.475
1131.63641	6225.075
1135.2724	5995.375
1138.90589	5823.775
1142.5369	5729.475
1146.16542	5689.575
1149.79145	5660.575
1153.415	5585.575
1157.03607	5553.675
1160.65467	5576.475
1164.27079	5686.675
1167.88443	5853.375
1171.49561	6149.775
1175.10432	6604.375
1178.71056	7218.675
1182.31434	7739.775
1185.91565	7874.575
1189.51451	7737.275
1193.11091	7526.775
1196.70485	7288.375
1200.29634	7137.775
1203.88538	6948.875
1207.47197	6654.775
1211.05612	6418.575
1214.63782	6235.675
1218.21708	6070.175
1221.79391	5956.375
1225.36829	5880.575
1228.94024	5859.075
1232.50976	5844.875
1236.07685	5878.775
1239.6415	5892.675
1243.20374	5926.475
1246.76355	5938.175
1250.32093	6012.375
1253.8759	6125.075
1257.42845	6283.375
1260.97859	6474.975
1264.52631	6636.075
1268.07163	6751.775
1271.61453	6818.675
1275.15503	6824.775
1278.69312	6820.675
1282.22882	6841.275
1285.76211	6931.375
1289.29301	7102.375
1292.82151	7261.875
1296.34761	7400.475
1299.87133	7659.075
1303.39266	8128.675
1306.9116	8822.275
1310.42815	9578.775
1313.94233	9773.675
1317.45412	9264.375
1320.96354	8607.975
1324.47058	8002.075
1327.97525	7509.275
1331.47754	7233.775
1334.97747	7182.175
1338.47502	7291.375
1341.97022	7526.775
1345.46305	8038.475
1348.95352	8713.275
1352.44163	9497.575
1355.92738	10359.575
1359.41078	11429.675
1362.89183	12333.375
1366.37053	11854.475
1369.84688	10069.975
1373.32088	8412.075
1376.79254	7454.675
1380.26186	7019.075
1383.72883	6790.275
1387.19347	6555.775
1390.65578	6300.675
1394.11575	6130.075
1397.57339	5993.075
1401.0287	5906.775
1404.48168	5860.075
1407.93234	5866.275
1411.38068	5945.375
1414.82669	5981.175
1418.27039	6013.175
1421.71177	5980.075
1425.15083	5922.475
1428.58758	5891.175
1432.02203	5909.575
1435.45416	5968.975
1438.88399	6021.275
1442.31151	6018.775
1445.73673	6056.475
1449.15965	6093.475
1452.58027	6080.075
1455.9986	6042.275
1459.41463	6016.775
1462.82837	6053.575
1466.23982	6178.375
1469.64898	6337.075
1473.05586	6419.775
1476.46045	6485.975
1479.86276	6514.075
1483.26279	6627.075
1486.66054	6776.275
1490.05602	7008.875
1493.44922	7327.975
1496.84016	7887.675
1500.22882	8741.175
1503.61521	9828.275
1506.99934	10900.775
1510.38121	11538.775
1513.76081	11325.975
1517.13816	10353.575
1520.51324	9077.175
1523.88607	8071.575
1527.25665	7453.475
1530.62498	7141.875
1533.99105	7018.975
1537.35488	6943.975
1540.71647	6875.575
1544.07581	6798.275
1547.4329	6732.875
1550.78776	6663.275
1554.14038	6592.075
1557.49077	6590.275
1560.83892	6678.375
1564.18484	6842.375
1567.52853	7093.575
1570.86999	7305.475
1574.20922	7371.475
1577.54624	7238.475
1580.88103	6878.575
1584.2136	6470.075
1587.54395	6223.875
1590.87208	6187.675
1594.19801	6365.875
1597.52172	6587.875
1600.84321	6694.175
1604.16251	6636.275
1607.47959	6500.675
1610.79447	6321.475
1614.10715	6039.375
1617.41763	5776.975
1620.7259	5595.875
1624.03199	5485.575
1627.33587	5453.275
1630.63757	5484.775
1633.93707	5646.775
1637.23439	5952.475
1640.52951	6445.275
1643.82246	7150.575
1647.11321	7936.575
1650.40179	8384.775
1653.68819	8129.275
1656.97241	7282.575
1660.25446	6349.775
1663.53433	5680.475
1666.81203	5293.875
1670.08756	5073.475
1673.36092	4912.975
1676.63211	4813.075
1679.90115	4771.875
1683.16801	4695.875
1686.43272	4667.875
1689.69527	4641.875
1692.95567	4611.275
1696.2139	4586.575
1699.46999	4583.875
1702.72392	4570.775
1705.97571	4579.175
1709.22535	4573.875
1712.47284	4575.875
1715.71819	4572.675
1718.96139	4559.675
1722.20246	4563.275
1725.44139	4545.275
1728.67818	4510.775
1731.91284	4487.175
1735.14537	4467.075
1738.37576	4450.275
1741.60403	4438.475
1744.83017	4416.875
1748.05418	4410.175
1751.27607	4396.875
1754.49584	4399.675
1757.71349	4370.075
1760.92903	4370.475
1764.14244	4368.575
1767.35375	4377.375
1770.56294	4347.375
1773.77002	4340.375
1776.97499	4329.975
1780.17785	4306.375
1783.37861	4302.975
1786.57727	4283.575
1789.77382	4275.075
1792.96828	4271.675
1796.16064	4274.875
1799.3509	4266.675
1802.53907	4256.775
1805.72514	4231.475
1808.90913	4227.375
1812.09102	4228.575
1815.27083	4214.475
1818.44856	4197.675
1821.6242	4200.275
1824.79776	4185.175
1827.96924	4167.275
1831.13864	4155.875
1834.30597	4156.775
1837.47122	4133.875
1840.6344	4137.175
1843.7955	4141.975
1846.95454	4147.275
1850.11151	4151.275
1853.26642	4135.275
1856.41926	4124.975
1859.57004	4130.375
1862.71876	4131.575
1865.86542	4123.175
1869.01003	4124.275
1872.15258	4110.875
1875.29308	4109.875
1878.43152	4107.275
1881.56792	4107.175
1884.70227	4100.775
1887.83457	4076.375
1890.96482	4087.275
1894.09304	4069.175
1897.21921	4067.775
1900.34335	4063.375
1903.46544	4047.575
1906.58551	4043.775
1909.70353	4023.575
1912.81953	4013.775
1915.93349	4023.475
1919.04543	4022.875
1922.15534	4008.175
1925.26322	3996.975
1928.36908	4004.375
1931.47292	3982.275
1934.57473	3971.175
1937.67453	3971.675
1940.77232	3932.375
1943.86808	3930.975
1946.96184	3929.475
1950.05358	3918.975
1953.14331	3906.375
1956.23103	3902.675
1959.31675	3889.875
1962.40046	3868.775
1965.48217	3860.075
1968.56188	3853.575
1971.63959	3836.575
1974.7153	3831.475
1977.78901	3830.175
1980.86073	3820.875
1983.93046	3795.075
1986.99819	3788.775
1990.06394	3793.675
1993.1277	3744.075
1996.18947	3746.975
1999.24925	3725.675
2002.30706	3719.875
2005.36288	3711.775
2008.41672	3696.775
2011.46859	3687.575
2014.51848	3677.475
2017.56639	3667.775
2020.61233	3657.975
2023.6563	3651.875
2026.6983	3621.275
2029.73833	3614.775
2032.7764	3619.675
2035.8125	3601.875
2038.84664	3582.175
2041.87881	3584.675
2044.90903	3573.575
2047.93729	3567.675
2050.96359	3552.375
2053.98794	3556.075
2057.01034	3560.475
2060.03078	3544.475
2063.04927	3542.475
2066.06582	3556.175
2069.08042	3547.175
2072.09307	3533.375
2075.10378	3520.575
2078.11255	3506.275
2081.11938	3522.275
2084.12426	3537.275
2087.12722	3534.875
2090.12824	3519.075
2093.12732	3527.775
2096.12447	3526.175
2099.11969	3526.675
2102.11299	3528.375
2105.10435	3532.175
2108.09379	3529.675
2111.08131	3511.175
2114.0669	3508.575
2117.05057	3511.875
2120.03233	3525.475
2123.01216	3530.375
2125.99008	3542.675
2128.96609	3534.775
2131.94018	3531.375
2134.91236	3539.875
2137.88263	3540.775
2140.851	3530.475
2143.81746	3535.475
2146.78201	3524.975
2149.74466	3531.975
2152.7054	3526.975
2155.66425	3531.275
2158.6212	3531.775
2161.57625	3523.475
2164.52941	3517.075
2167.48067	3506.375
2170.43004	3508.675
2173.37752	3523.675
2176.32311	3510.475
2179.26681	3506.075
2182.20863	3512.775
2185.14856	3512.275
2188.08661	3510.675
2191.02278	3504.575
2193.95707	3491.475
2196.88948	3495.675
2199.82001	3496.175
2202.74867	3485.875
2205.67545	3493.775
2208.60037	3484.275
2211.52341	3487.875
2214.44458	3478.275
2217.36388	3455.875
2220.28132	3443.275
2223.1969	3431.075
2226.11061	3427.275
2229.02246	3423.475
2231.93245	3427.275
2234.84058	3410.775
2237.74686	3407.875
2240.65128	3412.175
2243.55385	3394.175
2246.45456	3410.575
2249.35343	3394.375
2252.25044	3394.975
2255.14561	3397.075
2258.03893	3381.775
2260.93041	3383.075
2263.82004	3385.275
2266.70783	3376.375
2269.59378	3361.275
2272.4779	3339.575
2275.36017	3332.775
2278.24061	3314.975
2281.11922	3311.975
2283.996	3316.875
2286.87094	3305.075
2289.74405	3297.675
2292.61534	3311.075
2295.4848	3304.975
2298.35243	3301.875
2301.21824	3295.475
2304.08223	3280.475
2306.94439	3293.275
2309.80474	3282.175
2312.66327	3283.175
2315.51999	3274.675
2318.37489	3274.475
2321.22797	3265.075
2324.07925	3244.375
2326.92871	3238.375
2329.77637	3240.175
2332.62222	3232.875
2335.46626	3231.675
2338.3085	3214.875
2341.14893	3217.575
2343.98756	3211.575
2346.8244	3217.175
2349.65943	3210.175
2352.49267	3208.375
2355.32411	3210.275
2358.15376	3213.975
2360.98161	3225.375
2363.80768	3211.675
2366.63195	3222.675
2369.45444	3201.275
2372.27514	3204.575
2375.09405	3202.275
2377.91118	3204.575
2380.72652	3182.775
2383.54009	3169.575
2386.35187	3170.475
2389.16188	3159.175
2391.97011	3159.975
2394.77657	3136.975
2397.58125	3131.475
2400.38416	3121.975
2403.18529	3112.375
2405.98466	3113.575
2408.78226	3116.775
2411.57809	3111.975
2414.37216	3102.075
2417.16446	3098.075
2419.955	3090.675
2422.74378	3100.075
2425.5308	3098.775
2428.31606	3103.175
2431.09956	3086.175
2433.88131	3084.475
2436.6613	3078.775
2439.43954	3083.975
2442.21603	3073.375
2444.99077	3075.675
2447.76377	3078.475
2450.53501	3075.775
2453.30451	3073.175
2456.07226	3076.875
2458.83827	3056.775
2461.60254	3060.575
2464.36507	3066.275
2467.12586	3058.375
2469.88492	3055.475
2472.64224	3064.775
2475.39782	3047.775
2478.15167	3027.875
2480.90379	3039.475
2483.65417	3046.875
2486.40283	3057.875
2489.14976	3050.775
2491.89497	3055.375
2494.63845	3043.075
2497.3802	3038.975
2500.12024	3030.475
2502.85855	3032.875
2505.59514	3025.375
2508.33002	3020.075
2511.06318	3012.475
2513.79462	3007.275
2516.52435	2993.875
2519.25237	2984.075
2521.97867	2975.675
2524.70327	2966.475
2527.42616	2964.275
2530.14734	2963.575
2532.86681	2967.275
2535.58458	2974.275
2538.30065	2962.875
2541.01501	2947.975
2543.72768	2952.175
2546.43864	2947.975
2549.14791	2939.075
2551.85548	2945.375
2554.56136	2937.575
2557.26554	2934.075
2559.96803	2922.575
2562.66883	2925.975
2565.36794	2915.175
2568.06536	2913.875
2570.7611	2905.975
2573.45514	2898.275
2576.14751	2885.575
2578.83819	2877.675
2581.52719	2877.575
2584.21451	2868.475
2586.90015	2863.375
2589.58411	2856.175
2592.2664	2848.575
2594.94701	2854.775
2597.62594	2849.075
2600.30321	2846.875
2602.9788	2839.675
2605.65273	2831.775
2608.32498	2828.175
2610.99557	2828.975
2613.66449	2833.975
2616.33175	2827.275
2618.99734	2813.775
2621.66128	2806.575
2624.32355	2810.375
2626.98416	2796.575
2629.64311	2791.075
2632.30041	2786.675
2634.95605	2780.975
2637.61004	2768.375
2640.26238	2763.675
2642.91306	2763.275
2645.56209	2782.175
2648.20948	2759.075
2650.85521	2760.875
2653.4993	2768.575
2656.14175	2764.775
2658.78255	2759.675
2661.42171	2758.275
2664.05923	2758.975
2666.6951	2754.075
2669.32934	2765.775
2671.96194	2744.775
2674.59291	2746.475
2677.22224	2736.975
2679.84993	2740.575
2682.476	2748.875
2685.10043	2752.075
2687.72324	2747.475
2690.34441	2748.775
2692.96396	2743.675
2695.58188	2734.375
2698.19818	2745.375
2700.81285	2746.075
2703.4259	2726.875
2706.03733	2747.675
2708.64714	2736.075
2711.25533	2729.175
2713.86191	2734.675
2716.46687	2731.075
2719.07021	2730.675
2721.67194	2717.475
2724.27206	2728.675
2726.87057	2726.675
2729.46747	2724.875
2732.06276	2719.075
2734.65644	2722.775
2737.24852	2725.375
2739.83899	2718.175
2742.42786	2732.275
2745.01513	2693.375
2747.60079	2703.175
2750.18486	2703.575
2752.76733	2689.875
2755.3482	2702.675
2757.92747	2682.875
2760.50515	2677.575
2763.08123	2680.675
2765.65573	2668.575
2768.22863	2645.975
2770.79994	2636.975
2773.36967	2658.975
2775.9378	2657.875
2778.50435	2649.975
2781.06932	2657.175
2783.6327	2640.175
2786.1945	2635.075
2788.75471	2641.275
2791.31335	2632.775
2793.87041	2628.975
2796.42589	2630.075
2798.97979	2632.275
2801.53212	2609.975
2804.08288	2615.575
2806.63206	2610.975
2809.17967	2606.875
2811.72571	2602.075
2814.27018	2581.475
2816.81308	2593.275
2819.35442	2587.975
2821.89419	2566.475
2824.43239	2558.875
2826.96904	2558.675
2829.50412	2568.975
2832.03763	2550.475
2834.56959	2553.175
2837.1	2540.075
2839.62884	2529.975
2842.15613	2515.375
2844.68186	2528.475
2847.20604	2528.575
2849.72867	2531.475
2852.24974	2512.075
2854.76927	2520.175
2857.28724	2504.975
2859.80367	2508.975
2862.31855	2491.975
2864.83189	2514.175
2867.34368	2502.475
2869.85393	2511.875
2872.36264	2495.275
2874.8698	2503.675
2877.37543	2496.675
2879.87952	2490.175
2882.38207	2479.975
2884.88308	2477.575
2887.38256	2487.975
2889.88051	2474.375
2892.37692	2470.375
2894.8718	2468.875
2897.36515	2472.875
2899.85698	2462.675
2902.34727	2470.675
2904.83604	2475.475
2907.32328	2467.075
2909.809	2478.375
2912.29319	2480.775
2914.77587	2481.175
2917.25702	2489.175
2919.73665	2471.675
2922.21476	2482.275
2924.69136	2479.275
2927.16644	2463.875
2929.64	2460.075
2932.11205	2453.775
2934.58258	2444.475
2937.05161	2444.975
2939.51912	2454.475
2941.98513	2444.575
2944.44962	2437.275
2946.91261	2442.875
2949.37409	2437.675
2951.83407	2441.675
2954.29254	2437.475
2956.74951	2420.275
2959.20498	2433.275
2961.65895	2419.875
2964.11142	2420.975
2966.56239	2401.575
2969.01186	2414.775
2971.45984	2413.375
2973.90632	2411.075
2976.35131	2412.775
2978.7948	2414.875
2981.23681	2402.775
2983.67732	2400.875
2986.11635	2393.775
2988.55388	2388.575
2990.98993	2371.975
2993.4245	2368.175
2995.85758	2368.275
2998.28917	2364.875
3000.71928	2353.275
3003.14791	2363.175
3005.57506	2357.675
3008.00073	2336.775
3010.42493	2336.575
3012.84764	2329.075
3015.26888	2327.275
3017.68865	2323.875
3020.10694	2319.975
3022.52376	2308.475
3024.9391	2299.975
3027.35298	2303.575
3029.76539	2297.975
3032.17632	2294.475
3034.5858	2280.475
3036.9938	2286.175
3039.40034	2273.975
3041.80542	2266.875
3044.20903	2268.275
3046.61118	2279.875
3049.01187	2250.875
3051.4111	2250.275
3053.80888	2249.975
3056.20519	2240.875
3058.60005	2242.875
3060.99345	2242.675
3063.3854	2238.075
3065.7759	2236.875
3068.16494	2223.175
3070.55254	2214.975
3072.93868	2207.975
3075.32338	2195.675
3077.70662	2200.375
3080.08842	2195.675
3082.46878	2178.775
3084.84769	2169.975
3087.22515	2175.075
3089.60118	2166.675
3091.97576	2172.875
3094.3489	2178.775
3096.72061	2170.175
3099.09087	2173.275
3101.4597	2175.075
3103.82709	2161.975
3106.19305	2155.575
3108.55757	2155.975
3110.92066	2149.475
3113.28232	2152.575
3115.64255	2153.075
3118.00134	2146.475
3120.35871	2136.175
3122.71466	2123.975
3125.06917	2116.375
3127.42226	2123.275
3129.77393	2124.075
3132.12417	2113.575
3134.47299	2116.575
3136.82039	2104.975
3139.16636	2114.775
3141.51092	2096.475
3143.85406	2099.575
3146.19579	2098.675
3148.53609	2103.975
3150.87499	2106.175
3153.21246	2123.075
3155.54853	2106.775
3157.88318	2112.275
3160.21642	2105.275
3162.54826	2103.675
3164.87868	2096.575
3167.2077	2107.475
3169.5353	2091.575
3171.86151	2091.775
3174.18631	2092.275
3176.5097	2093.775
3178.83169	2094.475
3181.15228	2081.275
3183.47147	2074.975
3185.78926	2069.275
3188.10565	2052.075
3190.42065	2064.175
3192.73424	2057.675
3195.04645	2052.275
3197.35725	2049.375
3199.66667	2042.975
3201.97469	2053.775
3204.28132	2044.875
3206.58656	2057.575
3208.8904	2047.675
3211.19287	2051.075
3213.49394	2061.475
3215.79363	2055.775
3218.09193	2054.375
3220.38884	2041.875
3222.68438	2046.875
3224.97853	2038.275
3227.2713	2035.375
3229.56269	2031.675
3231.8527	2015.975
3234.14133	2031.775
3236.42858	2022.275
3238.71446	2010.875
