Data from AgNPs_UA_50uM_CRN_500uM_SU_RamanShift__72__14-07-50-330.txt Node

Date: Thu Aug 04 14:07:50 BST 2022
User: TCL
Spectrometer: QEP01345
Trigger mode: 4
Integration Time (sec): 1.000000E0
Scans to average: 10
Electric dark correction enabled: true
Nonlinearity correction enabled: false
Boxcar width: 0
XAxis mode: Raman Shifts
Number of Pixels in Spectrum: 1044
>>>>>Begin Spectral Data<<<<<
46.04893	0.525
50.45542	-0.575
54.85868	0.525
59.25871	-1.775
63.6555	17.625
68.04907	18.025
72.43941	18.725
76.82654	20.325
81.21044	19.525
85.59113	22.725
89.96862	23.325
94.34289	23.125
98.71396	24.325
103.08183	23.525
107.4465	23.325
111.80798	24.225
116.16626	22.025
120.52136	26.125
124.87327	27.425
129.222	33.625
133.56755	34.125
137.90993	35.425
142.24913	37.725
146.58517	44.425
150.91804	54.325
155.24774	64.825
159.57429	79.725
163.89768	103.525
168.21792	137.925
172.53501	188.925
176.84895	266.425
181.15975	379.125
185.46741	531.425
189.77193	740.125
194.07331	987.625
198.37157	1283.025
202.6667	1584.125
206.9587	1882.625
211.24758	2193.725
215.53334	2482.025
219.81599	2814.125
224.09553	3172.325
228.37195	3581.925
232.64527	4009.125
236.91549	4444.525
241.18261	4829.425
245.44663	5154.425
249.70755	5399.025
253.96539	5619.125
258.22014	5812.425
262.4718	5990.925
266.72039	6123.725
270.96589	6198.025
275.20832	6154.325
279.44768	6059.225
283.68397	5969.525
287.91719	5886.525
292.14735	5884.425
296.37445	5969.225
300.59849	6181.925
304.81948	6396.025
309.03742	6615.225
313.25231	6683.125
317.46415	6566.825
321.67296	6304.425
325.87872	6060.625
330.08145	5940.025
334.28114	5954.725
338.47781	6037.225
342.67145	6186.525
346.86207	6368.225
351.04966	6613.525
355.23424	6894.225
359.4158	7073.925
363.59435	7194.225
367.76989	7263.525
371.94243	7240.925
376.11196	7236.725
380.27849	7268.625
384.44203	7262.025
388.60257	7272.325
392.76012	7306.225
396.91468	7392.225
401.06626	7509.825
405.21485	7578.025
409.36047	7476.325
413.50311	7206.025
417.64277	6965.925
421.77947	6803.925
425.9132	6770.225
430.04396	6776.225
434.17176	6865.025
438.2966	7010.025
442.41849	7216.125
446.53742	7448.425
450.6534	7693.625
454.76644	7867.725
458.87653	7872.725
462.98368	7779.225
467.08789	7626.025
471.18916	7443.325
475.2875	7197.625
479.38291	7017.425
483.4754	6880.325
487.56496	6795.825
491.6516	6722.925
495.73531	6699.225
499.81612	6723.025
503.89401	6759.325
507.96899	6807.625
512.04106	6853.325
516.11023	6958.625
520.1765	7025.725
524.23987	7045.725
528.30034	7055.225
532.35792	6984.725
536.41261	6905.225
540.46441	6799.625
544.51333	6772.825
548.55936	6829.425
552.60252	6932.025
556.64279	7055.425
560.6802	7127.725
564.71473	7146.425
568.7464	7257.425
572.7752	7268.525
576.80114	7114.425
580.82422	7029.525
584.84444	7032.725
588.86181	7189.425
592.87633	7421.125
596.888	7605.725
600.89682	7900.025
604.9028	8761.225
608.90594	10631.425
612.90624	12346.125
616.90371	11226.225
620.89834	8692.925
624.89015	7773.025
628.87913	7762.325
632.86528	7696.225
636.84862	7487.825
640.82913	7257.325
644.80683	6955.825
648.78172	6822.225
652.75379	6837.825
656.72306	7101.825
660.68952	7356.625
664.65319	7275.125
668.61405	7124.625
672.57211	7102.325
676.52738	7071.025
680.47986	6936.525
684.42955	6857.525
688.37646	6859.025
692.32058	6935.625
696.26192	7052.525
700.20048	7172.425
704.13626	7172.925
708.06928	7069.325
711.99952	7005.225
715.927	6999.425
719.85171	7064.425
723.77365	7015.025
727.69284	6957.525
731.60928	6919.025
735.52295	6927.525
739.43388	6971.125
743.34206	7014.625
747.24749	7049.025
751.15017	7097.525
755.05012	7192.025
758.94733	7453.925
762.8418	8125.225
766.73354	9122.525
770.62254	9973.525
774.50882	10195.625
778.39237	9694.125
782.27321	8783.225
786.15132	7955.625
790.02671	7451.525
793.89938	7192.125
797.76935	7094.725
801.6366	7044.625
805.50115	7022.325
809.36299	6978.425
813.22213	6941.425
817.07857	6924.725
820.93231	6917.425
824.78336	6922.625
828.63172	6951.825
832.47738	6985.925
836.32036	6992.825
840.16066	7028.425
843.99827	7064.625
847.8332	7035.425
851.66546	6969.325
855.49504	6984.825
859.32195	6979.625
863.1462	6951.025
866.96777	6906.825
870.78668	6928.925
874.60293	6932.425
878.41652	6956.825
882.22745	6975.825
886.03573	7017.525
889.84136	7009.725
893.64433	6971.325
897.44466	6948.525
901.24235	6948.325
905.0374	6919.325
908.8298	6909.425
912.61957	6877.025
916.40671	6927.125
920.19121	7029.825
923.97308	7138.725
927.75233	7248.125
931.52895	7305.425
935.30295	7232.125
939.07433	7054.025
942.84309	6911.625
946.60924	6892.725
950.37278	6864.825
954.13371	6823.325
957.89203	6756.025
961.64774	6722.425
965.40086	6690.325
969.15137	6714.725
972.89929	6671.825
976.64461	6680.925
980.38733	6698.625
984.12747	6723.325
987.86502	6782.225
991.59999	6917.325
995.33237	7092.725
999.06217	7428.525
1002.78939	7754.925
1006.51404	7822.225
1010.23611	7843.725
1013.95561	7933.425
1017.67255	8020.325
1021.38692	8020.125
1025.09872	8045.925
1028.80796	8203.825
1032.51465	8532.525
1036.21877	8754.725
1039.92035	8697.125
1043.61937	8462.025
1047.31584	8147.825
1051.00976	7845.425
1054.70114	7695.225
1058.38998	7669.425
1062.07627	7648.025
1065.76003	7598.425
1069.44126	7628.625
1073.11995	7721.225
1076.79611	7795.025
1080.46974	7921.325
1084.14085	8054.925
1087.80943	8138.325
1091.47549	8120.425
1095.13903	7981.025
1098.80005	7828.725
1102.45857	7767.125
1106.11456	7773.625
1109.76805	7818.525
1113.41903	7934.025
1117.06751	8050.725
1120.71348	8258.625
1124.35696	8473.225
1127.99793	8586.025
1131.63641	8456.525
1135.2724	8196.225
1138.90589	7969.325
1142.5369	7827.225
1146.16542	7711.525
1149.79145	7652.925
1153.415	7649.225
1157.03607	7675.625
1160.65467	7784.725
1164.27079	7996.925
1167.88443	8332.725
1171.49561	8909.825
1175.10432	9716.525
1178.71056	10769.025
1182.31434	11688.825
1185.91565	12109.525
1189.51451	11944.025
1193.11091	11348.425
1196.70485	10655.825
1200.29634	10130.725
1203.88538	9649.225
1207.47197	9174.525
1211.05612	8825.025
1214.63782	8617.025
1218.21708	8584.325
1221.79391	8692.825
1225.36829	8799.425
1228.94024	8783.525
1232.50976	8617.825
1236.07685	8499.425
1239.6415	8487.125
1243.20374	8518.125
1246.76355	8581.525
1250.32093	8727.825
1253.8759	8945.025
1257.42845	9235.125
1260.97859	9555.025
1264.52631	9798.925
1268.07163	10040.225
1271.61453	10247.125
1275.15503	10425.525
1278.69312	10687.225
1282.22882	10934.025
1285.76211	11110.125
1289.29301	11265.525
1292.82151	11445.625
1296.34761	11726.325
1299.87133	12289.025
1303.39266	13174.425
1306.9116	14495.725
1310.42815	15837.325
1313.94233	16414.025
1317.45412	15915.125
1320.96354	14839.225
1324.47058	13757.525
1327.97525	12911.325
1331.47754	12444.325
1334.97747	12355.225
1338.47502	12506.725
1341.97022	12873.625
1345.46305	13314.525
1348.95352	13995.725
1352.44163	14795.825
1355.92738	15904.925
1359.41078	17381.125
1362.89183	18318.425
1366.37053	17320.925
1369.84688	14900.825
1373.32088	12729.125
1376.79254	11456.225
1380.26186	10858.625
1383.72883	10549.125
1387.19347	10269.225
1390.65578	9865.625
1394.11575	9598.925
1397.57339	9474.225
1401.0287	9489.125
1404.48168	9562.625
1407.93234	9711.525
1411.38068	9927.525
1414.82669	10039.825
1418.27039	9972.125
1421.71177	9805.625
1425.15083	9675.225
1428.58758	9691.425
1432.02203	9865.425
1435.45416	10036.525
1438.88399	10077.725
1442.31151	10015.025
1445.73673	9975.725
1449.15965	9921.925
1452.58027	9818.125
1455.9986	9654.625
1459.41463	9591.825
1462.82837	9666.425
1466.23982	9874.425
1469.64898	10093.325
1473.05586	10273.725
1476.46045	10429.925
1479.86276	10563.325
1483.26279	10691.725
1486.66054	10827.925
1490.05602	11053.225
1493.44922	11428.825
1496.84016	12007.225
1500.22882	12794.425
1503.61521	13879.725
1506.99934	14969.325
1510.38121	15662.125
1513.76081	15485.625
1517.13816	14379.925
1520.51324	13025.925
1523.88607	11948.425
1527.25665	11311.925
1530.62498	10969.125
1533.99105	10777.425
1537.35488	10675.625
1540.71647	10590.325
1544.07581	10494.025
1547.4329	10329.825
1550.78776	10186.425
1554.14038	10045.925
1557.49077	10024.025
1560.83892	10047.825
1564.18484	10172.425
1567.52853	10372.225
1570.86999	10466.725
1574.20922	10483.925
1577.54624	10326.425
1580.88103	9916.225
1584.2136	9566.325
1587.54395	9506.125
1590.87208	9890.025
1594.19801	10707.425
1597.52172	11674.125
1600.84321	12155.925
1604.16251	11902.625
1607.47959	11189.425
1610.79447	10304.725
1614.10715	9473.525
1617.41763	8831.525
1620.7259	8424.825
1624.03199	8240.225
1627.33587	8296.525
1630.63757	8541.325
1633.93707	9061.525
1637.23439	9838.125
1640.52951	10798.125
1643.82246	11914.625
1647.11321	12790.925
1650.40179	12854.225
1653.68819	11870.425
1656.97241	10316.425
1660.25446	8944.825
1663.53433	8041.425
1666.81203	7471.525
1670.08756	7183.825
1673.36092	6972.725
1676.63211	6794.825
1679.90115	6727.225
1683.16801	6631.525
1686.43272	6557.925
1689.69527	6519.325
1692.95567	6493.125
1696.2139	6472.225
1699.46999	6457.325
1702.72392	6466.025
1705.97571	6459.625
1709.22535	6454.325
1712.47284	6446.525
1715.71819	6455.725
1718.96139	6445.525
1722.20246	6429.925
1725.44139	6390.825
1728.67818	6365.425
1731.91284	6305.525
1735.14537	6305.225
1738.37576	6279.025
1741.60403	6256.125
1744.83017	6231.825
1748.05418	6222.725
1751.27607	6202.425
1754.49584	6178.125
1757.71349	6156.825
1760.92903	6177.325
1764.14244	6153.325
1767.35375	6157.525
1770.56294	6139.725
1773.77002	6134.025
1776.97499	6110.425
1780.17785	6096.025
1783.37861	6082.825
1786.57727	6085.925
1789.77382	6068.625
1792.96828	6065.525
1796.16064	6050.525
1799.3509	6042.225
1802.53907	6041.725
1805.72514	6043.425
1808.90913	6008.225
1812.09102	6010.125
1815.27083	5984.525
1818.44856	5981.925
1821.6242	5967.925
1824.79776	5940.825
1827.96924	5927.825
1831.13864	5911.425
1834.30597	5907.525
1837.47122	5888.825
1840.6344	5906.925
1843.7955	5905.925
1846.95454	5884.225
1850.11151	5894.325
1853.26642	5897.625
1856.41926	5885.325
1859.57004	5889.225
1862.71876	5895.925
1865.86542	5894.825
1869.01003	5887.325
1872.15258	5874.625
1875.29308	5878.125
1878.43152	5888.025
1881.56792	5887.125
1884.70227	5867.225
1887.83457	5886.825
1890.96482	5868.725
1894.09304	5841.225
1897.21921	5824.225
1900.34335	5826.325
1903.46544	5819.525
1906.58551	5805.225
1909.70353	5802.425
1912.81953	5782.225
1915.93349	5787.025
1919.04543	5778.525
1922.15534	5787.625
1925.26322	5766.925
1928.36908	5777.725
1931.47292	5756.125
1934.57473	5748.825
1937.67453	5738.625
1940.77232	5737.425
1943.86808	5710.725
1946.96184	5692.325
1950.05358	5686.325
1953.14331	5632.925
1956.23103	5635.025
1959.31675	5615.125
1962.40046	5601.925
1965.48217	5590.825
1968.56188	5570.125
1971.63959	5565.425
1974.7153	5557.725
1977.78901	5540.725
1980.86073	5525.525
1983.93046	5508.725
1986.99819	5485.525
1990.06394	5454.325
1993.1277	5454.225
1996.18947	5434.825
1999.24925	5411.125
2002.30706	5378.125
2005.36288	5354.025
2008.41672	5355.025
2011.46859	5349.725
2014.51848	5334.425
2017.56639	5297.925
2020.61233	5303.325
2023.6563	5280.025
2026.6983	5273.125
2029.73833	5272.125
2032.7764	5242.625
2035.8125	5230.525
2038.84664	5245.425
2041.87881	5252.225
2044.90903	5215.625
2047.93729	5211.525
2050.96359	5211.025
2053.98794	5197.425
2057.01034	5191.325
2060.03078	5169.425
2063.04927	5201.425
2066.06582	5186.925
2069.08042	5154.125
2072.09307	5146.025
2075.10378	5144.125
2078.11255	5148.525
2081.11938	5141.225
2084.12426	5157.425
2087.12722	5147.925
2090.12824	5137.725
2093.12732	5150.225
2096.12447	5138.525
2099.11969	5140.025
2102.11299	5162.325
2105.10435	5144.825
2108.09379	5136.925
2111.08131	5150.125
2114.0669	5124.725
2117.05057	5159.225
2120.03233	5147.325
2123.01216	5144.925
2125.99008	5160.725
2128.96609	5165.225
2131.94018	5159.625
2134.91236	5155.525
2137.88263	5137.825
2140.851	5160.325
2143.81746	5169.325
2146.78201	5159.225
2149.74466	5156.525
2152.7054	5149.725
2155.66425	5161.625
2158.6212	5163.825
2161.57625	5129.525
2164.52941	5131.925
2167.48067	5142.425
2170.43004	5154.425
2173.37752	5133.825
2176.32311	5137.625
2179.26681	5165.325
2182.20863	5141.925
2185.14856	5149.625
2188.08661	5154.825
2191.02278	5139.025
2193.95707	5149.825
2196.88948	5139.825
2199.82001	5113.725
2202.74867	5128.125
2205.67545	5126.025
2208.60037	5130.225
2211.52341	5134.325
2214.44458	5132.025
2217.36388	5120.025
2220.28132	5124.125
2223.1969	5093.325
2226.11061	5082.425
2229.02246	5073.525
2231.93245	5071.825
2234.84058	5069.125
2237.74686	5048.525
2240.65128	5032.625
2243.55385	5021.825
2246.45456	5018.125
2249.35343	5020.325
2252.25044	5028.825
2255.14561	5007.125
2258.03893	5021.725
2260.93041	4996.025
2263.82004	4981.725
2266.70783	4992.625
2269.59378	4964.225
2272.4779	4943.025
2275.36017	4920.925
2278.24061	4912.925
2281.11922	4902.225
2283.996	4914.625
2286.87094	4892.625
2289.74405	4898.225
2292.61534	4896.925
2295.4848	4883.425
2298.35243	4893.225
2301.21824	4879.725
2304.08223	4879.425
2306.94439	4892.625
2309.80474	4904.025
2312.66327	4901.825
2315.51999	4911.125
2318.37489	4895.525
2321.22797	4913.725
2324.07925	4891.925
2326.92871	4868.625
2329.77637	4901.725
2332.62222	4868.725
2335.46626	4867.025
2338.3085	4880.925
2341.14893	4881.425
2343.98756	4895.725
2346.8244	4888.325
2349.65943	4887.225
2352.49267	4882.725
2355.32411	4884.425
2358.15376	4893.025
2360.98161	4875.125
2363.80768	4870.125
2366.63195	4844.425
2369.45444	4844.625
2372.27514	4847.225
2375.09405	4830.425
2377.91118	4826.425
2380.72652	4816.925
2383.54009	4779.625
2386.35187	4780.225
2389.16188	4780.725
2391.97011	4773.125
2394.77657	4758.025
2397.58125	4748.125
2400.38416	4736.125
2403.18529	4709.925
2405.98466	4712.325
2408.78226	4691.325
2411.57809	4680.425
2414.37216	4674.625
2417.16446	4658.725
2419.955	4652.825
2422.74378	4666.925
2425.5308	4643.225
2428.31606	4642.825
2431.09956	4659.825
2433.88131	4629.225
2436.6613	4642.925
2439.43954	4641.825
2442.21603	4647.025
2444.99077	4636.525
2447.76377	4635.225
2450.53501	4629.125
2453.30451	4619.425
2456.07226	4616.425
2458.83827	4616.825
2461.60254	4634.825
2464.36507	4616.225
2467.12586	4608.725
2469.88492	4604.825
2472.64224	4604.425
2475.39782	4607.225
2478.15167	4597.725
2480.90379	4602.425
2483.65417	4620.025
2486.40283	4615.725
2489.14976	4639.125
2491.89497	4636.025
2494.63845	4627.925
2497.3802	4620.125
2500.12024	4618.725
2502.85855	4603.825
2505.59514	4616.225
2508.33002	4606.425
2511.06318	4576.225
2513.79462	4584.025
2516.52435	4558.025
2519.25237	4542.625
2521.97867	4563.525
2524.70327	4546.225
2527.42616	4543.225
2530.14734	4552.925
2532.86681	4561.325
2535.58458	4558.425
2538.30065	4555.425
2541.01501	4542.325
2543.72768	4546.525
2546.43864	4537.225
2549.14791	4530.025
2551.85548	4528.725
2554.56136	4530.225
2557.26554	4518.925
2559.96803	4507.725
2562.66883	4490.225
2565.36794	4493.825
2568.06536	4498.125
2570.7611	4485.625
2573.45514	4480.425
2576.14751	4480.325
2578.83819	4474.225
2581.52719	4472.425
2584.21451	4455.425
2586.90015	4461.625
2589.58411	4452.025
2592.2664	4460.525
2594.94701	4455.725
2597.62594	4462.125
2600.30321	4447.725
2602.9788	4461.725
2605.65273	4447.925
2608.32498	4448.825
2610.99557	4438.625
2613.66449	4453.725
2616.33175	4450.025
2618.99734	4446.925
2621.66128	4454.425
2624.32355	4429.725
2626.98416	4461.425
2629.64311	4442.325
2632.30041	4443.625
2634.95605	4441.925
2637.61004	4437.925
2640.26238	4413.125
2642.91306	4421.625
2645.56209	4409.925
2648.20948	4404.825
2650.85521	4393.525
2653.4993	4388.925
2656.14175	4392.925
2658.78255	4389.825
2661.42171	4396.325
2664.05923	4379.925
2666.6951	4394.825
2669.32934	4392.225
2671.96194	4392.325
2674.59291	4398.525
2677.22224	4402.225
2679.84993	4387.325
2682.476	4378.125
2685.10043	4360.825
2687.72324	4382.925
2690.34441	4378.525
2692.96396	4357.625
2695.58188	4349.825
2698.19818	4354.325
2700.81285	4370.725
2703.4259	4355.825
2706.03733	4358.725
2708.64714	4352.325
2711.25533	4342.525
2713.86191	4327.125
2716.46687	4333.925
2719.07021	4338.625
2721.67194	4355.425
2724.27206	4344.525
2726.87057	4344.225
2729.46747	4355.625
2732.06276	4345.325
2734.65644	4351.925
2737.24852	4332.825
2739.83899	4327.525
2742.42786	4329.325
2745.01513	4326.525
2747.60079	4311.325
2750.18486	4325.625
2752.76733	4306.225
2755.3482	4310.025
2757.92747	4293.825
2760.50515	4297.725
2763.08123	4301.725
2765.65573	4275.525
2768.22863	4270.125
2770.79994	4265.325
2773.36967	4268.025
2775.9378	4292.025
2778.50435	4279.725
2781.06932	4291.525
2783.6327	4272.825
2786.1945	4261.425
2788.75471	4275.725
2791.31335	4265.225
2793.87041	4252.125
2796.42589	4239.425
2798.97979	4232.725
2801.53212	4225.925
2804.08288	4220.125
2806.63206	4228.325
2809.17967	4200.025
2811.72571	4189.125
2814.27018	4196.825
2816.81308	4196.325
2819.35442	4192.125
2821.89419	4159.525
2824.43239	4166.325
2826.96904	4155.225
2829.50412	4163.925
2832.03763	4155.125
2834.56959	4146.225
2837.1	4137.025
2839.62884	4144.225
2842.15613	4132.925
2844.68186	4132.025
2847.20604	4116.025
2849.72867	4113.525
2852.24974	4123.325
2854.76927	4109.925
2857.28724	4092.125
2859.80367	4092.325
2862.31855	4099.125
2864.83189	4084.525
2867.34368	4087.225
2869.85393	4089.125
2872.36264	4073.325
2874.8698	4072.625
2877.37543	4072.325
2879.87952	4071.025
2882.38207	4067.525
2884.88308	4065.925
2887.38256	4065.825
2889.88051	4061.925
2892.37692	4068.625
2894.8718	4050.125
2897.36515	4054.625
2899.85698	4053.925
2902.34727	4052.025
2904.83604	4050.125
2907.32328	4086.325
2909.809	4072.325
2912.29319	4086.225
2914.77587	4080.125
2917.25702	4082.825
2919.73665	4079.125
2922.21476	4072.225
2924.69136	4070.225
2927.16644	4049.325
2929.64	4053.525
2932.11205	4035.825
2934.58258	4033.425
2937.05161	4037.025
2939.51912	4028.625
2941.98513	4021.725
2944.44962	4006.925
2946.91261	4009.125
2949.37409	4032.425
2951.83407	4016.825
2954.29254	4021.625
2956.74951	4021.825
2959.20498	4020.525
2961.65895	3999.125
2964.11142	3987.025
2966.56239	3980.225
2969.01186	3980.125
2971.45984	3960.325
2973.90632	3970.825
2976.35131	3949.625
2978.7948	3956.925
2981.23681	3957.725
2983.67732	3935.125
2986.11635	3929.425
2988.55388	3916.325
2990.98993	3891.725
2993.4245	3887.025
2995.85758	3879.825
2998.28917	3878.425
3000.71928	3883.425
3003.14791	3857.125
3005.57506	3850.725
3008.00073	3830.125
3010.42493	3821.725
3012.84764	3825.325
3015.26888	3817.925
3017.68865	3812.925
3020.10694	3795.225
3022.52376	3785.125
3024.9391	3760.525
3027.35298	3744.125
3029.76539	3760.625
3032.17632	3770.925
3034.5858	3752.925
3036.9938	3739.525
3039.40034	3746.025
3041.80542	3731.825
3044.20903	3740.225
3046.61118	3734.625
3049.01187	3719.125
3051.4111	3704.125
3053.80888	3711.025
3056.20519	3696.025
3058.60005	3672.125
3060.99345	3673.425
3063.3854	3688.225
3065.7759	3660.325
3068.16494	3646.525
3070.55254	3628.525
3072.93868	3619.425
3075.32338	3595.125
3077.70662	3599.225
3080.08842	3579.325
3082.46878	3593.225
3084.84769	3580.025
3087.22515	3557.125
3089.60118	3587.925
3091.97576	3579.725
3094.3489	3570.925
3096.72061	3571.625
3099.09087	3556.725
3101.4597	3544.925
3103.82709	3551.625
3106.19305	3541.125
3108.55757	3530.525
3110.92066	3528.225
3113.28232	3532.025
3115.64255	3521.925
3118.00134	3522.625
3120.35871	3509.825
3122.71466	3511.325
3125.06917	3502.525
3127.42226	3484.025
3129.77393	3498.625
3132.12417	3484.425
3134.47299	3487.725
3136.82039	3480.925
3139.16636	3469.325
3141.51092	3462.425
3143.85406	3461.025
3146.19579	3447.625
3148.53609	3455.025
3150.87499	3464.725
3153.21246	3455.625
3155.54853	3462.325
3157.88318	3449.425
3160.21642	3470.025
3162.54826	3451.025
3164.87868	3439.525
3167.2077	3446.525
3169.5353	3423.625
3171.86151	3427.825
3174.18631	3439.825
3176.5097	3418.425
3178.83169	3427.325
3181.15228	3427.625
3183.47147	3418.225
3185.78926	3410.425
3188.10565	3388.625
3190.42065	3386.825
3192.73424	3388.625
3195.04645	3378.925
3197.35725	3395.125
3199.66667	3390.625
3201.97469	3387.325
3204.28132	3378.025
3206.58656	3382.725
3208.8904	3384.925
3211.19287	3392.025
3213.49394	3391.225
3215.79363	3371.725
3218.09193	3381.225
3220.38884	3380.425
3222.68438	3395.225
3224.97853	3374.425
3227.2713	3374.125
3229.56269	3358.325
