Data from AgNPs_UA_5uM_CRN_500uM_SU_RamanShift__188__12-00-43-177.txt Node

Date: Thu Aug 04 12:00:43 BST 2022
User: TCL
Spectrometer: QEP01345
Trigger mode: 4
Integration Time (sec): 1.000000E0
Scans to average: 10
Electric dark correction enabled: true
Nonlinearity correction enabled: false
Boxcar width: 0
XAxis mode: Raman Shifts
Number of Pixels in Spectrum: 1044
>>>>>Begin Spectral Data<<<<<
46.04893	-0.075
50.45542	-0.675
54.85868	0.025
59.25871	0.125
63.6555	-58.975
68.04907	-39.375
72.43941	-70.875
76.82654	-56.575
81.21044	-58.175
85.59113	-48.775
89.96862	-74.175
94.34289	-53.575
98.71396	-77.375
103.08183	-57.675
107.4465	-48.775
111.80798	-57.475
116.16626	-43.075
120.52136	-74.675
124.87327	-48.775
129.222	-62.975
133.56755	-47.575
137.90993	-64.175
142.24913	-50.675
146.58517	-41.875
150.91804	-39.675
155.24774	-30.275
159.57429	-6.975
163.89768	-3.075
168.21792	40.025
172.53501	59.625
176.84895	144.925
181.15975	270.125
185.46741	422.825
189.77193	604.225
194.07331	891.725
198.37157	1187.025
202.6667	1472.525
206.9587	1793.025
211.24758	2117.525
215.53334	2433.025
219.81599	2793.025
224.09553	3198.525
228.37195	3634.125
232.64527	4101.025
236.91549	4572.825
241.18261	4928.425
245.44663	5217.225
249.70755	5383.525
253.96539	5530.525
258.22014	5625.625
262.4718	5706.925
266.72039	5741.425
270.96589	5706.325
275.20832	5603.725
279.44768	5481.025
283.68397	5383.125
287.91719	5329.125
292.14735	5359.825
296.37445	5539.325
300.59849	5810.425
304.81948	6157.625
309.03742	6524.625
313.25231	6757.125
317.46415	6712.625
321.67296	6300.425
325.87872	5924.725
330.08145	5719.125
334.28114	5689.625
338.47781	5737.125
342.67145	5886.925
346.86207	6120.425
351.04966	6506.625
355.23424	6890.725
359.4158	7154.225
363.59435	7197.925
367.76989	7145.825
371.94243	7002.225
376.11196	6887.525
380.27849	6798.025
384.44203	6737.425
388.60257	6681.225
392.76012	6703.225
396.91468	6805.125
401.06626	6972.325
405.21485	7011.525
409.36047	6848.425
413.50311	6521.325
417.64277	6224.325
421.77947	6025.225
425.9132	5973.225
430.04396	5936.725
434.17176	6001.525
438.2966	6069.325
442.41849	6161.625
446.53742	6284.825
450.6534	6402.025
454.76644	6460.625
458.87653	6474.325
462.98368	6431.725
467.08789	6371.525
471.18916	6286.525
475.2875	6188.725
479.38291	6070.625
483.4754	5943.425
487.56496	5912.825
491.6516	5895.925
495.73531	5903.025
499.81612	5920.425
503.89401	5998.825
507.96899	6057.125
512.04106	6167.525
516.11023	6259.625
520.1765	6350.725
524.23987	6368.425
528.30034	6361.325
532.35792	6291.425
536.41261	6217.825
540.46441	6145.525
544.51333	6086.725
548.55936	6132.125
552.60252	6252.825
556.64279	6363.325
560.6802	6476.925
564.71473	6641.725
568.7464	6831.425
572.7752	6801.425
576.80114	6476.125
580.82422	6231.925
584.84444	6117.525
588.86181	6120.725
592.87633	6148.125
596.888	6280.425
600.89682	6635.025
604.9028	7618.625
608.90594	9734.225
612.90624	12051.225
616.90371	11187.825
620.89834	8107.725
624.89015	6777.125
628.87913	6581.325
632.86528	6728.925
636.84862	6900.325
640.82913	6777.825
644.80683	6400.825
648.78172	6231.525
652.75379	6266.825
656.72306	6499.825
660.68952	6748.425
664.65319	6654.525
668.61405	6419.125
672.57211	6331.325
676.52738	6326.225
680.47986	6269.325
684.42955	6152.125
688.37646	6118.125
692.32058	6124.725
696.26192	6196.325
700.20048	6289.025
704.13626	6326.825
708.06928	6276.025
711.99952	6246.425
715.927	6212.225
719.85171	6263.225
723.77365	6322.525
727.69284	6282.925
731.60928	6269.825
735.52295	6253.225
739.43388	6284.825
743.34206	6312.425
747.24749	6332.225
751.15017	6326.425
755.05012	6420.525
758.94733	6794.725
762.8418	7638.625
766.73354	8972.725
770.62254	9969.125
774.50882	10046.325
778.39237	9551.425
782.27321	8611.225
786.15132	7570.525
790.02671	6870.325
793.89938	6520.425
797.76935	6401.825
801.6366	6296.825
805.50115	6251.825
809.36299	6248.225
813.22213	6249.425
817.07857	6244.525
820.93231	6249.325
824.78336	6270.725
828.63172	6293.625
832.47738	6281.825
836.32036	6289.425
840.16066	6253.225
843.99827	6245.425
847.8332	6238.125
851.66546	6250.825
855.49504	6261.525
859.32195	6284.725
863.1462	6258.925
866.96777	6280.325
870.78668	6253.025
874.60293	6293.425
878.41652	6307.525
882.22745	6375.325
886.03573	6419.225
889.84136	6422.925
893.64433	6388.125
897.44466	6400.625
901.24235	6392.125
905.0374	6375.225
908.8298	6328.225
912.61957	6293.125
916.40671	6242.525
920.19121	6286.725
923.97308	6389.225
927.75233	6446.525
931.52895	6501.425
935.30295	6500.725
939.07433	6345.525
942.84309	6220.225
946.60924	6192.325
950.37278	6165.425
954.13371	6151.425
957.89203	6154.125
961.64774	6191.425
965.40086	6148.925
969.15137	6127.225
972.89929	6169.025
976.64461	6167.925
980.38733	6170.725
984.12747	6162.425
987.86502	6174.925
991.59999	6221.325
995.33237	6293.025
999.06217	6349.025
1002.78939	6429.725
1006.51404	6558.825
1010.23611	6681.225
1013.95561	6731.725
1017.67255	6735.025
1021.38692	6703.525
1025.09872	6636.325
1028.80796	6555.325
1032.51465	6554.225
1036.21877	6542.625
1039.92035	6594.325
1043.61937	6618.925
1047.31584	6674.225
1051.00976	6712.125
1054.70114	6714.025
1058.38998	6723.625
1062.07627	6718.225
1065.76003	6756.325
1069.44126	6824.625
1073.11995	6900.425
1076.79611	7036.625
1080.46974	7183.725
1084.14085	7347.725
1087.80943	7476.525
1091.47549	7516.925
1095.13903	7441.325
1098.80005	7302.525
1102.45857	7238.625
1106.11456	7157.025
1109.76805	7111.425
1113.41903	7230.625
1117.06751	7411.525
1120.71348	7667.125
1124.35696	8039.125
1127.99793	8321.525
1131.63641	8187.525
1135.2724	7760.425
1138.90589	7467.225
1142.5369	7269.425
1146.16542	7171.625
1149.79145	7054.325
1153.415	7001.225
1157.03607	6988.325
1160.65467	7083.925
1164.27079	7288.125
1167.88443	7553.425
1171.49561	7966.525
1175.10432	8588.725
1178.71056	9477.325
1182.31434	10249.225
1185.91565	10516.525
1189.51451	10359.625
1193.11091	10108.625
1196.70485	9848.625
1200.29634	9628.025
1203.88538	9347.825
1207.47197	8915.425
1211.05612	8458.725
1214.63782	8051.625
1218.21708	7828.425
1221.79391	7679.925
1225.36829	7563.325
1228.94024	7591.025
1232.50976	7581.025
1236.07685	7606.125
1239.6415	7622.025
1243.20374	7642.625
1246.76355	7727.525
1250.32093	7770.025
1253.8759	7851.725
1257.42845	8020.425
1260.97859	8226.225
1264.52631	8432.925
1268.07163	8621.425
1271.61453	8746.325
1275.15503	8790.225
1278.69312	8802.525
1282.22882	8866.325
1285.76211	9078.625
1289.29301	9297.325
1292.82151	9552.225
1296.34761	9803.725
1299.87133	10198.825
1303.39266	10903.925
1306.9116	12041.325
1310.42815	13277.425
1313.94233	13704.825
1317.45412	12928.125
1320.96354	11767.625
1324.47058	10742.825
1327.97525	10023.325
1331.47754	9598.125
1334.97747	9521.225
1338.47502	9624.325
1341.97022	9981.925
1345.46305	10730.225
1348.95352	11778.225
1352.44163	13067.025
1355.92738	14414.625
1359.41078	16050.625
1362.89183	17566.525
1366.37053	16874.925
1369.84688	14045.225
1373.32088	11396.725
1376.79254	10017.825
1380.26186	9361.725
1383.72883	8979.325
1387.19347	8556.425
1390.65578	8209.825
1394.11575	7974.325
1397.57339	7818.425
1401.0287	7718.925
1404.48168	7669.925
1407.93234	7690.425
1411.38068	7712.925
1414.82669	7782.125
1418.27039	7862.425
1421.71177	7861.925
1425.15083	7748.525
1428.58758	7667.625
1432.02203	7711.025
1435.45416	7803.225
1438.88399	7810.825
1442.31151	7780.425
1445.73673	7867.925
1449.15965	7900.025
1452.58027	7915.625
1455.9986	7928.125
1459.41463	7929.725
1462.82837	8031.725
1466.23982	8208.625
1469.64898	8427.625
1473.05586	8578.825
1476.46045	8652.625
1479.86276	8721.425
1483.26279	8805.825
1486.66054	9005.325
1490.05602	9271.325
1493.44922	9841.825
1496.84016	10715.625
1500.22882	12050.225
1503.61521	13778.925
1506.99934	15552.425
1510.38121	16754.725
1513.76081	16661.125
1517.13816	15082.525
1520.51324	12962.225
1523.88607	11243.625
1527.25665	10228.925
1530.62498	9720.625
1533.99105	9530.525
1537.35488	9405.625
1540.71647	9308.525
1544.07581	9196.725
1547.4329	9073.025
1550.78776	8946.325
1554.14038	8855.625
1557.49077	8837.325
1560.83892	8926.625
1564.18484	9151.325
1567.52853	9499.125
1570.86999	9791.525
1574.20922	9951.125
1577.54624	9844.425
1580.88103	9324.925
1584.2136	8663.025
1587.54395	8280.125
1590.87208	8178.225
1594.19801	8367.525
1597.52172	8756.625
1600.84321	8902.325
1604.16251	8736.225
1607.47959	8561.925
1610.79447	8370.425
1614.10715	8085.325
1617.41763	7803.325
1620.7259	7522.625
1624.03199	7357.025
1627.33587	7274.225
1630.63757	7341.525
1633.93707	7576.625
1637.23439	7983.625
1640.52951	8688.125
1643.82246	9669.425
1647.11321	10843.125
1650.40179	11564.125
1653.68819	11207.725
1656.97241	9940.825
1660.25446	8581.425
1663.53433	7565.325
1666.81203	6954.125
1670.08756	6633.325
1673.36092	6441.525
1676.63211	6293.325
1679.90115	6192.825
1683.16801	6134.425
1686.43272	6034.025
1689.69527	6011.825
1692.95567	5922.825
1696.2139	5909.825
1699.46999	5847.425
1702.72392	5871.225
1705.97571	5880.425
1709.22535	5858.925
1712.47284	5870.525
1715.71819	5906.225
1718.96139	5888.225
1722.20246	5866.225
1725.44139	5850.625
1728.67818	5822.525
1731.91284	5779.825
1735.14537	5743.325
1738.37576	5704.725
1741.60403	5706.925
1744.83017	5664.325
1748.05418	5671.525
1751.27607	5670.025
1754.49584	5629.325
1757.71349	5602.125
1760.92903	5596.925
1764.14244	5555.525
1767.35375	5561.625
1770.56294	5539.625
1773.77002	5528.025
1776.97499	5528.625
1780.17785	5508.125
1783.37861	5505.725
1786.57727	5498.125
1789.77382	5447.925
1792.96828	5488.025
1796.16064	5485.325
1799.3509	5476.725
1802.53907	5481.525
1805.72514	5431.125
1808.90913	5416.725
1812.09102	5404.225
1815.27083	5402.625
1818.44856	5380.125
1821.6242	5378.825
1824.79776	5370.225
1827.96924	5371.525
1831.13864	5332.625
1834.30597	5357.025
1837.47122	5324.225
1840.6344	5302.625
1843.7955	5304.125
1846.95454	5292.225
1850.11151	5308.725
1853.26642	5273.425
1856.41926	5275.725
1859.57004	5274.425
1862.71876	5262.425
1865.86542	5271.625
1869.01003	5247.525
1872.15258	5238.225
1875.29308	5259.425
1878.43152	5256.825
1881.56792	5231.125
1884.70227	5199.325
1887.83457	5219.725
1890.96482	5200.625
1894.09304	5184.625
1897.21921	5192.725
1900.34335	5188.025
1903.46544	5157.325
1906.58551	5183.725
1909.70353	5181.925
1912.81953	5176.025
1915.93349	5149.325
1919.04543	5148.125
1922.15534	5133.025
1925.26322	5134.725
1928.36908	5108.425
1931.47292	5102.125
1934.57473	5093.625
1937.67453	5077.725
1940.77232	5064.525
1943.86808	5031.225
1946.96184	5040.225
1950.05358	5017.825
1953.14331	4988.525
1956.23103	4996.425
1959.31675	4971.725
1962.40046	4916.625
1965.48217	4943.525
1968.56188	4919.525
1971.63959	4915.625
1974.7153	4909.825
1977.78901	4896.425
1980.86073	4884.625
1983.93046	4829.025
1986.99819	4753.425
1990.06394	4782.325
1993.1277	4805.225
1996.18947	4785.025
1999.24925	4729.525
2002.30706	4750.525
2005.36288	4735.325
2008.41672	4717.425
2011.46859	4677.725
2014.51848	4687.625
2017.56639	4661.025
2020.61233	4656.825
2023.6563	4657.625
2026.6983	4587.125
2029.73833	4596.725
2032.7764	4609.325
2035.8125	4560.725
2038.84664	4560.425
2041.87881	4555.725
2044.90903	4556.525
2047.93729	4551.325
2050.96359	4513.825
2053.98794	4520.025
2057.01034	4523.025
2060.03078	4509.025
2063.04927	4487.825
2066.06582	4505.125
2069.08042	4490.725
2072.09307	4495.425
2075.10378	4509.525
2078.11255	4475.425
2081.11938	4487.525
2084.12426	4480.525
2087.12722	4464.625
2090.12824	4460.225
2093.12732	4462.225
2096.12447	4477.825
2099.11969	4482.425
2102.11299	4453.725
2105.10435	4479.525
2108.09379	4473.325
2111.08131	4453.125
2114.0669	4474.725
2117.05057	4468.625
2120.03233	4466.125
2123.01216	4476.425
2125.99008	4473.925
2128.96609	4487.525
2131.94018	4485.425
2134.91236	4480.125
2137.88263	4492.125
2140.851	4477.325
2143.81746	4501.325
2146.78201	4483.825
2149.74466	4468.425
2152.7054	4479.625
2155.66425	4471.125
2158.6212	4467.425
2161.57625	4408.725
2164.52941	4418.625
2167.48067	4440.625
2170.43004	4438.225
2173.37752	4445.325
2176.32311	4439.425
2179.26681	4446.725
2182.20863	4441.525
2185.14856	4433.025
2188.08661	4452.825
2191.02278	4452.625
2193.95707	4412.725
2196.88948	4406.225
2199.82001	4412.425
2202.74867	4404.325
2205.67545	4418.625
2208.60037	4414.525
2211.52341	4391.125
2214.44458	4369.725
2217.36388	4371.225
2220.28132	4361.925
2223.1969	4345.125
2226.11061	4338.225
2229.02246	4330.825
2231.93245	4321.925
2234.84058	4303.325
2237.74686	4288.325
2240.65128	4281.925
2243.55385	4284.425
2246.45456	4266.625
2249.35343	4288.825
2252.25044	4272.925
2255.14561	4278.825
2258.03893	4268.125
2260.93041	4257.125
2263.82004	4249.225
2266.70783	4242.725
2269.59378	4218.225
2272.4779	4198.125
2275.36017	4210.825
2278.24061	4183.125
2281.11922	4154.725
2283.996	4185.225
2286.87094	4135.825
2289.74405	4142.325
2292.61534	4139.825
2295.4848	4152.825
2298.35243	4133.125
2301.21824	4111.025
2304.08223	4124.625
2306.94439	4120.725
2309.80474	4111.925
2312.66327	4110.725
2315.51999	4106.025
2318.37489	4089.425
2321.22797	4091.625
2324.07925	4070.925
2326.92871	4066.125
2329.77637	4036.725
2332.62222	4045.325
2335.46626	4011.525
2338.3085	4022.225
2341.14893	4032.225
2343.98756	4048.725
2346.8244	4013.425
2349.65943	4005.625
2352.49267	4001.425
2355.32411	4010.625
2358.15376	4003.025
2360.98161	4020.725
2363.80768	4001.925
2366.63195	4006.125
2369.45444	4011.325
2372.27514	4000.325
2375.09405	4022.425
2377.91118	3972.525
2380.72652	3977.325
2383.54009	3958.925
2386.35187	3968.725
2389.16188	3944.825
2391.97011	3954.225
2394.77657	3929.525
2397.58125	3912.125
2400.38416	3921.325
2403.18529	3893.725
2405.98466	3886.025
2408.78226	3883.725
2411.57809	3882.025
2414.37216	3854.425
2417.16446	3873.625
2419.955	3839.125
2422.74378	3868.625
2425.5308	3834.725
2428.31606	3838.725
2431.09956	3839.025
2433.88131	3829.425
2436.6613	3834.925
2439.43954	3816.225
2442.21603	3808.925
2444.99077	3807.325
2447.76377	3824.325
2450.53501	3810.525
2453.30451	3789.225
2456.07226	3803.325
2458.83827	3779.125
2461.60254	3748.025
2464.36507	3781.725
2467.12586	3757.025
2469.88492	3772.825
2472.64224	3778.125
2475.39782	3753.925
2478.15167	3769.725
2480.90379	3752.725
2483.65417	3769.325
2486.40283	3779.425
2489.14976	3791.025
2491.89497	3758.225
2494.63845	3769.725
2497.3802	3763.625
2500.12024	3749.425
2502.85855	3739.825
2505.59514	3756.625
2508.33002	3737.825
2511.06318	3699.825
2513.79462	3706.825
2516.52435	3664.525
2519.25237	3655.825
2521.97867	3659.125
2524.70327	3645.125
2527.42616	3660.125
2530.14734	3656.125
2532.86681	3635.925
2535.58458	3632.525
2538.30065	3629.125
2541.01501	3669.425
2543.72768	3636.325
2546.43864	3624.925
2549.14791	3619.725
2551.85548	3596.125
2554.56136	3591.125
2557.26554	3604.725
2559.96803	3595.725
2562.66883	3593.925
2565.36794	3562.325
2568.06536	3538.025
2570.7611	3556.625
2573.45514	3545.725
2576.14751	3542.225
2578.83819	3512.925
2581.52719	3497.325
2584.21451	3526.425
2586.90015	3494.025
2589.58411	3477.925
2592.2664	3493.925
2594.94701	3479.825
2597.62594	3490.525
2600.30321	3417.025
2602.9788	3437.425
2605.65273	3437.625
2608.32498	3431.925
2610.99557	3449.825
2613.66449	3421.425
2616.33175	3441.425
2618.99734	3446.925
2621.66128	3433.225
2624.32355	3401.525
2626.98416	3403.925
2629.64311	3377.825
2632.30041	3396.925
2634.95605	3378.525
2637.61004	3351.625
2640.26238	3349.525
2642.91306	3341.925
2645.56209	3375.825
2648.20948	3359.325
2650.85521	3348.425
2653.4993	3355.525
2656.14175	3346.625
2658.78255	3337.025
2661.42171	3303.025
2664.05923	3344.325
2666.6951	3348.825
2669.32934	3351.525
2671.96194	3367.325
2674.59291	3353.725
2677.22224	3360.525
2679.84993	3356.625
2682.476	3337.825
2685.10043	3343.725
2687.72324	3329.725
2690.34441	3335.025
2692.96396	3315.925
2695.58188	3341.525
2698.19818	3316.425
2700.81285	3317.425
2703.4259	3299.725
2706.03733	3268.625
2708.64714	3285.025
2711.25533	3317.225
2713.86191	3306.525
2716.46687	3298.625
2719.07021	3303.925
2721.67194	3291.125
2724.27206	3301.425
2726.87057	3305.425
2729.46747	3287.325
2732.06276	3303.925
2734.65644	3279.325
2737.24852	3286.625
2739.83899	3258.825
2742.42786	3270.325
2745.01513	3271.225
2747.60079	3264.025
2750.18486	3253.725
2752.76733	3232.125
2755.3482	3228.125
2757.92747	3233.025
2760.50515	3233.525
2763.08123	3219.425
2765.65573	3211.125
2768.22863	3192.025
2770.79994	3195.625
2773.36967	3198.825
2775.9378	3174.625
2778.50435	3180.525
2781.06932	3176.425
2783.6327	3170.225
2786.1945	3183.025
2788.75471	3167.425
2791.31335	3163.625
2793.87041	3157.325
2796.42589	3140.025
2798.97979	3130.625
2801.53212	3128.425
2804.08288	3142.025
2806.63206	3126.625
2809.17967	3105.525
2811.72571	3113.125
2814.27018	3112.025
2816.81308	3108.325
2819.35442	3062.425
2821.89419	3083.525
2824.43239	3061.525
2826.96904	3104.125
2829.50412	3079.325
2832.03763	3064.925
2834.56959	3076.325
2837.1	3058.725
2839.62884	3062.425
2842.15613	3055.225
2844.68186	3056.925
2847.20604	3033.225
2849.72867	3019.625
2852.24974	3041.225
2854.76927	3012.325
2857.28724	2966.225
2859.80367	3011.925
2862.31855	3031.525
2864.83189	3001.525
2867.34368	3015.825
2869.85393	3014.925
2872.36264	2994.525
2874.8698	3003.525
2877.37543	2995.925
2879.87952	2982.225
2882.38207	2972.625
2884.88308	2984.025
2887.38256	2975.025
2889.88051	2968.625
2892.37692	2965.725
2894.8718	2960.425
2897.36515	2974.525
2899.85698	2959.125
2902.34727	2968.725
2904.83604	2965.825
2907.32328	2989.525
2909.809	2977.825
2912.29319	2977.025
2914.77587	2986.725
2917.25702	2988.125
2919.73665	3000.625
2922.21476	3001.925
2924.69136	2987.025
2927.16644	2983.425
2929.64	2973.825
2932.11205	2961.025
2934.58258	2963.025
2937.05161	2942.825
2939.51912	2945.425
2941.98513	2961.125
2944.44962	2953.025
2946.91261	2914.825
2949.37409	2915.325
2951.83407	2917.125
2954.29254	2911.725
2956.74951	2917.625
2959.20498	2895.725
2961.65895	2899.725
2964.11142	2885.325
2966.56239	2889.025
2969.01186	2898.925
2971.45984	2881.425
2973.90632	2863.825
2976.35131	2889.425
2978.7948	2878.425
2981.23681	2867.325
2983.67732	2855.725
2986.11635	2855.925
2988.55388	2828.625
2990.98993	2836.425
2993.4245	2817.425
2995.85758	2816.525
2998.28917	2805.625
3000.71928	2791.025
3003.14791	2792.525
3005.57506	2767.325
3008.00073	2770.625
3010.42493	2714.625
3012.84764	2764.025
3015.26888	2767.825
3017.68865	2762.925
3020.10694	2706.125
3022.52376	2724.125
3024.9391	2723.425
3027.35298	2700.425
3029.76539	2693.125
3032.17632	2692.125
3034.5858	2683.725
3036.9938	2698.125
3039.40034	2682.625
3041.80542	2681.625
3044.20903	2669.325
3046.61118	2656.725
3049.01187	2667.025
3051.4111	2638.125
3053.80888	2624.425
3056.20519	2642.225
3058.60005	2625.125
3060.99345	2644.025
3063.3854	2615.225
3065.7759	2604.925
3068.16494	2594.725
3070.55254	2574.725
3072.93868	2601.025
3075.32338	2582.825
3077.70662	2577.825
3080.08842	2570.925
3082.46878	2564.925
3084.84769	2577.325
3087.22515	2548.825
3089.60118	2559.225
3091.97576	2559.925
3094.3489	2542.725
3096.72061	2538.625
3099.09087	2533.125
3101.4597	2540.525
3103.82709	2518.325
3106.19305	2522.825
3108.55757	2523.125
3110.92066	2506.925
3113.28232	2528.325
3115.64255	2511.725
3118.00134	2513.925
3120.35871	2499.625
3122.71466	2471.825
3125.06917	2485.825
3127.42226	2469.625
3129.77393	2460.425
3132.12417	2463.525
3134.47299	2461.425
3136.82039	2442.925
3139.16636	2418.425
3141.51092	2441.425
3143.85406	2444.225
3146.19579	2420.925
3148.53609	2429.125
3150.87499	2426.525
3153.21246	2424.825
3155.54853	2438.025
3157.88318	2427.925
3160.21642	2433.125
3162.54826	2437.225
3164.87868	2427.525
3167.2077	2386.425
3169.5353	2406.925
3171.86151	2423.925
3174.18631	2417.325
3176.5097	2407.425
3178.83169	2396.025
3181.15228	2406.025
3183.47147	2382.025
3185.78926	2357.125
3188.10565	2372.425
3190.42065	2352.725
3192.73424	2352.825
3195.04645	2349.625
3197.35725	2347.225
3199.66667	2352.025
3201.97469	2348.025
3204.28132	2333.125
3206.58656	2341.025
3208.8904	2343.025
3211.19287	2349.125
3213.49394	2330.525
3215.79363	2317.525
3218.09193	2339.525
3220.38884	2341.925
3222.68438	2339.225
3224.97853	2308.625
3227.2713	2338.325
3229.56269	2303.325
3231.8527	2310.125
3234.14133	2302.225
