Data from AgNPs_UA_5uM_CRN_500uM_SU_RamanShift__174__11-58-23-174.txt Node

Date: Thu Aug 04 11:58:23 BST 2022
User: TCL
Spectrometer: QEP01345
Trigger mode: 4
Integration Time (sec): 1.000000E0
Scans to average: 10
Electric dark correction enabled: true
Nonlinearity correction enabled: false
Boxcar width: 0
XAxis mode: Raman Shifts
Number of Pixels in Spectrum: 1044
>>>>>Begin Spectral Data<<<<<
46.04893	0.325
50.45542	0.325
54.85868	0.125
59.25871	-0.675
63.6555	-57.675
68.04907	-40.475
72.43941	-72.075
76.82654	-55.475
81.21044	-56.775
85.59113	-49.175
89.96862	-74.175
94.34289	-55.775
98.71396	-76.975
103.08183	-59.775
107.4465	-49.275
111.80798	-55.875
116.16626	-44.075
120.52136	-75.875
124.87327	-52.175
129.222	-64.475
133.56755	-48.675
137.90993	-62.975
142.24913	-51.475
146.58517	-44.075
150.91804	-41.075
155.24774	-30.475
159.57429	-10.775
163.89768	-6.775
168.21792	36.125
172.53501	54.725
176.84895	134.125
181.15975	269.425
185.46741	418.025
189.77193	597.525
194.07331	882.025
198.37157	1165.525
202.6667	1444.425
206.9587	1768.725
211.24758	2075.625
215.53334	2398.125
219.81599	2757.125
224.09553	3156.325
228.37195	3582.325
232.64527	4041.625
236.91549	4513.825
241.18261	4846.125
245.44663	5142.825
249.70755	5326.725
253.96539	5454.525
258.22014	5569.525
262.4718	5645.625
266.72039	5668.125
270.96589	5615.725
275.20832	5541.325
279.44768	5415.425
283.68397	5320.625
287.91719	5268.325
292.14735	5290.925
296.37445	5451.025
300.59849	5720.225
304.81948	6080.525
309.03742	6440.225
313.25231	6664.625
317.46415	6608.925
321.67296	6209.925
325.87872	5837.725
330.08145	5627.525
334.28114	5607.925
338.47781	5647.925
342.67145	5787.125
346.86207	6043.425
351.04966	6391.125
355.23424	6814.225
359.4158	7070.425
363.59435	7104.025
367.76989	7026.625
371.94243	6901.025
376.11196	6789.825
380.27849	6727.925
384.44203	6637.925
388.60257	6607.025
392.76012	6615.625
396.91468	6712.925
401.06626	6868.825
405.21485	6920.225
409.36047	6757.625
413.50311	6431.425
417.64277	6173.825
421.77947	5929.625
425.9132	5889.525
430.04396	5885.925
434.17176	5911.625
438.2966	6014.925
442.41849	6085.725
446.53742	6226.625
450.6534	6313.425
454.76644	6362.525
458.87653	6385.825
462.98368	6366.925
467.08789	6291.125
471.18916	6237.525
475.2875	6116.825
479.38291	6009.425
483.4754	5913.725
487.56496	5868.925
491.6516	5841.825
495.73531	5834.425
499.81612	5854.425
503.89401	5953.725
507.96899	6003.125
512.04106	6085.525
516.11023	6198.825
520.1765	6275.925
524.23987	6301.825
528.30034	6294.525
532.35792	6226.825
536.41261	6170.625
540.46441	6082.725
544.51333	6024.025
548.55936	6071.325
552.60252	6183.925
556.64279	6294.825
560.6802	6418.525
564.71473	6551.725
568.7464	6760.425
572.7752	6704.025
576.80114	6401.925
580.82422	6163.925
584.84444	6070.625
588.86181	6015.325
592.87633	6076.725
596.888	6211.025
600.89682	6560.125
604.9028	7520.825
608.90594	9563.925
612.90624	11864.825
616.90371	11030.225
620.89834	8022.625
624.89015	6700.925
628.87913	6504.825
632.86528	6673.725
636.84862	6801.725
640.82913	6684.125
644.80683	6358.225
648.78172	6172.325
652.75379	6195.325
656.72306	6441.625
660.68952	6692.925
664.65319	6581.225
668.61405	6360.725
672.57211	6292.825
676.52738	6300.825
680.47986	6193.225
684.42955	6113.125
688.37646	6068.525
692.32058	6065.725
696.26192	6135.525
700.20048	6251.625
704.13626	6285.025
708.06928	6249.025
711.99952	6202.225
715.927	6192.325
719.85171	6218.825
723.77365	6267.825
727.69284	6243.725
731.60928	6230.025
735.52295	6215.725
739.43388	6249.625
743.34206	6258.725
747.24749	6265.325
751.15017	6297.125
755.05012	6351.925
758.94733	6737.825
762.8418	7558.325
766.73354	8841.025
770.62254	9797.325
774.50882	9906.625
778.39237	9397.325
782.27321	8487.225
786.15132	7484.825
790.02671	6803.925
793.89938	6440.025
797.76935	6334.125
801.6366	6256.625
805.50115	6196.325
809.36299	6208.525
813.22213	6190.725
817.07857	6188.225
820.93231	6200.525
824.78336	6225.025
828.63172	6238.825
832.47738	6242.725
836.32036	6236.425
840.16066	6226.225
843.99827	6194.625
847.8332	6189.725
851.66546	6219.825
855.49504	6214.225
859.32195	6245.025
863.1462	6230.725
866.96777	6238.925
870.78668	6229.825
874.60293	6256.025
878.41652	6243.025
882.22745	6338.025
886.03573	6378.625
889.84136	6355.325
893.64433	6387.525
897.44466	6364.625
901.24235	6356.825
905.0374	6363.925
908.8298	6290.825
912.61957	6238.425
916.40671	6215.225
920.19121	6263.525
923.97308	6349.925
927.75233	6395.725
931.52895	6481.325
935.30295	6455.425
939.07433	6307.925
942.84309	6190.125
946.60924	6161.925
950.37278	6127.125
954.13371	6117.725
957.89203	6097.925
961.64774	6122.425
965.40086	6104.225
969.15137	6096.225
972.89929	6122.225
976.64461	6109.225
980.38733	6115.625
984.12747	6136.925
987.86502	6159.925
991.59999	6182.125
995.33237	6252.525
999.06217	6318.525
1002.78939	6397.325
1006.51404	6523.425
1010.23611	6643.925
1013.95561	6691.025
1017.67255	6692.825
1021.38692	6679.525
1025.09872	6599.625
1028.80796	6521.725
1032.51465	6526.825
1036.21877	6521.425
1039.92035	6553.925
1043.61937	6582.625
1047.31584	6640.825
1051.00976	6669.625
1054.70114	6677.925
1058.38998	6655.225
1062.07627	6674.125
1065.76003	6708.725
1069.44126	6772.125
1073.11995	6846.225
1076.79611	6991.125
1080.46974	7132.425
1084.14085	7294.825
1087.80943	7419.325
1091.47549	7462.925
1095.13903	7359.025
1098.80005	7251.625
1102.45857	7178.325
1106.11456	7124.625
1109.76805	7082.925
1113.41903	7184.325
1117.06751	7351.725
1120.71348	7609.825
1124.35696	7966.725
1127.99793	8242.625
1131.63641	8096.725
1135.2724	7697.725
1138.90589	7401.325
1142.5369	7210.025
1146.16542	7107.925
1149.79145	7001.925
1153.415	6944.825
1157.03607	6966.125
1160.65467	7050.025
1164.27079	7214.525
1167.88443	7470.925
1171.49561	7884.225
1175.10432	8464.925
1178.71056	9343.725
1182.31434	10098.225
1185.91565	10317.525
1189.51451	10189.425
1193.11091	9949.125
1196.70485	9686.625
1200.29634	9474.125
1203.88538	9232.625
1207.47197	8801.825
1211.05612	8373.425
1214.63782	7967.125
1218.21708	7749.125
1221.79391	7607.125
1225.36829	7492.225
1228.94024	7503.825
1232.50976	7519.225
1236.07685	7535.225
1239.6415	7577.225
1243.20374	7583.125
1246.76355	7636.325
1250.32093	7710.225
1253.8759	7769.825
1257.42845	7969.825
1260.97859	8169.325
1264.52631	8362.225
1268.07163	8528.525
1271.61453	8661.525
1275.15503	8695.525
1278.69312	8696.225
1282.22882	8774.025
1285.76211	8955.625
1289.29301	9187.425
1292.82151	9440.325
1296.34761	9654.025
1299.87133	10061.625
1303.39266	10744.425
1306.9116	11874.125
1310.42815	13068.125
1313.94233	13472.025
1317.45412	12708.025
1320.96354	11591.325
1324.47058	10614.225
1327.97525	9853.025
1331.47754	9495.225
1334.97747	9375.125
1338.47502	9504.225
1341.97022	9878.525
1345.46305	10561.225
1348.95352	11603.825
1352.44163	12843.125
1355.92738	14116.625
1359.41078	15725.225
1362.89183	17174.325
1366.37053	16537.725
1369.84688	13771.725
1373.32088	11189.925
1376.79254	9885.825
1380.26186	9246.925
1383.72883	8822.925
1387.19347	8461.825
1390.65578	8124.025
1394.11575	7902.825
1397.57339	7744.425
1401.0287	7644.725
1404.48168	7606.625
1407.93234	7618.425
1411.38068	7626.225
1414.82669	7715.725
1418.27039	7812.025
1421.71177	7819.125
1425.15083	7698.925
1428.58758	7621.425
1432.02203	7652.125
1435.45416	7754.125
1438.88399	7741.325
1442.31151	7734.225
1445.73673	7789.425
1449.15965	7843.825
1452.58027	7881.225
1455.9986	7843.225
1459.41463	7860.125
1462.82837	7943.825
1466.23982	8141.225
1469.64898	8340.025
1473.05586	8481.325
1476.46045	8580.125
1479.86276	8634.725
1483.26279	8727.925
1486.66054	8903.025
1490.05602	9161.625
1493.44922	9710.525
1496.84016	10516.325
1500.22882	11855.825
1503.61521	13528.225
1506.99934	15229.025
1510.38121	16397.125
1513.76081	16309.925
1517.13816	14776.125
1520.51324	12722.625
1523.88607	11055.425
1527.25665	10098.125
1530.62498	9579.925
1533.99105	9414.925
1537.35488	9263.125
1540.71647	9176.325
1544.07581	9074.825
1547.4329	8959.125
1550.78776	8851.825
1554.14038	8763.325
1557.49077	8741.125
1560.83892	8812.725
1564.18484	9046.125
1567.52853	9363.225
1570.86999	9678.825
1574.20922	9803.125
1577.54624	9717.525
1580.88103	9218.025
1584.2136	8548.625
1587.54395	8220.025
1590.87208	8119.025
1594.19801	8273.525
1597.52172	8649.825
1600.84321	8799.325
1604.16251	8656.825
1607.47959	8466.925
1610.79447	8298.025
1614.10715	8010.725
1617.41763	7709.525
1620.7259	7474.725
1624.03199	7319.525
1627.33587	7252.025
1630.63757	7307.925
1633.93707	7502.625
1637.23439	7922.525
1640.52951	8594.325
1643.82246	9557.325
1647.11321	10668.425
1650.40179	11342.025
1653.68819	11051.225
1656.97241	9808.025
1660.25446	8471.225
1663.53433	7505.925
1666.81203	6919.825
1670.08756	6584.925
1673.36092	6414.125
1676.63211	6280.925
1679.90115	6192.025
1683.16801	6109.125
1686.43272	5999.525
1689.69527	5980.725
1692.95567	5910.425
1696.2139	5883.325
1699.46999	5836.225
1702.72392	5837.925
1705.97571	5867.325
1709.22535	5815.425
1712.47284	5870.525
1715.71819	5881.025
1718.96139	5883.925
1722.20246	5860.225
1725.44139	5842.925
1728.67818	5806.725
1731.91284	5760.325
1735.14537	5713.925
1738.37576	5688.025
1741.60403	5685.025
1744.83017	5648.725
1748.05418	5664.925
1751.27607	5648.625
1754.49584	5608.325
1757.71349	5591.925
1760.92903	5600.425
1764.14244	5543.125
1767.35375	5543.025
1770.56294	5535.225
1773.77002	5525.625
1776.97499	5544.225
1780.17785	5509.025
1783.37861	5501.325
1786.57727	5513.425
1789.77382	5443.025
1792.96828	5479.125
1796.16064	5470.425
1799.3509	5452.725
1802.53907	5471.325
1805.72514	5429.225
1808.90913	5428.225
1812.09102	5396.425
1815.27083	5417.725
1818.44856	5371.325
1821.6242	5373.225
1824.79776	5356.925
1827.96924	5355.625
1831.13864	5328.225
1834.30597	5342.325
1837.47122	5311.525
1840.6344	5299.225
1843.7955	5283.725
1846.95454	5288.125
1850.11151	5324.825
1853.26642	5263.125
1856.41926	5277.925
1859.57004	5263.625
1862.71876	5264.525
1865.86542	5275.225
1869.01003	5264.325
1872.15258	5238.225
1875.29308	5268.825
1878.43152	5254.525
1881.56792	5230.525
1884.70227	5220.025
1887.83457	5213.625
1890.96482	5191.025
1894.09304	5181.025
1897.21921	5196.925
1900.34335	5209.325
1903.46544	5170.225
1906.58551	5181.225
1909.70353	5179.725
1912.81953	5166.225
1915.93349	5139.525
1919.04543	5135.125
1922.15534	5124.525
1925.26322	5128.225
1928.36908	5102.425
1931.47292	5107.625
1934.57473	5111.325
1937.67453	5078.325
1940.77232	5042.425
1943.86808	5035.425
1946.96184	5039.925
1950.05358	5019.325
1953.14331	5003.625
1956.23103	4995.125
1959.31675	4964.825
1962.40046	4912.225
1965.48217	4950.525
1968.56188	4935.925
1971.63959	4921.325
1974.7153	4915.125
1977.78901	4898.025
1980.86073	4881.725
1983.93046	4847.425
1986.99819	4766.525
1990.06394	4771.925
1993.1277	4811.025
1996.18947	4782.825
1999.24925	4734.325
2002.30706	4766.625
2005.36288	4751.525
2008.41672	4728.525
2011.46859	4695.925
2014.51848	4695.425
2017.56639	4661.625
2020.61233	4647.225
2023.6563	4646.025
2026.6983	4598.325
2029.73833	4601.325
2032.7764	4617.025
2035.8125	4567.025
2038.84664	4567.125
2041.87881	4563.725
2044.90903	4559.125
2047.93729	4564.825
2050.96359	4526.125
2053.98794	4525.525
2057.01034	4537.225
2060.03078	4521.225
2063.04927	4528.325
2066.06582	4511.125
2069.08042	4505.825
2072.09307	4484.025
2075.10378	4502.225
2078.11255	4498.225
2081.11938	4484.225
2084.12426	4482.225
2087.12722	4474.625
2090.12824	4462.725
2093.12732	4478.125
2096.12447	4487.325
2099.11969	4466.625
2102.11299	4462.825
2105.10435	4492.525
2108.09379	4475.625
2111.08131	4481.025
2114.0669	4471.625
2117.05057	4481.225
2120.03233	4460.825
2123.01216	4489.225
2125.99008	4478.425
2128.96609	4497.925
2131.94018	4494.925
2134.91236	4483.725
2137.88263	4484.125
2140.851	4496.625
2143.81746	4524.225
2146.78201	4486.525
2149.74466	4479.225
2152.7054	4492.325
2155.66425	4484.725
2158.6212	4477.125
2161.57625	4436.525
2164.52941	4420.925
2167.48067	4443.425
2170.43004	4450.425
2173.37752	4444.725
2176.32311	4447.725
2179.26681	4448.925
2182.20863	4461.125
2185.14856	4445.725
2188.08661	4438.125
2191.02278	4457.425
2193.95707	4424.125
2196.88948	4418.325
2199.82001	4426.925
2202.74867	4410.525
2205.67545	4425.925
2208.60037	4420.025
2211.52341	4393.425
2214.44458	4374.625
2217.36388	4377.725
2220.28132	4352.425
2223.1969	4333.525
2226.11061	4338.425
2229.02246	4316.025
2231.93245	4329.825
2234.84058	4324.725
2237.74686	4312.425
2240.65128	4296.925
2243.55385	4293.825
2246.45456	4266.725
2249.35343	4279.425
2252.25044	4279.025
2255.14561	4277.825
2258.03893	4278.125
2260.93041	4257.925
2263.82004	4258.125
2266.70783	4253.225
2269.59378	4208.025
2272.4779	4204.725
2275.36017	4216.525
2278.24061	4195.125
2281.11922	4172.425
2283.996	4189.425
2286.87094	4158.025
2289.74405	4168.725
2292.61534	4160.925
2295.4848	4143.425
2298.35243	4143.125
2301.21824	4135.825
2304.08223	4128.025
2306.94439	4148.125
2309.80474	4136.825
2312.66327	4123.625
2315.51999	4106.925
2318.37489	4121.625
2321.22797	4072.825
2324.07925	4073.125
2326.92871	4083.125
2329.77637	4053.725
2332.62222	4062.925
2335.46626	4029.425
2338.3085	4030.725
2341.14893	4044.825
2343.98756	4054.925
2346.8244	4024.525
2349.65943	4020.625
2352.49267	4024.825
2355.32411	4025.025
2358.15376	4007.825
2360.98161	4034.325
2363.80768	4013.225
2366.63195	4003.725
2369.45444	4022.525
2372.27514	4008.025
2375.09405	4020.825
2377.91118	3980.725
2380.72652	3982.825
2383.54009	3979.725
2386.35187	3979.125
2389.16188	3946.125
2391.97011	3949.825
2394.77657	3921.625
2397.58125	3936.825
2400.38416	3925.225
2403.18529	3909.525
2405.98466	3887.325
2408.78226	3890.125
2411.57809	3873.425
2414.37216	3873.925
2417.16446	3864.025
2419.955	3850.225
2422.74378	3858.425
2425.5308	3847.525
2428.31606	3849.025
2431.09956	3859.525
2433.88131	3825.725
2436.6613	3854.325
2439.43954	3816.725
2442.21603	3827.925
2444.99077	3813.325
2447.76377	3814.425
2450.53501	3817.925
2453.30451	3791.525
2456.07226	3815.525
2458.83827	3787.225
2461.60254	3762.925
2464.36507	3804.425
2467.12586	3765.325
2469.88492	3772.425
2472.64224	3772.225
2475.39782	3753.625
2478.15167	3777.225
2480.90379	3759.425
2483.65417	3768.425
2486.40283	3776.125
2489.14976	3781.525
2491.89497	3763.925
2494.63845	3773.625
2497.3802	3748.525
2500.12024	3760.725
2502.85855	3750.525
2505.59514	3762.425
2508.33002	3735.625
2511.06318	3710.225
2513.79462	3714.025
2516.52435	3682.125
2519.25237	3665.525
2521.97867	3669.625
2524.70327	3664.225
2527.42616	3673.325
2530.14734	3675.725
2532.86681	3625.825
2535.58458	3642.825
2538.30065	3644.125
2541.01501	3636.725
2543.72768	3632.725
2546.43864	3633.425
2549.14791	3621.725
2551.85548	3603.525
2554.56136	3593.325
2557.26554	3601.225
2559.96803	3598.525
2562.66883	3602.625
2565.36794	3561.725
2568.06536	3537.425
2570.7611	3571.025
2573.45514	3557.825
2576.14751	3548.825
2578.83819	3532.925
2581.52719	3513.525
2584.21451	3521.325
2586.90015	3499.725
2589.58411	3478.725
2592.2664	3496.625
2594.94701	3494.025
2597.62594	3496.125
2600.30321	3425.025
2602.9788	3450.025
2605.65273	3444.725
2608.32498	3453.725
2610.99557	3456.425
2613.66449	3426.325
2616.33175	3425.825
2618.99734	3449.525
2621.66128	3442.925
2624.32355	3427.125
2626.98416	3407.225
2629.64311	3392.225
2632.30041	3388.925
2634.95605	3381.125
2637.61004	3364.025
2640.26238	3361.025
2642.91306	3350.725
2645.56209	3371.725
2648.20948	3371.225
2650.85521	3350.625
2653.4993	3374.625
2656.14175	3355.625
2658.78255	3343.425
2661.42171	3315.925
2664.05923	3347.725
2666.6951	3363.825
2669.32934	3367.425
2671.96194	3370.725
2674.59291	3342.625
2677.22224	3351.825
2679.84993	3362.525
2682.476	3342.425
2685.10043	3343.525
2687.72324	3330.325
2690.34441	3337.225
2692.96396	3333.025
2695.58188	3340.225
2698.19818	3342.125
2700.81285	3321.325
2703.4259	3312.125
2706.03733	3287.125
2708.64714	3283.825
2711.25533	3311.325
2713.86191	3318.325
2716.46687	3316.325
2719.07021	3312.625
2721.67194	3317.425
2724.27206	3316.025
2726.87057	3307.325
2729.46747	3303.825
2732.06276	3311.725
2734.65644	3301.225
2737.24852	3298.525
2739.83899	3281.025
2742.42786	3283.625
2745.01513	3284.425
2747.60079	3264.825
2750.18486	3248.625
2752.76733	3256.825
2755.3482	3245.725
2757.92747	3263.025
2760.50515	3217.025
2763.08123	3227.925
2765.65573	3220.625
2768.22863	3213.325
2770.79994	3201.025
2773.36967	3200.525
2775.9378	3202.325
2778.50435	3192.525
2781.06932	3184.425
2783.6327	3175.225
2786.1945	3196.525
2788.75471	3178.225
2791.31335	3179.225
2793.87041	3162.525
2796.42589	3139.325
2798.97979	3126.325
2801.53212	3144.425
2804.08288	3152.125
2806.63206	3134.425
2809.17967	3124.025
2811.72571	3106.025
2814.27018	3122.025
2816.81308	3096.325
2819.35442	3073.125
2821.89419	3089.625
2824.43239	3065.325
2826.96904	3096.025
2829.50412	3068.825
2832.03763	3084.525
2834.56959	3082.425
2837.1	3054.425
2839.62884	3068.225
2842.15613	3054.025
2844.68186	3064.825
2847.20604	3038.325
2849.72867	3034.725
2852.24974	3047.125
2854.76927	3011.825
2857.28724	2957.425
2859.80367	3006.025
2862.31855	3030.625
2864.83189	3017.225
2867.34368	3032.825
2869.85393	3026.825
2872.36264	2986.525
2874.8698	2996.925
2877.37543	3006.325
2879.87952	2989.625
2882.38207	2977.225
2884.88308	2988.325
2887.38256	2991.625
2889.88051	2988.325
2892.37692	2984.125
2894.8718	2956.825
2897.36515	2982.725
2899.85698	2967.925
2902.34727	2969.225
2904.83604	2977.625
2907.32328	2985.525
2909.809	2996.525
2912.29319	2986.425
2914.77587	2990.825
2917.25702	3011.325
2919.73665	3004.525
2922.21476	2999.025
2924.69136	2990.925
2927.16644	2985.125
2929.64	2976.525
2932.11205	2964.825
2934.58258	2972.125
2937.05161	2940.125
2939.51912	2958.425
2941.98513	2981.025
2944.44962	2949.525
2946.91261	2923.625
2949.37409	2940.825
2951.83407	2926.625
2954.29254	2930.825
2956.74951	2927.125
2959.20498	2909.125
2961.65895	2909.925
2964.11142	2893.125
2966.56239	2886.025
2969.01186	2894.825
2971.45984	2895.225
2973.90632	2882.225
2976.35131	2885.125
2978.7948	2879.125
2981.23681	2877.525
2983.67732	2875.125
2986.11635	2853.225
2988.55388	2840.725
2990.98993	2835.025
2993.4245	2824.225
2995.85758	2814.725
2998.28917	2805.825
3000.71928	2796.525
3003.14791	2792.525
3005.57506	2793.425
3008.00073	2768.625
3010.42493	2721.325
3012.84764	2775.925
3015.26888	2773.925
3017.68865	2750.525
3020.10694	2720.025
3022.52376	2734.625
3024.9391	2730.825
3027.35298	2719.425
3029.76539	2707.425
3032.17632	2696.025
3034.5858	2688.325
3036.9938	2693.425
3039.40034	2707.825
3041.80542	2682.225
3044.20903	2674.225
3046.61118	2671.725
3049.01187	2668.525
3051.4111	2648.525
3053.80888	2645.725
3056.20519	2655.625
3058.60005	2622.425
3060.99345	2655.125
3063.3854	2629.025
3065.7759	2598.925
3068.16494	2603.825
3070.55254	2583.925
3072.93868	2605.925
3075.32338	2591.725
3077.70662	2574.225
3080.08842	2571.925
3082.46878	2549.125
3084.84769	2579.225
3087.22515	2552.425
3089.60118	2564.325
3091.97576	2549.825
3094.3489	2552.425
3096.72061	2547.125
3099.09087	2535.225
3101.4597	2544.025
3103.82709	2539.025
3106.19305	2520.525
3108.55757	2527.025
3110.92066	2516.825
3113.28232	2536.625
3115.64255	2531.425
3118.00134	2520.025
3120.35871	2495.825
3122.71466	2476.725
3125.06917	2485.525
3127.42226	2474.925
3129.77393	2454.125
3132.12417	2476.125
3134.47299	2481.225
3136.82039	2448.325
3139.16636	2432.225
3141.51092	2452.725
3143.85406	2459.325
3146.19579	2435.825
3148.53609	2445.025
3150.87499	2446.625
3153.21246	2425.725
3155.54853	2443.125
3157.88318	2437.525
3160.21642	2438.725
3162.54826	2439.025
3164.87868	2434.425
3167.2077	2401.325
3169.5353	2424.525
3171.86151	2426.225
3174.18631	2405.725
3176.5097	2414.725
3178.83169	2408.025
3181.15228	2399.325
3183.47147	2379.225
3185.78926	2370.525
3188.10565	2381.725
3190.42065	2358.225
3192.73424	2371.325
3195.04645	2352.925
3197.35725	2331.025
3199.66667	2344.625
3201.97469	2350.225
3204.28132	2340.525
3206.58656	2347.125
3208.8904	2353.425
3211.19287	2338.425
3213.49394	2330.625
3215.79363	2329.025
3218.09193	2342.525
3220.38884	2334.725
3222.68438	2332.125
3224.97853	2314.625
3227.2713	2333.825
3229.56269	2327.325
3231.8527	2311.025
3234.14133	2302.725
