Data from AgNPs_UA_10uM_CRN_500uM_SU_RamanShift__58__13-15-00-265.txt Node

Date: Thu Aug 04 13:15:00 BST 2022
User: TCL
Spectrometer: QEP01345
Trigger mode: 4
Integration Time (sec): 1.000000E0
Scans to average: 10
Electric dark correction enabled: true
Nonlinearity correction enabled: false
Boxcar width: 0
XAxis mode: Raman Shifts
Number of Pixels in Spectrum: 1044
>>>>>Begin Spectral Data<<<<<
46.04893	-0.575
50.45542	-0.275
54.85868	-0.275
59.25871	-0.875
63.6555	21.225
68.04907	23.025
72.43941	23.725
76.82654	23.225
81.21044	24.325
85.59113	27.725
89.96862	25.425
94.34289	27.925
98.71396	28.825
103.08183	29.125
107.4465	30.125
111.80798	30.125
116.16626	31.725
120.52136	35.625
124.87327	37.725
129.222	39.325
133.56755	38.925
137.90993	42.125
142.24913	48.225
146.58517	58.125
150.91804	65.325
155.24774	81.625
159.57429	102.225
163.89768	132.425
168.21792	177.225
172.53501	247.125
176.84895	343.325
181.15975	488.625
185.46741	695.225
189.77193	965.625
194.07331	1307.925
198.37157	1678.725
202.6667	2080.425
206.9587	2495.125
211.24758	2893.025
215.53334	3287.025
219.81599	3725.325
224.09553	4203.125
228.37195	4733.625
232.64527	5308.525
236.91549	5875.225
241.18261	6408.625
245.44663	6854.825
249.70755	7219.825
253.96539	7551.725
258.22014	7832.325
262.4718	8068.125
266.72039	8226.325
270.96589	8258.425
275.20832	8225.125
279.44768	8123.925
283.68397	8008.225
287.91719	7922.125
292.14735	7927.725
296.37445	7977.925
300.59849	8150.825
304.81948	8347.625
309.03742	8555.125
313.25231	8643.225
317.46415	8590.425
321.67296	8372.525
325.87872	8119.125
330.08145	7994.625
334.28114	7999.925
338.47781	8087.525
342.67145	8195.225
346.86207	8393.825
351.04966	8662.925
355.23424	8968.725
359.4158	9203.725
363.59435	9324.525
367.76989	9374.725
371.94243	9380.725
376.11196	9390.725
380.27849	9428.325
384.44203	9481.325
388.60257	9561.325
392.76012	9648.825
396.91468	9767.525
401.06626	9914.225
405.21485	9970.725
409.36047	9909.425
413.50311	9684.325
417.64277	9487.225
421.77947	9348.925
425.9132	9245.125
430.04396	9219.525
434.17176	9247.825
438.2966	9332.025
442.41849	9477.025
446.53742	9645.825
450.6534	9841.925
454.76644	9955.225
458.87653	10073.725
462.98368	10090.925
467.08789	10051.025
471.18916	9955.225
475.2875	9776.925
479.38291	9646.625
483.4754	9509.525
487.56496	9474.325
491.6516	9439.025
495.73531	9454.825
499.81612	9514.525
503.89401	9569.125
507.96899	9614.725
512.04106	9630.125
516.11023	9664.825
520.1765	9695.625
524.23987	9697.425
528.30034	9725.125
532.35792	9709.025
536.41261	9642.225
540.46441	9559.425
544.51333	9553.025
548.55936	9612.925
552.60252	9718.025
556.64279	9872.125
560.6802	9985.725
564.71473	10060.025
568.7464	10080.125
572.7752	10020.925
576.80114	9803.625
580.82422	9643.325
584.84444	9602.425
588.86181	9583.825
592.87633	9634.325
596.888	9769.625
600.89682	10182.225
604.9028	11183.225
608.90594	13125.425
612.90624	14924.025
616.90371	13893.225
620.89834	11301.625
624.89015	10284.425
628.87913	10215.325
632.86528	10399.125
636.84862	10539.125
640.82913	10365.825
644.80683	10010.425
648.78172	9831.925
652.75379	9850.625
656.72306	10094.725
660.68952	10336.225
664.65319	10354.225
668.61405	10263.025
672.57211	10440.925
676.52738	10474.425
680.47986	10188.125
684.42955	9946.125
688.37646	9897.225
692.32058	9972.825
696.26192	10181.025
700.20048	10369.825
704.13626	10420.025
708.06928	10287.925
711.99952	10166.825
715.927	10128.925
719.85171	10187.325
723.77365	10204.425
727.69284	10138.925
731.60928	10075.125
735.52295	10044.625
739.43388	10103.625
743.34206	10123.925
747.24749	10126.025
751.15017	10107.125
755.05012	10192.025
758.94733	10451.325
762.8418	11085.125
766.73354	12063.225
770.62254	12876.925
774.50882	13095.125
778.39237	12945.125
782.27321	12395.325
786.15132	11554.825
790.02671	10885.225
793.89938	10499.325
797.76935	10305.525
801.6366	10192.625
805.50115	10137.225
809.36299	10111.025
813.22213	10088.725
817.07857	10125.725
820.93231	10113.525
824.78336	10121.025
828.63172	10138.725
832.47738	10155.325
836.32036	10134.225
840.16066	10107.025
843.99827	10129.125
847.8332	10137.125
851.66546	10154.225
855.49504	10150.725
859.32195	10169.425
863.1462	10189.825
866.96777	10161.125
870.78668	10173.025
874.60293	10218.525
878.41652	10255.725
882.22745	10351.925
886.03573	10376.625
889.84136	10383.025
893.64433	10351.425
897.44466	10316.725
901.24235	10281.425
905.0374	10292.725
908.8298	10233.525
912.61957	10246.125
916.40671	10241.925
920.19121	10216.425
923.97308	10260.525
927.75233	10329.325
931.52895	10406.725
935.30295	10347.125
939.07433	10240.825
942.84309	10161.925
946.60924	10146.125
950.37278	10125.725
954.13371	10116.025
957.89203	10132.525
961.64774	10139.825
965.40086	10125.925
969.15137	10096.325
972.89929	10093.825
976.64461	10098.325
980.38733	10120.725
984.12747	10115.125
987.86502	10178.925
991.59999	10186.025
995.33237	10212.625
999.06217	10278.325
1002.78939	10372.225
1006.51404	10580.625
1010.23611	10725.225
1013.95561	10827.725
1017.67255	10856.725
1021.38692	10828.225
1025.09872	10772.925
1028.80796	10677.625
1032.51465	10618.725
1036.21877	10605.525
1039.92035	10659.325
1043.61937	10709.525
1047.31584	10754.425
1051.00976	10786.525
1054.70114	10831.125
1058.38998	10876.225
1062.07627	10911.525
1065.76003	10997.825
1069.44126	11100.825
1073.11995	11338.925
1076.79611	11575.125
1080.46974	11709.725
1084.14085	11752.125
1087.80943	11826.525
1091.47549	11910.725
1095.13903	12003.525
1098.80005	12132.825
1102.45857	12313.525
1106.11456	12307.225
1109.76805	12036.525
1113.41903	11910.025
1117.06751	11976.125
1120.71348	12064.025
1124.35696	12175.025
1127.99793	12198.825
1131.63641	12046.125
1135.2724	11787.025
1138.90589	11553.425
1142.5369	11417.125
1146.16542	11380.325
1149.79145	11301.625
1153.415	11190.025
1157.03607	11098.725
1160.65467	11166.025
1164.27079	11340.525
1167.88443	11603.225
1171.49561	12003.525
1175.10432	12588.025
1178.71056	13360.325
1182.31434	14036.325
1185.91565	14324.225
1189.51451	14376.125
1193.11091	14352.625
1196.70485	14220.725
1200.29634	13958.625
1203.88538	13654.625
1207.47197	13300.625
1211.05612	12846.525
1214.63782	12437.925
1218.21708	12088.925
1221.79391	11883.325
1225.36829	11766.525
1228.94024	11731.425
1232.50976	11768.425
1236.07685	11828.325
1239.6415	11864.825
1243.20374	11933.925
1246.76355	11982.125
1250.32093	12044.825
1253.8759	12185.025
1257.42845	12464.725
1260.97859	12782.925
1264.52631	13084.425
1268.07163	13272.725
1271.61453	13387.825
1275.15503	13345.725
1278.69312	13302.825
1282.22882	13243.225
1285.76211	13298.025
1289.29301	13373.825
1292.82151	13554.625
1296.34761	13747.925
1299.87133	14092.925
1303.39266	14655.725
1306.9116	15457.725
1310.42815	16305.025
1313.94233	16662.625
1317.45412	16308.125
1320.96354	15687.225
1324.47058	15067.725
1327.97525	14502.925
1331.47754	14086.725
1334.97747	13941.625
1338.47502	14078.225
1341.97022	14538.025
1345.46305	15321.725
1348.95352	16504.725
1352.44163	17667.125
1355.92738	18681.525
1359.41078	19618.325
1362.89183	20130.125
1366.37053	19148.625
1369.84688	16993.725
1373.32088	15043.325
1376.79254	13905.025
1380.26186	13330.825
1383.72883	12962.625
1387.19347	12604.625
1390.65578	12270.325
1394.11575	11978.725
1397.57339	11727.925
1401.0287	11598.325
1404.48168	11598.525
1407.93234	11712.825
1411.38068	11867.225
1414.82669	12067.625
1418.27039	12136.825
1421.71177	12122.225
1425.15083	12031.025
1428.58758	11905.125
1432.02203	11827.625
1435.45416	11809.125
1438.88399	11743.625
1442.31151	11723.525
1445.73673	11764.525
1449.15965	11785.425
1452.58027	11771.225
1455.9986	11717.625
1459.41463	11730.425
1462.82837	11826.225
1466.23982	12007.325
1469.64898	12198.525
1473.05586	12362.125
1476.46045	12527.725
1479.86276	12654.325
1483.26279	12813.725
1486.66054	13040.725
1490.05602	13355.525
1493.44922	13897.525
1496.84016	14658.725
1500.22882	15802.125
1503.61521	17000.025
1506.99934	18044.425
1510.38121	18499.325
1513.76081	18138.425
1517.13816	16989.225
1520.51324	15581.225
1523.88607	14427.325
1527.25665	13721.025
1530.62498	13337.925
1533.99105	13175.325
1537.35488	13084.525
1540.71647	12979.625
1544.07581	12875.625
1547.4329	12791.925
1550.78776	12621.425
1554.14038	12489.825
1557.49077	12472.225
1560.83892	12600.625
1564.18484	12842.325
1567.52853	13066.625
1570.86999	13268.725
1574.20922	13328.825
1577.54624	13221.925
1580.88103	12818.825
1584.2136	12335.325
1587.54395	12074.725
1590.87208	12023.525
1594.19801	12278.125
1597.52172	12577.025
1600.84321	12743.925
1604.16251	12685.625
1607.47959	12530.525
1610.79447	12279.525
1614.10715	11902.125
1617.41763	11469.825
1620.7259	11130.825
1624.03199	10922.325
1627.33587	10835.125
1630.63757	10912.225
1633.93707	11126.125
1637.23439	11609.525
1640.52951	12362.225
1643.82246	13412.625
1647.11321	14427.525
1650.40179	14849.825
1653.68819	14296.925
1656.97241	13024.525
1660.25446	11799.825
1663.53433	10948.025
1666.81203	10431.825
1670.08756	10129.425
1673.36092	9943.925
1676.63211	9847.825
1679.90115	9733.925
1683.16801	9638.625
1686.43272	9559.025
1689.69527	9519.725
1692.95567	9453.525
1696.2139	9441.425
1699.46999	9409.025
1702.72392	9408.525
1705.97571	9390.625
1709.22535	9378.125
1712.47284	9379.025
1715.71819	9386.725
1718.96139	9353.425
1722.20246	9360.025
1725.44139	9332.825
1728.67818	9295.025
1731.91284	9238.525
1735.14537	9208.325
1738.37576	9176.525
1741.60403	9135.425
1744.83017	9117.225
1748.05418	9104.025
1751.27607	9083.225
1754.49584	9066.325
1757.71349	9065.125
1760.92903	9027.025
1764.14244	9020.725
1767.35375	8989.525
1770.56294	8996.625
1773.77002	8965.725
1776.97499	8933.525
1780.17785	8892.525
1783.37861	8871.225
1786.57727	8880.825
1789.77382	8870.925
1792.96828	8843.425
1796.16064	8829.825
1799.3509	8814.525
1802.53907	8807.225
1805.72514	8785.325
1808.90913	8768.625
1812.09102	8737.725
1815.27083	8714.825
1818.44856	8672.125
1821.6242	8672.125
1824.79776	8657.325
1827.96924	8649.125
1831.13864	8639.425
1834.30597	8604.825
1837.47122	8588.925
1840.6344	8556.225
1843.7955	8560.125
1846.95454	8564.125
1850.11151	8545.625
1853.26642	8538.125
1856.41926	8539.725
1859.57004	8540.625
1862.71876	8526.425
1865.86542	8534.325
1869.01003	8513.425
1872.15258	8485.125
1875.29308	8479.125
1878.43152	8477.325
1881.56792	8452.725
1884.70227	8420.825
1887.83457	8423.925
1890.96482	8364.425
1894.09304	8378.625
1897.21921	8358.025
1900.34335	8348.225
1903.46544	8329.325
1906.58551	8331.325
1909.70353	8309.625
1912.81953	8287.725
1915.93349	8299.625
1919.04543	8267.525
1922.15534	8251.925
1925.26322	8258.825
1928.36908	8187.025
1931.47292	8208.325
1934.57473	8165.125
1937.67453	8180.625
1940.77232	8132.425
1943.86808	8091.225
1946.96184	8071.925
1950.05358	8066.825
1953.14331	8028.025
1956.23103	8031.125
1959.31675	7988.225
1962.40046	7973.325
1965.48217	7925.025
1968.56188	7903.325
1971.63959	7883.325
1974.7153	7854.025
1977.78901	7868.825
1980.86073	7853.325
1983.93046	7803.625
1986.99819	7762.125
1990.06394	7743.725
1993.1277	7718.425
1996.18947	7688.925
1999.24925	7656.725
2002.30706	7618.425
2005.36288	7588.325
2008.41672	7581.725
2011.46859	7548.925
2014.51848	7498.825
2017.56639	7491.325
2020.61233	7443.225
2023.6563	7447.925
2026.6983	7423.725
2029.73833	7411.325
2032.7764	7378.925
2035.8125	7369.425
2038.84664	7346.525
2041.87881	7337.225
2044.90903	7294.425
2047.93729	7297.625
2050.96359	7275.425
2053.98794	7266.625
2057.01034	7234.625
2060.03078	7245.725
2063.04927	7231.525
2066.06582	7222.425
2069.08042	7213.325
2072.09307	7195.725
2075.10378	7193.025
2078.11255	7188.925
2081.11938	7180.425
2084.12426	7160.425
2087.12722	7162.525
2090.12824	7158.725
2093.12732	7159.025
2096.12447	7152.325
2099.11969	7166.525
2102.11299	7150.225
2105.10435	7154.725
2108.09379	7162.425
2111.08131	7162.425
2114.0669	7154.025
2117.05057	7170.925
2120.03233	7183.625
2123.01216	7182.925
2125.99008	7190.225
2128.96609	7164.525
2131.94018	7159.225
2134.91236	7177.825
2137.88263	7174.025
2140.851	7172.625
2143.81746	7188.825
2146.78201	7142.425
2149.74466	7139.825
2152.7054	7160.325
2155.66425	7141.125
2158.6212	7135.025
2161.57625	7116.425
2164.52941	7114.225
2167.48067	7109.025
2170.43004	7093.625
2173.37752	7080.725
2176.32311	7112.125
2179.26681	7114.625
2182.20863	7094.025
2185.14856	7102.525
2188.08661	7088.625
2191.02278	7086.225
2193.95707	7084.925
2196.88948	7067.125
2199.82001	7056.825
2202.74867	7048.125
2205.67545	7067.025
2208.60037	7046.525
2211.52341	7030.025
2214.44458	6998.825
2217.36388	6980.525
2220.28132	6949.325
2223.1969	6930.025
2226.11061	6910.825
2229.02246	6888.825
2231.93245	6890.225
2234.84058	6865.125
2237.74686	6853.025
2240.65128	6848.425
2243.55385	6837.025
2246.45456	6837.225
2249.35343	6819.925
2252.25044	6813.125
2255.14561	6796.225
2258.03893	6802.225
2260.93041	6758.725
2263.82004	6765.125
2266.70783	6743.825
2269.59378	6715.225
2272.4779	6705.025
2275.36017	6669.725
2278.24061	6681.125
2281.11922	6653.625
2283.996	6620.825
2286.87094	6618.125
2289.74405	6634.625
2292.61534	6607.625
2295.4848	6582.325
2298.35243	6566.625
2301.21824	6564.925
2304.08223	6550.625
2306.94439	6555.325
2309.80474	6545.325
2312.66327	6541.325
2315.51999	6516.625
2318.37489	6523.025
2321.22797	6491.725
2324.07925	6471.825
2326.92871	6479.025
2329.77637	6449.225
2332.62222	6433.925
2335.46626	6419.325
2338.3085	6401.125
2341.14893	6423.425
2343.98756	6407.325
2346.8244	6398.725
2349.65943	6380.525
2352.49267	6359.025
2355.32411	6345.625
2358.15376	6345.425
2360.98161	6363.725
2363.80768	6361.625
2366.63195	6339.425
2369.45444	6341.425
2372.27514	6318.825
2375.09405	6324.025
2377.91118	6311.725
2380.72652	6304.925
2383.54009	6293.425
2386.35187	6259.425
2389.16188	6247.725
2391.97011	6227.025
2394.77657	6210.625
2397.58125	6188.125
2400.38416	6201.925
2403.18529	6166.925
2405.98466	6178.225
2408.78226	6132.325
2411.57809	6142.625
2414.37216	6133.925
2417.16446	6108.525
2419.955	6122.125
2422.74378	6114.125
2425.5308	6107.125
2428.31606	6103.725
2431.09956	6103.425
2433.88131	6072.625
2436.6613	6075.125
2439.43954	6047.225
2442.21603	6036.125
2444.99077	6051.025
2447.76377	6059.125
2450.53501	6042.625
2453.30451	6032.625
2456.07226	6034.125
2458.83827	6007.625
2461.60254	5992.225
2464.36507	5975.925
2467.12586	5968.025
2469.88492	5979.125
2472.64224	5983.725
2475.39782	5959.225
2478.15167	5963.025
2480.90379	5938.425
2483.65417	5894.025
2486.40283	5915.025
2489.14976	5927.425
2491.89497	5933.225
2494.63845	5913.125
2497.3802	5907.225
2500.12024	5886.325
2502.85855	5870.325
2505.59514	5873.525
2508.33002	5874.925
2511.06318	5841.725
2513.79462	5829.125
2516.52435	5836.525
2519.25237	5805.325
2521.97867	5807.125
2524.70327	5794.725
2527.42616	5784.625
2530.14734	5755.125
2532.86681	5765.825
2535.58458	5757.725
2538.30065	5756.325
2541.01501	5747.225
2543.72768	5741.825
2546.43864	5733.425
2549.14791	5706.125
2551.85548	5702.825
2554.56136	5709.425
2557.26554	5692.425
2559.96803	5688.225
2562.66883	5656.625
2565.36794	5636.325
2568.06536	5623.625
2570.7611	5597.525
2573.45514	5592.125
2576.14751	5589.625
2578.83819	5559.325
2581.52719	5568.625
2584.21451	5548.625
2586.90015	5544.725
2589.58411	5536.925
2592.2664	5513.625
2594.94701	5507.025
2597.62594	5498.625
2600.30321	5483.625
2602.9788	5458.625
2605.65273	5450.825
2608.32498	5456.625
2610.99557	5449.725
2613.66449	5420.225
2616.33175	5435.525
2618.99734	5434.325
2621.66128	5399.325
2624.32355	5381.625
2626.98416	5367.125
2629.64311	5361.825
2632.30041	5335.325
2634.95605	5331.325
2637.61004	5324.525
2640.26238	5298.725
2642.91306	5293.625
2645.56209	5310.825
2648.20948	5292.125
2650.85521	5309.425
2653.4993	5294.125
2656.14175	5285.725
2658.78255	5259.225
2661.42171	5255.525
2664.05923	5282.025
2666.6951	5289.025
2669.32934	5273.525
2671.96194	5290.325
2674.59291	5283.025
2677.22224	5274.125
2679.84993	5278.625
2682.476	5262.125
2685.10043	5259.225
2687.72324	5245.725
2690.34441	5251.725
2692.96396	5245.425
2695.58188	5232.725
2698.19818	5235.325
2700.81285	5232.925
2703.4259	5217.525
2706.03733	5220.125
2708.64714	5202.525
2711.25533	5204.425
2713.86191	5197.925
2716.46687	5214.425
2719.07021	5212.625
2721.67194	5205.725
2724.27206	5197.525
2726.87057	5199.425
2729.46747	5197.825
2732.06276	5188.125
2734.65644	5192.925
2737.24852	5167.025
2739.83899	5153.425
2742.42786	5157.125
2745.01513	5129.125
2747.60079	5124.225
2750.18486	5129.525
2752.76733	5103.125
2755.3482	5116.825
2757.92747	5089.725
2760.50515	5081.825
2763.08123	5064.125
2765.65573	5048.425
2768.22863	5059.525
2770.79994	5025.025
2773.36967	5030.625
2775.9378	5010.525
2778.50435	5007.225
2781.06932	4998.125
2783.6327	5007.025
2786.1945	4995.925
2788.75471	4974.425
2791.31335	4961.625
2793.87041	4950.125
2796.42589	4926.525
2798.97979	4933.425
2801.53212	4921.625
2804.08288	4909.125
2806.63206	4900.425
2809.17967	4894.825
2811.72571	4881.025
2814.27018	4866.225
2816.81308	4843.625
2819.35442	4845.025
2821.89419	4832.125
2824.43239	4817.225
2826.96904	4805.525
2829.50412	4807.625
2832.03763	4774.425
2834.56959	4771.125
2837.1	4759.225
2839.62884	4749.725
2842.15613	4754.025
2844.68186	4741.325
2847.20604	4727.325
2849.72867	4729.325
2852.24974	4720.125
2854.76927	4697.025
2857.28724	4689.025
2859.80367	4687.425
2862.31855	4676.525
2864.83189	4684.525
2867.34368	4681.425
2869.85393	4667.625
2872.36264	4652.225
2874.8698	4648.425
2877.37543	4650.725
2879.87952	4628.625
2882.38207	4620.325
2884.88308	4612.025
2887.38256	4624.825
2889.88051	4609.125
2892.37692	4587.325
2894.8718	4590.525
2897.36515	4597.125
2899.85698	4568.325
2902.34727	4589.725
2904.83604	4585.925
2907.32328	4593.525
2909.809	4596.025
2912.29319	4613.525
2914.77587	4596.225
2917.25702	4590.725
2919.73665	4583.825
2922.21476	4593.525
2924.69136	4588.425
2927.16644	4563.325
2929.64	4565.325
2932.11205	4556.625
2934.58258	4534.325
2937.05161	4536.925
2939.51912	4541.225
2941.98513	4533.725
2944.44962	4508.325
2946.91261	4497.225
2949.37409	4519.825
2951.83407	4488.925
2954.29254	4506.925
2956.74951	4495.325
2959.20498	4504.225
2961.65895	4489.425
2964.11142	4495.725
2966.56239	4468.425
2969.01186	4467.825
2971.45984	4465.525
2973.90632	4454.425
2976.35131	4442.925
2978.7948	4427.925
2981.23681	4428.625
2983.67732	4433.025
2986.11635	4420.025
2988.55388	4417.525
2990.98993	4386.125
2993.4245	4374.225
2995.85758	4382.325
2998.28917	4357.525
3000.71928	4339.425
3003.14791	4336.625
3005.57506	4318.525
3008.00073	4314.825
3010.42493	4299.225
3012.84764	4302.225
3015.26888	4279.225
3017.68865	4278.725
3020.10694	4286.325
3022.52376	4257.525
3024.9391	4241.125
3027.35298	4222.925
3029.76539	4203.325
3032.17632	4211.125
3034.5858	4198.925
3036.9938	4190.925
3039.40034	4177.425
3041.80542	4156.925
3044.20903	4155.625
3046.61118	4152.525
3049.01187	4133.025
3051.4111	4142.325
3053.80888	4113.825
3056.20519	4110.525
3058.60005	4089.025
3060.99345	4094.725
3063.3854	4072.625
3065.7759	4071.425
3068.16494	4062.325
3070.55254	4042.725
3072.93868	4026.025
3075.32338	4020.325
3077.70662	4014.425
3080.08842	3994.925
3082.46878	3988.225
3084.84769	3974.625
3087.22515	3977.425
3089.60118	3983.425
3091.97576	3962.725
3094.3489	3962.025
3096.72061	3951.125
3099.09087	3943.625
3101.4597	3946.725
3103.82709	3948.825
3106.19305	3939.325
3108.55757	3946.425
3110.92066	3920.025
3113.28232	3917.725
3115.64255	3906.825
3118.00134	3909.825
3120.35871	3899.225
3122.71466	3880.725
3125.06917	3864.925
3127.42226	3853.725
3129.77393	3853.425
3132.12417	3837.325
3134.47299	3826.925
3136.82039	3842.025
3139.16636	3824.325
3141.51092	3833.225
3143.85406	3836.825
3146.19579	3825.925
3148.53609	3805.925
3150.87499	3806.625
3153.21246	3810.625
3155.54853	3820.525
3157.88318	3793.925
3160.21642	3789.025
3162.54826	3788.825
3164.87868	3782.425
3167.2077	3778.325
3169.5353	3782.025
3171.86151	3767.925
3174.18631	3771.625
3176.5097	3748.425
3178.83169	3753.025
3181.15228	3753.525
3183.47147	3720.525
3185.78926	3720.925
3188.10565	3697.525
3190.42065	3694.325
3192.73424	3681.125
3195.04645	3695.925
3197.35725	3676.025
3199.66667	3668.525
3201.97469	3680.325
3204.28132	3658.725
