Data from AgNPs_UA_5uM_CRN_500uM_SU_RamanShift__211__12-04-33-182.txt Node

Date: Thu Aug 04 12:04:33 BST 2022
User: TCL
Spectrometer: QEP01345
Trigger mode: 4
Integration Time (sec): 1.000000E0
Scans to average: 10
Electric dark correction enabled: true
Nonlinearity correction enabled: false
Boxcar width: 0
XAxis mode: Raman Shifts
Number of Pixels in Spectrum: 1044
>>>>>Begin Spectral Data<<<<<
46.04893	0.05
50.45542	-0.85
54.85868	0.45
59.25871	-0.05
63.6555	-58.05
68.04907	-40.15
72.43941	-71.75
76.82654	-56.15
81.21044	-55.75
85.59113	-49.35
89.96862	-75.65
94.34289	-53.55
98.71396	-77.55
103.08183	-57.25
107.4465	-48.45
111.80798	-55.45
116.16626	-45.25
120.52136	-74.45
124.87327	-50.55
129.222	-62.15
133.56755	-48.55
137.90993	-61.95
142.24913	-51.25
146.58517	-42.85
150.91804	-40.15
155.24774	-30.15
159.57429	-9.65
163.89768	-3.85
168.21792	38.85
172.53501	61.25
176.84895	140.45
181.15975	276.25
185.46741	428.45
189.77193	614.15
194.07331	897.75
198.37157	1182.95
202.6667	1478.65
206.9587	1806.25
211.24758	2117.65
215.53334	2454.05
219.81599	2802.15
224.09553	3215.85
228.37195	3654.25
232.64527	4116.25
236.91549	4593.45
241.18261	4948.15
245.44663	5230.45
249.70755	5416.25
253.96539	5542.55
258.22014	5651.95
262.4718	5727.45
266.72039	5757.95
270.96589	5714.95
275.20832	5622.05
279.44768	5518.15
283.68397	5413.05
287.91719	5377.85
292.14735	5391.05
296.37445	5558.05
300.59849	5859.55
304.81948	6192.35
309.03742	6600.55
313.25231	6812.75
317.46415	6784.95
321.67296	6376.15
325.87872	5977.45
330.08145	5768.25
334.28114	5740.55
338.47781	5792.15
342.67145	5924.05
346.86207	6158.85
351.04966	6548.35
355.23424	6933.35
359.4158	7190.75
363.59435	7234.85
367.76989	7173.55
371.94243	7049.65
376.11196	6912.25
380.27849	6844.65
384.44203	6784.15
388.60257	6748.95
392.76012	6747.05
396.91468	6855.15
401.06626	7016.95
405.21485	7043.75
409.36047	6881.75
413.50311	6559.05
417.64277	6266.95
421.77947	6054.05
425.9132	5973.15
430.04396	5966.25
434.17176	6012.45
438.2966	6091.15
442.41849	6180.85
446.53742	6341.05
450.6534	6407.05
454.76644	6480.05
458.87653	6493.45
462.98368	6459.35
467.08789	6393.65
471.18916	6302.15
475.2875	6184.05
479.38291	6062.45
483.4754	5962.95
487.56496	5934.95
491.6516	5899.15
495.73531	5891.35
499.81612	5938.15
503.89401	6022.15
507.96899	6061.75
512.04106	6158.95
516.11023	6272.65
520.1765	6346.85
524.23987	6380.05
528.30034	6373.95
532.35792	6283.75
536.41261	6250.15
540.46441	6158.15
544.51333	6090.15
548.55936	6142.05
552.60252	6265.75
556.64279	6373.25
560.6802	6494.35
564.71473	6613.25
568.7464	6826.95
572.7752	6804.25
576.80114	6487.05
580.82422	6241.75
584.84444	6149.75
588.86181	6109.35
592.87633	6158.65
596.888	6274.55
600.89682	6645.75
604.9028	7623.65
608.90594	9763.05
612.90624	12154.15
616.90371	11271.25
620.89834	8148.75
624.89015	6796.55
628.87913	6584.05
632.86528	6726.95
636.84862	6901.85
640.82913	6780.05
644.80683	6411.85
648.78172	6227.05
652.75379	6242.95
656.72306	6504.25
660.68952	6738.55
664.65319	6657.65
668.61405	6411.35
672.57211	6341.25
676.52738	6319.25
680.47986	6232.55
684.42955	6141.35
688.37646	6087.05
692.32058	6101.55
696.26192	6190.25
700.20048	6284.25
704.13626	6309.65
708.06928	6271.05
711.99952	6242.85
715.927	6202.45
719.85171	6253.35
723.77365	6307.75
727.69284	6272.75
731.60928	6273.55
735.52295	6237.05
739.43388	6279.05
743.34206	6275.05
747.24749	6329.35
751.15017	6324.45
755.05012	6398.55
758.94733	6782.95
762.8418	7667.85
766.73354	9013.75
770.62254	10022.05
774.50882	10117.55
778.39237	9613.25
782.27321	8628.95
786.15132	7579.75
790.02671	6881.75
793.89938	6506.95
797.76935	6366.95
801.6366	6279.25
805.50115	6235.35
809.36299	6216.35
813.22213	6227.85
817.07857	6209.45
820.93231	6215.65
824.78336	6245.55
828.63172	6252.75
832.47738	6275.65
836.32036	6270.95
840.16066	6227.85
843.99827	6218.15
847.8332	6205.25
851.66546	6230.25
855.49504	6229.05
859.32195	6260.45
863.1462	6247.75
866.96777	6239.35
870.78668	6245.85
874.60293	6270.55
878.41652	6272.15
882.22745	6336.45
886.03573	6382.45
889.84136	6372.55
893.64433	6385.15
897.44466	6366.75
901.24235	6347.75
905.0374	6352.95
908.8298	6302.05
912.61957	6269.95
916.40671	6226.65
920.19121	6276.85
923.97308	6368.05
927.75233	6436.05
931.52895	6501.25
935.30295	6472.95
939.07433	6299.35
942.84309	6177.75
946.60924	6153.55
950.37278	6107.65
954.13371	6108.55
957.89203	6110.55
961.64774	6122.15
965.40086	6122.75
969.15137	6090.85
972.89929	6129.95
976.64461	6108.65
980.38733	6131.85
984.12747	6128.65
987.86502	6141.45
991.59999	6176.05
995.33237	6256.65
999.06217	6308.25
1002.78939	6381.95
1006.51404	6525.45
1010.23611	6644.45
1013.95561	6696.55
1017.67255	6682.95
1021.38692	6658.65
1025.09872	6587.15
1028.80796	6508.75
1032.51465	6513.25
1036.21877	6510.65
1039.92035	6575.05
1043.61937	6582.55
1047.31584	6641.55
1051.00976	6651.65
1054.70114	6657.05
1058.38998	6656.35
1062.07627	6675.95
1065.76003	6697.35
1069.44126	6784.95
1073.11995	6858.35
1076.79611	7001.35
1080.46974	7149.35
1084.14085	7319.55
1087.80943	7446.75
1091.47549	7499.55
1095.13903	7389.55
1098.80005	7275.75
1102.45857	7166.15
1106.11456	7159.15
1109.76805	7103.25
1113.41903	7205.75
1117.06751	7366.55
1120.71348	7654.05
1124.35696	8031.05
1127.99793	8331.65
1131.63641	8174.75
1135.2724	7743.65
1138.90589	7442.45
1142.5369	7247.75
1146.16542	7115.45
1149.79145	7006.95
1153.415	6968.25
1157.03607	6971.35
1160.65467	7063.15
1164.27079	7285.95
1167.88443	7528.95
1171.49561	7985.35
1175.10432	8611.75
1178.71056	9529.85
1182.31434	10324.65
1185.91565	10578.65
1189.51451	10418.95
1193.11091	10162.75
1196.70485	9923.65
1200.29634	9666.45
1203.88538	9404.65
1207.47197	8941.35
1211.05612	8462.35
1214.63782	8031.05
1218.21708	7794.55
1221.79391	7636.35
1225.36829	7543.95
1228.94024	7540.55
1232.50976	7556.35
1236.07685	7604.25
1239.6415	7612.75
1243.20374	7639.05
1246.76355	7667.95
1250.32093	7748.85
1253.8759	7818.75
1257.42845	7980.75
1260.97859	8206.05
1264.52631	8462.45
1268.07163	8612.95
1271.61453	8737.65
1275.15503	8777.85
1278.69312	8787.75
1282.22882	8861.55
1285.76211	9066.05
1289.29301	9313.65
1292.82151	9608.45
1296.34761	9787.65
1299.87133	10215.25
1303.39266	10941.85
1306.9116	12120.85
1310.42815	13373.85
1313.94233	13805.65
1317.45412	13016.15
1320.96354	11823.45
1324.47058	10815.45
1327.97525	10036.55
1331.47754	9600.05
1334.97747	9520.55
1338.47502	9624.85
1341.97022	9999.05
1345.46305	10757.45
1348.95352	11853.15
1352.44163	13151.45
1355.92738	14545.15
1359.41078	16266.15
1362.89183	17805.45
1366.37053	17165.45
1369.84688	14254.55
1373.32088	11490.45
1376.79254	10062.75
1380.26186	9374.05
1383.72883	8957.35
1387.19347	8538.35
1390.65578	8197.75
1394.11575	7949.55
1397.57339	7775.25
1401.0287	7684.75
1404.48168	7634.05
1407.93234	7632.25
1411.38068	7668.95
1414.82669	7751.65
1418.27039	7817.75
1421.71177	7835.05
1425.15083	7732.55
1428.58758	7636.75
1432.02203	7660.75
1435.45416	7753.45
1438.88399	7788.95
1442.31151	7752.25
1445.73673	7783.05
1449.15965	7880.15
1452.58027	7882.15
1455.9986	7858.95
1459.41463	7884.55
1462.82837	8002.45
1466.23982	8182.75
1469.64898	8397.45
1473.05586	8534.85
1476.46045	8645.25
1479.86276	8708.75
1483.26279	8817.75
1486.66054	8992.15
1490.05602	9313.75
1493.44922	9857.45
1496.84016	10752.35
1500.22882	12152.65
1503.61521	13928.85
1506.99934	15756.25
1510.38121	16984.65
1513.76081	16841.45
1517.13816	15205.25
1520.51324	13068.05
1523.88607	11299.05
1527.25665	10287.65
1530.62498	9794.95
1533.99105	9546.25
1537.35488	9420.65
1540.71647	9333.75
1544.07581	9186.85
1547.4329	9059.25
1550.78776	8955.85
1554.14038	8850.45
1557.49077	8843.65
1560.83892	8928.65
1564.18484	9165.85
1567.52853	9504.55
1570.86999	9831.75
1574.20922	9975.15
1577.54624	9865.75
1580.88103	9333.45
1584.2136	8647.15
1587.54395	8281.55
1590.87208	8200.15
1594.19801	8367.15
1597.52172	8704.35
1600.84321	8860.65
1604.16251	8738.35
1607.47959	8521.35
1610.79447	8315.65
1614.10715	8044.35
1617.41763	7752.55
1620.7259	7469.45
1624.03199	7318.15
1627.33587	7245.95
1630.63757	7293.45
1633.93707	7511.15
1637.23439	7930.25
1640.52951	8636.15
1643.82246	9648.15
1647.11321	10837.65
1650.40179	11600.25
1653.68819	11222.45
1656.97241	9966.85
1660.25446	8546.85
1663.53433	7531.05
1666.81203	6918.25
1670.08756	6568.35
1673.36092	6390.45
1676.63211	6229.35
1679.90115	6135.15
1683.16801	6060.75
1686.43272	5975.35
1689.69527	5914.65
1692.95567	5857.15
1696.2139	5852.65
1699.46999	5782.35
1702.72392	5790.95
1705.97571	5819.45
1709.22535	5781.95
1712.47284	5828.65
1715.71819	5815.45
1718.96139	5811.95
1722.20246	5810.15
1725.44139	5760.65
1728.67818	5762.75
1731.91284	5713.15
1735.14537	5669.25
1738.37576	5628.55
1741.60403	5603.15
1744.83017	5565.35
1748.05418	5588.45
1751.27607	5584.75
1754.49584	5537.35
1757.71349	5516.95
1760.92903	5521.15
1764.14244	5464.15
1767.35375	5482.35
1770.56294	5463.65
1773.77002	5435.65
1776.97499	5461.75
1780.17785	5435.95
1783.37861	5409.05
1786.57727	5444.05
1789.77382	5381.75
1792.96828	5406.95
1796.16064	5401.55
1799.3509	5386.15
1802.53907	5408.85
1805.72514	5371.15
1808.90913	5334.65
1812.09102	5322.25
1815.27083	5331.65
1818.44856	5323.35
1821.6242	5301.55
1824.79776	5279.15
1827.96924	5266.85
1831.13864	5260.75
1834.30597	5252.65
1837.47122	5239.45
1840.6344	5222.85
1843.7955	5223.35
1846.95454	5210.45
1850.11151	5252.35
1853.26642	5198.25
1856.41926	5180.55
1859.57004	5196.45
1862.71876	5181.95
1865.86542	5186.15
1869.01003	5180.05
1872.15258	5153.45
1875.29308	5172.65
1878.43152	5160.05
1881.56792	5135.15
1884.70227	5124.45
1887.83457	5139.25
1890.96482	5112.65
1894.09304	5114.45
1897.21921	5108.05
1900.34335	5095.25
1903.46544	5091.95
1906.58551	5087.95
1909.70353	5079.55
1912.81953	5088.25
1915.93349	5063.15
1919.04543	5050.05
1922.15534	5038.55
1925.26322	5028.35
1928.36908	5011.35
1931.47292	5031.65
1934.57473	5031.45
1937.67453	4997.45
1940.77232	4964.55
1943.86808	4956.95
1946.96184	4940.15
1950.05358	4916.55
1953.14331	4915.45
1956.23103	4912.15
1959.31675	4884.45
1962.40046	4852.75
1965.48217	4851.25
1968.56188	4839.35
1971.63959	4825.75
1974.7153	4829.95
1977.78901	4829.05
1980.86073	4803.35
1983.93046	4775.65
1986.99819	4677.05
1990.06394	4699.15
1993.1277	4714.45
1996.18947	4688.15
1999.24925	4648.25
2002.30706	4670.45
2005.36288	4679.55
2008.41672	4635.85
2011.46859	4612.25
2014.51848	4606.25
2017.56639	4589.75
2020.61233	4559.65
2023.6563	4581.25
2026.6983	4539.75
2029.73833	4536.85
2032.7764	4530.25
2035.8125	4487.75
2038.84664	4486.45
2041.87881	4473.15
2044.90903	4496.45
2047.93729	4486.05
2050.96359	4446.85
2053.98794	4455.05
2057.01034	4453.35
2060.03078	4429.45
2063.04927	4431.95
2066.06582	4422.35
2069.08042	4420.35
2072.09307	4432.05
2075.10378	4410.25
2078.11255	4402.25
2081.11938	4408.85
2084.12426	4406.45
2087.12722	4376.55
2090.12824	4387.35
2093.12732	4387.75
2096.12447	4406.25
2099.11969	4375.35
2102.11299	4378.35
2105.10435	4408.95
2108.09379	4404.55
2111.08131	4382.55
2114.0669	4390.95
2117.05057	4387.05
2120.03233	4364.15
2123.01216	4393.25
2125.99008	4382.75
2128.96609	4410.95
2131.94018	4436.45
2134.91236	4401.15
2137.88263	4388.35
2140.851	4406.05
2143.81746	4412.05
2146.78201	4415.65
2149.74466	4384.05
2152.7054	4400.45
2155.66425	4383.05
2158.6212	4384.55
2161.57625	4365.45
2164.52941	4338.35
2167.48067	4360.85
2170.43004	4357.15
2173.37752	4374.75
2176.32311	4354.35
2179.26681	4358.15
2182.20863	4350.85
2185.14856	4356.45
2188.08661	4352.25
2191.02278	4375.65
2193.95707	4338.65
2196.88948	4324.95
2199.82001	4306.85
2202.74867	4329.75
2205.67545	4323.35
2208.60037	4335.35
2211.52341	4305.45
2214.44458	4308.75
2217.36388	4289.65
2220.28132	4267.35
2223.1969	4257.55
2226.11061	4261.05
2229.02246	4244.65
2231.93245	4249.55
2234.84058	4219.55
2237.74686	4213.05
2240.65128	4203.95
2243.55385	4217.05
2246.45456	4183.35
2249.35343	4200.25
2252.25044	4192.35
2255.14561	4191.15
2258.03893	4186.25
2260.93041	4169.15
2263.82004	4180.05
2266.70783	4160.45
2269.59378	4147.25
2272.4779	4106.25
2275.36017	4119.75
2278.24061	4112.55
2281.11922	4075.45
2283.996	4088.75
2286.87094	4081.75
2289.74405	4076.65
2292.61534	4080.05
2295.4848	4069.35
2298.35243	4052.55
2301.21824	4041.25
2304.08223	4022.75
2306.94439	4053.35
2309.80474	4050.55
2312.66327	4043.35
2315.51999	4016.45
2318.37489	4016.35
2321.22797	3999.85
2324.07925	4001.25
2326.92871	3975.85
2329.77637	3980.85
2332.62222	3971.55
2335.46626	3943.65
2338.3085	3948.75
2341.14893	3958.65
2343.98756	3963.35
2346.8244	3948.25
2349.65943	3923.05
2352.49267	3920.65
2355.32411	3943.85
2358.15376	3926.15
2360.98161	3945.65
2363.80768	3907.35
2366.63195	3933.45
2369.45444	3955.65
2372.27514	3927.45
2375.09405	3938.05
2377.91118	3912.75
2380.72652	3906.95
2383.54009	3889.55
2386.35187	3885.35
2389.16188	3861.35
2391.97011	3870.75
2394.77657	3852.55
2397.58125	3844.15
2400.38416	3828.45
2403.18529	3821.25
2405.98466	3809.35
2408.78226	3816.35
2411.57809	3809.65
2414.37216	3787.75
2417.16446	3782.55
2419.955	3765.75
2422.74378	3787.55
2425.5308	3758.85
2428.31606	3774.15
2431.09956	3766.45
2433.88131	3748.45
2436.6613	3759.45
2439.43954	3753.95
2442.21603	3743.55
2444.99077	3719.95
2447.76377	3741.95
2450.53501	3733.25
2453.30451	3720.65
2456.07226	3746.45
2458.83827	3715.35
2461.60254	3676.65
2464.36507	3705.05
2467.12586	3694.75
2469.88492	3705.25
2472.64224	3699.95
2475.39782	3676.15
2478.15167	3689.05
2480.90379	3696.15
2483.65417	3676.25
2486.40283	3710.55
2489.14976	3707.25
2491.89497	3694.75
2494.63845	3691.65
2497.3802	3670.35
2500.12024	3671.75
2502.85855	3666.75
2505.59514	3665.35
2508.33002	3648.25
2511.06318	3633.45
2513.79462	3629.95
2516.52435	3603.85
2519.25237	3576.25
2521.97867	3570.05
2524.70327	3586.55
2527.42616	3584.35
2530.14734	3591.45
2532.86681	3565.55
2535.58458	3567.35
2538.30065	3550.15
2541.01501	3578.45
2543.72768	3534.55
2546.43864	3532.65
2549.14791	3535.55
2551.85548	3525.15
2554.56136	3526.65
2557.26554	3532.85
2559.96803	3527.45
2562.66883	3504.65
2565.36794	3491.05
2568.06536	3461.25
2570.7611	3499.25
2573.45514	3468.35
2576.14751	3465.95
2578.83819	3452.75
2581.52719	3435.35
2584.21451	3439.85
2586.90015	3410.65
2589.58411	3397.55
2592.2664	3415.45
2594.94701	3412.55
2597.62594	3420.85
2600.30321	3347.35
2602.9788	3348.85
2605.65273	3353.15
2608.32498	3370.25
2610.99557	3380.35
2613.66449	3351.15
2616.33175	3364.15
2618.99734	3363.65
2621.66128	3354.25
2624.32355	3352.15
2626.98416	3318.05
2629.64311	3312.75
2632.30041	3321.55
2634.95605	3293.25
2637.61004	3289.55
2640.26238	3274.35
2642.91306	3274.85
2645.56209	3293.85
2648.20948	3283.35
2650.85521	3278.65
2653.4993	3295.15
2656.14175	3270.95
2658.78255	3261.95
2661.42171	3236.45
2664.05923	3276.05
2666.6951	3285.15
2669.32934	3285.05
2671.96194	3296.25
2674.59291	3281.05
2677.22224	3282.35
2679.84993	3287.75
2682.476	3271.25
2685.10043	3274.15
2687.72324	3255.15
2690.34441	3253.85
2692.96396	3245.75
2695.58188	3259.05
2698.19818	3256.35
2700.81285	3251.15
2703.4259	3238.15
2706.03733	3192.05
2708.64714	3212.95
2711.25533	3237.15
2713.86191	3239.55
2716.46687	3221.95
2719.07021	3244.45
2721.67194	3230.45
2724.27206	3249.45
2726.87057	3227.55
2729.46747	3224.25
2732.06276	3227.25
2734.65644	3228.75
2737.24852	3215.55
2739.83899	3190.15
2742.42786	3198.55
2745.01513	3204.45
2747.60079	3182.45
2750.18486	3176.75
2752.76733	3178.85
2755.3482	3166.55
2757.92747	3169.95
2760.50515	3152.85
2763.08123	3156.95
2765.65573	3152.65
2768.22863	3137.15
2770.79994	3133.65
2773.36967	3121.85
2775.9378	3110.05
2778.50435	3111.85
2781.06932	3098.75
2783.6327	3097.35
2786.1945	3117.75
2788.75471	3091.95
2791.31335	3094.05
2793.87041	3085.65
2796.42589	3070.25
2798.97979	3062.25
2801.53212	3055.45
2804.08288	3069.65
2806.63206	3060.85
2809.17967	3040.45
2811.72571	3051.15
2814.27018	3042.05
2816.81308	3051.65
2819.35442	2994.65
2821.89419	3025.05
2824.43239	2995.25
2826.96904	3039.85
2829.50412	3002.25
2832.03763	3006.15
2834.56959	3001.35
2837.1	2998.45
2839.62884	2994.05
2842.15613	2994.85
2844.68186	3004.25
2847.20604	2958.05
2849.72867	2955.45
2852.24974	2979.15
2854.76927	2946.55
2857.28724	2890.05
2859.80367	2957.35
2862.31855	2959.35
2864.83189	2950.25
2867.34368	2954.35
2869.85393	2969.25
2872.36264	2925.25
2874.8698	2929.35
2877.37543	2941.15
2879.87952	2929.25
2882.38207	2915.75
2884.88308	2907.75
2887.38256	2931.65
2889.88051	2914.45
2892.37692	2918.85
2894.8718	2891.15
2897.36515	2917.35
2899.85698	2909.45
2902.34727	2903.15
2904.83604	2903.75
2907.32328	2918.15
2909.809	2916.65
2912.29319	2917.95
2914.77587	2909.95
2917.25702	2927.45
2919.73665	2928.65
2922.21476	2939.95
2924.69136	2934.05
2927.16644	2914.25
2929.64	2918.35
2932.11205	2891.05
2934.58258	2896.65
2937.05161	2875.85
2939.51912	2893.15
2941.98513	2907.35
2944.44962	2889.35
2946.91261	2847.05
2949.37409	2859.45
2951.83407	2858.45
2954.29254	2852.15
2956.74951	2854.95
2959.20498	2846.75
2961.65895	2839.85
2964.11142	2837.15
2966.56239	2838.15
2969.01186	2833.35
2971.45984	2823.05
2973.90632	2813.95
2976.35131	2818.05
2978.7948	2808.25
2981.23681	2807.65
2983.67732	2811.75
2986.11635	2801.95
2988.55388	2782.85
2990.98993	2784.55
2993.4245	2761.75
2995.85758	2754.35
2998.28917	2749.85
3000.71928	2736.75
3003.14791	2734.95
3005.57506	2722.05
3008.00073	2705.15
3010.42493	2651.25
3012.84764	2701.35
3015.26888	2706.05
3017.68865	2697.45
3020.10694	2657.75
3022.52376	2665.05
3024.9391	2670.25
3027.35298	2650.65
3029.76539	2632.75
3032.17632	2647.05
3034.5858	2632.25
3036.9938	2655.15
3039.40034	2618.55
3041.80542	2622.75
3044.20903	2619.05
3046.61118	2596.45
3049.01187	2616.05
3051.4111	2597.65
3053.80888	2591.05
3056.20519	2582.05
3058.60005	2556.05
3060.99345	2586.35
3063.3854	2554.65
3065.7759	2539.85
3068.16494	2540.25
3070.55254	2528.85
3072.93868	2536.75
3075.32338	2526.55
3077.70662	2521.65
3080.08842	2503.15
3082.46878	2488.65
3084.84769	2520.65
3087.22515	2494.05
3089.60118	2510.65
3091.97576	2487.95
3094.3489	2498.75
3096.72061	2490.45
3099.09087	2480.25
3101.4597	2500.35
3103.82709	2474.55
3106.19305	2466.15
3108.55757	2478.15
3110.92066	2452.95
3113.28232	2471.45
3115.64255	2461.35
3118.00134	2465.95
3120.35871	2450.25
3122.71466	2424.35
3125.06917	2423.55
3127.42226	2417.25
3129.77393	2393.65
3132.12417	2414.35
3134.47299	2420.55
3136.82039	2399.15
3139.16636	2375.85
3141.51092	2401.55
3143.85406	2389.25
3146.19579	2376.15
3148.53609	2378.25
3150.87499	2387.05
3153.21246	2381.15
3155.54853	2381.55
3157.88318	2387.25
3160.21642	2394.95
3162.54826	2377.85
3164.87868	2385.75
3167.2077	2342.85
3169.5353	2352.05
3171.86151	2376.65
3174.18631	2358.05
3176.5097	2349.35
3178.83169	2358.95
3181.15228	2365.95
3183.47147	2323.25
3185.78926	2318.75
3188.10565	2311.15
3190.42065	2302.25
3192.73424	2301.65
3195.04645	2296.05
3197.35725	2279.25
3199.66667	2303.65
3201.97469	2285.15
3204.28132	2287.25
3206.58656	2298.65
3208.8904	2300.55
3211.19287	2288.85
3213.49394	2275.65
3215.79363	2274.05
3218.09193	2290.15
3220.38884	2282.15
3222.68438	2289.75
3224.97853	2259.55
3227.2713	2287.35
3229.56269	2271.95
3231.8527	2267.25
3234.14133	2245.35
3236.42858	2252.45
3238.71446	2223.85
3240.99896	2245.35
3243.28209	2228.05
3245.56384	2243.55
3247.84423	2222.85
3250.12324	2219.65
3252.40088	2213.85
3254.67715	2214.75
3256.95205	2203.05
3259.22558	2221.35
3261.49775	2210.75
3263.76855	2206.55
3266.03799	2209.15
3268.30606	2205.05
3270.57277	2190.55
3272.83812	2183.65
3275.10211	2170.75
3277.36474	2196.75
3279.62601	2177.75
3281.88593	2170.15
3284.14448	2134.65
3286.40168	2165.15
3288.65753	2153.05
3290.91202	2148.85
3293.16516	2139.05
3295.41695	2159.65
3297.66738	2159.05
3299.91647	2124.05
3302.16421	2126.15
3304.4106	2086.35
3306.65564	2108.75
3308.89933	2070.25
3311.14169	2066.35
3313.38269	2056.45
3315.62236	2032.95
3317.86068	2020.55
3320.09766	2014.55
3322.3333	1981.75
3324.5676	1983.15
3326.80056	1950.35
3329.03219	1942.45
3331.26248	-0.25
3333.49143	-0.35
3335.71905	1.05
