Data from AgNPs_UA_5uM_CRN_500uM_SU_RamanShift__216__12-05-23-183.txt Node

Date: Thu Aug 04 12:05:23 BST 2022
User: TCL
Spectrometer: QEP01345
Trigger mode: 4
Integration Time (sec): 1.000000E0
Scans to average: 10
Electric dark correction enabled: true
Nonlinearity correction enabled: false
Boxcar width: 0
XAxis mode: Raman Shifts
Number of Pixels in Spectrum: 1044
>>>>>Begin Spectral Data<<<<<
46.04893	-0.525
50.45542	1.075
54.85868	-0.525
59.25871	-1.325
63.6555	-59.025
68.04907	-39.725
72.43941	-70.625
76.82654	-59.225
81.21044	-56.625
85.59113	-49.925
89.96862	-73.625
94.34289	-55.625
98.71396	-79.725
103.08183	-59.225
107.4465	-49.025
111.80798	-56.725
116.16626	-44.825
120.52136	-74.125
124.87327	-50.025
129.222	-63.125
133.56755	-49.925
137.90993	-62.625
142.24913	-53.725
146.58517	-44.125
150.91804	-43.025
155.24774	-29.825
159.57429	-9.925
163.89768	-8.625
168.21792	38.275
172.53501	55.675
176.84895	135.475
181.15975	266.775
185.46741	410.475
189.77193	590.075
194.07331	871.875
198.37157	1156.275
202.6667	1436.075
206.9587	1755.675
211.24758	2050.175
215.53334	2372.775
219.81599	2721.875
224.09553	3122.875
228.37195	3542.375
232.64527	3998.375
236.91549	4461.975
241.18261	4824.975
245.44663	5092.175
249.70755	5261.775
253.96539	5383.475
258.22014	5479.375
262.4718	5564.975
266.72039	5593.975
270.96589	5566.575
275.20832	5461.175
279.44768	5366.075
283.68397	5254.175
287.91719	5191.775
292.14735	5231.575
296.37445	5413.475
300.59849	5705.675
304.81948	6028.175
309.03742	6409.575
313.25231	6652.975
317.46415	6574.775
321.67296	6205.475
325.87872	5787.575
330.08145	5597.375
334.28114	5564.575
338.47781	5636.275
342.67145	5764.375
346.86207	5980.775
351.04966	6355.975
355.23424	6729.575
359.4158	6986.275
363.59435	7024.575
367.76989	6966.575
371.94243	6841.075
376.11196	6709.075
380.27849	6652.675
384.44203	6584.575
388.60257	6543.875
392.76012	6537.875
396.91468	6659.775
401.06626	6813.575
405.21485	6852.575
409.36047	6676.575
413.50311	6375.675
417.64277	6080.475
421.77947	5871.875
425.9132	5816.175
430.04396	5792.275
434.17176	5839.475
438.2966	5919.075
442.41849	6011.875
446.53742	6136.975
450.6534	6222.775
454.76644	6302.475
458.87653	6299.775
462.98368	6250.775
467.08789	6193.775
471.18916	6112.975
475.2875	6006.575
479.38291	5899.075
483.4754	5797.675
487.56496	5759.775
491.6516	5724.875
495.73531	5725.475
499.81612	5756.475
503.89401	5825.075
507.96899	5886.675
512.04106	5977.875
516.11023	6089.575
520.1765	6159.775
524.23987	6195.975
528.30034	6165.575
532.35792	6094.175
536.41261	6052.575
540.46441	5948.675
544.51333	5903.975
548.55936	5947.375
552.60252	6079.675
556.64279	6180.675
560.6802	6286.475
564.71473	6429.675
568.7464	6617.275
572.7752	6603.275
576.80114	6299.475
580.82422	6057.075
584.84444	5955.175
588.86181	5926.475
592.87633	5982.175
596.888	6076.575
600.89682	6458.175
604.9028	7417.975
608.90594	9479.475
612.90624	11811.975
616.90371	10952.875
620.89834	7915.875
624.89015	6578.275
628.87913	6388.775
632.86528	6536.675
636.84862	6707.475
640.82913	6569.775
644.80683	6218.875
648.78172	6048.875
652.75379	6067.675
656.72306	6295.275
660.68952	6527.275
664.65319	6455.675
668.61405	6218.475
672.57211	6147.175
676.52738	6150.275
680.47986	6054.975
684.42955	5960.875
688.37646	5900.275
692.32058	5903.975
696.26192	5991.675
700.20048	6079.675
704.13626	6119.375
708.06928	6068.375
711.99952	6052.075
715.927	6020.375
719.85171	6061.675
723.77365	6106.475
727.69284	6116.775
731.60928	6048.675
735.52295	6031.475
739.43388	6080.675
743.34206	6083.375
747.24749	6121.775
751.15017	6135.775
755.05012	6203.475
758.94733	6574.575
762.8418	7414.075
766.73354	8719.875
770.62254	9752.675
774.50882	9833.575
778.39237	9319.675
782.27321	8375.575
786.15132	7339.875
790.02671	6674.475
793.89938	6294.475
797.76935	6177.475
801.6366	6074.475
805.50115	6042.675
809.36299	6040.575
813.22213	6029.375
817.07857	6038.175
820.93231	6019.475
824.78336	6043.275
828.63172	6069.575
832.47738	6078.275
836.32036	6073.775
840.16066	6031.275
843.99827	6021.375
847.8332	6018.775
851.66546	6030.675
855.49504	6024.475
859.32195	6051.675
863.1462	6051.775
866.96777	6049.475
870.78668	6017.275
874.60293	6056.875
878.41652	6068.475
882.22745	6150.575
886.03573	6173.175
889.84136	6179.075
893.64433	6176.875
897.44466	6160.175
901.24235	6154.975
905.0374	6172.675
908.8298	6103.075
912.61957	6067.175
916.40671	6016.275
920.19121	6071.375
923.97308	6162.075
927.75233	6228.675
931.52895	6293.075
935.30295	6253.475
939.07433	6105.775
942.84309	5977.275
946.60924	5967.475
950.37278	5904.775
954.13371	5911.475
957.89203	5922.875
961.64774	5937.575
965.40086	5920.875
969.15137	5889.275
972.89929	5937.075
976.64461	5910.275
980.38733	5941.375
984.12747	5938.075
987.86502	5958.075
991.59999	5989.675
995.33237	6049.775
999.06217	6113.875
1002.78939	6178.075
1006.51404	6301.275
1010.23611	6432.875
1013.95561	6479.975
1017.67255	6459.875
1021.38692	6461.575
1025.09872	6386.775
1028.80796	6301.475
1032.51465	6309.975
1036.21877	6289.175
1039.92035	6335.175
1043.61937	6370.675
1047.31584	6431.075
1051.00976	6462.675
1054.70114	6463.975
1058.38998	6462.475
1062.07627	6465.775
1065.76003	6528.375
1069.44126	6590.975
1073.11995	6629.375
1076.79611	6759.975
1080.46974	6927.475
1084.14085	7104.175
1087.80943	7201.775
1091.47549	7260.075
1095.13903	7167.175
1098.80005	7057.775
1102.45857	6953.375
1106.11456	6930.775
1109.76805	6872.275
1113.41903	6969.975
1117.06751	7158.475
1120.71348	7401.275
1124.35696	7789.375
1127.99793	8052.975
1131.63641	7909.775
1135.2724	7497.575
1138.90589	7219.675
1142.5369	7005.275
1146.16542	6921.475
1149.79145	6807.575
1153.415	6762.175
1157.03607	6749.175
1160.65467	6846.875
1164.27079	7045.975
1167.88443	7309.875
1171.49561	7731.175
1175.10432	8343.875
1178.71056	9224.475
1182.31434	10025.875
1185.91565	10276.775
1189.51451	10124.075
1193.11091	9862.575
1196.70485	9621.575
1200.29634	9401.075
1203.88538	9117.575
1207.47197	8673.775
1211.05612	8201.975
1214.63782	7802.275
1218.21708	7530.575
1221.79391	7398.375
1225.36829	7298.375
1228.94024	7295.975
1232.50976	7325.975
1236.07685	7362.575
1239.6415	7376.975
1243.20374	7403.275
1246.76355	7426.375
1250.32093	7516.475
1253.8759	7583.175
1257.42845	7746.575
1260.97859	7952.075
1264.52631	8178.275
1268.07163	8342.175
1271.61453	8456.875
1275.15503	8517.675
1278.69312	8510.275
1282.22882	8595.375
1285.76211	8811.775
1289.29301	9040.175
1292.82151	9296.675
1296.34761	9525.475
1299.87133	9911.975
1303.39266	10605.875
1306.9116	11745.275
1310.42815	12959.075
1313.94233	13383.275
1317.45412	12623.775
1320.96354	11480.475
1324.47058	10481.975
1327.97525	9740.875
1331.47754	9325.775
1334.97747	9223.675
1338.47502	9327.375
1341.97022	9731.475
1345.46305	10424.775
1348.95352	11503.675
1352.44163	12797.175
1355.92738	14129.275
1359.41078	15808.275
1362.89183	17294.075
1366.37053	16684.175
1369.84688	13842.375
1373.32088	11181.575
1376.79254	9789.475
1380.26186	9099.575
1383.72883	8695.675
1387.19347	8310.775
1390.65578	7935.175
1394.11575	7704.675
1397.57339	7557.975
1401.0287	7438.075
1404.48168	7422.575
1407.93234	7428.275
1411.38068	7440.675
1414.82669	7512.975
1418.27039	7594.175
1421.71177	7593.075
1425.15083	7490.275
1428.58758	7409.475
1432.02203	7443.475
1435.45416	7517.275
1438.88399	7508.275
1442.31151	7509.575
1445.73673	7568.375
1449.15965	7638.075
1452.58027	7639.375
1455.9986	7637.775
1459.41463	7648.775
1462.82837	7746.975
1466.23982	7909.075
1469.64898	8116.075
1473.05586	8285.775
1476.46045	8373.875
1479.86276	8470.775
1483.26279	8557.875
1486.66054	8735.475
1490.05602	9014.475
1493.44922	9574.075
1496.84016	10441.175
1500.22882	11819.975
1503.61521	13519.775
1506.99934	15288.775
1510.38121	16511.175
1513.76081	16365.175
1517.13816	14809.075
1520.51324	12695.075
1523.88607	10980.875
1527.25665	9985.575
1530.62498	9466.575
1533.99105	9304.175
1537.35488	9168.775
1540.71647	9054.075
1544.07581	8937.375
1547.4329	8789.575
1550.78776	8688.975
1554.14038	8591.175
1557.49077	8556.375
1560.83892	8655.475
1564.18484	8876.175
1567.52853	9244.775
1570.86999	9556.375
1574.20922	9667.875
1577.54624	9564.975
1580.88103	9074.775
1584.2136	8387.975
1587.54395	8022.575
1590.87208	7939.975
1594.19801	8124.475
1597.52172	8461.575
1600.84321	8593.475
1604.16251	8449.275
1607.47959	8257.875
1610.79447	8081.875
1614.10715	7791.475
1617.41763	7532.975
1620.7259	7262.475
1624.03199	7088.675
1627.33587	7022.175
1630.63757	7064.675
1633.93707	7295.375
1637.23439	7723.875
1640.52951	8381.475
1643.82246	9371.075
1647.11321	10527.875
1650.40179	11242.275
1653.68819	10888.575
1656.97241	9667.475
1660.25446	8287.175
1663.53433	7300.075
1666.81203	6709.375
1670.08756	6354.675
1673.36092	6174.275
1676.63211	6044.175
1679.90115	5960.275
1683.16801	5872.675
1686.43272	5785.975
1689.69527	5734.775
1692.95567	5680.875
1696.2139	5643.675
1699.46999	5604.875
1702.72392	5609.075
1705.97571	5611.275
1709.22535	5601.575
1712.47284	5632.475
1715.71819	5650.675
1718.96139	5639.875
1722.20246	5634.275
1725.44139	5595.575
1728.67818	5554.975
1731.91284	5512.575
1735.14537	5480.975
1738.37576	5474.375
1741.60403	5439.275
1744.83017	5411.275
1748.05418	5417.575
1751.27607	5423.575
1754.49584	5379.575
1757.71349	5353.775
1760.92903	5336.375
1764.14244	5300.075
1767.35375	5318.575
1770.56294	5290.275
1773.77002	5264.875
1776.97499	5283.175
1780.17785	5246.075
1783.37861	5244.575
1786.57727	5265.475
1789.77382	5214.975
1792.96828	5220.775
1796.16064	5244.375
1799.3509	5208.975
1802.53907	5244.775
1805.72514	5178.275
1808.90913	5162.475
1812.09102	5165.875
1815.27083	5153.275
1818.44856	5130.575
1821.6242	5138.675
1824.79776	5108.875
1827.96924	5110.775
1831.13864	5082.775
1834.30597	5096.975
1837.47122	5078.575
1840.6344	5059.875
1843.7955	5050.075
1846.95454	5037.575
1850.11151	5068.975
1853.26642	5015.575
1856.41926	5030.775
1859.57004	5035.375
1862.71876	5011.475
1865.86542	5010.375
1869.01003	5019.775
1872.15258	4976.275
1875.29308	5012.675
1878.43152	5004.475
1881.56792	4972.575
1884.70227	4961.675
1887.83457	4954.975
1890.96482	4947.075
1894.09304	4938.875
1897.21921	4935.075
1900.34335	4944.075
1903.46544	4915.875
1906.58551	4938.275
1909.70353	4928.675
1912.81953	4924.175
1915.93349	4909.575
1919.04543	4897.575
1922.15534	4868.675
1925.26322	4869.875
1928.36908	4870.975
1931.47292	4857.875
1934.57473	4870.575
1937.67453	4835.575
1940.77232	4799.775
1943.86808	4804.975
1946.96184	4807.475
1950.05358	4769.175
1953.14331	4760.775
1956.23103	4755.375
1959.31675	4719.775
1962.40046	4662.575
1965.48217	4715.175
1968.56188	4707.575
1971.63959	4685.875
1974.7153	4684.375
1977.78901	4653.075
1980.86073	4651.175
1983.93046	4601.775
1986.99819	4537.575
1990.06394	4548.575
1993.1277	4564.475
1996.18947	4543.275
1999.24925	4516.575
2002.30706	4512.375
2005.36288	4506.175
2008.41672	4485.675
2011.46859	4462.775
2014.51848	4461.175
2017.56639	4421.675
2020.61233	4419.075
2023.6563	4429.575
2026.6983	4368.275
2029.73833	4386.275
2032.7764	4386.275
2035.8125	4344.375
2038.84664	4344.475
2041.87881	4332.475
2044.90903	4340.175
2047.93729	4326.675
2050.96359	4292.775
2053.98794	4315.975
2057.01034	4314.975
2060.03078	4286.375
2063.04927	4278.775
2066.06582	4288.975
2069.08042	4266.775
2072.09307	4286.275
2075.10378	4266.275
2078.11255	4259.975
2081.11938	4252.275
2084.12426	4245.275
2087.12722	4257.075
2090.12824	4253.275
2093.12732	4241.875
2096.12447	4260.075
2099.11969	4244.975
2102.11299	4236.475
2105.10435	4257.575
2108.09379	4247.875
2111.08131	4241.875
2114.0669	4256.375
2117.05057	4244.875
2120.03233	4235.475
2123.01216	4258.975
2125.99008	4252.675
2128.96609	4248.375
2131.94018	4280.575
2134.91236	4270.675
2137.88263	4254.775
2140.851	4276.775
2143.81746	4282.875
2146.78201	4264.575
2149.74466	4250.975
2152.7054	4268.175
2155.66425	4248.675
2158.6212	4230.475
2161.57625	4228.075
2164.52941	4201.975
2167.48067	4221.075
2170.43004	4209.875
2173.37752	4234.575
2176.32311	4206.975
2179.26681	4209.875
2182.20863	4226.675
2185.14856	4209.075
2188.08661	4208.875
2191.02278	4225.375
2193.95707	4187.475
2196.88948	4184.075
2199.82001	4205.575
2202.74867	4189.075
2205.67545	4186.775
2208.60037	4194.975
2211.52341	4176.275
2214.44458	4160.275
2217.36388	4156.775
2220.28132	4125.975
2223.1969	4113.675
2226.11061	4122.875
2229.02246	4102.275
2231.93245	4106.775
2234.84058	4072.975
2237.74686	4089.775
2240.65128	4071.475
2243.55385	4070.475
2246.45456	4057.675
2249.35343	4070.775
2252.25044	4049.075
2255.14561	4050.675
2258.03893	4051.875
2260.93041	4037.175
2263.82004	4028.675
2266.70783	4040.675
2269.59378	3999.475
2272.4779	3974.475
2275.36017	3989.275
2278.24061	3986.275
2281.11922	3954.675
2283.996	3972.275
2286.87094	3929.975
2289.74405	3950.475
2292.61534	3948.375
2295.4848	3924.075
2298.35243	3916.775
2301.21824	3913.475
2304.08223	3905.775
2306.94439	3919.775
2309.80474	3910.175
2312.66327	3899.075
2315.51999	3897.375
2318.37489	3874.975
2321.22797	3863.775
2324.07925	3870.075
2326.92871	3853.175
2329.77637	3845.375
2332.62222	3831.675
2335.46626	3813.675
2338.3085	3813.975
2341.14893	3832.475
2343.98756	3823.775
2346.8244	3799.075
2349.65943	3805.775
2352.49267	3805.475
2355.32411	3816.075
2358.15376	3805.575
2360.98161	3815.275
2363.80768	3799.675
2366.63195	3796.175
2369.45444	3781.475
2372.27514	3812.675
2375.09405	3804.975
2377.91118	3772.075
2380.72652	3771.775
2383.54009	3744.075
2386.35187	3770.875
2389.16188	3735.775
2391.97011	3734.375
2394.77657	3725.075
2397.58125	3715.875
2400.38416	3715.875
2403.18529	3687.075
2405.98466	3687.975
2408.78226	3690.175
2411.57809	3673.375
2414.37216	3665.975
2417.16446	3656.775
2419.955	3642.675
2422.74378	3659.975
2425.5308	3642.575
2428.31606	3645.875
2431.09956	3638.775
2433.88131	3619.275
2436.6613	3645.575
2439.43954	3620.075
2442.21603	3628.075
2444.99077	3607.575
2447.76377	3625.175
2450.53501	3613.975
2453.30451	3605.375
2456.07226	3617.375
2458.83827	3587.675
2461.60254	3550.275
2464.36507	3591.175
2467.12586	3577.975
2469.88492	3587.475
2472.64224	3567.975
2475.39782	3534.375
2478.15167	3563.375
2480.90379	3579.575
2483.65417	3574.975
2486.40283	3587.075
2489.14976	3582.275
2491.89497	3565.075
2494.63845	3562.275
2497.3802	3558.575
2500.12024	3545.875
2502.85855	3559.275
2505.59514	3549.375
2508.33002	3540.275
2511.06318	3520.275
2513.79462	3522.275
2516.52435	3477.675
2519.25237	3459.075
2521.97867	3451.975
2524.70327	3464.175
2527.42616	3469.275
2530.14734	3477.075
2532.86681	3443.775
2535.58458	3447.575
2538.30065	3435.975
2541.01501	3454.475
2543.72768	3449.475
2546.43864	3429.475
2549.14791	3431.975
2551.85548	3408.175
2554.56136	3406.275
2557.26554	3422.575
2559.96803	3409.875
2562.66883	3399.675
2565.36794	3380.175
2568.06536	3360.475
2570.7611	3368.575
2573.45514	3370.175
2576.14751	3355.275
2578.83819	3328.475
2581.52719	3314.775
2584.21451	3313.775
2586.90015	3313.875
2589.58411	3303.375
2592.2664	3310.675
2594.94701	3298.175
2597.62594	3308.175
2600.30321	3229.775
2602.9788	3259.475
2605.65273	3251.675
2608.32498	3263.375
2610.99557	3267.175
2613.66449	3242.675
2616.33175	3249.975
2618.99734	3257.275
2621.66128	3249.375
2624.32355	3235.875
2626.98416	3221.575
2629.64311	3212.075
2632.30041	3216.375
2634.95605	3191.075
2637.61004	3187.275
2640.26238	3173.275
2642.91306	3170.675
2645.56209	3191.375
2648.20948	3189.075
2650.85521	3169.975
2653.4993	3187.875
2656.14175	3165.675
2658.78255	3156.075
2661.42171	3123.375
2664.05923	3181.275
2666.6951	3159.775
2669.32934	3174.275
2671.96194	3180.175
2674.59291	3181.675
2677.22224	3172.075
2679.84993	3174.175
2682.476	3156.975
2685.10043	3156.075
2687.72324	3151.775
2690.34441	3138.775
2692.96396	3141.875
2695.58188	3167.175
2698.19818	3161.675
2700.81285	3141.275
2703.4259	3138.675
2706.03733	3110.575
2708.64714	3111.875
2711.25533	3137.075
2713.86191	3138.875
2716.46687	3133.975
2719.07021	3139.875
2721.67194	3123.675
2724.27206	3141.575
2726.87057	3130.875
2729.46747	3115.575
2732.06276	3131.375
2734.65644	3105.575
2737.24852	3115.775
2739.83899	3081.275
2742.42786	3096.275
2745.01513	3104.775
2747.60079	3077.275
2750.18486	3061.975
2752.76733	3073.575
2755.3482	3076.175
2757.92747	3062.975
2760.50515	3050.375
2763.08123	3054.175
2765.65573	3047.175
2768.22863	3035.775
2770.79994	3030.875
2773.36967	3017.075
2775.9378	3010.075
2778.50435	3016.375
2781.06932	2997.875
2783.6327	2988.875
2786.1945	3006.275
2788.75471	2988.175
2791.31335	2994.175
2793.87041	2995.975
2796.42589	2973.875
2798.97979	2965.975
2801.53212	2960.875
2804.08288	2973.975
2806.63206	2952.675
2809.17967	2942.975
2811.72571	2953.075
2814.27018	2954.475
2816.81308	2934.775
2819.35442	2902.675
2821.89419	2917.875
2824.43239	2904.975
2826.96904	2926.175
2829.50412	2908.475
2832.03763	2898.375
2834.56959	2900.375
2837.1	2900.575
2839.62884	2888.075
2842.15613	2896.075
2844.68186	2899.975
2847.20604	2853.775
2849.72867	2858.475
2852.24974	2880.475
2854.76927	2843.075
2857.28724	2790.975
2859.80367	2853.175
2862.31855	2876.175
2864.83189	2852.175
2867.34368	2844.275
2869.85393	2857.975
2872.36264	2842.175
2874.8698	2841.275
2877.37543	2845.475
2879.87952	2837.675
2882.38207	2818.675
2884.88308	2817.075
2887.38256	2825.375
2889.88051	2818.575
2892.37692	2815.075
2894.8718	2800.575
2897.36515	2815.975
2899.85698	2804.375
2902.34727	2804.175
2904.83604	2816.775
2907.32328	2816.575
2909.809	2829.875
2912.29319	2825.775
2914.77587	2821.775
2917.25702	2841.475
2919.73665	2835.275
2922.21476	2847.475
2924.69136	2838.675
2927.16644	2827.675
2929.64	2817.575
2932.11205	2800.475
2934.58258	2804.575
2937.05161	2786.575
2939.51912	2795.275
2941.98513	2817.175
2944.44962	2793.775
2946.91261	2759.375
2949.37409	2772.275
2951.83407	2769.375
2954.29254	2764.275
2956.74951	2770.075
2959.20498	2732.175
2961.65895	2739.575
2964.11142	2741.075
2966.56239	2733.375
2969.01186	2737.575
2971.45984	2739.075
2973.90632	2721.175
2976.35131	2736.975
2978.7948	2734.475
2981.23681	2714.175
2983.67732	2714.775
2986.11635	2714.675
2988.55388	2674.775
2990.98993	2685.175
2993.4245	2669.575
2995.85758	2667.075
2998.28917	2666.975
3000.71928	2654.375
3003.14791	2651.075
3005.57506	2640.675
3008.00073	2628.775
3010.42493	2558.975
3012.84764	2611.075
3015.26888	2613.075
3017.68865	2609.275
3020.10694	2568.775
3022.52376	2575.575
3024.9391	2575.975
3027.35298	2571.975
3029.76539	2551.775
3032.17632	2551.375
3034.5858	2539.875
3036.9938	2550.675
3039.40034	2540.075
3041.80542	2533.775
3044.20903	2519.675
3046.61118	2526.775
3049.01187	2519.875
3051.4111	2516.975
3053.80888	2499.075
3056.20519	2496.875
3058.60005	2475.375
3060.99345	2498.175
3063.3854	2461.575
3065.7759	2467.275
3068.16494	2463.575
3070.55254	2445.975
3072.93868	2455.875
3075.32338	2443.175
3077.70662	2432.375
3080.08842	2431.975
3082.46878	2416.975
3084.84769	2428.675
3087.22515	2423.275
3089.60118	2421.275
3091.97576	2418.475
3094.3489	2414.975
3096.72061	2409.175
3099.09087	2396.475
3101.4597	2407.475
3103.82709	2396.775
3106.19305	2383.575
3108.55757	2383.575
3110.92066	2376.475
3113.28232	2389.975
3115.64255	2383.275
3118.00134	2379.875
3120.35871	2352.875
3122.71466	2326.875
3125.06917	2349.275
3127.42226	2338.975
3129.77393	2325.075
3132.12417	2323.475
3134.47299	2330.175
3136.82039	2315.675
3139.16636	2288.875
3141.51092	2306.975
3143.85406	2323.575
3146.19579	2307.975
3148.53609	2302.275
3150.87499	2305.975
3153.21246	2296.975
3155.54853	2307.575
3157.88318	2307.275
3160.21642	2305.775
3162.54826	2315.775
3164.87868	2309.075
3167.2077	2257.675
3169.5353	2289.675
3171.86151	2290.175
3174.18631	2280.375
3176.5097	2274.475
3178.83169	2280.775
3181.15228	2282.375
3183.47147	2243.475
3185.78926	2221.675
3188.10565	2252.075
3190.42065	2226.675
3192.73424	2240.775
3195.04645	2229.275
3197.35725	2212.675
3199.66667	2224.675
3201.97469	2224.975
3204.28132	2205.375
3206.58656	2215.775
3208.8904	2231.075
3211.19287	2214.075
3213.49394	2196.275
3215.79363	2198.575
3218.09193	2215.675
3220.38884	2204.775
3222.68438	2213.375
3224.97853	2191.275
3227.2713	2199.075
3229.56269	2195.975
3231.8527	2195.975
3234.14133	2178.675
