Data from AgNPs_UA_10uM_CRN_500uM_SU_RamanShift__27__13-09-50-259.txt Node

Date: Thu Aug 04 13:09:50 BST 2022
User: TCL
Spectrometer: QEP01345
Trigger mode: 4
Integration Time (sec): 1.000000E0
Scans to average: 10
Electric dark correction enabled: true
Nonlinearity correction enabled: false
Boxcar width: 0
XAxis mode: Raman Shifts
Number of Pixels in Spectrum: 1044
>>>>>Begin Spectral Data<<<<<
46.04893	-0.0875
50.45542	-0.4875
54.85868	2.3125
59.25871	0.1125
63.6555	16.8125
68.04907	18.2125
72.43941	19.0125
76.82654	19.4125
81.21044	18.9125
85.59113	21.5125
89.96862	23.6125
94.34289	20.1125
98.71396	21.7125
103.08183	23.8125
107.4465	25.0125
111.80798	25.0125
116.16626	24.8125
120.52136	26.1125
124.87327	30.4125
129.222	30.0125
133.56755	31.2125
137.90993	35.2125
142.24913	38.9125
146.58517	41.6125
150.91804	51.2125
155.24774	62.3125
159.57429	75.2125
163.89768	102.2125
168.21792	135.0125
172.53501	185.9125
176.84895	262.5125
181.15975	370.0125
185.46741	526.9125
189.77193	733.0125
194.07331	989.9125
198.37157	1273.2125
202.6667	1579.3125
206.9587	1888.7125
211.24758	2205.3125
215.53334	2514.2125
219.81599	2845.3125
224.09553	3239.8125
228.37195	3648.4125
232.64527	4110.4125
236.91549	4546.9125
241.18261	4924.1125
245.44663	5242.0125
249.70755	5473.1125
253.96539	5685.1125
258.22014	5859.1125
262.4718	5985.6125
266.72039	6072.2125
270.96589	6087.1125
275.20832	6040.4125
279.44768	5948.2125
283.68397	5849.4125
287.91719	5785.3125
292.14735	5800.7125
296.37445	5897.3125
300.59849	6072.2125
304.81948	6317.9125
309.03742	6544.4125
313.25231	6676.0125
317.46415	6636.0125
321.67296	6406.7125
325.87872	6137.6125
330.08145	5987.7125
334.28114	5955.2125
338.47781	6032.3125
342.67145	6134.7125
346.86207	6341.4125
351.04966	6599.1125
355.23424	6866.9125
359.4158	7070.6125
363.59435	7125.5125
367.76989	7105.8125
371.94243	7055.3125
376.11196	7014.3125
380.27849	7020.8125
384.44203	7028.2125
388.60257	7068.7125
392.76012	7100.8125
396.91468	7237.0125
401.06626	7332.7125
405.21485	7355.3125
409.36047	7311.3125
413.50311	7075.6125
417.64277	6867.4125
421.77947	6744.9125
425.9132	6664.1125
430.04396	6629.6125
434.17176	6672.0125
438.2966	6717.7125
442.41849	6819.6125
446.53742	6953.1125
450.6534	7071.8125
454.76644	7158.6125
458.87653	7212.4125
462.98368	7237.6125
467.08789	7195.1125
471.18916	7090.8125
475.2875	6945.6125
479.38291	6824.2125
483.4754	6754.6125
487.56496	6690.3125
491.6516	6660.6125
495.73531	6684.8125
499.81612	6730.9125
503.89401	6797.4125
507.96899	6823.2125
512.04106	6870.8125
516.11023	6920.5125
520.1765	6949.3125
524.23987	6969.8125
528.30034	6958.7125
532.35792	6917.9125
536.41261	6864.1125
540.46441	6796.9125
544.51333	6772.4125
548.55936	6829.9125
552.60252	6906.5125
556.64279	6998.2125
560.6802	7127.1125
564.71473	7214.3125
568.7464	7301.1125
572.7752	7257.9125
576.80114	7060.2125
580.82422	6881.8125
584.84444	6833.9125
588.86181	6822.2125
592.87633	6802.0125
596.888	6956.3125
600.89682	7288.6125
604.9028	8119.7125
608.90594	9856.1125
612.90624	11553.9125
616.90371	10725.5125
620.89834	8341.1125
624.89015	7346.2125
628.87913	7270.8125
632.86528	7428.4125
636.84862	7517.3125
640.82913	7370.1125
644.80683	7077.8125
648.78172	6919.5125
652.75379	6930.0125
656.72306	7145.1125
660.68952	7357.0125
664.65319	7293.7125
668.61405	7214.8125
672.57211	7284.4125
676.52738	7262.4125
680.47986	7104.5125
684.42955	6945.5125
688.37646	6886.4125
692.32058	6932.4125
696.26192	7084.0125
700.20048	7205.6125
704.13626	7233.3125
708.06928	7171.9125
711.99952	7040.3125
715.927	7063.2125
719.85171	7103.3125
723.77365	7116.1125
727.69284	7074.0125
731.60928	7036.1125
735.52295	7024.5125
739.43388	7073.9125
743.34206	7078.3125
747.24749	7069.0125
751.15017	7073.8125
755.05012	7160.0125
758.94733	7417.2125
762.8418	8079.8125
766.73354	9040.1125
770.62254	9753.2125
774.50882	9872.7125
778.39237	9606.3125
782.27321	8998.4125
786.15132	8227.1125
790.02671	7644.0125
793.89938	7352.5125
797.76935	7194.5125
801.6366	7104.6125
805.50115	7066.1125
809.36299	7025.0125
813.22213	7036.9125
817.07857	7028.0125
820.93231	7040.4125
824.78336	7059.6125
828.63172	7057.1125
832.47738	7072.9125
836.32036	7045.1125
840.16066	7019.2125
843.99827	7012.3125
847.8332	7028.9125
851.66546	7029.9125
855.49504	7064.1125
859.32195	7073.0125
863.1462	7038.3125
866.96777	7035.3125
870.78668	7069.1125
874.60293	7075.5125
878.41652	7122.0125
882.22745	7174.4125
886.03573	7222.7125
889.84136	7210.7125
893.64433	7196.4125
897.44466	7144.9125
901.24235	7154.8125
905.0374	7126.2125
908.8298	7107.7125
912.61957	7087.8125
916.40671	7100.7125
920.19121	7108.2125
923.97308	7144.5125
927.75233	7223.0125
931.52895	7287.2125
935.30295	7204.4125
939.07433	7109.2125
942.84309	7039.2125
946.60924	7012.7125
950.37278	6996.0125
954.13371	6984.1125
957.89203	7000.5125
961.64774	6991.8125
965.40086	6993.5125
969.15137	6982.2125
972.89929	6982.6125
976.64461	6979.8125
980.38733	6988.7125
984.12747	6998.5125
987.86502	7011.0125
991.59999	7028.6125
995.33237	7073.1125
999.06217	7137.2125
1002.78939	7217.3125
1006.51404	7354.5125
1010.23611	7461.7125
1013.95561	7533.0125
1017.67255	7547.0125
1021.38692	7537.8125
1025.09872	7459.2125
1028.80796	7388.6125
1032.51465	7381.2125
1036.21877	7372.2125
1039.92035	7412.5125
1043.61937	7456.5125
1047.31584	7500.4125
1051.00976	7502.8125
1054.70114	7526.4125
1058.38998	7543.5125
1062.07627	7583.4125
1065.76003	7642.6125
1069.44126	7709.4125
1073.11995	7868.5125
1076.79611	8025.6125
1080.46974	8143.6125
1084.14085	8235.9125
1087.80943	8340.9125
1091.47549	8356.8125
1095.13903	8362.8125
1098.80005	8388.1125
1102.45857	8489.2125
1106.11456	8451.1125
1109.76805	8304.1125
1113.41903	8267.6125
1117.06751	8378.0125
1120.71348	8531.1125
1124.35696	8674.5125
1127.99793	8793.6125
1131.63641	8652.6125
1135.2724	8367.1125
1138.90589	8171.2125
1142.5369	8044.6125
1146.16542	7975.0125
1149.79145	7910.9125
1153.415	7816.3125
1157.03607	7806.0125
1160.65467	7850.6125
1164.27079	8039.8125
1167.88443	8271.4125
1171.49561	8622.4125
1175.10432	9168.2125
1178.71056	9894.9125
1182.31434	10472.9125
1185.91565	10690.8125
1189.51451	10643.0125
1193.11091	10554.2125
1196.70485	10419.6125
1200.29634	10235.5125
1203.88538	9986.6125
1207.47197	9625.6125
1211.05612	9226.6125
1214.63782	8849.4125
1218.21708	8589.3125
1221.79391	8428.2125
1225.36829	8361.2125
1228.94024	8325.4125
1232.50976	8328.2125
1236.07685	8386.8125
1239.6415	8447.6125
1243.20374	8482.1125
1246.76355	8525.1125
1250.32093	8587.1125
1253.8759	8673.0125
1257.42845	8893.4125
1260.97859	9146.4125
1264.52631	9337.0125
1268.07163	9531.7125
1271.61453	9602.7125
1275.15503	9599.4125
1278.69312	9559.2125
1282.22882	9553.3125
1285.76211	9657.2125
1289.29301	9821.7125
1292.82151	10000.1125
1296.34761	10193.4125
1299.87133	10453.4125
1303.39266	11012.7125
1306.9116	11829.7125
1310.42815	12726.7125
1313.94233	13020.5125
1317.45412	12521.0125
1320.96354	11789.7125
1324.47058	11131.0125
1327.97525	10605.7125
1331.47754	10293.1125
1334.97747	10185.1125
1338.47502	10312.1125
1341.97022	10667.4125
1345.46305	11343.7125
1348.95352	12344.8125
1352.44163	13428.9125
1355.92738	14479.2125
1359.41078	15585.0125
1362.89183	16424.4125
1366.37053	15632.8125
1369.84688	13474.8125
1373.32088	11493.4125
1376.79254	10386.1125
1380.26186	9854.4125
1383.72883	9496.5125
1387.19347	9177.7125
1390.65578	8881.3125
1394.11575	8639.3125
1397.57339	8455.9125
1401.0287	8371.2125
1404.48168	8374.8125
1407.93234	8418.2125
1411.38068	8507.4125
1414.82669	8639.0125
1418.27039	8665.8125
1421.71177	8689.8125
1425.15083	8592.2125
1428.58758	8473.3125
1432.02203	8478.9125
1435.45416	8469.6125
1438.88399	8452.1125
1442.31151	8453.3125
1445.73673	8479.7125
1449.15965	8481.8125
1452.58027	8497.1125
1455.9986	8499.4125
1459.41463	8496.0125
1462.82837	8560.0125
1466.23982	8736.8125
1469.64898	8911.8125
1473.05586	9060.6125
1476.46045	9182.4125
1479.86276	9284.4125
1483.26279	9411.5125
1486.66054	9573.6125
1490.05602	9846.4125
1493.44922	10335.8125
1496.84016	11019.5125
1500.22882	12033.9125
1503.61521	13253.4125
1506.99934	14425.9125
1510.38121	15133.1125
1513.76081	14916.9125
1517.13816	13799.9125
1520.51324	12313.6125
1523.88607	11128.7125
1527.25665	10411.1125
1530.62498	10056.3125
1533.99105	9876.1125
1537.35488	9819.2125
1540.71647	9690.5125
1544.07581	9608.4125
1547.4329	9506.5125
1550.78776	9360.5125
1554.14038	9280.2125
1557.49077	9228.9125
1560.83892	9331.9125
1564.18484	9550.7125
1567.52853	9809.8125
1570.86999	9998.2125
1574.20922	10079.3125
1577.54624	9984.4125
1580.88103	9576.1125
1584.2136	9093.0125
1587.54395	8789.0125
1590.87208	8752.4125
1594.19801	8966.5125
1597.52172	9250.6125
1600.84321	9380.4125
1604.16251	9274.1125
1607.47959	9133.8125
1610.79447	8948.4125
1614.10715	8632.6125
1617.41763	8323.0125
1620.7259	8060.4125
1624.03199	7887.9125
1627.33587	7832.3125
1630.63757	7887.6125
1633.93707	8073.4125
1637.23439	8468.9125
1640.52951	9125.0125
1643.82246	10030.4125
1647.11321	10982.2125
1650.40179	11522.7125
1653.68819	11116.3125
1656.97241	10001.7125
1660.25446	8808.1125
1663.53433	7996.0125
1666.81203	7514.8125
1670.08756	7220.2125
1673.36092	7053.2125
1676.63211	6930.7125
1679.90115	6857.0125
1683.16801	6772.2125
1686.43272	6699.1125
1689.69527	6652.6125
1692.95567	6638.5125
1696.2139	6600.6125
1699.46999	6589.8125
1702.72392	6579.0125
1705.97571	6576.1125
1709.22535	6557.7125
1712.47284	6541.3125
1715.71819	6569.8125
1718.96139	6558.9125
1722.20246	6546.1125
1725.44139	6534.5125
1728.67818	6496.7125
1731.91284	6450.2125
1735.14537	6420.5125
1738.37576	6406.4125
1741.60403	6375.4125
1744.83017	6350.8125
1748.05418	6345.2125
1751.27607	6328.7125
1754.49584	6314.4125
1757.71349	6305.2125
1760.92903	6287.3125
1764.14244	6274.5125
1767.35375	6255.9125
1770.56294	6256.7125
1773.77002	6235.1125
1776.97499	6213.5125
1780.17785	6187.2125
1783.37861	6166.8125
1786.57727	6158.1125
1789.77382	6170.8125
1792.96828	6149.4125
1796.16064	6113.9125
1799.3509	6144.7125
1802.53907	6127.7125
1805.72514	6117.3125
1808.90913	6086.1125
1812.09102	6073.2125
1815.27083	6048.7125
1818.44856	6035.6125
1821.6242	6019.5125
1824.79776	6017.8125
1827.96924	5996.4125
1831.13864	5999.0125
1834.30597	5976.2125
1837.47122	5955.9125
1840.6344	5936.1125
1843.7955	5956.4125
1846.95454	5942.3125
1850.11151	5930.3125
1853.26642	5933.9125
1856.41926	5928.0125
1859.57004	5943.9125
1862.71876	5948.1125
1865.86542	5915.6125
1869.01003	5923.4125
1872.15258	5895.2125
1875.29308	5882.6125
1878.43152	5872.6125
1881.56792	5879.9125
1884.70227	5862.5125
1887.83457	5845.2125
1890.96482	5835.0125
1894.09304	5809.5125
1897.21921	5813.3125
1900.34335	5803.8125
1903.46544	5789.6125
1906.58551	5781.3125
1909.70353	5781.0125
1912.81953	5766.8125
1915.93349	5788.4125
1919.04543	5748.8125
1922.15534	5731.1125
1925.26322	5743.0125
1928.36908	5721.5125
1931.47292	5705.8125
1934.57473	5681.8125
1937.67453	5670.2125
1940.77232	5663.5125
1943.86808	5623.5125
1946.96184	5615.6125
1950.05358	5620.1125
1953.14331	5589.2125
1956.23103	5578.8125
1959.31675	5554.2125
1962.40046	5543.1125
1965.48217	5510.9125
1968.56188	5493.6125
1971.63959	5489.0125
1974.7153	5476.3125
1977.78901	5478.9125
1980.86073	5456.9125
1983.93046	5418.6125
1986.99819	5399.4125
1990.06394	5395.9125
1993.1277	5374.9125
1996.18947	5359.0125
1999.24925	5329.9125
2002.30706	5295.7125
2005.36288	5280.4125
2008.41672	5259.5125
2011.46859	5253.6125
2014.51848	5237.5125
2017.56639	5210.3125
2020.61233	5196.8125
2023.6563	5183.3125
2026.6983	5158.0125
2029.73833	5151.2125
2032.7764	5133.3125
2035.8125	5123.6125
2038.84664	5123.6125
2041.87881	5105.6125
2044.90903	5086.1125
2047.93729	5080.8125
2050.96359	5062.5125
2053.98794	5068.6125
2057.01034	5060.8125
2060.03078	5039.5125
2063.04927	5043.6125
2066.06582	5015.5125
2069.08042	5012.5125
2072.09307	5012.5125
2075.10378	5009.7125
2078.11255	5018.0125
2081.11938	4999.1125
2084.12426	4994.6125
2087.12722	4977.2125
2090.12824	4981.0125
2093.12732	4995.2125
2096.12447	4990.0125
2099.11969	4992.1125
2102.11299	4990.7125
2105.10435	4994.3125
2108.09379	4988.4125
2111.08131	4980.4125
2114.0669	4982.3125
2117.05057	5005.0125
2120.03233	5016.1125
2123.01216	4982.4125
2125.99008	4984.3125
2128.96609	4998.7125
2131.94018	5004.1125
2134.91236	5008.9125
2137.88263	4993.0125
2140.851	4995.4125
2143.81746	4994.2125
2146.78201	4985.2125
2149.74466	4965.1125
2152.7054	4996.5125
2155.66425	4985.5125
2158.6212	4972.0125
2161.57625	4959.2125
2164.52941	4966.8125
2167.48067	4952.0125
2170.43004	4952.3125
2173.37752	4943.3125
2176.32311	4951.1125
2179.26681	4957.6125
2182.20863	4958.3125
2185.14856	4953.3125
2188.08661	4949.1125
2191.02278	4939.3125
2193.95707	4949.8125
2196.88948	4942.8125
2199.82001	4929.2125
2202.74867	4916.7125
2205.67545	4925.8125
2208.60037	4919.5125
2211.52341	4900.6125
2214.44458	4878.5125
2217.36388	4862.3125
2220.28132	4863.8125
2223.1969	4826.8125
2226.11061	4815.2125
2229.02246	4810.2125
2231.93245	4803.6125
2234.84058	4810.7125
2237.74686	4792.6125
2240.65128	4787.3125
2243.55385	4776.8125
2246.45456	4765.3125
2249.35343	4752.7125
2252.25044	4739.5125
2255.14561	4761.1125
2258.03893	4732.3125
2260.93041	4738.4125
2263.82004	4733.9125
2266.70783	4720.4125
2269.59378	4700.5125
2272.4779	4688.7125
2275.36017	4676.8125
2278.24061	4664.8125
2281.11922	4655.0125
2283.996	4635.4125
2286.87094	4626.5125
2289.74405	4623.7125
2292.61534	4618.4125
2295.4848	4604.2125
2298.35243	4587.5125
2301.21824	4587.5125
2304.08223	4575.6125
2306.94439	4572.4125
2309.80474	4579.6125
2312.66327	4584.6125
2315.51999	4546.9125
2318.37489	4555.8125
2321.22797	4539.3125
2324.07925	4523.8125
2326.92871	4519.2125
2329.77637	4520.4125
2332.62222	4507.2125
2335.46626	4483.1125
2338.3085	4500.2125
2341.14893	4487.7125
2343.98756	4472.7125
2346.8244	4468.8125
2349.65943	4464.1125
2352.49267	4449.2125
2355.32411	4446.9125
2358.15376	4451.2125
2360.98161	4451.9125
2363.80768	4461.5125
2366.63195	4450.8125
2369.45444	4446.6125
2372.27514	4447.8125
2375.09405	4440.6125
2377.91118	4429.2125
2380.72652	4408.1125
2383.54009	4414.2125
2386.35187	4400.0125
2389.16188	4384.7125
2391.97011	4373.8125
2394.77657	4350.8125
2397.58125	4344.5125
2400.38416	4318.2125
2403.18529	4328.5125
2405.98466	4328.0125
2408.78226	4320.2125
2411.57809	4303.9125
2414.37216	4301.9125
2417.16446	4294.0125
2419.955	4290.8125
2422.74378	4274.6125
2425.5308	4265.1125
2428.31606	4285.5125
2431.09956	4261.6125
2433.88131	4252.4125
2436.6613	4255.4125
2439.43954	4246.0125
2442.21603	4243.1125
2444.99077	4249.2125
2447.76377	4234.4125
2450.53501	4252.3125
2453.30451	4238.0125
2456.07226	4237.1125
2458.83827	4220.7125
2461.60254	4195.6125
2464.36507	4203.7125
2467.12586	4198.2125
2469.88492	4196.5125
2472.64224	4203.3125
2475.39782	4204.5125
2478.15167	4189.7125
2480.90379	4172.2125
2483.65417	4155.2125
2486.40283	4173.7125
2489.14976	4185.7125
2491.89497	4183.1125
2494.63845	4168.0125
2497.3802	4159.3125
2500.12024	4147.6125
2502.85855	4141.0125
2505.59514	4150.8125
2508.33002	4132.7125
2511.06318	4111.2125
2513.79462	4103.9125
2516.52435	4086.3125
2519.25237	4093.3125
2521.97867	4072.4125
2524.70327	4073.7125
2527.42616	4058.3125
2530.14734	4052.4125
2532.86681	4044.0125
2535.58458	4057.2125
2538.30065	4049.8125
2541.01501	4034.2125
2543.72768	4037.4125
2546.43864	4019.6125
2549.14791	4014.4125
2551.85548	4011.9125
2554.56136	4002.7125
2557.26554	3992.3125
2559.96803	4000.0125
2562.66883	3977.7125
2565.36794	3964.3125
2568.06536	3967.6125
2570.7611	3945.4125
2573.45514	3931.1125
2576.14751	3913.0125
2578.83819	3919.9125
2581.52719	3902.3125
2584.21451	3909.1125
2586.90015	3919.3125
2589.58411	3871.9125
2592.2664	3888.3125
2594.94701	3869.0125
2597.62594	3862.5125
2600.30321	3863.3125
2602.9788	3863.2125
2605.65273	3859.5125
2608.32498	3846.7125
2610.99557	3850.1125
2613.66449	3834.9125
2616.33175	3819.7125
2618.99734	3832.0125
2621.66128	3810.5125
2624.32355	3797.3125
2626.98416	3785.9125
2629.64311	3783.9125
2632.30041	3767.3125
2634.95605	3759.3125
2637.61004	3752.3125
2640.26238	3747.4125
2642.91306	3738.3125
2645.56209	3737.7125
2648.20948	3724.0125
2650.85521	3725.4125
2653.4993	3727.7125
2656.14175	3713.1125
2658.78255	3701.3125
2661.42171	3710.4125
2664.05923	3727.5125
2666.6951	3726.7125
2669.32934	3722.1125
2671.96194	3725.6125
2674.59291	3715.7125
2677.22224	3726.0125
2679.84993	3722.9125
2682.476	3722.5125
2685.10043	3726.6125
2687.72324	3717.6125
2690.34441	3712.4125
2692.96396	3704.1125
2695.58188	3698.1125
2698.19818	3703.9125
2700.81285	3702.1125
2703.4259	3680.8125
2706.03733	3678.2125
2708.64714	3680.1125
2711.25533	3677.4125
2713.86191	3678.0125
2716.46687	3685.1125
2719.07021	3679.1125
2721.67194	3695.4125
2724.27206	3677.3125
2726.87057	3684.0125
2729.46747	3668.4125
2732.06276	3674.5125
2734.65644	3654.1125
2737.24852	3655.0125
2739.83899	3628.0125
2742.42786	3645.3125
2745.01513	3634.5125
2747.60079	3626.5125
2750.18486	3616.6125
2752.76733	3623.7125
2755.3482	3600.4125
2757.92747	3597.8125
2760.50515	3591.3125
2763.08123	3592.0125
2765.65573	3580.1125
2768.22863	3567.5125
2770.79994	3563.1125
2773.36967	3551.5125
2775.9378	3547.5125
2778.50435	3549.6125
2781.06932	3538.9125
2783.6327	3539.9125
2786.1945	3529.6125
2788.75471	3531.3125
2791.31335	3499.8125
2793.87041	3504.9125
2796.42589	3487.0125
2798.97979	3482.2125
2801.53212	3482.5125
2804.08288	3474.3125
2806.63206	3468.0125
2809.17967	3478.7125
2811.72571	3448.1125
2814.27018	3462.6125
2816.81308	3448.8125
2819.35442	3438.3125
2821.89419	3443.6125
2824.43239	3428.5125
2826.96904	3425.0125
2829.50412	3415.9125
2832.03763	3380.1125
2834.56959	3392.0125
2837.1	3374.3125
2839.62884	3368.7125
2842.15613	3367.7125
2844.68186	3364.7125
2847.20604	3369.0125
2849.72867	3364.6125
2852.24974	3343.3125
2854.76927	3339.2125
2857.28724	3332.2125
2859.80367	3337.6125
2862.31855	3323.2125
2864.83189	3322.2125
2867.34368	3330.2125
2869.85393	3324.7125
2872.36264	3325.5125
2874.8698	3314.7125
2877.37543	3311.8125
2879.87952	3309.1125
2882.38207	3301.1125
2884.88308	3288.9125
2887.38256	3294.4125
2889.88051	3286.1125
2892.37692	3276.4125
2894.8718	3282.1125
2897.36515	3279.7125
2899.85698	3268.8125
2902.34727	3275.1125
2904.83604	3292.6125
2907.32328	3286.6125
2909.809	3284.5125
2912.29319	3290.5125
2914.77587	3293.0125
2917.25702	3298.2125
2919.73665	3297.8125
2922.21476	3277.6125
2924.69136	3294.8125
2927.16644	3279.9125
2929.64	3274.7125
2932.11205	3260.3125
2934.58258	3239.4125
2937.05161	3239.6125
2939.51912	3247.8125
2941.98513	3235.0125
2944.44962	3241.3125
2946.91261	3223.8125
2949.37409	3212.1125
2951.83407	3214.2125
2954.29254	3207.0125
2956.74951	3210.0125
2959.20498	3206.0125
2961.65895	3204.5125
2964.11142	3204.2125
2966.56239	3196.7125
2969.01186	3204.5125
2971.45984	3178.7125
2973.90632	3184.8125
2976.35131	3185.4125
2978.7948	3175.3125
2981.23681	3168.4125
2983.67732	3168.5125
2986.11635	3147.5125
2988.55388	3141.1125
2990.98993	3145.1125
2993.4245	3130.3125
2995.85758	3116.4125
2998.28917	3116.9125
3000.71928	3103.3125
3003.14791	3087.1125
3005.57506	3087.7125
3008.00073	3073.3125
3010.42493	3068.6125
3012.84764	3063.0125
3015.26888	3053.9125
3017.68865	3047.4125
3020.10694	3056.7125
3022.52376	3033.4125
3024.9391	3035.9125
3027.35298	3008.9125
3029.76539	2996.0125
3032.17632	3008.5125
3034.5858	3003.2125
3036.9938	2989.5125
3039.40034	3005.3125
3041.80542	2980.9125
3044.20903	2961.2125
3046.61118	2962.8125
3049.01187	2952.3125
3051.4111	2947.6125
3053.80888	2932.2125
3056.20519	2926.9125
3058.60005	2925.6125
3060.99345	2927.5125
3063.3854	2923.9125
3065.7759	2902.3125
3068.16494	2900.0125
3070.55254	2896.9125
3072.93868	2883.2125
3075.32338	2865.8125
3077.70662	2851.0125
3080.08842	2853.5125
3082.46878	2851.9125
3084.84769	2839.8125
3087.22515	2835.7125
3089.60118	2844.3125
3091.97576	2834.4125
3094.3489	2824.4125
3096.72061	2824.2125
3099.09087	2813.7125
3101.4597	2816.6125
3103.82709	2824.9125
3106.19305	2812.0125
3108.55757	2801.9125
3110.92066	2797.5125
3113.28232	2797.4125
3115.64255	2784.2125
3118.00134	2777.4125
3120.35871	2777.6125
3122.71466	2772.2125
