Data from AgNPs_UA_5uM_CRN_500uM_SU_RamanShift__70__11-41-03-153.txt Node

Date: Thu Aug 04 11:41:03 BST 2022
User: TCL
Spectrometer: QEP01345
Trigger mode: 4
Integration Time (sec): 1.000000E0
Scans to average: 10
Electric dark correction enabled: true
Nonlinearity correction enabled: false
Boxcar width: 0
XAxis mode: Raman Shifts
Number of Pixels in Spectrum: 1044
>>>>>Begin Spectral Data<<<<<
46.04893	0.875
50.45542	0.575
54.85868	0.175
59.25871	-1.125
63.6555	-58.025
68.04907	-38.425
72.43941	-69.825
76.82654	-55.825
81.21044	-55.525
85.59113	-47.725
89.96862	-74.225
94.34289	-53.525
98.71396	-76.825
103.08183	-57.625
107.4465	-48.725
111.80798	-52.725
116.16626	-41.925
120.52136	-71.925
124.87327	-46.025
129.222	-58.025
133.56755	-45.625
137.90993	-59.925
142.24913	-46.325
146.58517	-36.025
150.91804	-32.425
155.24774	-18.125
159.57429	7.575
163.89768	18.975
168.21792	69.375
172.53501	107.075
176.84895	209.175
181.15975	375.075
185.46741	558.875
189.77193	802.175
194.07331	1159.775
198.37157	1523.875
202.6667	1896.975
206.9587	2335.275
211.24758	2763.175
215.53334	3226.475
219.81599	3758.275
224.09553	4383.475
228.37195	5022.475
232.64527	5644.075
236.91549	6173.975
241.18261	6499.675
245.44663	6692.775
249.70755	6773.275
253.96539	6858.775
258.22014	6975.175
262.4718	7070.475
266.72039	7104.175
270.96589	6983.475
275.20832	6781.575
279.44768	6581.075
283.68397	6378.475
287.91719	6316.975
292.14735	6410.175
296.37445	6748.575
300.59849	7350.075
304.81948	8175.575
309.03742	9120.375
313.25231	9809.575
317.46415	9730.475
321.67296	8740.375
325.87872	7642.975
330.08145	6983.975
334.28114	6815.475
338.47781	7011.475
342.67145	7404.975
346.86207	7983.075
351.04966	8918.375
355.23424	9849.875
359.4158	10251.875
363.59435	10006.775
367.76989	9466.575
371.94243	8991.875
376.11196	8588.675
380.27849	8273.975
384.44203	8038.775
388.60257	7949.575
392.76012	8005.275
396.91468	8210.875
401.06626	8477.375
405.21485	8508.875
409.36047	8118.475
413.50311	7439.975
417.64277	6821.475
421.77947	6392.175
425.9132	6202.975
430.04396	6099.175
434.17176	6098.875
438.2966	6171.475
442.41849	6331.575
446.53742	6504.575
450.6534	6644.575
454.76644	6668.875
458.87653	6631.575
462.98368	6568.375
467.08789	6483.175
471.18916	6325.975
475.2875	6120.375
479.38291	5964.775
483.4754	5845.575
487.56496	5811.875
491.6516	5752.475
495.73531	5738.475
499.81612	5799.075
503.89401	5928.975
507.96899	6031.175
512.04106	6228.975
516.11023	6390.775
520.1765	6519.775
524.23987	6577.975
528.30034	6582.375
532.35792	6452.675
536.41261	6360.475
540.46441	6202.375
544.51333	6104.675
548.55936	6106.475
552.60252	6237.175
556.64279	6398.275
560.6802	6682.875
564.71473	7272.575
568.7464	8040.875
572.7752	7962.275
576.80114	6953.175
580.82422	6163.175
584.84444	5825.875
588.86181	5719.475
592.87633	5750.075
596.888	5882.875
600.89682	6455.075
604.9028	8237.475
608.90594	12653.375
612.90624	17917.475
616.90371	16375.775
620.89834	9792.675
624.89015	6939.075
628.87913	6619.975
632.86528	7071.275
636.84862	7260.075
640.82913	6776.175
644.80683	6078.575
648.78172	5727.775
652.75379	5842.475
656.72306	6365.375
660.68952	6880.175
664.65319	6651.775
668.61405	6053.775
672.57211	5837.575
676.52738	5841.875
680.47986	5740.675
684.42955	5568.275
688.37646	5526.275
692.32058	5567.375
696.26192	5674.075
700.20048	5793.375
704.13626	5808.275
708.06928	5724.975
711.99952	5678.675
715.927	5700.575
719.85171	5839.775
723.77365	5944.675
727.69284	5823.875
731.60928	5731.675
735.52295	5692.375
739.43388	5747.775
743.34206	5767.475
747.24749	5786.675
751.15017	5817.975
755.05012	6000.275
758.94733	6856.975
762.8418	8740.375
766.73354	11284.475
770.62254	12562.575
774.50882	12106.375
778.39237	11250.475
782.27321	9865.375
786.15132	7988.775
790.02671	6695.975
793.89938	6045.975
797.76935	5831.275
801.6366	5711.875
805.50115	5653.675
809.36299	5624.775
813.22213	5624.175
817.07857	5626.275
820.93231	5643.475
824.78336	5709.975
828.63172	5772.275
832.47738	5802.575
836.32036	5757.075
840.16066	5627.875
843.99827	5550.775
847.8332	5537.175
851.66546	5532.075
855.49504	5506.675
859.32195	5527.675
863.1462	5481.875
866.96777	5476.275
870.78668	5469.075
874.60293	5492.175
878.41652	5567.775
882.22745	5672.275
886.03573	5722.475
889.84136	5700.075
893.64433	5697.375
897.44466	5685.075
901.24235	5678.775
905.0374	5659.375
908.8298	5525.575
912.61957	5450.375
916.40671	5368.475
920.19121	5430.775
923.97308	5559.975
927.75233	5790.775
931.52895	6056.675
935.30295	5946.875
939.07433	5542.875
942.84309	5297.075
946.60924	5205.975
950.37278	5160.475
954.13371	5158.875
957.89203	5153.975
961.64774	5178.175
965.40086	5145.875
969.15137	5111.475
972.89929	5141.175
976.64461	5136.775
980.38733	5138.075
984.12747	5114.575
987.86502	5132.775
991.59999	5160.775
995.33237	5218.075
999.06217	5301.675
1002.78939	5426.975
1006.51404	5637.075
1010.23611	5744.375
1013.95561	5697.475
1017.67255	5594.475
1021.38692	5499.575
1025.09872	5385.575
1028.80796	5312.575
1032.51465	5357.575
1036.21877	5335.375
1039.92035	5416.275
1043.61937	5459.475
1047.31584	5521.075
1051.00976	5559.475
1054.70114	5512.375
1058.38998	5495.275
1062.07627	5491.875
1065.76003	5512.775
1069.44126	5586.375
1073.11995	5679.275
1076.79611	5916.975
1080.46974	6232.175
1084.14085	6704.775
1087.80943	7069.975
1091.47549	7059.875
1095.13903	6731.175
1098.80005	6413.175
1102.45857	6287.375
1106.11456	6247.275
1109.76805	6248.575
1113.41903	6450.675
1117.06751	6820.475
1120.71348	7468.775
1124.35696	8401.275
1127.99793	9084.375
1131.63641	8555.575
1135.2724	7497.375
1138.90589	6793.575
1142.5369	6372.375
1146.16542	6127.075
1149.79145	5944.275
1153.415	5883.475
1157.03607	5902.875
1160.65467	6030.175
1164.27079	6317.775
1167.88443	6707.275
1171.49561	7394.175
1175.10432	8528.675
1178.71056	10140.875
1182.31434	11299.775
1185.91565	11199.875
1189.51451	10260.375
1193.11091	9219.375
1196.70485	8571.075
1200.29634	8273.475
1203.88538	7909.275
1207.47197	7222.175
1211.05612	6612.075
1214.63782	6178.475
1218.21708	5961.475
1221.79391	5869.475
1225.36829	5821.675
1228.94024	5835.675
1232.50976	5829.475
1236.07685	5871.175
1239.6415	5898.875
1243.20374	5975.575
1246.76355	6071.075
1250.32093	6222.475
1253.8759	6379.375
1257.42845	6770.975
1260.97859	7194.075
1264.52631	7655.075
1268.07163	7887.675
1271.61453	7946.875
1275.15503	7813.575
1278.69312	7637.875
1282.22882	7746.175
1285.76211	8296.275
1289.29301	9036.875
1292.82151	9566.775
1296.34761	9778.775
1299.87133	10333.475
1303.39266	11659.975
1306.9116	14156.575
1310.42815	17195.375
1313.94233	18281.775
1317.45412	15967.875
1320.96354	12709.875
1324.47058	10282.175
1327.97525	8714.275
1331.47754	7897.375
1334.97747	7632.975
1338.47502	7755.075
1341.97022	8390.175
1345.46305	9812.375
1348.95352	11809.075
1352.44163	13846.775
1355.92738	16208.275
1359.41078	20261.175
1362.89183	24641.075
1366.37053	23649.575
1369.84688	17348.575
1373.32088	12029.275
1376.79254	9721.175
1380.26186	8650.975
1383.72883	7837.375
1387.19347	7082.675
1390.65578	6513.975
1394.11575	6168.275
1397.57339	5975.775
1401.0287	5867.975
1404.48168	5791.775
1407.93234	5778.675
1411.38068	5849.275
1414.82669	6123.875
1418.27039	6409.975
1421.71177	6486.775
1425.15083	6364.675
1428.58758	6302.575
1432.02203	6534.375
1435.45416	6754.275
1438.88399	6558.775
1442.31151	6339.475
1445.73673	6302.075
1449.15965	6273.775
1452.58027	6219.175
1455.9986	6101.575
1459.41463	6030.275
1462.82837	6030.875
1466.23982	6193.175
1469.64898	6425.775
1473.05586	6533.375
1476.46045	6557.975
1479.86276	6598.375
1483.26279	6807.475
1486.66054	7216.175
1490.05602	7844.075
1493.44922	8928.175
1496.84016	10580.275
1500.22882	13098.975
1503.61521	16544.175
1506.99934	20898.675
1510.38121	24990.675
1513.76081	26434.475
1517.13816	23523.075
1520.51324	18227.375
1523.88607	13543.475
1527.25665	10550.875
1530.62498	8905.175
1533.99105	7955.175
1537.35488	7339.275
1540.71647	6965.875
1544.07581	6807.875
1547.4329	6788.975
1550.78776	6902.375
1554.14038	7074.275
1557.49077	7410.975
1560.83892	7987.975
1564.18484	8884.675
1567.52853	9855.975
1570.86999	10488.675
1574.20922	10587.575
1577.54624	10196.675
1580.88103	9006.675
1584.2136	7615.975
1587.54395	6781.975
1590.87208	6560.675
1594.19801	6809.975
1597.52172	7314.375
1600.84321	7335.175
1604.16251	6845.275
1607.47959	6382.175
1610.79447	6072.575
1614.10715	5803.175
1617.41763	5590.675
1620.7259	5468.275
1624.03199	5468.875
1627.33587	5541.875
1630.63757	5758.475
1633.93707	6207.075
1637.23439	6984.775
1640.52951	8432.075
1643.82246	10811.575
1647.11321	14011.975
1650.40179	16508.675
1653.68819	16198.475
1656.97241	13209.075
1660.25446	9811.375
1663.53433	7452.675
1666.81203	6151.975
1670.08756	5519.475
1673.36092	5150.475
1676.63211	4919.975
1679.90115	4786.975
1683.16801	4664.375
1686.43272	4560.075
1689.69527	4508.075
1692.95567	4458.975
1696.2139	4440.075
1699.46999	4374.475
1702.72392	4369.675
1705.97571	4384.975
1709.22535	4372.175
1712.47284	4405.475
1715.71819	4440.475
1718.96139	4443.875
1722.20246	4414.175
1725.44139	4387.775
1728.67818	4340.175
1731.91284	4289.875
1735.14537	4227.875
1738.37576	4213.675
1741.60403	4195.775
1744.83017	4175.775
1748.05418	4151.775
1751.27607	4154.075
1754.49584	4110.275
1757.71349	4051.275
1760.92903	4057.775
1764.14244	3980.875
1767.35375	3969.875
1770.56294	3955.775
1773.77002	3911.075
1776.97499	3924.775
1780.17785	3896.675
1783.37861	3880.475
1786.57727	3888.375
1789.77382	3816.175
1792.96828	3852.975
1796.16064	3857.075
1799.3509	3843.675
1802.53907	3847.375
1805.72514	3821.575
1808.90913	3798.775
1812.09102	3801.775
1815.27083	3784.875
1818.44856	3778.075
1821.6242	3773.275
1824.79776	3742.675
1827.96924	3746.475
1831.13864	3716.775
1834.30597	3729.375
1837.47122	3670.475
1840.6344	3667.275
1843.7955	3635.875
1846.95454	3633.075
1850.11151	3647.275
1853.26642	3607.575
1856.41926	3620.575
1859.57004	3619.175
1862.71876	3626.675
1865.86542	3617.375
1869.01003	3606.875
1872.15258	3601.475
1875.29308	3627.175
1878.43152	3616.475
1881.56792	3604.875
1884.70227	3592.675
1887.83457	3586.675
1890.96482	3565.775
1894.09304	3556.775
1897.21921	3548.175
1900.34335	3548.175
1903.46544	3531.975
1906.58551	3538.375
1909.70353	3538.775
1912.81953	3535.475
1915.93349	3531.175
1919.04543	3517.575
1922.15534	3499.375
1925.26322	3491.075
1928.36908	3464.275
1931.47292	3458.775
1934.57473	3448.875
1937.67453	3412.675
1940.77232	3378.375
1943.86808	3364.575
1946.96184	3372.175
1950.05358	3351.475
1953.14331	3330.975
1956.23103	3349.475
1959.31675	3321.175
1962.40046	3290.375
1965.48217	3322.675
1968.56188	3318.075
1971.63959	3315.675
1974.7153	3311.575
1977.78901	3304.275
1980.86073	3281.375
1983.93046	3239.775
1986.99819	3159.775
1990.06394	3171.375
1993.1277	3187.675
1996.18947	3170.475
1999.24925	3132.475
2002.30706	3139.075
2005.36288	3141.675
2008.41672	3118.675
2011.46859	3089.175
2014.51848	3084.275
2017.56639	3054.175
2020.61233	3049.575
2023.6563	3064.375
2026.6983	3006.375
2029.73833	3021.175
2032.7764	3032.175
2035.8125	2975.675
2038.84664	3003.175
2041.87881	2974.975
2044.90903	3000.775
2047.93729	2995.175
2050.96359	2945.675
2053.98794	2965.775
2057.01034	2965.875
2060.03078	2925.275
2063.04927	2927.275
2066.06582	2933.875
2069.08042	2904.775
2072.09307	2910.975
2075.10378	2911.775
2078.11255	2912.675
2081.11938	2913.175
2084.12426	2911.075
2087.12722	2899.575
2090.12824	2900.375
2093.12732	2893.375
2096.12447	2909.175
2099.11969	2902.475
2102.11299	2882.175
2105.10435	2912.375
2108.09379	2920.275
2111.08131	2907.575
2114.0669	2893.875
2117.05057	2900.075
2120.03233	2909.175
2123.01216	2929.275
2125.99008	2945.375
2128.96609	2926.475
2131.94018	2953.775
2134.91236	2922.075
2137.88263	2913.275
2140.851	2913.975
2143.81746	2933.375
2146.78201	2901.775
2149.74466	2881.975
2152.7054	2892.075
2155.66425	2868.775
2158.6212	2865.375
2161.57625	2841.675
2164.52941	2821.875
2167.48067	2835.875
2170.43004	2837.875
2173.37752	2866.375
2176.32311	2847.375
2179.26681	2862.575
2182.20863	2855.875
2185.14856	2867.475
2188.08661	2853.375
2191.02278	2855.075
2193.95707	2828.475
2196.88948	2811.375
2199.82001	2826.175
2202.74867	2810.575
2205.67545	2819.875
2208.60037	2821.975
2211.52341	2805.975
2214.44458	2801.575
2217.36388	2786.675
2220.28132	2763.175
2223.1969	2757.175
2226.11061	2761.875
2229.02246	2751.775
2231.93245	2760.475
2234.84058	2722.875
2237.74686	2727.475
2240.65128	2713.175
2243.55385	2727.275
2246.45456	2709.175
2249.35343	2739.875
2252.25044	2721.375
2255.14561	2753.875
2258.03893	2758.075
2260.93041	2757.775
2263.82004	2752.975
2266.70783	2746.875
2269.59378	2739.575
2272.4779	2717.175
2275.36017	2721.675
2278.24061	2705.775
2281.11922	2675.375
2283.996	2693.375
2286.87094	2668.075
2289.74405	2674.875
2292.61534	2662.475
2295.4848	2651.875
2298.35243	2629.575
2301.21824	2628.575
2304.08223	2613.775
2306.94439	2624.375
2309.80474	2623.575
2312.66327	2629.075
2315.51999	2609.975
2318.37489	2601.675
2321.22797	2589.875
2324.07925	2579.975
2326.92871	2582.575
2329.77637	2570.175
2332.62222	2564.475
2335.46626	2551.375
2338.3085	2555.775
2341.14893	2562.275
2343.98756	2567.875
2346.8244	2550.475
2349.65943	2550.475
2352.49267	2566.775
2355.32411	2573.875
2358.15376	2564.075
2360.98161	2594.175
2363.80768	2577.675
2366.63195	2597.675
2369.45444	2607.775
2372.27514	2605.175
2375.09405	2613.075
2377.91118	2574.675
2380.72652	2569.175
2383.54009	2561.475
2386.35187	2563.775
2389.16188	2540.075
2391.97011	2528.375
2394.77657	2508.575
2397.58125	2499.975
2400.38416	2493.875
2403.18529	2477.275
2405.98466	2472.075
2408.78226	2465.775
2411.57809	2457.775
2414.37216	2446.675
2417.16446	2459.075
2419.955	2442.675
2422.74378	2453.775
2425.5308	2446.175
2428.31606	2457.775
2431.09956	2446.575
2433.88131	2426.675
2436.6613	2446.675
2439.43954	2445.775
2442.21603	2445.175
2444.99077	2444.275
2447.76377	2459.475
2450.53501	2456.575
2453.30451	2444.875
2456.07226	2464.275
2458.83827	2442.575
2461.60254	2408.275
2464.36507	2424.075
2467.12586	2419.275
2469.88492	2440.275
2472.64224	2422.475
2475.39782	2408.975
2478.15167	2424.775
2480.90379	2427.575
2483.65417	2457.375
2486.40283	2445.675
2489.14976	2476.775
2491.89497	2460.975
2494.63845	2470.375
2497.3802	2457.875
2500.12024	2439.575
2502.85855	2431.575
2505.59514	2425.175
2508.33002	2400.575
2511.06318	2371.875
2513.79462	2362.175
2516.52435	2318.875
2519.25237	2287.475
2521.97867	2294.675
2524.70327	2288.975
2527.42616	2286.575
2530.14734	2300.375
2532.86681	2267.675
2535.58458	2276.275
2538.30065	2259.675
2541.01501	2287.675
2543.72768	2266.775
2546.43864	2279.775
2549.14791	2268.275
2551.85548	2251.975
2554.56136	2257.575
2557.26554	2272.675
2559.96803	2271.975
2562.66883	2266.875
2565.36794	2250.975
2568.06536	2226.475
2570.7611	2271.875
2573.45514	2249.175
2576.14751	2236.975
2578.83819	2229.575
2581.52719	2206.475
2584.21451	2223.075
2586.90015	2191.975
2589.58411	2177.575
2592.2664	2186.875
2594.94701	2195.375
2597.62594	2197.375
2600.30321	2129.975
2602.9788	2157.275
2605.65273	2156.975
2608.32498	2158.875
2610.99557	2179.975
2613.66449	2143.275
2616.33175	2171.875
2618.99734	2166.075
2621.66128	2150.375
2624.32355	2144.975
2626.98416	2120.175
2629.64311	2115.175
2632.30041	2118.275
2634.95605	2086.975
2637.61004	2081.275
2640.26238	2071.775
2642.91306	2066.975
2645.56209	2088.275
2648.20948	2079.075
2650.85521	2063.075
2653.4993	2085.375
2656.14175	2073.575
2658.78255	2058.075
2661.42171	2034.675
2664.05923	2079.875
2666.6951	2092.775
2669.32934	2105.075
2671.96194	2109.575
2674.59291	2096.375
2677.22224	2092.675
2679.84993	2087.475
2682.476	2070.775
2685.10043	2083.775
2687.72324	2077.075
2690.34441	2061.175
2692.96396	2067.675
2695.58188	2059.275
2698.19818	2064.375
2700.81285	2057.075
2703.4259	2050.275
2706.03733	2012.575
2708.64714	2019.075
2711.25533	2055.575
2713.86191	2055.275
2716.46687	2054.175
2719.07021	2045.975
2721.67194	2055.575
2724.27206	2056.775
2726.87057	2039.075
2729.46747	2033.575
2732.06276	2035.875
2734.65644	2013.075
2737.24852	2015.975
2739.83899	1991.775
2742.42786	2005.075
2745.01513	2028.075
2747.60079	1992.575
2750.18486	1966.175
2752.76733	1985.575
2755.3482	1970.375
2757.92747	1968.575
2760.50515	1947.975
2763.08123	1952.375
2765.65573	1941.375
2768.22863	1944.475
2770.79994	1928.175
2773.36967	1917.075
2775.9378	1921.175
2778.50435	1913.675
2781.06932	1908.475
2783.6327	1900.575
2786.1945	1924.375
2788.75471	1910.575
2791.31335	1903.475
2793.87041	1911.775
2796.42589	1903.975
2798.97979	1895.775
2801.53212	1900.975
2804.08288	1925.475
2806.63206	1912.975
2809.17967	1892.975
2811.72571	1917.675
2814.27018	1922.475
2816.81308	1912.675
2819.35442	1881.775
2821.89419	1912.075
2824.43239	1906.475
2826.96904	1932.175
2829.50412	1920.375
2832.03763	1920.775
2834.56959	1916.575
2837.1	1890.275
2839.62884	1893.775
2842.15613	1886.975
2844.68186	1893.475
2847.20604	1872.075
2849.72867	1874.175
2852.24974	1881.575
2854.76927	1859.075
2857.28724	1819.975
2859.80367	1885.575
2862.31855	1907.675
2864.83189	1899.875
2867.34368	1912.575
2869.85393	1910.875
2872.36264	1895.475
2874.8698	1906.175
2877.37543	1908.175
2879.87952	1901.675
2882.38207	1870.875
2884.88308	1873.375
2887.38256	1860.475
2889.88051	1864.375
2892.37692	1854.575
2894.8718	1832.475
2897.36515	1849.175
2899.85698	1836.275
2902.34727	1840.475
2904.83604	1849.975
2907.32328	1865.875
2909.809	1878.775
2912.29319	1879.875
2914.77587	1883.275
2917.25702	1904.775
2919.73665	1896.675
2922.21476	1889.475
2924.69136	1880.375
2927.16644	1846.575
2929.64	1841.575
2932.11205	1825.075
2934.58258	1829.775
2937.05161	1814.375
2939.51912	1803.775
2941.98513	1829.275
2944.44962	1810.775
2946.91261	1784.075
2949.37409	1795.575
2951.83407	1785.675
2954.29254	1799.075
2956.74951	1812.975
2959.20498	1793.875
2961.65895	1790.475
2964.11142	1785.075
2966.56239	1787.075
2969.01186	1792.075
2971.45984	1785.275
2973.90632	1765.275
2976.35131	1791.675
2978.7948	1794.075
2981.23681	1771.475
2983.67732	1774.975
2986.11635	1776.875
2988.55388	1753.675
2990.98993	1765.675
2993.4245	1765.275
2995.85758	1747.175
2998.28917	1756.975
3000.71928	1742.875
3003.14791	1749.975
3005.57506	1727.675
3008.00073	1729.675
3010.42493	1673.375
3012.84764	1721.075
3015.26888	1725.875
3017.68865	1717.175
3020.10694	1681.575
3022.52376	1690.875
3024.9391	1692.175
3027.35298	1675.775
3029.76539	1659.175
3032.17632	1652.675
3034.5858	1635.775
3036.9938	1648.075
3039.40034	1636.775
3041.80542	1621.075
3044.20903	1607.875
3046.61118	1597.175
3049.01187	1602.075
3051.4111	1595.375
3053.80888	1583.975
3056.20519	1578.075
3058.60005	1564.675
3060.99345	1584.175
3063.3854	1564.075
3065.7759	1549.275
3068.16494	1544.275
3070.55254	1533.375
3072.93868	1548.475
3075.32338	1546.175
3077.70662	1537.575
3080.08842	1524.275
3082.46878	1513.775
3084.84769	1540.175
3087.22515	1512.775
3089.60118	1524.175
3091.97576	1509.775
3094.3489	1520.575
3096.72061	1519.775
3099.09087	1499.175
3101.4597	1508.575
3103.82709	1512.475
3106.19305	1497.875
3108.55757	1504.975
3110.92066	1489.575
3113.28232	1499.775
3115.64255	1503.575
3118.00134	1507.775
3120.35871	1482.875
3122.71466	1479.075
3125.06917	1478.575
3127.42226	1473.875
3129.77393	1461.275
3132.12417	1472.075
3134.47299	1480.175
3136.82039	1454.275
3139.16636	1439.375
3141.51092	1462.375
3143.85406	1472.975
3146.19579	1447.375
3148.53609	1440.075
3150.87499	1449.675
3153.21246	1448.275
3155.54853	1460.375
3157.88318	1461.475
3160.21642	1473.175
3162.54826	1452.275
3164.87868	1461.775
3167.2077	1428.375
3169.5353	1445.475
3171.86151	1448.775
3174.18631	1431.975
3176.5097	1420.075
3178.83169	1425.375
3181.15228	1423.475
3183.47147	1413.275
3185.78926	1392.975
3188.10565	1398.375
3190.42065	1375.275
3192.73424	1394.675
3195.04645	1384.475
3197.35725	1372.375
3199.66667	1383.875
3201.97469	1383.075
3204.28132	1379.275
3206.58656	1387.175
3208.8904	1386.975
3211.19287	1391.775
3213.49394	1372.275
3215.79363	1377.175
3218.09193	1390.775
3220.38884	1387.475
3222.68438	1388.475
3224.97853	1362.375
3227.2713	1390.875
3229.56269	1364.775
3231.8527	1374.475
