Data from AgNPs_UA_50uM_CRN_500uM_SU_RamanShift__66__14-06-50-326.txt Node

Date: Thu Aug 04 14:06:50 BST 2022
User: TCL
Spectrometer: QEP01345
Trigger mode: 4
Integration Time (sec): 1.000000E0
Scans to average: 10
Electric dark correction enabled: true
Nonlinearity correction enabled: false
Boxcar width: 0
XAxis mode: Raman Shifts
Number of Pixels in Spectrum: 1044
>>>>>Begin Spectral Data<<<<<
46.04893	0.375
50.45542	-0.825
54.85868	0.275
59.25871	-1.725
63.6555	20.475
68.04907	17.175
72.43941	18.875
76.82654	19.675
81.21044	19.475
85.59113	22.075
89.96862	20.775
94.34289	22.875
98.71396	21.575
103.08183	23.675
107.4465	23.875
111.80798	22.775
116.16626	23.675
120.52136	26.375
124.87327	29.975
129.222	29.575
133.56755	34.175
137.90993	37.775
142.24913	39.775
146.58517	47.675
150.91804	54.375
155.24774	65.475
159.57429	84.975
163.89768	108.575
168.21792	145.775
172.53501	200.875
176.84895	288.575
181.15975	409.875
185.46741	574.575
189.77193	801.775
194.07331	1080.075
198.37157	1385.575
202.6667	1719.675
206.9587	2062.575
211.24758	2388.175
215.53334	2736.275
219.81599	3091.575
224.09553	3495.475
228.37195	3962.275
232.64527	4426.875
236.91549	4902.175
241.18261	5308.975
245.44663	5624.175
249.70755	5864.975
253.96539	6061.775
258.22014	6275.975
262.4718	6452.675
266.72039	6596.975
270.96589	6632.675
275.20832	6575.675
279.44768	6483.275
283.68397	6372.975
287.91719	6288.675
292.14735	6292.575
296.37445	6434.375
300.59849	6664.075
304.81948	6972.075
309.03742	7239.275
313.25231	7373.275
317.46415	7270.975
321.67296	6932.275
325.87872	6604.175
330.08145	6400.575
334.28114	6403.775
338.47781	6495.475
342.67145	6649.875
346.86207	6871.575
351.04966	7185.075
355.23424	7494.475
359.4158	7701.775
363.59435	7813.775
367.76989	7824.975
371.94243	7773.875
376.11196	7747.875
380.27849	7710.075
384.44203	7683.275
388.60257	7674.075
392.76012	7742.475
396.91468	7836.175
401.06626	7960.475
405.21485	8007.275
409.36047	7866.775
413.50311	7562.575
417.64277	7267.575
421.77947	7087.375
425.9132	7024.775
430.04396	7013.075
434.17176	7065.375
438.2966	7203.775
442.41849	7348.575
446.53742	7579.575
450.6534	7740.675
454.76644	7861.975
458.87653	7887.875
462.98368	7858.475
467.08789	7753.075
471.18916	7574.775
475.2875	7353.875
479.38291	7190.375
483.4754	7094.475
487.56496	7013.575
491.6516	6956.975
495.73531	6940.375
499.81612	6958.175
503.89401	7021.075
507.96899	7062.975
512.04106	7113.575
516.11023	7204.175
520.1765	7273.975
524.23987	7286.075
528.30034	7292.175
532.35792	7265.875
536.41261	7169.475
540.46441	7056.875
544.51333	7024.275
548.55936	7072.575
552.60252	7190.175
556.64279	7330.075
560.6802	7409.575
564.71473	7523.575
568.7464	7667.675
572.7752	7669.675
576.80114	7430.775
580.82422	7244.575
584.84444	7206.175
588.86181	7253.675
592.87633	7377.475
596.888	7554.475
600.89682	7899.375
604.9028	8912.475
608.90594	11123.375
612.90624	13277.075
616.90371	12093.175
620.89834	9064.075
624.89015	7899.475
628.87913	7789.575
632.86528	7871.375
636.84862	7826.375
640.82913	7532.275
644.80683	7171.775
648.78172	7004.575
652.75379	7051.775
656.72306	7311.575
660.68952	7614.575
664.65319	7530.475
668.61405	7349.575
672.57211	7329.375
676.52738	7296.275
680.47986	7163.175
684.42955	7021.675
688.37646	7011.175
692.32058	7088.375
696.26192	7205.175
700.20048	7342.575
704.13626	7356.675
708.06928	7251.675
711.99952	7167.675
715.927	7180.375
719.85171	7234.075
723.77365	7243.575
727.69284	7161.775
731.60928	7098.375
735.52295	7079.375
739.43388	7106.775
743.34206	7173.575
747.24749	7193.775
751.15017	7213.775
755.05012	7294.875
758.94733	7666.675
762.8418	8441.475
766.73354	9625.675
770.62254	10564.675
774.50882	10710.875
778.39237	10180.575
782.27321	9232.675
786.15132	8288.275
790.02671	7690.275
793.89938	7369.475
797.76935	7245.975
801.6366	7176.375
805.50115	7129.975
809.36299	7091.175
813.22213	7066.875
817.07857	7070.175
820.93231	7050.075
824.78336	7072.375
828.63172	7087.275
832.47738	7127.475
836.32036	7105.075
840.16066	7094.775
843.99827	7125.975
847.8332	7096.175
851.66546	7077.475
855.49504	7059.275
859.32195	7075.375
863.1462	7053.575
866.96777	7035.875
870.78668	7016.975
874.60293	7048.675
878.41652	7072.475
882.22745	7115.875
886.03573	7155.075
889.84136	7138.475
893.64433	7087.075
897.44466	7065.875
901.24235	7072.475
905.0374	7048.375
908.8298	7003.475
912.61957	7004.775
916.40671	7019.075
920.19121	7085.675
923.97308	7188.275
927.75233	7313.775
931.52895	7381.075
935.30295	7285.675
939.07433	7124.975
942.84309	7006.675
946.60924	6931.275
950.37278	6941.875
954.13371	6901.975
957.89203	6849.575
961.64774	6829.975
965.40086	6793.375
969.15137	6802.075
972.89929	6780.675
976.64461	6771.775
980.38733	6794.575
984.12747	6829.575
987.86502	6865.075
991.59999	6962.275
995.33237	7090.575
999.06217	7331.075
1002.78939	7538.975
1006.51404	7652.475
1010.23611	7716.575
1013.95561	7774.875
1017.67255	7836.575
1021.38692	7829.575
1025.09872	7816.375
1028.80796	7914.875
1032.51465	8105.675
1036.21877	8283.675
1039.92035	8248.675
1043.61937	8116.675
1047.31584	7911.975
1051.00976	7749.075
1054.70114	7641.375
1058.38998	7623.175
1062.07627	7628.575
1065.76003	7629.575
1069.44126	7670.875
1073.11995	7780.175
1076.79611	7913.175
1080.46974	8029.275
1084.14085	8198.275
1087.80943	8300.975
1091.47549	8297.275
1095.13903	8190.175
1098.80005	8040.575
1102.45857	8005.575
1106.11456	7989.375
1109.76805	7995.275
1113.41903	8077.675
1117.06751	8229.075
1120.71348	8457.575
1124.35696	8704.475
1127.99793	8866.675
1131.63641	8667.475
1135.2724	8354.475
1138.90589	8069.575
1142.5369	7921.675
1146.16542	7807.475
1149.79145	7738.175
1153.415	7695.275
1157.03607	7687.675
1160.65467	7786.575
1164.27079	8019.375
1167.88443	8335.375
1171.49561	8864.575
1175.10432	9682.375
1178.71056	10713.275
1182.31434	11563.375
1185.91565	11871.275
1189.51451	11654.475
1193.11091	11125.275
1196.70485	10558.475
1200.29634	10116.075
1203.88538	9715.775
1207.47197	9226.275
1211.05612	8834.475
1214.63782	8568.975
1218.21708	8452.475
1221.79391	8451.775
1225.36829	8509.575
1228.94024	8515.275
1232.50976	8402.875
1236.07685	8329.275
1239.6415	8320.475
1243.20374	8327.875
1246.76355	8401.375
1250.32093	8529.675
1253.8759	8727.375
1257.42845	9025.175
1260.97859	9309.975
1264.52631	9590.175
1268.07163	9807.475
1271.61453	9982.575
1275.15503	10095.475
1278.69312	10244.175
1282.22882	10402.375
1285.76211	10583.275
1289.29301	10783.075
1292.82151	10987.475
1296.34761	11245.875
1299.87133	11780.675
1303.39266	12672.875
1306.9116	13978.575
1310.42815	15377.675
1313.94233	15908.875
1317.45412	15309.875
1320.96354	14147.475
1324.47058	12987.075
1327.97525	12082.175
1331.47754	11538.975
1334.97747	11400.875
1338.47502	11505.775
1341.97022	11897.775
1345.46305	12538.875
1348.95352	13397.675
1352.44163	14384.475
1355.92738	15622.575
1359.41078	17287.575
1362.89183	18461.775
1366.37053	17452.575
1369.84688	14816.575
1373.32088	12447.575
1376.79254	11049.775
1380.26186	10445.575
1383.72883	10098.975
1387.19347	9784.075
1390.65578	9404.275
1394.11575	9115.875
1397.57339	8937.475
1401.0287	8897.775
1404.48168	8929.375
1407.93234	9006.075
1411.38068	9131.475
1414.82669	9295.775
1418.27039	9346.375
1421.71177	9249.275
1425.15083	9160.775
1428.58758	9144.675
1432.02203	9275.775
1435.45416	9388.475
1438.88399	9432.075
1442.31151	9362.975
1445.73673	9306.475
1449.15965	9294.075
1452.58027	9170.275
1455.9986	9068.075
1459.41463	9030.675
1462.82837	9085.375
1466.23982	9248.975
1469.64898	9450.075
1473.05586	9601.575
1476.46045	9723.275
1479.86276	9864.675
1483.26279	10010.275
1486.66054	10209.175
1490.05602	10520.275
1493.44922	11002.275
1496.84016	11748.275
1500.22882	12803.375
1503.61521	14143.175
1506.99934	15579.875
1510.38121	16516.075
1513.76081	16403.475
1517.13816	15119.275
1520.51324	13405.675
1523.88607	11956.975
1527.25665	11025.275
1530.62498	10559.775
1533.99105	10272.975
1537.35488	10111.875
1540.71647	9970.875
1544.07581	9873.775
1547.4329	9759.275
1550.78776	9642.475
1554.14038	9600.775
1557.49077	9643.575
1560.83892	9787.475
1564.18484	10016.275
1567.52853	10308.575
1570.86999	10467.875
1574.20922	10445.775
1577.54624	10250.975
1580.88103	9792.075
1584.2136	9291.775
1587.54395	9128.275
1590.87208	9345.675
1594.19801	9926.275
1597.52172	10628.175
1600.84321	10916.975
1604.16251	10734.575
1607.47959	10211.275
1610.79447	9619.775
1614.10715	8996.375
1617.41763	8444.675
1620.7259	8084.875
1624.03199	7935.075
1627.33587	7935.375
1630.63757	8186.875
1633.93707	8622.775
1637.23439	9297.975
1640.52951	10268.275
1643.82246	11547.275
1647.11321	12684.275
1650.40179	13060.675
1653.68819	12209.275
1656.97241	10588.475
1660.25446	9051.075
1663.53433	8023.775
1666.81203	7411.375
1670.08756	7089.575
1673.36092	6850.375
1676.63211	6701.175
1679.90115	6612.575
1683.16801	6510.475
1686.43272	6478.775
1689.69527	6415.975
1692.95567	6372.275
1696.2139	6365.475
1699.46999	6346.375
1702.72392	6355.575
1705.97571	6336.775
1709.22535	6350.675
1712.47284	6335.775
1715.71819	6345.075
1718.96139	6312.375
1722.20246	6320.175
1725.44139	6270.675
1728.67818	6235.275
1731.91284	6179.275
1735.14537	6155.875
1738.37576	6146.775
1741.60403	6124.775
1744.83017	6101.675
1748.05418	6098.975
1751.27607	6074.875
1754.49584	6049.075
1757.71349	6043.275
1760.92903	6038.875
1764.14244	6010.075
1767.35375	6013.175
1770.56294	6022.575
1773.77002	6004.175
1776.97499	5982.675
1780.17785	5966.075
1783.37861	5934.875
1786.57727	5924.375
1789.77382	5911.875
1792.96828	5905.675
1796.16064	5902.075
1799.3509	5896.075
1802.53907	5895.775
1805.72514	5884.475
1808.90913	5843.075
1812.09102	5814.875
1815.27083	5831.175
1818.44856	5810.775
1821.6242	5800.875
1824.79776	5791.675
1827.96924	5774.075
1831.13864	5749.875
1834.30597	5725.075
1837.47122	5745.375
1840.6344	5739.975
1843.7955	5739.175
1846.95454	5712.875
1850.11151	5730.775
1853.26642	5718.675
1856.41926	5703.075
1859.57004	5719.575
1862.71876	5711.575
1865.86542	5693.875
1869.01003	5708.475
1872.15258	5707.775
1875.29308	5689.975
1878.43152	5681.375
1881.56792	5678.075
1884.70227	5681.875
1887.83457	5661.175
1890.96482	5658.775
1894.09304	5641.175
1897.21921	5630.275
1900.34335	5638.575
1903.46544	5623.875
1906.58551	5603.075
1909.70353	5591.775
1912.81953	5597.375
1915.93349	5594.075
1919.04543	5575.775
1922.15534	5557.675
1925.26322	5560.675
1928.36908	5556.675
1931.47292	5545.275
1934.57473	5532.775
1937.67453	5516.075
1940.77232	5496.875
1943.86808	5500.575
1946.96184	5467.975
1950.05358	5451.475
1953.14331	5429.575
1956.23103	5418.375
1959.31675	5403.675
1962.40046	5378.875
1965.48217	5377.475
1968.56188	5365.875
1971.63959	5355.675
1974.7153	5346.575
1977.78901	5314.275
1980.86073	5307.375
1983.93046	5288.175
1986.99819	5274.475
1990.06394	5243.875
1993.1277	5234.775
1996.18947	5211.675
1999.24925	5194.675
2002.30706	5174.475
2005.36288	5139.675
2008.41672	5126.575
2011.46859	5124.475
2014.51848	5113.475
2017.56639	5093.375
2020.61233	5086.175
2023.6563	5081.275
2026.6983	5037.575
2029.73833	5023.175
2032.7764	5030.775
2035.8125	5016.175
2038.84664	5009.975
2041.87881	5012.075
2044.90903	4994.375
2047.93729	4974.275
2050.96359	4981.375
2053.98794	4977.675
2057.01034	4959.375
2060.03078	4960.175
2063.04927	4962.675
2066.06582	4960.175
2069.08042	4945.775
2072.09307	4920.875
2075.10378	4910.575
2078.11255	4924.075
2081.11938	4917.275
2084.12426	4925.175
2087.12722	4908.975
2090.12824	4907.575
2093.12732	4907.775
2096.12447	4910.675
2099.11969	4918.875
2102.11299	4935.875
2105.10435	4911.175
2108.09379	4913.875
2111.08131	4910.075
2114.0669	4925.375
2117.05057	4919.575
2120.03233	4919.075
2123.01216	4932.675
2125.99008	4939.875
2128.96609	4944.775
2131.94018	4948.975
2134.91236	4927.675
2137.88263	4921.175
2140.851	4929.175
2143.81746	4920.175
2146.78201	4903.775
2149.74466	4925.575
2152.7054	4911.575
2155.66425	4911.375
2158.6212	4919.975
2161.57625	4923.575
2164.52941	4912.475
2167.48067	4905.675
2170.43004	4910.075
2173.37752	4902.775
2176.32311	4896.075
2179.26681	4903.475
2182.20863	4908.275
2185.14856	4907.575
2188.08661	4904.875
2191.02278	4911.675
2193.95707	4898.575
2196.88948	4883.675
2199.82001	4886.875
2202.74867	4891.175
2205.67545	4874.975
2208.60037	4896.075
2211.52341	4893.775
2214.44458	4888.575
2217.36388	4867.775
2220.28132	4849.375
2223.1969	4849.775
2226.11061	4825.375
2229.02246	4827.575
2231.93245	4800.875
2234.84058	4799.575
2237.74686	4773.975
2240.65128	4792.675
2243.55385	4767.075
2246.45456	4773.175
2249.35343	4766.375
2252.25044	4761.175
2255.14561	4751.275
2258.03893	4753.475
2260.93041	4748.175
2263.82004	4743.675
2266.70783	4726.375
2269.59378	4719.775
2272.4779	4702.175
2275.36017	4680.675
2278.24061	4659.675
2281.11922	4658.575
2283.996	4652.475
2286.87094	4645.175
2289.74405	4628.875
2292.61534	4629.975
2295.4848	4628.575
2298.35243	4642.975
2301.21824	4645.875
2304.08223	4624.775
2306.94439	4642.175
2309.80474	4633.775
2312.66327	4635.875
2315.51999	4646.875
2318.37489	4645.975
2321.22797	4619.875
2324.07925	4613.875
2326.92871	4600.375
2329.77637	4600.975
2332.62222	4579.175
2335.46626	4588.475
2338.3085	4585.475
2341.14893	4604.275
2343.98756	4602.175
2346.8244	4596.975
2349.65943	4596.575
2352.49267	4593.075
2355.32411	4601.175
2358.15376	4592.675
2360.98161	4581.275
2363.80768	4589.275
2366.63195	4584.775
2369.45444	4582.775
2372.27514	4548.375
2375.09405	4548.375
2377.91118	4547.875
2380.72652	4516.775
2383.54009	4516.375
2386.35187	4497.875
2389.16188	4491.875
2391.97011	4485.975
2394.77657	4485.675
2397.58125	4458.275
2400.38416	4456.475
2403.18529	4439.475
2405.98466	4464.675
2408.78226	4420.675
2411.57809	4419.175
2414.37216	4382.075
2417.16446	4402.475
2419.955	4392.575
2422.74378	4407.875
2425.5308	4382.475
2428.31606	4390.475
2431.09956	4388.175
2433.88131	4372.775
2436.6613	4368.475
2439.43954	4381.075
2442.21603	4388.675
2444.99077	4362.975
2447.76377	4370.575
2450.53501	4362.675
2453.30451	4361.975
2456.07226	4372.775
2458.83827	4357.875
2461.60254	4345.975
2464.36507	4346.275
2467.12586	4359.475
2469.88492	4352.475
2472.64224	4344.575
2475.39782	4338.075
2478.15167	4326.075
2480.90379	4340.875
2483.65417	4330.775
2486.40283	4347.675
2489.14976	4362.375
2491.89497	4349.275
2494.63845	4346.675
2497.3802	4346.975
2500.12024	4338.475
2502.85855	4337.675
2505.59514	4335.375
2508.33002	4323.875
2511.06318	4303.475
2513.79462	4293.075
2516.52435	4282.875
2519.25237	4269.075
2521.97867	4257.775
2524.70327	4271.575
2527.42616	4254.475
2530.14734	4274.775
2532.86681	4269.875
2535.58458	4272.175
2538.30065	4260.675
2541.01501	4248.875
2543.72768	4253.575
2546.43864	4265.675
2549.14791	4242.375
2551.85548	4238.375
2554.56136	4246.175
2557.26554	4231.475
2559.96803	4207.475
2562.66883	4202.175
2565.36794	4210.675
2568.06536	4204.175
2570.7611	4181.675
2573.45514	4178.275
2576.14751	4182.075
2578.83819	4158.775
2581.52719	4174.675
2584.21451	4143.775
2586.90015	4156.675
2589.58411	4152.075
2592.2664	4157.175
2594.94701	4157.875
2597.62594	4148.975
2600.30321	4137.575
2602.9788	4135.175
2605.65273	4144.275
2608.32498	4132.875
2610.99557	4138.175
2613.66449	4124.175
2616.33175	4131.975
2618.99734	4124.775
2621.66128	4122.875
2624.32355	4115.275
2626.98416	4118.675
2629.64311	4115.375
2632.30041	4116.975
2634.95605	4098.375
2637.61004	4107.375
2640.26238	4095.175
2642.91306	4087.175
2645.56209	4087.175
2648.20948	4085.275
2650.85521	4067.275
2653.4993	4065.175
2656.14175	4064.175
2658.78255	4051.075
2661.42171	4074.275
2664.05923	4072.975
2666.6951	4066.875
2669.32934	4079.775
2671.96194	4047.675
2674.59291	4051.475
2677.22224	4067.775
2679.84993	4064.275
2682.476	4061.475
2685.10043	4067.975
2687.72324	4052.375
2690.34441	4056.575
2692.96396	4043.575
2695.58188	4036.575
2698.19818	4023.675
2700.81285	4044.275
2703.4259	4029.275
2706.03733	4033.375
2708.64714	4032.075
2711.25533	4029.275
2713.86191	4028.575
2716.46687	4025.475
2719.07021	4027.575
2721.67194	4031.875
2724.27206	4024.075
2726.87057	4017.975
2729.46747	4017.275
2732.06276	4021.075
2734.65644	3998.175
2737.24852	4009.075
2739.83899	4023.975
2742.42786	4009.675
2745.01513	3992.575
2747.60079	3979.575
2750.18486	3990.575
2752.76733	3986.175
2755.3482	3975.175
2757.92747	3947.475
2760.50515	3961.975
2763.08123	3959.275
2765.65573	3957.175
2768.22863	3932.075
2770.79994	3930.775
2773.36967	3953.075
2775.9378	3938.475
2778.50435	3945.375
2781.06932	3939.175
2783.6327	3943.875
2786.1945	3932.275
2788.75471	3940.675
2791.31335	3901.475
2793.87041	3917.475
2796.42589	3914.275
2798.97979	3898.875
2801.53212	3900.275
2804.08288	3897.275
2806.63206	3882.475
2809.17967	3880.875
2811.72571	3857.375
2814.27018	3862.775
2816.81308	3852.275
2819.35442	3846.575
2821.89419	3840.675
2824.43239	3832.675
2826.96904	3819.075
2829.50412	3824.275
2832.03763	3824.075
2834.56959	3817.075
2837.1	3801.975
2839.62884	3809.175
2842.15613	3797.375
2844.68186	3804.975
2847.20604	3785.975
2849.72867	3780.775
2852.24974	3774.575
2854.76927	3785.575
2857.28724	3764.075
2859.80367	3764.075
2862.31855	3760.075
2864.83189	3763.375
2867.34368	3766.675
2869.85393	3756.775
2872.36264	3744.475
2874.8698	3751.375
2877.37543	3750.775
2879.87952	3727.675
2882.38207	3747.475
2884.88308	3732.975
2887.38256	3734.275
2889.88051	3737.675
2892.37692	3717.675
2894.8718	3721.975
2897.36515	3703.175
2899.85698	3711.975
2902.34727	3728.975
2904.83604	3735.375
2907.32328	3746.175
2909.809	3738.475
2912.29319	3742.175
2914.77587	3751.975
2917.25702	3755.875
2919.73665	3746.775
2922.21476	3738.775
2924.69136	3730.675
2927.16644	3727.675
2929.64	3721.775
2932.11205	3699.275
2934.58258	3686.675
2937.05161	3699.475
2939.51912	3697.575
2941.98513	3680.175
2944.44962	3673.975
2946.91261	3660.875
2949.37409	3695.975
2951.83407	3675.775
2954.29254	3685.875
2956.74951	3681.275
2959.20498	3671.775
2961.65895	3658.975
2964.11142	3651.075
2966.56239	3646.175
2969.01186	3649.475
2971.45984	3642.375
2973.90632	3654.675
2976.35131	3630.475
2978.7948	3632.675
2981.23681	3616.875
2983.67732	3620.275
2986.11635	3608.475
2988.55388	3579.175
2990.98993	3590.775
2993.4245	3578.675
2995.85758	3572.775
2998.28917	3574.375
3000.71928	3557.175
3003.14791	3539.075
3005.57506	3542.075
3008.00073	3526.775
3010.42493	3528.075
3012.84764	3524.875
3015.26888	3501.475
3017.68865	3493.275
3020.10694	3493.175
3022.52376	3480.875
3024.9391	3472.975
3027.35298	3459.875
3029.76539	3453.575
3032.17632	3456.475
3034.5858	3445.175
3036.9938	3435.875
3039.40034	3428.475
3041.80542	3421.575
3044.20903	3417.575
3046.61118	3413.375
3049.01187	3393.075
3051.4111	3383.675
3053.80888	3377.975
3056.20519	3372.975
3058.60005	3371.275
3060.99345	3368.075
3063.3854	3357.975
3065.7759	3348.575
3068.16494	3343.075
3070.55254	3328.875
3072.93868	3321.675
3075.32338	3308.575
3077.70662	3293.975
3080.08842	3303.375
3082.46878	3285.875
3084.84769	3270.475
3087.22515	3258.575
3089.60118	3271.475
3091.97576	3269.175
3094.3489	3267.975
3096.72061	3270.275
3099.09087	3274.475
3101.4597	3281.275
3103.82709	3267.275
3106.19305	3252.575
3108.55757	3264.375
3110.92066	3239.075
3113.28232	3240.075
3115.64255	3236.575
3118.00134	3214.175
3120.35871	3216.375
3122.71466	3215.575
3125.06917	3208.975
3127.42226	3202.575
3129.77393	3186.575
3132.12417	3185.275
3134.47299	3183.875
3136.82039	3186.975
3139.16636	3193.875
3141.51092	3169.175
3143.85406	3166.675
3146.19579	3158.675
3148.53609	3169.975
3150.87499	3171.075
3153.21246	3179.275
3155.54853	3189.075
3157.88318	3173.475
3160.21642	3183.175
3162.54826	3162.375
3164.87868	3172.175
3167.2077	3153.875
3169.5353	3148.475
3171.86151	3151.275
3174.18631	3140.875
3176.5097	3157.375
3178.83169	3149.175
3181.15228	3142.475
3183.47147	3136.475
3185.78926	3122.875
3188.10565	3099.875
3190.42065	3115.675
3192.73424	3117.675
3195.04645	3103.375
3197.35725	3095.575
3199.66667	3098.575
3201.97469	3088.175
3204.28132	3082.075
3206.58656	3094.975
3208.8904	3084.375
3211.19287	3102.775
3213.49394	3092.975
3215.79363	3091.075
3218.09193	3093.475
3220.38884	3080.975
3222.68438	3077.075
3224.97853	3087.075
3227.2713	3074.275
3229.56269	3074.375
3231.8527	3068.875
