Data from AgNPs_UA_5uM_CRN_500uM_SU_RamanShift__67__11-40-33-152.txt Node

Date: Thu Aug 04 11:40:33 BST 2022
User: TCL
Spectrometer: QEP01345
Trigger mode: 4
Integration Time (sec): 1.000000E0
Scans to average: 10
Electric dark correction enabled: true
Nonlinearity correction enabled: false
Boxcar width: 0
XAxis mode: Raman Shifts
Number of Pixels in Spectrum: 1044
>>>>>Begin Spectral Data<<<<<
46.04893	-0.225
50.45542	-0.225
54.85868	-0.825
59.25871	-0.525
63.6555	-58.025
68.04907	-38.525
72.43941	-71.125
76.82654	-55.925
81.21044	-55.025
85.59113	-47.425
89.96862	-72.225
94.34289	-53.325
98.71396	-73.825
103.08183	-56.325
107.4465	-48.425
111.80798	-54.625
116.16626	-41.825
120.52136	-70.325
124.87327	-47.725
129.222	-60.525
133.56755	-45.025
137.90993	-55.225
142.24913	-43.825
146.58517	-34.625
150.91804	-26.825
155.24774	-16.625
159.57429	11.075
163.89768	22.275
168.21792	77.875
172.53501	116.875
176.84895	221.675
181.15975	385.975
185.46741	586.775
189.77193	829.675
194.07331	1182.875
198.37157	1568.675
202.6667	1960.875
206.9587	2385.575
211.24758	2824.975
215.53334	3317.575
219.81599	3870.875
224.09553	4514.975
228.37195	5168.175
232.64527	5823.775
236.91549	6362.175
241.18261	6701.075
245.44663	6845.975
249.70755	6938.375
253.96539	7024.375
258.22014	7138.775
262.4718	7246.475
266.72039	7270.075
270.96589	7182.875
275.20832	6967.675
279.44768	6702.375
283.68397	6520.175
287.91719	6470.175
292.14735	6561.675
296.37445	6904.075
300.59849	7554.275
304.81948	8417.075
309.03742	9419.975
313.25231	10119.375
317.46415	10039.275
321.67296	8983.375
325.87872	7807.375
330.08145	7161.175
334.28114	7010.075
338.47781	7198.775
342.67145	7581.875
346.86207	8221.875
351.04966	9190.875
355.23424	10158.975
359.4158	10583.375
363.59435	10313.675
367.76989	9751.375
371.94243	9248.375
376.11196	8802.275
380.27849	8488.575
384.44203	8270.275
388.60257	8154.875
392.76012	8198.775
396.91468	8429.775
401.06626	8707.475
405.21485	8717.375
409.36047	8326.075
413.50311	7605.775
417.64277	6950.975
421.77947	6510.375
425.9132	6316.075
430.04396	6229.175
434.17176	6210.075
438.2966	6315.275
442.41849	6466.675
446.53742	6614.975
450.6534	6749.475
454.76644	6795.275
458.87653	6755.875
462.98368	6686.375
467.08789	6586.375
471.18916	6423.075
475.2875	6205.175
479.38291	6026.375
483.4754	5927.975
487.56496	5880.775
491.6516	5833.875
495.73531	5819.975
499.81612	5875.675
503.89401	6018.375
507.96899	6133.375
512.04106	6341.575
516.11023	6498.375
520.1765	6655.975
524.23987	6710.175
528.30034	6687.175
532.35792	6552.675
536.41261	6468.275
540.46441	6283.975
544.51333	6193.175
548.55936	6198.575
552.60252	6319.675
556.64279	6491.575
560.6802	6799.575
564.71473	7430.275
568.7464	8222.175
572.7752	8119.575
576.80114	7091.275
580.82422	6252.575
584.84444	5912.875
588.86181	5793.475
592.87633	5797.675
596.888	5974.175
600.89682	6570.675
604.9028	8409.375
608.90594	13039.375
612.90624	18524.975
616.90371	16921.575
620.89834	10046.375
624.89015	7066.775
628.87913	6748.275
632.86528	7207.175
636.84862	7390.775
640.82913	6902.275
644.80683	6142.975
648.78172	5816.475
652.75379	5919.675
656.72306	6478.075
660.68952	6997.075
664.65319	6745.375
668.61405	6118.475
672.57211	5897.775
676.52738	5910.575
680.47986	5794.275
684.42955	5636.075
688.37646	5574.575
692.32058	5601.775
696.26192	5698.275
700.20048	5820.875
704.13626	5876.975
708.06928	5786.475
711.99952	5744.475
715.927	5759.975
719.85171	5922.975
723.77365	6002.575
727.69284	5886.975
731.60928	5776.175
735.52295	5726.175
739.43388	5809.675
743.34206	5837.775
747.24749	5844.575
751.15017	5852.375
755.05012	6070.575
758.94733	6961.975
762.8418	8942.775
766.73354	11553.975
770.62254	12932.375
774.50882	12460.975
778.39237	11535.775
782.27321	10106.775
786.15132	8140.075
790.02671	6789.475
793.89938	6107.375
797.76935	5885.875
801.6366	5773.475
805.50115	5700.475
809.36299	5663.775
813.22213	5657.875
817.07857	5659.875
820.93231	5674.275
824.78336	5750.175
828.63172	5850.175
832.47738	5856.475
836.32036	5837.075
840.16066	5683.075
843.99827	5575.275
847.8332	5562.675
851.66546	5577.475
855.49504	5566.575
859.32195	5563.575
863.1462	5519.175
866.96777	5532.575
870.78668	5536.275
874.60293	5546.175
878.41652	5593.175
882.22745	5717.975
886.03573	5788.375
889.84136	5761.675
893.64433	5743.975
897.44466	5740.775
901.24235	5746.375
905.0374	5687.275
908.8298	5554.375
912.61957	5485.275
916.40671	5406.975
920.19121	5460.875
923.97308	5599.475
927.75233	5858.175
931.52895	6125.175
935.30295	5996.075
939.07433	5587.175
942.84309	5335.075
946.60924	5240.975
950.37278	5198.475
954.13371	5183.875
957.89203	5174.875
961.64774	5191.275
965.40086	5170.675
969.15137	5132.075
972.89929	5161.475
976.64461	5140.575
980.38733	5155.575
984.12747	5130.975
987.86502	5162.975
991.59999	5170.775
995.33237	5258.075
999.06217	5325.075
1002.78939	5446.475
1006.51404	5689.675
1010.23611	5795.275
1013.95561	5716.075
1017.67255	5629.075
1021.38692	5506.175
1025.09872	5410.675
1028.80796	5345.175
1032.51465	5353.175
1036.21877	5380.975
1039.92035	5446.675
1043.61937	5474.775
1047.31584	5534.875
1051.00976	5566.975
1054.70114	5543.875
1058.38998	5518.375
1062.07627	5507.075
1065.76003	5526.175
1069.44126	5579.075
1073.11995	5705.775
1076.79611	5936.775
1080.46974	6264.975
1084.14085	6751.175
1087.80943	7143.075
1091.47549	7146.175
1095.13903	6801.575
1098.80005	6455.575
1102.45857	6299.275
1106.11456	6295.175
1109.76805	6274.775
1113.41903	6502.475
1117.06751	6895.675
1120.71348	7573.175
1124.35696	8545.575
1127.99793	9252.175
1131.63641	8704.875
1135.2724	7617.375
1138.90589	6868.475
1142.5369	6429.875
1146.16542	6181.575
1149.79145	5989.675
1153.415	5923.175
1157.03607	5940.475
1160.65467	6070.675
1164.27079	6370.875
1167.88443	6772.875
1171.49561	7491.775
1175.10432	8670.175
1178.71056	10328.375
1182.31434	11549.975
1185.91565	11470.575
1189.51451	10462.875
1193.11091	9409.975
1196.70485	8714.975
1200.29634	8378.575
1203.88538	8016.975
1207.47197	7288.475
1211.05612	6652.275
1214.63782	6204.075
1218.21708	5986.875
1221.79391	5883.075
1225.36829	5844.775
1228.94024	5855.475
1232.50976	5856.175
1236.07685	5869.475
1239.6415	5924.175
1243.20374	5997.975
1246.76355	6099.975
1250.32093	6277.475
1253.8759	6442.875
1257.42845	6804.775
1260.97859	7269.875
1264.52631	7748.075
1268.07163	7975.275
1271.61453	8055.375
1275.15503	7907.475
1278.69312	7738.575
1282.22882	7857.975
1285.76211	8424.675
1289.29301	9199.175
1292.82151	9767.775
1296.34761	9985.475
1299.87133	10536.675
1303.39266	11939.075
1306.9116	14562.375
1310.42815	17731.975
1313.94233	18842.475
1317.45412	16451.475
1320.96354	13055.175
1324.47058	10462.975
1327.97525	8840.775
1331.47754	7988.375
1334.97747	7717.475
1338.47502	7836.575
1341.97022	8507.175
1345.46305	10002.575
1348.95352	12081.675
1352.44163	14198.875
1355.92738	16667.475
1359.41078	20899.775
1362.89183	25482.475
1366.37053	24476.675
1369.84688	17866.075
1373.32088	12313.175
1376.79254	9881.075
1380.26186	8778.975
1383.72883	7943.475
1387.19347	7175.275
1390.65578	6565.375
1394.11575	6207.975
1397.57339	6004.175
1401.0287	5899.875
1404.48168	5820.775
1407.93234	5793.375
1411.38068	5887.975
1414.82669	6159.075
1418.27039	6452.175
1421.71177	6503.475
1425.15083	6369.575
1428.58758	6360.775
1432.02203	6597.475
1435.45416	6813.975
1438.88399	6621.175
1442.31151	6391.475
1445.73673	6345.475
1449.15965	6331.375
1452.58027	6267.275
1455.9986	6148.475
1459.41463	6078.175
1462.82837	6076.275
1466.23982	6242.175
1469.64898	6482.475
1473.05586	6597.875
1476.46045	6598.675
1479.86276	6654.175
1483.26279	6872.075
1486.66054	7301.175
1490.05602	7968.175
1493.44922	9089.175
1496.84016	10791.875
1500.22882	13426.775
1503.61521	17022.775
1506.99934	21580.775
1510.38121	25899.675
1513.76081	27369.275
1517.13816	24393.775
1520.51324	18812.175
1523.88607	13922.175
1527.25665	10798.475
1530.62498	9074.075
1533.99105	8060.875
1537.35488	7411.975
1540.71647	7017.275
1544.07581	6876.875
1547.4329	6854.575
1550.78776	6955.675
1554.14038	7149.475
1557.49077	7505.275
1560.83892	8097.775
1564.18484	9053.575
1567.52853	10041.575
1570.86999	10697.675
1574.20922	10803.775
1577.54624	10405.475
1580.88103	9233.775
1584.2136	7717.375
1587.54395	6858.975
1590.87208	6644.075
1594.19801	6878.275
1597.52172	7385.475
1600.84321	7426.075
1604.16251	6912.675
1607.47959	6424.275
1610.79447	6094.675
1614.10715	5823.975
1617.41763	5597.475
1620.7259	5485.475
1624.03199	5475.075
1627.33587	5590.675
1630.63757	5799.875
1633.93707	6239.875
1637.23439	7078.275
1640.52951	8563.075
1643.82246	11062.975
1647.11321	14422.175
1650.40179	16997.675
1653.68819	16694.575
1656.97241	13582.775
1660.25446	10026.175
1663.53433	7567.175
1666.81203	6217.875
1670.08756	5537.375
1673.36092	5180.075
1676.63211	4929.175
1679.90115	4793.175
1683.16801	4669.775
1686.43272	4575.075
1689.69527	4523.275
1692.95567	4453.075
1696.2139	4427.975
1699.46999	4366.675
1702.72392	4371.375
1705.97571	4371.375
1709.22535	4355.975
1712.47284	4410.875
1715.71819	4439.875
1718.96139	4424.075
1722.20246	4426.775
1725.44139	4368.375
1728.67818	4327.375
1731.91284	4280.775
1735.14537	4233.675
1738.37576	4200.275
1741.60403	4196.875
1744.83017	4150.375
1748.05418	4136.375
1751.27607	4133.075
1754.49584	4087.275
1757.71349	4043.675
1760.92903	4029.875
1764.14244	3969.675
1767.35375	3967.575
1770.56294	3936.875
1773.77002	3904.875
1776.97499	3899.875
1780.17785	3882.375
1783.37861	3862.175
1786.57727	3866.075
1789.77382	3789.475
1792.96828	3826.375
1796.16064	3853.275
1799.3509	3826.775
1802.53907	3832.375
1805.72514	3797.375
1808.90913	3767.575
1812.09102	3770.975
1815.27083	3777.175
1818.44856	3747.775
1821.6242	3747.775
1824.79776	3715.875
1827.96924	3692.275
1831.13864	3688.175
1834.30597	3696.775
1837.47122	3659.175
1840.6344	3639.975
1843.7955	3618.275
1846.95454	3600.075
1850.11151	3630.075
1853.26642	3577.175
1856.41926	3581.675
1859.57004	3601.975
1862.71876	3586.375
1865.86542	3613.775
1869.01003	3596.075
1872.15258	3582.375
1875.29308	3602.975
1878.43152	3596.875
1881.56792	3580.475
1884.70227	3558.475
1887.83457	3561.175
1890.96482	3543.575
1894.09304	3527.775
1897.21921	3536.075
1900.34335	3523.275
1903.46544	3504.375
1906.58551	3524.275
1909.70353	3509.975
1912.81953	3509.975
1915.93349	3480.975
1919.04543	3488.275
1922.15534	3473.875
1925.26322	3455.275
1928.36908	3434.475
1931.47292	3425.575
1934.57473	3415.075
1937.67453	3376.875
1940.77232	3354.075
1943.86808	3336.975
1946.96184	3348.075
1950.05358	3312.175
1953.14331	3300.175
1956.23103	3315.575
1959.31675	3287.575
1962.40046	3247.775
1965.48217	3288.675
1968.56188	3285.575
1971.63959	3276.675
1974.7153	3268.775
1977.78901	3271.475
1980.86073	3242.175
1983.93046	3189.975
1986.99819	3129.775
1990.06394	3146.375
1993.1277	3170.275
1996.18947	3142.175
1999.24925	3111.075
2002.30706	3107.275
2005.36288	3095.975
2008.41672	3087.475
2011.46859	3050.175
2014.51848	3060.075
2017.56639	3033.975
2020.61233	3018.575
2023.6563	3025.475
2026.6983	2983.975
2029.73833	2990.975
2032.7764	2999.175
2035.8125	2943.175
2038.84664	2958.975
2041.87881	2949.775
2044.90903	2969.075
2047.93729	2953.175
2050.96359	2920.075
2053.98794	2932.575
2057.01034	2937.275
2060.03078	2898.575
2063.04927	2885.775
2066.06582	2897.375
2069.08042	2872.875
2072.09307	2881.075
2075.10378	2875.675
2078.11255	2867.775
2081.11938	2872.475
2084.12426	2860.075
2087.12722	2855.375
2090.12824	2865.675
2093.12732	2863.275
2096.12447	2877.875
2099.11969	2859.275
2102.11299	2850.175
2105.10435	2876.775
2108.09379	2856.675
2111.08131	2862.975
2114.0669	2863.075
2117.05057	2859.975
2120.03233	2860.075
2123.01216	2894.375
2125.99008	2892.575
2128.96609	2906.875
2131.94018	2912.475
2134.91236	2899.675
2137.88263	2882.075
2140.851	2875.975
2143.81746	2890.375
2146.78201	2873.575
2149.74466	2849.275
2152.7054	2846.575
2155.66425	2821.975
2158.6212	2820.575
2161.57625	2801.975
2164.52941	2786.375
2167.48067	2794.975
2170.43004	2796.775
2173.37752	2819.175
2176.32311	2810.775
2179.26681	2810.275
2182.20863	2819.375
2185.14856	2819.375
2188.08661	2818.575
2191.02278	2827.875
2193.95707	2790.075
2196.88948	2788.575
2199.82001	2778.075
2202.74867	2766.075
2205.67545	2772.175
2208.60037	2779.375
2211.52341	2778.875
2214.44458	2749.375
2217.36388	2748.275
2220.28132	2743.875
2223.1969	2718.075
2226.11061	2712.175
2229.02246	2701.275
2231.93245	2711.475
2234.84058	2688.775
2237.74686	2685.275
2240.65128	2686.475
2243.55385	2684.675
2246.45456	2673.775
2249.35343	2698.175
2252.25044	2697.675
2255.14561	2696.875
2258.03893	2702.075
2260.93041	2713.275
2263.82004	2718.275
2266.70783	2723.475
2269.59378	2699.575
2272.4779	2675.575
2275.36017	2695.675
2278.24061	2674.575
2281.11922	2644.575
2283.996	2651.775
2286.87094	2630.275
2289.74405	2630.175
2292.61534	2619.375
2295.4848	2606.575
2298.35243	2597.275
2301.21824	2585.875
2304.08223	2587.875
2306.94439	2592.575
2309.80474	2593.975
2312.66327	2586.475
2315.51999	2575.175
2318.37489	2564.175
2321.22797	2545.875
2324.07925	2547.575
2326.92871	2542.675
2329.77637	2528.175
2332.62222	2526.575
2335.46626	2510.975
2338.3085	2508.175
2341.14893	2537.075
2343.98756	2545.175
2346.8244	2523.675
2349.65943	2499.775
2352.49267	2530.075
2355.32411	2531.775
2358.15376	2527.075
2360.98161	2545.575
2363.80768	2533.375
2366.63195	2554.275
2369.45444	2564.075
2372.27514	2566.175
2375.09405	2586.575
2377.91118	2532.975
2380.72652	2534.575
2383.54009	2522.675
2386.35187	2527.975
2389.16188	2495.975
2391.97011	2488.475
2394.77657	2472.975
2397.58125	2471.875
2400.38416	2448.675
2403.18529	2433.375
2405.98466	2420.575
2408.78226	2434.975
2411.57809	2435.375
2414.37216	2415.875
2417.16446	2414.175
2419.955	2387.175
2422.74378	2422.175
2425.5308	2400.875
2428.31606	2410.975
2431.09956	2413.175
2433.88131	2405.075
2436.6613	2407.575
2439.43954	2406.175
2442.21603	2400.575
2444.99077	2397.175
2447.76377	2419.475
2450.53501	2414.675
2453.30451	2411.975
2456.07226	2408.875
2458.83827	2407.975
2461.60254	2371.875
2464.36507	2389.875
2467.12586	2373.575
2469.88492	2394.075
2472.64224	2390.375
2475.39782	2370.575
2478.15167	2391.375
2480.90379	2397.775
2483.65417	2419.475
2486.40283	2418.975
2489.14976	2438.675
2491.89497	2424.375
2494.63845	2413.175
2497.3802	2409.475
2500.12024	2395.075
2502.85855	2399.275
2505.59514	2387.175
2508.33002	2361.475
2511.06318	2334.675
2513.79462	2326.075
2516.52435	2281.575
2519.25237	2257.375
2521.97867	2259.675
2524.70327	2253.575
2527.42616	2239.575
2530.14734	2254.075
2532.86681	2217.175
2535.58458	2234.775
2538.30065	2224.175
2541.01501	2243.875
2543.72768	2233.175
2546.43864	2234.875
2549.14791	2226.275
2551.85548	2209.475
2554.56136	2226.575
2557.26554	2239.475
2559.96803	2233.875
2562.66883	2233.975
2565.36794	2218.975
2568.06536	2203.175
2570.7611	2218.475
2573.45514	2203.875
2576.14751	2200.675
2578.83819	2188.075
2581.52719	2180.375
2584.21451	2180.475
2586.90015	2154.275
2589.58411	2145.775
2592.2664	2156.375
2594.94701	2152.575
2597.62594	2158.675
2600.30321	2089.175
2602.9788	2131.375
2605.65273	2115.475
2608.32498	2120.675
2610.99557	2143.575
2613.66449	2113.375
2616.33175	2124.175
2618.99734	2134.475
2621.66128	2114.275
2624.32355	2103.975
2626.98416	2088.575
2629.64311	2074.775
2632.30041	2079.975
2634.95605	2052.975
2637.61004	2044.675
2640.26238	2023.375
2642.91306	2029.375
2645.56209	2045.475
2648.20948	2046.475
2650.85521	2024.175
2653.4993	2045.275
2656.14175	2031.775
2658.78255	2023.375
2661.42171	2007.975
2664.05923	2045.175
2666.6951	2053.275
2669.32934	2058.575
2671.96194	2065.075
2674.59291	2053.875
2677.22224	2060.675
2679.84993	2068.075
2682.476	2047.475
2685.10043	2047.475
2687.72324	2026.175
2690.34441	2026.175
2692.96396	2018.975
2695.58188	2048.875
2698.19818	2028.475
2700.81285	2016.575
2703.4259	2009.575
2706.03733	1982.575
2708.64714	1976.975
2711.25533	2012.675
2713.86191	2013.475
2716.46687	2018.075
2719.07021	2021.075
2721.67194	2009.575
2724.27206	2017.175
2726.87057	2008.375
2729.46747	1999.275
2732.06276	2003.875
2734.65644	1978.275
2737.24852	1976.675
2739.83899	1954.375
2742.42786	1975.475
2745.01513	1973.975
2747.60079	1958.575
2750.18486	1930.675
2752.76733	1939.375
2755.3482	1931.575
2757.92747	1929.075
2760.50515	1907.975
2763.08123	1902.675
2765.65573	1891.675
2768.22863	1893.875
2770.79994	1882.975
2773.36967	1886.475
2775.9378	1885.175
2778.50435	1882.675
2781.06932	1873.675
2783.6327	1869.975
2786.1945	1893.975
2788.75471	1869.675
2791.31335	1871.475
2793.87041	1877.575
2796.42589	1854.275
2798.97979	1858.775
2801.53212	1871.575
2804.08288	1881.175
2806.63206	1869.675
2809.17967	1855.475
2811.72571	1881.875
2814.27018	1877.875
2816.81308	1877.475
2819.35442	1865.275
2821.89419	1873.975
2824.43239	1874.475
2826.96904	1910.875
2829.50412	1877.875
2832.03763	1879.975
2834.56959	1881.975
2837.1	1872.975
2839.62884	1859.375
2842.15613	1853.575
2844.68186	1863.675
2847.20604	1834.075
2849.72867	1839.675
2852.24974	1859.375
2854.76927	1818.775
2857.28724	1789.775
2859.80367	1861.475
2862.31855	1871.175
2864.83189	1864.075
2867.34368	1875.775
2869.85393	1896.275
2872.36264	1874.375
2874.8698	1879.675
2877.37543	1884.875
2879.87952	1872.475
2882.38207	1836.775
2884.88308	1841.575
2887.38256	1841.975
2889.88051	1816.575
2892.37692	1815.275
2894.8718	1798.775
2897.36515	1825.775
2899.85698	1810.175
2902.34727	1810.475
2904.83604	1821.775
2907.32328	1835.375
2909.809	1848.275
2912.29319	1847.575
2914.77587	1863.975
2917.25702	1877.775
2919.73665	1872.075
2922.21476	1859.475
2924.69136	1845.475
2927.16644	1824.275
2929.64	1811.275
2932.11205	1787.175
2934.58258	1802.675
2937.05161	1783.675
2939.51912	1773.275
2941.98513	1790.775
2944.44962	1789.375
2946.91261	1752.175
2949.37409	1768.775
2951.83407	1760.675
2954.29254	1761.175
2956.74951	1770.675
2959.20498	1754.175
2961.65895	1771.375
2964.11142	1758.075
2966.56239	1752.875
2969.01186	1750.875
2971.45984	1746.975
2973.90632	1733.975
2976.35131	1760.475
2978.7948	1755.575
2981.23681	1741.075
2983.67732	1753.175
2986.11635	1740.075
2988.55388	1723.975
2990.98993	1741.675
2993.4245	1736.375
2995.85758	1716.775
2998.28917	1727.775
3000.71928	1718.375
3003.14791	1717.375
3005.57506	1711.875
3008.00073	1692.175
3010.42493	1636.375
3012.84764	1688.375
3015.26888	1688.875
3017.68865	1687.075
3020.10694	1644.375
3022.52376	1653.775
3024.9391	1660.475
3027.35298	1641.775
3029.76539	1622.975
3032.17632	1628.875
3034.5858	1611.575
3036.9938	1613.475
3039.40034	1600.275
3041.80542	1583.975
3044.20903	1565.375
3046.61118	1565.175
3049.01187	1577.075
3051.4111	1553.975
3053.80888	1553.075
3056.20519	1546.775
3058.60005	1528.975
3060.99345	1560.375
3063.3854	1532.375
3065.7759	1520.875
3068.16494	1516.275
3070.55254	1509.775
3072.93868	1528.875
3075.32338	1520.175
3077.70662	1508.475
3080.08842	1507.475
3082.46878	1478.075
3084.84769	1511.075
3087.22515	1483.575
3089.60118	1494.775
3091.97576	1477.175
3094.3489	1488.775
3096.72061	1480.175
3099.09087	1464.275
3101.4597	1476.775
3103.82709	1475.675
3106.19305	1453.175
3108.55757	1468.075
3110.92066	1459.775
3113.28232	1479.175
3115.64255	1474.675
3118.00134	1474.875
3120.35871	1451.475
3122.71466	1439.475
3125.06917	1449.775
3127.42226	1439.375
3129.77393	1420.075
3132.12417	1444.175
3134.47299	1449.475
3136.82039	1435.975
3139.16636	1411.175
3141.51092	1443.875
3143.85406	1440.875
3146.19579	1417.375
3148.53609	1417.675
3150.87499	1434.375
3153.21246	1422.075
3155.54853	1437.375
3157.88318	1429.975
3160.21642	1437.375
3162.54826	1425.075
3164.87868	1431.575
3167.2077	1396.275
3169.5353	1406.775
3171.86151	1423.975
3174.18631	1399.575
3176.5097	1396.475
3178.83169	1389.675
3181.15228	1401.575
3183.47147	1370.175
3185.78926	1345.275
3188.10565	1359.975
3190.42065	1351.275
3192.73424	1357.275
3195.04645	1351.775
3197.35725	1341.075
3199.66667	1350.175
3201.97469	1353.175
3204.28132	1344.275
3206.58656	1359.175
3208.8904	1355.875
3211.19287	1353.175
3213.49394	1351.475
3215.79363	1354.275
3218.09193	1360.275
3220.38884	1355.775
3222.68438	1352.875
3224.97853	1327.475
3227.2713	1351.075
3229.56269	1344.575
3231.8527	1343.675
