Data from AgNPs_UA_5uM_CRN_500uM_SU_RamanShift__246__12-10-23-184.txt Node

Date: Thu Aug 04 12:10:23 BST 2022
User: TCL
Spectrometer: QEP01345
Trigger mode: 4
Integration Time (sec): 1.000000E0
Scans to average: 10
Electric dark correction enabled: true
Nonlinearity correction enabled: false
Boxcar width: 0
XAxis mode: Raman Shifts
Number of Pixels in Spectrum: 1044
>>>>>Begin Spectral Data<<<<<
46.04893	-0.8625
50.45542	1.8375
54.85868	-1.1625
59.25871	-0.8625
63.6555	-58.3625
68.04907	-41.4625
72.43941	-71.3625
76.82654	-56.6625
81.21044	-55.6625
85.59113	-48.6625
89.96862	-75.4625
94.34289	-56.6625
98.71396	-77.9625
103.08183	-58.0625
107.4465	-50.6625
111.80798	-56.3625
116.16626	-42.7625
120.52136	-75.4625
124.87327	-51.5625
129.222	-65.0625
133.56755	-52.2625
137.90993	-61.5625
142.24913	-49.5625
146.58517	-45.9625
150.91804	-42.3625
155.24774	-29.9625
159.57429	-9.2625
163.89768	-3.4625
168.21792	34.8375
172.53501	57.7375
176.84895	140.8375
181.15975	269.3375
185.46741	418.3375
189.77193	601.9375
194.07331	887.9375
198.37157	1169.0375
202.6667	1457.1375
206.9587	1775.8375
211.24758	2082.7375
215.53334	2405.2375
219.81599	2780.9375
224.09553	3187.4375
228.37195	3601.0375
232.64527	4054.6375
236.91549	4522.4375
241.18261	4881.2375
245.44663	5162.4375
249.70755	5316.9375
253.96539	5445.8375
258.22014	5548.3375
262.4718	5617.2375
266.72039	5669.5375
270.96589	5652.3375
275.20832	5554.3375
279.44768	5438.9375
283.68397	5327.5375
287.91719	5277.8375
292.14735	5331.6375
296.37445	5493.1375
300.59849	5778.7375
304.81948	6119.1375
309.03742	6492.3375
313.25231	6734.5375
317.46415	6704.6375
321.67296	6312.9375
325.87872	5898.0375
330.08145	5706.7375
334.28114	5660.9375
338.47781	5705.7375
342.67145	5840.2375
346.86207	6087.9375
351.04966	6436.2375
355.23424	6827.0375
359.4158	7106.2375
363.59435	7141.1375
367.76989	7059.6375
371.94243	6929.7375
376.11196	6813.8375
380.27849	6742.0375
384.44203	6676.6375
388.60257	6639.3375
392.76012	6629.3375
396.91468	6759.4375
401.06626	6913.0375
405.21485	6954.0375
409.36047	6790.5375
413.50311	6460.5375
417.64277	6158.2375
421.77947	5957.1375
425.9132	5888.3375
430.04396	5858.1375
434.17176	5904.9375
438.2966	5992.8375
442.41849	6071.7375
446.53742	6185.5375
450.6534	6302.9375
454.76644	6367.8375
458.87653	6384.8375
462.98368	6333.5375
467.08789	6265.4375
471.18916	6180.1375
475.2875	6049.9375
479.38291	5922.6375
483.4754	5854.5375
487.56496	5817.7375
491.6516	5773.0375
495.73531	5783.0375
499.81612	5822.7375
503.89401	5894.3375
507.96899	5958.0375
512.04106	6027.2375
516.11023	6146.8375
520.1765	6215.7375
524.23987	6255.6375
528.30034	6240.3375
532.35792	6156.6375
536.41261	6098.7375
540.46441	6024.3375
544.51333	5987.7375
548.55936	6001.6375
552.60252	6133.9375
556.64279	6229.7375
560.6802	6363.6375
564.71473	6492.4375
568.7464	6709.8375
572.7752	6662.6375
576.80114	6379.5375
580.82422	6137.6375
584.84444	6023.8375
588.86181	6003.6375
592.87633	6030.2375
596.888	6162.6375
600.89682	6526.8375
604.9028	7514.6375
608.90594	9615.4375
612.90624	12010.5375
616.90371	11147.3375
620.89834	8005.7375
624.89015	6639.2375
628.87913	6428.9375
632.86528	6586.4375
636.84862	6766.8375
640.82913	6628.0375
644.80683	6257.3375
648.78172	6082.1375
652.75379	6109.5375
656.72306	6355.7375
660.68952	6580.0375
664.65319	6490.9375
668.61405	6250.3375
672.57211	6198.4375
676.52738	6177.9375
680.47986	6102.4375
684.42955	5998.2375
688.37646	5942.3375
692.32058	5949.0375
696.26192	6022.4375
700.20048	6117.9375
704.13626	6149.4375
708.06928	6111.2375
711.99952	6089.3375
715.927	6035.3375
719.85171	6109.8375
723.77365	6159.3375
727.69284	6125.7375
731.60928	6115.2375
735.52295	6072.8375
739.43388	6117.5375
743.34206	6123.0375
747.24749	6148.4375
751.15017	6176.9375
755.05012	6259.6375
758.94733	6635.1375
762.8418	7509.3375
766.73354	8848.3375
770.62254	9915.5375
774.50882	10007.4375
778.39237	9451.0375
782.27321	8476.5375
786.15132	7427.9375
790.02671	6731.4375
793.89938	6341.5375
797.76935	6222.7375
801.6366	6122.0375
805.50115	6077.9375
809.36299	6057.3375
813.22213	6043.3375
817.07857	6056.1375
820.93231	6044.6375
824.78336	6071.5375
828.63172	6083.1375
832.47738	6085.3375
836.32036	6095.9375
840.16066	6070.0375
843.99827	6038.4375
847.8332	6033.2375
851.66546	6069.9375
855.49504	6054.3375
859.32195	6074.6375
863.1462	6067.2375
866.96777	6072.9375
870.78668	6052.6375
874.60293	6086.3375
878.41652	6101.6375
882.22745	6185.0375
886.03573	6205.7375
889.84136	6200.1375
893.64433	6199.4375
897.44466	6184.8375
901.24235	6183.3375
905.0374	6183.5375
908.8298	6129.6375
912.61957	6096.0375
916.40671	6051.0375
920.19121	6095.7375
923.97308	6207.7375
927.75233	6246.9375
931.52895	6311.0375
935.30295	6267.8375
939.07433	6137.0375
942.84309	5994.8375
946.60924	5959.4375
950.37278	5941.7375
954.13371	5932.0375
957.89203	5912.1375
961.64774	5947.1375
965.40086	5926.5375
969.15137	5899.1375
972.89929	5934.1375
976.64461	5928.3375
980.38733	5945.4375
984.12747	5946.5375
987.86502	5961.7375
991.59999	5967.7375
995.33237	6050.3375
999.06217	6113.2375
1002.78939	6188.0375
1006.51404	6315.9375
1010.23611	6454.7375
1013.95561	6477.7375
1017.67255	6489.1375
1021.38692	6465.3375
1025.09872	6401.3375
1028.80796	6307.7375
1032.51465	6343.4375
1036.21877	6323.8375
1039.92035	6359.3375
1043.61937	6390.3375
1047.31584	6452.8375
1051.00976	6500.2375
1054.70114	6477.7375
1058.38998	6469.7375
1062.07627	6488.7375
1065.76003	6522.6375
1069.44126	6582.1375
1073.11995	6669.2375
1076.79611	6800.0375
1080.46974	6957.9375
1084.14085	7148.4375
1087.80943	7268.3375
1091.47549	7289.1375
1095.13903	7194.4375
1098.80005	7087.8375
1102.45857	6979.2375
1106.11456	6948.4375
1109.76805	6884.1375
1113.41903	7015.0375
1117.06751	7201.9375
1120.71348	7458.2375
1124.35696	7855.4375
1127.99793	8124.0375
1131.63641	7958.0375
1135.2724	7563.1375
1138.90589	7251.9375
1142.5369	7045.6375
1146.16542	6933.7375
1149.79145	6830.6375
1153.415	6786.6375
1157.03607	6804.9375
1160.65467	6896.1375
1164.27079	7116.1375
1167.88443	7370.8375
1171.49561	7800.0375
1175.10432	8430.2375
1178.71056	9362.9375
1182.31434	10190.6375
1185.91565	10427.3375
1189.51451	10300.3375
1193.11091	10034.8375
1196.70485	9768.7375
1200.29634	9515.3375
1203.88538	9205.8375
1207.47197	8742.6375
1211.05612	8257.8375
1214.63782	7859.0375
1218.21708	7580.3375
1221.79391	7426.4375
1225.36829	7361.5375
1228.94024	7377.5375
1232.50976	7386.2375
1236.07685	7436.5375
1239.6415	7422.6375
1243.20374	7443.0375
1246.76355	7494.9375
1250.32093	7549.8375
1253.8759	7638.8375
1257.42845	7811.3375
1260.97859	8007.5375
1264.52631	8244.6375
1268.07163	8400.0375
1271.61453	8546.7375
1275.15503	8578.5375
1278.69312	8594.4375
1282.22882	8675.0375
1285.76211	8892.8375
1289.29301	9116.9375
1292.82151	9392.4375
1296.34761	9636.6375
1299.87133	10032.7375
1303.39266	10721.5375
1306.9116	11883.1375
1310.42815	13183.2375
1313.94233	13617.7375
1317.45412	12845.0375
1320.96354	11665.5375
1324.47058	10624.1375
1327.97525	9875.1375
1331.47754	9435.0375
1334.97747	9342.1375
1338.47502	9427.5375
1341.97022	9813.5375
1345.46305	10557.9375
1348.95352	11684.6375
1352.44163	13019.8375
1355.92738	14429.8375
1359.41078	16136.8375
1362.89183	17714.4375
1366.37053	17072.1375
1369.84688	14171.3375
1373.32088	11398.8375
1376.79254	9933.0375
1380.26186	9213.4375
1383.72883	8792.9375
1387.19347	8376.9375
1390.65578	8004.5375
1394.11575	7769.7375
1397.57339	7589.1375
1401.0287	7497.0375
1404.48168	7444.7375
1407.93234	7445.4375
1411.38068	7481.4375
1414.82669	7547.5375
1418.27039	7643.4375
1421.71177	7607.4375
1425.15083	7522.0375
1428.58758	7445.6375
1432.02203	7472.8375
1435.45416	7554.5375
1438.88399	7551.3375
1442.31151	7562.9375
1445.73673	7607.3375
1449.15965	7646.8375
1452.58027	7670.9375
1455.9986	7664.0375
1459.41463	7687.8375
1462.82837	7790.6375
1466.23982	7962.3375
1469.64898	8185.9375
1473.05586	8339.6375
1476.46045	8431.8375
1479.86276	8515.9375
1483.26279	8625.2375
1486.66054	8829.2375
1490.05602	9141.3375
1493.44922	9696.2375
1496.84016	10582.2375
1500.22882	12001.5375
1503.61521	13796.3375
1506.99934	15633.9375
1510.38121	16870.6375
1513.76081	16698.2375
1517.13816	15112.4375
1520.51324	12904.5375
1523.88607	11154.5375
1527.25665	10160.7375
1530.62498	9620.2375
1533.99105	9413.2375
1537.35488	9286.5375
1540.71647	9162.1375
1544.07581	9060.5375
1547.4329	8909.3375
1550.78776	8764.9375
1554.14038	8688.6375
1557.49077	8653.5375
1560.83892	8751.5375
1564.18484	8994.5375
1567.52853	9347.1375
1570.86999	9690.1375
1574.20922	9847.4375
1577.54624	9725.8375
1580.88103	9174.8375
1584.2136	8469.7375
1587.54395	8084.6375
1590.87208	8006.8375
1594.19801	8163.3375
1597.52172	8524.4375
1600.84321	8673.0375
1604.16251	8535.3375
1607.47959	8333.1375
1610.79447	8146.1375
1614.10715	7855.0375
1617.41763	7556.6375
1620.7259	7288.7375
1624.03199	7113.1375
1627.33587	7059.2375
1630.63757	7108.4375
1633.93707	7342.9375
1637.23439	7754.1375
1640.52951	8453.0375
1643.82246	9465.3375
1647.11321	10654.1375
1650.40179	11404.3375
1653.68819	11080.3375
1656.97241	9790.9375
1660.25446	8372.6375
1663.53433	7339.8375
1666.81203	6739.1375
1670.08756	6376.9375
1673.36092	6194.1375
1676.63211	6058.8375
1679.90115	5949.6375
1683.16801	5863.7375
1686.43272	5774.1375
1689.69527	5728.0375
1692.95567	5679.9375
1696.2139	5642.1375
1699.46999	5604.4375
1702.72392	5618.3375
1705.97571	5616.1375
1709.22535	5616.2375
1712.47284	5635.8375
1715.71819	5634.4375
1718.96139	5651.6375
1722.20246	5622.1375
1725.44139	5604.1375
1728.67818	5564.4375
1731.91284	5505.8375
1735.14537	5485.8375
1738.37576	5448.5375
1741.60403	5421.1375
1744.83017	5399.3375
1748.05418	5404.2375
1751.27607	5402.6375
1754.49584	5379.3375
1757.71349	5333.0375
1760.92903	5350.4375
1764.14244	5289.2375
1767.35375	5292.5375
1770.56294	5277.4375
1773.77002	5238.8375
1776.97499	5271.7375
1780.17785	5243.7375
1783.37861	5249.8375
1786.57727	5251.9375
1789.77382	5184.4375
1792.96828	5220.6375
1796.16064	5231.1375
1799.3509	5212.8375
1802.53907	5227.3375
1805.72514	5175.9375
1808.90913	5141.7375
1812.09102	5166.3375
1815.27083	5164.1375
1818.44856	5126.5375
1821.6242	5129.4375
1824.79776	5106.0375
1827.96924	5105.4375
1831.13864	5074.8375
1834.30597	5083.0375
1837.47122	5054.7375
1840.6344	5045.3375
1843.7955	5027.4375
1846.95454	5025.7375
1850.11151	5031.3375
1853.26642	5000.7375
1856.41926	5022.3375
1859.57004	5005.7375
1862.71876	5009.2375
1865.86542	5001.8375
1869.01003	4994.1375
1872.15258	4968.3375
1875.29308	4999.3375
1878.43152	4978.7375
1881.56792	4970.6375
1884.70227	4947.3375
1887.83457	4958.7375
1890.96482	4936.3375
1894.09304	4919.3375
1897.21921	4929.4375
1900.34335	4932.5375
1903.46544	4896.0375
1906.58551	4912.5375
1909.70353	4915.8375
1912.81953	4891.6375
1915.93349	4902.4375
1919.04543	4876.0375
1922.15534	4870.4375
1925.26322	4858.1375
1928.36908	4840.3375
1931.47292	4854.4375
1934.57473	4854.9375
1937.67453	4809.2375
1940.77232	4785.6375
1943.86808	4790.2375
1946.96184	4777.3375
1950.05358	4758.5375
1953.14331	4740.1375
1956.23103	4752.8375
1959.31675	4713.5375
1962.40046	4662.3375
1965.48217	4685.0375
1968.56188	4686.9375
1971.63959	4653.1375
1974.7153	4659.0375
1977.78901	4653.7375
1980.86073	4633.2375
1983.93046	4587.6375
1986.99819	4519.7375
1990.06394	4525.7375
1993.1277	4544.2375
1996.18947	4528.2375
1999.24925	4495.7375
2002.30706	4489.6375
2005.36288	4484.4375
2008.41672	4454.2375
2011.46859	4433.6375
2014.51848	4436.0375
2017.56639	4413.4375
2020.61233	4389.1375
2023.6563	4407.0375
2026.6983	4352.0375
2029.73833	4360.5375
2032.7764	4364.3375
2035.8125	4316.2375
2038.84664	4319.0375
2041.87881	4316.5375
2044.90903	4334.6375
2047.93729	4301.6375
2050.96359	4286.1375
2053.98794	4299.0375
2057.01034	4286.2375
2060.03078	4261.4375
2063.04927	4241.9375
2066.06582	4270.7375
2069.08042	4252.7375
2072.09307	4258.4375
2075.10378	4245.8375
2078.11255	4232.6375
2081.11938	4235.4375
2084.12426	4231.9375
2087.12722	4236.7375
2090.12824	4231.0375
2093.12732	4226.9375
2096.12447	4241.7375
2099.11969	4224.1375
2102.11299	4228.5375
2105.10435	4241.9375
2108.09379	4227.8375
2111.08131	4222.7375
2114.0669	4206.3375
2117.05057	4217.3375
2120.03233	4206.5375
2123.01216	4234.5375
2125.99008	4233.6375
2128.96609	4240.1375
2131.94018	4250.3375
2134.91236	4223.6375
2137.88263	4234.4375
2140.851	4241.5375
2143.81746	4258.6375
2146.78201	4238.0375
2149.74466	4227.1375
2152.7054	4252.2375
2155.66425	4221.4375
2158.6212	4227.6375
2161.57625	4196.3375
2164.52941	4159.3375
2167.48067	4204.4375
2170.43004	4179.9375
2173.37752	4207.8375
2176.32311	4193.9375
2179.26681	4191.6375
2182.20863	4201.9375
2185.14856	4191.2375
2188.08661	4193.0375
2191.02278	4199.5375
2193.95707	4174.8375
2196.88948	4155.5375
2199.82001	4168.0375
2202.74867	4164.5375
2205.67545	4167.0375
2208.60037	4175.5375
2211.52341	4143.2375
2214.44458	4134.5375
2217.36388	4136.5375
2220.28132	4115.7375
2223.1969	4083.7375
2226.11061	4101.2375
2229.02246	4087.2375
2231.93245	4077.0375
2234.84058	4061.8375
2237.74686	4048.2375
2240.65128	4039.4375
2243.55385	4054.2375
2246.45456	4029.0375
2249.35343	4036.9375
2252.25044	4021.4375
2255.14561	4023.7375
2258.03893	4020.6375
2260.93041	4023.0375
2263.82004	4021.6375
2266.70783	4005.6375
2269.59378	3976.2375
2272.4779	3957.2375
2275.36017	3974.9375
2278.24061	3963.2375
2281.11922	3915.6375
2283.996	3941.6375
2286.87094	3925.6375
2289.74405	3923.0375
2292.61534	3912.4375
2295.4848	3909.9375
2298.35243	3899.0375
2301.21824	3899.9375
2304.08223	3886.1375
2306.94439	3900.5375
2309.80474	3901.3375
2312.66327	3875.1375
2315.51999	3863.1375
2318.37489	3853.4375
2321.22797	3847.2375
2324.07925	3851.9375
2326.92871	3838.2375
2329.77637	3810.0375
2332.62222	3804.5375
2335.46626	3805.2375
2338.3085	3785.4375
2341.14893	3805.7375
2343.98756	3818.0375
2346.8244	3786.9375
2349.65943	3782.7375
2352.49267	3797.1375
2355.32411	3788.9375
2358.15376	3776.4375
2360.98161	3800.4375
2363.80768	3769.7375
2366.63195	3773.8375
2369.45444	3776.3375
2372.27514	3775.6375
2375.09405	3779.3375
2377.91118	3753.9375
2380.72652	3746.5375
2383.54009	3735.4375
2386.35187	3738.9375
2389.16188	3721.7375
2391.97011	3713.9375
2394.77657	3709.0375
2397.58125	3702.1375
2400.38416	3690.0375
2403.18529	3674.4375
2405.98466	3659.5375
2408.78226	3669.2375
2411.57809	3659.6375
2414.37216	3640.5375
2417.16446	3628.5375
2419.955	3617.8375
2422.74378	3617.1375
2425.5308	3619.8375
2428.31606	3617.5375
2431.09956	3622.7375
2433.88131	3590.5375
2436.6613	3619.6375
2439.43954	3602.7375
2442.21603	3600.9375
2444.99077	3585.6375
2447.76377	3600.3375
2450.53501	3590.0375
2453.30451	3579.6375
2456.07226	3596.3375
2458.83827	3575.2375
2461.60254	3530.0375
2464.36507	3578.3375
2467.12586	3546.3375
2469.88492	3556.8375
2472.64224	3564.8375
2475.39782	3532.5375
2478.15167	3555.6375
2480.90379	3543.2375
2483.65417	3561.7375
2486.40283	3548.2375
2489.14976	3552.2375
2491.89497	3553.7375
2494.63845	3545.0375
2497.3802	3548.0375
2500.12024	3522.4375
2502.85855	3528.5375
2505.59514	3532.5375
2508.33002	3511.0375
2511.06318	3500.9375
2513.79462	3494.9375
2516.52435	3458.7375
2519.25237	3439.8375
2521.97867	3442.2375
2524.70327	3437.2375
2527.42616	3449.9375
2530.14734	3448.4375
2532.86681	3415.6375
2535.58458	3432.6375
2538.30065	3417.8375
2541.01501	3436.7375
2543.72768	3411.4375
2546.43864	3406.4375
2549.14791	3393.5375
2551.85548	3381.4375
2554.56136	3375.0375
2557.26554	3384.8375
2559.96803	3381.7375
2562.66883	3380.9375
2565.36794	3347.3375
2568.06536	3322.5375
2570.7611	3356.3375
2573.45514	3323.3375
2576.14751	3324.5375
2578.83819	3311.1375
2581.52719	3309.8375
2584.21451	3308.5375
2586.90015	3295.1375
2589.58411	3268.6375
2592.2664	3282.4375
2594.94701	3284.2375
2597.62594	3279.4375
2600.30321	3209.0375
2602.9788	3244.0375
2605.65273	3235.2375
2608.32498	3236.2375
2610.99557	3254.2375
2613.66449	3212.8375
2616.33175	3238.2375
2618.99734	3221.0375
2621.66128	3225.5375
2624.32355	3217.0375
2626.98416	3190.0375
2629.64311	3182.3375
2632.30041	3179.4375
2634.95605	3165.6375
2637.61004	3162.2375
2640.26238	3153.7375
2642.91306	3145.1375
2645.56209	3171.7375
2648.20948	3156.8375
2650.85521	3144.3375
2653.4993	3150.4375
2656.14175	3146.8375
2658.78255	3137.7375
2661.42171	3099.9375
2664.05923	3146.2375
2666.6951	3150.5375
2669.32934	3157.2375
2671.96194	3160.3375
2674.59291	3149.1375
2677.22224	3149.2375
2679.84993	3153.9375
2682.476	3147.2375
2685.10043	3136.2375
2687.72324	3108.5375
2690.34441	3132.4375
2692.96396	3129.9375
2695.58188	3145.8375
2698.19818	3128.2375
2700.81285	3117.8375
2703.4259	3108.9375
2706.03733	3085.2375
2708.64714	3093.7375
2711.25533	3123.2375
2713.86191	3115.3375
2716.46687	3099.6375
2719.07021	3105.6375
2721.67194	3098.6375
2724.27206	3117.1375
2726.87057	3105.6375
2729.46747	3094.8375
2732.06276	3100.1375
2734.65644	3074.3375
2737.24852	3089.3375
2739.83899	3070.2375
2742.42786	3073.1375
2745.01513	3100.6375
2747.60079	3065.3375
2750.18486	3045.6375
2752.76733	3052.6375
2755.3482	3033.7375
2757.92747	3053.6375
2760.50515	3026.4375
2763.08123	3027.6375
2765.65573	3017.2375
2768.22863	3016.2375
2770.79994	3000.1375
2773.36967	3008.2375
2775.9378	2995.5375
2778.50435	2983.2375
2781.06932	2980.7375
2783.6327	2975.3375
2786.1945	2996.9375
2788.75471	2972.4375
2791.31335	2964.3375
2793.87041	2974.1375
2796.42589	2953.7375
2798.97979	2944.0375
2801.53212	2933.9375
2804.08288	2952.4375
2806.63206	2945.8375
2809.17967	2912.6375
2811.72571	2935.4375
2814.27018	2914.2375
2816.81308	2911.6375
2819.35442	2881.7375
2821.89419	2892.4375
2824.43239	2878.0375
2826.96904	2915.8375
2829.50412	2878.1375
2832.03763	2886.8375
2834.56959	2901.2375
2837.1	2883.1375
2839.62884	2872.8375
2842.15613	2878.0375
2844.68186	2897.9375
2847.20604	2851.7375
2849.72867	2837.9375
2852.24974	2852.0375
2854.76927	2833.7375
2857.28724	2771.5375
2859.80367	2841.3375
2862.31855	2848.8375
2864.83189	2835.6375
2867.34368	2844.0375
2869.85393	2852.8375
2872.36264	2831.5375
2874.8698	2828.5375
2877.37543	2829.6375
2879.87952	2832.4375
2882.38207	2797.1375
2884.88308	2813.6375
2887.38256	2807.4375
2889.88051	2797.7375
2892.37692	2796.5375
2894.8718	2785.8375
2897.36515	2804.0375
2899.85698	2795.5375
2902.34727	2789.2375
2904.83604	2795.9375
2907.32328	2808.5375
2909.809	2808.6375
2912.29319	2816.5375
2914.77587	2809.9375
2917.25702	2825.0375
2919.73665	2829.5375
2922.21476	2813.5375
2924.69136	2823.5375
2927.16644	2811.0375
2929.64	2808.4375
2932.11205	2786.1375
2934.58258	2799.4375
2937.05161	2783.9375
2939.51912	2782.7375
2941.98513	2784.5375
2944.44962	2769.6375
2946.91261	2739.2375
2949.37409	2755.1375
2951.83407	2741.7375
2954.29254	2760.7375
2956.74951	2750.3375
2959.20498	2737.9375
2961.65895	2744.4375
2964.11142	2720.7375
2966.56239	2720.1375
2969.01186	2715.0375
2971.45984	2711.6375
2973.90632	2703.1375
2976.35131	2714.6375
2978.7948	2714.3375
2981.23681	2690.7375
2983.67732	2703.3375
2986.11635	2697.7375
2988.55388	2667.9375
2990.98993	2665.1375
2993.4245	2653.7375
2995.85758	2654.0375
2998.28917	2648.1375
3000.71928	2629.5375
3003.14791	2616.7375
3005.57506	2618.5375
3008.00073	2606.6375
3010.42493	2558.1375
3012.84764	2600.1375
3015.26888	2619.8375
3017.68865	2602.1375
3020.10694	2558.3375
3022.52376	2564.9375
3024.9391	2567.4375
3027.35298	2550.2375
3029.76539	2535.3375
3032.17632	2543.0375
3034.5858	2540.5375
3036.9938	2534.1375
3039.40034	2530.7375
3041.80542	2522.5375
3044.20903	2515.6375
3046.61118	2504.8375
3049.01187	2514.2375
3051.4111	2492.9375
3053.80888	2488.7375
3056.20519	2476.9375
3058.60005	2464.6375
3060.99345	2497.8375
3063.3854	2465.8375
3065.7759	2446.5375
3068.16494	2438.3375
3070.55254	2421.6375
3072.93868	2442.3375
3075.32338	2426.8375
3077.70662	2421.6375
3080.08842	2421.8375
3082.46878	2406.3375
3084.84769	2420.9375
3087.22515	2402.6375
3089.60118	2408.1375
3091.97576	2387.5375
3094.3489	2397.7375
3096.72061	2391.5375
3099.09087	2380.6375
3101.4597	2398.2375
3103.82709	2380.4375
3106.19305	2371.6375
3108.55757	2365.0375
3110.92066	2354.6375
3113.28232	2369.2375
3115.64255	2373.6375
3118.00134	2361.3375
3120.35871	2334.6375
3122.71466	2322.5375
