Data from AgNPs_UA_10uM_CRN_500uM_SU_RamanShift__47__13-13-10-263.txt Node

Date: Thu Aug 04 13:13:10 BST 2022
User: TCL
Spectrometer: QEP01345
Trigger mode: 4
Integration Time (sec): 1.000000E0
Scans to average: 10
Electric dark correction enabled: true
Nonlinearity correction enabled: false
Boxcar width: 0
XAxis mode: Raman Shifts
Number of Pixels in Spectrum: 1044
>>>>>Begin Spectral Data<<<<<
46.04893	-0.375
50.45542	-0.575
54.85868	1.525
59.25871	0.025
63.6555	21.925
68.04907	20.325
72.43941	23.825
76.82654	23.525
81.21044	22.525
85.59113	23.725
89.96862	26.625
94.34289	24.525
98.71396	26.425
103.08183	29.025
107.4465	29.625
111.80798	29.325
116.16626	29.825
120.52136	34.125
124.87327	34.125
129.222	34.625
133.56755	38.525
137.90993	42.125
142.24913	47.025
146.58517	52.225
150.91804	61.425
155.24774	78.225
159.57429	93.825
163.89768	126.525
168.21792	166.525
172.53501	229.525
176.84895	324.625
181.15975	459.225
185.46741	654.725
189.77193	900.225
194.07331	1216.325
198.37157	1576.125
202.6667	1951.925
206.9587	2330.825
211.24758	2694.625
215.53334	3066.825
219.81599	3465.525
224.09553	3926.725
228.37195	4409.425
232.64527	4944.925
236.91549	5472.425
241.18261	5987.125
245.44663	6409.725
249.70755	6778.325
253.96539	7083.225
258.22014	7369.025
262.4718	7601.825
266.72039	7726.825
270.96589	7780.925
275.20832	7745.425
279.44768	7692.125
283.68397	7537.925
287.91719	7468.825
292.14735	7453.325
296.37445	7519.125
300.59849	7660.925
304.81948	7874.425
309.03742	8009.225
313.25231	8096.125
317.46415	8018.425
321.67296	7830.025
325.87872	7612.225
330.08145	7517.625
334.28114	7520.525
338.47781	7583.125
342.67145	7723.125
346.86207	7868.925
351.04966	8128.825
355.23424	8402.025
359.4158	8609.425
363.59435	8737.425
367.76989	8773.925
371.94243	8814.025
376.11196	8834.925
380.27849	8855.025
384.44203	8922.125
388.60257	9009.825
392.76012	9069.125
396.91468	9191.525
401.06626	9312.625
405.21485	9365.925
409.36047	9294.125
413.50311	9121.725
417.64277	8952.725
421.77947	8786.825
425.9132	8732.625
430.04396	8712.825
434.17176	8757.625
438.2966	8842.625
442.41849	8947.925
446.53742	9103.125
450.6534	9298.125
454.76644	9425.925
458.87653	9467.425
462.98368	9539.125
467.08789	9516.425
471.18916	9413.025
475.2875	9267.825
479.38291	9135.525
483.4754	9041.025
487.56496	8986.325
491.6516	8959.825
495.73531	8950.725
499.81612	9000.825
503.89401	9070.125
507.96899	9113.725
512.04106	9157.225
516.11023	9165.825
520.1765	9194.825
524.23987	9232.925
528.30034	9222.825
532.35792	9238.925
536.41261	9197.525
540.46441	9108.825
544.51333	9113.425
548.55936	9154.225
552.60252	9268.425
556.64279	9391.925
560.6802	9532.025
564.71473	9586.825
568.7464	9603.725
572.7752	9521.825
576.80114	9344.725
580.82422	9200.825
584.84444	9162.825
588.86181	9176.825
592.87633	9198.825
596.888	9341.425
600.89682	9723.025
604.9028	10583.925
608.90594	12299.225
612.90624	13908.325
616.90371	13007.125
620.89834	10710.125
624.89015	9782.925
628.87913	9730.625
632.86528	9879.525
636.84862	10003.125
640.82913	9851.025
644.80683	9597.525
648.78172	9441.825
652.75379	9440.925
656.72306	9632.925
660.68952	9854.125
664.65319	9846.625
668.61405	9784.725
672.57211	9928.625
676.52738	9934.525
680.47986	9710.825
684.42955	9499.725
688.37646	9484.625
692.32058	9548.225
696.26192	9730.725
700.20048	9878.925
704.13626	9938.025
708.06928	9829.225
711.99952	9701.825
715.927	9689.025
719.85171	9759.725
723.77365	9767.025
727.69284	9721.625
731.60928	9660.225
735.52295	9651.625
739.43388	9683.525
743.34206	9720.625
747.24749	9708.225
751.15017	9692.125
755.05012	9762.625
758.94733	9995.625
762.8418	10580.525
766.73354	11426.725
770.62254	12159.325
774.50882	12386.525
778.39237	12238.325
782.27321	11677.025
786.15132	10955.925
790.02671	10377.925
793.89938	10059.025
797.76935	9877.025
801.6366	9787.925
805.50115	9739.925
809.36299	9716.625
813.22213	9706.825
817.07857	9706.125
820.93231	9705.225
824.78336	9684.325
828.63172	9763.125
832.47738	9751.225
836.32036	9727.725
840.16066	9720.625
843.99827	9698.325
847.8332	9726.625
851.66546	9748.625
855.49504	9779.825
859.32195	9808.625
863.1462	9784.725
866.96777	9782.925
870.78668	9792.925
874.60293	9824.125
878.41652	9852.725
882.22745	9955.725
886.03573	9989.725
889.84136	9982.825
893.64433	9950.125
897.44466	9899.825
901.24235	9880.325
905.0374	9887.325
908.8298	9855.125
912.61957	9828.325
916.40671	9847.225
920.19121	9843.025
923.97308	9852.925
927.75233	9921.325
931.52895	9983.525
935.30295	9973.025
939.07433	9851.225
942.84309	9791.525
946.60924	9767.325
950.37278	9757.525
954.13371	9747.225
957.89203	9750.725
961.64774	9770.625
965.40086	9752.125
969.15137	9728.825
972.89929	9732.625
976.64461	9723.825
980.38733	9728.925
984.12747	9764.725
987.86502	9787.425
991.59999	9825.125
995.33237	9887.825
999.06217	9963.325
1002.78939	10079.725
1006.51404	10248.625
1010.23611	10383.425
1013.95561	10493.525
1017.67255	10516.825
1021.38692	10507.425
1025.09872	10408.525
1028.80796	10301.525
1032.51465	10246.825
1036.21877	10282.125
1039.92035	10311.525
1043.61937	10344.025
1047.31584	10392.525
1051.00976	10403.225
1054.70114	10429.325
1058.38998	10474.625
1062.07627	10520.025
1065.76003	10542.825
1069.44126	10677.625
1073.11995	10901.125
1076.79611	11159.325
1080.46974	11269.225
1084.14085	11321.025
1087.80943	11383.525
1091.47549	11467.825
1095.13903	11563.025
1098.80005	11663.525
1102.45857	11797.725
1106.11456	11705.025
1109.76805	11471.225
1113.41903	11342.025
1117.06751	11390.725
1120.71348	11501.925
1124.35696	11568.225
1127.99793	11657.725
1131.63641	11490.125
1135.2724	11297.925
1138.90589	11097.725
1142.5369	11013.425
1146.16542	10974.925
1149.79145	10925.825
1153.415	10808.025
1157.03607	10687.325
1160.65467	10695.025
1164.27079	10859.625
1167.88443	11079.325
1171.49561	11444.425
1175.10432	11980.925
1178.71056	12674.025
1182.31434	13289.825
1185.91565	13581.125
1189.51451	13662.025
1193.11091	13611.025
1196.70485	13508.525
1200.29634	13304.825
1203.88538	13024.725
1207.47197	12743.525
1211.05612	12408.425
1214.63782	12099.725
1218.21708	11804.825
1221.79391	11548.625
1225.36829	11408.925
1228.94024	11325.425
1232.50976	11298.425
1236.07685	11349.925
1239.6415	11395.025
1243.20374	11430.925
1246.76355	11527.525
1250.32093	11628.325
1253.8759	11784.625
1257.42845	12058.825
1260.97859	12366.525
1264.52631	12634.125
1268.07163	12786.325
1271.61453	12883.125
1275.15503	12848.825
1278.69312	12808.925
1282.22882	12771.825
1285.76211	12790.125
1289.29301	12858.425
1292.82151	13022.225
1296.34761	13166.625
1299.87133	13484.225
1303.39266	13992.325
1306.9116	14750.325
1310.42815	15533.225
1313.94233	15826.625
1317.45412	15529.125
1320.96354	15019.525
1324.47058	14462.425
1327.97525	13917.425
1331.47754	13501.625
1334.97747	13399.425
1338.47502	13563.225
1341.97022	14013.825
1345.46305	14750.825
1348.95352	15753.525
1352.44163	16749.725
1355.92738	17550.625
1359.41078	18314.025
1362.89183	18758.325
1366.37053	17860.725
1369.84688	15937.925
1373.32088	14189.725
1376.79254	13204.725
1380.26186	12693.825
1383.72883	12352.125
1387.19347	12046.925
1390.65578	11769.925
1394.11575	11497.825
1397.57339	11306.125
1401.0287	11208.625
1404.48168	11185.725
1407.93234	11268.425
1411.38068	11449.925
1414.82669	11582.825
1418.27039	11594.425
1421.71177	11595.225
1425.15083	11498.625
1428.58758	11404.825
1432.02203	11379.825
1435.45416	11393.825
1438.88399	11361.825
1442.31151	11358.625
1445.73673	11430.825
1449.15965	11433.825
1452.58027	11479.825
1455.9986	11411.025
1459.41463	11420.125
1462.82837	11492.925
1466.23982	11641.225
1469.64898	11822.325
1473.05586	11967.625
1476.46045	12048.525
1479.86276	12175.225
1483.26279	12303.125
1486.66054	12481.725
1490.05602	12773.125
1493.44922	13254.225
1496.84016	13938.425
1500.22882	14918.525
1503.61521	16049.425
1506.99934	16969.225
1510.38121	17404.825
1513.76081	17034.725
1517.13816	16004.025
1520.51324	14759.425
1523.88607	13737.825
1527.25665	13114.125
1530.62498	12751.925
1533.99105	12607.325
1537.35488	12544.425
1540.71647	12451.625
1544.07581	12431.325
1547.4329	12360.625
1550.78776	12232.025
1554.14038	12113.925
1557.49077	12036.925
1560.83892	12098.025
1564.18484	12261.225
1567.52853	12485.325
1570.86999	12611.225
1574.20922	12709.725
1577.54624	12570.225
1580.88103	12222.925
1584.2136	11783.625
1587.54395	11562.725
1590.87208	11566.825
1594.19801	11827.225
1597.52172	12143.625
1600.84321	12321.425
1604.16251	12339.925
1607.47959	12238.025
1610.79447	11975.325
1614.10715	11522.825
1617.41763	11088.125
1620.7259	10733.725
1624.03199	10564.225
1627.33587	10441.125
1630.63757	10520.225
1633.93707	10712.725
1637.23439	11168.225
1640.52951	11852.125
1643.82246	12785.025
1647.11321	13697.725
1650.40179	14107.625
1653.68819	13567.125
1656.97241	12410.925
1660.25446	11277.625
1663.53433	10498.225
1666.81203	10054.325
1670.08756	9781.925
1673.36092	9640.125
1676.63211	9526.425
1679.90115	9443.325
1683.16801	9341.025
1686.43272	9280.125
1689.69527	9222.325
1692.95567	9199.225
1696.2139	9141.625
1699.46999	9131.425
1702.72392	9121.825
1705.97571	9089.925
1709.22535	9106.525
1712.47284	9095.025
1715.71819	9106.825
1718.96139	9092.725
1722.20246	9087.825
1725.44139	9064.425
1728.67818	9026.625
1731.91284	8986.825
1735.14537	8943.725
1738.37576	8913.725
1741.60403	8882.325
1744.83017	8871.625
1748.05418	8857.725
1751.27607	8841.025
1754.49584	8802.525
1757.71349	8817.425
1760.92903	8791.225
1764.14244	8760.725
1767.35375	8742.025
1770.56294	8731.825
1773.77002	8737.925
1776.97499	8712.025
1780.17785	8658.225
1783.37861	8635.625
1786.57727	8646.925
1789.77382	8647.925
1792.96828	8632.625
1796.16064	8607.425
1799.3509	8595.225
1802.53907	8563.425
1805.72514	8568.425
1808.90913	8546.825
1812.09102	8515.925
1815.27083	8499.425
1818.44856	8475.725
1821.6242	8461.625
1824.79776	8443.825
1827.96924	8435.025
1831.13864	8423.725
1834.30597	8391.625
1837.47122	8387.525
1840.6344	8365.625
1843.7955	8373.125
1846.95454	8348.425
1850.11151	8343.925
1853.26642	8350.625
1856.41926	8337.225
1859.57004	8361.625
1862.71876	8336.325
1865.86542	8349.025
1869.01003	8314.525
1872.15258	8300.925
1875.29308	8298.925
1878.43152	8284.125
1881.56792	8271.625
1884.70227	8258.825
1887.83457	8221.425
1890.96482	8198.525
1894.09304	8184.125
1897.21921	8190.925
1900.34335	8153.125
1903.46544	8167.725
1906.58551	8171.125
1909.70353	8158.925
1912.81953	8145.525
1915.93349	8132.825
1919.04543	8099.425
1922.15534	8079.625
1925.26322	8092.025
1928.36908	8049.225
1931.47292	8032.925
1934.57473	8006.925
1937.67453	7994.825
1940.77232	7973.325
1943.86808	7957.625
1946.96184	7928.625
1950.05358	7884.725
1953.14331	7899.325
1956.23103	7850.925
1959.31675	7844.225
1962.40046	7802.625
1965.48217	7778.325
1968.56188	7778.525
1971.63959	7733.425
1974.7153	7711.725
1977.78901	7686.325
1980.86073	7688.225
1983.93046	7636.425
1986.99819	7632.625
1990.06394	7595.425
1993.1277	7574.025
1996.18947	7539.925
1999.24925	7504.725
2002.30706	7500.225
2005.36288	7465.425
2008.41672	7419.425
2011.46859	7422.525
2014.51848	7374.325
2017.56639	7374.525
2020.61233	7343.425
2023.6563	7323.225
2026.6983	7303.125
2029.73833	7273.325
2032.7764	7253.425
2035.8125	7246.825
2038.84664	7206.325
2041.87881	7207.525
2044.90903	7171.125
2047.93729	7173.525
2050.96359	7149.125
2053.98794	7124.025
2057.01034	7133.725
2060.03078	7141.125
2063.04927	7117.325
2066.06582	7108.625
2069.08042	7094.125
2072.09307	7092.725
2075.10378	7074.825
2078.11255	7073.425
2081.11938	7057.225
2084.12426	7056.025
2087.12722	7054.625
2090.12824	7052.125
2093.12732	7048.625
2096.12447	7044.625
2099.11969	7075.625
2102.11299	7058.625
2105.10435	7051.125
2108.09379	7064.625
2111.08131	7048.125
2114.0669	7035.125
2117.05057	7048.525
2120.03233	7080.425
2123.01216	7064.725
2125.99008	7057.425
2128.96609	7080.125
2131.94018	7083.025
2134.91236	7065.925
2137.88263	7065.925
2140.851	7059.225
2143.81746	7062.025
2146.78201	7071.325
2149.74466	7059.325
2152.7054	7076.625
2155.66425	7054.025
2158.6212	7040.525
2161.57625	7030.825
2164.52941	7043.125
2167.48067	7041.125
2170.43004	7009.425
2173.37752	7001.125
2176.32311	7013.725
2179.26681	7010.325
2182.20863	7026.325
2185.14856	7018.525
2188.08661	7004.025
2191.02278	7015.625
2193.95707	6996.525
2196.88948	6992.025
2199.82001	7002.025
2202.74867	6978.625
2205.67545	6974.925
2208.60037	6978.625
2211.52341	6952.825
2214.44458	6927.125
2217.36388	6897.025
2220.28132	6891.825
2223.1969	6848.225
2226.11061	6851.125
2229.02246	6826.625
2231.93245	6815.525
2234.84058	6806.025
2237.74686	6802.425
2240.65128	6801.525
2243.55385	6767.625
2246.45456	6770.725
2249.35343	6741.225
2252.25044	6739.825
2255.14561	6729.125
2258.03893	6733.125
2260.93041	6724.225
2263.82004	6699.525
2266.70783	6684.525
2269.59378	6659.625
2272.4779	6635.525
2275.36017	6621.925
2278.24061	6618.925
2281.11922	6591.625
2283.996	6579.525
2286.87094	6563.325
2289.74405	6572.425
2292.61534	6566.125
2295.4848	6539.625
2298.35243	6525.825
2301.21824	6528.325
2304.08223	6503.625
2306.94439	6492.025
2309.80474	6485.525
2312.66327	6506.025
2315.51999	6480.825
2318.37489	6467.325
2321.22797	6447.625
2324.07925	6437.625
2326.92871	6412.525
2329.77637	6415.425
2332.62222	6389.125
2335.46626	6364.025
2338.3085	6362.725
2341.14893	6368.525
2343.98756	6383.125
2346.8244	6365.125
2349.65943	6337.225
2352.49267	6328.125
2355.32411	6337.225
2358.15376	6338.225
2360.98161	6329.625
2363.80768	6328.425
2366.63195	6300.125
2369.45444	6298.225
2372.27514	6303.325
2375.09405	6304.325
2377.91118	6287.325
2380.72652	6258.925
2383.54009	6249.925
2386.35187	6234.425
2389.16188	6204.125
2391.97011	6177.625
2394.77657	6179.425
2397.58125	6171.825
2400.38416	6158.325
2403.18529	6138.125
2405.98466	6145.125
2408.78226	6110.025
2411.57809	6117.225
2414.37216	6096.425
2417.16446	6100.125
2419.955	6097.225
2422.74378	6092.825
2425.5308	6070.925
2428.31606	6077.425
2431.09956	6064.525
2433.88131	6058.425
2436.6613	6060.925
2439.43954	6042.025
2442.21603	6042.125
2444.99077	6034.925
2447.76377	6030.225
2450.53501	6023.725
2453.30451	6004.625
2456.07226	6004.025
2458.83827	5986.025
2461.60254	5967.425
2464.36507	5969.725
2467.12586	5956.025
2469.88492	5931.825
2472.64224	5941.625
2475.39782	5955.325
2478.15167	5929.925
2480.90379	5916.525
2483.65417	5908.925
2486.40283	5930.025
2489.14976	5941.625
2491.89497	5919.125
2494.63845	5917.125
2497.3802	5892.625
2500.12024	5886.925
2502.85855	5871.125
2505.59514	5863.025
2508.33002	5859.025
2511.06318	5824.325
2513.79462	5819.325
2516.52435	5819.325
2519.25237	5808.325
2521.97867	5791.625
2524.70327	5784.825
2527.42616	5770.525
2530.14734	5741.625
2532.86681	5770.825
2535.58458	5767.925
2538.30065	5756.425
2541.01501	5759.125
2543.72768	5730.925
2546.43864	5730.025
2549.14791	5739.225
2551.85548	5714.825
2554.56136	5727.925
2557.26554	5704.525
2559.96803	5688.625
2562.66883	5669.225
2565.36794	5635.125
2568.06536	5641.025
2570.7611	5593.425
2573.45514	5585.325
2576.14751	5575.725
2578.83819	5562.725
2581.52719	5548.825
2584.21451	5553.425
2586.90015	5540.825
2589.58411	5523.025
2592.2664	5518.125
2594.94701	5512.125
2597.62594	5497.225
2600.30321	5490.725
2602.9788	5481.525
2605.65273	5478.125
2608.32498	5451.725
2610.99557	5469.225
2613.66449	5459.725
2616.33175	5444.425
2618.99734	5431.725
2621.66128	5410.225
2624.32355	5388.625
2626.98416	5391.725
2629.64311	5370.325
2632.30041	5357.625
2634.95605	5343.525
2637.61004	5353.425
2640.26238	5309.125
2642.91306	5328.825
2645.56209	5314.025
2648.20948	5314.825
2650.85521	5307.825
2653.4993	5298.325
2656.14175	5306.025
2658.78255	5294.325
2661.42171	5286.725
2664.05923	5284.125
2666.6951	5301.025
2669.32934	5316.925
2671.96194	5302.225
2674.59291	5303.225
2677.22224	5293.425
2679.84993	5299.525
2682.476	5289.025
2685.10043	5286.325
2687.72324	5291.425
2690.34441	5297.625
2692.96396	5286.325
2695.58188	5282.025
2698.19818	5269.725
2700.81285	5255.825
2703.4259	5249.925
2706.03733	5237.825
2708.64714	5239.025
2711.25533	5226.225
2713.86191	5225.925
2716.46687	5234.925
2719.07021	5222.125
2721.67194	5233.725
2724.27206	5243.925
2726.87057	5239.425
2729.46747	5219.025
2732.06276	5214.325
2734.65644	5203.425
2737.24852	5202.325
2739.83899	5196.625
2742.42786	5188.225
2745.01513	5164.525
2747.60079	5154.025
2750.18486	5143.925
2752.76733	5158.325
2755.3482	5135.825
2757.92747	5116.625
2760.50515	5111.125
2763.08123	5111.525
2765.65573	5090.325
2768.22863	5084.225
2770.79994	5062.125
2773.36967	5046.925
2775.9378	5047.025
2778.50435	5055.125
2781.06932	5040.625
2783.6327	5031.825
2786.1945	5036.925
2788.75471	5019.525
2791.31335	4988.825
2793.87041	4986.025
2796.42589	4978.625
2798.97979	4952.625
2801.53212	4944.425
2804.08288	4932.825
2806.63206	4924.825
2809.17967	4930.825
2811.72571	4931.025
2814.27018	4896.925
2816.81308	4894.325
2819.35442	4877.225
2821.89419	4882.425
2824.43239	4854.125
2826.96904	4836.025
2829.50412	4834.425
2832.03763	4810.125
2834.56959	4822.125
2837.1	4797.325
2839.62884	4794.825
2842.15613	4772.525
2844.68186	4775.425
2847.20604	4779.025
2849.72867	4762.325
2852.24974	4751.625
2854.76927	4723.525
2857.28724	4719.525
2859.80367	4714.925
2862.31855	4706.325
2864.83189	4701.225
2867.34368	4721.225
2869.85393	4706.225
2872.36264	4699.125
2874.8698	4675.525
2877.37543	4672.425
2879.87952	4663.525
2882.38207	4656.125
2884.88308	4646.925
2887.38256	4658.225
2889.88051	4662.825
2892.37692	4644.225
2894.8718	4638.725
2897.36515	4632.725
2899.85698	4624.125
2902.34727	4623.325
2904.83604	4637.925
2907.32328	4650.925
2909.809	4614.325
2912.29319	4630.725
2914.77587	4631.825
2917.25702	4637.225
2919.73665	4622.825
2922.21476	4620.125
2924.69136	4604.825
2927.16644	4601.325
2929.64	4595.825
2932.11205	4592.425
2934.58258	4564.625
2937.05161	4571.725
2939.51912	4579.025
2941.98513	4581.325
2944.44962	4561.425
2946.91261	4547.925
2949.37409	4542.325
2951.83407	4539.725
2954.29254	4542.125
2956.74951	4540.125
2959.20498	4542.025
2961.65895	4524.825
2964.11142	4528.225
2966.56239	4520.425
2969.01186	4505.725
2971.45984	4505.325
2973.90632	4493.125
2976.35131	4495.725
2978.7948	4497.225
2981.23681	4484.725
2983.67732	4472.625
2986.11635	4460.025
2988.55388	4456.225
2990.98993	4429.725
2993.4245	4423.725
2995.85758	4416.025
2998.28917	4413.425
3000.71928	4405.325
3003.14791	4384.725
3005.57506	4380.925
3008.00073	4369.825
3010.42493	4342.525
3012.84764	4332.725
3015.26888	4339.225
3017.68865	4327.025
3020.10694	4318.925
3022.52376	4296.825
3024.9391	4287.725
3027.35298	4256.525
3029.76539	4255.625
3032.17632	4245.025
3034.5858	4241.325
3036.9938	4227.025
3039.40034	4219.525
3041.80542	4219.225
3044.20903	4198.925
3046.61118	4203.425
3049.01187	4181.125
3051.4111	4179.225
3053.80888	4165.725
3056.20519	4150.225
3058.60005	4137.525
3060.99345	4142.625
3063.3854	4125.125
3065.7759	4116.825
3068.16494	4102.425
3070.55254	4085.825
3072.93868	4081.825
3075.32338	4070.825
3077.70662	4037.725
3080.08842	4046.025
3082.46878	4042.925
3084.84769	4022.525
3087.22515	4022.325
3089.60118	4020.025
3091.97576	4019.225
3094.3489	4011.825
3096.72061	4000.325
3099.09087	3999.525
3101.4597	4018.625
3103.82709	4008.925
3106.19305	4003.325
3108.55757	3999.225
3110.92066	3987.625
3113.28232	3964.325
3115.64255	3953.225
3118.00134	3957.525
3120.35871	3944.025
3122.71466	3937.425
3125.06917	3936.025
3127.42226	3917.725
3129.77393	3907.925
3132.12417	3893.825
3134.47299	3881.525
3136.82039	3883.425
3139.16636	3888.525
3141.51092	3872.625
3143.85406	3885.725
3146.19579	3876.725
3148.53609	3873.825
3150.87499	3856.325
3153.21246	3859.225
3155.54853	3867.825
3157.88318	3860.625
3160.21642	3841.725
3162.54826	3849.425
3164.87868	3853.225
3167.2077	3835.125
3169.5353	3826.025
3171.86151	3820.725
3174.18631	3819.125
3176.5097	3815.525
3178.83169	3811.625
3181.15228	3799.125
3183.47147	3776.225
3185.78926	3764.925
3188.10565	3752.025
3190.42065	3739.025
3192.73424	3749.325
3195.04645	3739.425
3197.35725	3734.925
3199.66667	3722.625
3201.97469	3718.725
3204.28132	3728.025
3206.58656	3732.925
3208.8904	3716.825
3211.19287	3734.425
3213.49394	3727.725
3215.79363	3726.525
