Data from AgNPs_UA_10uM_CRN_500uM_SU_RamanShift__99__13-21-50-273.txt Node

Date: Thu Aug 04 13:21:50 BST 2022
User: TCL
Spectrometer: QEP01345
Trigger mode: 4
Integration Time (sec): 1.000000E0
Scans to average: 10
Electric dark correction enabled: true
Nonlinearity correction enabled: false
Boxcar width: 0
XAxis mode: Raman Shifts
Number of Pixels in Spectrum: 1044
>>>>>Begin Spectral Data<<<<<
46.04893	0.7375
50.45542	-0.0625
54.85868	0.7375
59.25871	-0.2625
63.6555	19.5375
68.04907	21.8375
72.43941	21.6375
76.82654	23.9375
81.21044	24.0375
85.59113	23.6375
89.96862	26.0375
94.34289	26.3375
98.71396	27.5375
103.08183	28.5375
107.4465	28.1375
111.80798	29.8375
116.16626	29.9375
120.52136	30.4375
124.87327	34.5375
129.222	34.6375
133.56755	35.8375
137.90993	39.6375
142.24913	44.9375
146.58517	52.5375
150.91804	59.7375
155.24774	74.0375
159.57429	93.5375
163.89768	120.0375
168.21792	161.8375
172.53501	222.3375
176.84895	314.0375
181.15975	443.6375
185.46741	631.7375
189.77193	873.4375
194.07331	1169.1375
198.37157	1518.7375
202.6667	1867.8375
206.9587	2236.6375
211.24758	2588.2375
215.53334	2955.8375
219.81599	3320.7375
224.09553	3783.6375
228.37195	4245.7375
232.64527	4770.0375
236.91549	5257.7375
241.18261	5746.6375
245.44663	6144.1375
249.70755	6449.5375
253.96539	6744.5375
258.22014	6986.8375
262.4718	7178.3375
266.72039	7323.9375
270.96589	7399.0375
275.20832	7361.3375
279.44768	7238.6375
283.68397	7160.8375
287.91719	7070.8375
292.14735	7079.9375
296.37445	7147.1375
300.59849	7332.7375
304.81948	7552.5375
309.03742	7752.5375
313.25231	7851.5375
317.46415	7791.8375
321.67296	7546.6375
325.87872	7302.7375
330.08145	7171.9375
334.28114	7185.4375
338.47781	7267.1375
342.67145	7388.5375
346.86207	7556.7375
351.04966	7834.7375
355.23424	8115.8375
359.4158	8289.9375
363.59435	8439.3375
367.76989	8487.0375
371.94243	8508.5375
376.11196	8490.2375
380.27849	8492.1375
384.44203	8558.7375
388.60257	8588.6375
392.76012	8673.0375
396.91468	8766.5375
401.06626	8899.1375
405.21485	8949.7375
409.36047	8835.1375
413.50311	8627.3375
417.64277	8422.8375
421.77947	8262.6375
425.9132	8212.6375
430.04396	8219.7375
434.17176	8252.5375
438.2966	8361.5375
442.41849	8519.7375
446.53742	8737.0375
450.6534	8908.0375
454.76644	9037.8375
458.87653	9093.9375
462.98368	9105.5375
467.08789	9018.7375
471.18916	8889.8375
475.2875	8718.6375
479.38291	8545.7375
483.4754	8460.0375
487.56496	8383.0375
491.6516	8339.4375
495.73531	8335.5375
499.81612	8361.6375
503.89401	8443.7375
507.96899	8492.5375
512.04106	8516.4375
516.11023	8575.2375
520.1765	8610.4375
524.23987	8655.2375
528.30034	8635.0375
532.35792	8651.5375
536.41261	8557.0375
540.46441	8445.4375
544.51333	8447.2375
548.55936	8510.4375
552.60252	8607.0375
556.64279	8747.6375
560.6802	8853.7375
564.71473	8924.6375
568.7464	9012.0375
572.7752	8982.4375
576.80114	8801.3375
580.82422	8692.4375
584.84444	8664.8375
588.86181	8734.2375
592.87633	8846.6375
596.888	9004.5375
600.89682	9361.8375
604.9028	10277.0375
608.90594	12155.1375
612.90624	13895.8375
616.90371	12849.5375
620.89834	10359.5375
624.89015	9369.4375
628.87913	9313.9375
632.86528	9407.5375
636.84862	9400.5375
640.82913	9177.2375
644.80683	8885.6375
648.78172	8700.4375
652.75379	8716.1375
656.72306	8956.0375
660.68952	9197.6375
664.65319	9162.3375
668.61405	9074.0375
672.57211	9117.5375
676.52738	9101.7375
680.47986	8956.3375
684.42955	8766.0375
688.37646	8730.1375
692.32058	8835.3375
696.26192	8988.2375
700.20048	9133.0375
704.13626	9153.9375
708.06928	9059.3375
711.99952	8959.2375
715.927	8956.4375
719.85171	9001.9375
723.77365	9016.4375
727.69284	8944.8375
731.60928	8897.0375
735.52295	8878.6375
739.43388	8935.0375
743.34206	8967.4375
747.24749	8998.4375
751.15017	8980.7375
755.05012	9079.2375
758.94733	9400.8375
762.8418	10027.3375
766.73354	11062.8375
770.62254	11866.5375
774.50882	12045.5375
778.39237	11656.3375
782.27321	10968.4375
786.15132	10164.5375
790.02671	9610.4375
793.89938	9293.5375
797.76935	9147.9375
801.6366	9082.2375
805.50115	9019.6375
809.36299	8986.2375
813.22213	8973.5375
817.07857	8984.4375
820.93231	8970.9375
824.78336	8952.6375
828.63172	8991.8375
832.47738	8983.1375
836.32036	8988.4375
840.16066	8975.8375
843.99827	9003.3375
847.8332	9029.5375
851.66546	9002.4375
855.49504	8999.6375
859.32195	9031.8375
863.1462	9025.8375
866.96777	9002.3375
870.78668	9009.6375
874.60293	9037.5375
878.41652	9101.0375
882.22745	9134.9375
886.03573	9220.2375
889.84136	9203.9375
893.64433	9157.0375
897.44466	9110.0375
901.24235	9087.9375
905.0374	9084.2375
908.8298	9058.0375
912.61957	9031.1375
916.40671	9064.3375
920.19121	9109.6375
923.97308	9172.4375
927.75233	9278.1375
931.52895	9355.7375
935.30295	9283.8375
939.07433	9143.7375
942.84309	9065.2375
946.60924	9023.4375
950.37278	9002.4375
954.13371	8975.6375
957.89203	8943.2375
961.64774	8944.5375
965.40086	8933.8375
969.15137	8920.5375
972.89929	8924.5375
976.64461	8941.1375
980.38733	8937.1375
984.12747	8964.2375
987.86502	9044.8375
991.59999	9115.4375
995.33237	9219.6375
999.06217	9419.1375
1002.78939	9609.5375
1006.51404	9794.6375
1010.23611	9868.0375
1013.95561	9960.2375
1017.67255	10027.9375
1021.38692	10042.9375
1025.09872	10037.6375
1028.80796	10037.9375
1032.51465	10176.2375
1036.21877	10280.8375
1039.92035	10282.5375
1043.61937	10193.5375
1047.31584	10057.7375
1051.00976	9936.8375
1054.70114	9897.6375
1058.38998	9906.5375
1062.07627	9928.0375
1065.76003	9943.8375
1069.44126	10034.0375
1073.11995	10190.1375
1076.79611	10376.1375
1080.46974	10538.8375
1084.14085	10609.0375
1087.80943	10691.6375
1091.47549	10711.8375
1095.13903	10700.6375
1098.80005	10654.0375
1102.45857	10700.9375
1106.11456	10669.4375
1109.76805	10564.1375
1113.41903	10527.9375
1117.06751	10606.4375
1120.71348	10777.6375
1124.35696	10946.7375
1127.99793	11063.5375
1131.63641	10904.7375
1135.2724	10685.3375
1138.90589	10462.1375
1142.5369	10313.7375
1146.16542	10239.7375
1149.79145	10174.1375
1153.415	10089.7375
1157.03607	10076.8375
1160.65467	10116.9375
1164.27079	10329.9375
1167.88443	10656.4375
1171.49561	11117.0375
1175.10432	11876.1375
1178.71056	12777.8375
1182.31434	13589.7375
1185.91565	13985.4375
1189.51451	13953.7375
1193.11091	13679.0375
1196.70485	13305.1375
1200.29634	12940.5375
1203.88538	12542.4375
1207.47197	12142.5375
1211.05612	11726.1375
1214.63782	11415.8375
1218.21708	11233.0375
1221.79391	11106.8375
1225.36829	11095.4375
1228.94024	11070.9375
1232.50976	11004.6375
1236.07685	10929.6375
1239.6415	10922.3375
1243.20374	10956.2375
1246.76355	11049.8375
1250.32093	11156.5375
1253.8759	11390.3375
1257.42845	11665.8375
1260.97859	12007.5375
1264.52631	12295.7375
1268.07163	12512.1375
1271.61453	12684.3375
1275.15503	12843.7375
1278.69312	12931.4375
1282.22882	13014.2375
1285.76211	13152.2375
1289.29301	13260.3375
1292.82151	13434.5375
1296.34761	13690.8375
1299.87133	14162.7375
1303.39266	14929.5375
1306.9116	16063.3375
1310.42815	17246.1375
1313.94233	17795.6375
1317.45412	17416.4375
1320.96354	16564.1375
1324.47058	15642.5375
1327.97525	14817.5375
1331.47754	14324.1375
1334.97747	14164.7375
1338.47502	14269.0375
1341.97022	14668.6375
1345.46305	15344.8375
1348.95352	16272.9375
1352.44163	17265.1375
1355.92738	18267.3375
1359.41078	19505.1375
1362.89183	20320.6375
1366.37053	19310.8375
1369.84688	17018.6375
1373.32088	14850.4375
1376.79254	13628.8375
1380.26186	13018.0375
1383.72883	12677.2375
1387.19347	12372.0375
1390.65578	12038.5375
1394.11575	11736.4375
1397.57339	11528.7375
1401.0287	11454.4375
1404.48168	11494.0375
1407.93234	11564.7375
1411.38068	11735.7375
1414.82669	11865.8375
1418.27039	11868.4375
1421.71177	11836.8375
1425.15083	11736.6375
1428.58758	11679.8375
1432.02203	11771.7375
1435.45416	11861.5375
1438.88399	11893.0375
1442.31151	11881.5375
1445.73673	11837.1375
1449.15965	11861.2375
1452.58027	11784.8375
1455.9986	11727.3375
1459.41463	11697.9375
1462.82837	11828.6375
1466.23982	11998.8375
1469.64898	12180.2375
1473.05586	12322.7375
1476.46045	12464.6375
1479.86276	12585.7375
1483.26279	12721.9375
1486.66054	12903.6375
1490.05602	13180.3375
1493.44922	13623.7375
1496.84016	14301.8375
1500.22882	15306.0375
1503.61521	16497.1375
1506.99934	17636.9375
1510.38121	18305.1375
1513.76081	18003.9375
1517.13816	16871.4375
1520.51324	15415.8375
1523.88607	14229.3375
1527.25665	13556.1375
1530.62498	13177.9375
1533.99105	12981.7375
1537.35488	12900.6375
1540.71647	12803.8375
1544.07581	12710.2375
1547.4329	12609.0375
1550.78776	12489.7375
1554.14038	12347.7375
1557.49077	12303.2375
1560.83892	12403.2375
1564.18484	12589.9375
1567.52853	12823.6375
1570.86999	12959.2375
1574.20922	12993.2375
1577.54624	12834.1375
1580.88103	12394.0375
1584.2136	11964.1375
1587.54395	11774.9375
1590.87208	11958.2375
1594.19801	12495.0375
1597.52172	13177.1375
1600.84321	13430.1375
1604.16251	13339.1375
1607.47959	13017.0375
1610.79447	12486.6375
1614.10715	11835.1375
1617.41763	11200.1375
1620.7259	10803.5375
1624.03199	10548.5375
1627.33587	10536.7375
1630.63757	10702.9375
1633.93707	11113.7375
1637.23439	11815.4375
1640.52951	12755.6375
1643.82246	13899.8375
1647.11321	14947.4375
1650.40179	15228.0375
1653.68819	14390.5375
1656.97241	12846.2375
1660.25446	11420.7375
1663.53433	10457.4375
1666.81203	9840.1375
1670.08756	9514.1375
1673.36092	9317.1375
1676.63211	9162.8375
1679.90115	9057.3375
1683.16801	8956.2375
1686.43272	8887.3375
1689.69527	8832.0375
1692.95567	8776.5375
1696.2139	8765.7375
1699.46999	8736.9375
1702.72392	8742.7375
1705.97571	8718.5375
1709.22535	8720.2375
1712.47284	8724.5375
1715.71819	8745.5375
1718.96139	8718.3375
1722.20246	8697.2375
1725.44139	8660.9375
1728.67818	8622.8375
1731.91284	8572.8375
1735.14537	8547.8375
1738.37576	8513.0375
1741.60403	8485.4375
1744.83017	8465.9375
1748.05418	8450.3375
1751.27607	8440.1375
1754.49584	8423.3375
1757.71349	8416.2375
1760.92903	8408.1375
1764.14244	8396.5375
1767.35375	8363.9375
1770.56294	8348.7375
1773.77002	8342.9375
1776.97499	8317.1375
1780.17785	8292.1375
1783.37861	8274.6375
1786.57727	8269.7375
1789.77382	8277.1375
1792.96828	8244.1375
1796.16064	8251.6375
1799.3509	8226.7375
1802.53907	8234.9375
1805.72514	8197.2375
1808.90913	8180.4375
1812.09102	8170.1375
1815.27083	8145.4375
1818.44856	8126.8375
1821.6242	8103.8375
1824.79776	8085.7375
1827.96924	8072.7375
1831.13864	8064.8375
1834.30597	8069.8375
1837.47122	8035.8375
1840.6344	8006.2375
1843.7955	8036.0375
1846.95454	8022.9375
1850.11151	8030.4375
1853.26642	8003.7375
1856.41926	7994.4375
1859.57004	8028.4375
1862.71876	8019.4375
1865.86542	8024.1375
1869.01003	8017.3375
1872.15258	7973.8375
1875.29308	7982.1375
1878.43152	7958.7375
1881.56792	7954.2375
1884.70227	7935.6375
1887.83457	7915.0375
1890.96482	7898.6375
1894.09304	7885.5375
1897.21921	7876.4375
1900.34335	7868.5375
1903.46544	7876.8375
1906.58551	7882.0375
1909.70353	7862.4375
1912.81953	7871.3375
1915.93349	7840.2375
1919.04543	7827.6375
1922.15534	7810.1375
1925.26322	7807.6375
1928.36908	7774.3375
1931.47292	7755.9375
1934.57473	7742.1375
1937.67453	7724.7375
1940.77232	7702.8375
1943.86808	7696.5375
1946.96184	7670.3375
1950.05358	7664.0375
1953.14331	7628.2375
1956.23103	7617.6375
1959.31675	7585.6375
1962.40046	7555.4375
1965.48217	7549.2375
1968.56188	7523.0375
1971.63959	7500.5375
1974.7153	7475.6375
1977.78901	7469.6375
1980.86073	7460.1375
1983.93046	7433.9375
1986.99819	7374.1375
1990.06394	7382.8375
1993.1277	7347.2375
1996.18947	7318.8375
1999.24925	7304.7375
2002.30706	7300.3375
2005.36288	7248.9375
2008.41672	7230.7375
2011.46859	7199.3375
2014.51848	7166.4375
2017.56639	7155.3375
2020.61233	7140.9375
2023.6563	7134.2375
2026.6983	7126.3375
2029.73833	7083.4375
2032.7764	7069.9375
2035.8125	7071.9375
2038.84664	7052.4375
2041.87881	7041.5375
2044.90903	7018.1375
2047.93729	7006.9375
2050.96359	7026.9375
2053.98794	6969.0375
2057.01034	6967.3375
2060.03078	6970.0375
2063.04927	6963.8375
2066.06582	6962.7375
2069.08042	6941.3375
2072.09307	6953.5375
2075.10378	6941.2375
2078.11255	6918.2375
2081.11938	6924.8375
2084.12426	6905.6375
2087.12722	6903.2375
2090.12824	6922.7375
2093.12732	6921.3375
2096.12447	6922.3375
2099.11969	6920.2375
2102.11299	6917.8375
2105.10435	6928.1375
2108.09379	6921.9375
2111.08131	6914.5375
2114.0669	6922.0375
2117.05057	6948.1375
2120.03233	6941.3375
2123.01216	6931.4375
2125.99008	6931.5375
2128.96609	6936.5375
2131.94018	6960.4375
2134.91236	6955.4375
2137.88263	6932.8375
2140.851	6935.3375
2143.81746	6951.1375
2146.78201	6955.8375
2149.74466	6943.8375
2152.7054	6936.4375
2155.66425	6954.1375
2158.6212	6926.8375
2161.57625	6907.1375
2164.52941	6932.8375
2167.48067	6918.7375
2170.43004	6937.4375
2173.37752	6915.0375
2176.32311	6914.0375
2179.26681	6918.4375
2182.20863	6921.5375
2185.14856	6923.2375
2188.08661	6912.9375
2191.02278	6925.0375
2193.95707	6925.1375
2196.88948	6913.5375
2199.82001	6906.0375
2202.74867	6880.3375
2205.67545	6892.6375
2208.60037	6889.1375
2211.52341	6886.4375
2214.44458	6880.5375
2217.36388	6848.1375
2220.28132	6836.0375
2223.1969	6807.7375
2226.11061	6804.8375
2229.02246	6776.1375
2231.93245	6790.4375
2234.84058	6769.8375
2237.74686	6753.6375
2240.65128	6727.6375
2243.55385	6720.3375
2246.45456	6728.5375
2249.35343	6707.4375
2252.25044	6712.3375
2255.14561	6690.3375
2258.03893	6696.3375
2260.93041	6687.9375
2263.82004	6679.7375
2266.70783	6662.1375
2269.59378	6628.1375
2272.4779	6613.3375
2275.36017	6603.9375
2278.24061	6582.3375
2281.11922	6580.2375
2283.996	6557.3375
2286.87094	6547.9375
2289.74405	6549.1375
2292.61534	6560.0375
2295.4848	6531.0375
2298.35243	6523.8375
2301.21824	6510.6375
2304.08223	6508.7375
2306.94439	6496.3375
2309.80474	6510.5375
2312.66327	6507.3375
2315.51999	6495.9375
2318.37489	6495.8375
2321.22797	6492.5375
2324.07925	6488.4375
2326.92871	6481.9375
2329.77637	6461.5375
2332.62222	6449.3375
2335.46626	6432.4375
2338.3085	6434.8375
2341.14893	6431.8375
2343.98756	6450.3375
2346.8244	6462.0375
2349.65943	6447.6375
2352.49267	6437.4375
2355.32411	6428.4375
2358.15376	6404.6375
2360.98161	6419.1375
2363.80768	6408.8375
2366.63195	6404.2375
2369.45444	6391.7375
2372.27514	6388.2375
2375.09405	6377.1375
2377.91118	6373.2375
2380.72652	6327.7375
2383.54009	6324.0375
2386.35187	6303.2375
2389.16188	6318.8375
2391.97011	6278.3375
2394.77657	6261.3375
2397.58125	6235.4375
2400.38416	6241.9375
2403.18529	6246.8375
2405.98466	6232.0375
2408.78226	6220.1375
2411.57809	6209.6375
2414.37216	6175.9375
2417.16446	6182.4375
2419.955	6187.3375
2422.74378	6165.1375
2425.5308	6178.0375
2428.31606	6173.3375
2431.09956	6163.1375
2433.88131	6130.6375
2436.6613	6135.3375
2439.43954	6133.1375
2442.21603	6139.0375
2444.99077	6142.5375
2447.76377	6149.0375
2450.53501	6106.6375
2453.30451	6125.6375
2456.07226	6126.1375
2458.83827	6098.7375
2461.60254	6098.8375
2464.36507	6091.9375
2467.12586	6070.2375
2469.88492	6068.4375
2472.64224	6081.4375
2475.39782	6078.6375
2478.15167	6066.1375
2480.90379	6055.5375
2483.65417	6049.3375
2486.40283	6052.4375
2489.14976	6053.9375
2491.89497	6056.2375
2494.63845	6054.0375
2497.3802	6059.8375
2500.12024	6038.5375
2502.85855	6028.8375
2505.59514	6034.4375
2508.33002	6031.8375
2511.06318	5997.5375
2513.79462	5996.4375
2516.52435	5983.2375
2519.25237	5982.7375
2521.97867	5958.6375
2524.70327	5958.2375
2527.42616	5953.7375
2530.14734	5928.7375
2532.86681	5927.7375
2535.58458	5944.7375
2538.30065	5956.5375
2541.01501	5956.0375
2543.72768	5922.1375
2546.43864	5904.1375
2549.14791	5911.2375
2551.85548	5917.2375
2554.56136	5901.3375
2557.26554	5884.9375
2559.96803	5894.8375
2562.66883	5862.8375
2565.36794	5852.8375
2568.06536	5842.9375
2570.7611	5816.6375
2573.45514	5815.6375
2576.14751	5798.5375
2578.83819	5786.8375
2581.52719	5778.6375
2584.21451	5777.7375
2586.90015	5797.4375
2589.58411	5762.1375
2592.2664	5763.3375
2594.94701	5748.0375
2597.62594	5747.5375
2600.30321	5742.5375
2602.9788	5721.1375
2605.65273	5731.5375
2608.32498	5727.6375
2610.99557	5704.6375
2613.66449	5716.3375
2616.33175	5696.7375
2618.99734	5717.0375
2621.66128	5696.7375
2624.32355	5674.9375
2626.98416	5679.1375
2629.64311	5660.2375
2632.30041	5680.4375
2634.95605	5661.9375
2637.61004	5660.7375
2640.26238	5632.1375
2642.91306	5629.5375
2645.56209	5628.7375
2648.20948	5618.5375
2650.85521	5614.8375
2653.4993	5623.2375
2656.14175	5616.0375
2658.78255	5610.2375
2661.42171	5585.3375
2664.05923	5601.2375
2666.6951	5621.9375
2669.32934	5622.2375
2671.96194	5622.2375
2674.59291	5612.0375
2677.22224	5615.5375
2679.84993	5636.2375
2682.476	5604.3375
2685.10043	5611.6375
2687.72324	5609.6375
2690.34441	5609.6375
2692.96396	5598.9375
2695.58188	5588.1375
2698.19818	5570.1375
2700.81285	5576.1375
2703.4259	5570.5375
2706.03733	5556.3375
2708.64714	5549.1375
2711.25533	5557.1375
2713.86191	5545.1375
2716.46687	5588.7375
2719.07021	5555.4375
2721.67194	5563.3375
2724.27206	5550.2375
2726.87057	5562.8375
2729.46747	5560.0375
2732.06276	5563.2375
2734.65644	5573.6375
2737.24852	5545.7375
2739.83899	5522.8375
2742.42786	5534.6375
2745.01513	5502.4375
2747.60079	5503.8375
2750.18486	5495.3375
2752.76733	5490.6375
2755.3482	5482.0375
2757.92747	5468.4375
2760.50515	5470.2375
2763.08123	5443.3375
2765.65573	5452.4375
2768.22863	5444.6375
2770.79994	5436.7375
2773.36967	5447.7375
2775.9378	5422.0375
2778.50435	5404.2375
2781.06932	5418.2375
2783.6327	5423.0375
2786.1945	5422.9375
2788.75471	5405.9375
2791.31335	5383.4375
2793.87041	5373.9375
2796.42589	5353.5375
2798.97979	5341.0375
2801.53212	5326.1375
2804.08288	5317.3375
2806.63206	5308.4375
2809.17967	5306.2375
2811.72571	5298.6375
2814.27018	5299.3375
2816.81308	5285.9375
2819.35442	5268.0375
2821.89419	5247.8375
2824.43239	5251.3375
2826.96904	5228.9375
2829.50412	5240.1375
2832.03763	5216.2375
2834.56959	5212.2375
2837.1	5195.9375
2839.62884	5179.8375
2842.15613	5191.1375
2844.68186	5202.4375
2847.20604	5181.5375
2849.72867	5169.4375
2852.24974	5173.7375
2854.76927	5144.3375
2857.28724	5125.4375
2859.80367	5124.3375
2862.31855	5123.3375
2864.83189	5140.1375
2867.34368	5120.2375
2869.85393	5123.1375
2872.36264	5121.7375
2874.8698	5119.8375
2877.37543	5116.6375
2879.87952	5113.3375
2882.38207	5101.3375
2884.88308	5085.9375
2887.38256	5092.4375
2889.88051	5088.8375
2892.37692	5080.1375
2894.8718	5077.8375
2897.36515	5061.6375
2899.85698	5075.6375
2902.34727	5078.6375
2904.83604	5098.0375
2907.32328	5095.5375
2909.809	5114.6375
2912.29319	5106.5375
2914.77587	5108.2375
2917.25702	5105.0375
2919.73665	5107.4375
2922.21476	5102.0375
2924.69136	5090.7375
2927.16644	5084.1375
2929.64	5067.9375
2932.11205	5054.3375
2934.58258	5013.0375
2937.05161	5031.3375
2939.51912	5036.5375
2941.98513	5034.1375
2944.44962	5016.6375
2946.91261	5004.3375
2949.37409	5021.0375
2951.83407	5004.8375
2954.29254	5014.6375
2956.74951	5006.9375
2959.20498	5005.6375
2961.65895	4996.0375
2964.11142	4997.6375
2966.56239	4992.8375
2969.01186	4991.6375
2971.45984	4992.4375
2973.90632	4978.1375
2976.35131	4960.5375
2978.7948	4970.4375
2981.23681	4935.4375
2983.67732	4952.4375
2986.11635	4921.0375
2988.55388	4907.5375
2990.98993	4907.7375
2993.4245	4877.7375
2995.85758	4852.3375
2998.28917	4860.5375
3000.71928	4838.8375
3003.14791	4851.9375
3005.57506	4832.3375
3008.00073	4805.1375
3010.42493	4801.0375
3012.84764	4806.3375
3015.26888	4784.1375
3017.68865	4786.1375
3020.10694	4772.7375
3022.52376	4750.1375
3024.9391	4738.8375
3027.35298	4719.8375
3029.76539	4723.1375
3032.17632	4709.3375
3034.5858	4706.9375
3036.9938	4704.7375
3039.40034	4686.8375
3041.80542	4669.0375
3044.20903	4672.7375
3046.61118	4662.0375
3049.01187	4633.0375
3051.4111	4630.8375
3053.80888	4628.0375
3056.20519	4614.4375
3058.60005	4617.4375
3060.99345	4609.2375
3063.3854	4574.9375
3065.7759	4569.3375
3068.16494	4572.9375
3070.55254	4554.9375
3072.93868	4523.3375
3075.32338	4524.0375
3077.70662	4521.8375
3080.08842	4499.1375
3082.46878	4503.6375
3084.84769	4486.2375
3087.22515	4470.6375
3089.60118	4478.9375
3091.97576	4461.2375
3094.3489	4458.8375
3096.72061	4461.8375
3099.09087	4446.7375
3101.4597	4464.0375
3103.82709	4451.7375
3106.19305	4444.0375
