Data from AgNPs_UA_10uM_CRN_500uM_SU_RamanShift__104__13-22-40-274.txt Node

Date: Thu Aug 04 13:22:40 BST 2022
User: TCL
Spectrometer: QEP01345
Trigger mode: 4
Integration Time (sec): 1.000000E0
Scans to average: 10
Electric dark correction enabled: true
Nonlinearity correction enabled: false
Boxcar width: 0
XAxis mode: Raman Shifts
Number of Pixels in Spectrum: 1044
>>>>>Begin Spectral Data<<<<<
46.04893	0.1375
50.45542	-0.3625
54.85868	1.0375
59.25871	-0.0625
63.6555	22.4375
68.04907	22.1375
72.43941	22.9375
76.82654	23.7375
81.21044	25.8375
85.59113	25.0375
89.96862	27.3375
94.34289	26.4375
98.71396	27.8375
103.08183	28.8375
107.4465	29.6375
111.80798	29.8375
116.16626	30.7375
120.52136	32.9375
124.87327	36.5375
129.222	34.5375
133.56755	37.9375
137.90993	42.2375
142.24913	48.3375
146.58517	53.8375
150.91804	64.0375
155.24774	78.7375
159.57429	99.0375
163.89768	128.5375
168.21792	171.7375
172.53501	238.4375
176.84895	331.3375
181.15975	475.9375
185.46741	665.7375
189.77193	924.8375
194.07331	1250.1375
198.37157	1622.1375
202.6667	1997.0375
206.9587	2378.0375
211.24758	2761.3375
215.53334	3154.4375
219.81599	3576.9375
224.09553	4034.9375
228.37195	4536.3375
232.64527	5092.5375
236.91549	5629.1375
241.18261	6134.5375
245.44663	6553.5375
249.70755	6845.3375
253.96539	7153.0375
258.22014	7419.2375
262.4718	7615.6375
266.72039	7765.6375
270.96589	7815.8375
275.20832	7768.5375
279.44768	7669.1375
283.68397	7560.0375
287.91719	7492.8375
292.14735	7488.8375
296.37445	7589.1375
300.59849	7809.6375
304.81948	8060.3375
309.03742	8314.6375
313.25231	8453.1375
317.46415	8369.1375
321.67296	8060.6375
325.87872	7790.3375
330.08145	7629.0375
334.28114	7620.4375
338.47781	7692.6375
342.67145	7818.5375
346.86207	8034.4375
351.04966	8352.8375
355.23424	8670.4375
359.4158	8890.4375
363.59435	9027.2375
367.76989	9021.3375
371.94243	9052.6375
376.11196	9046.7375
380.27849	9019.0375
384.44203	9053.0375
388.60257	9088.1375
392.76012	9184.2375
396.91468	9306.6375
401.06626	9431.7375
405.21485	9497.8375
409.36047	9380.0375
413.50311	9124.2375
417.64277	8862.9375
421.77947	8706.8375
425.9132	8604.8375
430.04396	8603.8375
434.17176	8654.4375
438.2966	8767.2375
442.41849	8901.0375
446.53742	9134.4375
450.6534	9304.8375
454.76644	9454.2375
458.87653	9480.7375
462.98368	9482.1375
467.08789	9390.0375
471.18916	9259.2375
475.2875	9090.8375
479.38291	8911.3375
483.4754	8809.9375
487.56496	8751.1375
491.6516	8711.9375
495.73531	8705.9375
499.81612	8743.0375
503.89401	8836.7375
507.96899	8879.9375
512.04106	8896.1375
516.11023	8977.2375
520.1765	9010.0375
524.23987	9049.5375
528.30034	9028.1375
532.35792	9024.6375
536.41261	8933.1375
540.46441	8830.7375
544.51333	8802.1375
548.55936	8873.7375
552.60252	8971.3375
556.64279	9143.3375
560.6802	9256.3375
564.71473	9346.1375
568.7464	9463.6375
572.7752	9425.2375
576.80114	9209.7375
580.82422	9022.6375
584.84444	8978.4375
588.86181	9004.9375
592.87633	9096.1375
596.888	9253.2375
600.89682	9657.0375
604.9028	10739.3375
608.90594	12908.3375
612.90624	14981.4375
616.90371	13802.2375
620.89834	10854.8375
624.89015	9677.5375
628.87913	9605.3375
632.86528	9748.5375
636.84862	9783.0375
640.82913	9564.1375
644.80683	9229.7375
648.78172	9023.9375
652.75379	9044.7375
656.72306	9325.2375
660.68952	9590.4375
664.65319	9546.0375
668.61405	9408.4375
672.57211	9473.3375
676.52738	9468.4375
680.47986	9295.0375
684.42955	9094.0375
688.37646	9053.2375
692.32058	9135.3375
696.26192	9288.7375
700.20048	9464.7375
704.13626	9500.5375
708.06928	9402.3375
711.99952	9281.9375
715.927	9282.7375
719.85171	9346.2375
723.77365	9351.4375
727.69284	9265.5375
731.60928	9222.4375
735.52295	9185.2375
739.43388	9253.8375
743.34206	9299.4375
747.24749	9292.1375
751.15017	9302.0375
755.05012	9402.1375
758.94733	9729.9375
762.8418	10485.1375
766.73354	11642.0375
770.62254	12584.3375
774.50882	12794.8375
778.39237	12339.8375
782.27321	11547.2375
786.15132	10593.4375
790.02671	9944.9375
793.89938	9615.0375
797.76935	9418.9375
801.6366	9335.4375
805.50115	9272.0375
809.36299	9256.9375
813.22213	9225.3375
817.07857	9229.8375
820.93231	9215.0375
824.78336	9231.5375
828.63172	9252.2375
832.47738	9266.8375
836.32036	9271.3375
840.16066	9260.8375
843.99827	9259.8375
847.8332	9250.3375
851.66546	9246.5375
855.49504	9245.2375
859.32195	9270.9375
863.1462	9276.4375
866.96777	9242.8375
870.78668	9275.8375
874.60293	9302.6375
878.41652	9342.0375
882.22745	9420.8375
886.03573	9463.3375
889.84136	9460.8375
893.64433	9421.7375
897.44466	9392.3375
901.24235	9352.7375
905.0374	9345.2375
908.8298	9288.5375
912.61957	9297.0375
916.40671	9317.9375
920.19121	9347.9375
923.97308	9422.6375
927.75233	9496.3375
931.52895	9582.6375
935.30295	9537.9375
939.07433	9362.2375
942.84309	9260.6375
946.60924	9230.1375
950.37278	9221.1375
954.13371	9208.3375
957.89203	9185.3375
961.64774	9193.8375
965.40086	9180.1375
969.15137	9152.4375
972.89929	9151.9375
976.64461	9169.0375
980.38733	9168.9375
984.12747	9209.0375
987.86502	9229.9375
991.59999	9308.6375
995.33237	9400.7375
999.06217	9533.9375
1002.78939	9713.1375
1006.51404	9888.8375
1010.23611	10009.6375
1013.95561	10125.2375
1017.67255	10180.1375
1021.38692	10137.2375
1025.09872	10121.0375
1028.80796	10073.3375
1032.51465	10145.6375
1036.21877	10214.9375
1039.92035	10223.0375
1043.61937	10208.0375
1047.31584	10140.9375
1051.00976	10108.1375
1054.70114	10060.8375
1058.38998	10111.1375
1062.07627	10137.9375
1065.76003	10205.2375
1069.44126	10288.6375
1073.11995	10486.4375
1076.79611	10690.2375
1080.46974	10784.3375
1084.14085	10909.6375
1087.80943	10996.8375
1091.47549	11035.7375
1095.13903	11018.5375
1098.80005	10990.4375
1102.45857	11010.6375
1106.11456	10983.9375
1109.76805	10867.4375
1113.41903	10859.8375
1117.06751	10968.0375
1120.71348	11145.7375
1124.35696	11371.2375
1127.99793	11506.6375
1131.63641	11342.8375
1135.2724	11026.3375
1138.90589	10759.2375
1142.5369	10611.3375
1146.16542	10484.9375
1149.79145	10420.8375
1153.415	10333.4375
1157.03607	10288.7375
1160.65467	10376.7375
1164.27079	10591.8375
1167.88443	10922.8375
1171.49561	11428.9375
1175.10432	12154.4375
1178.71056	13125.4375
1182.31434	13958.6375
1185.91565	14360.1375
1189.51451	14336.4375
1193.11091	14069.8375
1196.70485	13702.7375
1200.29634	13318.4375
1203.88538	12896.5375
1207.47197	12441.1375
1211.05612	11982.3375
1214.63782	11585.6375
1218.21708	11370.8375
1221.79391	11220.4375
1225.36829	11191.4375
1228.94024	11142.6375
1232.50976	11120.9375
1236.07685	11116.8375
1239.6415	11113.4375
1243.20374	11170.2375
1246.76355	11256.1375
1250.32093	11387.6375
1253.8759	11560.0375
1257.42845	11869.1375
1260.97859	12236.0375
1264.52631	12547.3375
1268.07163	12764.1375
1271.61453	12933.9375
1275.15503	13019.1375
1278.69312	13044.1375
1282.22882	13112.9375
1285.76211	13259.4375
1289.29301	13427.1375
1292.82151	13704.3375
1296.34761	13971.4375
1299.87133	14425.9375
1303.39266	15228.0375
1306.9116	16403.8375
1310.42815	17537.4375
1313.94233	18083.0375
1317.45412	17531.6375
1320.96354	16629.5375
1324.47058	15682.5375
1327.97525	14898.2375
1331.47754	14412.2375
1334.97747	14305.8375
1338.47502	14448.7375
1341.97022	14934.3375
1345.46305	15658.2375
1348.95352	16718.8375
1352.44163	17827.4375
1355.92738	19037.0375
1359.41078	20392.3375
1362.89183	21347.9375
1366.37053	20314.3375
1369.84688	17689.4375
1373.32088	15304.7375
1376.79254	13915.8375
1380.26186	13302.7375
1383.72883	12933.6375
1387.19347	12571.2375
1390.65578	12228.0375
1394.11575	11908.0375
1397.57339	11662.5375
1401.0287	11509.8375
1404.48168	11538.9375
1407.93234	11637.8375
1411.38068	11805.5375
1414.82669	12010.4375
1418.27039	12050.4375
1421.71177	11995.0375
1425.15083	11933.5375
1428.58758	11902.6375
1432.02203	11998.1375
1435.45416	12063.2375
1438.88399	12098.0375
1442.31151	12038.2375
1445.73673	11998.3375
1449.15965	11997.0375
1452.58027	11937.3375
1455.9986	11865.0375
1459.41463	11860.9375
1462.82837	11928.4375
1466.23982	12108.4375
1469.64898	12328.1375
1473.05586	12491.3375
1476.46045	12639.2375
1479.86276	12728.4375
1483.26279	12889.9375
1486.66054	13106.8375
1490.05602	13466.9375
1493.44922	13996.1375
1496.84016	14823.2375
1500.22882	16042.0375
1503.61521	17442.9375
1506.99934	18841.2375
1510.38121	19660.9375
1513.76081	19340.8375
1517.13816	17988.3375
1520.51324	16221.1375
1523.88607	14770.6375
1527.25665	13917.5375
1530.62498	13468.0375
1533.99105	13252.5375
1537.35488	13127.8375
1540.71647	13016.2375
1544.07581	12942.8375
1547.4329	12849.0375
1550.78776	12745.1375
1554.14038	12612.3375
1557.49077	12597.4375
1560.83892	12725.8375
1564.18484	12974.7375
1567.52853	13263.7375
1570.86999	13448.7375
1574.20922	13465.7375
1577.54624	13275.1375
1580.88103	12783.9375
1584.2136	12267.9375
1587.54395	12002.9375
1590.87208	12121.3375
1594.19801	12551.0375
1597.52172	13120.6375
1600.84321	13381.9375
1604.16251	13293.5375
1607.47959	13045.2375
1610.79447	12600.7375
1614.10715	12025.0375
1617.41763	11404.2375
1620.7259	10954.3375
1624.03199	10732.3375
1627.33587	10660.4375
1630.63757	10832.1375
1633.93707	11227.5375
1637.23439	11947.8375
1640.52951	12978.5375
1643.82246	14314.1375
1647.11321	15544.1375
1650.40179	16005.3375
1653.68819	15130.3375
1656.97241	13428.6375
1660.25446	11827.6375
1663.53433	10716.9375
1666.81203	10076.8375
1670.08756	9710.6375
1673.36092	9471.0375
1676.63211	9325.3375
1679.90115	9194.8375
1683.16801	9106.4375
1686.43272	9018.1375
1689.69527	8950.3375
1692.95567	8906.2375
1696.2139	8908.2375
1699.46999	8867.1375
1702.72392	8839.1375
1705.97571	8829.8375
1709.22535	8839.4375
1712.47284	8827.0375
1715.71819	8847.6375
1718.96139	8835.4375
1722.20246	8808.0375
1725.44139	8792.0375
1728.67818	8745.5375
1731.91284	8699.7375
1735.14537	8639.0375
1738.37576	8600.6375
1741.60403	8595.7375
1744.83017	8576.9375
1748.05418	8566.9375
1751.27607	8537.0375
1754.49584	8515.0375
1757.71349	8493.1375
1760.92903	8503.5375
1764.14244	8479.1375
1767.35375	8457.1375
1770.56294	8449.2375
1773.77002	8431.0375
1776.97499	8396.3375
1780.17785	8367.2375
1783.37861	8352.8375
1786.57727	8351.1375
1789.77382	8347.5375
1792.96828	8329.6375
1796.16064	8325.6375
1799.3509	8306.9375
1802.53907	8304.5375
1805.72514	8266.6375
1808.90913	8249.0375
1812.09102	8239.1375
1815.27083	8219.6375
1818.44856	8199.1375
1821.6242	8183.7375
1824.79776	8176.7375
1827.96924	8153.8375
1831.13864	8135.8375
1834.30597	8125.1375
1837.47122	8104.8375
1840.6344	8083.0375
1843.7955	8087.1375
1846.95454	8073.7375
1850.11151	8074.8375
1853.26642	8068.7375
1856.41926	8067.0375
1859.57004	8082.3375
1862.71876	8072.4375
1865.86542	8070.3375
1869.01003	8073.6375
1872.15258	8033.5375
1875.29308	8027.7375
1878.43152	7998.8375
1881.56792	8003.3375
1884.70227	7984.4375
1887.83457	7966.8375
1890.96482	7968.9375
1894.09304	7941.4375
1897.21921	7944.5375
1900.34335	7923.1375
1903.46544	7935.7375
1906.58551	7947.0375
1909.70353	7896.9375
1912.81953	7902.3375
1915.93349	7908.4375
1919.04543	7853.7375
1922.15534	7839.1375
1925.26322	7834.9375
1928.36908	7828.2375
1931.47292	7809.7375
1934.57473	7784.2375
1937.67453	7768.6375
1940.77232	7747.5375
1943.86808	7723.0375
1946.96184	7694.1375
1950.05358	7692.1375
1953.14331	7659.0375
1956.23103	7666.1375
1959.31675	7630.8375
1962.40046	7613.1375
1965.48217	7592.1375
1968.56188	7517.1375
1971.63959	7527.8375
1974.7153	7529.3375
1977.78901	7493.5375
1980.86073	7512.9375
1983.93046	7462.8375
1986.99819	7426.5375
1990.06394	7426.3375
1993.1277	7368.9375
1996.18947	7356.1375
1999.24925	7346.2375
2002.30706	7309.5375
2005.36288	7269.5375
2008.41672	7254.5375
2011.46859	7230.2375
2014.51848	7215.3375
2017.56639	7195.3375
2020.61233	7185.8375
2023.6563	7159.7375
2026.6983	7135.1375
2029.73833	7119.6375
2032.7764	7105.0375
2035.8125	7074.9375
2038.84664	7083.8375
2041.87881	7052.8375
2044.90903	7056.0375
2047.93729	7028.0375
2050.96359	7001.7375
2053.98794	7000.2375
2057.01034	6985.0375
2060.03078	7015.3375
2063.04927	6964.6375
2066.06582	6968.2375
2069.08042	6971.3375
2072.09307	6954.9375
2075.10378	6935.3375
2078.11255	6935.6375
2081.11938	6938.2375
2084.12426	6922.0375
2087.12722	6925.2375
2090.12824	6922.4375
2093.12732	6918.2375
2096.12447	6932.2375
2099.11969	6943.4375
2102.11299	6938.2375
2105.10435	6913.4375
2108.09379	6919.0375
2111.08131	6911.6375
2114.0669	6926.1375
2117.05057	6953.1375
2120.03233	6957.9375
2123.01216	6953.2375
2125.99008	6953.3375
2128.96609	6964.1375
2131.94018	6992.2375
2134.91236	6969.1375
2137.88263	6964.7375
2140.851	6943.3375
2143.81746	6957.6375
2146.78201	6946.0375
2149.74466	6944.7375
2152.7054	6965.7375
2155.66425	6935.0375
2158.6212	6940.5375
2161.57625	6908.9375
2164.52941	6928.8375
2167.48067	6925.3375
2170.43004	6928.7375
2173.37752	6890.8375
2176.32311	6911.0375
2179.26681	6922.5375
2182.20863	6924.4375
2185.14856	6935.1375
2188.08661	6924.1375
2191.02278	6920.4375
2193.95707	6913.3375
2196.88948	6896.9375
2199.82001	6889.8375
2202.74867	6899.7375
2205.67545	6898.2375
2208.60037	6891.6375
2211.52341	6866.5375
2214.44458	6840.6375
2217.36388	6827.1375
2220.28132	6830.4375
2223.1969	6802.1375
2226.11061	6763.2375
2229.02246	6750.3375
2231.93245	6759.9375
2234.84058	6745.3375
2237.74686	6742.5375
2240.65128	6708.7375
2243.55385	6710.1375
2246.45456	6709.0375
2249.35343	6688.0375
2252.25044	6679.0375
2255.14561	6676.4375
2258.03893	6668.4375
2260.93041	6676.4375
2263.82004	6668.3375
2266.70783	6642.7375
2269.59378	6612.2375
2272.4779	6593.0375
2275.36017	6594.3375
2278.24061	6573.5375
2281.11922	6555.6375
2283.996	6537.3375
2286.87094	6526.0375
2289.74405	6538.9375
2292.61534	6531.2375
2295.4848	6494.0375
2298.35243	6479.2375
2301.21824	6484.4375
2304.08223	6476.2375
2306.94439	6481.9375
2309.80474	6469.0375
2312.66327	6468.5375
2315.51999	6465.5375
2318.37489	6467.7375
2321.22797	6441.4375
2324.07925	6436.3375
2326.92871	6424.1375
2329.77637	6418.8375
2332.62222	6415.3375
2335.46626	6397.1375
2338.3085	6404.0375
2341.14893	6386.0375
2343.98756	6385.4375
2346.8244	6386.7375
2349.65943	6370.7375
2352.49267	6368.2375
2355.32411	6359.5375
2358.15376	6359.1375
2360.98161	6365.8375
2363.80768	6366.7375
2366.63195	6357.8375
2369.45444	6341.4375
2372.27514	6330.6375
2375.09405	6335.8375
2377.91118	6305.0375
2380.72652	6295.3375
2383.54009	6283.1375
2386.35187	6276.1375
2389.16188	6246.8375
2391.97011	6247.7375
2394.77657	6216.6375
2397.58125	6195.0375
2400.38416	6203.2375
2403.18529	6200.6375
2405.98466	6196.0375
2408.78226	6156.4375
2411.57809	6148.3375
2414.37216	6149.9375
2417.16446	6136.2375
2419.955	6131.9375
2422.74378	6116.8375
2425.5308	6128.7375
2428.31606	6126.0375
2431.09956	6111.7375
2433.88131	6098.2375
2436.6613	6117.1375
2439.43954	6093.7375
2442.21603	6092.8375
2444.99077	6098.4375
2447.76377	6081.7375
2450.53501	6076.0375
2453.30451	6087.2375
2456.07226	6075.4375
2458.83827	6051.7375
2461.60254	6025.0375
2464.36507	6044.2375
2467.12586	6019.2375
2469.88492	6033.8375
2472.64224	6043.3375
2475.39782	6024.6375
2478.15167	6025.7375
2480.90379	6000.2375
2483.65417	5998.0375
2486.40283	6006.4375
2489.14976	6011.9375
2491.89497	6025.0375
2494.63845	6011.9375
2497.3802	5998.5375
2500.12024	5987.3375
2502.85855	5968.9375
2505.59514	5970.1375
2508.33002	5953.1375
2511.06318	5944.1375
2513.79462	5925.2375
2516.52435	5922.9375
2519.25237	5914.7375
2521.97867	5897.0375
2524.70327	5894.2375
2527.42616	5891.4375
2530.14734	5887.6375
2532.86681	5866.4375
2535.58458	5881.0375
2538.30065	5877.8375
2541.01501	5875.4375
2543.72768	5846.7375
2546.43864	5845.4375
2549.14791	5836.3375
2551.85548	5836.8375
2554.56136	5832.3375
2557.26554	5823.4375
2559.96803	5812.4375
2562.66883	5796.9375
2565.36794	5776.3375
2568.06536	5768.5375
2570.7611	5757.3375
2573.45514	5730.1375
2576.14751	5739.8375
2578.83819	5727.5375
2581.52719	5711.4375
2584.21451	5709.7375
2586.90015	5715.5375
2589.58411	5687.1375
2592.2664	5690.1375
2594.94701	5679.0375
2597.62594	5675.7375
2600.30321	5657.1375
2602.9788	5654.0375
2605.65273	5660.1375
2608.32498	5649.8375
2610.99557	5611.4375
2613.66449	5640.4375
2616.33175	5629.4375
2618.99734	5646.5375
2621.66128	5607.8375
2624.32355	5608.8375
2626.98416	5593.6375
2629.64311	5576.2375
2632.30041	5596.6375
2634.95605	5565.1375
2637.61004	5559.2375
2640.26238	5540.4375
2642.91306	5536.3375
2645.56209	5547.7375
2648.20948	5536.0375
2650.85521	5522.2375
2653.4993	5520.4375
2656.14175	5521.2375
2658.78255	5507.3375
2661.42171	5500.5375
2664.05923	5516.6375
2666.6951	5529.7375
2669.32934	5540.2375
2671.96194	5550.2375
2674.59291	5537.2375
2677.22224	5538.7375
2679.84993	5525.3375
2682.476	5522.9375
2685.10043	5527.6375
2687.72324	5524.3375
2690.34441	5530.7375
2692.96396	5510.8375
2695.58188	5516.7375
2698.19818	5504.6375
2700.81285	5483.0375
2703.4259	5492.3375
2706.03733	5482.6375
2708.64714	5470.3375
2711.25533	5485.9375
2713.86191	5474.9375
2716.46687	5510.7375
2719.07021	5478.6375
2721.67194	5490.6375
2724.27206	5477.3375
2726.87057	5500.0375
2729.46747	5479.0375
2732.06276	5478.8375
2734.65644	5485.0375
2737.24852	5485.6375
2739.83899	5448.0375
2742.42786	5444.3375
2745.01513	5432.5375
2747.60079	5431.7375
2750.18486	5426.6375
2752.76733	5433.6375
2755.3482	5411.9375
2757.92747	5384.1375
2760.50515	5389.0375
2763.08123	5381.8375
2765.65573	5379.2375
2768.22863	5359.5375
2770.79994	5354.9375
2773.36967	5362.9375
2775.9378	5350.2375
2778.50435	5330.3375
2781.06932	5340.1375
2783.6327	5327.5375
2786.1945	5347.7375
2788.75471	5317.4375
2791.31335	5297.7375
2793.87041	5293.1375
2796.42589	5275.7375
2798.97979	5272.5375
2801.53212	5245.4375
2804.08288	5238.9375
2806.63206	5231.2375
2809.17967	5240.1375
2811.72571	5222.3375
2814.27018	5212.6375
2816.81308	5201.8375
2819.35442	5188.3375
2821.89419	5197.5375
2824.43239	5170.0375
2826.96904	5177.2375
2829.50412	5156.0375
2832.03763	5149.9375
2834.56959	5129.7375
2837.1	5120.9375
2839.62884	5136.8375
2842.15613	5119.5375
2844.68186	5117.9375
2847.20604	5110.0375
2849.72867	5096.3375
2852.24974	5077.0375
2854.76927	5065.4375
2857.28724	5057.4375
2859.80367	5067.3375
2862.31855	5056.6375
2864.83189	5058.9375
2867.34368	5053.5375
2869.85393	5056.8375
2872.36264	5049.5375
2874.8698	5037.4375
2877.37543	5019.9375
2879.87952	5027.5375
2882.38207	5009.4375
2884.88308	5004.0375
2887.38256	5011.1375
2889.88051	5012.3375
2892.37692	5005.6375
2894.8718	4986.8375
2897.36515	4980.9375
2899.85698	4986.5375
2902.34727	5001.2375
2904.83604	5008.3375
2907.32328	4999.9375
2909.809	5013.7375
2912.29319	4999.0375
2914.77587	5008.7375
2917.25702	5015.5375
2919.73665	5015.9375
2922.21476	5008.9375
2924.69136	5005.2375
2927.16644	4979.5375
2929.64	4985.4375
2932.11205	4956.6375
2934.58258	4959.9375
2937.05161	4941.9375
2939.51912	4959.4375
2941.98513	4957.9375
2944.44962	4929.8375
2946.91261	4933.1375
2949.37409	4941.6375
2951.83407	4947.9375
2954.29254	4939.9375
2956.74951	4910.0375
2959.20498	4922.1375
2961.65895	4914.3375
2964.11142	4923.5375
2966.56239	4905.2375
2969.01186	4896.7375
2971.45984	4917.0375
2973.90632	4896.7375
2976.35131	4875.8375
2978.7948	4882.0375
2981.23681	4869.4375
2983.67732	4867.6375
2986.11635	4854.9375
2988.55388	4832.5375
2990.98993	4816.1375
2993.4245	4810.6375
2995.85758	4791.4375
2998.28917	4783.3375
3000.71928	4770.1375
3003.14791	4752.2375
3005.57506	4765.8375
3008.00073	4732.3375
3010.42493	4731.2375
3012.84764	4729.3375
3015.26888	4718.0375
3017.68865	4721.5375
3020.10694	4707.6375
3022.52376	4675.8375
3024.9391	4672.1375
3027.35298	4645.1375
3029.76539	4626.6375
3032.17632	4634.1375
3034.5858	4639.0375
3036.9938	4643.8375
3039.40034	4613.5375
3041.80542	4592.9375
3044.20903	4573.8375
3046.61118	4574.4375
3049.01187	4579.1375
3051.4111	4552.1375
3053.80888	4554.2375
3056.20519	4535.3375
3058.60005	4529.8375
3060.99345	4520.4375
3063.3854	4517.5375
3065.7759	4495.6375
3068.16494	4488.7375
3070.55254	4473.1375
3072.93868	4439.0375
3075.32338	4432.8375
3077.70662	4427.1375
3080.08842	4430.3375
3082.46878	4415.2375
3084.84769	4399.3375
3087.22515	4394.9375
3089.60118	4390.6375
3091.97576	4388.3375
3094.3489	4388.3375
3096.72061	4386.6375
3099.09087	4391.2375
3101.4597	4362.3375
3103.82709	4388.2375
3106.19305	4363.1375
