Data from AgNPs_UA_5uM_CRN_500uM_SU_RamanShift__210__12-04-23-181.txt Node

Date: Thu Aug 04 12:04:23 BST 2022
User: TCL
Spectrometer: QEP01345
Trigger mode: 4
Integration Time (sec): 1.000000E0
Scans to average: 10
Electric dark correction enabled: true
Nonlinearity correction enabled: false
Boxcar width: 0
XAxis mode: Raman Shifts
Number of Pixels in Spectrum: 1044
>>>>>Begin Spectral Data<<<<<
46.04893	-0.025
50.45542	0.175
54.85868	-0.025
59.25871	-1.525
63.6555	-57.525
68.04907	-40.025
72.43941	-70.925
76.82654	-55.925
81.21044	-56.025
85.59113	-49.025
89.96862	-73.725
94.34289	-54.525
98.71396	-77.425
103.08183	-59.025
107.4465	-50.525
111.80798	-54.725
116.16626	-44.225
120.52136	-73.625
124.87327	-49.225
129.222	-61.225
133.56755	-48.325
137.90993	-61.525
142.24913	-50.325
146.58517	-42.725
150.91804	-41.225
155.24774	-29.025
159.57429	-10.025
163.89768	-4.725
168.21792	38.475
172.53501	59.475
176.84895	140.975
181.15975	274.075
185.46741	423.775
189.77193	608.075
194.07331	901.575
198.37157	1176.675
202.6667	1471.175
206.9587	1791.475
211.24758	2104.475
215.53334	2419.875
219.81599	2777.475
224.09553	3195.075
228.37195	3639.875
232.64527	4089.175
236.91549	4556.275
241.18261	4910.075
245.44663	5189.975
249.70755	5372.875
253.96539	5505.075
258.22014	5604.475
262.4718	5685.975
266.72039	5724.875
270.96589	5691.175
275.20832	5590.075
279.44768	5495.675
283.68397	5386.075
287.91719	5314.675
292.14735	5350.475
296.37445	5534.475
300.59849	5797.875
304.81948	6152.575
309.03742	6546.275
313.25231	6765.475
317.46415	6713.875
321.67296	6314.075
325.87872	5915.175
330.08145	5737.175
334.28114	5675.975
338.47781	5742.275
342.67145	5895.075
346.86207	6117.475
351.04966	6491.875
355.23424	6885.375
359.4158	7162.175
363.59435	7207.775
367.76989	7109.675
371.94243	6992.675
376.11196	6872.475
380.27849	6804.475
384.44203	6722.075
388.60257	6671.675
392.76012	6685.075
396.91468	6805.775
401.06626	6964.875
405.21485	6992.275
409.36047	6826.375
413.50311	6523.075
417.64277	6222.175
421.77947	6011.875
425.9132	5919.275
430.04396	5924.375
434.17176	5964.175
438.2966	6047.275
442.41849	6149.375
446.53742	6259.375
450.6534	6384.075
454.76644	6440.475
458.87653	6459.175
462.98368	6399.075
467.08789	6358.175
471.18916	6263.675
475.2875	6145.875
479.38291	6029.175
483.4754	5933.275
487.56496	5886.875
491.6516	5842.875
495.73531	5860.875
499.81612	5890.375
503.89401	5987.175
507.96899	6038.275
512.04106	6139.275
516.11023	6222.375
520.1765	6297.975
524.23987	6325.675
528.30034	6340.875
532.35792	6243.175
536.41261	6213.275
540.46441	6097.475
544.51333	6049.975
548.55936	6093.075
552.60252	6227.275
556.64279	6346.275
560.6802	6447.075
564.71473	6578.775
568.7464	6784.775
572.7752	6746.675
576.80114	6432.175
580.82422	6205.675
584.84444	6093.975
588.86181	6077.775
592.87633	6112.275
596.888	6237.475
600.89682	6617.875
604.9028	7590.475
608.90594	9700.275
612.90624	12070.675
616.90371	11188.175
620.89834	8104.675
624.89015	6762.175
628.87913	6549.875
632.86528	6700.175
636.84862	6864.275
640.82913	6703.575
644.80683	6377.275
648.78172	6192.275
652.75379	6225.275
656.72306	6451.675
660.68952	6700.175
664.65319	6601.975
668.61405	6377.875
672.57211	6305.675
676.52738	6312.475
680.47986	6193.875
684.42955	6091.675
688.37646	6053.375
692.32058	6073.075
696.26192	6151.375
700.20048	6234.675
704.13626	6270.275
708.06928	6231.075
711.99952	6201.375
715.927	6185.275
719.85171	6219.175
723.77365	6268.075
727.69284	6240.875
731.60928	6225.975
735.52295	6162.875
739.43388	6230.775
743.34206	6266.275
747.24749	6264.175
751.15017	6276.975
755.05012	6362.375
758.94733	6753.675
762.8418	7583.675
766.73354	8949.975
770.62254	9980.375
774.50882	10043.875
778.39237	9516.975
782.27321	8610.775
786.15132	7526.675
790.02671	6835.975
793.89938	6448.975
797.76935	6334.475
801.6366	6242.175
805.50115	6200.875
809.36299	6190.075
813.22213	6172.675
817.07857	6160.675
820.93231	6180.175
824.78336	6194.375
828.63172	6217.575
832.47738	6223.075
836.32036	6229.175
840.16066	6195.375
843.99827	6173.175
847.8332	6183.375
851.66546	6190.675
855.49504	6193.875
859.32195	6207.675
863.1462	6208.475
866.96777	6215.275
870.78668	6193.675
874.60293	6207.875
878.41652	6244.875
882.22745	6316.875
886.03573	6349.975
889.84136	6345.175
893.64433	6339.575
897.44466	6308.975
901.24235	6321.875
905.0374	6309.275
908.8298	6252.575
912.61957	6229.675
916.40671	6176.475
920.19121	6222.575
923.97308	6335.675
927.75233	6386.875
931.52895	6450.375
935.30295	6414.775
939.07433	6270.975
942.84309	6145.775
946.60924	6114.575
950.37278	6080.775
954.13371	6088.175
957.89203	6078.775
961.64774	6100.075
965.40086	6070.775
969.15137	6037.475
972.89929	6063.175
976.64461	6075.975
980.38733	6091.575
984.12747	6085.975
987.86502	6118.275
991.59999	6125.175
995.33237	6196.475
999.06217	6277.275
1002.78939	6352.875
1006.51404	6495.375
1010.23611	6615.275
1013.95561	6630.475
1017.67255	6649.275
1021.38692	6639.075
1025.09872	6564.975
1028.80796	6472.475
1032.51465	6465.275
1036.21877	6473.275
1039.92035	6522.175
1043.61937	6548.875
1047.31584	6582.875
1051.00976	6613.875
1054.70114	6635.075
1058.38998	6634.975
1062.07627	6627.775
1065.76003	6674.775
1069.44126	6757.475
1073.11995	6827.575
1076.79611	6968.475
1080.46974	7110.775
1084.14085	7275.475
1087.80943	7389.175
1091.47549	7436.375
1095.13903	7357.975
1098.80005	7242.475
1102.45857	7121.175
1106.11456	7123.275
1109.76805	7052.275
1113.41903	7160.775
1117.06751	7332.875
1120.71348	7613.375
1124.35696	7994.575
1127.99793	8280.675
1131.63641	8126.175
1135.2724	7710.275
1138.90589	7418.975
1142.5369	7193.575
1146.16542	7108.175
1149.79145	6982.775
1153.415	6933.275
1157.03607	6945.875
1160.65467	7030.975
1164.27079	7255.975
1167.88443	7496.375
1171.49561	7917.775
1175.10432	8553.375
1178.71056	9462.975
1182.31434	10265.275
1185.91565	10506.375
1189.51451	10352.775
1193.11091	10098.575
1196.70485	9838.375
1200.29634	9630.175
1203.88538	9326.275
1207.47197	8874.375
1211.05612	8398.775
1214.63782	7998.875
1218.21708	7744.275
1221.79391	7601.475
1225.36829	7500.575
1228.94024	7505.275
1232.50976	7523.275
1236.07685	7558.275
1239.6415	7583.375
1243.20374	7601.075
1246.76355	7624.175
1250.32093	7688.975
1253.8759	7755.475
1257.42845	7957.375
1260.97859	8149.175
1264.52631	8388.775
1268.07163	8567.475
1271.61453	8692.575
1275.15503	8725.775
1278.69312	8736.475
1282.22882	8799.875
1285.76211	9006.975
1289.29301	9248.475
1292.82151	9527.275
1296.34761	9755.275
1299.87133	10162.875
1303.39266	10862.675
1306.9116	12014.475
1310.42815	13280.875
1313.94233	13705.575
1317.45412	12898.675
1320.96354	11772.075
1324.47058	10708.675
1327.97525	9959.275
1331.47754	9539.175
1334.97747	9439.475
1338.47502	9556.675
1341.97022	9961.875
1345.46305	10682.075
1348.95352	11792.575
1352.44163	13079.075
1355.92738	14459.975
1359.41078	16151.475
1362.89183	17661.775
1366.37053	17029.875
1369.84688	14149.275
1373.32088	11425.275
1376.79254	9981.475
1380.26186	9341.475
1383.72883	8897.075
1387.19347	8493.675
1390.65578	8147.775
1394.11575	7889.075
1397.57339	7741.775
1401.0287	7628.075
1404.48168	7585.775
1407.93234	7573.275
1411.38068	7639.675
1414.82669	7706.775
1418.27039	7762.275
1421.71177	7778.875
1425.15083	7695.375
1428.58758	7593.575
1432.02203	7613.575
1435.45416	7714.275
1438.88399	7718.775
1442.31151	7693.775
1445.73673	7757.375
1449.15965	7807.475
1452.58027	7826.075
1455.9986	7830.175
1459.41463	7847.475
1462.82837	7938.775
1466.23982	8109.875
1469.64898	8318.775
1473.05586	8485.675
1476.46045	8585.975
1479.86276	8634.975
1483.26279	8780.575
1486.66054	8941.075
1490.05602	9228.075
1493.44922	9774.675
1496.84016	10690.775
1500.22882	12067.175
1503.61521	13826.575
1506.99934	15637.675
1510.38121	16893.975
1513.76081	16726.175
1517.13816	15121.875
1520.51324	12971.275
1523.88607	11207.875
1527.25665	10231.175
1530.62498	9711.175
1533.99105	9511.275
1537.35488	9362.175
1540.71647	9266.875
1544.07581	9143.575
1547.4329	9008.375
1550.78776	8865.375
1554.14038	8799.975
1557.49077	8764.375
1560.83892	8869.275
1564.18484	9096.175
1567.52853	9440.275
1570.86999	9757.475
1574.20922	9931.975
1577.54624	9790.975
1580.88103	9297.575
1584.2136	8584.975
1587.54395	8212.875
1590.87208	8108.275
1594.19801	8300.975
1597.52172	8672.875
1600.84321	8804.175
1604.16251	8686.475
1607.47959	8479.475
1610.79447	8291.675
1614.10715	8002.175
1617.41763	7708.375
1620.7259	7412.075
1624.03199	7268.775
1627.33587	7213.375
1630.63757	7246.975
1633.93707	7485.575
1637.23439	7886.475
1640.52951	8596.875
1643.82246	9583.275
1647.11321	10782.475
1650.40179	11506.775
1653.68819	11181.375
1656.97241	9899.475
1660.25446	8492.375
1663.53433	7491.275
1666.81203	6862.975
1670.08756	6540.375
1673.36092	6338.175
1676.63211	6191.675
1679.90115	6096.375
1683.16801	6003.075
1686.43272	5945.475
1689.69527	5897.175
1692.95567	5828.375
1696.2139	5806.075
1699.46999	5745.575
1702.72392	5749.575
1705.97571	5763.575
1709.22535	5757.275
1712.47284	5788.575
1715.71819	5789.475
1718.96139	5777.475
1722.20246	5780.375
1725.44139	5728.275
1728.67818	5721.275
1731.91284	5672.175
1735.14537	5620.675
1738.37576	5599.875
1741.60403	5571.675
1744.83017	5548.575
1748.05418	5551.175
1751.27607	5553.775
1754.49584	5520.175
1757.71349	5471.975
1760.92903	5491.975
1764.14244	5438.475
1767.35375	5447.475
1770.56294	5426.375
1773.77002	5415.775
1776.97499	5423.275
1780.17785	5401.875
1783.37861	5380.875
1786.57727	5395.275
1789.77382	5345.975
1792.96828	5372.375
1796.16064	5378.375
1799.3509	5351.475
1802.53907	5370.175
1805.72514	5328.675
1808.90913	5292.875
1812.09102	5311.775
1815.27083	5304.775
1818.44856	5271.075
1821.6242	5258.375
1824.79776	5244.975
1827.96924	5251.775
1831.13864	5232.875
1834.30597	5245.475
1837.47122	5204.775
1840.6344	5205.575
1843.7955	5179.175
1846.95454	5173.675
1850.11151	5205.675
1853.26642	5161.175
1856.41926	5161.975
1859.57004	5161.675
1862.71876	5155.675
1865.86542	5162.675
1869.01003	5138.975
1872.15258	5126.675
1875.29308	5139.075
1878.43152	5143.175
1881.56792	5110.975
1884.70227	5073.675
1887.83457	5109.175
1890.96482	5077.375
1894.09304	5092.675
1897.21921	5081.375
1900.34335	5069.875
1903.46544	5043.475
1906.58551	5058.875
1909.70353	5046.775
1912.81953	5051.275
1915.93349	5034.975
1919.04543	5022.475
1922.15534	5004.875
1925.26322	5007.175
1928.36908	4996.775
1931.47292	5004.475
1934.57473	4998.875
1937.67453	4979.175
1940.77232	4946.075
1943.86808	4932.275
1946.96184	4928.775
1950.05358	4891.775
1953.14331	4895.375
1956.23103	4880.575
1959.31675	4861.975
1962.40046	4801.875
1965.48217	4821.175
1968.56188	4822.975
1971.63959	4806.975
1974.7153	4799.175
1977.78901	4783.375
1980.86073	4774.775
1983.93046	4732.975
1986.99819	4650.875
1990.06394	4682.575
1993.1277	4706.675
1996.18947	4668.375
1999.24925	4659.775
2002.30706	4637.275
2005.36288	4642.475
2008.41672	4607.275
2011.46859	4582.075
2014.51848	4580.975
2017.56639	4553.175
2020.61233	4540.875
2023.6563	4548.075
2026.6983	4499.475
2029.73833	4499.875
2032.7764	4499.175
2035.8125	4458.575
2038.84664	4471.175
2041.87881	4450.075
2044.90903	4443.475
2047.93729	4443.575
2050.96359	4422.975
2053.98794	4426.875
2057.01034	4429.675
2060.03078	4394.075
2063.04927	4403.775
2066.06582	4395.675
2069.08042	4396.675
2072.09307	4393.275
2075.10378	4402.075
2078.11255	4379.675
2081.11938	4375.875
2084.12426	4368.675
2087.12722	4377.275
2090.12824	4353.675
2093.12732	4367.875
2096.12447	4388.275
2099.11969	4369.375
2102.11299	4355.975
2105.10435	4376.775
2108.09379	4379.375
2111.08131	4361.375
2114.0669	4365.975
2117.05057	4360.575
2120.03233	4352.775
2123.01216	4369.075
2125.99008	4367.275
2128.96609	4389.475
2131.94018	4391.775
2134.91236	4391.175
2137.88263	4380.675
2140.851	4369.875
2143.81746	4408.975
2146.78201	4400.775
2149.74466	4355.875
2152.7054	4372.375
2155.66425	4375.475
2158.6212	4357.175
2161.57625	4329.575
2164.52941	4301.575
2167.48067	4335.575
2170.43004	4329.875
2173.37752	4340.575
2176.32311	4341.975
2179.26681	4324.675
2182.20863	4346.875
2185.14856	4346.675
2188.08661	4319.575
2191.02278	4339.975
2193.95707	4317.375
2196.88948	4284.875
2199.82001	4316.775
2202.74867	4293.775
2205.67545	4299.175
2208.60037	4302.475
2211.52341	4282.875
2214.44458	4268.875
2217.36388	4283.475
2220.28132	4254.075
2223.1969	4224.175
2226.11061	4228.875
2229.02246	4205.975
2231.93245	4231.975
2234.84058	4186.075
2237.74686	4182.275
2240.65128	4180.275
2243.55385	4196.275
2246.45456	4154.775
2249.35343	4183.575
2252.25044	4150.175
2255.14561	4164.875
2258.03893	4156.675
2260.93041	4159.475
2263.82004	4133.375
2266.70783	4137.775
2269.59378	4110.875
2272.4779	4106.375
2275.36017	4106.375
2278.24061	4087.175
2281.11922	4050.975
2283.996	4070.275
2286.87094	4047.275
2289.74405	4050.675
2292.61534	4042.375
2295.4848	4052.675
2298.35243	4047.575
2301.21824	4021.475
2304.08223	4032.875
2306.94439	4027.175
2309.80474	4021.075
2312.66327	4004.975
2315.51999	3994.775
2318.37489	3992.975
2321.22797	3960.275
2324.07925	3982.275
2326.92871	3963.175
2329.77637	3938.975
2332.62222	3955.475
2335.46626	3922.475
2338.3085	3913.675
2341.14893	3942.575
2343.98756	3941.575
2346.8244	3909.975
2349.65943	3905.975
2352.49267	3914.575
2355.32411	3920.275
2358.15376	3912.975
2360.98161	3920.775
2363.80768	3891.175
2366.63195	3900.775
2369.45444	3907.775
2372.27514	3915.475
2375.09405	3914.975
2377.91118	3874.475
2380.72652	3864.575
2383.54009	3874.075
2386.35187	3870.875
2389.16188	3848.075
2391.97011	3843.675
2394.77657	3830.975
2397.58125	3827.075
2400.38416	3815.775
2403.18529	3800.775
2405.98466	3802.175
2408.78226	3780.675
2411.57809	3775.175
2414.37216	3770.775
2417.16446	3770.475
2419.955	3745.175
2422.74378	3755.975
2425.5308	3730.775
2428.31606	3756.375
2431.09956	3768.575
2433.88131	3722.275
2436.6613	3740.875
2439.43954	3727.075
2442.21603	3725.775
2444.99077	3711.175
2447.76377	3719.275
2450.53501	3715.675
2453.30451	3699.475
2456.07226	3701.175
2458.83827	3690.875
2461.60254	3656.775
2464.36507	3688.475
2467.12586	3666.275
2469.88492	3676.975
2472.64224	3680.775
2475.39782	3646.075
2478.15167	3688.675
2480.90379	3663.975
2483.65417	3670.375
2486.40283	3684.275
2489.14976	3680.575
2491.89497	3679.775
2494.63845	3671.075
2497.3802	3648.775
2500.12024	3648.275
2502.85855	3650.475
2505.59514	3641.675
2508.33002	3639.375
2511.06318	3607.875
2513.79462	3607.575
2516.52435	3571.075
2519.25237	3559.975
2521.97867	3551.575
2524.70327	3558.975
2527.42616	3558.675
2530.14734	3564.275
2532.86681	3544.375
2535.58458	3540.775
2538.30065	3540.675
2541.01501	3555.975
2543.72768	3533.075
2546.43864	3528.875
2549.14791	3524.975
2551.85548	3510.675
2554.56136	3495.175
2557.26554	3509.575
2559.96803	3497.575
2562.66883	3486.175
2565.36794	3474.475
2568.06536	3455.375
2570.7611	3458.175
2573.45514	3462.975
2576.14751	3443.575
2578.83819	3435.575
2581.52719	3430.175
2584.21451	3426.875
2586.90015	3397.075
2589.58411	3388.275
2592.2664	3402.375
2594.94701	3398.675
2597.62594	3393.575
2600.30321	3332.075
2602.9788	3341.875
2605.65273	3342.575
2608.32498	3333.175
2610.99557	3359.575
2613.66449	3336.775
2616.33175	3355.275
2618.99734	3341.475
2621.66128	3352.575
2624.32355	3330.975
2626.98416	3304.775
2629.64311	3301.675
2632.30041	3302.375
2634.95605	3281.875
2637.61004	3279.475
2640.26238	3254.675
2642.91306	3268.775
2645.56209	3273.775
2648.20948	3269.375
2650.85521	3251.575
2653.4993	3281.475
2656.14175	3264.075
2658.78255	3248.575
2661.42171	3225.975
2664.05923	3264.175
2666.6951	3280.975
2669.32934	3262.975
2671.96194	3275.175
2674.59291	3261.775
2677.22224	3253.875
2679.84993	3265.775
2682.476	3238.075
2685.10043	3251.575
2687.72324	3231.175
2690.34441	3243.175
2692.96396	3231.875
2695.58188	3249.175
2698.19818	3236.875
2700.81285	3229.375
2703.4259	3227.175
2706.03733	3192.075
2708.64714	3199.875
2711.25533	3225.175
2713.86191	3231.675
2716.46687	3224.375
2719.07021	3228.575
2721.67194	3224.875
2724.27206	3239.175
2726.87057	3207.975
2729.46747	3203.275
2732.06276	3205.875
2734.65644	3188.275
2737.24852	3193.575
2739.83899	3176.475
2742.42786	3194.575
2745.01513	3190.475
2747.60079	3164.075
2750.18486	3155.675
2752.76733	3162.875
2755.3482	3141.775
2757.92747	3162.675
2760.50515	3137.875
2763.08123	3140.675
2765.65573	3137.175
2768.22863	3126.475
2770.79994	3115.975
2773.36967	3106.075
2775.9378	3107.175
2778.50435	3085.675
2781.06932	3099.175
2783.6327	3083.975
2786.1945	3106.275
2788.75471	3093.575
2791.31335	3070.875
2793.87041	3065.175
2796.42589	3046.675
2798.97979	3054.675
2801.53212	3050.375
2804.08288	3055.275
2806.63206	3035.275
2809.17967	3034.375
2811.72571	3035.075
2814.27018	3028.075
2816.81308	3013.475
2819.35442	2992.475
2821.89419	2985.475
2824.43239	2988.775
2826.96904	3003.975
2829.50412	2990.275
2832.03763	2973.375
2834.56959	2987.575
2837.1	2983.575
2839.62884	2971.775
2842.15613	2964.275
2844.68186	2987.475
2847.20604	2961.775
2849.72867	2948.375
2852.24974	2961.775
2854.76927	2927.775
2857.28724	2881.275
2859.80367	2939.475
2862.31855	2933.375
2864.83189	2937.675
2867.34368	2928.075
2869.85393	2944.675
2872.36264	2925.575
2874.8698	2921.475
2877.37543	2909.275
2879.87952	2923.475
2882.38207	2902.675
2884.88308	2897.775
2887.38256	2898.575
2889.88051	2895.075
2892.37692	2894.275
2894.8718	2889.375
2897.36515	2899.575
2899.85698	2884.775
2902.34727	2888.075
2904.83604	2887.175
2907.32328	2907.775
2909.809	2893.975
2912.29319	2902.375
2914.77587	2914.275
2917.25702	2926.875
2919.73665	2923.875
2922.21476	2918.875
2924.69136	2917.975
2927.16644	2909.075
2929.64	2900.175
2932.11205	2899.375
2934.58258	2881.375
2937.05161	2874.975
2939.51912	2873.675
2941.98513	2879.575
2944.44962	2870.075
2946.91261	2840.075
2949.37409	2851.175
2951.83407	2847.775
2954.29254	2840.975
2956.74951	2841.075
2959.20498	2819.475
2961.65895	2821.875
2964.11142	2810.075
2966.56239	2813.375
2969.01186	2823.675
2971.45984	2822.475
2973.90632	2811.975
2976.35131	2805.875
2978.7948	2786.175
2981.23681	2790.175
2983.67732	2789.475
2986.11635	2785.275
2988.55388	2766.475
2990.98993	2762.975
2993.4245	2749.975
2995.85758	2741.075
2998.28917	2729.675
3000.71928	2732.975
3003.14791	2723.875
3005.57506	2715.975
3008.00073	2687.475
3010.42493	2635.275
3012.84764	2692.775
3015.26888	2700.675
3017.68865	2680.575
3020.10694	2642.075
3022.52376	2658.675
3024.9391	2649.875
3027.35298	2629.775
3029.76539	2619.675
3032.17632	2628.975
3034.5858	2622.975
3036.9938	2631.675
3039.40034	2622.775
3041.80542	2600.175
3044.20903	2599.075
3046.61118	2586.975
3049.01187	2594.875
3051.4111	2569.975
3053.80888	2570.575
3056.20519	2564.175
3058.60005	2555.575
3060.99345	2575.675
3063.3854	2549.275
3065.7759	2532.475
3068.16494	2508.075
3070.55254	2514.375
3072.93868	2528.675
3075.32338	2517.375
3077.70662	2512.175
3080.08842	2493.875
3082.46878	2487.575
3084.84769	2504.475
3087.22515	2485.375
3089.60118	2493.475
3091.97576	2476.175
3094.3489	2479.675
3096.72061	2468.875
3099.09087	2465.775
3101.4597	2474.575
3103.82709	2467.375
3106.19305	2458.575
3108.55757	2461.575
3110.92066	2443.775
3113.28232	2467.675
3115.64255	2433.275
3118.00134	2446.275
3120.35871	2418.075
3122.71466	2411.275
3125.06917	2417.375
3127.42226	2408.075
3129.77393	2389.475
3132.12417	2397.575
3134.47299	2396.575
3136.82039	2387.675
3139.16636	2354.475
3141.51092	2380.275
3143.85406	2387.575
3146.19579	2368.875
3148.53609	2359.275
3150.87499	2369.475
3153.21246	2364.675
3155.54853	2360.575
3157.88318	2371.475
3160.21642	2384.575
3162.54826	2362.775
3164.87868	2373.675
3167.2077	2329.575
3169.5353	2347.775
3171.86151	2363.175
3174.18631	2348.275
3176.5097	2343.375
3178.83169	2342.175
3181.15228	2343.775
3183.47147	2308.575
3185.78926	2290.575
3188.10565	2302.475
3190.42065	2289.375
3192.73424	2295.775
3195.04645	2298.075
3197.35725	2278.675
3199.66667	2289.875
3201.97469	2269.975
3204.28132	2283.275
3206.58656	2281.575
3208.8904	2281.375
3211.19287	2274.675
3213.49394	2266.975
3215.79363	2269.175
3218.09193	2273.975
3220.38884	2263.875
3222.68438	2264.875
3224.97853	2247.575
3227.2713	2261.575
3229.56269	2247.275
3231.8527	2247.675
3234.14133	2238.175
