Data from AgNPs_UA_5uM_CRN_500uM_SU_RamanShift__247__12-10-33-189.txt Node

Date: Thu Aug 04 12:10:33 BST 2022
User: TCL
Spectrometer: QEP01345
Trigger mode: 4
Integration Time (sec): 1.000000E0
Scans to average: 10
Electric dark correction enabled: true
Nonlinearity correction enabled: false
Boxcar width: 0
XAxis mode: Raman Shifts
Number of Pixels in Spectrum: 1044
>>>>>Begin Spectral Data<<<<<
46.04893	0.075
50.45542	0.275
54.85868	0.075
59.25871	-1.425
63.6555	-58.125
68.04907	-39.325
72.43941	-72.225
76.82654	-57.625
81.21044	-58.125
85.59113	-50.525
89.96862	-75.625
94.34289	-54.325
98.71396	-78.125
103.08183	-56.825
107.4465	-50.025
111.80798	-55.525
116.16626	-44.225
120.52136	-75.825
124.87327	-50.025
129.222	-63.125
133.56755	-50.025
137.90993	-63.825
142.24913	-50.225
146.58517	-43.525
150.91804	-40.325
155.24774	-30.825
159.57429	-7.625
163.89768	-7.125
168.21792	37.575
172.53501	56.575
176.84895	142.575
181.15975	274.775
185.46741	423.575
189.77193	605.475
194.07331	893.775
198.37157	1176.975
202.6667	1461.275
206.9587	1789.075
211.24758	2096.375
215.53334	2420.275
219.81599	2783.775
224.09553	3180.675
228.37195	3614.175
232.64527	4078.875
236.91549	4552.875
241.18261	4898.375
245.44663	5177.375
249.70755	5351.875
253.96539	5480.475
258.22014	5591.075
262.4718	5645.475
266.72039	5710.475
270.96589	5662.275
275.20832	5589.575
279.44768	5470.875
283.68397	5374.675
287.91719	5314.975
292.14735	5353.275
296.37445	5516.875
300.59849	5801.775
304.81948	6165.675
309.03742	6536.775
313.25231	6780.475
317.46415	6722.675
321.67296	6353.675
325.87872	5928.175
330.08145	5728.975
334.28114	5679.575
338.47781	5747.575
342.67145	5878.675
346.86207	6120.575
351.04966	6487.175
355.23424	6868.075
359.4158	7154.775
363.59435	7188.375
367.76989	7116.975
371.94243	6999.775
376.11196	6861.075
380.27849	6781.375
384.44203	6718.175
388.60257	6682.375
392.76012	6679.075
396.91468	6804.175
401.06626	6959.675
405.21485	6994.975
409.36047	6835.775
413.50311	6493.275
417.64277	6188.275
421.77947	5999.875
425.9132	5918.375
430.04396	5919.475
434.17176	5955.375
438.2966	6016.475
442.41849	6115.775
446.53742	6242.175
450.6534	6347.675
454.76644	6403.975
458.87653	6403.775
462.98368	6361.175
467.08789	6306.175
471.18916	6216.575
475.2875	6106.375
479.38291	5983.375
483.4754	5886.575
487.56496	5843.575
491.6516	5809.775
495.73531	5820.975
499.81612	5862.775
503.89401	5937.475
507.96899	5992.975
512.04106	6098.775
516.11023	6174.775
520.1765	6257.675
524.23987	6286.375
528.30034	6287.475
532.35792	6191.975
536.41261	6127.075
540.46441	6054.475
544.51333	5998.875
548.55936	6035.775
552.60252	6158.975
556.64279	6300.475
560.6802	6400.075
564.71473	6538.375
568.7464	6736.175
572.7752	6715.175
576.80114	6390.775
580.82422	6170.675
584.84444	6073.575
588.86181	6045.475
592.87633	6086.475
596.888	6196.475
600.89682	6588.875
604.9028	7555.075
608.90594	9717.275
612.90624	12077.775
616.90371	11198.275
620.89834	8063.575
624.89015	6700.475
628.87913	6484.375
632.86528	6643.675
636.84862	6807.575
640.82913	6658.775
644.80683	6336.875
648.78172	6123.175
652.75379	6147.375
656.72306	6390.075
660.68952	6626.875
664.65319	6559.775
668.61405	6291.775
672.57211	6238.275
676.52738	6227.575
680.47986	6119.675
684.42955	6014.375
688.37646	5986.675
692.32058	5966.275
696.26192	6069.875
700.20048	6160.175
704.13626	6213.875
708.06928	6161.175
711.99952	6134.375
715.927	6092.775
719.85171	6137.375
723.77365	6177.975
727.69284	6146.875
731.60928	6155.775
735.52295	6126.475
739.43388	6159.375
743.34206	6198.775
747.24749	6201.175
751.15017	6225.175
755.05012	6302.475
758.94733	6663.175
762.8418	7552.675
766.73354	8904.675
770.62254	9954.875
774.50882	10071.575
778.39237	9503.475
782.27321	8553.075
786.15132	7464.575
790.02671	6793.075
793.89938	6374.375
797.76935	6274.775
801.6366	6159.775
805.50115	6136.275
809.36299	6092.875
813.22213	6087.075
817.07857	6107.275
820.93231	6114.875
824.78336	6127.875
828.63172	6144.175
832.47738	6137.775
836.32036	6141.875
840.16066	6103.275
843.99827	6099.475
847.8332	6059.375
851.66546	6106.975
855.49504	6086.875
859.32195	6133.575
863.1462	6109.175
866.96777	6117.675
870.78668	6093.775
874.60293	6132.075
878.41652	6163.075
882.22745	6205.975
886.03573	6257.575
889.84136	6249.675
893.64433	6242.075
897.44466	6223.475
901.24235	6227.975
905.0374	6231.375
908.8298	6165.975
912.61957	6126.575
916.40671	6083.375
920.19121	6148.275
923.97308	6234.175
927.75233	6295.875
931.52895	6363.175
935.30295	6308.775
939.07433	6165.675
942.84309	6048.075
946.60924	6022.175
950.37278	5980.075
954.13371	5968.875
957.89203	5939.675
961.64774	5985.075
965.40086	5967.875
969.15137	5960.275
972.89929	5970.675
976.64461	5973.175
980.38733	5995.475
984.12747	5977.575
987.86502	6009.075
991.59999	6046.775
995.33237	6107.075
999.06217	6160.075
1002.78939	6235.975
1006.51404	6346.175
1010.23611	6486.075
1013.95561	6521.775
1017.67255	6533.475
1021.38692	6506.375
1025.09872	6442.275
1028.80796	6358.875
1032.51465	6373.175
1036.21877	6340.775
1039.92035	6396.175
1043.61937	6422.775
1047.31584	6501.775
1051.00976	6515.175
1054.70114	6525.975
1058.38998	6531.075
1062.07627	6517.775
1065.76003	6556.575
1069.44126	6652.075
1073.11995	6713.175
1076.79611	6871.975
1080.46974	7015.475
1084.14085	7155.375
1087.80943	7311.975
1091.47549	7347.275
1095.13903	7257.575
1098.80005	7132.275
1102.45857	7030.875
1106.11456	6991.775
1109.76805	6961.775
1113.41903	7056.475
1117.06751	7239.675
1120.71348	7514.875
1124.35696	7897.875
1127.99793	8184.675
1131.63641	8002.475
1135.2724	7607.775
1138.90589	7301.475
1142.5369	7093.575
1146.16542	6971.575
1149.79145	6861.475
1153.415	6817.275
1157.03607	6843.275
1160.65467	6944.475
1164.27079	7165.375
1167.88443	7404.775
1171.49561	7866.475
1175.10432	8502.475
1178.71056	9405.575
1182.31434	10236.075
1185.91565	10501.975
1189.51451	10357.275
1193.11091	10085.075
1196.70485	9840.275
1200.29634	9562.575
1203.88538	9288.675
1207.47197	8807.475
1211.05612	8330.975
1214.63782	7912.375
1218.21708	7641.775
1221.79391	7489.275
1225.36829	7419.875
1228.94024	7398.575
1232.50976	7422.775
1236.07685	7470.275
1239.6415	7474.975
1243.20374	7489.075
1246.76355	7544.375
1250.32093	7607.675
1253.8759	7645.675
1257.42845	7844.275
1260.97859	8049.075
1264.52631	8316.375
1268.07163	8456.975
1271.61453	8614.675
1275.15503	8634.275
1278.69312	8672.375
1282.22882	8723.075
1285.76211	8933.375
1289.29301	9188.875
1292.82151	9444.575
1296.34761	9664.375
1299.87133	10088.575
1303.39266	10831.175
1306.9116	11978.675
1310.42815	13254.175
1313.94233	13692.475
1317.45412	12882.675
1320.96354	11724.175
1324.47058	10683.775
1327.97525	9906.075
1331.47754	9474.075
1334.97747	9394.675
1338.47502	9509.175
1341.97022	9882.375
1345.46305	10611.175
1348.95352	11784.575
1352.44163	13104.975
1355.92738	14510.675
1359.41078	16243.375
1362.89183	17804.175
1366.37053	17169.675
1369.84688	14251.175
1373.32088	11475.875
1376.79254	9982.675
1380.26186	9270.975
1383.72883	8844.275
1387.19347	8450.675
1390.65578	8064.675
1394.11575	7825.375
1397.57339	7637.075
1401.0287	7533.075
1404.48168	7492.675
1407.93234	7490.175
1411.38068	7523.975
1414.82669	7618.175
1418.27039	7679.275
1421.71177	7670.275
1425.15083	7569.475
1428.58758	7471.575
1432.02203	7509.475
1435.45416	7594.475
1438.88399	7601.575
1442.31151	7590.075
1445.73673	7646.575
1449.15965	7696.675
1452.58027	7717.675
1455.9986	7717.975
1459.41463	7731.775
1462.82837	7838.975
1466.23982	8031.475
1469.64898	8235.475
1473.05586	8374.875
1476.46045	8492.175
1479.86276	8578.375
1483.26279	8676.075
1486.66054	8883.775
1490.05602	9170.675
1493.44922	9744.175
1496.84016	10648.375
1500.22882	12056.175
1503.61521	13859.475
1506.99934	15750.975
1510.38121	16967.675
1513.76081	16810.075
1517.13816	15194.875
1520.51324	12984.675
1523.88607	11232.075
1527.25665	10187.775
1530.62498	9680.375
1533.99105	9475.575
1537.35488	9350.175
1540.71647	9245.175
1544.07581	9117.475
1547.4329	8962.375
1550.78776	8844.675
1554.14038	8739.175
1557.49077	8732.075
1560.83892	8788.275
1564.18484	9067.875
1567.52853	9395.175
1570.86999	9732.375
1574.20922	9866.475
1577.54624	9750.575
1580.88103	9223.475
1584.2136	8522.375
1587.54395	8128.875
1590.87208	8049.075
1594.19801	8236.675
1597.52172	8614.275
1600.84321	8736.675
1604.16251	8574.875
1607.47959	8365.275
1610.79447	8200.075
1614.10715	7906.375
1617.41763	7600.475
1620.7259	7332.875
1624.03199	7177.275
1627.33587	7102.975
1630.63757	7141.675
1633.93707	7380.475
1637.23439	7800.075
1640.52951	8515.075
1643.82246	9527.075
1647.11321	10709.075
1650.40179	11461.675
1653.68819	11166.875
1656.97241	9855.075
1660.25446	8422.075
1663.53433	7398.375
1666.81203	6749.475
1670.08756	6416.275
1673.36092	6232.475
1676.63211	6066.975
1679.90115	5978.375
1683.16801	5904.075
1686.43272	5816.375
1689.69527	5779.375
1692.95567	5718.575
1696.2139	5700.875
1699.46999	5653.675
1702.72392	5638.575
1705.97571	5635.875
1709.22535	5623.475
1712.47284	5662.275
1715.71819	5676.475
1718.96139	5658.575
1722.20246	5643.075
1725.44139	5613.975
1728.67818	5590.575
1731.91284	5553.575
1735.14537	5520.375
1738.37576	5474.275
1741.60403	5472.775
1744.83017	5421.275
1748.05418	5435.975
1751.27607	5430.975
1754.49584	5391.075
1757.71349	5373.675
1760.92903	5370.875
1764.14244	5318.975
1767.35375	5330.375
1770.56294	5317.675
1773.77002	5311.775
1776.97499	5304.575
1780.17785	5279.475
1783.37861	5259.475
1786.57727	5284.975
1789.77382	5196.675
1792.96828	5246.575
1796.16064	5262.775
1799.3509	5221.475
1802.53907	5234.675
1805.72514	5217.875
1808.90913	5183.275
1812.09102	5190.175
1815.27083	5163.875
1818.44856	5155.875
1821.6242	5139.775
1824.79776	5139.275
1827.96924	5114.775
1831.13864	5080.375
1834.30597	5115.375
1837.47122	5093.775
1840.6344	5066.675
1843.7955	5051.075
1846.95454	5054.275
1850.11151	5080.375
1853.26642	5046.075
1856.41926	5034.075
1859.57004	5042.575
1862.71876	5035.375
1865.86542	5047.975
1869.01003	5016.775
1872.15258	5018.875
1875.29308	5021.075
1878.43152	5023.175
1881.56792	4990.175
1884.70227	4980.375
1887.83457	4989.375
1890.96482	4948.675
1894.09304	4960.775
1897.21921	4961.575
1900.34335	4957.575
1903.46544	4921.875
1906.58551	4949.375
1909.70353	4947.775
1912.81953	4917.975
1915.93349	4905.875
1919.04543	4903.075
1922.15534	4892.775
1925.26322	4882.775
1928.36908	4877.175
1931.47292	4875.675
1934.57473	4880.075
1937.67453	4853.975
1940.77232	4815.475
1943.86808	4803.675
1946.96184	4804.475
1950.05358	4778.775
1953.14331	4759.875
1956.23103	4773.575
1959.31675	4732.875
1962.40046	4692.375
1965.48217	4708.675
1968.56188	4689.675
1971.63959	4696.075
1974.7153	4678.675
1977.78901	4664.875
1980.86073	4641.075
1983.93046	4598.475
1986.99819	4535.875
1990.06394	4555.075
1993.1277	4582.475
1996.18947	4550.075
1999.24925	4519.375
2002.30706	4525.475
2005.36288	4512.575
2008.41672	4496.275
2011.46859	4467.375
2014.51848	4448.775
2017.56639	4446.575
2020.61233	4426.575
2023.6563	4432.675
2026.6983	4379.275
2029.73833	4384.675
2032.7764	4395.775
2035.8125	4354.575
2038.84664	4360.375
2041.87881	4332.775
2044.90903	4341.475
2047.93729	4324.975
2050.96359	4323.175
2053.98794	4314.475
2057.01034	4300.475
2060.03078	4294.475
2063.04927	4280.975
2066.06582	4285.675
2069.08042	4286.475
2072.09307	4278.075
2075.10378	4271.775
2078.11255	4247.875
2081.11938	4264.675
2084.12426	4258.175
2087.12722	4255.175
2090.12824	4244.675
2093.12732	4236.175
2096.12447	4271.975
2099.11969	4249.475
2102.11299	4241.475
2105.10435	4260.475
2108.09379	4251.475
2111.08131	4249.475
2114.0669	4246.475
2117.05057	4244.475
2120.03233	4231.375
2123.01216	4252.575
2125.99008	4258.675
2128.96609	4265.675
2131.94018	4272.775
2134.91236	4257.575
2137.88263	4256.075
2140.851	4267.075
2143.81746	4288.775
2146.78201	4266.075
2149.74466	4239.175
2152.7054	4273.275
2155.66425	4263.975
2158.6212	4234.575
2161.57625	4216.375
2164.52941	4198.975
2167.48067	4224.575
2170.43004	4212.975
2173.37752	4228.275
2176.32311	4212.875
2179.26681	4219.975
2182.20863	4218.275
2185.14856	4220.375
2188.08661	4217.275
2191.02278	4220.075
2193.95707	4201.175
2196.88948	4191.575
2199.82001	4207.675
2202.74867	4188.875
2205.67545	4179.475
2208.60037	4202.875
2211.52341	4165.375
2214.44458	4146.475
2217.36388	4137.375
2220.28132	4136.175
2223.1969	4125.475
2226.11061	4122.275
2229.02246	4113.875
2231.93245	4113.675
2234.84058	4082.175
2237.74686	4080.775
2240.65128	4053.575
2243.55385	4068.875
2246.45456	4068.875
2249.35343	4069.975
2252.25044	4056.675
2255.14561	4046.475
2258.03893	4050.475
2260.93041	4052.875
2263.82004	4027.575
2266.70783	4023.775
2269.59378	4011.375
2272.4779	3981.475
2275.36017	3999.075
2278.24061	3992.375
2281.11922	3948.975
2283.996	3977.375
2286.87094	3939.775
2289.74405	3940.675
2292.61534	3945.775
2295.4848	3930.975
2298.35243	3924.275
2301.21824	3899.175
2304.08223	3909.275
2306.94439	3915.775
2309.80474	3922.875
2312.66327	3900.075
2315.51999	3894.975
2318.37489	3890.175
2321.22797	3857.975
2324.07925	3869.375
2326.92871	3858.375
2329.77637	3854.575
2332.62222	3844.875
2335.46626	3801.775
2338.3085	3811.175
2341.14893	3826.475
2343.98756	3833.975
2346.8244	3814.575
2349.65943	3799.375
2352.49267	3810.975
2355.32411	3816.475
2358.15376	3804.375
2360.98161	3820.975
2363.80768	3783.575
2366.63195	3803.175
2369.45444	3808.675
2372.27514	3806.275
2375.09405	3805.675
2377.91118	3775.575
2380.72652	3772.475
2383.54009	3763.975
2386.35187	3774.675
2389.16188	3728.375
2391.97011	3732.475
2394.77657	3727.175
2397.58125	3725.275
2400.38416	3712.275
2403.18529	3699.875
2405.98466	3704.275
2408.78226	3677.775
2411.57809	3675.475
2414.37216	3656.775
2417.16446	3667.375
2419.955	3643.175
2422.74378	3662.275
2425.5308	3641.875
2428.31606	3645.375
2431.09956	3640.775
2433.88131	3616.875
2436.6613	3629.975
2439.43954	3624.875
2442.21603	3615.175
2444.99077	3611.675
2447.76377	3620.875
2450.53501	3603.275
2453.30451	3605.175
2456.07226	3608.775
2458.83827	3587.575
2461.60254	3558.775
2464.36507	3595.775
2467.12586	3571.275
2469.88492	3575.475
2472.64224	3575.775
2475.39782	3545.775
2478.15167	3571.175
2480.90379	3554.675
2483.65417	3573.675
2486.40283	3568.675
2489.14976	3582.475
2491.89497	3563.875
2494.63845	3567.475
2497.3802	3558.575
2500.12024	3562.275
2502.85855	3546.775
2505.59514	3549.175
2508.33002	3532.075
2511.06318	3505.675
2513.79462	3518.175
2516.52435	3476.475
2519.25237	3460.775
2521.97867	3461.275
2524.70327	3473.775
2527.42616	3462.475
2530.14734	3476.175
2532.86681	3449.175
2535.58458	3440.375
2538.30065	3441.675
2541.01501	3456.675
2543.72768	3441.575
2546.43864	3413.575
2549.14791	3424.575
2551.85548	3406.675
2554.56136	3413.475
2557.26554	3406.175
2559.96803	3401.275
2562.66883	3387.775
2565.36794	3372.075
2568.06536	3348.175
2570.7611	3380.675
2573.45514	3364.475
2576.14751	3348.675
2578.83819	3345.475
2581.52719	3327.475
2584.21451	3321.875
2586.90015	3309.375
2589.58411	3285.375
2592.2664	3299.575
2594.94701	3301.575
2597.62594	3293.775
2600.30321	3230.375
2602.9788	3263.675
2605.65273	3242.575
2608.32498	3259.075
2610.99557	3267.575
2613.66449	3239.875
2616.33175	3248.175
2618.99734	3252.775
2621.66128	3246.975
2624.32355	3238.275
2626.98416	3224.275
2629.64311	3201.575
2632.30041	3213.675
2634.95605	3184.175
2637.61004	3177.075
2640.26238	3159.475
2642.91306	3161.675
2645.56209	3181.275
2648.20948	3181.875
2650.85521	3157.575
2653.4993	3172.775
2656.14175	3169.575
2658.78255	3164.475
2661.42171	3132.575
2664.05923	3163.375
2666.6951	3176.175
2669.32934	3177.275
2671.96194	3180.975
2674.59291	3168.775
2677.22224	3171.275
2679.84993	3186.475
2682.476	3156.075
2685.10043	3158.375
2687.72324	3141.475
2690.34441	3135.275
2692.96396	3144.175
2695.58188	3153.675
2698.19818	3141.275
2700.81285	3139.275
2703.4259	3141.675
2706.03733	3101.575
2708.64714	3109.175
2711.25533	3141.375
2713.86191	3141.275
2716.46687	3127.975
2719.07021	3121.475
2721.67194	3131.375
2724.27206	3138.175
2726.87057	3128.475
2729.46747	3115.575
2732.06276	3129.075
2734.65644	3098.675
2737.24852	3095.675
2739.83899	3090.075
2742.42786	3093.775
2745.01513	3085.875
2747.60079	3077.175
2750.18486	3071.775
2752.76733	3087.075
2755.3482	3061.375
2757.92747	3058.075
2760.50515	3051.575
2763.08123	3036.875
2765.65573	3041.775
2768.22863	3034.975
2770.79994	3015.775
2773.36967	3017.275
2775.9378	3012.475
2778.50435	3002.475
2781.06932	3005.275
2783.6327	2999.775
2786.1945	3008.975
2788.75471	3000.975
2791.31335	2994.375
2793.87041	2985.475
2796.42589	2960.275
2798.97979	2962.775
2801.53212	2968.775
2804.08288	2979.875
2806.63206	2950.875
2809.17967	2926.275
2811.72571	2943.575
2814.27018	2956.375
2816.81308	2927.175
2819.35442	2892.575
2821.89419	2920.175
2824.43239	2893.175
2826.96904	2927.375
2829.50412	2905.075
2832.03763	2912.275
2834.56959	2907.275
2837.1	2901.775
2839.62884	2903.275
2842.15613	2896.275
2844.68186	2898.075
2847.20604	2864.075
2849.72867	2865.975
2852.24974	2871.775
2854.76927	2834.975
2857.28724	2796.175
2859.80367	2863.975
2862.31855	2860.775
2864.83189	2845.475
2867.34368	2855.575
2869.85393	2865.875
2872.36264	2840.675
2874.8698	2843.775
2877.37543	2832.575
2879.87952	2837.375
2882.38207	2828.175
2884.88308	2820.675
2887.38256	2823.575
2889.88051	2828.275
2892.37692	2822.575
2894.8718	2809.375
2897.36515	2822.775
2899.85698	2812.075
2902.34727	2804.075
2904.83604	2825.175
2907.32328	2824.575
2909.809	2826.575
2912.29319	2831.275
2914.77587	2821.975
2917.25702	2844.375
2919.73665	2841.475
2922.21476	2839.275
2924.69136	2847.675
2927.16644	2816.475
2929.64	2836.575
2932.11205	2815.375
2934.58258	2805.375
2937.05161	2811.375
2939.51912	2796.675
2941.98513	2807.675
2944.44962	2794.475
2946.91261	2764.075
2949.37409	2774.075
2951.83407	2757.575
2954.29254	2753.975
2956.74951	2760.775
2959.20498	2732.175
2961.65895	2739.075
2964.11142	2735.775
2966.56239	2736.275
2969.01186	2734.975
2971.45984	2734.475
2973.90632	2727.275
2976.35131	2732.475
2978.7948	2720.275
2981.23681	2718.875
2983.67732	2713.375
2986.11635	2717.375
2988.55388	2682.275
2990.98993	2684.875
2993.4245	2668.375
2995.85758	2667.875
2998.28917	2657.875
3000.71928	2644.775
3003.14791	2654.475
3005.57506	2625.775
3008.00073	2618.975
3010.42493	2568.575
3012.84764	2626.275
3015.26888	2627.275
3017.68865	2613.875
3020.10694	2568.875
3022.52376	2579.175
3024.9391	2579.575
3027.35298	2569.875
3029.76539	2557.375
3032.17632	2556.675
3034.5858	2543.975
3036.9938	2562.675
3039.40034	2545.675
3041.80542	2542.675
3044.20903	2528.475
3046.61118	2518.275
3049.01187	2532.675
3051.4111	2505.475
3053.80888	2490.275
3056.20519	2496.375
3058.60005	2475.175
3060.99345	2497.575
3063.3854	2472.675
3065.7759	2459.875
3068.16494	2448.575
3070.55254	2445.775
3072.93868	2457.975
3075.32338	2446.875
3077.70662	2438.475
3080.08842	2428.975
3082.46878	2410.675
3084.84769	2439.575
3087.22515	2413.275
3089.60118	2417.475
3091.97576	2401.875
3094.3489	2406.875
3096.72061	2404.275
3099.09087	2392.375
3101.4597	2405.575
3103.82709	2397.975
3106.19305	2376.275
3108.55757	2397.975
3110.92066	2377.075
3113.28232	2383.575
3115.64255	2388.275
3118.00134	2383.075
3120.35871	2356.075
3122.71466	2342.175
3125.06917	2356.775
3127.42226	2342.575
3129.77393	2319.075
3132.12417	2323.375
3134.47299	2331.375
3136.82039	2308.975
3139.16636	2279.175
3141.51092	2308.375
3143.85406	2325.875
3146.19579	2304.275
3148.53609	2294.375
3150.87499	2294.875
3153.21246	2297.075
3155.54853	2297.975
3157.88318	2309.675
3160.21642	2309.775
3162.54826	2297.275
3164.87868	2298.575
3167.2077	2260.175
3169.5353	2283.075
3171.86151	2296.075
3174.18631	2266.675
3176.5097	2270.075
3178.83169	2277.975
3181.15228	2276.975
3183.47147	2252.575
3185.78926	2228.275
3188.10565	2244.675
3190.42065	2223.175
3192.73424	2236.575
3195.04645	2233.575
3197.35725	2207.075
3199.66667	2225.975
3201.97469	2219.675
3204.28132	2209.475
3206.58656	2211.075
3208.8904	2217.175
3211.19287	2210.975
3213.49394	2199.075
3215.79363	2205.675
3218.09193	2213.175
3220.38884	2205.275
3222.68438	2213.475
3224.97853	2181.975
3227.2713	2213.575
3229.56269	2192.475
3231.8527	2201.575
3234.14133	2179.475
