Data from AgNPs_UA_10uM_CRN_500uM_SU_RamanShift__37__13-11-30-261.txt Node

Date: Thu Aug 04 13:11:30 BST 2022
User: TCL
Spectrometer: QEP01345
Trigger mode: 4
Integration Time (sec): 1.000000E0
Scans to average: 10
Electric dark correction enabled: true
Nonlinearity correction enabled: false
Boxcar width: 0
XAxis mode: Raman Shifts
Number of Pixels in Spectrum: 1044
>>>>>Begin Spectral Data<<<<<
46.04893	-0.3875
50.45542	0.0125
54.85868	1.6125
59.25871	-0.4875
63.6555	18.5125
68.04907	17.8125
72.43941	18.2125
76.82654	18.6125
81.21044	18.6125
85.59113	22.1125
89.96862	21.6125
94.34289	23.0125
98.71396	21.1125
103.08183	25.2125
107.4465	25.8125
111.80798	24.8125
116.16626	25.6125
120.52136	26.4125
124.87327	28.6125
129.222	30.1125
133.56755	29.1125
137.90993	32.6125
142.24913	38.0125
146.58517	42.3125
150.91804	48.2125
155.24774	60.5125
159.57429	72.6125
163.89768	95.2125
168.21792	124.0125
172.53501	172.9125
176.84895	239.5125
181.15975	334.9125
185.46741	481.1125
189.77193	661.4125
194.07331	892.3125
198.37157	1156.8125
202.6667	1428.2125
206.9587	1705.5125
211.24758	1967.3125
215.53334	2240.3125
219.81599	2519.7125
224.09553	2825.6125
228.37195	3182.0125
232.64527	3547.2125
236.91549	3926.9125
241.18261	4332.8125
245.44663	4659.5125
249.70755	4968.8125
253.96539	5253.2125
258.22014	5483.7125
262.4718	5655.6125
266.72039	5764.5125
270.96589	5820.2125
275.20832	5789.0125
279.44768	5725.2125
283.68397	5650.6125
287.91719	5597.8125
292.14735	5553.0125
296.37445	5557.8125
300.59849	5606.0125
304.81948	5688.2125
309.03742	5767.0125
313.25231	5802.5125
317.46415	5776.5125
321.67296	5696.4125
325.87872	5599.0125
330.08145	5570.2125
334.28114	5589.4125
338.47781	5664.5125
342.67145	5740.5125
346.86207	5851.9125
351.04966	6006.3125
355.23424	6146.5125
359.4158	6296.5125
363.59435	6360.0125
367.76989	6403.6125
371.94243	6456.7125
376.11196	6471.6125
380.27849	6510.9125
384.44203	6554.8125
388.60257	6606.7125
392.76012	6672.6125
396.91468	6755.1125
401.06626	6838.6125
405.21485	6899.4125
409.36047	6884.4125
413.50311	6824.9125
417.64277	6732.8125
421.77947	6719.0125
425.9132	6694.0125
430.04396	6736.2125
434.17176	6743.8125
438.2966	6812.5125
442.41849	6884.2125
446.53742	6994.9125
450.6534	7086.5125
454.76644	7155.8125
458.87653	7232.7125
462.98368	7269.2125
467.08789	7242.4125
471.18916	7201.1125
475.2875	7170.5125
479.38291	7086.5125
483.4754	7052.2125
487.56496	7024.5125
491.6516	7032.3125
495.73531	7070.3125
499.81612	7083.3125
503.89401	7136.6125
507.96899	7153.1125
512.04106	7199.2125
516.11023	7238.1125
520.1765	7246.7125
524.23987	7295.4125
528.30034	7272.4125
532.35792	7287.9125
536.41261	7280.5125
540.46441	7239.5125
544.51333	7249.7125
548.55936	7300.7125
552.60252	7345.7125
556.64279	7415.7125
560.6802	7470.4125
564.71473	7522.7125
568.7464	7552.2125
572.7752	7526.7125
576.80114	7483.4125
580.82422	7431.6125
584.84444	7440.5125
588.86181	7467.4125
592.87633	7501.6125
596.888	7584.1125
600.89682	7781.1125
604.9028	8220.1125
608.90594	8989.6125
612.90624	9732.4125
616.90371	9331.2125
620.89834	8274.8125
624.89015	7811.1125
628.87913	7809.3125
632.86528	7890.2125
636.84862	7967.2125
640.82913	7910.0125
644.80683	7783.5125
648.78172	7726.9125
652.75379	7742.5125
656.72306	7844.3125
660.68952	7963.3125
664.65319	7957.2125
668.61405	7953.9125
672.57211	8005.4125
676.52738	8031.4125
680.47986	7954.0125
684.42955	7877.7125
688.37646	7877.9125
692.32058	7922.6125
696.26192	8014.6125
700.20048	8101.4125
704.13626	8122.7125
708.06928	8102.7125
711.99952	8041.1125
715.927	8045.2125
719.85171	8106.2125
723.77365	8100.7125
727.69284	8080.6125
731.60928	8075.1125
735.52295	8088.1125
739.43388	8115.9125
743.34206	8135.9125
747.24749	8156.7125
751.15017	8157.6125
755.05012	8205.9125
758.94733	8327.4125
762.8418	8626.1125
766.73354	9064.6125
770.62254	9419.9125
774.50882	9541.1125
778.39237	9435.5125
782.27321	9178.7125
786.15132	8824.8125
790.02671	8530.8125
793.89938	8415.8125
797.76935	8322.1125
801.6366	8309.3125
805.50115	8263.2125
809.36299	8254.7125
813.22213	8258.7125
817.07857	8291.1125
820.93231	8283.7125
824.78336	8280.4125
828.63172	8308.2125
832.47738	8322.5125
836.32036	8328.2125
840.16066	8354.5125
843.99827	8354.3125
847.8332	8359.1125
851.66546	8373.2125
855.49504	8405.2125
859.32195	8418.7125
863.1462	8427.3125
866.96777	8420.3125
870.78668	8468.6125
874.60293	8469.8125
878.41652	8509.6125
882.22745	8569.1125
886.03573	8581.3125
889.84136	8597.1125
893.64433	8591.1125
897.44466	8550.3125
901.24235	8559.3125
905.0374	8570.5125
908.8298	8568.3125
912.61957	8565.4125
916.40671	8579.5125
920.19121	8566.2125
923.97308	8582.1125
927.75233	8600.5125
931.52895	8658.9125
935.30295	8611.9125
939.07433	8580.8125
942.84309	8543.0125
946.60924	8529.4125
950.37278	8534.0125
954.13371	8524.2125
957.89203	8524.6125
961.64774	8545.7125
965.40086	8548.2125
969.15137	8512.9125
972.89929	8515.9125
976.64461	8538.2125
980.38733	8540.2125
984.12747	8553.8125
987.86502	8570.2125
991.59999	8613.1125
995.33237	8635.0125
999.06217	8678.4125
1002.78939	8720.8125
1006.51404	8821.1125
1010.23611	8886.4125
1013.95561	8924.2125
1017.67255	8938.9125
1021.38692	8946.9125
1025.09872	8911.9125
1028.80796	8867.1125
1032.51465	8874.7125
1036.21877	8873.5125
1039.92035	8911.0125
1043.61937	8874.5125
1047.31584	8929.4125
1051.00976	8958.7125
1054.70114	8985.2125
1058.38998	8992.2125
1062.07627	9014.4125
1065.76003	9061.4125
1069.44126	9123.7125
1073.11995	9232.4125
1076.79611	9359.6125
1080.46974	9406.2125
1084.14085	9433.2125
1087.80943	9485.7125
1091.47549	9493.2125
1095.13903	9512.9125
1098.80005	9554.0125
1102.45857	9603.9125
1106.11456	9601.4125
1109.76805	9518.3125
1113.41903	9468.0125
1117.06751	9463.3125
1120.71348	9532.1125
1124.35696	9576.4125
1127.99793	9622.9125
1131.63641	9578.8125
1135.2724	9467.9125
1138.90589	9371.3125
1142.5369	9329.0125
1146.16542	9279.2125
1149.79145	9262.2125
1153.415	9216.1125
1157.03607	9187.9125
1160.65467	9218.0125
1164.27079	9316.8125
1167.88443	9435.3125
1171.49561	9655.8125
1175.10432	9945.9125
1178.71056	10310.4125
1182.31434	10656.6125
1185.91565	10810.1125
1189.51451	10856.1125
1193.11091	10856.7125
1196.70485	10779.2125
1200.29634	10705.0125
1203.88538	10541.1125
1207.47197	10353.7125
1211.05612	10147.1125
1214.63782	9952.4125
1218.21708	9816.8125
1221.79391	9728.1125
1225.36829	9685.0125
1228.94024	9677.8125
1232.50976	9675.1125
1236.07685	9710.2125
1239.6415	9770.0125
1243.20374	9789.8125
1246.76355	9806.6125
1250.32093	9875.1125
1253.8759	9939.0125
1257.42845	10084.5125
1260.97859	10185.2125
1264.52631	10314.0125
1268.07163	10407.6125
1271.61453	10462.8125
1275.15503	10456.8125
1278.69312	10431.9125
1282.22882	10450.6125
1285.76211	10492.0125
1289.29301	10528.6125
1292.82151	10641.6125
1296.34761	10731.1125
1299.87133	10893.4125
1303.39266	11137.1125
1306.9116	11513.7125
1310.42815	11886.9125
1313.94233	12068.8125
1317.45412	11922.9125
1320.96354	11659.8125
1324.47058	11390.4125
1327.97525	11140.6125
1331.47754	10984.8125
1334.97747	10944.1125
1338.47502	11000.1125
1341.97022	11195.2125
1345.46305	11557.7125
1348.95352	12048.9125
1352.44163	12545.7125
1355.92738	12929.9125
1359.41078	13314.5125
1362.89183	13567.7125
1366.37053	13199.9125
1369.84688	12215.1125
1373.32088	11270.3125
1376.79254	10746.5125
1380.26186	10453.7125
1383.72883	10306.2125
1387.19347	10139.1125
1390.65578	9941.7125
1394.11575	9793.7125
1397.57339	9693.1125
1401.0287	9625.8125
1404.48168	9626.5125
1407.93234	9666.1125
1411.38068	9730.8125
1414.82669	9781.5125
1418.27039	9794.8125
1421.71177	9756.2125
1425.15083	9685.2125
1428.58758	9649.0125
1432.02203	9660.2125
1435.45416	9628.6125
1438.88399	9637.3125
1442.31151	9626.5125
1445.73673	9637.6125
1449.15965	9670.6125
1452.58027	9650.3125
1455.9986	9666.3125
1459.41463	9681.4125
1462.82837	9713.6125
1466.23982	9834.7125
1469.64898	9926.9125
1473.05586	10035.2125
1476.46045	10131.2125
1479.86276	10174.4125
1483.26279	10237.1125
1486.66054	10309.8125
1490.05602	10451.2125
1493.44922	10654.7125
1496.84016	10965.8125
1500.22882	11421.1125
1503.61521	11929.7125
1506.99934	12396.9125
1510.38121	12653.2125
1513.76081	12503.1125
1517.13816	11989.2125
1520.51324	11401.0125
1523.88607	10915.5125
1527.25665	10611.0125
1530.62498	10487.9125
1533.99105	10446.0125
1537.35488	10434.4125
1540.71647	10376.8125
1544.07581	10332.4125
1547.4329	10316.6125
1550.78776	10262.3125
1554.14038	10176.4125
1557.49077	10165.7125
1560.83892	10192.9125
1564.18484	10299.5125
1567.52853	10373.8125
1570.86999	10449.7125
1574.20922	10511.1125
1577.54624	10460.8125
1580.88103	10282.3125
1584.2136	10056.6125
1587.54395	9972.6125
1590.87208	9989.4125
1594.19801	10135.5125
1597.52172	10272.7125
1600.84321	10388.3125
1604.16251	10353.4125
1607.47959	10278.0125
1610.79447	10142.7125
1614.10715	9922.5125
1617.41763	9665.1125
1620.7259	9500.8125
1624.03199	9381.8125
1627.33587	9321.8125
1630.63757	9345.2125
1633.93707	9457.5125
1637.23439	9716.5125
1640.52951	10037.1125
1643.82246	10546.8125
1647.11321	10952.7125
1650.40179	11129.5125
1653.68819	10874.9125
1656.97241	10289.6125
1660.25446	9713.7125
1663.53433	9310.1125
1666.81203	9047.0125
1670.08756	8901.2125
1673.36092	8796.6125
1676.63211	8754.7125
1679.90115	8680.7125
1683.16801	8619.1125
1686.43272	8586.0125
1689.69527	8540.6125
1692.95567	8498.3125
1696.2139	8490.4125
1699.46999	8482.7125
1702.72392	8482.9125
1705.97571	8490.3125
1709.22535	8468.3125
1712.47284	8469.3125
1715.71819	8485.5125
1718.96139	8474.8125
1722.20246	8478.5125
1725.44139	8478.6125
1728.67818	8433.4125
1731.91284	8408.7125
1735.14537	8395.5125
1738.37576	8355.5125
1741.60403	8343.9125
1744.83017	8342.6125
1748.05418	8357.8125
1751.27607	8308.5125
1754.49584	8310.3125
1757.71349	8299.8125
1760.92903	8303.8125
1764.14244	8302.8125
1767.35375	8273.1125
1770.56294	8267.5125
1773.77002	8288.0125
1776.97499	8241.5125
1780.17785	8234.0125
1783.37861	8194.4125
1786.57727	8213.5125
1789.77382	8222.0125
1792.96828	8221.6125
1796.16064	8183.2125
1799.3509	8185.9125
1802.53907	8176.5125
1805.72514	8152.4125
1808.90913	8136.8125
1812.09102	8128.3125
1815.27083	8095.9125
1818.44856	8089.7125
1821.6242	8058.0125
1824.79776	8059.4125
1827.96924	8066.7125
1831.13864	8051.1125
1834.30597	8045.2125
1837.47122	8042.7125
1840.6344	8004.9125
1843.7955	8021.8125
1846.95454	8024.4125
1850.11151	8008.6125
1853.26642	8021.9125
1856.41926	8014.4125
1859.57004	8049.3125
1862.71876	8023.0125
1865.86542	8019.4125
1869.01003	7998.9125
1872.15258	7978.9125
1875.29308	7965.2125
1878.43152	7953.5125
1881.56792	7953.0125
1884.70227	7936.4125
1887.83457	7909.8125
1890.96482	7892.9125
1894.09304	7893.1125
1897.21921	7884.1125
1900.34335	7882.6125
1903.46544	7879.9125
1906.58551	7872.2125
1909.70353	7852.8125
1912.81953	7869.8125
1915.93349	7841.8125
1919.04543	7819.3125
1922.15534	7833.6125
1925.26322	7813.3125
1928.36908	7785.3125
1931.47292	7771.9125
1934.57473	7758.0125
1937.67453	7749.6125
1940.77232	7728.9125
1943.86808	7722.2125
1946.96184	7696.9125
1950.05358	7685.7125
1953.14331	7641.4125
1956.23103	7639.8125
1959.31675	7609.9125
1962.40046	7589.7125
1965.48217	7562.2125
1968.56188	7536.0125
1971.63959	7518.2125
1974.7153	7507.8125
1977.78901	7506.0125
1980.86073	7489.8125
1983.93046	7449.4125
1986.99819	7430.6125
1990.06394	7430.1125
1993.1277	7376.7125
1996.18947	7372.9125
1999.24925	7316.8125
2002.30706	7305.9125
2005.36288	7286.3125
2008.41672	7265.1125
2011.46859	7261.4125
2014.51848	7235.5125
2017.56639	7213.4125
2020.61233	7188.2125
2023.6563	7157.0125
2026.6983	7159.0125
2029.73833	7119.5125
2032.7764	7109.4125
2035.8125	7086.3125
2038.84664	7076.7125
2041.87881	7059.9125
2044.90903	7050.3125
2047.93729	7031.4125
2050.96359	7023.7125
2053.98794	7020.5125
2057.01034	7019.6125
2060.03078	7014.7125
2063.04927	7007.3125
2066.06582	6989.8125
2069.08042	6975.3125
2072.09307	6980.4125
2075.10378	6973.6125
2078.11255	6975.2125
2081.11938	6950.4125
2084.12426	6951.3125
2087.12722	6946.6125
2090.12824	6959.8125
2093.12732	6964.4125
2096.12447	6958.9125
2099.11969	6965.4125
2102.11299	6967.1125
2105.10435	6970.5125
2108.09379	6976.5125
2111.08131	6954.0125
2114.0669	6953.9125
2117.05057	6976.8125
2120.03233	6998.0125
2123.01216	6991.3125
2125.99008	6972.5125
2128.96609	6990.5125
2131.94018	7008.6125
2134.91236	6990.3125
2137.88263	6982.6125
2140.851	6991.7125
2143.81746	7001.3125
2146.78201	6993.1125
2149.74466	6990.5125
2152.7054	6991.9125
2155.66425	6991.1125
2158.6212	6992.3125
2161.57625	6970.1125
2164.52941	6991.5125
2167.48067	6969.2125
2170.43004	6960.0125
2173.37752	6985.3125
2176.32311	6968.7125
2179.26681	6980.8125
2182.20863	6987.7125
2185.14856	6992.0125
2188.08661	6984.8125
2191.02278	6992.5125
2193.95707	6980.6125
2196.88948	6962.1125
2199.82001	6962.7125
2202.74867	6942.5125
2205.67545	6965.9125
2208.60037	6935.7125
2211.52341	6930.0125
2214.44458	6906.1125
2217.36388	6870.9125
2220.28132	6880.5125
2223.1969	6850.2125
2226.11061	6858.5125
2229.02246	6802.9125
2231.93245	6796.2125
2234.84058	6808.2125
2237.74686	6788.4125
2240.65128	6765.4125
2243.55385	6769.0125
2246.45456	6765.0125
2249.35343	6752.4125
2252.25044	6729.5125
2255.14561	6741.0125
2258.03893	6745.0125
2260.93041	6720.0125
2263.82004	6719.7125
2266.70783	6704.1125
2269.59378	6669.8125
2272.4779	6640.4125
2275.36017	6638.1125
2278.24061	6621.6125
2281.11922	6599.9125
2283.996	6568.9125
2286.87094	6590.5125
2289.74405	6565.0125
2292.61534	6571.0125
2295.4848	6554.1125
2298.35243	6539.5125
2301.21824	6553.9125
2304.08223	6529.3125
2306.94439	6529.8125
2309.80474	6523.0125
2312.66327	6521.2125
2315.51999	6519.3125
2318.37489	6496.6125
2321.22797	6475.1125
2324.07925	6459.2125
2326.92871	6458.5125
2329.77637	6424.4125
2332.62222	6449.3125
2335.46626	6432.9125
2338.3085	6393.5125
2341.14893	6399.0125
2343.98756	6406.1125
2346.8244	6403.4125
2349.65943	6372.9125
2352.49267	6356.6125
2355.32411	6347.5125
2358.15376	6354.9125
2360.98161	6343.1125
2363.80768	6337.1125
2366.63195	6332.4125
2369.45444	6345.4125
2372.27514	6336.8125
2375.09405	6338.2125
2377.91118	6308.7125
2380.72652	6304.1125
2383.54009	6275.1125
2386.35187	6271.0125
2389.16188	6263.6125
2391.97011	6238.1125
2394.77657	6213.1125
2397.58125	6197.2125
2400.38416	6203.8125
2403.18529	6215.7125
2405.98466	6199.7125
2408.78226	6192.1125
2411.57809	6178.6125
2414.37216	6150.6125
2417.16446	6141.1125
2419.955	6152.0125
2422.74378	6131.4125
2425.5308	6140.2125
2428.31606	6128.8125
2431.09956	6123.9125
2433.88131	6111.1125
2436.6613	6099.7125
2439.43954	6095.0125
2442.21603	6078.5125
2444.99077	6074.7125
2447.76377	6078.0125
2450.53501	6073.7125
2453.30451	6068.7125
2456.07226	6040.0125
2458.83827	6044.7125
2461.60254	6038.4125
2464.36507	6008.1125
2467.12586	6011.1125
2469.88492	5995.6125
2472.64224	5992.8125
2475.39782	6006.9125
2478.15167	5986.7125
2480.90379	5974.5125
2483.65417	5951.2125
2486.40283	5966.3125
2489.14976	5968.8125
2491.89497	5953.4125
2494.63845	5949.7125
2497.3802	5934.9125
2500.12024	5937.8125
2502.85855	5926.8125
2505.59514	5920.1125
2508.33002	5911.6125
2511.06318	5899.0125
2513.79462	5881.8125
2516.52435	5872.7125
2519.25237	5859.3125
2521.97867	5852.6125
2524.70327	5856.4125
2527.42616	5829.9125
2530.14734	5828.0125
2532.86681	5808.5125
2535.58458	5828.8125
2538.30065	5825.8125
2541.01501	5805.7125
2543.72768	5801.4125
2546.43864	5794.5125
2549.14791	5791.3125
2551.85548	5776.1125
2554.56136	5766.9125
2557.26554	5740.2125
2559.96803	5744.4125
2562.66883	5725.0125
2565.36794	5707.5125
2568.06536	5691.0125
2570.7611	5668.4125
2573.45514	5650.5125
2576.14751	5667.8125
2578.83819	5643.4125
2581.52719	5631.1125
2584.21451	5628.8125
2586.90015	5623.9125
2589.58411	5601.4125
2592.2664	5604.9125
2594.94701	5599.3125
2597.62594	5555.1125
2600.30321	5566.7125
2602.9788	5548.2125
2605.65273	5547.8125
2608.32498	5538.4125
2610.99557	5517.6125
2613.66449	5503.8125
2616.33175	5509.5125
2618.99734	5501.5125
2621.66128	5482.1125
2624.32355	5464.9125
2626.98416	5456.2125
2629.64311	5451.2125
2632.30041	5440.7125
2634.95605	5407.6125
2637.61004	5410.5125
2640.26238	5414.0125
2642.91306	5402.5125
2645.56209	5404.8125
2648.20948	5388.6125
2650.85521	5392.1125
2653.4993	5393.1125
2656.14175	5381.9125
2658.78255	5371.2125
2661.42171	5358.2125
2664.05923	5373.9125
2666.6951	5379.9125
2669.32934	5366.3125
2671.96194	5356.5125
2674.59291	5367.6125
2677.22224	5363.4125
2679.84993	5365.0125
2682.476	5352.1125
2685.10043	5368.2125
2687.72324	5358.1125
2690.34441	5367.6125
2692.96396	5361.3125
2695.58188	5344.0125
2698.19818	5340.7125
2700.81285	5343.3125
2703.4259	5336.1125
2706.03733	5312.8125
2708.64714	5324.6125
2711.25533	5323.1125
2713.86191	5311.5125
2716.46687	5321.9125
2719.07021	5313.5125
2721.67194	5318.5125
2724.27206	5325.5125
2726.87057	5321.0125
2729.46747	5320.8125
2732.06276	5297.1125
2734.65644	5312.1125
2737.24852	5279.5125
2739.83899	5272.3125
2742.42786	5280.2125
2745.01513	5259.2125
2747.60079	5231.3125
2750.18486	5243.7125
2752.76733	5238.2125
2755.3482	5237.1125
2757.92747	5211.0125
2760.50515	5205.2125
2763.08123	5204.4125
2765.65573	5194.4125
2768.22863	5178.9125
2770.79994	5171.8125
2773.36967	5178.1125
2775.9378	5160.1125
2778.50435	5149.8125
2781.06932	5155.8125
2783.6327	5158.6125
2786.1945	5133.3125
2788.75471	5120.8125
2791.31335	5092.8125
2793.87041	5109.5125
2796.42589	5094.9125
2798.97979	5073.1125
2801.53212	5072.2125
2804.08288	5046.2125
2806.63206	5016.6125
2809.17967	5029.5125
2811.72571	5026.5125
2814.27018	4994.6125
2816.81308	4998.4125
2819.35442	4982.7125
2821.89419	4969.5125
2824.43239	4943.1125
2826.96904	4941.9125
2829.50412	4936.1125
2832.03763	4922.2125
2834.56959	4914.1125
2837.1	4900.5125
2839.62884	4889.0125
2842.15613	4892.6125
2844.68186	4893.5125
2847.20604	4884.8125
2849.72867	4881.6125
2852.24974	4860.7125
2854.76927	4848.6125
2857.28724	4828.3125
2859.80367	4814.6125
2862.31855	4816.2125
2864.83189	4820.9125
2867.34368	4819.8125
2869.85393	4818.6125
2872.36264	4786.3125
2874.8698	4799.1125
2877.37543	4784.1125
2879.87952	4780.0125
2882.38207	4772.7125
2884.88308	4776.5125
2887.38256	4767.9125
2889.88051	4759.9125
2892.37692	4751.0125
2894.8718	4760.8125
2897.36515	4763.6125
2899.85698	4746.6125
2902.34727	4768.6125
2904.83604	4752.9125
2907.32328	4744.4125
2909.809	4752.2125
2912.29319	4765.4125
2914.77587	4752.8125
2917.25702	4758.0125
2919.73665	4781.0125
2922.21476	4747.6125
2924.69136	4747.5125
2927.16644	4753.5125
2929.64	4736.3125
2932.11205	4723.3125
2934.58258	4699.6125
2937.05161	4722.8125
2939.51912	4710.1125
2941.98513	4722.9125
2944.44962	4704.4125
2946.91261	4694.7125
2949.37409	4696.4125
2951.83407	4684.2125
2954.29254	4686.3125
2956.74951	4679.3125
2959.20498	4691.5125
2961.65895	4676.3125
2964.11142	4678.8125
2966.56239	4669.7125
2969.01186	4688.9125
2971.45984	4662.8125
2973.90632	4666.5125
2976.35131	4650.1125
2978.7948	4653.5125
2981.23681	4642.6125
2983.67732	4624.9125
2986.11635	4606.8125
2988.55388	4598.7125
2990.98993	4588.8125
2993.4245	4587.2125
2995.85758	4573.3125
2998.28917	4573.1125
3000.71928	4560.5125
3003.14791	4540.9125
3005.57506	4525.9125
3008.00073	4510.8125
3010.42493	4522.2125
3012.84764	4507.1125
3015.26888	4487.0125
3017.68865	4488.0125
3020.10694	4479.6125
3022.52376	4466.8125
3024.9391	4437.9125
3027.35298	4446.4125
3029.76539	4423.1125
3032.17632	4433.3125
3034.5858	4427.8125
3036.9938	4414.7125
3039.40034	4419.4125
3041.80542	4389.6125
3044.20903	4398.9125
3046.61118	4392.4125
3049.01187	4377.2125
3051.4111	4372.4125
3053.80888	4342.7125
3056.20519	4338.7125
3058.60005	4318.4125
3060.99345	4319.9125
3063.3854	4305.2125
3065.7759	4311.4125
3068.16494	4299.8125
3070.55254	4283.5125
3072.93868	4269.5125
3075.32338	4264.4125
3077.70662	4235.8125
3080.08842	4230.1125
3082.46878	4247.1125
3084.84769	4228.7125
3087.22515	4211.3125
3089.60118	4211.9125
3091.97576	4204.5125
3094.3489	4204.2125
3096.72061	4215.8125
3099.09087	4205.5125
3101.4597	4211.1125
3103.82709	4206.7125
3106.19305	4203.2125
3108.55757	4199.1125
3110.92066	4173.8125
3113.28232	4187.9125
3115.64255	4158.3125
3118.00134	4157.3125
