Data from AgNPs_UA_5uM_CRN_500uM_SU_RamanShift__75__11-41-53-148.txt Node

Date: Thu Aug 04 11:41:53 BST 2022
User: TCL
Spectrometer: QEP01345
Trigger mode: 4
Integration Time (sec): 1.000000E0
Scans to average: 10
Electric dark correction enabled: true
Nonlinearity correction enabled: false
Boxcar width: 0
XAxis mode: Raman Shifts
Number of Pixels in Spectrum: 1044
>>>>>Begin Spectral Data<<<<<
46.04893	0.15
50.45542	-0.15
54.85868	-0.65
59.25871	-0.65
63.6555	-58.95
68.04907	-40.85
72.43941	-73.35
76.82654	-59.25
81.21044	-57.65
85.59113	-50.45
89.96862	-75.35
94.34289	-57.85
98.71396	-78.05
103.08183	-58.35
107.4465	-51.15
111.80798	-58.75
116.16626	-45.35
120.52136	-76.55
124.87327	-51.55
129.222	-64.75
133.56755	-52.25
137.90993	-61.75
142.24913	-51.85
146.58517	-46.65
150.91804	-42.25
155.24774	-31.05
159.57429	-12.25
163.89768	-9.05
168.21792	37.45
172.53501	53.35
176.84895	133.05
181.15975	261.35
185.46741	410.95
189.77193	578.85
194.07331	853.35
198.37157	1133.55
202.6667	1407.65
206.9587	1719.55
211.24758	2042.25
215.53334	2355.25
219.81599	2721.35
224.09553	3148.25
228.37195	3570.95
232.64527	4011.65
236.91549	4443.35
241.18261	4743.05
245.44663	4961.75
249.70755	5115.05
253.96539	5286.25
258.22014	5424.35
262.4718	5558.85
266.72039	5625.95
270.96589	5586.75
275.20832	5480.95
279.44768	5350.25
283.68397	5241.55
287.91719	5157.85
292.14735	5203.95
296.37445	5355.15
300.59849	5671.05
304.81948	6092.65
309.03742	6543.25
313.25231	6920.05
317.46415	6902.15
321.67296	6365.95
325.87872	5798.75
330.08145	5457.15
334.28114	5409.45
338.47781	5516.55
342.67145	5724.05
346.86207	6049.95
351.04966	6556.55
355.23424	7080.95
359.4158	7340.75
363.59435	7203.75
367.76989	6982.85
371.94243	6767.35
376.11196	6549.45
380.27849	6429.65
384.44203	6334.45
388.60257	6288.65
392.76012	6330.25
396.91468	6481.35
401.06626	6639.25
405.21485	6660.15
409.36047	6463.95
413.50311	6123.45
417.64277	5794.55
421.77947	5597.85
425.9132	5500.25
430.04396	5462.75
434.17176	5468.95
438.2966	5567.05
442.41849	5632.95
446.53742	5759.65
450.6534	5831.85
454.76644	5876.55
458.87653	5870.75
462.98368	5848.75
467.08789	5803.15
471.18916	5712.15
475.2875	5645.35
479.38291	5554.75
483.4754	5503.95
487.56496	5475.05
491.6516	5460.45
495.73531	5462.35
499.81612	5499.85
503.89401	5599.65
507.96899	5650.05
512.04106	5756.25
516.11023	5855.75
520.1765	5949.05
524.23987	5973.15
528.30034	5978.95
532.35792	5903.55
536.41261	5892.25
540.46441	5808.85
544.51333	5737.65
548.55936	5752.75
552.60252	5848.35
556.64279	5948.95
560.6802	6108.25
564.71473	6424.45
568.7464	6805.35
572.7752	6777.65
576.80114	6271.95
580.82422	5864.05
584.84444	5689.45
588.86181	5649.55
592.87633	5661.55
596.888	5745.85
600.89682	6089.65
604.9028	7078.15
608.90594	9425.75
612.90624	12190.55
616.90371	11348.75
620.89834	7876.45
624.89015	6404.45
628.87913	6201.15
632.86528	6438.15
636.84862	6566.55
640.82913	6330.85
644.80683	5967.55
648.78172	5801.85
652.75379	5850.65
656.72306	6132.85
660.68952	6424.65
664.65319	6302.85
668.61405	5984.35
672.57211	5873.95
676.52738	5893.65
680.47986	5856.75
684.42955	5791.15
688.37646	5755.35
692.32058	5768.95
696.26192	5850.35
700.20048	5913.45
704.13626	5966.65
708.06928	5893.05
711.99952	5895.15
715.927	5901.95
719.85171	6007.75
723.77365	6058.75
727.69284	6017.85
731.60928	5954.45
735.52295	5935.25
739.43388	5996.25
743.34206	5995.55
747.24749	6028.45
751.15017	6059.15
755.05012	6152.15
758.94733	6592.95
762.8418	7593.65
766.73354	8922.85
770.62254	9686.15
774.50882	9456.45
778.39237	8967.65
782.27321	8208.35
786.15132	7225.65
790.02671	6569.25
793.89938	6203.75
797.76935	6112.95
801.6366	6044.85
805.50115	5999.55
809.36299	6017.35
813.22213	6012.05
817.07857	6024.65
820.93231	6035.45
824.78336	6069.75
828.63172	6126.65
832.47738	6125.85
836.32036	6123.75
840.16066	6070.65
843.99827	6027.15
847.8332	6004.45
851.66546	6028.65
855.49504	6025.55
859.32195	6049.85
863.1462	6032.15
866.96777	6029.15
870.78668	6030.25
874.60293	6067.55
878.41652	6083.95
882.22745	6154.15
886.03573	6206.25
889.84136	6169.65
893.64433	6185.65
897.44466	6178.65
901.24235	6191.15
905.0374	6178.85
908.8298	6097.85
912.61957	6050.55
916.40671	6000.55
920.19121	6043.55
923.97308	6139.65
927.75233	6219.55
931.52895	6380.55
935.30295	6323.75
939.07433	6128.85
942.84309	5979.75
946.60924	5955.75
950.37278	5902.55
954.13371	5904.25
957.89203	5899.65
961.64774	5898.95
965.40086	5870.35
969.15137	5875.45
972.89929	5918.35
976.64461	5879.65
980.38733	5898.35
984.12747	5883.35
987.86502	5881.35
991.59999	5923.95
995.33237	5959.65
999.06217	6002.95
1002.78939	6096.15
1006.51404	6200.35
1010.23611	6246.95
1013.95561	6241.65
1017.67255	6200.95
1021.38692	6161.05
1025.09872	6108.45
1028.80796	6024.65
1032.51465	6055.35
1036.21877	6060.55
1039.92035	6104.85
1043.61937	6111.95
1047.31584	6162.25
1051.00976	6224.75
1054.70114	6196.05
1058.38998	6177.35
1062.07627	6199.05
1065.76003	6193.55
1069.44126	6254.75
1073.11995	6290.45
1076.79611	6430.15
1080.46974	6599.75
1084.14085	6852.15
1087.80943	7037.65
1091.47549	7036.05
1095.13903	6887.75
1098.80005	6719.35
1102.45857	6611.85
1106.11456	6585.15
1109.76805	6560.05
1113.41903	6690.25
1117.06751	6855.95
1120.71348	7190.25
1124.35696	7714.15
1127.99793	8047.35
1131.63641	7788.75
1135.2724	7269.65
1138.90589	6889.35
1142.5369	6648.85
1146.16542	6546.65
1149.79145	6433.15
1153.415	6382.45
1157.03607	6391.75
1160.65467	6467.65
1164.27079	6641.55
1167.88443	6834.15
1171.49561	7215.95
1175.10432	7835.75
1178.71056	8693.05
1182.31434	9383.15
1185.91565	9348.75
1189.51451	8878.15
1193.11091	8358.35
1196.70485	8001.15
1200.29634	7799.85
1203.88538	7602.95
1207.47197	7218.25
1211.05612	6893.55
1214.63782	6662.35
1218.21708	6533.55
1221.79391	6478.95
1225.36829	6447.55
1228.94024	6449.95
1232.50976	6449.55
1236.07685	6474.85
1239.6415	6512.95
1243.20374	6545.85
1246.76355	6593.55
1250.32093	6701.35
1253.8759	6790.45
1257.42845	6966.65
1260.97859	7220.35
1264.52631	7469.65
1268.07163	7597.95
1271.61453	7636.95
1275.15503	7581.95
1278.69312	7503.85
1282.22882	7545.15
1285.76211	7816.35
1289.29301	8163.25
1292.82151	8429.15
1296.34761	8568.65
1299.87133	8862.45
1303.39266	9551.85
1306.9116	10833.15
1310.42815	12374.45
1313.94233	12948.55
1317.45412	11833.35
1320.96354	10289.05
1324.47058	9029.75
1327.97525	8180.75
1331.47754	7699.15
1334.97747	7534.95
1338.47502	7581.95
1341.97022	7930.55
1345.46305	8683.35
1348.95352	9724.35
1352.44163	10780.15
1355.92738	11970.55
1359.41078	13992.15
1362.89183	16231.25
1366.37053	15786.25
1369.84688	12585.55
1373.32088	9807.15
1376.79254	8517.75
1380.26186	7931.25
1383.72883	7503.25
1387.19347	7073.55
1390.65578	6734.35
1394.11575	6559.05
1397.57339	6436.25
1401.0287	6363.15
1404.48168	6300.85
1407.93234	6327.95
1411.38068	6344.25
1414.82669	6478.85
1418.27039	6623.85
1421.71177	6649.55
1425.15083	6567.85
1428.58758	6564.05
1432.02203	6669.75
1435.45416	6786.25
1438.88399	6681.55
1442.31151	6589.75
1445.73673	6557.35
1449.15965	6520.55
1452.58027	6498.95
1455.9986	6447.45
1459.41463	6415.95
1462.82837	6435.95
1466.23982	6510.65
1469.64898	6640.15
1473.05586	6698.35
1476.46045	6736.25
1479.86276	6763.05
1483.26279	6885.35
1486.66054	7125.75
1490.05602	7446.25
1493.44922	8006.75
1496.84016	8853.25
1500.22882	10134.55
1503.61521	11913.35
1506.99934	14113.05
1510.38121	16199.95
1513.76081	16869.65
1517.13816	15401.05
1520.51324	12698.55
1523.88607	10338.65
1527.25665	8848.25
1530.62498	8019.15
1533.99105	7529.65
1537.35488	7226.95
1540.71647	7037.55
1544.07581	6936.75
1547.4329	6953.55
1550.78776	7007.25
1554.14038	7101.45
1557.49077	7239.85
1560.83892	7551.55
1564.18484	7996.95
1567.52853	8484.75
1570.86999	8807.75
1574.20922	8857.15
1577.54624	8694.95
1580.88103	8082.05
1584.2136	7338.25
1587.54395	6964.35
1590.87208	6862.45
1594.19801	6985.65
1597.52172	7243.15
1600.84321	7302.95
1604.16251	7045.35
1607.47959	6766.45
1610.79447	6603.15
1614.10715	6430.85
1617.41763	6281.35
1620.7259	6213.25
1624.03199	6209.45
1627.33587	6219.85
1630.63757	6313.75
1633.93707	6551.85
1637.23439	6983.75
1640.52951	7751.65
1643.82246	8952.15
1647.11321	10564.75
1650.40179	11790.95
1653.68819	11590.05
1656.97241	10060.25
1660.25446	8332.15
1663.53433	7143.15
1666.81203	6472.25
1670.08756	6142.85
1673.36092	5974.95
1676.63211	5828.25
1679.90115	5753.85
1683.16801	5685.55
1686.43272	5607.65
1689.69527	5596.85
1692.95567	5532.55
1696.2139	5527.75
1699.46999	5488.05
1702.72392	5499.35
1705.97571	5526.05
1709.22535	5517.45
1712.47284	5538.75
1715.71819	5560.95
1718.96139	5584.65
1722.20246	5563.15
1725.44139	5538.75
1728.67818	5520.65
1731.91284	5488.15
1735.14537	5462.15
1738.37576	5429.85
1741.60403	5420.05
1744.83017	5393.85
1748.05418	5396.95
1751.27607	5398.45
1754.49584	5373.55
1757.71349	5338.05
1760.92903	5327.35
1764.14244	5285.35
1767.35375	5282.45
1770.56294	5274.05
1773.77002	5258.85
1776.97499	5278.75
1780.17785	5249.55
1783.37861	5235.75
1786.57727	5252.55
1789.77382	5201.95
1792.96828	5238.25
1796.16064	5228.75
1799.3509	5229.35
1802.53907	5239.65
1805.72514	5198.55
1808.90913	5186.85
1812.09102	5199.15
1815.27083	5171.35
1818.44856	5164.35
1821.6242	5166.25
1824.79776	5149.55
1827.96924	5128.65
1831.13864	5099.15
1834.30597	5134.65
1837.47122	5091.75
1840.6344	5087.05
1843.7955	5071.35
1846.95454	5082.55
1850.11151	5087.75
1853.26642	5054.45
1856.41926	5067.65
1859.57004	5072.35
1862.71876	5064.55
1865.86542	5060.55
1869.01003	5083.85
1872.15258	5044.05
1875.29308	5062.85
1878.43152	5059.55
1881.56792	5029.45
1884.70227	5009.45
1887.83457	5011.45
1890.96482	4972.95
1894.09304	4981.95
1897.21921	5003.65
1900.34335	4995.65
1903.46544	4965.15
1906.58551	4998.85
1909.70353	4986.75
1912.81953	4972.85
1915.93349	4958.75
1919.04543	4938.55
1922.15534	4929.55
1925.26322	4934.75
1928.36908	4913.75
1931.47292	4898.95
1934.57473	4903.65
1937.67453	4887.55
1940.77232	4859.05
1943.86808	4839.85
1946.96184	4845.75
1950.05358	4814.55
1953.14331	4797.95
1956.23103	4808.45
1959.31675	4785.45
1962.40046	4728.15
1965.48217	4750.65
1968.56188	4747.05
1971.63959	4743.55
1974.7153	4738.25
1977.78901	4721.95
1980.86073	4695.05
1983.93046	4663.05
1986.99819	4564.95
1990.06394	4599.45
1993.1277	4617.15
1996.18947	4614.35
1999.24925	4576.05
2002.30706	4576.75
2005.36288	4571.35
2008.41672	4551.95
2011.46859	4524.15
2014.51848	4534.05
2017.56639	4479.95
2020.61233	4468.85
2023.6563	4483.95
2026.6983	4432.95
2029.73833	4445.35
2032.7764	4459.95
2035.8125	4419.15
2038.84664	4405.15
2041.87881	4408.85
2044.90903	4416.45
2047.93729	4387.65
2050.96359	4362.95
2053.98794	4370.65
2057.01034	4371.85
2060.03078	4365.35
2063.04927	4338.65
2066.06582	4353.15
2069.08042	4342.45
2072.09307	4355.85
2075.10378	4347.45
2078.11255	4319.55
2081.11938	4336.05
2084.12426	4328.15
2087.12722	4345.45
2090.12824	4324.05
2093.12732	4331.95
2096.12447	4342.35
2099.11969	4325.05
2102.11299	4320.85
2105.10435	4355.35
2108.09379	4327.35
2111.08131	4318.85
2114.0669	4329.95
2117.05057	4336.45
2120.03233	4332.25
2123.01216	4345.55
2125.99008	4345.55
2128.96609	4358.75
2131.94018	4368.95
2134.91236	4367.65
2137.88263	4340.55
2140.851	4361.35
2143.81746	4387.65
2146.78201	4369.05
2149.74466	4345.75
2152.7054	4361.75
2155.66425	4365.85
2158.6212	4343.05
2161.57625	4325.15
2164.52941	4300.65
2167.48067	4315.75
2170.43004	4302.45
2173.37752	4334.15
2176.32311	4319.45
2179.26681	4320.65
2182.20863	4333.55
2185.14856	4337.95
2188.08661	4326.85
2191.02278	4338.35
2193.95707	4307.65
2196.88948	4294.65
2199.82001	4322.25
2202.74867	4304.75
2205.67545	4300.65
2208.60037	4325.75
2211.52341	4280.95
2214.44458	4273.65
2217.36388	4265.25
2220.28132	4257.75
2223.1969	4229.75
2226.11061	4229.85
2229.02246	4221.45
2231.93245	4241.45
2234.84058	4202.25
2237.74686	4214.85
2240.65128	4184.65
2243.55385	4214.35
2246.45456	4183.85
2249.35343	4210.05
2252.25044	4185.55
2255.14561	4188.75
2258.03893	4185.55
2260.93041	4192.25
2263.82004	4187.95
2266.70783	4182.95
2269.59378	4160.25
2272.4779	4141.25
2275.36017	4144.85
2278.24061	4121.55
2281.11922	4092.05
2283.996	4104.95
2286.87094	4090.65
2289.74405	4069.65
2292.61534	4088.65
2295.4848	4063.15
2298.35243	4065.95
2301.21824	4053.35
2304.08223	4054.45
2306.94439	4055.65
2309.80474	4059.85
2312.66327	4066.95
2315.51999	4045.05
2318.37489	4035.45
2321.22797	4035.45
2324.07925	4010.95
2326.92871	4007.25
2329.77637	3986.95
2332.62222	3978.05
2335.46626	3960.45
2338.3085	3952.55
2341.14893	3972.75
2343.98756	3972.15
2346.8244	3960.65
2349.65943	3956.65
2352.49267	3962.85
2355.32411	3963.25
2358.15376	3943.75
2360.98161	3964.75
2363.80768	3949.05
2366.63195	3960.45
2369.45444	3956.55
2372.27514	3945.35
2375.09405	3959.55
2377.91118	3927.85
2380.72652	3928.35
2383.54009	3909.85
2386.35187	3929.55
2389.16188	3889.65
2391.97011	3896.75
2394.77657	3869.45
2397.58125	3867.25
2400.38416	3859.25
2403.18529	3850.45
2405.98466	3820.25
2408.78226	3844.15
2411.57809	3827.95
2414.37216	3807.75
2417.16446	3826.35
2419.955	3793.25
2422.74378	3820.05
2425.5308	3799.35
2428.31606	3800.35
2431.09956	3825.15
2433.88131	3777.85
2436.6613	3791.35
2439.43954	3787.55
2442.21603	3785.25
2444.99077	3773.05
2447.76377	3774.75
2450.53501	3782.95
2453.30451	3764.45
2456.07226	3762.55
2458.83827	3746.15
2461.60254	3721.15
2464.36507	3735.85
2467.12586	3710.65
2469.88492	3733.35
2472.64224	3729.35
2475.39782	3707.75
2478.15167	3734.25
2480.90379	3717.45
2483.65417	3723.65
2486.40283	3745.85
2489.14976	3745.45
2491.89497	3738.75
2494.63845	3726.65
2497.3802	3726.85
2500.12024	3700.85
2502.85855	3701.75
2505.59514	3693.25
2508.33002	3700.45
2511.06318	3643.05
2513.79462	3667.55
2516.52435	3625.45
2519.25237	3599.45
2521.97867	3593.05
2524.70327	3604.75
2527.42616	3596.05
2530.14734	3598.85
2532.86681	3579.85
2535.58458	3589.85
2538.30065	3578.05
2541.01501	3597.95
2543.72768	3577.45
2546.43864	3572.65
2549.14791	3552.85
2551.85548	3542.65
2554.56136	3536.95
2557.26554	3550.55
2559.96803	3558.25
2562.66883	3546.65
2565.36794	3516.75
2568.06536	3511.65
2570.7611	3515.55
2573.45514	3501.25
2576.14751	3504.85
2578.83819	3488.85
2581.52719	3459.05
2584.21451	3485.65
2586.90015	3455.05
2589.58411	3422.35
2592.2664	3448.95
2594.94701	3449.25
2597.62594	3445.85
2600.30321	3378.25
2602.9788	3391.85
2605.65273	3386.55
2608.32498	3395.35
2610.99557	3401.15
2613.66449	3371.75
2616.33175	3403.15
2618.99734	3393.45
2621.66128	3370.15
2624.32355	3372.25
2626.98416	3352.65
2629.64311	3345.85
2632.30041	3335.65
2634.95605	3322.15
2637.61004	3310.35
2640.26238	3303.25
2642.91306	3297.35
2645.56209	3308.35
2648.20948	3301.25
2650.85521	3294.05
2653.4993	3318.05
2656.14175	3304.55
2658.78255	3292.65
2661.42171	3250.55
2664.05923	3287.25
2666.6951	3302.75
2669.32934	3299.25
2671.96194	3311.75
2674.59291	3302.45
2677.22224	3297.45
2679.84993	3295.05
2682.476	3294.85
2685.10043	3281.45
2687.72324	3267.75
2690.34441	3279.25
2692.96396	3266.95
2695.58188	3292.55
2698.19818	3287.15
2700.81285	3276.25
2703.4259	3255.85
2706.03733	3223.75
2708.64714	3231.65
2711.25533	3257.85
2713.86191	3255.55
2716.46687	3270.95
2719.07021	3254.45
2721.67194	3249.85
2724.27206	3275.35
2726.87057	3246.85
2729.46747	3237.65
2732.06276	3247.15
2734.65644	3227.65
2737.24852	3222.35
2739.83899	3213.05
2742.42786	3219.75
2745.01513	3231.95
2747.60079	3198.15
2750.18486	3189.75
2752.76733	3192.15
2755.3482	3183.55
2757.92747	3183.65
2760.50515	3160.05
2763.08123	3156.75
2765.65573	3152.45
2768.22863	3137.85
2770.79994	3127.45
2773.36967	3138.35
2775.9378	3135.35
2778.50435	3119.95
2781.06932	3113.45
2783.6327	3102.35
2786.1945	3122.95
2788.75471	3112.75
2791.31335	3104.75
2793.87041	3104.75
2796.42589	3079.65
2798.97979	3054.95
2801.53212	3065.85
2804.08288	3090.85
2806.63206	3079.45
2809.17967	3043.65
2811.72571	3050.85
2814.27018	3049.05
2816.81308	3045.15
2819.35442	3012.15
2821.89419	3027.25
2824.43239	3020.85
2826.96904	3032.85
2829.50412	3034.15
2832.03763	3017.25
2834.56959	3019.55
2837.1	3010.15
2839.62884	3016.15
2842.15613	3008.05
2844.68186	3014.85
2847.20604	2988.45
2849.72867	2977.85
2852.24974	2980.55
2854.76927	2955.45
2857.28724	2918.45
2859.80367	2976.75
2862.31855	2980.35
2864.83189	2972.25
2867.34368	2969.45
2869.85393	2970.45
2872.36264	2957.15
2874.8698	2956.45
2877.37543	2972.45
2879.87952	2949.25
2882.38207	2924.15
2884.88308	2940.25
2887.38256	2937.95
2889.88051	2930.75
2892.37692	2938.55
2894.8718	2917.85
2897.36515	2923.55
2899.85698	2912.95
2902.34727	2903.95
2904.83604	2919.35
2907.32328	2934.45
2909.809	2928.25
2912.29319	2923.45
2914.77587	2938.95
2917.25702	2950.85
2919.73665	2953.85
2922.21476	2928.95
2924.69136	2938.15
2927.16644	2904.15
2929.64	2907.25
2932.11205	2903.45
2934.58258	2887.55
2937.05161	2883.95
2939.51912	2879.25
2941.98513	2904.05
2944.44962	2889.15
2946.91261	2860.05
2949.37409	2873.15
2951.83407	2868.55
2954.29254	2879.45
2956.74951	2864.75
2959.20498	2859.15
2961.65895	2863.75
2964.11142	2871.55
2966.56239	2850.45
2969.01186	2860.25
2971.45984	2863.65
2973.90632	2844.25
2976.35131	2859.55
2978.7948	2844.55
2981.23681	2855.35
2983.67732	2839.85
2986.11635	2832.45
2988.55388	2815.45
2990.98993	2831.05
2993.4245	2820.55
2995.85758	2809.05
2998.28917	2800.75
3000.71928	2790.85
3003.14791	2793.95
3005.57506	2785.25
3008.00073	2760.25
3010.42493	2720.65
3012.84764	2762.15
3015.26888	2765.85
3017.68865	2766.65
3020.10694	2712.45
3022.52376	2723.95
3024.9391	2735.25
3027.35298	2726.15
3029.76539	2698.05
3032.17632	2706.55
3034.5858	2685.65
3036.9938	2696.45
3039.40034	2693.45
3041.80542	2670.45
3044.20903	2665.05
3046.61118	2668.35
3049.01187	2667.95
3051.4111	2650.25
3053.80888	2647.65
3056.20519	2635.15
3058.60005	2618.05
3060.99345	2641.55
3063.3854	2612.05
3065.7759	2603.25
3068.16494	2603.25
3070.55254	2583.55
3072.93868	2593.25
3075.32338	2584.55
3077.70662	2577.65
3080.08842	2565.75
3082.46878	2563.85
3084.84769	2569.55
3087.22515	2551.85
3089.60118	2575.05
3091.97576	2560.15
3094.3489	2562.75
3096.72061	2553.55
3099.09087	2541.15
3101.4597	2561.95
3103.82709	2554.15
3106.19305	2542.25
3108.55757	2547.25
3110.92066	2544.05
3113.28232	2546.75
3115.64255	2553.05
3118.00134	2531.75
3120.35871	2518.65
3122.71466	2502.35
3125.06917	2519.95
3127.42226	2502.35
3129.77393	2485.35
3132.12417	2499.25
3134.47299	2507.25
3136.82039	2479.15
3139.16636	2460.25
3141.51092	2492.25
3143.85406	2491.45
3146.19579	2471.55
3148.53609	2474.05
3150.87499	2482.85
3153.21246	2467.75
3155.54853	2482.55
3157.88318	2476.35
3160.21642	2480.75
3162.54826	2482.45
3164.87868	2478.55
3167.2077	2442.15
3169.5353	2464.95
3171.86151	2476.05
3174.18631	2452.65
3176.5097	2455.25
3178.83169	2454.35
3181.15228	2448.35
3183.47147	2429.35
3185.78926	2424.15
3188.10565	2430.35
3190.42065	2408.95
3192.73424	2411.85
3195.04645	2404.35
3197.35725	2393.65
3199.66667	2403.05
3201.97469	2405.25
3204.28132	2394.55
3206.58656	2403.55
3208.8904	2405.35
3211.19287	2408.65
3213.49394	2402.05
3215.79363	2391.75
3218.09193	2412.25
3220.38884	2402.45
3222.68438	2399.35
3224.97853	2376.25
3227.2713	2393.85
3229.56269	2387.25
3231.8527	2375.25
3234.14133	2373.45
3236.42858	2365.55
3238.71446	2340.45
3240.99896	2369.35
3243.28209	2343.05
3245.56384	2341.35
3247.84423	2334.35
3250.12324	2340.25
3252.40088	2338.55
3254.67715	2333.35
3256.95205	2324.45
3259.22558	2341.15
3261.49775	2336.85
3263.76855	2324.75
3266.03799	2325.45
3268.30606	2335.95
3270.57277	2334.35
3272.83812	2308.95
3275.10211	2315.55
3277.36474	2321.45
3279.62601	2329.45
3281.88593	2295.35
3284.14448	2269.15
3286.40168	2298.55
3288.65753	2286.25
3290.91202	2292.65
3293.16516	2265.35
3295.41695	2295.35
3297.66738	2285.25
3299.91647	2272.05
3302.16421	2261.95
3304.4106	2221.45
3306.65564	2243.15
3308.89933	2197.95
3311.14169	2196.25
3313.38269	2186.75
3315.62236	2168.65
3317.86068	2142.05
3320.09766	2139.25
3322.3333	2104.45
3324.5676	2104.45
3326.80056	2070.35
3329.03219	2059.55
3331.26248	-0.05
3333.49143	0.45
3335.71905	0.25
