Data from AgNPs_UA_5uM_CRN_500uM_SU_RamanShift__181__11-59-33-175.txt Node

Date: Thu Aug 04 11:59:33 BST 2022
User: TCL
Spectrometer: QEP01345
Trigger mode: 4
Integration Time (sec): 1.000000E0
Scans to average: 10
Electric dark correction enabled: true
Nonlinearity correction enabled: false
Boxcar width: 0
XAxis mode: Raman Shifts
Number of Pixels in Spectrum: 1044
>>>>>Begin Spectral Data<<<<<
46.04893	-0.2875
50.45542	0.0125
54.85868	-0.2875
59.25871	-0.8875
63.6555	-58.4875
68.04907	-38.9875
72.43941	-70.6875
76.82654	-53.6875
81.21044	-56.0875
85.59113	-49.8875
89.96862	-74.7875
94.34289	-54.7875
98.71396	-76.8875
103.08183	-57.2875
107.4465	-50.1875
111.80798	-54.1875
116.16626	-43.6875
120.52136	-73.9875
124.87327	-50.0875
129.222	-60.7875
133.56755	-48.7875
137.90993	-63.3875
142.24913	-49.9875
146.58517	-41.9875
150.91804	-40.6875
155.24774	-30.4875
159.57429	-8.7875
163.89768	-4.0875
168.21792	42.8125
172.53501	63.4125
176.84895	146.4125
181.15975	282.0125
185.46741	434.0125
189.77193	613.4125
194.07331	913.1125
198.37157	1200.9125
202.6667	1498.2125
206.9587	1817.0125
211.24758	2142.8125
215.53334	2472.2125
219.81599	2840.6125
224.09553	3249.7125
228.37195	3690.0125
232.64527	4158.4125
236.91549	4644.3125
241.18261	4984.9125
245.44663	5280.6125
249.70755	5480.1125
253.96539	5607.3125
258.22014	5711.6125
262.4718	5785.9125
266.72039	5832.3125
270.96589	5791.2125
275.20832	5684.5125
279.44768	5584.9125
283.68397	5479.9125
287.91719	5424.1125
292.14735	5431.9125
296.37445	5615.1125
300.59849	5884.9125
304.81948	6254.9125
309.03742	6614.1125
313.25231	6859.9125
317.46415	6804.5125
321.67296	6422.7125
325.87872	6008.3125
330.08145	5799.1125
334.28114	5756.3125
338.47781	5810.2125
342.67145	5969.7125
346.86207	6198.7125
351.04966	6591.4125
355.23424	7001.0125
359.4158	7272.3125
363.59435	7300.5125
367.76989	7235.1125
371.94243	7107.3125
376.11196	6960.4125
380.27849	6900.3125
384.44203	6828.0125
388.60257	6804.1125
392.76012	6790.1125
396.91468	6913.2125
401.06626	7066.9125
405.21485	7104.1125
409.36047	6957.6125
413.50311	6616.2125
417.64277	6330.3125
421.77947	6120.7125
425.9132	6043.1125
430.04396	6048.5125
434.17176	6087.1125
438.2966	6182.2125
442.41849	6273.6125
446.53742	6373.1125
450.6534	6498.0125
454.76644	6565.0125
458.87653	6587.2125
462.98368	6535.0125
467.08789	6475.9125
471.18916	6381.8125
475.2875	6266.9125
479.38291	6161.5125
483.4754	6065.0125
487.56496	6022.3125
491.6516	5974.2125
495.73531	5991.2125
499.81612	6025.6125
503.89401	6108.8125
507.96899	6160.0125
512.04106	6251.7125
516.11023	6369.9125
520.1765	6447.8125
524.23987	6479.4125
528.30034	6470.3125
532.35792	6390.1125
536.41261	6324.3125
540.46441	6235.1125
544.51333	6178.2125
548.55936	6230.9125
552.60252	6364.1125
556.64279	6479.0125
560.6802	6588.4125
564.71473	6743.3125
568.7464	6932.7125
572.7752	6927.6125
576.80114	6581.6125
580.82422	6336.2125
584.84444	6217.3125
588.86181	6213.3125
592.87633	6250.6125
596.888	6367.4125
600.89682	6744.9125
604.9028	7732.3125
608.90594	9854.0125
612.90624	12218.0125
616.90371	11341.9125
620.89834	8253.4125
624.89015	6906.1125
628.87913	6688.2125
632.86528	6863.7125
636.84862	7011.8125
640.82913	6870.1125
644.80683	6519.3125
648.78172	6329.6125
652.75379	6375.5125
656.72306	6620.2125
660.68952	6866.1125
664.65319	6780.5125
668.61405	6532.0125
672.57211	6471.9125
676.52738	6469.8125
680.47986	6351.1125
684.42955	6295.1125
688.37646	6227.3125
692.32058	6229.7125
696.26192	6304.5125
700.20048	6405.3125
704.13626	6446.5125
708.06928	6400.3125
711.99952	6348.5125
715.927	6349.7125
719.85171	6396.8125
723.77365	6436.7125
727.69284	6400.9125
731.60928	6382.5125
735.52295	6357.9125
739.43388	6403.0125
743.34206	6430.8125
747.24749	6447.9125
751.15017	6457.1125
755.05012	6523.9125
758.94733	6914.2125
762.8418	7763.7125
766.73354	9110.7125
770.62254	10114.9125
774.50882	10174.0125
778.39237	9697.6125
782.27321	8759.3125
786.15132	7698.6125
790.02671	7009.2125
793.89938	6623.7125
797.76935	6496.6125
801.6366	6418.9125
805.50115	6367.2125
809.36299	6362.6125
813.22213	6350.0125
817.07857	6357.5125
820.93231	6348.0125
824.78336	6379.0125
828.63172	6417.7125
832.47738	6406.4125
836.32036	6407.4125
840.16066	6385.6125
843.99827	6369.3125
847.8332	6363.8125
851.66546	6365.9125
855.49504	6361.6125
859.32195	6393.3125
863.1462	6394.0125
866.96777	6395.2125
870.78668	6379.4125
874.60293	6422.7125
878.41652	6430.8125
882.22745	6500.8125
886.03573	6504.6125
889.84136	6538.9125
893.64433	6548.2125
897.44466	6516.2125
901.24235	6528.7125
905.0374	6503.1125
908.8298	6450.9125
912.61957	6423.9125
916.40671	6376.5125
920.19121	6427.2125
923.97308	6500.7125
927.75233	6559.1125
931.52895	6625.7125
935.30295	6615.5125
939.07433	6463.2125
942.84309	6336.7125
946.60924	6298.7125
950.37278	6282.5125
954.13371	6278.2125
957.89203	6277.0125
961.64774	6271.0125
965.40086	6253.9125
969.15137	6236.7125
972.89929	6277.0125
976.64461	6259.9125
980.38733	6278.5125
984.12747	6273.5125
987.86502	6308.9125
991.59999	6336.6125
995.33237	6409.7125
999.06217	6487.1125
1002.78939	6553.4125
1006.51404	6706.4125
1010.23611	6805.5125
1013.95561	6853.8125
1017.67255	6863.1125
1021.38692	6834.1125
1025.09872	6777.3125
1028.80796	6675.3125
1032.51465	6684.1125
1036.21877	6674.3125
1039.92035	6714.5125
1043.61937	6761.3125
1047.31584	6816.1125
1051.00976	6821.0125
1054.70114	6847.5125
1058.38998	6842.7125
1062.07627	6833.0125
1065.76003	6868.1125
1069.44126	6944.9125
1073.11995	7014.1125
1076.79611	7175.9125
1080.46974	7317.7125
1084.14085	7475.2125
1087.80943	7633.0125
1091.47549	7659.9125
1095.13903	7571.8125
1098.80005	7455.1125
1102.45857	7345.7125
1106.11456	7300.3125
1109.76805	7246.8125
1113.41903	7374.8125
1117.06751	7548.4125
1120.71348	7783.2125
1124.35696	8188.5125
1127.99793	8468.4125
1131.63641	8306.6125
1135.2724	7899.8125
1138.90589	7611.3125
1142.5369	7407.1125
1146.16542	7275.4125
1149.79145	7187.6125
1153.415	7124.7125
1157.03607	7148.0125
1160.65467	7201.1125
1164.27079	7433.3125
1167.88443	7677.3125
1171.49561	8093.3125
1175.10432	8716.5125
1178.71056	9603.7125
1182.31434	10402.2125
1185.91565	10665.8125
1189.51451	10510.3125
1193.11091	10247.2125
1196.70485	10015.1125
1200.29634	9775.2125
1203.88538	9508.4125
1207.47197	9058.6125
1211.05612	8618.4125
1214.63782	8197.8125
1218.21708	7929.5125
1221.79391	7793.3125
1225.36829	7720.5125
1228.94024	7710.0125
1232.50976	7729.5125
1236.07685	7758.0125
1239.6415	7763.4125
1243.20374	7794.2125
1246.76355	7838.9125
1250.32093	7919.3125
1253.8759	7985.6125
1257.42845	8153.8125
1260.97859	8368.6125
1264.52631	8624.5125
1268.07163	8772.5125
1271.61453	8893.7125
1275.15503	8953.3125
1278.69312	8938.6125
1282.22882	9010.0125
1285.76211	9218.0125
1289.29301	9461.7125
1292.82151	9727.0125
1296.34761	9961.8125
1299.87133	10354.8125
1303.39266	11068.4125
1306.9116	12232.4125
1310.42815	13477.8125
1313.94233	13895.6125
1317.45412	13108.5125
1320.96354	11941.1125
1324.47058	10940.3125
1327.97525	10178.1125
1331.47754	9772.6125
1334.97747	9642.3125
1338.47502	9770.6125
1341.97022	10162.6125
1345.46305	10861.2125
1348.95352	11956.7125
1352.44163	13227.7125
1355.92738	14581.6125
1359.41078	16261.5125
1362.89183	17742.6125
1366.37053	17106.6125
1369.84688	14246.6125
1373.32088	11553.3125
1376.79254	10156.8125
1380.26186	9515.6125
1383.72883	9092.4125
1387.19347	8693.9125
1390.65578	8350.4125
1394.11575	8114.9125
1397.57339	7960.0125
1401.0287	7845.0125
1404.48168	7807.2125
1407.93234	7812.3125
1411.38068	7828.5125
1414.82669	7907.8125
1418.27039	7981.0125
1421.71177	7999.1125
1425.15083	7891.2125
1428.58758	7821.9125
1432.02203	7852.4125
1435.45416	7948.7125
1438.88399	7934.6125
1442.31151	7937.7125
1445.73673	8011.4125
1449.15965	8045.0125
1452.58027	8065.6125
1455.9986	8065.7125
1459.41463	8082.8125
1462.82837	8158.4125
1466.23982	8337.4125
1469.64898	8565.5125
1473.05586	8710.3125
1476.46045	8812.9125
1479.86276	8854.3125
1483.26279	8974.6125
1486.66054	9169.7125
1490.05602	9420.3125
1493.44922	9976.6125
1496.84016	10848.2125
1500.22882	12236.5125
1503.61521	13945.5125
1506.99934	15750.8125
1510.38121	16927.0125
1513.76081	16823.4125
1517.13816	15251.0125
1520.51324	13143.7125
1523.88607	11409.2125
1527.25665	10401.0125
1530.62498	9878.6125
1533.99105	9681.6125
1537.35488	9555.8125
1540.71647	9448.4125
1544.07581	9328.0125
1547.4329	9217.6125
1550.78776	9089.8125
1554.14038	9021.9125
1557.49077	8988.4125
1560.83892	9050.8125
1564.18484	9311.8125
1567.52853	9630.0125
1570.86999	9954.3125
1574.20922	10075.2125
1577.54624	9963.1125
1580.88103	9477.0125
1584.2136	8798.4125
1587.54395	8438.8125
1590.87208	8345.1125
1594.19801	8538.1125
1597.52172	8897.3125
1600.84321	9064.0125
1604.16251	8924.2125
1607.47959	8711.4125
1610.79447	8515.9125
1614.10715	8222.3125
1617.41763	7924.2125
1620.7259	7628.9125
1624.03199	7498.9125
1627.33587	7432.7125
1630.63757	7486.7125
1633.93707	7705.1125
1637.23439	8126.6125
1640.52951	8839.9125
1643.82246	9839.0125
1647.11321	10977.3125
1650.40179	11719.1125
1653.68819	11399.6125
1656.97241	10110.9125
1660.25446	8730.4125
1663.53433	7695.3125
1666.81203	7091.2125
1670.08756	6747.3125
1673.36092	6584.3125
1676.63211	6430.7125
1679.90115	6351.6125
1683.16801	6256.8125
1686.43272	6169.1125
1689.69527	6120.6125
1692.95567	6066.1125
1696.2139	6035.8125
1699.46999	5977.5125
1702.72392	5980.7125
1705.97571	6001.2125
1709.22535	5961.1125
1712.47284	6002.7125
1715.71819	6019.4125
1718.96139	6024.3125
1722.20246	5995.8125
1725.44139	5971.4125
1728.67818	5927.5125
1731.91284	5872.1125
1735.14537	5853.1125
1738.37576	5834.5125
1741.60403	5797.4125
1744.83017	5771.7125
1748.05418	5789.0125
1751.27607	5781.3125
1754.49584	5737.6125
1757.71349	5722.9125
1760.92903	5720.2125
1764.14244	5661.3125
1767.35375	5675.0125
1770.56294	5673.9125
1773.77002	5653.2125
1776.97499	5670.7125
1780.17785	5622.5125
1783.37861	5621.5125
1786.57727	5634.4125
1789.77382	5562.5125
1792.96828	5611.1125
1796.16064	5594.7125
1799.3509	5577.5125
1802.53907	5599.2125
1805.72514	5555.4125
1808.90913	5521.7125
1812.09102	5537.4125
1815.27083	5526.5125
1818.44856	5497.0125
1821.6242	5508.7125
1824.79776	5488.9125
1827.96924	5478.8125
1831.13864	5442.5125
1834.30597	5459.6125
1837.47122	5454.6125
1840.6344	5427.7125
1843.7955	5411.1125
1846.95454	5402.0125
1850.11151	5418.6125
1853.26642	5390.2125
1856.41926	5392.9125
1859.57004	5391.8125
1862.71876	5382.7125
1865.86542	5377.6125
1869.01003	5377.0125
1872.15258	5367.7125
1875.29308	5376.1125
1878.43152	5362.6125
1881.56792	5349.3125
1884.70227	5330.4125
1887.83457	5334.9125
1890.96482	5306.8125
1894.09304	5300.2125
1897.21921	5296.1125
1900.34335	5303.4125
1903.46544	5279.7125
1906.58551	5296.8125
1909.70353	5301.2125
1912.81953	5279.0125
1915.93349	5254.1125
1919.04543	5269.0125
1922.15534	5237.4125
1925.26322	5249.7125
1928.36908	5228.1125
1931.47292	5218.2125
1934.57473	5233.1125
1937.67453	5195.2125
1940.77232	5163.1125
1943.86808	5160.2125
1946.96184	5146.2125
1950.05358	5129.5125
1953.14331	5106.0125
1956.23103	5106.3125
1959.31675	5094.6125
1962.40046	5033.4125
1965.48217	5049.3125
1968.56188	5054.7125
1971.63959	5027.4125
1974.7153	5036.7125
1977.78901	5019.7125
1980.86073	4996.1125
1983.93046	4934.1125
1986.99819	4878.2125
1990.06394	4897.3125
1993.1277	4909.4125
1996.18947	4880.8125
1999.24925	4850.6125
2002.30706	4861.7125
2005.36288	4858.7125
2008.41672	4823.3125
2011.46859	4803.4125
2014.51848	4799.8125
2017.56639	4769.7125
2020.61233	4745.5125
2023.6563	4749.3125
2026.6983	4707.6125
2029.73833	4701.1125
2032.7764	4716.4125
2035.8125	4671.7125
2038.84664	4693.7125
2041.87881	4662.5125
2044.90903	4667.9125
2047.93729	4674.8125
2050.96359	4636.6125
2053.98794	4635.7125
2057.01034	4650.1125
2060.03078	4623.5125
2063.04927	4599.1125
2066.06582	4620.1125
2069.08042	4603.3125
2072.09307	4609.2125
2075.10378	4592.5125
2078.11255	4590.1125
2081.11938	4590.0125
2084.12426	4579.1125
2087.12722	4574.1125
2090.12824	4576.2125
2093.12732	4579.8125
2096.12447	4599.4125
2099.11969	4580.5125
2102.11299	4583.1125
2105.10435	4594.1125
2108.09379	4585.9125
2111.08131	4569.1125
2114.0669	4576.5125
2117.05057	4564.9125
2120.03233	4560.1125
2123.01216	4580.0125
2125.99008	4581.7125
2128.96609	4582.9125
2131.94018	4597.5125
2134.91236	4593.0125
2137.88263	4589.3125
2140.851	4587.6125
2143.81746	4613.9125
2146.78201	4581.7125
2149.74466	4578.0125
2152.7054	4590.8125
2155.66425	4581.6125
2158.6212	4575.5125
2161.57625	4548.0125
2164.52941	4523.8125
2167.48067	4541.2125
2170.43004	4549.7125
2173.37752	4561.9125
2176.32311	4547.7125
2179.26681	4550.2125
2182.20863	4544.8125
2185.14856	4540.0125
2188.08661	4540.6125
2191.02278	4536.0125
2193.95707	4522.1125
2196.88948	4513.3125
2199.82001	4529.0125
2202.74867	4507.6125
2205.67545	4496.9125
2208.60037	4501.4125
2211.52341	4501.1125
2214.44458	4491.9125
2217.36388	4479.4125
2220.28132	4444.4125
2223.1969	4427.0125
2226.11061	4433.1125
2229.02246	4431.7125
2231.93245	4433.3125
2234.84058	4407.2125
2237.74686	4402.6125
2240.65128	4390.8125
2243.55385	4384.1125
2246.45456	4378.6125
2249.35343	4379.2125
2252.25044	4367.3125
2255.14561	4369.5125
2258.03893	4366.3125
2260.93041	4363.4125
2263.82004	4346.9125
2266.70783	4347.5125
2269.59378	4312.3125
2272.4779	4305.4125
2275.36017	4309.9125
2278.24061	4292.8125
2281.11922	4251.2125
2283.996	4261.7125
2286.87094	4255.9125
2289.74405	4255.9125
2292.61534	4246.3125
2295.4848	4226.6125
2298.35243	4228.1125
2301.21824	4219.7125
2304.08223	4231.7125
2306.94439	4207.4125
2309.80474	4235.4125
2312.66327	4208.8125
2315.51999	4201.2125
2318.37489	4198.9125
2321.22797	4191.4125
2324.07925	4181.6125
2326.92871	4159.3125
2329.77637	4131.7125
2332.62222	4144.3125
2335.46626	4115.4125
2338.3085	4123.0125
2341.14893	4137.2125
2343.98756	4150.2125
2346.8244	4113.6125
2349.65943	4102.4125
2352.49267	4104.9125
2355.32411	4110.0125
2358.15376	4109.5125
2360.98161	4113.9125
2363.80768	4091.2125
2366.63195	4097.8125
2369.45444	4101.6125
2372.27514	4087.7125
2375.09405	4112.3125
2377.91118	4082.8125
2380.72652	4076.5125
2383.54009	4064.9125
2386.35187	4073.8125
2389.16188	4033.7125
2391.97011	4026.7125
2394.77657	4022.8125
2397.58125	4015.9125
2400.38416	4023.1125
2403.18529	3981.1125
2405.98466	3980.7125
2408.78226	3975.5125
2411.57809	3962.2125
2414.37216	3950.7125
2417.16446	3958.7125
2419.955	3947.6125
2422.74378	3953.7125
2425.5308	3926.8125
2428.31606	3927.7125
2431.09956	3936.6125
2433.88131	3906.3125
2436.6613	3924.0125
2439.43954	3929.9125
2442.21603	3913.5125
2444.99077	3905.7125
2447.76377	3904.4125
2450.53501	3891.7125
2453.30451	3882.8125
2456.07226	3910.7125
2458.83827	3882.1125
2461.60254	3849.3125
2464.36507	3885.4125
2467.12586	3845.4125
2469.88492	3866.6125
2472.64224	3855.8125
2475.39782	3836.0125
2478.15167	3851.2125
2480.90379	3833.3125
2483.65417	3861.6125
2486.40283	3860.9125
2489.14976	3859.2125
2491.89497	3853.6125
2494.63845	3849.2125
2497.3802	3833.7125
2500.12024	3838.4125
2502.85855	3819.5125
2505.59514	3825.0125
2508.33002	3813.9125
2511.06318	3797.5125
2513.79462	3805.7125
2516.52435	3764.1125
2519.25237	3742.2125
2521.97867	3751.0125
2524.70327	3754.5125
2527.42616	3735.5125
2530.14734	3753.0125
2532.86681	3728.6125
2535.58458	3728.4125
2538.30065	3713.3125
2541.01501	3727.0125
2543.72768	3709.9125
2546.43864	3703.0125
2549.14791	3697.7125
2551.85548	3678.1125
2554.56136	3682.8125
2557.26554	3688.1125
2559.96803	3673.0125
2562.66883	3676.7125
2565.36794	3656.3125
2568.06536	3629.8125
2570.7611	3646.2125
2573.45514	3640.0125
2576.14751	3636.0125
2578.83819	3598.7125
2581.52719	3607.2125
2584.21451	3598.8125
2586.90015	3578.1125
2589.58411	3548.8125
2592.2664	3585.3125
2594.94701	3560.3125
2597.62594	3573.3125
2600.30321	3505.9125
2602.9788	3524.4125
2605.65273	3513.4125
2608.32498	3527.4125
2610.99557	3543.1125
2613.66449	3502.2125
2616.33175	3518.4125
2618.99734	3511.0125
2621.66128	3510.9125
2624.32355	3487.8125
2626.98416	3490.8125
2629.64311	3470.7125
2632.30041	3473.7125
2634.95605	3456.3125
2637.61004	3450.1125
2640.26238	3428.2125
2642.91306	3425.4125
2645.56209	3450.2125
2648.20948	3446.5125
2650.85521	3413.2125
2653.4993	3441.0125
2656.14175	3441.0125
2658.78255	3412.2125
2661.42171	3392.4125
2664.05923	3419.7125
2666.6951	3431.4125
2669.32934	3439.3125
2671.96194	3448.3125
2674.59291	3415.8125
2677.22224	3453.4125
2679.84993	3431.6125
2682.476	3417.5125
2685.10043	3407.4125
2687.72324	3402.5125
2690.34441	3404.3125
2692.96396	3401.0125
2695.58188	3426.4125
2698.19818	3392.1125
2700.81285	3391.4125
2703.4259	3375.5125
2706.03733	3349.9125
2708.64714	3348.8125
2711.25533	3400.4125
2713.86191	3404.9125
2716.46687	3392.0125
2719.07021	3392.5125
2721.67194	3387.8125
2724.27206	3392.5125
2726.87057	3371.6125
2729.46747	3371.8125
2732.06276	3373.0125
2734.65644	3374.1125
2737.24852	3373.2125
2739.83899	3334.7125
2742.42786	3352.9125
2745.01513	3356.6125
2747.60079	3320.7125
2750.18486	3330.5125
2752.76733	3321.9125
2755.3482	3323.9125
2757.92747	3311.5125
2760.50515	3289.5125
2763.08123	3297.5125
2765.65573	3293.1125
2768.22863	3284.9125
2770.79994	3271.5125
2773.36967	3262.7125
2775.9378	3268.7125
2778.50435	3255.9125
2781.06932	3258.3125
2783.6327	3247.7125
2786.1945	3273.8125
2788.75471	3253.7125
2791.31335	3231.9125
2793.87041	3240.0125
2796.42589	3208.1125
2798.97979	3211.0125
2801.53212	3196.9125
2804.08288	3227.3125
2806.63206	3201.3125
2809.17967	3170.9125
2811.72571	3196.7125
2814.27018	3191.5125
2816.81308	3178.4125
2819.35442	3149.0125
2821.89419	3156.9125
2824.43239	3142.8125
2826.96904	3164.5125
2829.50412	3136.2125
2832.03763	3153.6125
2834.56959	3143.2125
2837.1	3133.9125
2839.62884	3129.6125
2842.15613	3110.6125
2844.68186	3139.6125
2847.20604	3108.9125
2849.72867	3103.7125
2852.24974	3109.7125
2854.76927	3080.0125
2857.28724	3023.6125
2859.80367	3082.0125
2862.31855	3092.2125
2864.83189	3079.6125
2867.34368	3072.3125
2869.85393	3105.6125
2872.36264	3059.8125
2874.8698	3065.2125
2877.37543	3086.1125
2879.87952	3058.7125
2882.38207	3049.9125
2884.88308	3047.2125
2887.38256	3048.1125
2889.88051	3050.8125
2892.37692	3050.5125
2894.8718	3033.4125
2897.36515	3065.1125
2899.85698	3041.4125
2902.34727	3029.9125
2904.83604	3037.4125
2907.32328	3056.4125
2909.809	3050.3125
2912.29319	3051.1125
2914.77587	3066.8125
2917.25702	3062.5125
2919.73665	3067.3125
2922.21476	3062.3125
2924.69136	3068.8125
2927.16644	3036.1125
2929.64	3048.4125
2932.11205	3024.2125
2934.58258	3028.9125
2937.05161	3023.2125
2939.51912	3027.6125
2941.98513	3033.3125
2944.44962	3019.8125
2946.91261	2975.8125
2949.37409	3007.9125
2951.83407	2991.7125
2954.29254	2982.0125
2956.74951	2998.7125
2959.20498	2976.9125
2961.65895	2974.0125
2964.11142	2960.4125
2966.56239	2950.0125
2969.01186	2966.6125
2971.45984	2950.6125
2973.90632	2931.3125
2976.35131	2962.1125
2978.7948	2950.0125
2981.23681	2939.8125
2983.67732	2930.0125
2986.11635	2912.7125
2988.55388	2890.4125
2990.98993	2907.5125
2993.4245	2889.0125
2995.85758	2889.1125
2998.28917	2886.9125
3000.71928	2864.8125
3003.14791	2854.5125
3005.57506	2850.3125
3008.00073	2835.6125
3010.42493	2765.9125
3012.84764	2838.5125
3015.26888	2846.8125
3017.68865	2816.0125
3020.10694	2770.1125
3022.52376	2799.7125
3024.9391	2788.5125
3027.35298	2779.2125
3029.76539	2766.5125
3032.17632	2772.7125
3034.5858	2745.5125
3036.9938	2758.7125
3039.40034	2755.7125
3041.80542	2744.3125
3044.20903	2730.4125
3046.61118	2716.1125
3049.01187	2724.7125
3051.4111	2708.5125
3053.80888	2692.2125
3056.20519	2702.0125
3058.60005	2684.4125
3060.99345	2703.9125
3063.3854	2686.8125
3065.7759	2666.0125
3068.16494	2658.1125
3070.55254	2647.1125
3072.93868	2663.5125
3075.32338	2654.7125
3077.70662	2642.6125
3080.08842	2625.3125
3082.46878	2608.6125
3084.84769	2628.7125
3087.22515	2608.3125
3089.60118	2620.9125
3091.97576	2604.7125
3094.3489	2614.3125
3096.72061	2602.6125
3099.09087	2589.9125
3101.4597	2605.7125
3103.82709	2606.6125
3106.19305	2572.6125
3108.55757	2595.6125
3110.92066	2571.5125
3113.28232	2587.6125
3115.64255	2571.4125
3118.00134	2561.0125
3120.35871	2561.6125
3122.71466	2531.9125
