Data from AgNPs_UA_5uM_CRN_500uM_SU_RamanShift__69__11-40-53-152.txt Node

Date: Thu Aug 04 11:40:53 BST 2022
User: TCL
Spectrometer: QEP01345
Trigger mode: 4
Integration Time (sec): 1.000000E0
Scans to average: 10
Electric dark correction enabled: true
Nonlinearity correction enabled: false
Boxcar width: 0
XAxis mode: Raman Shifts
Number of Pixels in Spectrum: 1044
>>>>>Begin Spectral Data<<<<<
46.04893	-0.025
50.45542	-0.025
54.85868	-0.725
59.25871	-0.525
63.6555	-58.225
68.04907	-39.125
72.43941	-69.525
76.82654	-55.325
81.21044	-57.225
85.59113	-46.725
89.96862	-73.125
94.34289	-54.025
98.71396	-74.625
103.08183	-57.225
107.4465	-48.725
111.80798	-54.225
116.16626	-44.025
120.52136	-72.825
124.87327	-45.925
129.222	-59.725
133.56755	-44.125
137.90993	-59.325
142.24913	-43.125
146.58517	-35.125
150.91804	-32.125
155.24774	-14.525
159.57429	7.375
163.89768	19.675
168.21792	72.775
172.53501	108.675
176.84895	212.375
181.15975	373.275
185.46741	565.875
189.77193	790.275
194.07331	1161.675
198.37157	1527.475
202.6667	1894.375
206.9587	2329.775
211.24758	2750.175
215.53334	3219.175
219.81599	3773.875
224.09553	4390.675
228.37195	5027.775
232.64527	5646.575
236.91549	6188.975
241.18261	6528.075
245.44663	6699.075
249.70755	6782.675
253.96539	6856.375
258.22014	6968.375
262.4718	7068.475
266.72039	7097.175
270.96589	6990.175
275.20832	6780.275
279.44768	6574.275
283.68397	6372.975
287.91719	6308.675
292.14735	6414.175
296.37445	6747.275
300.59849	7374.475
304.81948	8201.475
309.03742	9159.875
313.25231	9854.475
317.46415	9760.275
321.67296	8788.075
325.87872	7633.275
330.08145	6974.275
334.28114	6839.775
338.47781	7032.375
342.67145	7376.675
346.86207	8006.875
351.04966	8915.575
355.23424	9863.775
359.4158	10297.175
363.59435	10028.175
367.76989	9514.675
371.94243	8995.675
376.11196	8600.975
380.27849	8282.175
384.44203	8080.275
388.60257	7972.875
392.76012	8011.975
396.91468	8224.175
401.06626	8509.475
405.21485	8524.975
409.36047	8124.775
413.50311	7454.275
417.64277	6824.475
421.77947	6399.875
425.9132	6200.775
430.04396	6094.875
434.17176	6078.275
438.2966	6185.475
442.41849	6329.775
446.53742	6473.575
450.6534	6605.875
454.76644	6663.575
458.87653	6631.175
462.98368	6555.875
467.08789	6452.575
471.18916	6327.875
475.2875	6128.975
479.38291	5938.675
483.4754	5831.075
487.56496	5790.675
491.6516	5737.775
495.73531	5739.975
499.81612	5773.875
503.89401	5929.475
507.96899	6040.475
512.04106	6209.675
516.11023	6384.575
520.1765	6517.375
524.23987	6581.175
528.30034	6549.675
532.35792	6459.975
536.41261	6340.175
540.46441	6207.375
544.51333	6089.475
548.55936	6092.675
552.60252	6214.375
556.64279	6387.875
560.6802	6681.675
564.71473	7268.975
568.7464	8031.875
572.7752	7966.875
576.80114	6953.675
580.82422	6152.375
584.84444	5797.675
588.86181	5695.075
592.87633	5708.975
596.888	5912.775
600.89682	6471.675
604.9028	8248.575
608.90594	12706.475
612.90624	18028.475
616.90371	16448.975
620.89834	9835.875
624.89015	6927.975
628.87913	6634.875
632.86528	7051.375
636.84862	7282.675
640.82913	6765.875
644.80683	6051.275
648.78172	5722.275
652.75379	5812.375
656.72306	6354.075
660.68952	6858.575
664.65319	6642.475
668.61405	6026.075
672.57211	5795.975
676.52738	5825.275
680.47986	5704.575
684.42955	5564.975
688.37646	5504.275
692.32058	5528.175
696.26192	5629.175
700.20048	5760.575
704.13626	5791.275
708.06928	5707.975
711.99952	5651.375
715.927	5675.175
719.85171	5816.275
723.77365	5922.575
727.69284	5805.975
731.60928	5722.875
735.52295	5676.075
739.43388	5726.975
743.34206	5741.375
747.24749	5761.075
751.15017	5798.975
755.05012	5969.675
758.94733	6838.875
762.8418	8759.475
766.73354	11271.775
770.62254	12638.775
774.50882	12162.475
778.39237	11260.975
782.27321	9885.475
786.15132	7981.575
790.02671	6672.575
793.89938	6021.575
797.76935	5818.175
801.6366	5690.875
805.50115	5616.775
809.36299	5606.675
813.22213	5597.475
817.07857	5595.775
820.93231	5609.175
824.78336	5684.875
828.63172	5750.175
832.47738	5778.475
836.32036	5742.075
840.16066	5598.975
843.99827	5518.575
847.8332	5501.375
851.66546	5504.075
855.49504	5484.975
859.32195	5497.275
863.1462	5468.375
866.96777	5476.375
870.78668	5443.275
874.60293	5494.175
878.41652	5528.975
882.22745	5646.475
886.03573	5703.275
889.84136	5672.075
893.64433	5677.075
897.44466	5658.075
901.24235	5673.875
905.0374	5627.375
908.8298	5489.575
912.61957	5428.475
916.40671	5347.075
920.19121	5394.575
923.97308	5534.975
927.75233	5779.275
931.52895	6035.875
935.30295	5907.175
939.07433	5518.475
942.84309	5269.875
946.60924	5195.775
950.37278	5136.975
954.13371	5122.075
957.89203	5118.775
961.64774	5139.275
965.40086	5122.375
969.15137	5080.875
972.89929	5119.475
976.64461	5098.475
980.38733	5105.075
984.12747	5087.475
987.86502	5105.575
991.59999	5122.775
995.33237	5199.975
999.06217	5268.475
1002.78939	5402.575
1006.51404	5613.875
1010.23611	5727.175
1013.95561	5658.775
1017.67255	5551.175
1021.38692	5447.075
1025.09872	5360.175
1028.80796	5272.375
1032.51465	5304.875
1036.21877	5314.775
1039.92035	5384.075
1043.61937	5428.275
1047.31584	5497.875
1051.00976	5528.775
1054.70114	5482.975
1058.38998	5444.175
1062.07627	5449.875
1065.76003	5459.075
1069.44126	5531.775
1073.11995	5648.075
1076.79611	5870.975
1080.46974	6190.275
1084.14085	6667.975
1087.80943	7041.175
1091.47549	7051.975
1095.13903	6688.675
1098.80005	6371.875
1102.45857	6258.075
1106.11456	6237.675
1109.76805	6221.575
1113.41903	6419.275
1117.06751	6812.875
1120.71348	7438.675
1124.35696	8401.175
1127.99793	9051.475
1131.63641	8529.575
1135.2724	7471.075
1138.90589	6769.575
1142.5369	6360.175
1146.16542	6104.575
1149.79145	5914.475
1153.415	5844.875
1157.03607	5858.975
1160.65467	6005.475
1164.27079	6279.175
1167.88443	6681.675
1171.49561	7372.275
1175.10432	8515.675
1178.71056	10132.275
1182.31434	11295.275
1185.91565	11226.775
1189.51451	10265.875
1193.11091	9242.675
1196.70485	8571.875
1200.29634	8264.475
1203.88538	7896.575
1207.47197	7212.775
1211.05612	6575.475
1214.63782	6139.875
1218.21708	5923.775
1221.79391	5830.175
1225.36829	5804.475
1228.94024	5801.075
1232.50976	5789.575
1236.07685	5826.575
1239.6415	5867.775
1243.20374	5935.975
1246.76355	6054.975
1250.32093	6194.575
1253.8759	6366.975
1257.42845	6710.175
1260.97859	7186.475
1264.52631	7642.775
1268.07163	7869.075
1271.61453	7919.975
1275.15503	7778.575
1278.69312	7639.775
1282.22882	7733.775
1285.76211	8290.075
1289.29301	9024.575
1292.82151	9578.875
1296.34761	9784.575
1299.87133	10326.075
1303.39266	11651.075
1306.9116	14201.175
1310.42815	17261.075
1313.94233	18309.475
1317.45412	16026.175
1320.96354	12722.575
1324.47058	10279.275
1327.97525	8711.975
1331.47754	7881.575
1334.97747	7615.075
1338.47502	7706.675
1341.97022	8389.575
1345.46305	9798.475
1348.95352	11796.375
1352.44163	13870.875
1355.92738	16293.875
1359.41078	20321.875
1362.89183	24726.975
1366.37053	23801.775
1369.84688	17403.275
1373.32088	12051.675
1376.79254	9686.775
1380.26186	8622.375
1383.72883	7813.975
1387.19347	7060.075
1390.65578	6480.275
1394.11575	6130.375
1397.57339	5959.475
1401.0287	5829.275
1404.48168	5755.575
1407.93234	5739.175
1411.38068	5823.575
1414.82669	6100.075
1418.27039	6379.375
1421.71177	6450.475
1425.15083	6310.975
1428.58758	6276.275
1432.02203	6518.275
1435.45416	6722.775
1438.88399	6548.575
1442.31151	6310.575
1445.73673	6284.375
1449.15965	6252.975
1452.58027	6179.375
1455.9986	6098.275
1459.41463	5989.775
1462.82837	6004.375
1466.23982	6180.675
1469.64898	6414.775
1473.05586	6510.375
1476.46045	6519.175
1479.86276	6597.875
1483.26279	6762.875
1486.66054	7180.175
1490.05602	7842.675
1493.44922	8899.575
1496.84016	10561.175
1500.22882	13143.175
1503.61521	16609.275
1506.99934	20989.275
1510.38121	25151.575
1513.76081	26529.975
1517.13816	23644.375
1520.51324	18326.475
1523.88607	13542.975
1527.25665	10586.275
1530.62498	8881.775
1533.99105	7929.275
1537.35488	7294.275
1540.71647	6945.375
1544.07581	6773.175
1547.4329	6765.775
1550.78776	6867.075
1554.14038	7063.075
1557.49077	7385.875
1560.83892	7969.075
1564.18484	8868.175
1567.52853	9869.775
1570.86999	10485.775
1574.20922	10582.175
1577.54624	10193.375
1580.88103	9037.075
1584.2136	7580.875
1587.54395	6751.875
1590.87208	6531.775
1594.19801	6794.475
1597.52172	7278.875
1600.84321	7312.375
1604.16251	6817.075
1607.47959	6343.175
1610.79447	6040.675
1614.10715	5783.175
1617.41763	5546.475
1620.7259	5430.775
1624.03199	5435.675
1627.33587	5507.475
1630.63757	5744.575
1633.93707	6187.375
1637.23439	6955.175
1640.52951	8405.375
1643.82246	10817.275
1647.11321	14049.075
1650.40179	16558.875
1653.68819	16225.375
1656.97241	13251.975
1660.25446	9790.575
1663.53433	7446.375
1666.81203	6138.575
1670.08756	5488.975
1673.36092	5122.475
1676.63211	4890.075
1679.90115	4749.775
1683.16801	4641.175
1686.43272	4536.175
1689.69527	4492.275
1692.95567	4434.575
1696.2139	4410.675
1699.46999	4348.675
1702.72392	4346.275
1705.97571	4348.175
1709.22535	4351.175
1712.47284	4386.075
1715.71819	4398.575
1718.96139	4426.575
1722.20246	4387.875
1725.44139	4356.675
1728.67818	4310.375
1731.91284	4253.375
1735.14537	4221.375
1738.37576	4179.075
1741.60403	4170.975
1744.83017	4138.775
1748.05418	4134.975
1751.27607	4126.175
1754.49584	4073.775
1757.71349	4035.175
1760.92903	4004.875
1764.14244	3957.275
1767.35375	3953.575
1770.56294	3914.775
1773.77002	3878.775
1776.97499	3885.075
1780.17785	3867.175
1783.37861	3831.575
1786.57727	3858.175
1789.77382	3779.275
1792.96828	3827.675
1796.16064	3827.175
1799.3509	3811.175
1802.53907	3818.075
1805.72514	3788.475
1808.90913	3754.675
1812.09102	3764.675
1815.27083	3757.375
1818.44856	3743.775
1821.6242	3752.375
1824.79776	3715.975
1827.96924	3706.275
1831.13864	3664.675
1834.30597	3682.875
1837.47122	3659.775
1840.6344	3646.275
1843.7955	3616.375
1846.95454	3609.975
1850.11151	3623.475
1853.26642	3563.575
1856.41926	3581.275
1859.57004	3577.275
1862.71876	3591.875
1865.86542	3588.475
1869.01003	3595.375
1872.15258	3575.975
1875.29308	3583.775
1878.43152	3597.975
1881.56792	3571.875
1884.70227	3552.275
1887.83457	3558.875
1890.96482	3513.275
1894.09304	3525.275
1897.21921	3508.875
1900.34335	3526.075
1903.46544	3516.175
1906.58551	3502.575
1909.70353	3512.875
1912.81953	3499.375
1915.93349	3485.075
1919.04543	3487.375
1922.15534	3449.475
1925.26322	3462.975
1928.36908	3430.175
1931.47292	3424.275
1934.57473	3424.475
1937.67453	3373.075
1940.77232	3354.475
1943.86808	3350.175
1946.96184	3348.775
1950.05358	3306.275
1953.14331	3299.375
1956.23103	3301.675
1959.31675	3281.875
1962.40046	3259.275
1965.48217	3287.375
1968.56188	3294.375
1971.63959	3280.475
1974.7153	3284.175
1977.78901	3279.075
1980.86073	3244.975
1983.93046	3207.775
1986.99819	3122.275
1990.06394	3137.975
1993.1277	3160.475
1996.18947	3141.975
1999.24925	3108.075
2002.30706	3106.475
2005.36288	3104.875
2008.41672	3081.175
2011.46859	3057.175
2014.51848	3048.275
2017.56639	3032.475
2020.61233	3017.875
2023.6563	3033.175
2026.6983	2988.475
2029.73833	3002.275
2032.7764	3005.775
2035.8125	2948.275
2038.84664	2968.175
2041.87881	2954.275
2044.90903	2973.375
2047.93729	2961.875
2050.96359	2928.875
2053.98794	2931.475
2057.01034	2926.875
2060.03078	2908.375
2063.04927	2899.475
2066.06582	2886.975
2069.08042	2867.075
2072.09307	2883.575
2075.10378	2888.875
2078.11255	2874.475
2081.11938	2886.275
2084.12426	2863.775
2087.12722	2857.975
2090.12824	2868.875
2093.12732	2864.075
2096.12447	2872.475
2099.11969	2857.775
2102.11299	2857.475
2105.10435	2878.875
2108.09379	2872.675
2111.08131	2871.875
2114.0669	2869.275
2117.05057	2880.975
2120.03233	2875.775
2123.01216	2902.875
2125.99008	2905.075
2128.96609	2902.175
2131.94018	2912.175
2134.91236	2892.175
2137.88263	2895.975
2140.851	2890.775
2143.81746	2898.475
2146.78201	2874.175
2149.74466	2856.175
2152.7054	2850.175
2155.66425	2842.175
2158.6212	2830.075
2161.57625	2810.975
2164.52941	2778.275
2167.48067	2812.775
2170.43004	2808.475
2173.37752	2825.975
2176.32311	2816.575
2179.26681	2825.475
2182.20863	2828.475
2185.14856	2830.075
2188.08661	2818.575
2191.02278	2823.075
2193.95707	2797.475
2196.88948	2782.775
2199.82001	2787.175
2202.74867	2769.775
2205.67545	2789.075
2208.60037	2794.975
2211.52341	2777.375
2214.44458	2761.075
2217.36388	2756.075
2220.28132	2750.575
2223.1969	2730.275
2226.11061	2733.675
2229.02246	2714.275
2231.93245	2712.675
2234.84058	2700.675
2237.74686	2695.775
2240.65128	2690.375
2243.55385	2692.375
2246.45456	2686.675
2249.35343	2700.875
2252.25044	2695.975
2255.14561	2695.075
2258.03893	2735.275
2260.93041	2713.275
2263.82004	2728.375
2266.70783	2724.375
2269.59378	2699.375
2272.4779	2686.075
2275.36017	2699.075
2278.24061	2691.875
2281.11922	2654.275
2283.996	2661.875
2286.87094	2647.075
2289.74405	2637.075
2292.61534	2631.975
2295.4848	2625.575
2298.35243	2610.375
2301.21824	2591.475
2304.08223	2602.975
2306.94439	2607.475
2309.80474	2616.275
2312.66327	2585.475
2315.51999	2573.675
2318.37489	2588.375
2321.22797	2560.675
2324.07925	2553.875
2326.92871	2552.875
2329.77637	2527.875
2332.62222	2535.375
2335.46626	2522.675
2338.3085	2520.375
2341.14893	2532.175
2343.98756	2547.875
2346.8244	2529.975
2349.65943	2510.475
2352.49267	2525.775
2355.32411	2547.775
2358.15376	2543.175
2360.98161	2564.775
2363.80768	2553.375
2366.63195	2564.675
2369.45444	2580.675
2372.27514	2580.375
2375.09405	2586.275
2377.91118	2547.775
2380.72652	2547.775
2383.54009	2536.275
2386.35187	2532.875
2389.16188	2502.075
2391.97011	2499.175
2394.77657	2476.875
2397.58125	2483.675
2400.38416	2477.575
2403.18529	2443.775
2405.98466	2436.675
2408.78226	2438.375
2411.57809	2426.075
2414.37216	2404.675
2417.16446	2426.175
2419.955	2409.875
2422.74378	2424.075
2425.5308	2415.375
2428.31606	2426.275
2431.09956	2413.675
2433.88131	2405.675
2436.6613	2424.175
2439.43954	2421.275
2442.21603	2409.475
2444.99077	2416.875
2447.76377	2426.375
2450.53501	2427.575
2453.30451	2416.975
2456.07226	2425.275
2458.83827	2408.275
2461.60254	2367.275
2464.36507	2415.375
2467.12586	2384.575
2469.88492	2398.275
2472.64224	2399.475
2475.39782	2389.475
2478.15167	2404.175
2480.90379	2401.475
2483.65417	2423.375
2486.40283	2428.275
2489.14976	2439.975
2491.89497	2438.775
2494.63845	2439.075
2497.3802	2424.475
2500.12024	2414.075
2502.85855	2412.075
2505.59514	2395.875
2508.33002	2381.775
2511.06318	2347.675
2513.79462	2340.575
2516.52435	2288.175
2519.25237	2260.575
2521.97867	2247.775
2524.70327	2260.775
2527.42616	2259.775
2530.14734	2273.975
2532.86681	2238.775
2535.58458	2240.375
2538.30065	2240.275
2541.01501	2258.975
2543.72768	2250.475
2546.43864	2247.475
2549.14791	2240.375
2551.85548	2235.275
2554.56136	2220.075
2557.26554	2246.075
2559.96803	2246.175
2562.66883	2249.075
2565.36794	2232.775
2568.06536	2195.575
2570.7611	2221.275
2573.45514	2216.075
2576.14751	2210.875
2578.83819	2197.875
2581.52719	2188.375
2584.21451	2196.075
2586.90015	2177.975
2589.58411	2155.975
2592.2664	2165.275
2594.94701	2165.075
2597.62594	2167.275
2600.30321	2102.675
2602.9788	2136.475
2605.65273	2126.975
2608.32498	2126.075
2610.99557	2152.275
2613.66449	2124.975
2616.33175	2131.775
2618.99734	2141.675
2621.66128	2132.775
2624.32355	2107.275
2626.98416	2108.275
2629.64311	2095.675
2632.30041	2089.575
2634.95605	2068.675
2637.61004	2053.175
2640.26238	2047.375
2642.91306	2039.975
2645.56209	2054.475
2648.20948	2047.175
2650.85521	2032.475
2653.4993	2055.175
2656.14175	2054.375
2658.78255	2044.475
2661.42171	2018.575
2664.05923	2057.875
2666.6951	2059.975
2669.32934	2082.475
2671.96194	2085.875
2674.59291	2065.775
2677.22224	2076.675
2679.84993	2074.175
2682.476	2067.475
2685.10043	2052.575
2687.72324	2051.475
2690.34441	2036.175
2692.96396	2040.175
2695.58188	2052.775
2698.19818	2045.375
2700.81285	2024.975
2703.4259	2014.875
2706.03733	1983.475
2708.64714	1997.475
2711.25533	2028.075
2713.86191	2035.275
2716.46687	2033.175
2719.07021	2025.975
2721.67194	2031.975
2724.27206	2032.575
2726.87057	2014.875
2729.46747	1995.075
2732.06276	2004.175
2734.65644	1984.775
2737.24852	1996.275
2739.83899	1969.475
2742.42786	1986.775
2745.01513	1984.475
2747.60079	1955.775
2750.18486	1944.375
2752.76733	1950.075
2755.3482	1939.675
2757.92747	1937.675
2760.50515	1925.975
2763.08123	1917.075
2765.65573	1922.575
2768.22863	1910.875
2770.79994	1900.175
2773.36967	1904.075
2775.9378	1888.875
2778.50435	1893.775
2781.06932	1892.775
2783.6327	1876.575
2786.1945	1898.975
2788.75471	1888.275
2791.31335	1875.975
2793.87041	1885.275
2796.42589	1872.675
2798.97979	1874.075
2801.53212	1873.075
2804.08288	1897.575
2806.63206	1877.875
2809.17967	1871.575
2811.72571	1898.675
2814.27018	1894.875
2816.81308	1893.475
2819.35442	1868.675
2821.89419	1896.175
2824.43239	1884.375
2826.96904	1913.175
2829.50412	1883.775
2832.03763	1896.675
2834.56959	1891.375
2837.1	1874.575
2839.62884	1873.175
2842.15613	1867.675
2844.68186	1881.875
2847.20604	1849.875
2849.72867	1850.875
2852.24974	1861.575
2854.76927	1840.375
2857.28724	1801.175
2859.80367	1869.275
2862.31855	1878.475
2864.83189	1874.275
2867.34368	1883.475
2869.85393	1906.275
2872.36264	1880.875
2874.8698	1885.475
2877.37543	1898.475
2879.87952	1869.075
2882.38207	1845.775
2884.88308	1865.175
2887.38256	1845.075
2889.88051	1839.275
2892.37692	1831.975
2894.8718	1812.975
2897.36515	1826.475
2899.85698	1822.175
2902.34727	1824.375
2904.83604	1824.475
2907.32328	1846.275
2909.809	1855.275
2912.29319	1848.775
2914.77587	1874.375
2917.25702	1885.175
2919.73665	1881.375
2922.21476	1861.075
2924.69136	1847.475
2927.16644	1827.275
2929.64	1821.975
2932.11205	1800.075
2934.58258	1798.075
2937.05161	1794.475
2939.51912	1795.175
2941.98513	1810.575
2944.44962	1803.675
2946.91261	1771.475
2949.37409	1770.575
2951.83407	1765.375
2954.29254	1774.275
2956.74951	1781.175
2959.20498	1766.575
2961.65895	1767.175
2964.11142	1752.875
2966.56239	1764.875
2969.01186	1756.975
2971.45984	1757.875
2973.90632	1748.775
2976.35131	1772.975
2978.7948	1764.475
2981.23681	1751.375
2983.67732	1769.875
2986.11635	1750.475
2988.55388	1734.475
2990.98993	1746.375
2993.4245	1727.375
2995.85758	1718.675
2998.28917	1732.275
3000.71928	1722.675
3003.14791	1724.375
3005.57506	1715.175
3008.00073	1713.575
3010.42493	1643.275
3012.84764	1707.875
3015.26888	1696.175
3017.68865	1701.575
3020.10694	1651.175
3022.52376	1673.875
3024.9391	1674.675
3027.35298	1654.375
3029.76539	1639.275
3032.17632	1632.775
3034.5858	1628.375
3036.9938	1637.375
3039.40034	1615.575
3041.80542	1594.975
3044.20903	1582.975
3046.61118	1582.575
3049.01187	1581.675
3051.4111	1564.175
3053.80888	1561.475
3056.20519	1561.675
3058.60005	1547.875
3060.99345	1577.575
3063.3854	1539.775
3065.7759	1527.875
3068.16494	1532.375
3070.55254	1528.575
3072.93868	1533.175
3075.32338	1517.975
3077.70662	1521.675
3080.08842	1518.275
3082.46878	1495.775
3084.84769	1521.475
3087.22515	1493.875
3089.60118	1507.075
3091.97576	1491.375
3094.3489	1508.175
3096.72061	1498.475
3099.09087	1483.375
3101.4597	1494.475
3103.82709	1482.675
3106.19305	1473.375
3108.55757	1490.075
3110.92066	1474.975
3113.28232	1477.675
3115.64255	1482.775
3118.00134	1489.075
3120.35871	1459.575
3122.71466	1457.275
3125.06917	1454.675
3127.42226	1460.075
3129.77393	1430.375
3132.12417	1456.075
3134.47299	1457.175
3136.82039	1438.875
3139.16636	1410.475
3141.51092	1445.875
3143.85406	1445.275
3146.19579	1432.975
3148.53609	1436.975
3150.87499	1432.875
3153.21246	1439.175
3155.54853	1444.075
3157.88318	1444.275
3160.21642	1446.675
3162.54826	1440.775
3164.87868	1446.275
3167.2077	1406.575
3169.5353	1424.175
3171.86151	1429.975
3174.18631	1422.575
3176.5097	1409.575
3178.83169	1411.575
3181.15228	1409.375
3183.47147	1382.675
3185.78926	1370.775
3188.10565	1385.275
3190.42065	1364.575
3192.73424	1379.175
3195.04645	1370.175
3197.35725	1352.175
3199.66667	1364.475
3201.97469	1363.775
3204.28132	1359.275
3206.58656	1372.975
3208.8904	1373.475
3211.19287	1369.375
3213.49394	1362.775
3215.79363	1365.375
3218.09193	1371.675
3220.38884	1366.875
3222.68438	1364.175
3224.97853	1346.275
3227.2713	1369.075
3229.56269	1351.575
3231.8527	1355.075
