Data from AgNPs_UA_10uM_CRN_500uM_SU_RamanShift__8__13-06-40-255.txt Node

Date: Thu Aug 04 13:06:40 BST 2022
User: TCL
Spectrometer: QEP01345
Trigger mode: 4
Integration Time (sec): 1.000000E0
Scans to average: 10
Electric dark correction enabled: true
Nonlinearity correction enabled: false
Boxcar width: 0
XAxis mode: Raman Shifts
Number of Pixels in Spectrum: 1044
>>>>>Begin Spectral Data<<<<<
46.04893	1.0375
50.45542	-2.0625
54.85868	1.7375
59.25871	0.6375
63.6555	16.7375
68.04907	15.1375
72.43941	18.1375
76.82654	17.0375
81.21044	20.3375
85.59113	19.8375
89.96862	21.1375
94.34289	21.4375
98.71396	22.6375
103.08183	24.0375
107.4465	23.8375
111.80798	21.9375
116.16626	23.5375
120.52136	27.1375
124.87327	27.5375
129.222	30.4375
133.56755	31.6375
137.90993	33.4375
142.24913	40.7375
146.58517	42.6375
150.91804	50.4375
155.24774	64.1375
159.57429	77.0375
163.89768	104.6375
168.21792	136.2375
172.53501	189.9375
176.84895	264.7375
181.15975	379.9375
185.46741	530.5375
189.77193	739.6375
194.07331	1005.0375
198.37157	1289.2375
202.6667	1594.5375
206.9587	1906.7375
211.24758	2211.4375
215.53334	2543.6375
219.81599	2873.2375
224.09553	3262.2375
228.37195	3678.5375
232.64527	4120.7375
236.91549	4577.5375
241.18261	4965.3375
245.44663	5272.8375
249.70755	5518.1375
253.96539	5699.1375
258.22014	5894.6375
262.4718	6036.8375
266.72039	6118.7375
270.96589	6134.8375
275.20832	6080.1375
279.44768	6002.7375
283.68397	5894.1375
287.91719	5843.6375
292.14735	5863.8375
296.37445	5953.4375
300.59849	6123.2375
304.81948	6386.5375
309.03742	6618.7375
313.25231	6780.9375
317.46415	6720.2375
321.67296	6458.9375
325.87872	6207.2375
330.08145	6044.1375
334.28114	6027.8375
338.47781	6087.6375
342.67145	6204.3375
346.86207	6381.1375
351.04966	6674.8375
355.23424	6960.3375
359.4158	7137.8375
363.59435	7196.6375
367.76989	7197.8375
371.94243	7130.9375
376.11196	7109.6375
380.27849	7109.9375
384.44203	7100.6375
388.60257	7131.9375
392.76012	7201.9375
396.91468	7298.5375
401.06626	7423.0375
405.21485	7440.4375
409.36047	7360.9375
413.50311	7144.9375
417.64277	6927.9375
421.77947	6778.2375
425.9132	6710.0375
430.04396	6686.7375
434.17176	6714.6375
438.2966	6764.6375
442.41849	6889.5375
446.53742	7028.5375
450.6534	7140.8375
454.76644	7250.8375
458.87653	7284.0375
462.98368	7307.9375
467.08789	7265.1375
471.18916	7156.2375
475.2875	7006.5375
479.38291	6881.8375
483.4754	6805.3375
487.56496	6748.9375
491.6516	6737.4375
495.73531	6725.2375
499.81612	6784.0375
503.89401	6851.3375
507.96899	6906.2375
512.04106	6924.3375
516.11023	6993.6375
520.1765	7034.7375
524.23987	7042.2375
528.30034	7026.6375
532.35792	6998.2375
536.41261	6940.8375
540.46441	6852.1375
544.51333	6836.4375
548.55936	6891.2375
552.60252	6981.9375
556.64279	7072.6375
560.6802	7177.4375
564.71473	7290.3375
568.7464	7386.8375
572.7752	7320.7375
576.80114	7101.7375
580.82422	6940.3375
584.84444	6872.7375
588.86181	6852.3375
592.87633	6872.9375
596.888	6995.7375
600.89682	7344.8375
604.9028	8204.6375
608.90594	9965.0375
612.90624	11727.2375
616.90371	10837.9375
620.89834	8407.7375
624.89015	7418.7375
628.87913	7340.4375
632.86528	7483.7375
636.84862	7599.3375
640.82913	7430.2375
644.80683	7130.2375
648.78172	6978.6375
652.75379	6991.6375
656.72306	7202.1375
660.68952	7418.6375
664.65319	7384.9375
668.61405	7277.7375
672.57211	7331.5375
676.52738	7325.3375
680.47986	7168.7375
684.42955	6986.1375
688.37646	6936.3375
692.32058	6996.4375
696.26192	7122.3375
700.20048	7244.0375
704.13626	7285.5375
708.06928	7222.9375
711.99952	7110.1375
715.927	7100.6375
719.85171	7156.6375
723.77365	7176.7375
727.69284	7140.9375
731.60928	7087.3375
735.52295	7086.3375
739.43388	7097.8375
743.34206	7125.8375
747.24749	7114.0375
751.15017	7113.6375
755.05012	7188.2375
758.94733	7485.9375
762.8418	8143.7375
766.73354	9123.2375
770.62254	9865.4375
774.50882	9995.4375
778.39237	9711.1375
782.27321	9083.2375
786.15132	8293.6375
790.02671	7716.1375
793.89938	7375.3375
797.76935	7237.3375
801.6366	7155.2375
805.50115	7103.8375
809.36299	7077.3375
813.22213	7068.3375
817.07857	7081.7375
820.93231	7071.5375
824.78336	7072.7375
828.63172	7123.3375
832.47738	7109.1375
836.32036	7102.2375
840.16066	7076.0375
843.99827	7065.0375
847.8332	7080.9375
851.66546	7079.4375
855.49504	7096.7375
859.32195	7099.6375
863.1462	7099.7375
866.96777	7103.9375
870.78668	7100.6375
874.60293	7118.0375
878.41652	7164.2375
882.22745	7210.9375
886.03573	7259.6375
889.84136	7259.6375
893.64433	7229.1375
897.44466	7190.8375
901.24235	7208.8375
905.0374	7172.1375
908.8298	7152.9375
912.61957	7155.1375
916.40671	7147.9375
920.19121	7144.3375
923.97308	7192.1375
927.75233	7275.6375
931.52895	7330.4375
935.30295	7252.0375
939.07433	7160.2375
942.84309	7073.5375
946.60924	7053.0375
950.37278	7031.3375
954.13371	7034.4375
957.89203	7031.1375
961.64774	7031.5375
965.40086	7045.8375
969.15137	7008.9375
972.89929	6991.5375
976.64461	7016.9375
980.38733	7024.7375
984.12747	7033.6375
987.86502	7055.4375
991.59999	7084.5375
995.33237	7115.6375
999.06217	7185.9375
1002.78939	7266.2375
1006.51404	7390.9375
1010.23611	7526.5375
1013.95561	7593.3375
1017.67255	7606.9375
1021.38692	7574.4375
1025.09872	7535.5375
1028.80796	7462.9375
1032.51465	7442.8375
1036.21877	7434.2375
1039.92035	7471.3375
1043.61937	7508.5375
1047.31584	7536.4375
1051.00976	7553.2375
1054.70114	7590.8375
1058.38998	7599.8375
1062.07627	7635.5375
1065.76003	7682.2375
1069.44126	7758.5375
1073.11995	7948.8375
1076.79611	8105.6375
1080.46974	8215.1375
1084.14085	8297.3375
1087.80943	8380.7375
1091.47549	8438.2375
1095.13903	8443.3375
1098.80005	8469.2375
1102.45857	8557.0375
1106.11456	8534.5375
1109.76805	8371.7375
1113.41903	8332.3375
1117.06751	8450.1375
1120.71348	8572.1375
1124.35696	8753.5375
1127.99793	8877.8375
1131.63641	8727.1375
1135.2724	8428.0375
1138.90589	8204.3375
1142.5369	8099.2375
1146.16542	8043.4375
1149.79145	7957.7375
1153.415	7885.0375
1157.03607	7861.9375
1160.65467	7927.9375
1164.27079	8070.2375
1167.88443	8334.7375
1171.49561	8691.0375
1175.10432	9229.3375
1178.71056	9967.3375
1182.31434	10566.2375
1185.91565	10790.4375
1189.51451	10789.6375
1193.11091	10689.0375
1196.70485	10541.1375
1200.29634	10342.3375
1203.88538	10076.7375
1207.47197	9740.0375
1211.05612	9326.0375
1214.63782	8955.1375
1218.21708	8679.4375
1221.79391	8488.6375
1225.36829	8415.7375
1228.94024	8418.3375
1232.50976	8405.0375
1236.07685	8462.3375
1239.6415	8501.1375
1243.20374	8546.3375
1246.76355	8594.4375
1250.32093	8656.1375
1253.8759	8757.5375
1257.42845	8961.0375
1260.97859	9217.2375
1264.52631	9459.1375
1268.07163	9617.6375
1271.61453	9700.9375
1275.15503	9707.4375
1278.69312	9675.6375
1282.22882	9667.5375
1285.76211	9747.4375
1289.29301	9919.2375
1292.82151	10104.6375
1296.34761	10282.9375
1299.87133	10576.9375
1303.39266	11140.8375
1306.9116	11981.0375
1310.42815	12861.6375
1313.94233	13177.4375
1317.45412	12698.9375
1320.96354	11949.2375
1324.47058	11299.9375
1327.97525	10721.7375
1331.47754	10387.8375
1334.97747	10290.1375
1338.47502	10395.4375
1341.97022	10769.6375
1345.46305	11487.1375
1348.95352	12510.3375
1352.44163	13601.7375
1355.92738	14721.1375
1359.41078	15803.3375
1362.89183	16612.6375
1366.37053	15805.4375
1369.84688	13579.7375
1373.32088	11568.0375
1376.79254	10454.5375
1380.26186	9962.0375
1383.72883	9591.7375
1387.19347	9260.7375
1390.65578	8945.5375
1394.11575	8689.2375
1397.57339	8527.1375
1401.0287	8427.8375
1404.48168	8397.7375
1407.93234	8467.3375
1411.38068	8595.5375
1414.82669	8705.8375
1418.27039	8757.7375
1421.71177	8725.5375
1425.15083	8650.9375
1428.58758	8528.1375
1432.02203	8516.7375
1435.45416	8547.2375
1438.88399	8490.0375
1442.31151	8500.2375
1445.73673	8541.5375
1449.15965	8572.0375
1452.58027	8570.8375
1455.9986	8562.1375
1459.41463	8537.2375
1462.82837	8622.2375
1466.23982	8794.8375
1469.64898	8993.2375
1473.05586	9136.4375
1476.46045	9254.9375
1479.86276	9359.0375
1483.26279	9495.1375
1486.66054	9662.0375
1490.05602	9952.6375
1493.44922	10404.3375
1496.84016	11129.8375
1500.22882	12168.4375
1503.61521	13430.7375
1506.99934	14600.0375
1510.38121	15315.8375
1513.76081	15108.7375
1517.13816	13975.2375
1520.51324	12441.4375
1523.88607	11243.6375
1527.25665	10506.6375
1530.62498	10159.2375
1533.99105	9968.7375
1537.35488	9886.8375
1540.71647	9788.6375
1544.07581	9706.9375
1547.4329	9592.3375
1550.78776	9469.1375
1554.14038	9349.4375
1557.49077	9323.4375
1560.83892	9405.0375
1564.18484	9647.4375
1567.52853	9906.2375
1570.86999	10084.7375
1574.20922	10151.3375
1577.54624	10062.3375
1580.88103	9649.8375
1584.2136	9164.9375
1587.54395	8847.2375
1590.87208	8838.7375
1594.19801	9038.2375
1597.52172	9348.9375
1600.84321	9451.0375
1604.16251	9366.8375
1607.47959	9236.9375
1610.79447	9068.8375
1614.10715	8739.4375
1617.41763	8391.4375
1620.7259	8136.3375
1624.03199	7932.1375
1627.33587	7899.8375
1630.63757	7934.1375
1633.93707	8132.3375
1637.23439	8564.7375
1640.52951	9225.1375
1643.82246	10161.3375
1647.11321	11154.7375
1650.40179	11639.9375
1653.68819	11245.0375
1656.97241	10076.3375
1660.25446	8894.1375
1663.53433	8054.8375
1666.81203	7557.6375
1670.08756	7249.6375
1673.36092	7097.1375
1676.63211	6982.8375
1679.90115	6870.9375
1683.16801	6795.2375
1686.43272	6744.6375
1689.69527	6696.8375
1692.95567	6666.7375
1696.2139	6639.8375
1699.46999	6617.4375
1702.72392	6609.9375
1705.97571	6596.5375
1709.22535	6600.5375
1712.47284	6614.8375
1715.71819	6587.4375
1718.96139	6586.7375
1722.20246	6596.6375
1725.44139	6550.6375
1728.67818	6535.7375
1731.91284	6485.7375
1735.14537	6448.2375
1738.37576	6447.1375
1741.60403	6411.0375
1744.83017	6384.4375
1748.05418	6384.2375
1751.27607	6355.3375
1754.49584	6349.5375
1757.71349	6337.0375
1760.92903	6339.5375
1764.14244	6301.9375
1767.35375	6308.7375
1770.56294	6276.1375
1773.77002	6261.1375
1776.97499	6246.3375
1780.17785	6215.5375
1783.37861	6205.7375
1786.57727	6203.1375
1789.77382	6181.8375
1792.96828	6183.3375
1796.16064	6163.9375
1799.3509	6147.3375
1802.53907	6158.3375
1805.72514	6135.5375
1808.90913	6119.8375
1812.09102	6101.8375
1815.27083	6087.6375
1818.44856	6042.5375
1821.6242	6058.0375
1824.79776	6043.1375
1827.96924	6036.9375
1831.13864	6009.7375
1834.30597	6008.6375
1837.47122	6013.0375
1840.6344	5983.0375
1843.7955	5977.3375
1846.95454	5964.6375
1850.11151	5980.8375
1853.26642	5957.7375
1856.41926	5948.2375
1859.57004	5963.4375
1862.71876	5950.5375
1865.86542	5960.1375
1869.01003	5953.6375
1872.15258	5920.3375
1875.29308	5919.5375
1878.43152	5921.8375
1881.56792	5898.2375
1884.70227	5903.1375
1887.83457	5871.6375
1890.96482	5851.4375
1894.09304	5853.1375
1897.21921	5849.3375
1900.34335	5837.3375
1903.46544	5816.8375
1906.58551	5829.9375
1909.70353	5817.8375
1912.81953	5807.7375
1915.93349	5782.7375
1919.04543	5764.1375
1922.15534	5778.1375
1925.26322	5757.5375
1928.36908	5755.4375
1931.47292	5732.1375
1934.57473	5720.7375
1937.67453	5718.3375
1940.77232	5690.0375
1943.86808	5679.5375
1946.96184	5656.7375
1950.05358	5639.0375
1953.14331	5624.6375
1956.23103	5590.1375
1959.31675	5586.2375
1962.40046	5561.8375
1965.48217	5546.5375
1968.56188	5540.5375
1971.63959	5516.3375
1974.7153	5498.1375
1977.78901	5497.0375
1980.86073	5494.5375
1983.93046	5457.6375
1986.99819	5426.1375
1990.06394	5401.7375
1993.1277	5393.2375
1996.18947	5366.7375
1999.24925	5343.5375
2002.30706	5339.8375
2005.36288	5287.8375
2008.41672	5285.0375
2011.46859	5272.6375
2014.51848	5266.3375
2017.56639	5242.3375
2020.61233	5217.5375
2023.6563	5202.7375
2026.6983	5213.9375
2029.73833	5166.1375
2032.7764	5167.3375
2035.8125	5144.7375
2038.84664	5132.0375
2041.87881	5120.4375
2044.90903	5115.7375
2047.93729	5115.8375
2050.96359	5092.4375
2053.98794	5080.7375
2057.01034	5079.8375
2060.03078	5081.2375
2063.04927	5063.7375
2066.06582	5056.1375
2069.08042	5045.3375
2072.09307	5039.0375
2075.10378	5027.1375
2078.11255	4999.5375
2081.11938	5030.3375
2084.12426	5009.4375
2087.12722	5015.7375
2090.12824	5013.9375
2093.12732	5017.4375
2096.12447	5024.4375
2099.11969	5032.8375
2102.11299	5008.8375
2105.10435	5010.8375
2108.09379	5011.8375
2111.08131	5010.0375
2114.0669	5027.2375
2117.05057	5005.4375
2120.03233	5019.7375
2123.01216	5013.2375
2125.99008	5014.0375
2128.96609	5017.4375
2131.94018	5039.8375
2134.91236	5030.3375
2137.88263	5017.6375
2140.851	5034.1375
2143.81746	5027.0375
2146.78201	5027.5375
2149.74466	5020.7375
2152.7054	5005.7375
2155.66425	5002.4375
2158.6212	5007.7375
2161.57625	4997.9375
2164.52941	5011.1375
2167.48067	4992.9375
2170.43004	4989.6375
2173.37752	4980.0375
2176.32311	4972.5375
2179.26681	4970.3375
2182.20863	4977.5375
2185.14856	4981.4375
2188.08661	4986.1375
2191.02278	4962.6375
2193.95707	4950.5375
2196.88948	4957.0375
2199.82001	4945.0375
2202.74867	4932.0375
2205.67545	4937.4375
2208.60037	4928.7375
2211.52341	4922.3375
2214.44458	4906.6375
2217.36388	4882.8375
2220.28132	4866.5375
2223.1969	4871.0375
2226.11061	4831.2375
2229.02246	4829.6375
2231.93245	4833.3375
2234.84058	4824.9375
2237.74686	4813.6375
2240.65128	4802.5375
2243.55385	4786.0375
2246.45456	4782.1375
2249.35343	4777.3375
2252.25044	4768.9375
2255.14561	4773.4375
2258.03893	4770.0375
2260.93041	4766.0375
2263.82004	4752.3375
2266.70783	4737.5375
2269.59378	4727.5375
2272.4779	4708.9375
2275.36017	4691.5375
2278.24061	4686.5375
2281.11922	4677.6375
2283.996	4646.6375
2286.87094	4650.6375
2289.74405	4630.4375
2292.61534	4628.5375
2295.4848	4624.5375
2298.35243	4624.8375
2301.21824	4620.4375
2304.08223	4599.8375
2306.94439	4600.8375
2309.80474	4595.0375
2312.66327	4588.0375
2315.51999	4591.8375
2318.37489	4592.3375
2321.22797	4561.2375
2324.07925	4548.1375
2326.92871	4540.9375
2329.77637	4528.8375
2332.62222	4521.0375
2335.46626	4521.7375
2338.3085	4507.3375
2341.14893	4503.4375
2343.98756	4492.6375
2346.8244	4504.0375
2349.65943	4486.7375
2352.49267	4475.1375
2355.32411	4468.2375
2358.15376	4467.1375
2360.98161	4481.4375
2363.80768	4459.2375
2366.63195	4481.6375
2369.45444	4462.2375
2372.27514	4468.4375
2375.09405	4460.9375
2377.91118	4445.3375
2380.72652	4436.7375
2383.54009	4423.7375
2386.35187	4409.5375
2389.16188	4401.5375
2391.97011	4401.0375
2394.77657	4389.5375
2397.58125	4360.3375
2400.38416	4374.4375
2403.18529	4352.5375
2405.98466	4328.0375
2408.78226	4331.1375
2411.57809	4325.9375
2414.37216	4297.7375
2417.16446	4303.9375
2419.955	4303.3375
2422.74378	4298.6375
2425.5308	4289.9375
2428.31606	4304.7375
2431.09956	4288.2375
2433.88131	4287.6375
2436.6613	4267.7375
2439.43954	4274.9375
2442.21603	4267.9375
2444.99077	4274.1375
2447.76377	4258.5375
2450.53501	4258.9375
2453.30451	4253.4375
2456.07226	4242.3375
2458.83827	4240.1375
2461.60254	4224.9375
2464.36507	4214.6375
2467.12586	4201.2375
2469.88492	4202.7375
2472.64224	4213.4375
2475.39782	4199.7375
2478.15167	4188.0375
2480.90379	4183.3375
2483.65417	4174.8375
2486.40283	4190.6375
2489.14976	4192.1375
2491.89497	4195.2375
2494.63845	4187.8375
2497.3802	4176.0375
2500.12024	4165.1375
2502.85855	4151.2375
2505.59514	4162.5375
2508.33002	4142.0375
2511.06318	4141.1375
2513.79462	4117.8375
2516.52435	4110.8375
2519.25237	4098.0375
2521.97867	4085.4375
2524.70327	4096.5375
2527.42616	4090.2375
2530.14734	4066.7375
2532.86681	4063.3375
2535.58458	4072.7375
2538.30065	4064.3375
2541.01501	4051.4375
2543.72768	4049.7375
2546.43864	4058.3375
2549.14791	4046.1375
2551.85548	4031.6375
2554.56136	4022.2375
2557.26554	4020.5375
2559.96803	3994.6375
2562.66883	3987.9375
2565.36794	3986.2375
2568.06536	3977.4375
2570.7611	3943.3375
2573.45514	3948.0375
2576.14751	3942.2375
2578.83819	3935.4375
2581.52719	3910.2375
2584.21451	3928.2375
2586.90015	3915.9375
2589.58411	3911.1375
2592.2664	3904.4375
2594.94701	3886.8375
2597.62594	3893.0375
2600.30321	3871.4375
2602.9788	3864.2375
2605.65273	3869.7375
2608.32498	3853.8375
2610.99557	3844.2375
2613.66449	3852.6375
2616.33175	3833.3375
2618.99734	3831.8375
2621.66128	3817.6375
2624.32355	3801.7375
2626.98416	3800.6375
2629.64311	3798.3375
2632.30041	3787.0375
2634.95605	3774.1375
2637.61004	3763.4375
2640.26238	3768.3375
2642.91306	3747.9375
2645.56209	3758.3375
2648.20948	3751.2375
2650.85521	3747.5375
2653.4993	3739.6375
2656.14175	3744.1375
2658.78255	3738.0375
2661.42171	3730.2375
2664.05923	3729.9375
2666.6951	3741.4375
2669.32934	3734.6375
2671.96194	3739.3375
2674.59291	3742.9375
2677.22224	3740.6375
2679.84993	3747.1375
2682.476	3726.4375
2685.10043	3729.9375
2687.72324	3726.5375
2690.34441	3737.0375
2692.96396	3720.8375
2695.58188	3726.5375
2698.19818	3731.9375
2700.81285	3727.7375
2703.4259	3710.2375
2706.03733	3702.9375
2708.64714	3697.6375
2711.25533	3699.2375
2713.86191	3690.7375
2716.46687	3711.2375
2719.07021	3703.6375
2721.67194	3697.0375
2724.27206	3701.9375
2726.87057	3688.7375
2729.46747	3689.0375
2732.06276	3688.8375
2734.65644	3672.4375
2737.24852	3674.1375
2739.83899	3666.0375
2742.42786	3664.8375
2745.01513	3647.0375
2747.60079	3635.8375
2750.18486	3619.2375
2752.76733	3639.1375
2755.3482	3629.4375
2757.92747	3621.7375
2760.50515	3612.2375
2763.08123	3588.0375
2765.65573	3588.0375
2768.22863	3580.3375
2770.79994	3575.8375
2773.36967	3569.1375
2775.9378	3563.8375
2778.50435	3566.5375
2781.06932	3561.7375
2783.6327	3553.7375
2786.1945	3545.3375
2788.75471	3543.2375
2791.31335	3511.9375
2793.87041	3516.6375
2796.42589	3519.8375
2798.97979	3506.5375
2801.53212	3498.9375
2804.08288	3490.0375
2806.63206	3484.3375
2809.17967	3479.0375
2811.72571	3483.2375
2814.27018	3479.7375
2816.81308	3457.4375
2819.35442	3451.9375
2821.89419	3453.3375
2824.43239	3433.9375
2826.96904	3429.6375
2829.50412	3435.3375
2832.03763	3413.4375
2834.56959	3397.9375
2837.1	3394.0375
2839.62884	3388.6375
2842.15613	3397.0375
2844.68186	3387.3375
2847.20604	3384.1375
2849.72867	3371.7375
2852.24974	3355.6375
2854.76927	3358.0375
2857.28724	3341.5375
2859.80367	3342.4375
2862.31855	3341.2375
2864.83189	3340.4375
2867.34368	3344.2375
2869.85393	3328.1375
2872.36264	3328.7375
2874.8698	3320.3375
2877.37543	3333.6375
2879.87952	3324.9375
2882.38207	3308.1375
2884.88308	3307.0375
2887.38256	3302.4375
2889.88051	3308.1375
2892.37692	3298.4375
2894.8718	3292.3375
2897.36515	3291.3375
2899.85698	3280.7375
2902.34727	3283.8375
2904.83604	3277.1375
2907.32328	3298.3375
2909.809	3291.7375
2912.29319	3287.9375
2914.77587	3300.9375
2917.25702	3294.3375
2919.73665	3309.0375
2922.21476	3310.0375
2924.69136	3288.5375
2927.16644	3293.0375
2929.64	3277.4375
2932.11205	3266.2375
2934.58258	3251.4375
2937.05161	3265.6375
2939.51912	3262.0375
2941.98513	3261.1375
2944.44962	3236.4375
2946.91261	3222.0375
2949.37409	3233.0375
2951.83407	3224.5375
2954.29254	3221.0375
2956.74951	3238.6375
2959.20498	3224.6375
2961.65895	3216.8375
2964.11142	3213.4375
2966.56239	3207.3375
2969.01186	3209.8375
2971.45984	3193.4375
2973.90632	3198.6375
2976.35131	3184.4375
2978.7948	3185.8375
2981.23681	3182.2375
2983.67732	3189.4375
2986.11635	3167.8375
2988.55388	3157.2375
2990.98993	3135.8375
2993.4245	3145.5375
2995.85758	3136.2375
2998.28917	3131.4375
3000.71928	3115.2375
3003.14791	3095.3375
3005.57506	3099.5375
3008.00073	3074.4375
3010.42493	3085.1375
3012.84764	3069.9375
3015.26888	3068.8375
3017.68865	3054.6375
3020.10694	3045.8375
3022.52376	3034.9375
3024.9391	3042.6375
3027.35298	3023.8375
3029.76539	3016.7375
3032.17632	3012.3375
3034.5858	3004.1375
3036.9938	3000.5375
3039.40034	2994.9375
3041.80542	2988.0375
3044.20903	2968.3375
3046.61118	2961.2375
3049.01187	2959.8375
3051.4111	2970.5375
3053.80888	2950.2375
3056.20519	2934.9375
3058.60005	2924.4375
3060.99345	2924.3375
3063.3854	2930.0375
3065.7759	2910.5375
3068.16494	2909.6375
3070.55254	2908.7375
3072.93868	2890.3375
3075.32338	2882.4375
3077.70662	2871.8375
3080.08842	2861.2375
3082.46878	2848.9375
3084.84769	2840.3375
3087.22515	2836.2375
3089.60118	2832.9375
3091.97576	2845.5375
3094.3489	2835.5375
3096.72061	2839.3375
3099.09087	2826.7375
3101.4597	2820.4375
3103.82709	2829.5375
3106.19305	2823.8375
3108.55757	2817.4375
3110.92066	2817.2375
3113.28232	2800.4375
3115.64255	2790.1375
3118.00134	2798.5375
3120.35871	2786.2375
3122.71466	2776.7375
