Data from AgNPs_UA_10uM_CRN_500uM_SU_RamanShift__65__13-16-10-266.txt Node

Date: Thu Aug 04 13:16:10 BST 2022
User: TCL
Spectrometer: QEP01345
Trigger mode: 4
Integration Time (sec): 1.000000E0
Scans to average: 10
Electric dark correction enabled: true
Nonlinearity correction enabled: false
Boxcar width: 0
XAxis mode: Raman Shifts
Number of Pixels in Spectrum: 1044
>>>>>Begin Spectral Data<<<<<
46.04893	-1.2375
50.45542	0.2625
54.85868	0.5625
59.25871	0.7625
63.6555	23.5625
68.04907	23.9625
72.43941	22.3625
76.82654	22.8625
81.21044	23.7625
85.59113	27.6625
89.96862	26.7625
94.34289	29.6625
98.71396	29.5625
103.08183	30.4625
107.4465	30.6625
111.80798	31.3625
116.16626	34.1625
120.52136	34.3625
124.87327	40.2625
129.222	38.4625
133.56755	40.0625
137.90993	46.1625
142.24913	51.5625
146.58517	59.1625
150.91804	64.0625
155.24774	84.0625
159.57429	104.3625
163.89768	137.7625
168.21792	181.8625
172.53501	253.4625
176.84895	355.4625
181.15975	501.1625
185.46741	706.3625
189.77193	989.5625
194.07331	1327.1625
198.37157	1713.7625
202.6667	2129.9625
206.9587	2539.2625
211.24758	2952.3625
215.53334	3358.9625
219.81599	3799.9625
224.09553	4295.3625
228.37195	4833.6625
232.64527	5417.3625
236.91549	6003.1625
241.18261	6551.2625
245.44663	6981.1625
249.70755	7366.2625
253.96539	7705.2625
258.22014	8005.2625
262.4718	8229.4625
266.72039	8363.2625
270.96589	8402.2625
275.20832	8364.5625
279.44768	8272.1625
283.68397	8151.9625
287.91719	8059.5625
292.14735	8051.3625
296.37445	8128.7625
300.59849	8308.3625
304.81948	8513.7625
309.03742	8714.8625
313.25231	8816.8625
317.46415	8781.0625
321.67296	8549.2625
325.87872	8284.2625
330.08145	8168.6625
334.28114	8162.8625
338.47781	8224.5625
342.67145	8374.0625
346.86207	8572.0625
351.04966	8863.4625
355.23424	9159.0625
359.4158	9385.6625
363.59435	9508.5625
367.76989	9552.8625
371.94243	9569.0625
376.11196	9579.7625
380.27849	9597.8625
384.44203	9651.4625
388.60257	9744.5625
392.76012	9828.8625
396.91468	9985.3625
401.06626	10087.2625
405.21485	10159.9625
409.36047	10108.6625
413.50311	9896.6625
417.64277	9682.6625
421.77947	9540.4625
425.9132	9448.2625
430.04396	9403.5625
434.17176	9423.3625
438.2966	9485.3625
442.41849	9631.4625
446.53742	9832.3625
450.6534	9998.0625
454.76644	10143.1625
458.87653	10247.7625
462.98368	10296.1625
467.08789	10259.8625
471.18916	10138.9625
475.2875	9949.2625
479.38291	9817.0625
483.4754	9680.7625
487.56496	9630.7625
491.6516	9615.4625
495.73531	9590.4625
499.81612	9646.5625
503.89401	9741.3625
507.96899	9796.8625
512.04106	9827.2625
516.11023	9850.5625
520.1765	9865.9625
524.23987	9890.6625
528.30034	9882.1625
532.35792	9870.3625
536.41261	9830.1625
540.46441	9712.9625
544.51333	9726.7625
548.55936	9783.9625
552.60252	9887.2625
556.64279	10018.6625
560.6802	10159.9625
564.71473	10231.8625
568.7464	10281.0625
572.7752	10222.2625
576.80114	9970.1625
580.82422	9823.0625
584.84444	9738.1625
588.86181	9748.1625
592.87633	9795.4625
596.888	9955.4625
600.89682	10387.8625
604.9028	11401.8625
608.90594	13402.5625
612.90624	15304.8625
616.90371	14184.7625
620.89834	11546.8625
624.89015	10456.0625
628.87913	10398.0625
632.86528	10556.1625
636.84862	10726.8625
640.82913	10533.6625
644.80683	10202.5625
648.78172	9989.9625
652.75379	10008.9625
656.72306	10257.2625
660.68952	10543.3625
664.65319	10504.3625
668.61405	10475.9625
672.57211	10646.6625
676.52738	10651.2625
680.47986	10378.6625
684.42955	10114.1625
688.37646	10074.8625
692.32058	10123.6625
696.26192	10352.1625
700.20048	10527.8625
704.13626	10577.0625
708.06928	10461.1625
711.99952	10309.5625
715.927	10283.0625
719.85171	10339.2625
723.77365	10376.2625
727.69284	10292.4625
731.60928	10227.3625
735.52295	10237.9625
739.43388	10251.0625
743.34206	10285.0625
747.24749	10279.6625
751.15017	10280.6625
755.05012	10322.4625
758.94733	10624.0625
762.8418	11322.3625
766.73354	12327.1625
770.62254	13126.7625
774.50882	13400.5625
778.39237	13194.4625
782.27321	12637.2625
786.15132	11778.5625
790.02671	11084.0625
793.89938	10707.7625
797.76935	10488.3625
801.6366	10368.6625
805.50115	10299.8625
809.36299	10270.0625
813.22213	10279.2625
817.07857	10297.6625
820.93231	10291.0625
824.78336	10275.4625
828.63172	10270.3625
832.47738	10318.5625
836.32036	10306.0625
840.16066	10288.0625
843.99827	10292.5625
847.8332	10288.7625
851.66546	10298.3625
855.49504	10326.5625
859.32195	10324.1625
863.1462	10335.4625
866.96777	10331.6625
870.78668	10344.5625
874.60293	10375.4625
878.41652	10438.7625
882.22745	10503.3625
886.03573	10540.6625
889.84136	10531.6625
893.64433	10504.4625
897.44466	10479.3625
901.24235	10440.3625
905.0374	10423.4625
908.8298	10397.8625
912.61957	10378.3625
916.40671	10416.5625
920.19121	10404.5625
923.97308	10439.4625
927.75233	10488.7625
931.52895	10581.2625
935.30295	10530.2625
939.07433	10393.1625
942.84309	10322.2625
946.60924	10300.6625
950.37278	10279.0625
954.13371	10254.9625
957.89203	10289.5625
961.64774	10285.0625
965.40086	10287.2625
969.15137	10247.9625
972.89929	10254.3625
976.64461	10240.8625
980.38733	10257.9625
984.12747	10276.8625
987.86502	10327.8625
991.59999	10356.1625
995.33237	10396.9625
999.06217	10452.5625
1002.78939	10580.8625
1006.51404	10724.3625
1010.23611	10870.8625
1013.95561	10986.9625
1017.67255	11029.2625
1021.38692	11015.0625
1025.09872	10950.7625
1028.80796	10852.1625
1032.51465	10807.7625
1036.21877	10799.1625
1039.92035	10840.5625
1043.61937	10878.2625
1047.31584	10927.8625
1051.00976	10961.0625
1054.70114	11016.0625
1058.38998	11035.8625
1062.07627	11094.1625
1065.76003	11182.9625
1069.44126	11287.5625
1073.11995	11555.4625
1076.79611	11758.3625
1080.46974	11893.0625
1084.14085	11974.7625
1087.80943	12026.8625
1091.47549	12121.0625
1095.13903	12182.1625
1098.80005	12339.9625
1102.45857	12581.6625
1106.11456	12545.2625
1109.76805	12265.0625
1113.41903	12144.7625
1117.06751	12214.0625
1120.71348	12348.7625
1124.35696	12408.5625
1127.99793	12456.2625
1131.63641	12279.5625
1135.2724	11995.7625
1138.90589	11766.9625
1142.5369	11643.8625
1146.16542	11596.6625
1149.79145	11519.6625
1153.415	11352.1625
1157.03607	11309.7625
1160.65467	11373.5625
1164.27079	11545.6625
1167.88443	11823.0625
1171.49561	12257.7625
1175.10432	12861.8625
1178.71056	13690.2625
1182.31434	14365.6625
1185.91565	14719.3625
1189.51451	14754.0625
1193.11091	14715.2625
1196.70485	14572.3625
1200.29634	14318.6625
1203.88538	13985.1625
1207.47197	13566.7625
1211.05612	13118.0625
1214.63782	12690.8625
1218.21708	12340.6625
1221.79391	12128.4625
1225.36829	12001.5625
1228.94024	11965.0625
1232.50976	11995.6625
1236.07685	12067.0625
1239.6415	12107.9625
1243.20374	12158.1625
1246.76355	12235.2625
1250.32093	12338.7625
1253.8759	12454.7625
1257.42845	12721.3625
1260.97859	13042.7625
1264.52631	13339.7625
1268.07163	13554.5625
1271.61453	13659.9625
1275.15503	13652.5625
1278.69312	13589.7625
1282.22882	13572.6625
1285.76211	13592.7625
1289.29301	13717.3625
1292.82151	13880.7625
1296.34761	14081.0625
1299.87133	14439.0625
1303.39266	14977.5625
1306.9116	15834.3625
1310.42815	16736.6625
1313.94233	17082.6625
1317.45412	16717.2625
1320.96354	16087.0625
1324.47058	15435.0625
1327.97525	14799.7625
1331.47754	14405.3625
1334.97747	14252.1625
1338.47502	14397.9625
1341.97022	14884.2625
1345.46305	15716.1625
1348.95352	16921.8625
1352.44163	18172.6625
1355.92738	19282.4625
1359.41078	20253.3625
1362.89183	20763.3625
1366.37053	19784.3625
1369.84688	17527.7625
1373.32088	15425.1625
1376.79254	14283.1625
1380.26186	13682.1625
1383.72883	13310.0625
1387.19347	12926.5625
1390.65578	12534.9625
1394.11575	12212.3625
1397.57339	11989.3625
1401.0287	11866.9625
1404.48168	11874.1625
1407.93234	11979.8625
1411.38068	12203.0625
1414.82669	12364.0625
1418.27039	12414.2625
1421.71177	12384.9625
1425.15083	12298.0625
1428.58758	12165.3625
1432.02203	12075.3625
1435.45416	12049.3625
1438.88399	11992.8625
1442.31151	11978.7625
1445.73673	11976.3625
1449.15965	12035.1625
1452.58027	12015.1625
1455.9986	11993.2625
1459.41463	11965.3625
1462.82837	12077.2625
1466.23982	12271.6625
1469.64898	12492.6625
1473.05586	12640.3625
1476.46045	12829.5625
1479.86276	12977.5625
1483.26279	13128.3625
1486.66054	13349.7625
1490.05602	13713.6625
1493.44922	14278.7625
1496.84016	15074.6625
1500.22882	16217.2625
1503.61521	17507.4625
1506.99934	18589.2625
1510.38121	19080.2625
1513.76081	18668.5625
1517.13816	17481.4625
1520.51324	16004.9625
1523.88607	14835.3625
1527.25665	14043.5625
1530.62498	13687.9625
1533.99105	13498.1625
1537.35488	13433.8625
1540.71647	13327.6625
1544.07581	13201.2625
1547.4329	13097.9625
1550.78776	12956.3625
1554.14038	12830.9625
1557.49077	12777.0625
1560.83892	12900.3625
1564.18484	13151.2625
1567.52853	13430.7625
1570.86999	13630.0625
1574.20922	13663.9625
1577.54624	13581.0625
1580.88103	13161.8625
1584.2136	12668.6625
1587.54395	12317.6625
1590.87208	12301.1625
1594.19801	12561.5625
1597.52172	12904.2625
1600.84321	13024.5625
1604.16251	12941.5625
1607.47959	12824.1625
1610.79447	12548.2625
1614.10715	12147.8625
1617.41763	11718.9625
1620.7259	11365.6625
1624.03199	11174.1625
1627.33587	11072.3625
1630.63757	11131.5625
1633.93707	11371.5625
1637.23439	11869.2625
1640.52951	12646.5625
1643.82246	13737.2625
1647.11321	14836.9625
1650.40179	15334.9625
1653.68819	14734.9625
1656.97241	13423.0625
1660.25446	12105.6625
1663.53433	11187.0625
1666.81203	10652.7625
1670.08756	10338.3625
1673.36092	10126.3625
1676.63211	10024.3625
1679.90115	9920.9625
1683.16801	9829.8625
1686.43272	9751.2625
1689.69527	9667.2625
1692.95567	9647.8625
1696.2139	9617.1625
1699.46999	9577.4625
1702.72392	9570.1625
1705.97571	9539.1625
1709.22535	9562.4625
1712.47284	9556.8625
1715.71819	9527.7625
1718.96139	9524.7625
1722.20246	9527.8625
1725.44139	9505.7625
1728.67818	9438.8625
1731.91284	9396.2625
1735.14537	9351.1625
1738.37576	9322.6625
1741.60403	9300.2625
1744.83017	9268.8625
1748.05418	9254.6625
1751.27607	9226.6625
1754.49584	9209.9625
1757.71349	9208.7625
1760.92903	9227.3625
1764.14244	9176.8625
1767.35375	9136.3625
1770.56294	9142.8625
1773.77002	9126.0625
1776.97499	9094.4625
1780.17785	9065.8625
1783.37861	9042.3625
1786.57727	9036.8625
1789.77382	9028.4625
1792.96828	8993.0625
1796.16064	8978.9625
1799.3509	8955.2625
1802.53907	8932.1625
1805.72514	8954.8625
1808.90913	8925.2625
1812.09102	8899.3625
1815.27083	8864.5625
1818.44856	8820.4625
1821.6242	8819.0625
1824.79776	8812.7625
1827.96924	8794.6625
1831.13864	8779.9625
1834.30597	8762.9625
1837.47122	8726.6625
1840.6344	8693.6625
1843.7955	8696.4625
1846.95454	8692.2625
1850.11151	8682.7625
1853.26642	8713.3625
1856.41926	8693.4625
1859.57004	8695.0625
1862.71876	8673.6625
1865.86542	8663.8625
1869.01003	8650.6625
1872.15258	8622.7625
1875.29308	8613.3625
1878.43152	8627.6625
1881.56792	8606.9625
1884.70227	8591.2625
1887.83457	8538.8625
1890.96482	8517.2625
1894.09304	8517.0625
1897.21921	8489.4625
1900.34335	8467.7625
1903.46544	8486.9625
1906.58551	8472.7625
1909.70353	8464.9625
1912.81953	8451.4625
1915.93349	8437.5625
1919.04543	8407.8625
1922.15534	8385.1625
1925.26322	8379.3625
1928.36908	8347.1625
1931.47292	8312.4625
1934.57473	8306.7625
1937.67453	8286.9625
1940.77232	8296.9625
1943.86808	8239.0625
1946.96184	8215.3625
1950.05358	8197.4625
1953.14331	8150.0625
1956.23103	8167.0625
1959.31675	8127.9625
1962.40046	8090.9625
1965.48217	8075.9625
1968.56188	8039.6625
1971.63959	8003.8625
1974.7153	7976.8625
1977.78901	7982.4625
1980.86073	7974.5625
1983.93046	7911.0625
1986.99819	7879.0625
1990.06394	7878.8625
1993.1277	7851.8625
1996.18947	7801.7625
1999.24925	7764.3625
2002.30706	7730.9625
2005.36288	7699.9625
2008.41672	7698.6625
2011.46859	7679.7625
2014.51848	7622.9625
2017.56639	7612.9625
2020.61233	7573.5625
2023.6563	7566.3625
2026.6983	7541.5625
2029.73833	7510.8625
2032.7764	7495.7625
2035.8125	7484.0625
2038.84664	7461.7625
2041.87881	7435.6625
2044.90903	7439.9625
2047.93729	7407.2625
2050.96359	7399.4625
2053.98794	7386.0625
2057.01034	7371.3625
2060.03078	7343.0625
2063.04927	7343.1625
2066.06582	7327.7625
2069.08042	7328.4625
2072.09307	7321.6625
2075.10378	7298.6625
2078.11255	7298.8625
2081.11938	7297.3625
2084.12426	7279.5625
2087.12722	7268.5625
2090.12824	7257.4625
2093.12732	7276.7625
2096.12447	7268.5625
2099.11969	7259.7625
2102.11299	7285.6625
2105.10435	7271.3625
2108.09379	7270.4625
2111.08131	7252.9625
2114.0669	7277.0625
2117.05057	7286.7625
2120.03233	7278.8625
2123.01216	7268.8625
2125.99008	7270.9625
2128.96609	7293.9625
2131.94018	7281.7625
2134.91236	7295.4625
2137.88263	7266.6625
2140.851	7267.2625
2143.81746	7276.1625
2146.78201	7272.9625
2149.74466	7265.0625
2152.7054	7261.9625
2155.66425	7249.2625
2158.6212	7238.2625
2161.57625	7234.8625
2164.52941	7228.2625
2167.48067	7236.0625
2170.43004	7222.9625
2173.37752	7216.3625
2176.32311	7221.3625
2179.26681	7206.4625
2182.20863	7226.3625
2185.14856	7196.1625
2188.08661	7195.0625
2191.02278	7199.8625
2193.95707	7204.9625
2196.88948	7186.9625
2199.82001	7171.9625
2202.74867	7163.7625
2205.67545	7173.4625
2208.60037	7148.0625
2211.52341	7129.4625
2214.44458	7102.3625
2217.36388	7082.3625
2220.28132	7069.4625
2223.1969	7048.6625
2226.11061	7017.3625
2229.02246	7011.6625
2231.93245	7006.4625
2234.84058	6975.0625
2237.74686	6988.7625
2240.65128	6967.0625
2243.55385	6943.7625
2246.45456	6923.9625
2249.35343	6913.3625
2252.25044	6910.6625
2255.14561	6905.4625
2258.03893	6905.3625
2260.93041	6893.0625
2263.82004	6860.3625
2266.70783	6838.1625
2269.59378	6827.0625
2272.4779	6806.3625
2275.36017	6796.3625
2278.24061	6781.9625
2281.11922	6757.7625
2283.996	6728.7625
2286.87094	6734.4625
2289.74405	6717.5625
2292.61534	6714.9625
2295.4848	6694.2625
2298.35243	6682.6625
2301.21824	6666.3625
2304.08223	6647.4625
2306.94439	6665.2625
2309.80474	6645.8625
2312.66327	6646.1625
2315.51999	6610.7625
2318.37489	6600.9625
2321.22797	6612.8625
2324.07925	6606.3625
2326.92871	6582.5625
2329.77637	6559.3625
2332.62222	6518.4625
2335.46626	6517.2625
2338.3085	6511.6625
2341.14893	6500.2625
2343.98756	6499.4625
2346.8244	6488.4625
2349.65943	6484.1625
2352.49267	6463.5625
2355.32411	6453.1625
2358.15376	6453.1625
2360.98161	6450.6625
2363.80768	6451.1625
2366.63195	6427.7625
2369.45444	6441.8625
2372.27514	6450.1625
2375.09405	6429.5625
2377.91118	6394.4625
2380.72652	6391.4625
2383.54009	6372.7625
2386.35187	6357.8625
2389.16188	6349.0625
2391.97011	6315.7625
2394.77657	6287.1625
2397.58125	6265.1625
2400.38416	6277.8625
2403.18529	6266.3625
2405.98466	6263.6625
2408.78226	6228.5625
2411.57809	6242.3625
2414.37216	6219.9625
2417.16446	6212.2625
2419.955	6208.9625
2422.74378	6186.8625
2425.5308	6189.2625
2428.31606	6186.9625
2431.09956	6192.0625
2433.88131	6160.2625
2436.6613	6172.7625
2439.43954	6148.6625
2442.21603	6150.0625
2444.99077	6152.5625
2447.76377	6135.5625
2450.53501	6150.8625
2453.30451	6141.1625
2456.07226	6120.7625
2458.83827	6111.4625
2461.60254	6085.7625
2464.36507	6081.2625
2467.12586	6063.0625
2469.88492	6048.7625
2472.64224	6041.8625
2475.39782	6053.0625
2478.15167	6040.0625
2480.90379	6031.4625
2483.65417	6004.2625
2486.40283	6014.6625
2489.14976	6012.5625
2491.89497	6022.0625
2494.63845	6008.2625
2497.3802	6005.8625
2500.12024	5984.2625
2502.85855	5962.3625
2505.59514	5956.4625
2508.33002	5977.9625
2511.06318	5928.6625
2513.79462	5920.4625
2516.52435	5917.5625
2519.25237	5890.4625
2521.97867	5879.0625
2524.70327	5869.2625
2527.42616	5872.5625
2530.14734	5833.8625
2532.86681	5835.5625
2535.58458	5845.0625
2538.30065	5848.0625
2541.01501	5832.8625
2543.72768	5807.9625
2546.43864	5811.3625
2549.14791	5791.0625
2551.85548	5794.0625
2554.56136	5772.3625
2557.26554	5759.5625
2559.96803	5759.0625
2562.66883	5713.8625
2565.36794	5726.8625
2568.06536	5699.9625
2570.7611	5675.4625
2573.45514	5681.6625
2576.14751	5653.1625
2578.83819	5643.9625
2581.52719	5628.0625
2584.21451	5620.5625
2586.90015	5616.8625
2589.58411	5604.7625
2592.2664	5574.2625
2594.94701	5576.3625
2597.62594	5576.0625
2600.30321	5553.5625
2602.9788	5558.0625
2605.65273	5543.7625
2608.32498	5533.2625
2610.99557	5512.3625
2613.66449	5519.5625
2616.33175	5500.7625
2618.99734	5492.9625
2621.66128	5475.7625
2624.32355	5441.4625
2626.98416	5447.7625
2629.64311	5440.9625
2632.30041	5430.8625
2634.95605	5410.3625
2637.61004	5394.8625
2640.26238	5384.0625
2642.91306	5380.3625
2645.56209	5377.0625
2648.20948	5362.2625
2650.85521	5374.0625
2653.4993	5361.9625
2656.14175	5342.8625
2658.78255	5358.6625
2661.42171	5344.3625
2664.05923	5349.0625
2666.6951	5350.7625
2669.32934	5341.1625
2671.96194	5351.1625
2674.59291	5356.8625
2677.22224	5332.4625
2679.84993	5355.1625
2682.476	5346.5625
2685.10043	5333.5625
2687.72324	5334.6625
2690.34441	5338.4625
2692.96396	5304.5625
2695.58188	5328.5625
2698.19818	5303.9625
2700.81285	5303.2625
2703.4259	5304.2625
2706.03733	5294.3625
2708.64714	5279.1625
2711.25533	5273.4625
2713.86191	5268.5625
2716.46687	5281.1625
2719.07021	5273.5625
2721.67194	5271.6625
2724.27206	5285.4625
2726.87057	5277.2625
2729.46747	5270.5625
2732.06276	5277.0625
2734.65644	5249.7625
2737.24852	5248.8625
2739.83899	5231.3625
2742.42786	5220.8625
2745.01513	5201.0625
2747.60079	5201.8625
2750.18486	5188.0625
2752.76733	5192.3625
2755.3482	5169.3625
2757.92747	5180.0625
2760.50515	5162.1625
2763.08123	5140.0625
2765.65573	5122.1625
2768.22863	5125.8625
2770.79994	5105.7625
2773.36967	5098.9625
2775.9378	5086.5625
2778.50435	5081.8625
2781.06932	5068.0625
2783.6327	5084.6625
2786.1945	5068.5625
2788.75471	5044.1625
2791.31335	5029.5625
2793.87041	5047.6625
2796.42589	4992.1625
2798.97979	4983.7625
2801.53212	4983.8625
2804.08288	4976.0625
2806.63206	4953.2625
2809.17967	4948.0625
2811.72571	4930.2625
2814.27018	4930.1625
2816.81308	4913.9625
2819.35442	4909.8625
2821.89419	4904.8625
2824.43239	4880.3625
2826.96904	4885.6625
2829.50412	4865.7625
2832.03763	4850.1625
2834.56959	4864.8625
2837.1	4830.5625
2839.62884	4819.6625
2842.15613	4824.4625
2844.68186	4819.3625
2847.20604	4808.8625
2849.72867	4798.7625
2852.24974	4783.2625
2854.76927	4773.2625
2857.28724	4767.2625
2859.80367	4758.0625
2862.31855	4752.3625
2864.83189	4741.3625
2867.34368	4738.3625
2869.85393	4738.3625
2872.36264	4717.0625
2874.8698	4708.0625
2877.37543	4700.2625
2879.87952	4695.3625
2882.38207	4692.5625
2884.88308	4684.9625
2887.38256	4689.3625
2889.88051	4676.6625
2892.37692	4677.8625
2894.8718	4649.2625
2897.36515	4673.6625
2899.85698	4639.5625
2902.34727	4660.2625
2904.83604	4666.6625
2907.32328	4670.6625
2909.809	4652.4625
2912.29319	4659.0625
2914.77587	4675.3625
2917.25702	4675.9625
2919.73665	4664.4625
2922.21476	4656.8625
2924.69136	4656.6625
2927.16644	4660.0625
2929.64	4631.5625
2932.11205	4624.6625
2934.58258	4597.1625
2937.05161	4613.2625
2939.51912	4609.0625
2941.98513	4607.4625
2944.44962	4589.4625
2946.91261	4568.9625
2949.37409	4589.0625
2951.83407	4561.0625
2954.29254	4559.2625
2956.74951	4544.8625
2959.20498	4546.4625
2961.65895	4544.2625
2964.11142	4546.3625
2966.56239	4547.1625
2969.01186	4529.2625
2971.45984	4535.1625
2973.90632	4526.4625
2976.35131	4508.8625
2978.7948	4503.9625
2981.23681	4497.5625
2983.67732	4489.2625
2986.11635	4495.3625
2988.55388	4471.0625
2990.98993	4460.7625
2993.4245	4455.8625
2995.85758	4432.0625
2998.28917	4430.8625
3000.71928	4409.6625
3003.14791	4385.9625
3005.57506	4390.5625
3008.00073	4373.4625
3010.42493	4368.0625
3012.84764	4355.0625
3015.26888	4353.6625
3017.68865	4335.2625
3020.10694	4332.7625
3022.52376	4305.2625
3024.9391	4287.3625
3027.35298	4267.3625
3029.76539	4269.1625
3032.17632	4264.4625
3034.5858	4258.1625
3036.9938	4251.2625
3039.40034	4230.4625
3041.80542	4218.0625
3044.20903	4220.3625
3046.61118	4195.9625
3049.01187	4205.6625
3051.4111	4193.8625
3053.80888	4181.4625
3056.20519	4181.2625
3058.60005	4141.9625
3060.99345	4147.1625
3063.3854	4138.6625
3065.7759	4135.0625
3068.16494	4115.8625
3070.55254	4089.1625
3072.93868	4082.5625
3075.32338	4076.6625
3077.70662	4068.3625
3080.08842	4061.4625
3082.46878	4062.6625
3084.84769	4035.8625
3087.22515	4033.7625
3089.60118	4023.8625
3091.97576	4026.0625
3094.3489	4025.8625
