Data from AgNPs_UA_10uM_CRN_500uM_SU_RamanShift__141__13-28-50-283.txt Node

Date: Thu Aug 04 13:28:50 BST 2022
User: TCL
Spectrometer: QEP01345
Trigger mode: 4
Integration Time (sec): 1.000000E0
Scans to average: 10
Electric dark correction enabled: true
Nonlinearity correction enabled: false
Boxcar width: 0
XAxis mode: Raman Shifts
Number of Pixels in Spectrum: 1044
>>>>>Begin Spectral Data<<<<<
46.04893	0.1125
50.45542	-1.6875
54.85868	0.6125
59.25871	-0.2875
63.6555	21.9125
68.04907	18.9125
72.43941	22.9125
76.82654	23.2125
81.21044	22.9125
85.59113	25.3125
89.96862	25.5125
94.34289	25.3125
98.71396	26.1125
103.08183	30.6125
107.4465	28.3125
111.80798	28.5125
116.16626	29.8125
120.52136	32.8125
124.87327	34.8125
129.222	34.8125
133.56755	35.9125
137.90993	41.0125
142.24913	45.5125
146.58517	52.1125
150.91804	61.2125
155.24774	76.4125
159.57429	90.2125
163.89768	117.7125
168.21792	163.7125
172.53501	218.8125
176.84895	307.3125
181.15975	437.7125
185.46741	609.1125
189.77193	849.5125
194.07331	1140.9125
198.37157	1471.1125
202.6667	1814.8125
206.9587	2165.7125
211.24758	2507.1125
215.53334	2839.0125
219.81599	3190.6125
224.09553	3622.0125
228.37195	4070.0125
232.64527	4537.0125
236.91549	5046.5125
241.18261	5513.0125
245.44663	5900.2125
249.70755	6216.3125
253.96539	6508.3125
258.22014	6741.0125
262.4718	6980.5125
266.72039	7109.1125
270.96589	7195.8125
275.20832	7161.2125
279.44768	7080.2125
283.68397	6946.2125
287.91719	6881.6125
292.14735	6905.4125
296.37445	6978.2125
300.59849	7135.6125
304.81948	7324.0125
309.03742	7494.9125
313.25231	7537.5125
317.46415	7425.8125
321.67296	7214.7125
325.87872	7014.2125
330.08145	6911.9125
334.28114	6935.7125
338.47781	7022.7125
342.67145	7152.8125
346.86207	7354.0125
351.04966	7606.1125
355.23424	7875.4125
359.4158	8081.7125
363.59435	8215.1125
367.76989	8284.1125
371.94243	8343.3125
376.11196	8337.4125
380.27849	8374.6125
384.44203	8422.3125
388.60257	8460.6125
392.76012	8501.9125
396.91468	8613.1125
401.06626	8761.7125
405.21485	8815.2125
409.36047	8739.9125
413.50311	8527.0125
417.64277	8311.1125
421.77947	8178.7125
425.9132	8155.9125
430.04396	8164.7125
434.17176	8267.6125
438.2966	8390.3125
442.41849	8648.6125
446.53742	8907.5125
450.6534	9191.9125
454.76644	9346.3125
458.87653	9337.3125
462.98368	9277.3125
467.08789	9101.5125
471.18916	8885.2125
475.2875	8657.4125
479.38291	8457.1125
483.4754	8309.6125
487.56496	8228.0125
491.6516	8186.5125
495.73531	8162.3125
499.81612	8206.0125
503.89401	8255.3125
507.96899	8292.6125
512.04106	8332.9125
516.11023	8401.3125
520.1765	8438.3125
524.23987	8490.3125
528.30034	8460.7125
532.35792	8448.9125
536.41261	8342.9125
540.46441	8245.4125
544.51333	8219.7125
548.55936	8289.2125
552.60252	8376.0125
556.64279	8529.7125
560.6802	8604.9125
564.71473	8641.2125
568.7464	8717.8125
572.7752	8724.6125
576.80114	8606.3125
580.82422	8552.8125
584.84444	8602.1125
588.86181	8750.2125
592.87633	8960.6125
596.888	9167.1125
600.89682	9478.6125
604.9028	10407.8125
608.90594	12237.6125
612.90624	13912.0125
616.90371	12756.2125
620.89834	10260.9125
624.89015	9407.3125
628.87913	9367.9125
632.86528	9295.2125
636.84862	9162.3125
640.82913	8895.5125
644.80683	8593.0125
648.78172	8389.6125
652.75379	8446.3125
656.72306	8680.2125
660.68952	8950.1125
664.65319	8919.8125
668.61405	8793.9125
672.57211	8794.3125
676.52738	8806.4125
680.47986	8641.6125
684.42955	8522.5125
688.37646	8549.0125
692.32058	8637.3125
696.26192	8776.9125
700.20048	8915.8125
704.13626	8914.1125
708.06928	8768.6125
711.99952	8680.3125
715.927	8701.8125
719.85171	8777.0125
723.77365	8729.6125
727.69284	8648.5125
731.60928	8597.3125
735.52295	8616.8125
739.43388	8682.9125
743.34206	8753.0125
747.24749	8782.7125
751.15017	8815.5125
755.05012	8913.2125
758.94733	9196.0125
762.8418	9842.0125
766.73354	10844.1125
770.62254	11717.9125
774.50882	11914.1125
778.39237	11494.6125
782.27321	10656.0125
786.15132	9794.9125
790.02671	9263.2125
793.89938	8999.1125
797.76935	8911.6125
801.6366	8822.3125
805.50115	8796.5125
809.36299	8733.9125
813.22213	8701.4125
817.07857	8704.7125
820.93231	8686.6125
824.78336	8679.4125
828.63172	8717.5125
832.47738	8736.0125
836.32036	8770.8125
840.16066	8805.0125
843.99827	8813.2125
847.8332	8829.7125
851.66546	8781.1125
855.49504	8766.2125
859.32195	8778.4125
863.1462	8740.3125
866.96777	8719.6125
870.78668	8710.7125
874.60293	8711.2125
878.41652	8791.2125
882.22745	8853.0125
886.03573	8909.6125
889.84136	8920.8125
893.64433	8837.4125
897.44466	8810.5125
901.24235	8800.4125
905.0374	8785.7125
908.8298	8741.8125
912.61957	8750.7125
916.40671	8783.2125
920.19121	8863.7125
923.97308	8968.4125
927.75233	9090.2125
931.52895	9180.3125
935.30295	9097.8125
939.07433	8894.7125
942.84309	8796.8125
946.60924	8771.2125
950.37278	8720.4125
954.13371	8666.5125
957.89203	8635.1125
961.64774	8593.3125
965.40086	8588.3125
969.15137	8569.2125
972.89929	8560.0125
976.64461	8576.6125
980.38733	8595.4125
984.12747	8647.4125
987.86502	8721.5125
991.59999	8831.0125
995.33237	9034.1125
999.06217	9358.5125
1002.78939	9660.3125
1006.51404	9814.3125
1010.23611	9843.2125
1013.95561	9933.9125
1017.67255	10056.1125
1021.38692	10071.5125
1025.09872	10090.3125
1028.80796	10257.2125
1032.51465	10564.7125
1036.21877	10769.9125
1039.92035	10745.9125
1043.61937	10532.0125
1047.31584	10217.5125
1051.00976	9931.8125
1054.70114	9781.0125
1058.38998	9760.1125
1062.07627	9767.6125
1065.76003	9765.7125
1069.44126	9787.2125
1073.11995	9880.8125
1076.79611	10004.7125
1080.46974	10110.7125
1084.14085	10229.3125
1087.80943	10323.8125
1091.47549	10325.6125
1095.13903	10201.1125
1098.80005	10070.7125
1102.45857	10088.1125
1106.11456	10066.5125
1109.76805	10055.2125
1113.41903	10117.6125
1117.06751	10252.3125
1120.71348	10435.2125
1124.35696	10597.8125
1127.99793	10699.4125
1131.63641	10584.4125
1135.2724	10347.2125
1138.90589	10134.4125
1142.5369	9956.1125
1146.16542	9854.7125
1149.79145	9765.8125
1153.415	9785.0125
1157.03607	9813.8125
1160.65467	9904.6125
1164.27079	10167.1125
1167.88443	10567.6125
1171.49561	11157.4125
1175.10432	12005.3125
1178.71056	13133.2125
1182.31434	14088.4125
1185.91565	14605.9125
1189.51451	14553.8125
1193.11091	14065.4125
1196.70485	13436.0125
1200.29634	12858.5125
1203.88538	12322.9125
1207.47197	11815.7125
1211.05612	11401.0125
1214.63782	11152.0125
1218.21708	11068.6125
1221.79391	11163.7125
1225.36829	11241.3125
1228.94024	11201.2125
1232.50976	11048.8125
1236.07685	10935.7125
1239.6415	10930.7125
1243.20374	10945.4125
1246.76355	11015.8125
1250.32093	11182.6125
1253.8759	11428.7125
1257.42845	11763.3125
1260.97859	12077.8125
1264.52631	12388.5125
1268.07163	12650.1125
1271.61453	12920.5125
1275.15503	13137.1125
1278.69312	13391.4125
1282.22882	13633.6125
1285.76211	13838.2125
1289.29301	13969.7125
1292.82151	14171.3125
1296.34761	14521.5125
1299.87133	15033.2125
1303.39266	15995.5125
1306.9116	17387.9125
1310.42815	18769.8125
1313.94233	19446.5125
1317.45412	19041.0125
1320.96354	17996.1125
1324.47058	16896.9125
1327.97525	16005.6125
1331.47754	15579.2125
1334.97747	15494.3125
1338.47502	15752.3125
1341.97022	16172.0125
1345.46305	16736.8125
1348.95352	17458.3125
1352.44163	18254.0125
1355.92738	19232.6125
1359.41078	20616.1125
1362.89183	21352.8125
1366.37053	20220.4125
1369.84688	17770.5125
1373.32088	15538.4125
1376.79254	14229.1125
1380.26186	13626.2125
1383.72883	13312.7125
1387.19347	12981.8125
1390.65578	12593.7125
1394.11575	12287.1125
1397.57339	12134.7125
1401.0287	12178.1125
1404.48168	12348.9125
1407.93234	12513.9125
1411.38068	12754.2125
1414.82669	12838.3125
1418.27039	12792.3125
1421.71177	12633.1125
1425.15083	12513.5125
1428.58758	12513.8125
1432.02203	12688.6125
1435.45416	12875.1125
1438.88399	12900.2125
1442.31151	12844.9125
1445.73673	12804.9125
1449.15965	12768.3125
1452.58027	12661.4125
1455.9986	12584.1125
1459.41463	12510.4125
1462.82837	12635.0125
1466.23982	12840.5125
1469.64898	13099.7125
1473.05586	13266.3125
1476.46045	13439.0125
1479.86276	13540.7125
1483.26279	13693.0125
1486.66054	13842.2125
1490.05602	14085.3125
1493.44922	14480.5125
1496.84016	15042.0125
1500.22882	15872.7125
1503.61521	16859.2125
1506.99934	17910.0125
1510.38121	18474.2125
1513.76081	18194.9125
1517.13816	17120.3125
1520.51324	15765.5125
1523.88607	14731.9125
1527.25665	14097.4125
1530.62498	13812.5125
1533.99105	13669.8125
1537.35488	13589.3125
1540.71647	13514.9125
1544.07581	13423.3125
1547.4329	13270.3125
1550.78776	13103.6125
1554.14038	12950.9125
1557.49077	12870.7125
1560.83892	12901.3125
1564.18484	13023.9125
1567.52853	13141.8125
1570.86999	13244.4125
1574.20922	13219.6125
1577.54624	13039.7125
1580.88103	12645.4125
1584.2136	12322.4125
1587.54395	12273.5125
1590.87208	12728.3125
1594.19801	13628.3125
1597.52172	14671.8125
1600.84321	15185.8125
1604.16251	14973.8125
1607.47959	14314.7125
1610.79447	13357.9125
1614.10715	12369.6125
1617.41763	11585.5125
1620.7259	11057.2125
1624.03199	10813.5125
1627.33587	10825.7125
1630.63757	11135.1125
1633.93707	11721.5125
1637.23439	12612.7125
1640.52951	13749.3125
1643.82246	14941.8125
1647.11321	15781.0125
1650.40179	15755.9125
1653.68819	14559.9125
1656.97241	12821.3125
1660.25446	11322.8125
1663.53433	10345.6125
1666.81203	9750.6125
1670.08756	9386.0125
1673.36092	9159.5125
1676.63211	9017.0125
1679.90115	8870.1125
1683.16801	8767.3125
1686.43272	8707.2125
1689.69527	8650.0125
1692.95567	8611.1125
1696.2139	8589.7125
1699.46999	8583.6125
1702.72392	8577.6125
1705.97571	8548.2125
1709.22535	8536.1125
1712.47284	8563.3125
1715.71819	8550.2125
1718.96139	8545.8125
1722.20246	8509.8125
1725.44139	8489.4125
1728.67818	8449.0125
1731.91284	8411.8125
1735.14537	8369.0125
1738.37576	8318.2125
1741.60403	8287.2125
1744.83017	8289.6125
1748.05418	8281.0125
1751.27607	8242.5125
1754.49584	8232.2125
1757.71349	8228.1125
1760.92903	8232.3125
1764.14244	8228.2125
1767.35375	8199.5125
1770.56294	8172.6125
1773.77002	8183.6125
1776.97499	8177.6125
1780.17785	8121.1125
1783.37861	8101.2125
1786.57727	8117.0125
1789.77382	8107.3125
1792.96828	8095.3125
1796.16064	8077.0125
1799.3509	8087.5125
1802.53907	8091.5125
1805.72514	8057.7125
1808.90913	8057.8125
1812.09102	8021.7125
1815.27083	7978.1125
1818.44856	7990.4125
1821.6242	7957.2125
1824.79776	7976.4125
1827.96924	7948.1125
1831.13864	7969.3125
1834.30597	7923.2125
1837.47122	7925.4125
1840.6344	7908.6125
1843.7955	7897.2125
1846.95454	7914.9125
1850.11151	7913.4125
1853.26642	7883.7125
1856.41926	7897.0125
1859.57004	7908.1125
1862.71876	7914.4125
1865.86542	7914.6125
1869.01003	7884.5125
1872.15258	7882.4125
1875.29308	7877.8125
1878.43152	7878.7125
1881.56792	7870.6125
1884.70227	7825.2125
1887.83457	7819.0125
1890.96482	7812.7125
1894.09304	7792.7125
1897.21921	7810.7125
1900.34335	7795.3125
1903.46544	7782.8125
1906.58551	7782.3125
1909.70353	7769.2125
1912.81953	7792.7125
1915.93349	7773.3125
1919.04543	7763.1125
1922.15534	7768.2125
1925.26322	7767.1125
1928.36908	7735.5125
1931.47292	7704.4125
1934.57473	7708.7125
1937.67453	7715.0125
1940.77232	7683.7125
1943.86808	7651.3125
1946.96184	7645.3125
1950.05358	7609.9125
1953.14331	7594.7125
1956.23103	7552.6125
1959.31675	7560.2125
1962.40046	7520.9125
1965.48217	7495.1125
1968.56188	7501.1125
1971.63959	7447.1125
1974.7153	7435.7125
1977.78901	7448.9125
1980.86073	7405.5125
1983.93046	7379.9125
1986.99819	7364.7125
1990.06394	7337.1125
1993.1277	7314.6125
1996.18947	7292.0125
1999.24925	7264.3125
2002.30706	7262.0125
2005.36288	7213.3125
2008.41672	7191.0125
2011.46859	7192.2125
2014.51848	7155.6125
2017.56639	7143.9125
2020.61233	7121.1125
2023.6563	7110.7125
2026.6983	7096.6125
2029.73833	7071.3125
2032.7764	7058.5125
2035.8125	7069.2125
2038.84664	7041.5125
2041.87881	7038.8125
2044.90903	7005.0125
2047.93729	7011.9125
2050.96359	6984.2125
2053.98794	6970.0125
2057.01034	6981.4125
2060.03078	6966.6125
2063.04927	6977.2125
2066.06582	6964.7125
2069.08042	6945.6125
2072.09307	6931.8125
2075.10378	6939.4125
2078.11255	6936.8125
2081.11938	6925.9125
2084.12426	6890.2125
2087.12722	6914.3125
2090.12824	6926.1125
2093.12732	6908.3125
2096.12447	6910.7125
2099.11969	6928.5125
2102.11299	6924.7125
2105.10435	6915.5125
2108.09379	6923.9125
2111.08131	6924.3125
2114.0669	6920.4125
2117.05057	6950.6125
2120.03233	6962.5125
2123.01216	6958.8125
2125.99008	6937.5125
2128.96609	6958.8125
2131.94018	6951.4125
2134.91236	6936.6125
2137.88263	6938.2125
2140.851	6954.6125
2143.81746	6960.6125
2146.78201	6947.1125
2149.74466	6931.5125
2152.7054	6975.9125
2155.66425	6964.5125
2158.6212	6933.1125
2161.57625	6945.3125
2164.52941	6941.9125
2167.48067	6945.6125
2170.43004	6929.8125
2173.37752	6924.2125
2176.32311	6931.3125
2179.26681	6946.5125
2182.20863	6958.4125
2185.14856	6954.3125
2188.08661	6950.0125
2191.02278	6952.2125
2193.95707	6955.6125
2196.88948	6953.7125
2199.82001	6932.3125
2202.74867	6933.7125
2205.67545	6945.0125
2208.60037	6946.4125
2211.52341	6938.5125
2214.44458	6915.5125
2217.36388	6890.1125
2220.28132	6880.1125
2223.1969	6887.2125
2226.11061	6853.2125
2229.02246	6838.0125
2231.93245	6853.2125
2234.84058	6823.9125
2237.74686	6823.3125
2240.65128	6809.8125
2243.55385	6797.1125
2246.45456	6783.7125
2249.35343	6757.0125
2252.25044	6763.1125
2255.14561	6738.0125
2258.03893	6757.4125
2260.93041	6750.8125
2263.82004	6740.6125
2266.70783	6714.9125
2269.59378	6700.2125
2272.4779	6667.7125
2275.36017	6661.2125
2278.24061	6648.7125
2281.11922	6625.3125
2283.996	6615.0125
2286.87094	6614.7125
2289.74405	6609.9125
2292.61534	6617.4125
2295.4848	6582.3125
2298.35243	6587.2125
2301.21824	6577.1125
2304.08223	6579.2125
2306.94439	6574.5125
2309.80474	6602.6125
2312.66327	6618.2125
2315.51999	6600.1125
2318.37489	6604.3125
2321.22797	6584.2125
2324.07925	6594.7125
2326.92871	6573.4125
2329.77637	6545.5125
2332.62222	6566.0125
2335.46626	6545.7125
2338.3085	6558.8125
2341.14893	6586.4125
2343.98756	6584.6125
2346.8244	6585.4125
2349.65943	6573.9125
2352.49267	6547.4125
2355.32411	6576.0125
2358.15376	6558.4125
2360.98161	6572.7125
2363.80768	6542.8125
2366.63195	6547.1125
2369.45444	6526.4125
2372.27514	6509.5125
2375.09405	6505.3125
2377.91118	6478.4125
2380.72652	6475.9125
2383.54009	6453.4125
2386.35187	6436.2125
2389.16188	6410.4125
2391.97011	6421.8125
2394.77657	6398.3125
2397.58125	6379.5125
2400.38416	6381.1125
2403.18529	6356.4125
2405.98466	6379.3125
2408.78226	6340.5125
2411.57809	6334.4125
2414.37216	6305.4125
2417.16446	6307.9125
2419.955	6303.6125
2422.74378	6286.6125
2425.5308	6285.1125
2428.31606	6284.8125
2431.09956	6290.1125
2433.88131	6266.5125
2436.6613	6266.3125
2439.43954	6271.0125
2442.21603	6255.4125
2444.99077	6264.0125
2447.76377	6259.4125
2450.53501	6238.8125
2453.30451	6242.1125
2456.07226	6229.0125
2458.83827	6209.6125
2461.60254	6221.3125
2464.36507	6211.3125
2467.12586	6205.2125
2469.88492	6191.4125
2472.64224	6214.9125
2475.39782	6217.7125
2478.15167	6208.1125
2480.90379	6182.7125
2483.65417	6193.6125
2486.40283	6198.5125
2489.14976	6223.5125
2491.89497	6218.8125
2494.63845	6228.5125
2497.3802	6222.7125
2500.12024	6214.9125
2502.85855	6200.4125
2505.59514	6205.1125
2508.33002	6208.1125
2511.06318	6179.9125
2513.79462	6156.9125
2516.52435	6170.5125
2519.25237	6144.7125
2521.97867	6149.2125
2524.70327	6135.9125
2527.42616	6119.8125
2530.14734	6111.2125
2532.86681	6120.4125
2535.58458	6133.3125
2538.30065	6119.5125
2541.01501	6132.9125
2543.72768	6119.2125
2546.43864	6112.1125
2549.14791	6109.5125
2551.85548	6093.8125
2554.56136	6092.3125
2557.26554	6084.7125
2559.96803	6064.5125
2562.66883	6075.1125
2565.36794	6049.1125
2568.06536	6022.5125
2570.7611	5996.3125
2573.45514	6012.7125
2576.14751	6021.3125
2578.83819	6008.7125
2581.52719	6000.7125
2584.21451	6003.6125
2586.90015	6019.1125
2589.58411	6005.6125
2592.2664	5997.1125
2594.94701	5997.8125
2597.62594	5991.2125
2600.30321	5990.4125
2602.9788	5985.0125
2605.65273	5996.6125
2608.32498	5990.3125
2610.99557	5961.7125
2613.66449	5985.7125
2616.33175	5963.6125
2618.99734	5984.7125
2621.66128	5954.0125
2624.32355	5952.2125
2626.98416	5943.9125
2629.64311	5967.4125
2632.30041	5957.7125
2634.95605	5946.1125
2637.61004	5954.4125
2640.26238	5923.2125
2642.91306	5917.1125
2645.56209	5914.8125
2648.20948	5901.7125
2650.85521	5896.4125
2653.4993	5888.2125
2656.14175	5894.4125
2658.78255	5866.0125
2661.42171	5875.8125
2664.05923	5883.6125
2666.6951	5900.4125
2669.32934	5944.1125
2671.96194	5936.3125
2674.59291	5917.5125
2677.22224	5894.0125
2679.84993	5900.7125
2682.476	5895.3125
2685.10043	5897.4125
2687.72324	5875.2125
2690.34441	5893.1125
2692.96396	5876.5125
2695.58188	5867.9125
2698.19818	5871.7125
2700.81285	5866.4125
2703.4259	5845.6125
2706.03733	5852.4125
2708.64714	5850.5125
2711.25533	5862.9125
2713.86191	5841.1125
2716.46687	5862.0125
2719.07021	5840.1125
2721.67194	5858.0125
2724.27206	5869.7125
2726.87057	5856.2125
2729.46747	5851.7125
2732.06276	5855.7125
2734.65644	5842.4125
2737.24852	5863.9125
2739.83899	5837.3125
2742.42786	5839.0125
2745.01513	5818.3125
2747.60079	5795.6125
2750.18486	5806.1125
2752.76733	5817.4125
2755.3482	5805.7125
2757.92747	5788.3125
2760.50515	5790.7125
2763.08123	5780.9125
2765.65573	5784.3125
2768.22863	5772.2125
2770.79994	5749.2125
2773.36967	5761.3125
2775.9378	5754.3125
2778.50435	5765.6125
2781.06932	5744.4125
2783.6327	5748.7125
2786.1945	5770.1125
2788.75471	5733.1125
2791.31335	5762.8125
2793.87041	5724.4125
2796.42589	5718.5125
2798.97979	5698.7125
2801.53212	5697.1125
2804.08288	5684.1125
2806.63206	5676.1125
2809.17967	5657.5125
2811.72571	5672.2125
2814.27018	5648.6125
2816.81308	5635.7125
2819.35442	5625.2125
2821.89419	5619.8125
2824.43239	5627.9125
2826.96904	5616.4125
2829.50412	5594.0125
2832.03763	5585.6125
2834.56959	5591.1125
2837.1	5568.8125
2839.62884	5548.3125
2842.15613	5555.6125
2844.68186	5566.0125
2847.20604	5544.6125
2849.72867	5557.8125
2852.24974	5551.5125
2854.76927	5514.2125
2857.28724	5504.3125
2859.80367	5497.9125
2862.31855	5504.8125
2864.83189	5501.4125
2867.34368	5511.3125
2869.85393	5493.6125
2872.36264	5497.1125
2874.8698	5490.6125
2877.37543	5495.1125
2879.87952	5474.4125
2882.38207	5465.3125
2884.88308	5473.5125
2887.38256	5473.3125
2889.88051	5468.8125
2892.37692	5453.5125
2894.8718	5465.8125
2897.36515	5467.1125
2899.85698	5470.8125
2902.34727	5458.3125
2904.83604	5478.4125
2907.32328	5486.5125
2909.809	5486.6125
2912.29319	5497.4125
2914.77587	5496.4125
2917.25702	5496.2125
2919.73665	5495.0125
2922.21476	5473.8125
2924.69136	5471.9125
2927.16644	5465.9125
2929.64	5450.6125
2932.11205	5440.6125
2934.58258	5416.9125
2937.05161	5423.4125
2939.51912	5433.9125
2941.98513	5412.7125
2944.44962	5406.2125
2946.91261	5390.7125
2949.37409	5407.4125
2951.83407	5414.6125
2954.29254	5408.1125
2956.74951	5387.9125
2959.20498	5401.9125
2961.65895	5371.3125
2964.11142	5372.4125
2966.56239	5377.0125
2969.01186	5388.0125
2971.45984	5367.8125
2973.90632	5340.9125
2976.35131	5344.4125
2978.7948	5347.5125
2981.23681	5325.8125
2983.67732	5312.4125
2986.11635	5279.7125
2988.55388	5286.2125
2990.98993	5259.3125
2993.4245	5262.6125
2995.85758	5239.7125
2998.28917	5226.2125
3000.71928	5226.4125
3003.14791	5200.7125
3005.57506	5175.3125
3008.00073	5187.3125
3010.42493	5157.8125
3012.84764	5139.6125
3015.26888	5164.2125
3017.68865	5146.9125
3020.10694	5154.2125
3022.52376	5124.1125
3024.9391	5103.3125
3027.35298	5089.6125
3029.76539	5079.6125
3032.17632	5080.0125
3034.5858	5088.7125
3036.9938	5069.7125
3039.40034	5049.0125
3041.80542	5049.8125
3044.20903	5020.4125
3046.61118	5019.2125
3049.01187	5015.1125
3051.4111	5005.8125
3053.80888	5000.7125
3056.20519	4996.6125
3058.60005	4964.3125
3060.99345	4957.1125
3063.3854	4947.6125
3065.7759	4934.4125
3068.16494	4911.9125
3070.55254	4891.7125
3072.93868	4884.4125
3075.32338	4887.1125
3077.70662	4867.3125
3080.08842	4849.1125
3082.46878	4845.8125
3084.84769	4837.0125
3087.22515	4825.8125
3089.60118	4822.3125
3091.97576	4832.9125
3094.3489	4821.6125
3096.72061	4800.5125
3099.09087	4801.3125
3101.4597	4794.2125
3103.82709	4806.5125
3106.19305	4777.9125
3108.55757	4800.1125
