Data from AgNPs_UA_5uM_CRN_500uM_SU_RamanShift__199__12-02-33-179.txt Node

Date: Thu Aug 04 12:02:33 BST 2022
User: TCL
Spectrometer: QEP01345
Trigger mode: 4
Integration Time (sec): 1.000000E0
Scans to average: 10
Electric dark correction enabled: true
Nonlinearity correction enabled: false
Boxcar width: 0
XAxis mode: Raman Shifts
Number of Pixels in Spectrum: 1044
>>>>>Begin Spectral Data<<<<<
46.04893	-0.55
50.45542	-0.05
54.85868	0.85
59.25871	-1.25
63.6555	-57.95
68.04907	-39.35
72.43941	-69.95
76.82654	-55.75
81.21044	-56.45
85.59113	-48.75
89.96862	-74.65
94.34289	-56.85
98.71396	-76.45
103.08183	-57.65
107.4465	-49.15
111.80798	-54.75
116.16626	-44.15
120.52136	-73.85
124.87327	-50.45
129.222	-62.15
133.56755	-46.75
137.90993	-61.85
142.24913	-51.25
146.58517	-42.55
150.91804	-37.05
155.24774	-28.45
159.57429	-7.35
163.89768	-5.05
168.21792	42.75
172.53501	57.25
176.84895	142.65
181.15975	275.95
185.46741	426.25
189.77193	609.65
194.07331	901.85
198.37157	1182.65
202.6667	1475.35
206.9587	1788.85
211.24758	2110.75
215.53334	2432.75
219.81599	2787.65
224.09553	3194.05
228.37195	3620.05
232.64527	4109.95
236.91549	4563.25
241.18261	4933.25
245.44663	5203.85
249.70755	5394.45
253.96539	5499.45
258.22014	5633.25
262.4718	5688.75
266.72039	5736.95
270.96589	5695.25
275.20832	5589.35
279.44768	5486.15
283.68397	5363.65
287.91719	5324.15
292.14735	5352.55
296.37445	5529.45
300.59849	5810.45
304.81948	6173.05
309.03742	6523.85
313.25231	6766.15
317.46415	6728.25
321.67296	6327.95
325.87872	5918.75
330.08145	5743.35
334.28114	5677.65
338.47781	5749.25
342.67145	5866.65
346.86207	6120.35
351.04966	6490.75
355.23424	6898.25
359.4158	7156.35
363.59435	7194.65
367.76989	7135.05
371.94243	6993.05
376.11196	6870.45
380.27849	6792.75
384.44203	6721.65
388.60257	6692.35
392.76012	6694.55
396.91468	6824.75
401.06626	6957.15
405.21485	7003.95
409.36047	6839.65
413.50311	6520.85
417.64277	6222.45
421.77947	6013.75
425.9132	5940.45
430.04396	5947.65
434.17176	5964.05
438.2966	6049.95
442.41849	6133.55
446.53742	6257.45
450.6534	6385.05
454.76644	6437.35
458.87653	6444.85
462.98368	6431.85
467.08789	6346.15
471.18916	6275.05
475.2875	6154.65
479.38291	6034.65
483.4754	5944.75
487.56496	5910.05
491.6516	5871.45
495.73531	5883.35
499.81612	5895.45
503.89401	5977.95
507.96899	6042.75
512.04106	6134.85
516.11023	6248.35
520.1765	6299.35
524.23987	6349.05
528.30034	6362.15
532.35792	6272.55
536.41261	6197.55
540.46441	6112.85
544.51333	6050.95
548.55936	6112.45
552.60252	6231.45
556.64279	6318.65
560.6802	6454.15
564.71473	6593.35
568.7464	6780.15
572.7752	6763.95
576.80114	6453.05
580.82422	6197.55
584.84444	6111.95
588.86181	6093.55
592.87633	6137.05
596.888	6267.35
600.89682	6634.25
604.9028	7583.45
608.90594	9713.95
612.90624	12076.55
616.90371	11185.55
620.89834	8119.55
624.89015	6765.85
628.87913	6574.95
632.86528	6713.85
636.84862	6876.15
640.82913	6748.15
644.80683	6385.75
648.78172	6208.75
652.75379	6236.55
656.72306	6469.55
660.68952	6726.45
664.65319	6622.15
668.61405	6386.75
672.57211	6324.95
676.52738	6317.85
680.47986	6218.75
684.42955	6129.75
688.37646	6077.55
692.32058	6081.75
696.26192	6150.15
700.20048	6258.25
704.13626	6295.15
708.06928	6251.65
711.99952	6221.65
715.927	6186.15
719.85171	6245.15
723.77365	6300.05
727.69284	6259.85
731.60928	6235.55
735.52295	6204.05
739.43388	6260.35
743.34206	6279.65
747.24749	6282.55
751.15017	6315.05
755.05012	6377.25
758.94733	6757.15
762.8418	7629.65
766.73354	8965.05
770.62254	9965.85
774.50882	10054.05
778.39237	9520.35
782.27321	8595.75
786.15132	7547.85
790.02671	6859.85
793.89938	6471.75
797.76935	6347.65
801.6366	6254.25
805.50115	6221.55
809.36299	6218.65
813.22213	6210.55
817.07857	6187.35
820.93231	6199.75
824.78336	6223.35
828.63172	6263.05
832.47738	6251.65
836.32036	6260.75
840.16066	6235.25
843.99827	6194.75
847.8332	6195.05
851.66546	6221.35
855.49504	6196.95
859.32195	6239.45
863.1462	6228.25
866.96777	6244.55
870.78668	6216.25
874.60293	6245.85
878.41652	6269.55
882.22745	6333.05
886.03573	6384.25
889.84136	6362.45
893.64433	6358.45
897.44466	6354.55
901.24235	6335.75
905.0374	6357.75
908.8298	6294.65
912.61957	6264.05
916.40671	6194.25
920.19121	6267.55
923.97308	6344.85
927.75233	6404.15
931.52895	6470.45
935.30295	6448.15
939.07433	6297.75
942.84309	6186.85
946.60924	6156.75
950.37278	6124.25
954.13371	6108.25
957.89203	6108.05
961.64774	6119.65
965.40086	6114.05
969.15137	6083.35
972.89929	6103.25
976.64461	6090.15
980.38733	6106.35
984.12747	6101.05
987.86502	6130.95
991.59999	6146.95
995.33237	6232.05
999.06217	6312.85
1002.78939	6380.95
1006.51404	6517.35
1010.23611	6631.55
1013.95561	6696.65
1017.67255	6688.65
1021.38692	6637.25
1025.09872	6575.25
1028.80796	6507.65
1032.51465	6518.05
1036.21877	6498.55
1039.92035	6527.05
1043.61937	6563.15
1047.31584	6628.25
1051.00976	6643.75
1054.70114	6662.05
1058.38998	6667.05
1062.07627	6658.65
1065.76003	6700.75
1069.44126	6775.45
1073.11995	6848.85
1076.79611	6967.35
1080.46974	7129.65
1084.14085	7299.45
1087.80943	7412.85
1091.47549	7471.35
1095.13903	7378.95
1098.80005	7253.25
1102.45857	7159.45
1106.11456	7130.95
1109.76805	7058.45
1113.41903	7195.75
1117.06751	7366.65
1120.71348	7640.65
1124.35696	7995.95
1127.99793	8296.55
1131.63641	8113.95
1135.2724	7740.35
1138.90589	7419.35
1142.5369	7226.45
1146.16542	7109.15
1149.79145	7009.25
1153.415	6968.05
1157.03607	6954.85
1160.65467	7032.25
1164.27079	7252.25
1167.88443	7505.85
1171.49561	7926.95
1175.10432	8563.45
1178.71056	9426.15
1182.31434	10244.45
1185.91565	10481.25
1189.51451	10325.65
1193.11091	10112.45
1196.70485	9831.55
1200.29634	9602.75
1203.88538	9338.95
1207.47197	8862.85
1211.05612	8399.65
1214.63782	8016.45
1218.21708	7740.95
1221.79391	7606.35
1225.36829	7524.25
1228.94024	7516.65
1232.50976	7526.95
1236.07685	7558.55
1239.6415	7587.75
1243.20374	7619.85
1246.76355	7644.55
1250.32093	7710.65
1253.8759	7782.05
1257.42845	7972.25
1260.97859	8164.45
1264.52631	8387.45
1268.07163	8561.75
1271.61453	8695.25
1275.15503	8750.15
1278.69312	8736.85
1282.22882	8806.05
1285.76211	8998.15
1289.29301	9268.05
1292.82151	9538.75
1296.34761	9750.25
1299.87133	10164.85
1303.39266	10860.95
1306.9116	11991.55
1310.42815	13251.75
1313.94233	13716.55
1317.45412	12887.45
1320.96354	11720.85
1324.47058	10728.15
1327.97525	9963.05
1331.47754	9563.75
1334.97747	9462.15
1338.47502	9579.25
1341.97022	9953.95
1345.46305	10677.55
1348.95352	11765.95
1352.44163	13039.55
1355.92738	14397.35
1359.41078	16072.65
1362.89183	17598.15
1366.37053	16972.95
1369.84688	14084.75
1373.32088	11379.05
1376.79254	9977.25
1380.26186	9316.75
1383.72883	8916.65
1387.19347	8505.65
1390.65578	8181.15
1394.11575	7915.05
1397.57339	7756.05
1401.0287	7630.35
1404.48168	7602.25
1407.93234	7636.45
1411.38068	7638.75
1414.82669	7715.65
1418.27039	7791.55
1421.71177	7816.85
1425.15083	7682.65
1428.58758	7621.65
1432.02203	7641.25
1435.45416	7725.55
1438.88399	7753.95
1442.31151	7715.15
1445.73673	7786.05
1449.15965	7846.75
1452.58027	7868.65
1455.9986	7842.05
1459.41463	7856.25
1462.82837	7940.75
1466.23982	8130.75
1469.64898	8352.65
1473.05586	8508.45
1476.46045	8605.45
1479.86276	8670.75
1483.26279	8776.35
1486.66054	8949.35
1490.05602	9237.25
1493.44922	9805.55
1496.84016	10651.25
1500.22882	12057.85
1503.61521	13759.75
1506.99934	15608.15
1510.38121	16793.25
1513.76081	16666.65
1517.13816	15070.05
1520.51324	12916.45
1523.88607	11218.75
1527.25665	10218.15
1530.62498	9687.55
1533.99105	9513.55
1537.35488	9361.75
1540.71647	9290.65
1544.07581	9155.55
1547.4329	9020.65
1550.78776	8898.75
1554.14038	8809.25
1557.49077	8807.15
1560.83892	8876.55
1564.18484	9125.15
1567.52853	9444.15
1570.86999	9758.85
1574.20922	9907.95
1577.54624	9814.15
1580.88103	9297.55
1584.2136	8600.45
1587.54395	8227.65
1590.87208	8150.15
1594.19801	8323.35
1597.52172	8691.75
1600.84321	8840.55
1604.16251	8701.85
1607.47959	8486.35
1610.79447	8295.55
1614.10715	8028.55
1617.41763	7713.75
1620.7259	7442.25
1624.03199	7296.05
1627.33587	7200.55
1630.63757	7280.05
1633.93707	7509.35
1637.23439	7934.15
1640.52951	8610.75
1643.82246	9598.15
1647.11321	10772.95
1650.40179	11490.45
1653.68819	11160.15
1656.97241	9915.35
1660.25446	8511.45
1663.53433	7501.35
1666.81203	6886.15
1670.08756	6563.85
1673.36092	6366.65
1676.63211	6223.05
1679.90115	6145.25
1683.16801	6057.55
1686.43272	5981.25
1689.69527	5916.65
1692.95567	5862.15
1696.2139	5849.85
1699.46999	5787.45
1702.72392	5787.65
1705.97571	5797.55
1709.22535	5783.55
1712.47284	5809.35
1715.71819	5827.75
1718.96139	5813.65
1722.20246	5803.25
1725.44139	5774.85
1728.67818	5754.85
1731.91284	5702.95
1735.14537	5683.35
1738.37576	5641.75
1741.60403	5619.05
1744.83017	5584.45
1748.05418	5594.15
1751.27607	5589.15
1754.49584	5558.75
1757.71349	5520.35
1760.92903	5526.85
1764.14244	5485.15
1767.35375	5493.95
1770.56294	5475.15
1773.77002	5445.55
1776.97499	5462.25
1780.17785	5438.45
1783.37861	5424.05
1786.57727	5435.55
1789.77382	5382.65
1792.96828	5398.45
1796.16064	5417.45
1799.3509	5375.85
1802.53907	5393.95
1805.72514	5378.95
1808.90913	5349.65
1812.09102	5340.15
1815.27083	5337.85
1818.44856	5323.25
1821.6242	5301.65
1824.79776	5308.75
1827.96924	5301.25
1831.13864	5258.15
1834.30597	5266.95
1837.47122	5260.75
1840.6344	5235.85
1843.7955	5232.25
1846.95454	5210.15
1850.11151	5233.15
1853.26642	5200.05
1856.41926	5202.05
1859.57004	5208.25
1862.71876	5198.45
1865.86542	5199.95
1869.01003	5187.35
1872.15258	5160.95
1875.29308	5188.75
1878.43152	5198.85
1881.56792	5162.05
1884.70227	5126.05
1887.83457	5148.55
1890.96482	5122.85
1894.09304	5113.75
1897.21921	5106.85
1900.34335	5110.25
1903.46544	5099.15
1906.58551	5091.75
1909.70353	5095.15
1912.81953	5099.05
1915.93349	5082.15
1919.04543	5074.25
1922.15534	5061.65
1925.26322	5063.15
1928.36908	5023.65
1931.47292	5031.95
1934.57473	5045.65
1937.67453	5020.75
1940.77232	4964.25
1943.86808	4977.05
1946.96184	4952.25
1950.05358	4933.75
1953.14331	4922.65
1956.23103	4926.05
1959.31675	4892.95
1962.40046	4827.35
1965.48217	4867.85
1968.56188	4876.25
1971.63959	4852.05
1974.7153	4854.25
1977.78901	4835.45
1980.86073	4807.05
1983.93046	4768.25
1986.99819	4690.35
1990.06394	4710.35
1993.1277	4732.85
1996.18947	4699.25
1999.24925	4674.15
2002.30706	4679.15
2005.36288	4678.85
2008.41672	4637.95
2011.46859	4599.65
2014.51848	4611.05
2017.56639	4605.75
2020.61233	4564.65
2023.6563	4568.05
2026.6983	4523.55
2029.73833	4536.35
2032.7764	4561.55
2035.8125	4512.65
2038.84664	4495.75
2041.87881	4477.35
2044.90903	4491.65
2047.93729	4483.65
2050.96359	4450.75
2053.98794	4462.15
2057.01034	4463.85
2060.03078	4451.05
2063.04927	4432.55
2066.06582	4442.05
2069.08042	4411.55
2072.09307	4444.05
2075.10378	4422.45
2078.11255	4422.45
2081.11938	4415.85
2084.12426	4409.55
2087.12722	4410.45
2090.12824	4407.95
2093.12732	4406.85
2096.12447	4413.05
2099.11969	4389.75
2102.11299	4394.75
2105.10435	4407.85
2108.09379	4412.85
2111.08131	4384.85
2114.0669	4399.15
2117.05057	4392.35
2120.03233	4392.25
2123.01216	4418.75
2125.99008	4400.15
2128.96609	4411.15
2131.94018	4428.95
2134.91236	4416.55
2137.88263	4405.35
2140.851	4419.45
2143.81746	4436.15
2146.78201	4421.85
2149.74466	4395.55
2152.7054	4428.15
2155.66425	4408.85
2158.6212	4392.25
2161.57625	4366.55
2164.52941	4362.15
2167.48067	4356.85
2170.43004	4364.65
2173.37752	4387.85
2176.32311	4367.75
2179.26681	4360.85
2182.20863	4379.75
2185.14856	4370.05
2188.08661	4377.55
2191.02278	4379.25
2193.95707	4353.55
2196.88948	4342.45
2199.82001	4346.05
2202.74867	4337.75
2205.67545	4333.75
2208.60037	4349.05
2211.52341	4335.95
2214.44458	4317.35
2217.36388	4289.15
2220.28132	4305.25
2223.1969	4260.45
2226.11061	4271.75
2229.02246	4259.25
2231.93245	4247.65
2234.84058	4230.55
2237.74686	4224.65
2240.65128	4226.55
2243.55385	4221.85
2246.45456	4192.55
2249.35343	4211.25
2252.25044	4186.55
2255.14561	4202.75
2258.03893	4206.75
2260.93041	4180.85
2263.82004	4190.05
2266.70783	4173.25
2269.59378	4156.75
2272.4779	4143.75
2275.36017	4147.05
2278.24061	4127.45
2281.11922	4102.25
2283.996	4104.55
2286.87094	4082.45
2289.74405	4096.35
2292.61534	4087.75
2295.4848	4074.85
2298.35243	4070.95
2301.21824	4050.75
2304.08223	4060.35
2306.94439	4062.45
2309.80474	4062.45
2312.66327	4054.85
2315.51999	4024.45
2318.37489	4025.25
2321.22797	4010.95
2324.07925	4005.75
2326.92871	3997.85
2329.77637	3986.15
2332.62222	3977.75
2335.46626	3959.95
2338.3085	3948.05
2341.14893	3978.95
2343.98756	3969.65
2346.8244	3937.15
2349.65943	3940.25
2352.49267	3945.25
2355.32411	3948.05
2358.15376	3932.05
2360.98161	3950.65
2363.80768	3941.15
2366.63195	3948.25
2369.45444	3939.85
2372.27514	3939.35
2375.09405	3952.45
2377.91118	3921.05
2380.72652	3911.25
2383.54009	3901.95
2386.35187	3902.95
2389.16188	3875.65
2391.97011	3875.55
2394.77657	3860.95
2397.58125	3870.05
2400.38416	3854.65
2403.18529	3839.35
2405.98466	3811.15
2408.78226	3838.25
2411.57809	3800.95
2414.37216	3805.75
2417.16446	3790.15
2419.955	3774.35
2422.74378	3786.75
2425.5308	3769.25
2428.31606	3790.75
2431.09956	3783.35
2433.88131	3754.15
2436.6613	3782.15
2439.43954	3751.95
2442.21603	3752.35
2444.99077	3748.85
2447.76377	3757.15
2450.53501	3753.55
2453.30451	3731.75
2456.07226	3746.65
2458.83827	3736.65
2461.60254	3688.05
2464.36507	3724.05
2467.12586	3698.75
2469.88492	3715.85
2472.64224	3705.55
2475.39782	3690.95
2478.15167	3708.05
2480.90379	3697.55
2483.65417	3713.75
2486.40283	3711.95
2489.14976	3700.45
2491.89497	3696.85
2494.63845	3710.15
2497.3802	3698.35
2500.12024	3689.85
2502.85855	3662.85
2505.59514	3688.55
2508.33002	3662.15
2511.06318	3645.75
2513.79462	3636.55
2516.52435	3614.95
2519.25237	3582.95
2521.97867	3578.75
2524.70327	3600.45
2527.42616	3592.35
2530.14734	3612.55
2532.86681	3575.65
2535.58458	3582.35
2538.30065	3561.65
2541.01501	3574.85
2543.72768	3566.55
2546.43864	3574.15
2549.14791	3554.35
2551.85548	3543.45
2554.56136	3532.05
2557.26554	3541.45
2559.96803	3521.35
2562.66883	3524.35
2565.36794	3510.75
2568.06536	3471.75
2570.7611	3506.75
2573.45514	3477.55
2576.14751	3476.95
2578.83819	3461.25
2581.52719	3448.95
2584.21451	3460.55
2586.90015	3446.45
2589.58411	3413.65
2592.2664	3423.05
2594.94701	3429.55
2597.62594	3416.65
2600.30321	3353.65
2602.9788	3389.65
2605.65273	3369.45
2608.32498	3382.05
2610.99557	3404.45
2613.66449	3361.25
2616.33175	3381.75
2618.99734	3378.75
2621.66128	3376.85
2624.32355	3355.15
2626.98416	3338.05
2629.64311	3335.45
2632.30041	3321.05
2634.95605	3309.35
2637.61004	3308.15
2640.26238	3283.85
2642.91306	3293.05
2645.56209	3300.85
2648.20948	3312.75
2650.85521	3285.85
2653.4993	3306.25
2656.14175	3277.95
2658.78255	3274.85
2661.42171	3246.95
2664.05923	3290.85
2666.6951	3290.25
2669.32934	3285.55
2671.96194	3314.65
2674.59291	3286.15
2677.22224	3292.55
2679.84993	3290.65
2682.476	3288.95
2685.10043	3277.75
2687.72324	3266.95
2690.34441	3276.25
2692.96396	3264.45
2695.58188	3284.15
2698.19818	3273.55
2700.81285	3256.75
2703.4259	3236.25
2706.03733	3219.65
2708.64714	3215.05
2711.25533	3240.85
2713.86191	3254.55
2716.46687	3253.75
2719.07021	3243.65
2721.67194	3241.05
2724.27206	3255.55
2726.87057	3249.75
2729.46747	3228.75
2732.06276	3233.45
2734.65644	3212.65
2737.24852	3226.85
2739.83899	3196.55
2742.42786	3217.95
2745.01513	3210.55
2747.60079	3202.75
2750.18486	3190.05
2752.76733	3189.85
2755.3482	3189.55
2757.92747	3190.15
2760.50515	3155.55
2763.08123	3163.85
2765.65573	3155.45
2768.22863	3150.75
2770.79994	3133.45
2773.36967	3127.45
2775.9378	3125.85
2778.50435	3125.45
2781.06932	3124.75
2783.6327	3114.95
2786.1945	3137.85
2788.75471	3101.25
2791.31335	3113.05
2793.87041	3099.15
2796.42589	3080.55
2798.97979	3078.55
2801.53212	3068.45
2804.08288	3090.15
2806.63206	3072.75
2809.17967	3064.05
2811.72571	3075.25
2814.27018	3059.05
2816.81308	3053.85
2819.35442	3009.65
2821.89419	3030.65
2824.43239	3009.35
2826.96904	3038.65
2829.50412	3021.65
2832.03763	3023.15
2834.56959	3029.55
2837.1	3009.95
2839.62884	2997.65
2842.15613	2999.45
2844.68186	3006.75
2847.20604	2984.45
2849.72867	2985.45
2852.24974	2983.75
2854.76927	2948.55
2857.28724	2908.15
2859.80367	2967.85
2862.31855	2972.35
2864.83189	2967.35
2867.34368	2957.85
2869.85393	2977.35
2872.36264	2942.75
2874.8698	2943.65
2877.37543	2941.25
2879.87952	2942.55
2882.38207	2925.65
2884.88308	2921.45
2887.38256	2933.35
2889.88051	2935.15
2892.37692	2927.35
2894.8718	2911.95
2897.36515	2924.05
2899.85698	2916.85
2902.34727	2904.85
2904.83604	2915.05
2907.32328	2935.35
2909.809	2933.05
2912.29319	2926.65
2914.77587	2943.75
2917.25702	2942.25
2919.73665	2950.95
2922.21476	2950.45
2924.69136	2951.15
2927.16644	2927.65
2929.64	2935.15
2932.11205	2913.05
2934.58258	2916.05
2937.05161	2901.45
2939.51912	2902.55
2941.98513	2910.05
2944.44962	2895.05
2946.91261	2875.05
2949.37409	2875.15
2951.83407	2870.45
2954.29254	2860.15
2956.74951	2867.05
2959.20498	2851.75
2961.65895	2849.85
2964.11142	2838.75
2966.56239	2840.65
2969.01186	2837.45
2971.45984	2839.15
2973.90632	2831.25
2976.35131	2840.65
2978.7948	2824.75
2981.23681	2826.25
2983.67732	2828.85
2986.11635	2821.25
2988.55388	2774.05
2990.98993	2787.45
2993.4245	2781.65
2995.85758	2768.35
2998.28917	2770.65
3000.71928	2751.65
3003.14791	2751.55
3005.57506	2740.25
3008.00073	2715.35
3010.42493	2663.05
3012.84764	2716.75
3015.26888	2715.85
3017.68865	2707.15
3020.10694	2670.05
3022.52376	2686.45
3024.9391	2676.15
3027.35298	2667.25
3029.76539	2651.15
3032.17632	2638.15
3034.5858	2645.35
3036.9938	2660.25
3039.40034	2644.35
3041.80542	2639.25
3044.20903	2613.15
3046.61118	2608.85
3049.01187	2621.45
3051.4111	2605.05
3053.80888	2602.25
3056.20519	2588.65
3058.60005	2566.75
3060.99345	2604.05
3063.3854	2562.25
3065.7759	2559.95
3068.16494	2558.05
3070.55254	2537.25
3072.93868	2555.55
3075.32338	2541.65
3077.70662	2537.45
3080.08842	2516.65
3082.46878	2511.35
3084.84769	2525.45
3087.22515	2505.55
3089.60118	2526.35
3091.97576	2501.55
3094.3489	2516.25
3096.72061	2507.55
3099.09087	2490.85
3101.4597	2503.05
3103.82709	2485.85
3106.19305	2485.55
3108.55757	2482.35
3110.92066	2468.75
3113.28232	2483.55
3115.64255	2480.25
3118.00134	2472.65
3120.35871	2446.85
3122.71466	2426.95
3125.06917	2439.95
3127.42226	2427.05
3129.77393	2412.65
3132.12417	2419.55
3134.47299	2429.25
3136.82039	2413.45
3139.16636	2390.45
3141.51092	2402.65
3143.85406	2414.35
3146.19579	2390.75
3148.53609	2388.95
3150.87499	2388.55
3153.21246	2377.15
3155.54853	2398.55
3157.88318	2382.25
3160.21642	2394.95
3162.54826	2391.75
3164.87868	2385.65
3167.2077	2355.05
3169.5353	2385.05
3171.86151	2376.65
3174.18631	2367.75
3176.5097	2367.05
3178.83169	2355.45
3181.15228	2370.75
3183.47147	2347.35
3185.78926	2327.85
3188.10565	2334.45
3190.42065	2299.15
3192.73424	2324.55
3195.04645	2310.55
3197.35725	2285.75
3199.66667	2302.75
3201.97469	2305.15
3204.28132	2293.95
3206.58656	2313.45
3208.8904	2309.25
3211.19287	2296.55
3213.49394	2296.25
3215.79363	2292.35
3218.09193	2318.25
3220.38884	2290.45
3222.68438	2290.65
3224.97853	2273.45
3227.2713	2298.25
3229.56269	2275.05
3231.8527	2274.45
3234.14133	2263.25
3236.42858	2266.55
3238.71446	2237.25
3240.99896	2271.45
3243.28209	2238.45
3245.56384	2248.95
3247.84423	2235.65
3250.12324	2232.95
3252.40088	2228.65
3254.67715	2203.65
3256.95205	2202.65
3259.22558	2224.15
3261.49775	2209.75
3263.76855	2218.45
3266.03799	2212.35
3268.30606	2212.05
3270.57277	2219.45
3272.83812	2189.85
3275.10211	2194.45
3277.36474	2199.65
3279.62601	2195.05
3281.88593	2163.95
3284.14448	2162.85
3286.40168	2176.95
3288.65753	2168.55
3290.91202	2163.15
3293.16516	2139.65
3295.41695	2163.35
3297.66738	2169.15
3299.91647	2129.55
3302.16421	2132.75
3304.4106	2105.45
3306.65564	2118.55
3308.89933	2081.25
3311.14169	2071.85
3313.38269	2069.65
3315.62236	2039.35
3317.86068	2022.25
3320.09766	2025.55
3322.3333	1993.65
3324.5676	1976.35
3326.80056	1959.95
3329.03219	1940.85
3331.26248	-0.15
3333.49143	-0.35
3335.71905	0.95
