Data from AgNPs_UA_10uM_CRN_500uM_SU_RamanShift__33__13-10-50-260.txt Node

Date: Thu Aug 04 13:10:50 BST 2022
User: TCL
Spectrometer: QEP01345
Trigger mode: 4
Integration Time (sec): 1.000000E0
Scans to average: 10
Electric dark correction enabled: true
Nonlinearity correction enabled: false
Boxcar width: 0
XAxis mode: Raman Shifts
Number of Pixels in Spectrum: 1044
>>>>>Begin Spectral Data<<<<<
46.04893	0.625
50.45542	-0.475
54.85868	0.825
59.25871	-0.975
63.6555	17.325
68.04907	18.125
72.43941	17.125
76.82654	18.725
81.21044	17.825
85.59113	20.225
89.96862	21.525
94.34289	23.625
98.71396	21.525
103.08183	23.325
107.4465	22.825
111.80798	21.725
116.16626	24.825
120.52136	26.325
124.87327	28.125
129.222	27.525
133.56755	30.825
137.90993	29.725
142.24913	37.925
146.58517	42.025
150.91804	49.325
155.24774	59.325
159.57429	73.525
163.89768	96.325
168.21792	124.325
172.53501	175.525
176.84895	239.425
181.15975	345.225
185.46741	481.125
189.77193	683.725
194.07331	912.225
198.37157	1182.525
202.6667	1455.925
206.9587	1744.025
211.24758	2020.225
215.53334	2299.725
219.81599	2599.525
224.09553	2936.625
228.37195	3288.125
232.64527	3684.425
236.91549	4084.425
241.18261	4467.925
245.44663	4799.325
249.70755	5070.125
253.96539	5322.325
258.22014	5516.525
262.4718	5694.725
266.72039	5792.425
270.96589	5840.125
275.20832	5802.625
279.44768	5731.625
283.68397	5652.225
287.91719	5586.325
292.14735	5557.925
296.37445	5595.225
300.59849	5679.325
304.81948	5825.425
309.03742	5933.425
313.25231	6021.625
317.46415	5995.825
321.67296	5856.325
325.87872	5707.525
330.08145	5636.925
334.28114	5641.625
338.47781	5707.025
342.67145	5803.525
346.86207	5927.525
351.04966	6131.125
355.23424	6326.225
359.4158	6472.425
363.59435	6509.125
367.76989	6542.825
371.94243	6561.925
376.11196	6577.525
380.27849	6582.225
384.44203	6633.025
388.60257	6685.825
392.76012	6737.625
396.91468	6820.025
401.06626	6916.525
405.21485	6954.625
409.36047	6946.725
413.50311	6809.825
417.64277	6700.025
421.77947	6616.825
425.9132	6584.825
430.04396	6592.125
434.17176	6609.025
438.2966	6690.825
442.41849	6772.525
446.53742	6908.925
450.6534	7007.225
454.76644	7099.025
458.87653	7155.025
462.98368	7169.425
467.08789	7142.425
471.18916	7077.725
475.2875	7009.925
479.38291	6916.025
483.4754	6846.525
487.56496	6799.925
491.6516	6801.325
495.73531	6809.825
499.81612	6832.825
503.89401	6901.525
507.96899	6954.425
512.04106	6961.325
516.11023	6992.925
520.1765	7036.125
524.23987	7051.125
528.30034	7049.525
532.35792	7050.425
536.41261	7015.825
540.46441	6960.225
544.51333	6955.425
548.55936	7005.725
552.60252	7064.425
556.64279	7148.125
560.6802	7226.225
564.71473	7299.925
568.7464	7337.725
572.7752	7325.925
576.80114	7194.525
580.82422	7128.825
584.84444	7119.425
588.86181	7116.125
592.87633	7155.925
596.888	7261.925
600.89682	7518.725
604.9028	8074.725
608.90594	9151.725
612.90624	10226.125
616.90371	9625.425
620.89834	8132.525
624.89015	7548.225
628.87913	7480.925
632.86528	7594.725
636.84862	7665.225
640.82913	7600.225
644.80683	7410.925
648.78172	7322.325
652.75379	7323.825
656.72306	7453.925
660.68952	7606.425
664.65319	7569.425
668.61405	7554.925
672.57211	7603.825
676.52738	7595.125
680.47986	7510.125
684.42955	7398.625
688.37646	7393.725
692.32058	7429.925
696.26192	7526.525
700.20048	7637.325
704.13626	7671.625
708.06928	7625.125
711.99952	7557.025
715.927	7553.525
719.85171	7602.325
723.77365	7599.425
727.69284	7599.425
731.60928	7552.625
735.52295	7557.825
739.43388	7614.825
743.34206	7613.925
747.24749	7618.125
751.15017	7622.025
755.05012	7668.625
758.94733	7854.825
762.8418	8238.125
766.73354	8883.225
770.62254	9381.025
774.50882	9469.625
778.39237	9313.325
782.27321	8933.325
786.15132	8433.525
790.02671	8062.725
793.89938	7856.925
797.76935	7757.825
801.6366	7708.325
805.50115	7677.825
809.36299	7669.125
813.22213	7672.925
817.07857	7694.825
820.93231	7700.625
824.78336	7690.325
828.63172	7714.225
832.47738	7709.925
836.32036	7696.825
840.16066	7713.225
843.99827	7705.525
847.8332	7701.525
851.66546	7746.225
855.49504	7753.225
859.32195	7748.025
863.1462	7775.925
866.96777	7747.825
870.78668	7772.825
874.60293	7815.725
878.41652	7842.225
882.22745	7911.225
886.03573	7932.725
889.84136	7937.925
893.64433	7908.925
897.44466	7899.225
901.24235	7897.825
905.0374	7900.325
908.8298	7881.425
912.61957	7865.825
916.40671	7866.625
920.19121	7868.125
923.97308	7895.525
927.75233	7937.925
931.52895	7978.925
935.30295	7947.325
939.07433	7878.625
942.84309	7834.525
946.60924	7822.725
950.37278	7810.925
954.13371	7798.725
957.89203	7806.825
961.64774	7808.025
965.40086	7809.425
969.15137	7782.525
972.89929	7775.125
976.64461	7783.325
980.38733	7795.225
984.12747	7817.725
987.86502	7828.625
991.59999	7881.925
995.33237	7882.925
999.06217	7949.925
1002.78939	8010.225
1006.51404	8115.725
1010.23611	8204.925
1013.95561	8271.425
1017.67255	8271.725
1021.38692	8268.525
1025.09872	8232.925
1028.80796	8161.925
1032.51465	8158.625
1036.21877	8137.225
1039.92035	8182.525
1043.61937	8185.325
1047.31584	8223.725
1051.00976	8249.925
1054.70114	8281.225
1058.38998	8278.125
1062.07627	8318.625
1065.76003	8369.025
1069.44126	8448.025
1073.11995	8547.225
1076.79611	8679.125
1080.46974	8747.925
1084.14085	8805.725
1087.80943	8851.925
1091.47549	8889.525
1095.13903	8896.025
1098.80005	8938.225
1102.45857	9012.225
1106.11456	8966.025
1109.76805	8867.725
1113.41903	8814.925
1117.06751	8861.125
1120.71348	8943.025
1124.35696	9060.825
1127.99793	9120.025
1131.63641	9037.125
1135.2724	8865.125
1138.90589	8741.325
1142.5369	8663.825
1146.16542	8613.925
1149.79145	8602.625
1153.415	8505.925
1157.03607	8518.425
1160.65467	8548.725
1164.27079	8666.325
1167.88443	8855.325
1171.49561	9100.225
1175.10432	9478.825
1178.71056	9984.625
1182.31434	10428.125
1185.91565	10598.625
1189.51451	10603.525
1193.11091	10567.125
1196.70485	10439.625
1200.29634	10334.425
1203.88538	10137.425
1207.47197	9892.325
1211.05612	9625.525
1214.63782	9387.225
1218.21708	9204.025
1221.79391	9082.125
1225.36829	9052.225
1228.94024	9030.625
1232.50976	9044.125
1236.07685	9055.825
1239.6415	9102.425
1243.20374	9135.025
1246.76355	9191.325
1250.32093	9245.625
1253.8759	9320.425
1257.42845	9483.025
1260.97859	9641.025
1264.52631	9810.625
1268.07163	9926.625
1271.61453	9998.525
1275.15503	9986.725
1278.69312	9992.025
1282.22882	9975.225
1285.76211	10037.625
1289.29301	10141.925
1292.82151	10270.825
1296.34761	10381.025
1299.87133	10596.225
1303.39266	10930.225
1306.9116	11441.125
1310.42815	11984.825
1313.94233	12217.225
1317.45412	11957.925
1320.96354	11561.425
1324.47058	11187.325
1327.97525	10854.125
1331.47754	10637.625
1334.97747	10591.425
1338.47502	10651.025
1341.97022	10901.825
1345.46305	11384.525
1348.95352	12029.125
1352.44163	12684.125
1355.92738	13316.825
1359.41078	13943.525
1362.89183	14406.825
1366.37053	13870.525
1369.84688	12495.325
1373.32088	11216.725
1376.79254	10488.025
1380.26186	10118.025
1383.72883	9896.025
1387.19347	9683.325
1390.65578	9443.825
1394.11575	9276.025
1397.57339	9118.125
1401.0287	9066.225
1404.48168	9045.125
1407.93234	9113.525
1411.38068	9186.725
1414.82669	9255.725
1418.27039	9270.725
1421.71177	9216.925
1425.15083	9160.025
1428.58758	9113.725
1432.02203	9103.625
1435.45416	9110.725
1438.88399	9123.425
1442.31151	9135.525
1445.73673	9126.925
1449.15965	9132.425
1452.58027	9161.325
1455.9986	9132.525
1459.41463	9145.025
1462.82837	9238.925
1466.23982	9363.625
1469.64898	9502.225
1473.05586	9615.625
1476.46045	9720.725
1479.86276	9772.225
1483.26279	9869.725
1486.66054	9960.825
1490.05602	10142.425
1493.44922	10411.625
1496.84016	10867.725
1500.22882	11477.425
1503.61521	12186.325
1506.99934	12881.325
1510.38121	13271.725
1513.76081	13125.825
1517.13816	12399.125
1520.51324	11502.625
1523.88607	10808.625
1527.25665	10381.525
1530.62498	10187.325
1533.99105	10107.925
1537.35488	10071.025
1540.71647	9983.725
1544.07581	9912.425
1547.4329	9898.825
1550.78776	9820.925
1554.14038	9725.425
1557.49077	9688.325
1560.83892	9738.325
1564.18484	9870.825
1567.52853	10017.025
1570.86999	10135.225
1574.20922	10163.225
1577.54624	10104.225
1580.88103	9872.725
1584.2136	9528.125
1587.54395	9381.425
1590.87208	9383.125
1594.19801	9561.525
1597.52172	9793.925
1600.84321	9892.025
1604.16251	9848.825
1607.47959	9769.325
1610.79447	9577.625
1614.10715	9338.225
1617.41763	9038.425
1620.7259	8847.925
1624.03199	8662.425
1627.33587	8624.825
1630.63757	8641.825
1633.93707	8819.325
1637.23439	9132.925
1640.52951	9607.325
1643.82246	10217.325
1647.11321	10848.525
1650.40179	11116.825
1653.68819	10782.925
1656.97241	9998.625
1660.25446	9209.725
1663.53433	8659.125
1666.81203	8310.125
1670.08756	8106.925
1673.36092	7983.025
1676.63211	7894.325
1679.90115	7841.825
1683.16801	7775.725
1686.43272	7741.225
1689.69527	7686.125
1692.95567	7665.625
1696.2139	7627.725
1699.46999	7597.225
1702.72392	7630.125
1705.97571	7608.225
1709.22535	7614.925
1712.47284	7614.625
1715.71819	7602.625
1718.96139	7608.025
1722.20246	7565.825
1725.44139	7586.425
1728.67818	7538.025
1731.91284	7507.225
1735.14537	7489.725
1738.37576	7489.025
1741.60403	7447.425
1744.83017	7439.225
1748.05418	7435.125
1751.27607	7445.125
1754.49584	7402.825
1757.71349	7410.925
1760.92903	7392.625
1764.14244	7387.625
1767.35375	7358.925
1770.56294	7339.925
1773.77002	7372.125
1776.97499	7342.825
1780.17785	7300.525
1783.37861	7296.325
1786.57727	7292.725
1789.77382	7291.125
1792.96828	7288.825
1796.16064	7249.925
1799.3509	7247.825
1802.53907	7268.825
1805.72514	7236.225
1808.90913	7220.925
1812.09102	7226.525
1815.27083	7178.425
1818.44856	7182.725
1821.6242	7173.225
1824.79776	7159.025
1827.96924	7150.325
1831.13864	7118.825
1834.30597	7122.425
1837.47122	7097.725
1840.6344	7066.525
1843.7955	7088.125
1846.95454	7104.525
1850.11151	7091.125
1853.26642	7085.825
1856.41926	7098.125
1859.57004	7087.425
1862.71876	7095.225
1865.86542	7083.525
1869.01003	7065.225
1872.15258	7047.925
1875.29308	7046.825
1878.43152	7030.125
1881.56792	7022.825
1884.70227	7014.125
1887.83457	6982.925
1890.96482	6966.625
1894.09304	6973.425
1897.21921	6970.725
1900.34335	6956.525
1903.46544	6939.825
1906.58551	6937.825
1909.70353	6931.825
1912.81953	6939.425
1915.93349	6917.225
1919.04543	6897.025
1922.15534	6905.725
1925.26322	6889.725
1928.36908	6875.125
1931.47292	6852.225
1934.57473	6833.825
1937.67453	6847.125
1940.77232	6818.025
1943.86808	6798.025
1946.96184	6781.925
1950.05358	6759.925
1953.14331	6742.025
1956.23103	6732.325
1959.31675	6693.125
1962.40046	6687.925
1965.48217	6652.825
1968.56188	6633.925
1971.63959	6624.825
1974.7153	6609.125
1977.78901	6596.825
1980.86073	6595.325
1983.93046	6546.125
1986.99819	6532.225
1990.06394	6510.625
1993.1277	6477.725
1996.18947	6458.625
1999.24925	6460.825
2002.30706	6430.825
2005.36288	6416.225
2008.41672	6391.725
2011.46859	6365.125
2014.51848	6338.325
2017.56639	6332.625
2020.61233	6293.125
2023.6563	6295.125
2026.6983	6276.925
2029.73833	6246.025
2032.7764	6239.625
2035.8125	6231.825
2038.84664	6207.025
2041.87881	6206.325
2044.90903	6194.625
2047.93729	6173.525
2050.96359	6164.725
2053.98794	6161.225
2057.01034	6155.425
2060.03078	6153.125
2063.04927	6153.225
2066.06582	6139.925
2069.08042	6134.625
2072.09307	6127.325
2075.10378	6133.125
2078.11255	6116.925
2081.11938	6106.225
2084.12426	6081.925
2087.12722	6074.225
2090.12824	6098.325
2093.12732	6083.325
2096.12447	6095.625
2099.11969	6111.325
2102.11299	6110.325
2105.10435	6113.925
2108.09379	6105.025
2111.08131	6082.625
2114.0669	6082.425
2117.05057	6119.125
2120.03233	6120.525
2123.01216	6123.725
2125.99008	6111.125
2128.96609	6112.225
2131.94018	6137.825
2134.91236	6128.025
2137.88263	6100.425
2140.851	6123.925
2143.81746	6120.625
2146.78201	6129.625
2149.74466	6111.125
2152.7054	6113.125
2155.66425	6113.525
2158.6212	6128.125
2161.57625	6095.425
2164.52941	6099.425
2167.48067	6117.125
2170.43004	6087.725
2173.37752	6086.325
2176.32311	6107.325
2179.26681	6088.025
2182.20863	6097.425
2185.14856	6122.825
2188.08661	6090.725
2191.02278	6114.325
2193.95707	6092.025
2196.88948	6085.825
2199.82001	6080.525
2202.74867	6073.825
2205.67545	6066.725
2208.60037	6063.125
2211.52341	6036.625
2214.44458	6030.525
2217.36388	6020.925
2220.28132	5981.325
2223.1969	5979.125
2226.11061	5965.125
2229.02246	5931.725
2231.93245	5943.725
2234.84058	5943.225
2237.74686	5905.625
2240.65128	5923.025
2243.55385	5900.625
2246.45456	5904.425
2249.35343	5888.025
2252.25044	5885.025
2255.14561	5881.325
2258.03893	5848.225
2260.93041	5843.325
2263.82004	5850.625
2266.70783	5836.225
2269.59378	5814.725
2272.4779	5785.425
2275.36017	5785.725
2278.24061	5769.425
2281.11922	5763.925
2283.996	5739.225
2286.87094	5737.925
2289.74405	5725.825
2292.61534	5723.125
2295.4848	5717.725
2298.35243	5710.225
2301.21824	5702.525
2304.08223	5688.525
2306.94439	5696.825
2309.80474	5674.525
2312.66327	5685.625
2315.51999	5653.325
2318.37489	5665.725
2321.22797	5632.125
2324.07925	5617.925
2326.92871	5618.325
2329.77637	5619.025
2332.62222	5611.425
2335.46626	5576.425
2338.3085	5570.425
2341.14893	5574.225
2343.98756	5565.325
2346.8244	5557.825
2349.65943	5551.625
2352.49267	5533.325
2355.32411	5526.325
2358.15376	5521.125
2360.98161	5559.625
2363.80768	5530.725
2366.63195	5529.825
2369.45444	5517.025
2372.27514	5527.125
2375.09405	5491.925
2377.91118	5491.925
2380.72652	5488.625
2383.54009	5464.325
2386.35187	5467.325
2389.16188	5439.125
2391.97011	5428.925
2394.77657	5413.125
2397.58125	5417.925
2400.38416	5403.925
2403.18529	5391.425
2405.98466	5391.125
2408.78226	5370.225
2411.57809	5370.825
2414.37216	5354.825
2417.16446	5363.925
2419.955	5339.925
2422.74378	5333.325
2425.5308	5330.325
2428.31606	5323.425
2431.09956	5314.225
2433.88131	5304.125
2436.6613	5308.425
2439.43954	5297.125
2442.21603	5305.225
2444.99077	5306.525
2447.76377	5288.825
2450.53501	5289.025
2453.30451	5291.925
2456.07226	5281.625
2458.83827	5256.125
2461.60254	5240.425
2464.36507	5225.025
2467.12586	5219.525
2469.88492	5223.025
2472.64224	5234.725
2475.39782	5218.125
2478.15167	5218.525
2480.90379	5205.525
2483.65417	5191.725
2486.40283	5203.625
2489.14976	5193.925
2491.89497	5196.525
2494.63845	5191.225
2497.3802	5182.725
2500.12024	5182.225
2502.85855	5148.425
2505.59514	5150.825
2508.33002	5153.625
2511.06318	5157.525
2513.79462	5125.025
2516.52435	5118.525
2519.25237	5101.625
2521.97867	5094.025
2524.70327	5070.825
2527.42616	5090.125
2530.14734	5058.825
2532.86681	5051.925
2535.58458	5065.125
2538.30065	5064.525
2541.01501	5058.725
2543.72768	5045.025
2546.43864	5038.625
2549.14791	5019.325
2551.85548	5014.325
2554.56136	5010.925
2557.26554	5002.925
2559.96803	4991.525
2562.66883	4981.725
2565.36794	4965.525
2568.06536	4964.225
2570.7611	4937.025
2573.45514	4928.225
2576.14751	4916.525
2578.83819	4919.325
2581.52719	4889.025
2584.21451	4886.125
2586.90015	4906.425
2589.58411	4873.425
2592.2664	4867.925
2594.94701	4849.125
2597.62594	4847.425
2600.30321	4832.125
2602.9788	4817.625
2605.65273	4832.225
2608.32498	4843.225
2610.99557	4808.925
2613.66449	4792.525
2616.33175	4792.025
2618.99734	4779.625
2621.66128	4779.925
2624.32355	4777.525
2626.98416	4754.025
2629.64311	4742.625
2632.30041	4721.825
2634.95605	4725.225
2637.61004	4709.525
2640.26238	4694.725
2642.91306	4684.225
2645.56209	4696.225
2648.20948	4681.225
2650.85521	4675.325
2653.4993	4687.225
2656.14175	4688.225
2658.78255	4679.725
2661.42171	4656.725
2664.05923	4669.225
2666.6951	4665.525
2669.32934	4661.025
2671.96194	4665.425
2674.59291	4673.225
2677.22224	4683.725
2679.84993	4675.625
2682.476	4679.925
2685.10043	4667.825
2687.72324	4674.925
2690.34441	4665.625
2692.96396	4657.425
2695.58188	4652.125
2698.19818	4647.325
2700.81285	4642.025
2703.4259	4634.525
2706.03733	4631.025
2708.64714	4637.425
2711.25533	4621.725
2713.86191	4628.625
2716.46687	4632.125
2719.07021	4612.225
2721.67194	4628.325
2724.27206	4632.625
2726.87057	4621.725
2729.46747	4621.625
2732.06276	4612.125
2734.65644	4594.125
2737.24852	4605.325
2739.83899	4585.425
2742.42786	4592.325
2745.01513	4575.225
2747.60079	4562.525
2750.18486	4565.825
2752.76733	4557.025
2755.3482	4549.725
2757.92747	4543.225
2760.50515	4538.125
2763.08123	4513.325
2765.65573	4526.025
2768.22863	4496.125
2770.79994	4502.525
2773.36967	4488.125
2775.9378	4486.125
2778.50435	4473.725
2781.06932	4471.225
2783.6327	4468.325
2786.1945	4459.725
2788.75471	4447.625
2791.31335	4461.925
2793.87041	4413.925
2796.42589	4410.625
2798.97979	4385.225
2801.53212	4400.525
2804.08288	4371.525
2806.63206	4367.125
2809.17967	4375.225
2811.72571	4373.225
2814.27018	4364.225
2816.81308	4339.925
2819.35442	4347.625
2821.89419	4314.925
2824.43239	4308.725
2826.96904	4292.925
2829.50412	4295.425
2832.03763	4277.025
2834.56959	4279.325
2837.1	4261.325
2839.62884	4255.725
2842.15613	4255.925
2844.68186	4248.425
2847.20604	4255.425
2849.72867	4233.825
2852.24974	4212.425
2854.76927	4200.725
2857.28724	4203.625
2859.80367	4203.925
2862.31855	4190.325
2864.83189	4200.825
2867.34368	4187.525
2869.85393	4198.225
2872.36264	4161.725
2874.8698	4164.325
2877.37543	4174.025
2879.87952	4164.725
2882.38207	4157.725
2884.88308	4147.325
2887.38256	4147.625
2889.88051	4148.225
2892.37692	4133.725
2894.8718	4138.125
2897.36515	4148.525
2899.85698	4125.025
2902.34727	4131.525
2904.83604	4139.525
2907.32328	4139.725
2909.809	4126.225
2912.29319	4148.225
2914.77587	4148.225
2917.25702	4151.025
2919.73665	4150.125
2922.21476	4149.625
2924.69136	4141.725
2927.16644	4135.625
2929.64	4118.825
2932.11205	4118.225
2934.58258	4095.725
2937.05161	4101.025
2939.51912	4104.625
2941.98513	4110.925
2944.44962	4087.225
2946.91261	4073.625
2949.37409	4082.525
2951.83407	4077.325
2954.29254	4078.525
2956.74951	4078.225
2959.20498	4077.825
2961.65895	4079.425
2964.11142	4056.425
2966.56239	4054.825
2969.01186	4049.625
2971.45984	4051.725
2973.90632	4051.125
2976.35131	4036.425
2978.7948	4022.825
2981.23681	4028.425
2983.67732	4016.125
2986.11635	4007.725
2988.55388	3980.625
2990.98993	3979.525
2993.4245	3990.625
2995.85758	3971.725
2998.28917	3948.725
3000.71928	3950.725
3003.14791	3931.325
3005.57506	3924.725
3008.00073	3918.425
3010.42493	3898.025
3012.84764	3901.525
3015.26888	3908.825
3017.68865	3889.025
3020.10694	3887.325
3022.52376	3887.225
3024.9391	3862.725
3027.35298	3856.325
3029.76539	3839.625
3032.17632	3833.625
3034.5858	3836.825
3036.9938	3831.925
3039.40034	3816.825
3041.80542	3801.325
3044.20903	3799.825
3046.61118	3798.525
3049.01187	3783.425
3051.4111	3792.625
3053.80888	3773.725
3056.20519	3754.325
3058.60005	3727.025
3060.99345	3746.825
3063.3854	3732.025
3065.7759	3723.625
3068.16494	3721.225
3070.55254	3706.825
3072.93868	3693.525
3075.32338	3680.125
3077.70662	3679.225
3080.08842	3663.725
3082.46878	3660.425
3084.84769	3660.525
3087.22515	3644.225
3089.60118	3642.225
3091.97576	3645.525
3094.3489	3648.625
3096.72061	3637.225
3099.09087	3627.025
3101.4597	3622.925
3103.82709	3623.125
3106.19305	3621.225
3108.55757	3621.425
3110.92066	3610.725
3113.28232	3611.825
3115.64255	3592.325
3118.00134	3583.225
3120.35871	3576.025
3122.71466	3584.325
3125.06917	3574.425
3127.42226	3565.925
3129.77393	3555.125
3132.12417	3539.625
3134.47299	3545.325
3136.82039	3514.625
3139.16636	3534.725
3141.51092	3522.425
3143.85406	3535.825
3146.19579	3522.625
3148.53609	3529.125
3150.87499	3518.425
3153.21246	3516.825
3155.54853	3526.325
3157.88318	3506.325
3160.21642	3500.525
3162.54826	3514.025
3164.87868	3486.525
3167.2077	3498.225
3169.5353	3494.325
3171.86151	3494.725
3174.18631	3468.725
3176.5097	3478.725
3178.83169	3477.325
3181.15228	3467.925
3183.47147	3448.425
3185.78926	3445.525
3188.10565	3437.925
3190.42065	3424.125
3192.73424	3434.025
3195.04645	3418.725
3197.35725	3412.425
3199.66667	3399.825
3201.97469	3402.325
3204.28132	3400.225
3206.58656	3413.225
3208.8904	3412.625
3211.19287	3412.125
3213.49394	3399.725
3215.79363	3414.925
3218.09193	3400.425
3220.38884	3407.325
3222.68438	3406.525
3224.97853	3392.325
3227.2713	3402.825
3229.56269	3387.425
3231.8527	3397.025
3234.14133	3375.625
