Data from AgNPs_UA_5uM_CRN_500uM_SU_RamanShift__185__12-00-13-176.txt Node

Date: Thu Aug 04 12:00:13 BST 2022
User: TCL
Spectrometer: QEP01345
Trigger mode: 4
Integration Time (sec): 1.000000E0
Scans to average: 10
Electric dark correction enabled: true
Nonlinearity correction enabled: false
Boxcar width: 0
XAxis mode: Raman Shifts
Number of Pixels in Spectrum: 1044
>>>>>Begin Spectral Data<<<<<
46.04893	-1.125
50.45542	0.375
54.85868	0.175
59.25871	-0.625
63.6555	-58.125
68.04907	-39.425
72.43941	-70.925
76.82654	-56.425
81.21044	-55.825
85.59113	-49.725
89.96862	-74.725
94.34289	-53.025
98.71396	-76.125
103.08183	-57.325
107.4465	-49.625
111.80798	-55.025
116.16626	-43.325
120.52136	-74.725
124.87327	-49.525
129.222	-61.925
133.56755	-47.725
137.90993	-60.925
142.24913	-49.525
146.58517	-42.825
150.91804	-39.325
155.24774	-29.625
159.57429	-6.625
163.89768	-2.125
168.21792	40.575
172.53501	62.075
176.84895	148.175
181.15975	278.975
185.46741	429.775
189.77193	615.375
194.07331	908.775
198.37157	1206.675
202.6667	1492.475
206.9587	1822.175
211.24758	2142.675
215.53334	2462.175
219.81599	2823.675
224.09553	3234.175
228.37195	3686.275
232.64527	4152.775
236.91549	4624.575
241.18261	4992.175
245.44663	5285.775
249.70755	5467.675
253.96539	5579.575
258.22014	5722.975
262.4718	5778.775
266.72039	5802.775
270.96589	5782.275
275.20832	5699.675
279.44768	5560.875
283.68397	5452.475
287.91719	5388.175
292.14735	5440.375
296.37445	5609.175
300.59849	5904.775
304.81948	6236.175
309.03742	6627.775
313.25231	6852.075
317.46415	6797.575
321.67296	6399.675
325.87872	6006.275
330.08145	5776.575
334.28114	5754.975
338.47781	5813.275
342.67145	5966.375
346.86207	6200.375
351.04966	6584.675
355.23424	6995.275
359.4158	7257.175
363.59435	7303.975
367.76989	7233.775
371.94243	7108.175
376.11196	6971.975
380.27849	6899.975
384.44203	6826.375
388.60257	6769.675
392.76012	6799.275
396.91468	6902.875
401.06626	7067.575
405.21485	7103.375
409.36047	6951.575
413.50311	6608.375
417.64277	6312.675
421.77947	6083.775
425.9132	6047.275
430.04396	6012.375
434.17176	6079.475
438.2966	6164.675
442.41849	6252.975
446.53742	6360.775
450.6534	6458.575
454.76644	6548.775
458.87653	6565.175
462.98368	6521.475
467.08789	6445.275
471.18916	6377.675
475.2875	6252.075
479.38291	6149.875
483.4754	6049.575
487.56496	6018.575
491.6516	5971.575
495.73531	5979.575
499.81612	6010.875
503.89401	6087.775
507.96899	6142.675
512.04106	6233.775
516.11023	6347.675
520.1765	6417.575
524.23987	6471.475
528.30034	6438.275
532.35792	6350.175
536.41261	6333.375
540.46441	6225.675
544.51333	6166.275
548.55936	6209.375
552.60252	6351.575
556.64279	6447.875
560.6802	6572.075
564.71473	6704.475
568.7464	6920.275
572.7752	6896.475
576.80114	6553.175
580.82422	6321.875
584.84444	6211.575
588.86181	6192.275
592.87633	6216.375
596.888	6344.875
600.89682	6704.675
604.9028	7708.475
608.90594	9829.175
612.90624	12213.375
616.90371	11334.275
620.89834	8208.275
624.89015	6879.075
628.87913	6659.875
632.86528	6820.175
636.84862	6989.075
640.82913	6853.075
644.80683	6495.075
648.78172	6294.675
652.75379	6349.775
656.72306	6579.975
660.68952	6839.475
664.65319	6734.575
668.61405	6503.575
672.57211	6419.675
676.52738	6435.475
680.47986	6332.875
684.42955	6249.475
688.37646	6205.475
692.32058	6190.375
696.26192	6277.875
700.20048	6353.475
704.13626	6406.175
708.06928	6362.775
711.99952	6343.875
715.927	6301.975
719.85171	6340.575
723.77365	6390.875
727.69284	6361.075
731.60928	6350.375
735.52295	6332.475
739.43388	6379.575
743.34206	6374.275
747.24749	6411.075
751.15017	6423.975
755.05012	6498.275
758.94733	6871.975
762.8418	7736.875
766.73354	9062.875
770.62254	10095.475
774.50882	10194.575
778.39237	9646.075
782.27321	8708.375
786.15132	7651.475
790.02671	6977.475
793.89938	6588.675
797.76935	6471.975
801.6366	6402.975
805.50115	6334.875
809.36299	6318.775
813.22213	6328.275
817.07857	6329.675
820.93231	6327.975
824.78336	6346.475
828.63172	6367.275
832.47738	6368.075
836.32036	6376.975
840.16066	6345.675
843.99827	6336.675
847.8332	6334.475
851.66546	6345.475
855.49504	6320.175
859.32195	6376.975
863.1462	6345.375
866.96777	6350.475
870.78668	6346.975
874.60293	6357.075
878.41652	6396.875
882.22745	6477.575
886.03573	6490.875
889.84136	6503.675
893.64433	6493.175
897.44466	6474.075
901.24235	6483.675
905.0374	6456.875
908.8298	6408.875
912.61957	6379.775
916.40671	6331.575
920.19121	6389.475
923.97308	6481.175
927.75233	6553.675
931.52895	6599.275
935.30295	6566.875
939.07433	6414.675
942.84309	6311.975
946.60924	6282.975
950.37278	6230.975
954.13371	6236.275
957.89203	6223.575
961.64774	6253.475
965.40086	6239.975
969.15137	6213.875
972.89929	6245.375
976.64461	6227.475
980.38733	6260.675
984.12747	6254.875
987.86502	6251.375
991.59999	6288.075
995.33237	6370.275
999.06217	6449.175
1002.78939	6504.075
1006.51404	6645.275
1010.23611	6763.475
1013.95561	6808.775
1017.67255	6819.575
1021.38692	6786.275
1025.09872	6738.875
1028.80796	6649.875
1032.51465	6656.175
1036.21877	6637.175
1039.92035	6689.875
1043.61937	6711.675
1047.31584	6765.075
1051.00976	6791.075
1054.70114	6814.075
1058.38998	6786.975
1062.07627	6802.075
1065.76003	6831.375
1069.44126	6901.075
1073.11995	7001.975
1076.79611	7116.175
1080.46974	7292.375
1084.14085	7441.575
1087.80943	7590.875
1091.47549	7613.975
1095.13903	7552.075
1098.80005	7396.375
1102.45857	7306.575
1106.11456	7285.775
1109.76805	7239.075
1113.41903	7333.575
1117.06751	7509.575
1120.71348	7754.775
1124.35696	8140.675
1127.99793	8429.375
1131.63641	8284.775
1135.2724	7859.175
1138.90589	7553.775
1142.5369	7366.875
1146.16542	7257.275
1149.79145	7160.875
1153.415	7100.675
1157.03607	7097.575
1160.65467	7193.275
1164.27079	7376.975
1167.88443	7663.275
1171.49561	8057.875
1175.10432	8674.175
1178.71056	9592.275
1182.31434	10384.875
1185.91565	10620.775
1189.51451	10497.175
1193.11091	10226.975
1196.70485	9978.775
1200.29634	9747.575
1203.88538	9475.175
1207.47197	9032.275
1211.05612	8574.675
1214.63782	8179.375
1218.21708	7907.375
1221.79391	7764.175
1225.36829	7673.575
1228.94024	7651.075
1232.50976	7675.275
1236.07685	7691.875
1239.6415	7731.875
1243.20374	7758.975
1246.76355	7802.175
1250.32093	7866.475
1253.8759	7953.175
1257.42845	8119.275
1260.97859	8336.675
1264.52631	8557.275
1268.07163	8745.475
1271.61453	8865.975
1275.15503	8901.575
1278.69312	8903.575
1282.22882	8986.975
1285.76211	9183.475
1289.29301	9423.675
1292.82151	9718.375
1296.34761	9913.675
1299.87133	10321.075
1303.39266	11037.075
1306.9116	12196.075
1310.42815	13446.375
1313.94233	13879.975
1317.45412	13053.675
1320.96354	11916.975
1324.47058	10878.575
1327.97525	10120.075
1331.47754	9724.075
1334.97747	9636.275
1338.47502	9733.375
1341.97022	10118.475
1345.46305	10840.275
1348.95352	11932.975
1352.44163	13211.675
1355.92738	14596.375
1359.41078	16240.875
1362.89183	17741.275
1366.37053	17103.375
1369.84688	14208.475
1373.32088	11536.075
1376.79254	10129.175
1380.26186	9472.875
1383.72883	9064.375
1387.19347	8650.075
1390.65578	8326.775
1394.11575	8090.275
1397.57339	7911.075
1401.0287	7791.675
1404.48168	7773.575
1407.93234	7789.675
1411.38068	7804.775
1414.82669	7896.575
1418.27039	7942.575
1421.71177	7951.975
1425.15083	7845.975
1428.58758	7790.875
1432.02203	7816.375
1435.45416	7896.075
1438.88399	7896.275
1442.31151	7896.275
1445.73673	7962.475
1449.15965	8001.075
1452.58027	8005.375
1455.9986	8011.375
1459.41463	8027.175
1462.82837	8127.775
1466.23982	8298.875
1469.64898	8520.375
1473.05586	8664.975
1476.46045	8772.375
1479.86276	8834.075
1483.26279	8932.575
1486.66054	9122.775
1490.05602	9410.275
1493.44922	9964.775
1496.84016	10849.375
1500.22882	12185.575
1503.61521	13961.675
1506.99934	15735.375
1510.38121	16970.075
1513.76081	16875.875
1517.13816	15250.775
1520.51324	13123.975
1523.88607	11367.375
1527.25665	10353.375
1530.62498	9862.175
1533.99105	9632.275
1537.35488	9501.975
1540.71647	9410.875
1544.07581	9309.875
1547.4329	9197.175
1550.78776	9075.075
1554.14038	8980.775
1557.49077	8929.175
1560.83892	9039.475
1564.18484	9277.975
1567.52853	9634.475
1570.86999	9940.775
1574.20922	10073.675
1577.54624	9980.275
1580.88103	9429.375
1584.2136	8745.775
1587.54395	8405.875
1590.87208	8325.375
1594.19801	8477.775
1597.52172	8844.575
1600.84321	8993.375
1604.16251	8883.275
1607.47959	8685.875
1610.79447	8465.275
1614.10715	8177.275
1617.41763	7874.475
1620.7259	7616.275
1624.03199	7457.375
1627.33587	7378.375
1630.63757	7464.375
1633.93707	7679.775
1637.23439	8117.975
1640.52951	8817.875
1643.82246	9814.375
1647.11321	10982.975
1650.40179	11701.875
1653.68819	11325.175
1656.97241	10068.675
1660.25446	8674.475
1663.53433	7673.975
1666.81203	7043.475
1670.08756	6714.875
1673.36092	6539.775
1676.63211	6382.175
1679.90115	6287.775
1683.16801	6208.275
1686.43272	6124.175
1689.69527	6074.775
1692.95567	6029.575
1696.2139	5996.975
1699.46999	5926.975
1702.72392	5947.075
1705.97571	5943.275
1709.22535	5923.375
1712.47284	5966.375
1715.71819	5974.775
1718.96139	5967.975
1722.20246	5952.075
1725.44139	5909.475
1728.67818	5913.775
1731.91284	5864.975
1735.14537	5819.175
1738.37576	5782.475
1741.60403	5771.875
1744.83017	5739.075
1748.05418	5738.175
1751.27607	5752.675
1754.49584	5701.875
1757.71349	5679.675
1760.92903	5696.475
1764.14244	5629.175
1767.35375	5642.175
1770.56294	5614.775
1773.77002	5597.575
1776.97499	5611.775
1780.17785	5593.275
1783.37861	5578.875
1786.57727	5578.275
1789.77382	5528.275
1792.96828	5548.375
1796.16064	5568.975
1799.3509	5549.475
1802.53907	5555.275
1805.72514	5522.275
1808.90913	5491.775
1812.09102	5488.575
1815.27083	5478.675
1818.44856	5472.675
1821.6242	5465.975
1824.79776	5431.475
1827.96924	5439.275
1831.13864	5430.375
1834.30597	5442.975
1837.47122	5417.875
1840.6344	5386.875
1843.7955	5365.675
1846.95454	5358.975
1850.11151	5384.275
1853.26642	5334.575
1856.41926	5361.075
1859.57004	5348.575
1862.71876	5331.475
1865.86542	5344.075
1869.01003	5336.275
1872.15258	5307.275
1875.29308	5327.875
1878.43152	5323.375
1881.56792	5311.275
1884.70227	5280.775
1887.83457	5277.875
1890.96482	5259.875
1894.09304	5274.875
1897.21921	5248.975
1900.34335	5271.875
1903.46544	5255.375
1906.58551	5253.275
1909.70353	5248.775
1912.81953	5227.975
1915.93349	5227.875
1919.04543	5224.275
1922.15534	5204.875
1925.26322	5203.275
1928.36908	5183.175
1931.47292	5186.775
1934.57473	5190.275
1937.67453	5151.875
1940.77232	5136.275
1943.86808	5119.575
1946.96184	5108.675
1950.05358	5092.475
1953.14331	5054.975
1956.23103	5069.875
1959.31675	5048.475
1962.40046	4988.575
1965.48217	5010.075
1968.56188	5007.775
1971.63959	4990.875
1974.7153	4990.775
1977.78901	4971.975
1980.86073	4953.375
1983.93046	4909.375
1986.99819	4843.575
1990.06394	4849.475
1993.1277	4862.175
1996.18947	4845.275
1999.24925	4827.275
2002.30706	4819.075
2005.36288	4802.975
2008.41672	4782.275
2011.46859	4755.675
2014.51848	4745.175
2017.56639	4738.275
2020.61233	4710.175
2023.6563	4717.475
2026.6983	4665.275
2029.73833	4683.575
2032.7764	4669.375
2035.8125	4639.075
2038.84664	4637.075
2041.87881	4619.775
2044.90903	4623.675
2047.93729	4621.275
2050.96359	4592.975
2053.98794	4598.075
2057.01034	4598.475
2060.03078	4590.375
2063.04927	4577.475
2066.06582	4580.575
2069.08042	4552.075
2072.09307	4550.275
2075.10378	4569.675
2078.11255	4553.675
2081.11938	4548.075
2084.12426	4545.775
2087.12722	4550.575
2090.12824	4541.975
2093.12732	4539.775
2096.12447	4553.775
2099.11969	4539.775
2102.11299	4530.675
2105.10435	4552.875
2108.09379	4537.575
2111.08131	4543.675
2114.0669	4549.075
2117.05057	4550.975
2120.03233	4518.875
2123.01216	4549.375
2125.99008	4550.375
2128.96609	4550.275
2131.94018	4559.775
2134.91236	4570.875
2137.88263	4548.275
2140.851	4552.675
2143.81746	4564.575
2146.78201	4549.275
2149.74466	4543.575
2152.7054	4561.375
2155.66425	4541.875
2158.6212	4537.975
2161.57625	4507.475
2164.52941	4488.775
2167.48067	4508.975
2170.43004	4492.575
2173.37752	4515.075
2176.32311	4525.875
2179.26681	4513.575
2182.20863	4516.675
2185.14856	4514.675
2188.08661	4510.175
2191.02278	4520.175
2193.95707	4492.775
2196.88948	4464.475
2199.82001	4495.475
2202.74867	4477.075
2205.67545	4481.275
2208.60037	4484.675
2211.52341	4451.075
2214.44458	4440.675
2217.36388	4435.875
2220.28132	4419.875
2223.1969	4405.775
2226.11061	4391.175
2229.02246	4402.875
2231.93245	4383.075
2234.84058	4376.775
2237.74686	4357.175
2240.65128	4345.375
2243.55385	4349.975
2246.45456	4333.275
2249.35343	4348.675
2252.25044	4326.075
2255.14561	4344.075
2258.03893	4317.475
2260.93041	4312.175
2263.82004	4316.375
2266.70783	4313.275
2269.59378	4287.575
2272.4779	4270.675
2275.36017	4267.275
2278.24061	4256.875
2281.11922	4220.875
2283.996	4246.875
2286.87094	4217.475
2289.74405	4231.175
2292.61534	4230.075
2295.4848	4204.575
2298.35243	4187.875
2301.21824	4194.975
2304.08223	4187.075
2306.94439	4185.175
2309.80474	4178.675
2312.66327	4184.675
2315.51999	4163.075
2318.37489	4181.475
2321.22797	4143.275
2324.07925	4119.575
2326.92871	4118.275
2329.77637	4105.875
2332.62222	4100.875
2335.46626	4088.675
2338.3085	4083.475
2341.14893	4108.675
2343.98756	4117.875
2346.8244	4091.075
2349.65943	4053.975
2352.49267	4079.175
2355.32411	4082.275
2358.15376	4065.175
2360.98161	4078.675
2363.80768	4060.875
2366.63195	4067.875
2369.45444	4071.875
2372.27514	4062.175
2375.09405	4068.375
2377.91118	4036.075
2380.72652	4038.075
2383.54009	4021.075
2386.35187	4026.275
2389.16188	3989.675
2391.97011	4015.575
2394.77657	3980.775
2397.58125	3977.675
2400.38416	3978.375
2403.18529	3948.275
2405.98466	3947.975
2408.78226	3955.975
2411.57809	3933.975
2414.37216	3918.775
2417.16446	3920.175
2419.955	3902.575
2422.74378	3926.975
2425.5308	3897.875
2428.31606	3900.475
2431.09956	3902.675
2433.88131	3873.975
2436.6613	3886.675
2439.43954	3877.375
2442.21603	3872.275
2444.99077	3860.375
2447.76377	3877.975
2450.53501	3849.375
2453.30451	3853.375
2456.07226	3863.075
2458.83827	3852.275
2461.60254	3820.175
2464.36507	3837.275
2467.12586	3824.075
2469.88492	3830.275
2472.64224	3836.175
2475.39782	3813.475
2478.15167	3818.975
2480.90379	3809.775
2483.65417	3827.875
2486.40283	3825.575
2489.14976	3839.675
2491.89497	3814.875
2494.63845	3820.975
2497.3802	3816.175
2500.12024	3807.075
2502.85855	3791.275
2505.59514	3805.875
2508.33002	3790.075
2511.06318	3759.275
2513.79462	3757.275
2516.52435	3724.575
2519.25237	3710.275
2521.97867	3690.675
2524.70327	3721.875
2527.42616	3713.175
2530.14734	3718.575
2532.86681	3681.375
2535.58458	3700.075
2538.30065	3689.275
2541.01501	3697.375
2543.72768	3675.075
2546.43864	3673.975
2549.14791	3672.575
2551.85548	3657.775
2554.56136	3653.275
2557.26554	3656.575
2559.96803	3653.575
2562.66883	3638.675
2565.36794	3616.475
2568.06536	3591.075
2570.7611	3623.775
2573.45514	3604.875
2576.14751	3591.575
2578.83819	3565.475
2581.52719	3569.275
2584.21451	3575.675
2586.90015	3547.275
2589.58411	3533.975
2592.2664	3530.475
2594.94701	3531.275
2597.62594	3542.575
2600.30321	3471.475
2602.9788	3496.075
2605.65273	3492.875
2608.32498	3497.075
2610.99557	3507.875
2613.66449	3470.775
2616.33175	3491.575
2618.99734	3491.875
2621.66128	3484.075
2624.32355	3464.575
2626.98416	3447.375
2629.64311	3435.975
2632.30041	3438.975
2634.95605	3415.675
2637.61004	3414.275
2640.26238	3404.775
2642.91306	3400.875
2645.56209	3421.875
2648.20948	3412.075
2650.85521	3393.975
2653.4993	3413.675
2656.14175	3387.475
2658.78255	3387.475
2661.42171	3360.775
2664.05923	3405.075
2666.6951	3412.675
2669.32934	3406.275
2671.96194	3401.575
2674.59291	3411.875
2677.22224	3411.775
2679.84993	3409.575
2682.476	3377.075
2685.10043	3386.775
2687.72324	3368.475
2690.34441	3385.275
2692.96396	3382.175
2695.58188	3401.075
2698.19818	3374.375
2700.81285	3366.075
2703.4259	3357.675
2706.03733	3324.675
2708.64714	3337.975
2711.25533	3359.975
2713.86191	3366.275
2716.46687	3358.775
2719.07021	3358.275
2721.67194	3356.175
2724.27206	3379.475
2726.87057	3357.875
2729.46747	3349.175
2732.06276	3343.575
2734.65644	3327.175
2737.24852	3330.975
2739.83899	3318.575
2742.42786	3324.775
2745.01513	3324.475
2747.60079	3299.175
2750.18486	3291.575
2752.76733	3289.575
2755.3482	3288.875
2757.92747	3297.975
2760.50515	3269.275
2763.08123	3267.075
2765.65573	3260.375
2768.22863	3247.775
2770.79994	3250.075
2773.36967	3252.775
2775.9378	3239.375
2778.50435	3238.575
2781.06932	3222.275
2783.6327	3217.175
2786.1945	3230.475
2788.75471	3207.875
2791.31335	3205.775
2793.87041	3213.175
2796.42589	3182.475
2798.97979	3181.675
2801.53212	3168.375
2804.08288	3189.475
2806.63206	3166.075
2809.17967	3150.575
2811.72571	3169.375
2814.27018	3143.575
2816.81308	3143.975
2819.35442	3117.875
2821.89419	3128.275
2824.43239	3118.675
2826.96904	3135.475
2829.50412	3122.875
2832.03763	3128.575
2834.56959	3119.875
2837.1	3104.275
2839.62884	3097.975
2842.15613	3093.575
2844.68186	3106.975
2847.20604	3074.775
2849.72867	3072.275
2852.24974	3081.675
2854.76927	3035.075
2857.28724	3013.775
2859.80367	3072.175
2862.31855	3070.475
2864.83189	3060.375
2867.34368	3065.375
2869.85393	3078.475
2872.36264	3035.775
2874.8698	3034.475
2877.37543	3047.875
2879.87952	3040.475
2882.38207	3022.075
2884.88308	3028.075
2887.38256	3031.975
2889.88051	3026.875
2892.37692	3019.375
2894.8718	2991.475
2897.36515	3017.875
2899.85698	3013.575
2902.34727	3009.475
2904.83604	3032.275
2907.32328	3027.075
2909.809	3012.475
2912.29319	3028.975
2914.77587	3036.975
2917.25702	3040.575
2919.73665	3051.375
2922.21476	3065.175
2924.69136	3049.775
2927.16644	3026.475
2929.64	3031.475
2932.11205	3013.875
2934.58258	3007.175
2937.05161	2996.975
2939.51912	2995.175
2941.98513	3018.375
2944.44962	2982.675
2946.91261	2964.675
2949.37409	2960.575
2951.83407	2976.275
2954.29254	2963.975
2956.74951	2956.775
2959.20498	2943.075
2961.65895	2947.175
2964.11142	2947.075
2966.56239	2952.575
2969.01186	2944.375
2971.45984	2933.375
2973.90632	2916.975
2976.35131	2921.675
2978.7948	2927.975
2981.23681	2912.575
2983.67732	2912.075
2986.11635	2899.175
2988.55388	2871.675
2990.98993	2878.775
2993.4245	2864.875
2995.85758	2865.875
2998.28917	2853.575
3000.71928	2834.475
3003.14791	2839.675
3005.57506	2822.375
3008.00073	2814.175
3010.42493	2752.975
3012.84764	2810.475
3015.26888	2813.475
3017.68865	2794.475
3020.10694	2745.575
3022.52376	2773.675
3024.9391	2747.575
3027.35298	2757.775
3029.76539	2734.675
3032.17632	2744.975
3034.5858	2728.075
3036.9938	2741.075
3039.40034	2732.575
3041.80542	2715.875
3044.20903	2712.875
3046.61118	2702.475
3049.01187	2706.575
3051.4111	2690.275
3053.80888	2679.175
3056.20519	2670.375
3058.60005	2645.975
3060.99345	2691.275
3063.3854	2656.275
3065.7759	2642.975
3068.16494	2620.875
3070.55254	2627.975
3072.93868	2644.175
3075.32338	2624.975
3077.70662	2618.575
3080.08842	2596.875
3082.46878	2585.475
3084.84769	2613.075
3087.22515	2592.375
3089.60118	2604.275
3091.97576	2590.375
3094.3489	2594.075
3096.72061	2581.375
3099.09087	2570.275
3101.4597	2586.675
3103.82709	2581.175
3106.19305	2563.875
3108.55757	2571.075
3110.92066	2552.175
3113.28232	2561.675
3115.64255	2560.275
3118.00134	2544.775
3120.35871	2528.075
3122.71466	2515.675
3125.06917	2521.275
3127.42226	2516.175
3129.77393	2493.475
3132.12417	2506.575
3134.47299	2514.775
3136.82039	2493.675
3139.16636	2464.075
3141.51092	2493.175
3143.85406	2492.375
3146.19579	2467.475
3148.53609	2471.675
3150.87499	2477.575
3153.21246	2458.575
3155.54853	2475.875
3157.88318	2469.575
3160.21642	2493.975
3162.54826	2471.975
3164.87868	2466.775
3167.2077	2438.275
3169.5353	2457.175
3171.86151	2469.275
3174.18631	2452.175
3176.5097	2438.875
3178.83169	2433.675
3181.15228	2446.475
3183.47147	2415.875
3185.78926	2402.475
3188.10565	2416.475
3190.42065	2384.775
3192.73424	2411.475
3195.04645	2396.575
3197.35725	2376.675
3199.66667	2384.675
3201.97469	2388.175
3204.28132	2369.375
3206.58656	2384.375
3208.8904	2404.975
3211.19287	2388.375
3213.49394	2374.275
3215.79363	2359.175
3218.09193	2387.075
3220.38884	2362.475
3222.68438	2367.275
3224.97853	2339.375
3227.2713	2364.875
3229.56269	2352.275
3231.8527	2348.575
