Data from AgNPs_UA_10uM_CRN_500uM_SU_RamanShift__28__13-10-00-259.txt Node

Date: Thu Aug 04 13:10:00 BST 2022
User: TCL
Spectrometer: QEP01345
Trigger mode: 4
Integration Time (sec): 1.000000E0
Scans to average: 10
Electric dark correction enabled: true
Nonlinearity correction enabled: false
Boxcar width: 0
XAxis mode: Raman Shifts
Number of Pixels in Spectrum: 1044
>>>>>Begin Spectral Data<<<<<
46.04893	-0.1875
50.45542	-0.0875
54.85868	1.2125
59.25871	-0.3875
63.6555	15.0125
68.04907	17.8125
72.43941	17.1125
76.82654	16.2125
81.21044	17.9125
85.59113	20.7125
89.96862	22.5125
94.34289	21.7125
98.71396	22.9125
103.08183	23.7125
107.4465	23.4125
111.80798	22.4125
116.16626	25.5125
120.52136	28.4125
124.87327	28.8125
129.222	28.3125
133.56755	28.2125
137.90993	33.1125
142.24913	35.9125
146.58517	41.3125
150.91804	49.3125
155.24774	61.0125
159.57429	74.7125
163.89768	98.5125
168.21792	130.9125
172.53501	181.6125
176.84895	257.6125
181.15975	363.0125
185.46741	515.1125
189.77193	715.0125
194.07331	956.5125
198.37157	1251.6125
202.6667	1544.2125
206.9587	1844.0125
211.24758	2144.2125
215.53334	2450.9125
219.81599	2805.6125
224.09553	3168.3125
228.37195	3561.4125
232.64527	3997.5125
236.91549	4420.2125
241.18261	4821.3125
245.44663	5120.8125
249.70755	5352.3125
253.96539	5555.6125
258.22014	5709.5125
262.4718	5854.8125
266.72039	5928.6125
270.96589	5948.4125
275.20832	5891.9125
279.44768	5807.2125
283.68397	5720.9125
287.91719	5667.9125
292.14735	5660.6125
296.37445	5762.0125
300.59849	5942.1125
304.81948	6185.2125
309.03742	6385.0125
313.25231	6533.6125
317.46415	6482.6125
321.67296	6254.1125
325.87872	5995.3125
330.08145	5848.1125
334.28114	5817.3125
338.47781	5886.6125
342.67145	6001.9125
346.86207	6194.9125
351.04966	6449.2125
355.23424	6723.5125
359.4158	6903.1125
363.59435	6945.9125
367.76989	6953.0125
371.94243	6900.9125
376.11196	6856.3125
380.27849	6852.4125
384.44203	6874.7125
388.60257	6897.4125
392.76012	6958.7125
396.91468	7055.9125
401.06626	7157.4125
405.21485	7233.7125
409.36047	7133.4125
413.50311	6906.2125
417.64277	6711.4125
421.77947	6567.8125
425.9132	6512.4125
430.04396	6476.5125
434.17176	6503.9125
438.2966	6573.8125
442.41849	6659.1125
446.53742	6796.8125
450.6534	6912.8125
454.76644	7009.5125
458.87653	7052.2125
462.98368	7063.0125
467.08789	7028.1125
471.18916	6931.4125
475.2875	6794.4125
479.38291	6654.4125
483.4754	6592.3125
487.56496	6527.7125
491.6516	6509.6125
495.73531	6523.2125
499.81612	6565.4125
503.89401	6643.5125
507.96899	6688.6125
512.04106	6724.5125
516.11023	6775.1125
520.1765	6811.5125
524.23987	6802.6125
528.30034	6799.8125
532.35792	6778.2125
536.41261	6721.2125
540.46441	6642.1125
544.51333	6615.8125
548.55936	6660.9125
552.60252	6742.1125
556.64279	6847.0125
560.6802	6957.6125
564.71473	7048.9125
568.7464	7131.8125
572.7752	7087.0125
576.80114	6887.0125
580.82422	6724.7125
584.84444	6683.3125
588.86181	6652.0125
592.87633	6666.8125
596.888	6788.1125
600.89682	7130.7125
604.9028	7939.7125
608.90594	9613.6125
612.90624	11284.2125
616.90371	10457.8125
620.89834	8123.7125
624.89015	7187.4125
628.87913	7091.6125
632.86528	7249.8125
636.84862	7364.3125
640.82913	7210.1125
644.80683	6937.7125
648.78172	6789.0125
652.75379	6788.0125
656.72306	6964.9125
660.68952	7194.3125
664.65319	7148.5125
668.61405	7046.0125
672.57211	7122.8125
676.52738	7109.4125
680.47986	6936.8125
684.42955	6788.0125
688.37646	6742.2125
692.32058	6787.0125
696.26192	6915.4125
700.20048	7033.2125
704.13626	7083.3125
708.06928	7005.6125
711.99952	6912.4125
715.927	6911.7125
719.85171	6949.2125
723.77365	6961.6125
727.69284	6904.3125
731.60928	6862.7125
735.52295	6856.6125
739.43388	6884.4125
743.34206	6925.0125
747.24749	6912.4125
751.15017	6910.0125
755.05012	6971.2125
758.94733	7245.2125
762.8418	7891.7125
766.73354	8840.5125
770.62254	9526.7125
774.50882	9650.9125
778.39237	9379.4125
782.27321	8792.1125
786.15132	8064.6125
790.02671	7493.2125
793.89938	7187.2125
797.76935	7047.4125
801.6366	6962.6125
805.50115	6900.1125
809.36299	6885.0125
813.22213	6882.5125
817.07857	6894.7125
820.93231	6873.4125
824.78336	6877.9125
828.63172	6914.7125
832.47738	6920.7125
836.32036	6877.0125
840.16066	6873.2125
843.99827	6880.2125
847.8332	6887.5125
851.66546	6884.7125
855.49504	6895.5125
859.32195	6904.5125
863.1462	6905.0125
866.96777	6883.4125
870.78668	6900.6125
874.60293	6926.8125
878.41652	6943.2125
882.22745	7024.8125
886.03573	7049.1125
889.84136	7068.1125
893.64433	7011.9125
897.44466	6991.0125
901.24235	6996.2125
905.0374	6968.3125
908.8298	6970.6125
912.61957	6950.4125
916.40671	6964.6125
920.19121	6952.7125
923.97308	6974.8125
927.75233	7060.7125
931.52895	7119.5125
935.30295	7075.5125
939.07433	6958.8125
942.84309	6887.1125
946.60924	6868.1125
950.37278	6835.7125
954.13371	6829.6125
957.89203	6848.9125
961.64774	6840.1125
965.40086	6827.5125
969.15137	6835.4125
972.89929	6822.7125
976.64461	6807.7125
980.38733	6822.1125
984.12747	6846.8125
987.86502	6856.3125
991.59999	6888.8125
995.33237	6920.4125
999.06217	6975.0125
1002.78939	7055.7125
1006.51404	7199.1125
1010.23611	7277.2125
1013.95561	7370.8125
1017.67255	7349.6125
1021.38692	7351.6125
1025.09872	7316.1125
1028.80796	7224.4125
1032.51465	7223.2125
1036.21877	7199.6125
1039.92035	7244.4125
1043.61937	7305.9125
1047.31584	7298.1125
1051.00976	7356.9125
1054.70114	7353.4125
1058.38998	7389.2125
1062.07627	7415.2125
1065.76003	7480.4125
1069.44126	7516.2125
1073.11995	7683.0125
1076.79611	7841.6125
1080.46974	7950.4125
1084.14085	8032.2125
1087.80943	8114.6125
1091.47549	8150.7125
1095.13903	8170.2125
1098.80005	8206.3125
1102.45857	8290.8125
1106.11456	8247.7125
1109.76805	8133.0125
1113.41903	8065.9125
1117.06751	8191.1125
1120.71348	8328.2125
1124.35696	8483.3125
1127.99793	8613.1125
1131.63641	8462.8125
1135.2724	8187.9125
1138.90589	7952.3125
1142.5369	7858.4125
1146.16542	7788.0125
1149.79145	7711.3125
1153.415	7652.9125
1157.03607	7610.9125
1160.65467	7700.1125
1164.27079	7848.0125
1167.88443	8085.9125
1171.49561	8420.6125
1175.10432	8951.6125
1178.71056	9674.2125
1182.31434	10241.8125
1185.91565	10452.6125
1189.51451	10436.2125
1193.11091	10312.0125
1196.70485	10161.5125
1200.29634	9990.7125
1203.88538	9747.8125
1207.47197	9400.4125
1211.05612	9030.1125
1214.63782	8647.2125
1218.21708	8408.9125
1221.79391	8235.0125
1225.36829	8166.6125
1228.94024	8144.1125
1232.50976	8156.8125
1236.07685	8198.2125
1239.6415	8237.6125
1243.20374	8279.1125
1246.76355	8345.1125
1250.32093	8380.1125
1253.8759	8487.9125
1257.42845	8684.5125
1260.97859	8909.5125
1264.52631	9122.8125
1268.07163	9294.8125
1271.61453	9382.0125
1275.15503	9400.3125
1278.69312	9340.0125
1282.22882	9345.9125
1285.76211	9453.7125
1289.29301	9613.8125
1292.82151	9792.3125
1296.34761	9951.1125
1299.87133	10232.6125
1303.39266	10766.6125
1306.9116	11540.9125
1310.42815	12411.3125
1313.94233	12708.2125
1317.45412	12251.1125
1320.96354	11555.0125
1324.47058	10890.5125
1327.97525	10368.5125
1331.47754	10040.9125
1334.97747	9949.9125
1338.47502	10062.9125
1341.97022	10414.1125
1345.46305	11082.5125
1348.95352	12031.0125
1352.44163	13108.4125
1355.92738	14136.1125
1359.41078	15232.9125
1362.89183	16022.2125
1366.37053	15265.1125
1369.84688	13159.8125
1373.32088	11215.3125
1376.79254	10149.4125
1380.26186	9607.9125
1383.72883	9301.9125
1387.19347	8975.0125
1390.65578	8668.9125
1394.11575	8435.7125
1397.57339	8244.1125
1401.0287	8187.5125
1404.48168	8164.2125
1407.93234	8214.6125
1411.38068	8341.2125
1414.82669	8441.1125
1418.27039	8494.5125
1421.71177	8469.2125
1425.15083	8390.8125
1428.58758	8284.3125
1432.02203	8269.5125
1435.45416	8293.0125
1438.88399	8277.9125
1442.31151	8246.1125
1445.73673	8273.9125
1449.15965	8307.3125
1452.58027	8292.4125
1455.9986	8293.8125
1459.41463	8287.8125
1462.82837	8383.4125
1466.23982	8510.8125
1469.64898	8711.9125
1473.05586	8832.3125
1476.46045	8978.9125
1479.86276	9057.3125
1483.26279	9182.2125
1486.66054	9371.1125
1490.05602	9639.1125
1493.44922	10074.0125
1496.84016	10761.6125
1500.22882	11726.2125
1503.61521	12941.8125
1506.99934	14059.2125
1510.38121	14770.1125
1513.76081	14576.1125
1517.13816	13480.3125
1520.51324	12065.7125
1523.88607	10865.1125
1527.25665	10160.7125
1530.62498	9812.7125
1533.99105	9667.1125
1537.35488	9567.5125
1540.71647	9476.0125
1544.07581	9374.3125
1547.4329	9261.3125
1550.78776	9146.2125
1554.14038	9090.5125
1557.49077	9025.7125
1560.83892	9114.9125
1564.18484	9339.9125
1567.52853	9569.2125
1570.86999	9759.8125
1574.20922	9854.9125
1577.54624	9751.2125
1580.88103	9369.0125
1584.2136	8877.7125
1587.54395	8621.2125
1590.87208	8578.5125
1594.19801	8753.6125
1597.52172	9042.4125
1600.84321	9153.8125
1604.16251	9076.0125
1607.47959	8951.8125
1610.79447	8739.0125
1614.10715	8451.9125
1617.41763	8120.6125
1620.7259	7855.0125
1624.03199	7714.4125
1627.33587	7664.6125
1630.63757	7731.9125
1633.93707	7895.5125
1637.23439	8262.4125
1640.52951	8891.2125
1643.82246	9783.5125
1647.11321	10733.4125
1650.40179	11266.8125
1653.68819	10890.5125
1656.97241	9761.2125
1660.25446	8620.8125
1663.53433	7831.7125
1666.81203	7339.2125
1670.08756	7046.8125
1673.36092	6876.2125
1676.63211	6788.9125
1679.90115	6696.7125
1683.16801	6611.8125
1686.43272	6558.0125
1689.69527	6535.6125
1692.95567	6493.9125
1696.2139	6462.2125
1699.46999	6447.4125
1702.72392	6444.6125
1705.97571	6421.7125
1709.22535	6418.3125
1712.47284	6433.2125
1715.71819	6424.7125
1718.96139	6420.2125
1722.20246	6404.7125
1725.44139	6383.5125
1728.67818	6356.8125
1731.91284	6311.3125
1735.14537	6289.3125
1738.37576	6257.7125
1741.60403	6238.7125
1744.83017	6208.7125
1748.05418	6206.6125
1751.27607	6194.1125
1754.49584	6161.9125
1757.71349	6168.6125
1760.92903	6145.5125
1764.14244	6141.5125
1767.35375	6120.3125
1770.56294	6119.0125
1773.77002	6100.2125
1776.97499	6081.4125
1780.17785	6052.4125
1783.37861	6034.3125
1786.57727	6019.3125
1789.77382	6032.8125
1792.96828	6016.3125
1796.16064	6012.5125
1799.3509	5989.6125
1802.53907	5983.6125
1805.72514	5965.0125
1808.90913	5954.6125
1812.09102	5950.3125
1815.27083	5912.3125
1818.44856	5898.8125
1821.6242	5893.5125
1824.79776	5886.8125
1827.96924	5881.6125
1831.13864	5851.4125
1834.30597	5857.9125
1837.47122	5834.7125
1840.6344	5820.7125
1843.7955	5820.0125
1846.95454	5807.5125
1850.11151	5801.1125
1853.26642	5811.8125
1856.41926	5806.5125
1859.57004	5806.9125
1862.71876	5798.8125
1865.86542	5791.7125
1869.01003	5791.3125
1872.15258	5777.7125
1875.29308	5741.4125
1878.43152	5761.0125
1881.56792	5772.8125
1884.70227	5733.0125
1887.83457	5731.7125
1890.96482	5701.3125
1894.09304	5690.5125
1897.21921	5691.4125
1900.34335	5673.3125
1903.46544	5660.7125
1906.58551	5662.7125
1909.70353	5667.8125
1912.81953	5646.4125
1915.93349	5645.0125
1919.04543	5618.2125
1922.15534	5608.9125
1925.26322	5612.4125
1928.36908	5587.5125
1931.47292	5576.3125
1934.57473	5555.7125
1937.67453	5559.4125
1940.77232	5545.8125
1943.86808	5514.0125
1946.96184	5486.2125
1950.05358	5490.3125
1953.14331	5476.2125
1956.23103	5452.3125
1959.31675	5438.7125
1962.40046	5419.3125
1965.48217	5389.2125
1968.56188	5397.9125
1971.63959	5382.6125
1974.7153	5349.9125
1977.78901	5358.0125
1980.86073	5341.2125
1983.93046	5299.7125
1986.99819	5276.4125
1990.06394	5269.4125
1993.1277	5268.6125
1996.18947	5232.0125
1999.24925	5216.5125
2002.30706	5176.1125
2005.36288	5160.0125
2008.41672	5144.8125
2011.46859	5135.1125
2014.51848	5134.4125
2017.56639	5090.3125
2020.61233	5087.7125
2023.6563	5077.1125
2026.6983	5059.3125
2029.73833	5042.7125
2032.7764	5026.3125
2035.8125	5013.5125
2038.84664	5004.9125
2041.87881	4998.2125
2044.90903	4961.3125
2047.93729	4970.3125
2050.96359	4950.1125
2053.98794	4948.2125
2057.01034	4929.5125
2060.03078	4939.6125
2063.04927	4927.5125
2066.06582	4925.1125
2069.08042	4908.1125
2072.09307	4889.6125
2075.10378	4900.9125
2078.11255	4894.6125
2081.11938	4884.2125
2084.12426	4869.6125
2087.12722	4883.7125
2090.12824	4878.3125
2093.12732	4879.0125
2096.12447	4871.0125
2099.11969	4872.5125
2102.11299	4887.0125
2105.10435	4886.2125
2108.09379	4885.0125
2111.08131	4870.4125
2114.0669	4866.8125
2117.05057	4881.1125
2120.03233	4891.3125
2123.01216	4896.6125
2125.99008	4878.4125
2128.96609	4882.1125
2131.94018	4893.0125
2134.91236	4898.0125
2137.88263	4887.1125
2140.851	4869.1125
2143.81746	4895.6125
2146.78201	4875.3125
2149.74466	4876.3125
2152.7054	4884.6125
2155.66425	4872.3125
2158.6212	4861.1125
2161.57625	4853.6125
2164.52941	4850.6125
2167.48067	4855.0125
2170.43004	4838.1125
2173.37752	4832.4125
2176.32311	4857.5125
2179.26681	4837.7125
2182.20863	4854.1125
2185.14856	4855.1125
2188.08661	4833.6125
2191.02278	4840.4125
2193.95707	4837.4125
2196.88948	4832.3125
2199.82001	4823.6125
2202.74867	4807.1125
2205.67545	4825.8125
2208.60037	4800.5125
2211.52341	4804.8125
2214.44458	4790.8125
2217.36388	4754.3125
2220.28132	4749.1125
2223.1969	4741.7125
2226.11061	4720.2125
2229.02246	4699.8125
2231.93245	4694.4125
2234.84058	4694.9125
2237.74686	4694.3125
2240.65128	4671.2125
2243.55385	4659.2125
2246.45456	4661.3125
2249.35343	4635.6125
2252.25044	4648.6125
2255.14561	4648.6125
2258.03893	4651.4125
2260.93041	4643.3125
2263.82004	4626.2125
2266.70783	4615.2125
2269.59378	4594.2125
2272.4779	4582.5125
2275.36017	4573.9125
2278.24061	4560.3125
2281.11922	4555.1125
2283.996	4526.3125
2286.87094	4530.5125
2289.74405	4534.3125
2292.61534	4512.8125
2295.4848	4501.3125
2298.35243	4489.5125
2301.21824	4491.7125
2304.08223	4480.8125
2306.94439	4480.9125
2309.80474	4473.5125
2312.66327	4463.0125
2315.51999	4458.3125
2318.37489	4465.5125
2321.22797	4444.7125
2324.07925	4431.7125
2326.92871	4429.5125
2329.77637	4434.5125
2332.62222	4419.1125
2335.46626	4402.0125
2338.3085	4370.9125
2341.14893	4391.8125
2343.98756	4377.5125
2346.8244	4373.6125
2349.65943	4365.8125
2352.49267	4369.3125
2355.32411	4360.2125
2358.15376	4354.8125
2360.98161	4362.5125
2363.80768	4371.1125
2366.63195	4349.0125
2369.45444	4354.9125
2372.27514	4352.1125
2375.09405	4353.0125
2377.91118	4320.8125
2380.72652	4315.6125
2383.54009	4314.2125
2386.35187	4303.5125
2389.16188	4280.4125
2391.97011	4258.8125
2394.77657	4248.7125
2397.58125	4247.5125
2400.38416	4231.1125
2403.18529	4243.2125
2405.98466	4232.0125
2408.78226	4216.3125
2411.57809	4219.0125
2414.37216	4207.1125
2417.16446	4196.2125
2419.955	4195.5125
2422.74378	4180.6125
2425.5308	4193.7125
2428.31606	4183.0125
2431.09956	4178.9125
2433.88131	4169.2125
2436.6613	4166.9125
2439.43954	4157.9125
2442.21603	4149.5125
2444.99077	4157.1125
2447.76377	4160.4125
2450.53501	4150.7125
2453.30451	4134.2125
2456.07226	4129.2125
2458.83827	4115.8125
2461.60254	4110.0125
2464.36507	4108.8125
2467.12586	4099.8125
2469.88492	4100.6125
2472.64224	4110.8125
2475.39782	4107.7125
2478.15167	4095.4125
2480.90379	4088.7125
2483.65417	4069.7125
2486.40283	4084.9125
2489.14976	4088.1125
2491.89497	4076.7125
2494.63845	4079.9125
2497.3802	4079.6125
2500.12024	4060.4125
2502.85855	4045.1125
2505.59514	4035.6125
2508.33002	4034.3125
2511.06318	4024.2125
2513.79462	3997.3125
2516.52435	3997.9125
2519.25237	3985.5125
2521.97867	3987.4125
2524.70327	3970.9125
2527.42616	3979.0125
2530.14734	3953.4125
2532.86681	3956.9125
2535.58458	3963.0125
2538.30065	3959.7125
2541.01501	3951.8125
2543.72768	3959.0125
2546.43864	3939.4125
2549.14791	3937.5125
2551.85548	3921.3125
2554.56136	3918.5125
2557.26554	3908.1125
2559.96803	3904.8125
2562.66883	3883.9125
2565.36794	3880.7125
2568.06536	3863.0125
2570.7611	3857.8125
2573.45514	3841.5125
2576.14751	3841.4125
2578.83819	3838.2125
2581.52719	3826.1125
2584.21451	3816.1125
2586.90015	3814.3125
2589.58411	3804.6125
2592.2664	3793.6125
2594.94701	3795.2125
2597.62594	3785.1125
2600.30321	3769.0125
2602.9788	3765.7125
2605.65273	3746.1125
2608.32498	3749.8125
2610.99557	3751.4125
2613.66449	3739.5125
2616.33175	3731.1125
2618.99734	3729.6125
2621.66128	3726.8125
2624.32355	3710.3125
2626.98416	3705.1125
2629.64311	3690.3125
2632.30041	3694.1125
2634.95605	3679.1125
2637.61004	3658.8125
2640.26238	3658.7125
2642.91306	3651.8125
2645.56209	3662.6125
2648.20948	3635.6125
2650.85521	3657.5125
2653.4993	3645.6125
2656.14175	3631.4125
2658.78255	3630.0125
2661.42171	3626.9125
2664.05923	3641.2125
2666.6951	3636.3125
2669.32934	3644.2125
2671.96194	3639.3125
2674.59291	3648.3125
2677.22224	3650.0125
2679.84993	3649.4125
2682.476	3637.0125
2685.10043	3638.9125
2687.72324	3640.0125
2690.34441	3628.5125
2692.96396	3625.9125
2695.58188	3617.9125
2698.19818	3628.5125
2700.81285	3617.1125
2703.4259	3601.7125
2706.03733	3594.4125
2708.64714	3598.8125
2711.25533	3606.8125
2713.86191	3590.6125
2716.46687	3611.5125
2719.07021	3608.1125
2721.67194	3608.4125
2724.27206	3594.8125
2726.87057	3594.1125
2729.46747	3593.5125
2732.06276	3599.6125
2734.65644	3587.8125
2737.24852	3579.3125
2739.83899	3563.2125
2742.42786	3568.9125
2745.01513	3559.3125
2747.60079	3542.1125
2750.18486	3540.9125
2752.76733	3542.0125
2755.3482	3537.8125
2757.92747	3521.3125
2760.50515	3511.4125
2763.08123	3509.8125
2765.65573	3492.3125
2768.22863	3486.3125
2770.79994	3473.6125
2773.36967	3479.8125
2775.9378	3464.7125
2778.50435	3465.4125
2781.06932	3468.1125
2783.6327	3459.2125
2786.1945	3454.5125
2788.75471	3438.7125
2791.31335	3441.9125
2793.87041	3428.5125
2796.42589	3428.5125
2798.97979	3408.7125
2801.53212	3397.2125
2804.08288	3405.5125
2806.63206	3379.3125
2809.17967	3394.9125
2811.72571	3380.3125
2814.27018	3381.8125
2816.81308	3371.0125
2819.35442	3359.3125
2821.89419	3362.4125
2824.43239	3348.7125
2826.96904	3342.1125
2829.50412	3341.1125
2832.03763	3326.6125
2834.56959	3314.7125
2837.1	3300.5125
2839.62884	3296.7125
2842.15613	3298.2125
2844.68186	3311.5125
2847.20604	3280.0125
2849.72867	3279.2125
2852.24974	3284.2125
2854.76927	3269.3125
2857.28724	3261.5125
2859.80367	3258.2125
2862.31855	3252.3125
2864.83189	3254.9125
2867.34368	3251.7125
2869.85393	3259.3125
2872.36264	3243.6125
2874.8698	3251.4125
2877.37543	3250.6125
2879.87952	3234.3125
2882.38207	3226.5125
2884.88308	3235.3125
2887.38256	3210.5125
2889.88051	3215.5125
2892.37692	3206.9125
2894.8718	3202.8125
2897.36515	3192.1125
2899.85698	3213.1125
2902.34727	3204.3125
2904.83604	3202.5125
2907.32328	3200.8125
2909.809	3198.3125
2912.29319	3213.3125
2914.77587	3225.3125
2917.25702	3224.4125
2919.73665	3235.8125
2922.21476	3217.6125
2924.69136	3220.3125
2927.16644	3206.1125
2929.64	3203.7125
2932.11205	3188.4125
2934.58258	3175.0125
2937.05161	3180.6125
2939.51912	3172.8125
2941.98513	3172.3125
2944.44962	3152.6125
2946.91261	3137.3125
2949.37409	3151.2125
2951.83407	3144.2125
2954.29254	3146.0125
2956.74951	3148.8125
2959.20498	3142.8125
2961.65895	3125.1125
2964.11142	3133.1125
2966.56239	3134.4125
2969.01186	3124.3125
2971.45984	3130.9125
2973.90632	3110.2125
2976.35131	3109.4125
2978.7948	3104.0125
2981.23681	3101.3125
2983.67732	3095.0125
2986.11635	3099.8125
2988.55388	3071.6125
2990.98993	3077.1125
2993.4245	3070.2125
2995.85758	3044.7125
2998.28917	3042.6125
3000.71928	3033.5125
3003.14791	3020.1125
3005.57506	3021.4125
3008.00073	3002.5125
3010.42493	3001.1125
3012.84764	2997.5125
3015.26888	2998.0125
3017.68865	2985.8125
3020.10694	2979.4125
3022.52376	2965.9125
3024.9391	2955.2125
3027.35298	2934.5125
3029.76539	2945.3125
3032.17632	2931.6125
3034.5858	2938.4125
3036.9938	2918.4125
3039.40034	2911.3125
3041.80542	2906.7125
3044.20903	2893.8125
3046.61118	2901.2125
3049.01187	2896.1125
3051.4111	2887.4125
3053.80888	2874.2125
3056.20519	2869.0125
3058.60005	2851.0125
3060.99345	2854.7125
3063.3854	2848.5125
3065.7759	2847.4125
3068.16494	2840.1125
3070.55254	2818.2125
3072.93868	2808.5125
3075.32338	2809.6125
3077.70662	2797.3125
3080.08842	2803.6125
3082.46878	2794.9125
3084.84769	2784.9125
3087.22515	2758.6125
3089.60118	2761.1125
3091.97576	2769.0125
3094.3489	2764.8125
3096.72061	2756.6125
3099.09087	2763.2125
3101.4597	2755.4125
3103.82709	2756.7125
3106.19305	2747.7125
3108.55757	2751.5125
3110.92066	2735.3125
3113.28232	2739.0125
3115.64255	2717.5125
3118.00134	2719.0125
3120.35871	2717.0125
3122.71466	2695.6125
3125.06917	2701.9125
