Data from AgNPs_UA_5uM_CRN_500uM_SU_RamanShift__151__11-54-33-169.txt Node

Date: Thu Aug 04 11:54:33 BST 2022
User: TCL
Spectrometer: QEP01345
Trigger mode: 4
Integration Time (sec): 1.000000E0
Scans to average: 10
Electric dark correction enabled: true
Nonlinearity correction enabled: false
Boxcar width: 0
XAxis mode: Raman Shifts
Number of Pixels in Spectrum: 1044
>>>>>Begin Spectral Data<<<<<
46.04893	-0.7625
50.45542	1.6375
54.85868	0.3375
59.25871	-0.9625
63.6555	-57.1625
68.04907	-38.8625
72.43941	-69.6625
76.82654	-56.6625
81.21044	-56.4625
85.59113	-48.4625
89.96862	-74.7625
94.34289	-54.2625
98.71396	-79.3625
103.08183	-58.2625
107.4465	-50.4625
111.80798	-57.0625
116.16626	-44.4625
120.52136	-74.0625
124.87327	-49.2625
129.222	-62.3625
133.56755	-50.9625
137.90993	-63.0625
142.24913	-51.7625
146.58517	-41.7625
150.91804	-38.6625
155.24774	-28.3625
159.57429	-8.6625
163.89768	-4.3625
168.21792	40.9375
172.53501	62.6375
176.84895	145.3375
181.15975	279.9375
185.46741	433.9375
189.77193	617.6375
194.07331	919.2375
198.37157	1194.3375
202.6667	1496.6375
206.9587	1839.5375
211.24758	2152.7375
215.53334	2474.5375
219.81599	2837.7375
224.09553	3247.4375
228.37195	3701.1375
232.64527	4168.0375
236.91549	4652.6375
241.18261	5006.2375
245.44663	5315.3375
249.70755	5516.4375
253.96539	5656.4375
258.22014	5754.3375
262.4718	5843.6375
266.72039	5846.0375
270.96589	5811.3375
275.20832	5720.0375
279.44768	5596.3375
283.68397	5484.3375
287.91719	5420.1375
292.14735	5453.6375
296.37445	5591.7375
300.59849	5883.4375
304.81948	6208.6375
309.03742	6566.2375
313.25231	6785.9375
317.46415	6727.3375
321.67296	6355.2375
325.87872	5975.8375
330.08145	5779.3375
334.28114	5743.5375
338.47781	5797.0375
342.67145	5950.0375
346.86207	6190.0375
351.04966	6557.3375
355.23424	6953.2375
359.4158	7215.0375
363.59435	7246.1375
367.76989	7181.2375
371.94243	7066.0375
376.11196	6950.3375
380.27849	6880.5375
384.44203	6803.0375
388.60257	6789.8375
392.76012	6777.4375
396.91468	6906.6375
401.06626	7068.6375
405.21485	7099.3375
409.36047	6950.3375
413.50311	6651.0375
417.64277	6343.7375
421.77947	6161.9375
425.9132	6076.4375
430.04396	6080.7375
434.17176	6130.4375
438.2966	6232.9375
442.41849	6312.8375
446.53742	6439.0375
450.6534	6545.3375
454.76644	6613.8375
458.87653	6605.9375
462.98368	6607.5375
467.08789	6521.9375
471.18916	6462.1375
475.2875	6363.1375
479.38291	6266.1375
483.4754	6173.9375
487.56496	6106.3375
491.6516	6079.7375
495.73531	6083.5375
499.81612	6088.9375
503.89401	6185.1375
507.96899	6234.0375
512.04106	6329.9375
516.11023	6442.5375
520.1765	6516.4375
524.23987	6554.7375
528.30034	6549.4375
532.35792	6465.2375
536.41261	6430.8375
540.46441	6321.3375
544.51333	6286.6375
548.55936	6338.3375
552.60252	6447.5375
556.64279	6544.9375
560.6802	6682.5375
564.71473	6811.6375
568.7464	6999.1375
572.7752	6973.7375
576.80114	6629.7375
580.82422	6403.9375
584.84444	6308.2375
588.86181	6279.9375
592.87633	6331.0375
596.888	6444.0375
600.89682	6819.9375
604.9028	7729.1375
608.90594	9776.4375
612.90624	12051.1375
616.90371	11214.0375
620.89834	8246.5375
624.89015	6973.0375
628.87913	6761.9375
632.86528	6947.2375
636.84862	7094.5375
640.82913	6946.8375
644.80683	6618.0375
648.78172	6460.3375
652.75379	6475.7375
656.72306	6723.7375
660.68952	6937.1375
664.65319	6860.5375
668.61405	6653.2375
672.57211	6600.4375
676.52738	6597.7375
680.47986	6484.4375
684.42955	6403.1375
688.37646	6366.9375
692.32058	6361.9375
696.26192	6437.9375
700.20048	6521.8375
704.13626	6568.9375
708.06928	6529.3375
711.99952	6493.9375
715.927	6457.0375
719.85171	6492.4375
723.77365	6574.6375
727.69284	6547.9375
731.60928	6510.3375
735.52295	6495.4375
739.43388	6538.5375
743.34206	6558.5375
747.24749	6582.9375
751.15017	6580.0375
755.05012	6645.6375
758.94733	7013.4375
762.8418	7850.6375
766.73354	9078.1375
770.62254	10017.4375
774.50882	10121.9375
778.39237	9658.3375
782.27321	8775.7375
786.15132	7763.7375
790.02671	7100.6375
793.89938	6748.3375
797.76935	6650.6375
801.6366	6563.1375
805.50115	6504.6375
809.36299	6509.2375
813.22213	6504.9375
817.07857	6491.9375
820.93231	6503.9375
824.78336	6524.0375
828.63172	6554.7375
832.47738	6541.1375
836.32036	6558.8375
840.16066	6522.6375
843.99827	6498.4375
847.8332	6507.4375
851.66546	6531.6375
855.49504	6525.1375
859.32195	6549.5375
863.1462	6562.2375
866.96777	6551.9375
870.78668	6542.5375
874.60293	6560.1375
878.41652	6600.5375
882.22745	6656.9375
886.03573	6683.6375
889.84136	6679.1375
893.64433	6693.5375
897.44466	6666.4375
901.24235	6679.6375
905.0374	6669.1375
908.8298	6618.0375
912.61957	6588.4375
916.40671	6517.9375
920.19121	6572.8375
923.97308	6666.5375
927.75233	6733.2375
931.52895	6788.9375
935.30295	6783.7375
939.07433	6609.2375
942.84309	6521.2375
946.60924	6485.4375
950.37278	6434.9375
954.13371	6459.3375
957.89203	6462.3375
961.64774	6455.4375
965.40086	6451.9375
969.15137	6416.5375
972.89929	6452.9375
976.64461	6459.0375
980.38733	6458.7375
984.12747	6466.4375
987.86502	6473.6375
991.59999	6523.8375
995.33237	6583.8375
999.06217	6640.0375
1002.78939	6743.0375
1006.51404	6880.5375
1010.23611	6985.4375
1013.95561	7067.9375
1017.67255	7037.0375
1021.38692	7030.8375
1025.09872	6942.0375
1028.80796	6867.7375
1032.51465	6881.1375
1036.21877	6858.8375
1039.92035	6904.6375
1043.61937	6950.5375
1047.31584	6980.2375
1051.00976	7008.5375
1054.70114	7024.8375
1058.38998	7017.3375
1062.07627	7022.1375
1065.76003	7071.9375
1069.44126	7139.2375
1073.11995	7228.7375
1076.79611	7362.9375
1080.46974	7478.7375
1084.14085	7663.6375
1087.80943	7756.3375
1091.47549	7816.1375
1095.13903	7718.9375
1098.80005	7632.3375
1102.45857	7533.3375
1106.11456	7495.0375
1109.76805	7433.9375
1113.41903	7525.4375
1117.06751	7701.4375
1120.71348	7930.3375
1124.35696	8298.5375
1127.99793	8565.3375
1131.63641	8436.5375
1135.2724	8044.3375
1138.90589	7748.6375
1142.5369	7572.6375
1146.16542	7497.8375
1149.79145	7373.8375
1153.415	7307.4375
1157.03607	7323.6375
1160.65467	7386.0375
1164.27079	7566.0375
1167.88443	7817.9375
1171.49561	8208.3375
1175.10432	8753.5375
1178.71056	9594.9375
1182.31434	10384.2375
1185.91565	10597.6375
1189.51451	10465.2375
1193.11091	10223.8375
1196.70485	10001.4375
1200.29634	9826.3375
1203.88538	9574.8375
1207.47197	9163.8375
1211.05612	8733.9375
1214.63782	8361.7375
1218.21708	8132.8375
1221.79391	7995.6375
1225.36829	7883.0375
1228.94024	7866.7375
1232.50976	7882.6375
1236.07685	7916.3375
1239.6415	7934.9375
1243.20374	7966.6375
1246.76355	8007.6375
1250.32093	8118.1375
1253.8759	8146.0375
1257.42845	8357.2375
1260.97859	8549.3375
1264.52631	8789.6375
1268.07163	8900.9375
1271.61453	9038.8375
1275.15503	9077.2375
1278.69312	9071.5375
1282.22882	9135.4375
1285.76211	9301.6375
1289.29301	9576.6375
1292.82151	9833.0375
1296.34761	10045.1375
1299.87133	10404.6375
1303.39266	11075.7375
1306.9116	12163.5375
1310.42815	13363.4375
1313.94233	13759.6375
1317.45412	13003.7375
1320.96354	11919.0375
1324.47058	10955.8375
1327.97525	10257.5375
1331.47754	9867.5375
1334.97747	9772.9375
1338.47502	9880.8375
1341.97022	10241.1375
1345.46305	10943.3375
1348.95352	11962.6375
1352.44163	13152.8375
1355.92738	14387.9375
1359.41078	15905.0375
1362.89183	17331.3375
1366.37053	16664.6375
1369.84688	13960.9375
1373.32088	11473.4375
1376.79254	10173.3375
1380.26186	9578.6375
1383.72883	9186.5375
1387.19347	8836.3375
1390.65578	8471.9375
1394.11575	8233.3375
1397.57339	8105.7375
1401.0287	8016.0375
1404.48168	7985.4375
1407.93234	8016.4375
1411.38068	8010.1375
1414.82669	8097.9375
1418.27039	8187.3375
1421.71177	8167.8375
1425.15083	8080.3375
1428.58758	7988.2375
1432.02203	8023.5375
1435.45416	8121.8375
1438.88399	8127.7375
1442.31151	8125.3375
1445.73673	8206.1375
1449.15965	8249.9375
1452.58027	8244.8375
1455.9986	8268.7375
1459.41463	8254.9375
1462.82837	8355.0375
1466.23982	8517.9375
1469.64898	8727.6375
1473.05586	8859.0375
1476.46045	8964.2375
1479.86276	9015.2375
1483.26279	9100.7375
1486.66054	9269.0375
1490.05602	9517.4375
1493.44922	10045.7375
1496.84016	10860.3375
1500.22882	12130.7375
1503.61521	13710.0375
1506.99934	15387.0375
1510.38121	16522.1375
1513.76081	16403.6375
1517.13816	14961.5375
1520.51324	12931.1375
1523.88607	11342.4375
1527.25665	10397.4375
1530.62498	9896.8375
1533.99105	9719.2375
1537.35488	9581.6375
1540.71647	9504.9375
1544.07581	9420.7375
1547.4329	9306.5375
1550.78776	9214.9375
1554.14038	9096.9375
1557.49077	9086.3375
1560.83892	9161.1375
1564.18484	9357.3375
1567.52853	9679.7375
1570.86999	9981.7375
1574.20922	10084.4375
1577.54624	9992.7375
1580.88103	9507.7375
1584.2136	8868.7375
1587.54395	8557.0375
1590.87208	8478.7375
1594.19801	8661.7375
1597.52172	9008.3375
1600.84321	9170.5375
1604.16251	9056.4375
1607.47959	8888.4375
1610.79447	8669.9375
1614.10715	8373.3375
1617.41763	8099.2375
1620.7259	7842.2375
1624.03199	7653.6375
1627.33587	7609.4375
1630.63757	7660.4375
1633.93707	7878.4375
1637.23439	8302.9375
1640.52951	8944.2375
1643.82246	9899.6375
1647.11321	10980.6375
1650.40179	11659.1375
1653.68819	11311.5375
1656.97241	10105.7375
1660.25446	8804.1375
1663.53433	7838.8375
1666.81203	7273.8375
1670.08756	6940.6375
1673.36092	6763.0375
1676.63211	6615.2375
1679.90115	6539.2375
1683.16801	6474.1375
1686.43272	6377.0375
1689.69527	6313.3375
1692.95567	6261.3375
1696.2139	6255.7375
1699.46999	6196.5375
1702.72392	6169.8375
1705.97571	6188.5375
1709.22535	6170.3375
1712.47284	6222.4375
1715.71819	6206.8375
1718.96139	6218.7375
1722.20246	6188.9375
1725.44139	6158.2375
1728.67818	6130.8375
1731.91284	6108.8375
1735.14537	6057.3375
1738.37576	6024.6375
1741.60403	6023.2375
1744.83017	5997.3375
1748.05418	5997.2375
1751.27607	6005.2375
1754.49584	5982.6375
1757.71349	5928.8375
1760.92903	5929.8375
1764.14244	5880.8375
1767.35375	5882.4375
1770.56294	5866.7375
1773.77002	5853.6375
1776.97499	5858.9375
1780.17785	5841.1375
1783.37861	5825.0375
1786.57727	5837.7375
1789.77382	5779.0375
1792.96828	5805.4375
1796.16064	5817.0375
1799.3509	5784.7375
1802.53907	5820.8375
1805.72514	5783.8375
1808.90913	5739.3375
1812.09102	5737.1375
1815.27083	5749.1375
1818.44856	5713.3375
1821.6242	5712.7375
1824.79776	5693.0375
1827.96924	5699.3375
1831.13864	5643.7375
1834.30597	5666.5375
1837.47122	5653.5375
1840.6344	5649.3375
1843.7955	5623.1375
1846.95454	5611.0375
1850.11151	5634.0375
1853.26642	5598.6375
1856.41926	5608.2375
1859.57004	5606.6375
1862.71876	5603.8375
1865.86542	5602.2375
1869.01003	5599.5375
1872.15258	5570.9375
1875.29308	5590.4375
1878.43152	5588.7375
1881.56792	5562.2375
1884.70227	5543.2375
1887.83457	5551.1375
1890.96482	5521.7375
1894.09304	5521.7375
1897.21921	5511.8375
1900.34335	5508.6375
1903.46544	5490.9375
1906.58551	5488.3375
1909.70353	5489.9375
1912.81953	5480.6375
1915.93349	5468.9375
1919.04543	5470.5375
1922.15534	5457.2375
1925.26322	5451.6375
1928.36908	5433.2375
1931.47292	5431.4375
1934.57473	5440.8375
1937.67453	5388.9375
1940.77232	5382.3375
1943.86808	5353.5375
1946.96184	5364.2375
1950.05358	5335.3375
1953.14331	5305.1375
1956.23103	5325.0375
1959.31675	5282.4375
1962.40046	5230.3375
1965.48217	5242.8375
1968.56188	5246.6375
1971.63959	5237.6375
1974.7153	5230.3375
1977.78901	5227.1375
1980.86073	5189.2375
1983.93046	5156.1375
1986.99819	5079.1375
1990.06394	5099.4375
1993.1277	5099.2375
1996.18947	5086.8375
1999.24925	5057.6375
2002.30706	5050.8375
2005.36288	5041.6375
2008.41672	5026.6375
2011.46859	4988.4375
2014.51848	4999.8375
2017.56639	4966.9375
2020.61233	4950.8375
2023.6563	4947.7375
2026.6983	4892.3375
2029.73833	4902.1375
2032.7764	4916.6375
2035.8125	4857.6375
2038.84664	4859.4375
2041.87881	4856.8375
2044.90903	4867.3375
2047.93729	4859.2375
2050.96359	4827.8375
2053.98794	4831.6375
2057.01034	4829.4375
2060.03078	4807.3375
2063.04927	4803.9375
2066.06582	4818.6375
2069.08042	4800.5375
2072.09307	4784.9375
2075.10378	4781.0375
2078.11255	4782.2375
2081.11938	4783.6375
2084.12426	4770.9375
2087.12722	4770.0375
2090.12824	4766.4375
2093.12732	4772.1375
2096.12447	4771.0375
2099.11969	4782.8375
2102.11299	4749.7375
2105.10435	4786.8375
2108.09379	4764.4375
2111.08131	4772.0375
2114.0669	4779.8375
2117.05057	4756.9375
2120.03233	4758.8375
2123.01216	4766.8375
2125.99008	4774.9375
2128.96609	4781.1375
2131.94018	4812.3375
2134.91236	4779.8375
2137.88263	4772.3375
2140.851	4786.6375
2143.81746	4826.6375
2146.78201	4797.3375
2149.74466	4785.7375
2152.7054	4787.1375
2155.66425	4775.4375
2158.6212	4761.9375
2161.57625	4747.6375
2164.52941	4720.9375
2167.48067	4740.1375
2170.43004	4757.7375
2173.37752	4757.4375
2176.32311	4741.5375
2179.26681	4743.3375
2182.20863	4751.5375
2185.14856	4739.4375
2188.08661	4739.9375
2191.02278	4749.3375
2193.95707	4722.5375
2196.88948	4710.6375
2199.82001	4720.1375
2202.74867	4712.7375
2205.67545	4719.4375
2208.60037	4703.1375
2211.52341	4692.0375
2214.44458	4701.5375
2217.36388	4659.8375
2220.28132	4658.1375
2223.1969	4638.4375
2226.11061	4636.7375
2229.02246	4611.0375
2231.93245	4630.3375
2234.84058	4598.6375
2237.74686	4602.5375
2240.65128	4588.2375
2243.55385	4576.9375
2246.45456	4542.4375
2249.35343	4579.8375
2252.25044	4565.4375
2255.14561	4557.6375
2258.03893	4568.6375
2260.93041	4544.1375
2263.82004	4548.9375
2266.70783	4533.0375
2269.59378	4499.1375
2272.4779	4479.4375
2275.36017	4501.0375
2278.24061	4490.0375
2281.11922	4443.1375
2283.996	4453.0375
2286.87094	4448.1375
2289.74405	4448.2375
2292.61534	4435.2375
2295.4848	4431.5375
2298.35243	4415.6375
2301.21824	4404.9375
2304.08223	4393.0375
2306.94439	4421.6375
2309.80474	4421.2375
2312.66327	4407.3375
2315.51999	4383.4375
2318.37489	4377.3375
2321.22797	4350.9375
2324.07925	4372.4375
2326.92871	4347.2375
2329.77637	4328.2375
2332.62222	4330.0375
2335.46626	4311.0375
2338.3085	4302.7375
2341.14893	4305.7375
2343.98756	4330.8375
2346.8244	4294.0375
2349.65943	4284.4375
2352.49267	4297.9375
2355.32411	4300.9375
2358.15376	4288.0375
2360.98161	4293.3375
2363.80768	4273.5375
2366.63195	4276.1375
2369.45444	4279.1375
2372.27514	4280.6375
2375.09405	4295.2375
2377.91118	4259.0375
2380.72652	4242.1375
2383.54009	4241.9375
2386.35187	4249.6375
2389.16188	4216.6375
2391.97011	4226.6375
2394.77657	4186.7375
2397.58125	4205.0375
2400.38416	4211.1375
2403.18529	4183.0375
2405.98466	4149.7375
2408.78226	4173.6375
2411.57809	4151.5375
2414.37216	4147.2375
2417.16446	4149.7375
2419.955	4124.4375
2422.74378	4125.7375
2425.5308	4106.2375
2428.31606	4111.2375
2431.09956	4112.3375
2433.88131	4074.6375
2436.6613	4097.5375
2439.43954	4094.1375
2442.21603	4092.6375
2444.99077	4075.7375
2447.76377	4081.3375
2450.53501	4068.8375
2453.30451	4068.9375
2456.07226	4071.2375
2458.83827	4051.1375
2461.60254	4025.1375
2464.36507	4048.6375
2467.12586	4019.5375
2469.88492	4034.3375
2472.64224	4034.2375
2475.39782	3998.3375
2478.15167	4031.4375
2480.90379	4033.4375
2483.65417	4029.9375
2486.40283	4035.4375
2489.14976	4044.8375
2491.89497	4018.6375
2494.63845	4015.4375
2497.3802	4012.1375
2500.12024	3993.0375
2502.85855	4006.2375
2505.59514	4001.3375
2508.33002	3998.0375
2511.06318	3967.0375
2513.79462	3966.7375
2516.52435	3924.9375
2519.25237	3909.6375
2521.97867	3919.1375
2524.70327	3917.1375
2527.42616	3906.0375
2530.14734	3932.7375
2532.86681	3906.8375
2535.58458	3895.7375
2538.30065	3901.5375
2541.01501	3920.9375
2543.72768	3882.8375
2546.43864	3886.8375
2549.14791	3870.5375
2551.85548	3867.6375
2554.56136	3843.3375
2557.26554	3872.8375
2559.96803	3850.2375
2562.66883	3844.1375
2565.36794	3835.2375
2568.06536	3781.8375
2570.7611	3811.6375
2573.45514	3789.7375
2576.14751	3793.6375
2578.83819	3766.5375
2581.52719	3764.4375
2584.21451	3772.5375
2586.90015	3741.6375
2589.58411	3725.8375
2592.2664	3741.0375
2594.94701	3747.6375
2597.62594	3726.6375
2600.30321	3658.2375
2602.9788	3684.8375
2605.65273	3678.3375
2608.32498	3680.3375
2610.99557	3702.3375
2613.66449	3657.1375
2616.33175	3683.9375
2618.99734	3670.8375
2621.66128	3668.0375
2624.32355	3660.5375
2626.98416	3638.6375
2629.64311	3649.0375
2632.30041	3629.5375
2634.95605	3601.0375
2637.61004	3610.6375
2640.26238	3588.0375
2642.91306	3591.0375
2645.56209	3609.3375
2648.20948	3594.5375
2650.85521	3587.1375
2653.4993	3605.3375
2656.14175	3589.1375
2658.78255	3575.5375
2661.42171	3547.1375
2664.05923	3594.8375
2666.6951	3599.6375
2669.32934	3593.8375
2671.96194	3606.7375
2674.59291	3590.6375
2677.22224	3593.5375
2679.84993	3588.0375
2682.476	3583.3375
2685.10043	3572.6375
2687.72324	3564.1375
2690.34441	3562.7375
2692.96396	3566.6375
2695.58188	3569.2375
2698.19818	3565.6375
2700.81285	3566.1375
2703.4259	3541.0375
2706.03733	3512.9375
2708.64714	3513.5375
2711.25533	3543.7375
2713.86191	3544.8375
2716.46687	3546.5375
2719.07021	3543.8375
2721.67194	3540.9375
2724.27206	3557.5375
2726.87057	3539.0375
2729.46747	3528.6375
2732.06276	3538.8375
2734.65644	3523.2375
2737.24852	3520.3375
2739.83899	3495.7375
2742.42786	3505.7375
2745.01513	3524.2375
2747.60079	3501.9375
2750.18486	3474.6375
2752.76733	3475.8375
2755.3482	3474.2375
2757.92747	3477.4375
2760.50515	3467.6375
2763.08123	3452.0375
2765.65573	3453.4375
2768.22863	3430.0375
2770.79994	3431.6375
2773.36967	3424.4375
2775.9378	3411.9375
2778.50435	3410.6375
2781.06932	3410.9375
2783.6327	3403.0375
2786.1945	3424.7375
2788.75471	3398.8375
2791.31335	3389.2375
2793.87041	3382.9375
2796.42589	3361.2375
2798.97979	3341.4375
2801.53212	3357.6375
2804.08288	3374.1375
2806.63206	3346.8375
2809.17967	3328.3375
2811.72571	3350.4375
2814.27018	3330.0375
2816.81308	3333.9375
2819.35442	3281.5375
2821.89419	3309.5375
2824.43239	3280.7375
2826.96904	3314.9375
2829.50412	3289.9375
2832.03763	3292.3375
2834.56959	3306.4375
2837.1	3275.2375
2839.62884	3283.1375
2842.15613	3273.1375
2844.68186	3287.1375
2847.20604	3247.0375
2849.72867	3235.7375
2852.24974	3256.7375
2854.76927	3232.5375
2857.28724	3170.5375
2859.80367	3244.3375
2862.31855	3242.6375
2864.83189	3229.5375
2867.34368	3232.2375
2869.85393	3236.2375
2872.36264	3202.2375
2874.8698	3218.0375
2877.37543	3214.8375
2879.87952	3198.9375
2882.38207	3195.5375
2884.88308	3186.2375
2887.38256	3181.9375
2889.88051	3179.8375
2892.37692	3188.8375
2894.8718	3175.8375
2897.36515	3186.0375
2899.85698	3172.3375
2902.34727	3174.4375
2904.83604	3183.8375
2907.32328	3201.7375
2909.809	3201.2375
2912.29319	3178.5375
2914.77587	3192.8375
2917.25702	3194.0375
2919.73665	3215.7375
2922.21476	3209.3375
2924.69136	3201.1375
2927.16644	3181.3375
2929.64	3178.9375
2932.11205	3163.1375
2934.58258	3159.6375
2937.05161	3151.1375
2939.51912	3165.2375
2941.98513	3186.7375
2944.44962	3145.4375
2946.91261	3108.6375
2949.37409	3128.3375
2951.83407	3132.0375
2954.29254	3125.7375
2956.74951	3114.4375
2959.20498	3106.8375
2961.65895	3110.9375
2964.11142	3096.4375
2966.56239	3099.6375
2969.01186	3098.3375
2971.45984	3086.7375
2973.90632	3071.8375
2976.35131	3085.1375
2978.7948	3080.1375
2981.23681	3067.7375
2983.67732	3077.3375
2986.11635	3074.9375
2988.55388	3037.2375
2990.98993	3034.8375
2993.4245	3024.0375
2995.85758	3004.6375
2998.28917	3003.0375
3000.71928	3002.4375
3003.14791	3002.2375
3005.57506	2986.8375
3008.00073	2966.5375
3010.42493	2905.8375
3012.84764	2967.3375
3015.26888	2958.5375
3017.68865	2950.4375
3020.10694	2913.0375
3022.52376	2919.5375
3024.9391	2914.4375
3027.35298	2911.5375
3029.76539	2889.6375
3032.17632	2893.8375
3034.5858	2886.7375
3036.9938	2894.7375
3039.40034	2886.6375
3041.80542	2871.6375
3044.20903	2859.3375
3046.61118	2851.2375
3049.01187	2854.8375
3051.4111	2848.0375
3053.80888	2826.5375
3056.20519	2834.2375
3058.60005	2810.5375
3060.99345	2834.9375
3063.3854	2804.0375
3065.7759	2791.6375
3068.16494	2780.8375
3070.55254	2770.4375
3072.93868	2780.1375
3075.32338	2787.5375
3077.70662	2765.7375
3080.08842	2759.9375
3082.46878	2737.0375
3084.84769	2760.2375
3087.22515	2744.2375
3089.60118	2740.1375
3091.97576	2719.4375
3094.3489	2740.4375
3096.72061	2727.9375
3099.09087	2721.8375
3101.4597	2730.5375
3103.82709	2737.2375
3106.19305	2706.5375
3108.55757	2705.6375
3110.92066	2698.4375
3113.28232	2703.8375
3115.64255	2710.2375
3118.00134	2698.0375
3120.35871	2678.9375
3122.71466	2658.0375
