Data from AgNPs_UA_10uM_CRN_500uM_SU_RamanShift__10__13-07-00-255.txt Node

Date: Thu Aug 04 13:07:00 BST 2022
User: TCL
Spectrometer: QEP01345
Trigger mode: 4
Integration Time (sec): 1.000000E0
Scans to average: 10
Electric dark correction enabled: true
Nonlinearity correction enabled: false
Boxcar width: 0
XAxis mode: Raman Shifts
Number of Pixels in Spectrum: 1044
>>>>>Begin Spectral Data<<<<<
46.04893	0.275
50.45542	-0.425
54.85868	0.975
59.25871	-0.325
63.6555	16.975
68.04907	20.175
72.43941	20.275
76.82654	18.775
81.21044	18.875
85.59113	20.975
89.96862	22.175
94.34289	22.175
98.71396	23.375
103.08183	24.475
107.4465	24.275
111.80798	24.975
116.16626	24.875
120.52136	27.175
124.87327	28.475
129.222	30.575
133.56755	31.475
137.90993	35.475
142.24913	39.875
146.58517	42.475
150.91804	52.275
155.24774	64.275
159.57429	79.675
163.89768	102.975
168.21792	140.875
172.53501	188.575
176.84895	265.875
181.15975	383.375
185.46741	533.975
189.77193	751.875
194.07331	1010.775
198.37157	1297.375
202.6667	1613.475
206.9587	1927.675
211.24758	2235.175
215.53334	2555.075
219.81599	2905.675
224.09553	3269.175
228.37195	3706.775
232.64527	4153.275
236.91549	4589.875
241.18261	4996.575
245.44663	5291.975
249.70755	5530.675
253.96539	5733.875
258.22014	5937.375
262.4718	6061.275
266.72039	6161.375
270.96589	6177.975
275.20832	6128.675
279.44768	6035.175
283.68397	5935.675
287.91719	5863.975
292.14735	5889.075
296.37445	6002.475
300.59849	6183.175
304.81948	6448.175
309.03742	6679.275
313.25231	6840.475
317.46415	6766.675
321.67296	6527.575
325.87872	6236.575
330.08145	6073.875
334.28114	6062.275
338.47781	6133.175
342.67145	6260.875
346.86207	6438.075
351.04966	6729.075
355.23424	7015.975
359.4158	7184.275
363.59435	7289.275
367.76989	7255.575
371.94243	7217.875
376.11196	7151.475
380.27849	7150.075
384.44203	7158.075
388.60257	7186.775
392.76012	7239.175
396.91468	7347.475
401.06626	7471.675
405.21485	7503.575
409.36047	7410.975
413.50311	7181.975
417.64277	6960.075
421.77947	6810.775
425.9132	6730.875
430.04396	6726.875
434.17176	6744.475
438.2966	6807.875
442.41849	6899.775
446.53742	7041.975
450.6534	7186.875
454.76644	7262.075
458.87653	7334.275
462.98368	7330.575
467.08789	7278.075
471.18916	7208.275
475.2875	7050.975
479.38291	6925.075
483.4754	6832.775
487.56496	6754.175
491.6516	6743.475
495.73531	6749.775
499.81612	6789.375
503.89401	6870.475
507.96899	6905.975
512.04106	6928.875
516.11023	7005.475
520.1765	7029.875
524.23987	7017.775
528.30034	7021.475
532.35792	7009.275
536.41261	6954.875
540.46441	6879.175
544.51333	6857.175
548.55936	6909.375
552.60252	6999.975
556.64279	7091.775
560.6802	7214.475
564.71473	7318.675
568.7464	7406.975
572.7752	7360.475
576.80114	7175.575
580.82422	6964.875
584.84444	6890.375
588.86181	6894.675
592.87633	6890.175
596.888	6999.675
600.89682	7359.875
604.9028	8256.375
608.90594	10035.375
612.90624	11861.875
616.90371	10956.375
620.89834	8471.675
624.89015	7432.575
628.87913	7337.175
632.86528	7520.275
636.84862	7607.975
640.82913	7451.875
644.80683	7145.075
648.78172	7001.375
652.75379	7001.575
656.72306	7209.775
660.68952	7461.175
664.65319	7390.675
668.61405	7293.875
672.57211	7330.675
676.52738	7332.375
680.47986	7155.275
684.42955	6965.975
688.37646	6943.475
692.32058	6985.475
696.26192	7132.875
700.20048	7264.275
704.13626	7302.275
708.06928	7198.075
711.99952	7119.475
715.927	7106.275
719.85171	7153.675
723.77365	7184.475
727.69284	7131.875
731.60928	7080.875
735.52295	7067.975
739.43388	7102.275
743.34206	7128.775
747.24749	7107.675
751.15017	7114.775
755.05012	7200.875
758.94733	7487.875
762.8418	8167.975
766.73354	9174.975
770.62254	9935.275
774.50882	10085.575
778.39237	9772.375
782.27321	9101.975
786.15132	8297.475
790.02671	7711.175
793.89938	7415.775
797.76935	7248.975
801.6366	7158.875
805.50115	7092.675
809.36299	7070.475
813.22213	7080.375
817.07857	7089.775
820.93231	7044.475
824.78336	7091.775
828.63172	7097.475
832.47738	7096.175
836.32036	7088.575
840.16066	7061.975
843.99827	7041.975
847.8332	7063.375
851.66546	7051.175
855.49504	7092.375
859.32195	7101.975
863.1462	7075.575
866.96777	7081.075
870.78668	7087.675
874.60293	7116.875
878.41652	7149.375
882.22745	7195.975
886.03573	7236.475
889.84136	7249.575
893.64433	7218.575
897.44466	7202.775
901.24235	7195.975
905.0374	7178.175
908.8298	7141.675
912.61957	7155.275
916.40671	7135.375
920.19121	7146.475
923.97308	7179.475
927.75233	7264.775
931.52895	7303.875
935.30295	7257.675
939.07433	7120.775
942.84309	7068.975
946.60924	7036.675
950.37278	7020.875
954.13371	7006.875
957.89203	7020.575
961.64774	7011.575
965.40086	7000.775
969.15137	7012.775
972.89929	6994.575
976.64461	7000.375
980.38733	6999.175
984.12747	7004.275
987.86502	7049.775
991.59999	7064.175
995.33237	7114.375
999.06217	7172.575
1002.78939	7254.775
1006.51404	7387.375
1010.23611	7504.375
1013.95561	7570.875
1017.67255	7589.075
1021.38692	7574.075
1025.09872	7509.475
1028.80796	7437.175
1032.51465	7410.175
1036.21877	7418.675
1039.92035	7453.575
1043.61937	7504.675
1047.31584	7531.875
1051.00976	7545.675
1054.70114	7587.175
1058.38998	7590.975
1062.07627	7632.675
1065.76003	7680.975
1069.44126	7746.975
1073.11995	7932.875
1076.79611	8075.475
1080.46974	8198.875
1084.14085	8278.875
1087.80943	8354.975
1091.47549	8439.675
1095.13903	8421.075
1098.80005	8437.875
1102.45857	8536.675
1106.11456	8513.875
1109.76805	8354.975
1113.41903	8303.275
1117.06751	8399.775
1120.71348	8590.375
1124.35696	8767.975
1127.99793	8889.175
1131.63641	8730.075
1135.2724	8427.375
1138.90589	8226.375
1142.5369	8113.875
1146.16542	8012.675
1149.79145	7948.475
1153.415	7860.275
1157.03607	7839.875
1160.65467	7927.375
1164.27079	8096.275
1167.88443	8334.075
1171.49561	8720.975
1175.10432	9269.875
1178.71056	10020.775
1182.31434	10641.175
1185.91565	10877.475
1189.51451	10839.275
1193.11091	10751.175
1196.70485	10594.975
1200.29634	10389.675
1203.88538	10113.375
1207.47197	9746.175
1211.05612	9334.575
1214.63782	8962.775
1218.21708	8672.175
1221.79391	8489.875
1225.36829	8418.375
1228.94024	8392.975
1232.50976	8412.675
1236.07685	8450.275
1239.6415	8503.375
1243.20374	8524.675
1246.76355	8599.375
1250.32093	8652.675
1253.8759	8782.875
1257.42845	8975.175
1260.97859	9232.575
1264.52631	9453.575
1268.07163	9618.675
1271.61453	9733.675
1275.15503	9731.775
1278.69312	9695.075
1282.22882	9686.475
1285.76211	9781.575
1289.29301	9939.875
1292.82151	10147.175
1296.34761	10323.275
1299.87133	10632.975
1303.39266	11195.175
1306.9116	12051.075
1310.42815	12982.575
1313.94233	13331.375
1317.45412	12846.875
1320.96354	12080.175
1324.47058	11392.275
1327.97525	10809.975
1331.47754	10459.175
1334.97747	10351.375
1338.47502	10456.575
1341.97022	10817.575
1345.46305	11533.575
1348.95352	12596.875
1352.44163	13714.375
1355.92738	14846.275
1359.41078	16014.775
1362.89183	16856.475
1366.37053	15979.375
1369.84688	13679.375
1373.32088	11644.575
1376.79254	10500.975
1380.26186	9958.975
1383.72883	9606.875
1387.19347	9279.975
1390.65578	8978.775
1394.11575	8728.675
1397.57339	8524.475
1401.0287	8441.075
1404.48168	8431.575
1407.93234	8484.575
1411.38068	8597.175
1414.82669	8717.875
1418.27039	8782.075
1421.71177	8770.675
1425.15083	8677.475
1428.58758	8590.175
1432.02203	8584.775
1435.45416	8577.475
1438.88399	8535.675
1442.31151	8548.675
1445.73673	8565.475
1449.15965	8623.175
1452.58027	8606.975
1455.9986	8575.575
1459.41463	8592.575
1462.82837	8667.275
1466.23982	8831.675
1469.64898	9010.575
1473.05586	9169.975
1476.46045	9267.875
1479.86276	9392.675
1483.26279	9506.375
1486.66054	9699.275
1490.05602	9981.875
1493.44922	10470.375
1496.84016	11205.575
1500.22882	12271.475
1503.61521	13580.575
1506.99934	14805.175
1510.38121	15583.775
1513.76081	15395.375
1517.13816	14226.275
1520.51324	12684.275
1523.88607	11383.975
1527.25665	10597.575
1530.62498	10240.475
1533.99105	10059.675
1537.35488	9929.875
1540.71647	9851.375
1544.07581	9734.475
1547.4329	9643.275
1550.78776	9514.175
1554.14038	9400.675
1557.49077	9374.175
1560.83892	9481.275
1564.18484	9738.175
1567.52853	9966.475
1570.86999	10180.675
1574.20922	10223.575
1577.54624	10107.675
1580.88103	9706.975
1584.2136	9207.375
1587.54395	8887.375
1590.87208	8880.375
1594.19801	9074.875
1597.52172	9389.175
1600.84321	9499.275
1604.16251	9444.975
1607.47959	9318.175
1610.79447	9124.975
1614.10715	8782.175
1617.41763	8425.475
1620.7259	8161.275
1624.03199	7975.875
1627.33587	7948.975
1630.63757	7975.975
1633.93707	8188.675
1637.23439	8652.575
1640.52951	9323.475
1643.82246	10306.875
1647.11321	11325.375
1650.40179	11895.875
1653.68819	11414.575
1656.97241	10199.575
1660.25446	8936.475
1663.53433	8085.075
1666.81203	7577.675
1670.08756	7263.975
1673.36092	7083.875
1676.63211	6967.975
1679.90115	6866.275
1683.16801	6805.275
1686.43272	6745.975
1689.69527	6697.775
1692.95567	6669.975
1696.2139	6637.775
1699.46999	6618.475
1702.72392	6616.275
1705.97571	6583.075
1709.22535	6585.475
1712.47284	6600.175
1715.71819	6607.375
1718.96139	6611.175
1722.20246	6576.675
1725.44139	6557.675
1728.67818	6510.075
1731.91284	6483.375
1735.14537	6435.675
1738.37576	6422.775
1741.60403	6390.075
1744.83017	6368.075
1748.05418	6381.375
1751.27607	6354.275
1754.49584	6352.475
1757.71349	6338.275
1760.92903	6312.275
1764.14244	6308.875
1767.35375	6284.375
1770.56294	6256.275
1773.77002	6262.975
1776.97499	6225.975
1780.17785	6210.575
1783.37861	6193.475
1786.57727	6176.575
1789.77382	6193.775
1792.96828	6166.175
1796.16064	6164.375
1799.3509	6149.375
1802.53907	6128.675
1805.72514	6128.575
1808.90913	6102.075
1812.09102	6093.375
1815.27083	6072.275
1818.44856	6045.475
1821.6242	6049.175
1824.79776	6035.575
1827.96924	6024.275
1831.13864	6004.575
1834.30597	6006.375
1837.47122	5993.875
1840.6344	5967.075
1843.7955	5976.875
1846.95454	5964.375
1850.11151	5968.575
1853.26642	5958.475
1856.41926	5938.375
1859.57004	5956.275
1862.71876	5944.375
1865.86542	5943.775
1869.01003	5916.275
1872.15258	5922.575
1875.29308	5911.975
1878.43152	5905.775
1881.56792	5908.375
1884.70227	5886.875
1887.83457	5866.375
1890.96482	5847.175
1894.09304	5844.175
1897.21921	5853.975
1900.34335	5829.375
1903.46544	5814.775
1906.58551	5818.775
1909.70353	5804.975
1912.81953	5798.075
1915.93349	5793.575
1919.04543	5763.075
1922.15534	5747.475
1925.26322	5751.075
1928.36908	5740.675
1931.47292	5723.375
1934.57473	5701.875
1937.67453	5703.975
1940.77232	5692.475
1943.86808	5647.875
1946.96184	5645.075
1950.05358	5612.375
1953.14331	5621.175
1956.23103	5586.775
1959.31675	5560.675
1962.40046	5563.675
1965.48217	5525.575
1968.56188	5525.775
1971.63959	5508.975
1974.7153	5514.475
1977.78901	5485.775
1980.86073	5473.575
1983.93046	5443.675
1986.99819	5420.775
1990.06394	5409.175
1993.1277	5385.775
1996.18947	5360.775
1999.24925	5345.675
2002.30706	5325.175
2005.36288	5315.575
2008.41672	5279.175
2011.46859	5272.375
2014.51848	5249.675
2017.56639	5231.975
2020.61233	5219.175
2023.6563	5190.975
2026.6983	5192.375
2029.73833	5167.275
2032.7764	5153.675
2035.8125	5129.775
2038.84664	5125.375
2041.87881	5115.675
2044.90903	5105.875
2047.93729	5091.175
2050.96359	5081.575
2053.98794	5079.275
2057.01034	5075.675
2060.03078	5081.675
2063.04927	5062.175
2066.06582	5044.275
2069.08042	5040.175
2072.09307	5023.475
2075.10378	5030.275
2078.11255	5022.375
2081.11938	5000.075
2084.12426	5007.075
2087.12722	4988.175
2090.12824	5002.675
2093.12732	5010.475
2096.12447	5013.475
2099.11969	5014.975
2102.11299	5004.175
2105.10435	5005.775
2108.09379	5011.775
2111.08131	4989.675
2114.0669	5004.875
2117.05057	5009.075
2120.03233	5019.375
2123.01216	5015.675
2125.99008	5015.975
2128.96609	5011.175
2131.94018	5014.975
2134.91236	5010.375
2137.88263	5022.575
2140.851	4999.275
2143.81746	5009.975
2146.78201	5001.175
2149.74466	4993.075
2152.7054	5002.975
2155.66425	4996.075
2158.6212	4993.975
2161.57625	4976.075
2164.52941	4977.075
2167.48067	4987.975
2170.43004	4980.475
2173.37752	4973.775
2176.32311	4973.775
2179.26681	4957.675
2182.20863	4983.775
2185.14856	4976.375
2188.08661	4971.775
2191.02278	4972.375
2193.95707	4961.775
2196.88948	4945.775
2199.82001	4933.675
2202.74867	4927.375
2205.67545	4941.275
2208.60037	4935.675
2211.52341	4912.275
2214.44458	4907.475
2217.36388	4878.975
2220.28132	4874.275
2223.1969	4860.775
2226.11061	4844.175
2229.02246	4839.875
2231.93245	4817.075
2234.84058	4823.675
2237.74686	4805.375
2240.65128	4785.375
2243.55385	4777.875
2246.45456	4793.875
2249.35343	4772.775
2252.25044	4765.575
2255.14561	4753.675
2258.03893	4761.075
2260.93041	4759.075
2263.82004	4748.275
2266.70783	4739.175
2269.59378	4718.175
2272.4779	4689.775
2275.36017	4689.875
2278.24061	4690.375
2281.11922	4682.075
2283.996	4661.375
2286.87094	4645.075
2289.74405	4654.875
2292.61534	4620.175
2295.4848	4618.075
2298.35243	4613.575
2301.21824	4625.775
2304.08223	4590.075
2306.94439	4587.975
2309.80474	4602.775
2312.66327	4588.575
2315.51999	4574.975
2318.37489	4572.275
2321.22797	4557.675
2324.07925	4558.675
2326.92871	4538.475
2329.77637	4526.575
2332.62222	4516.775
2335.46626	4494.875
2338.3085	4494.175
2341.14893	4498.675
2343.98756	4490.475
2346.8244	4493.775
2349.65943	4488.375
2352.49267	4482.475
2355.32411	4459.675
2358.15376	4472.775
2360.98161	4474.675
2363.80768	4484.475
2366.63195	4453.775
2369.45444	4474.175
2372.27514	4462.975
2375.09405	4469.575
2377.91118	4430.975
2380.72652	4435.575
2383.54009	4420.175
2386.35187	4414.075
2389.16188	4403.875
2391.97011	4381.675
2394.77657	4361.175
2397.58125	4374.075
2400.38416	4344.075
2403.18529	4341.775
2405.98466	4345.575
2408.78226	4342.875
2411.57809	4313.075
2414.37216	4310.675
2417.16446	4302.475
2419.955	4304.175
2422.74378	4292.975
2425.5308	4284.875
2428.31606	4298.275
2431.09956	4275.975
2433.88131	4284.875
2436.6613	4284.775
2439.43954	4266.275
2442.21603	4265.175
2444.99077	4252.275
2447.76377	4257.675
2450.53501	4259.575
2453.30451	4257.475
2456.07226	4247.175
2458.83827	4240.675
2461.60254	4219.775
2464.36507	4210.375
2467.12586	4204.075
2469.88492	4212.675
2472.64224	4214.075
2475.39782	4204.775
2478.15167	4188.575
2480.90379	4198.475
2483.65417	4194.875
2486.40283	4183.675
2489.14976	4199.875
2491.89497	4190.375
2494.63845	4192.975
2497.3802	4166.175
2500.12024	4154.475
2502.85855	4156.675
2505.59514	4158.675
2508.33002	4152.175
2511.06318	4138.375
2513.79462	4112.775
2516.52435	4120.775
2519.25237	4117.175
2521.97867	4086.075
2524.70327	4081.075
2527.42616	4082.875
2530.14734	4054.975
2532.86681	4050.775
2535.58458	4071.675
2538.30065	4062.275
2541.01501	4059.375
2543.72768	4044.475
2546.43864	4043.475
2549.14791	4031.575
2551.85548	4031.775
2554.56136	4035.675
2557.26554	4030.475
2559.96803	3999.975
2562.66883	4006.375
2565.36794	3990.575
2568.06536	3961.375
2570.7611	3957.775
2573.45514	3939.175
2576.14751	3949.375
2578.83819	3932.275
2581.52719	3924.675
2584.21451	3929.775
2586.90015	3913.575
2589.58411	3898.475
2592.2664	3894.775
2594.94701	3892.675
2597.62594	3888.675
2600.30321	3874.775
2602.9788	3871.875
2605.65273	3870.575
2608.32498	3859.475
2610.99557	3849.775
2613.66449	3844.275
2616.33175	3842.875
2618.99734	3827.975
2621.66128	3830.275
2624.32355	3815.875
2626.98416	3792.375
2629.64311	3784.075
2632.30041	3786.475
2634.95605	3769.575
2637.61004	3766.375
2640.26238	3758.775
2642.91306	3755.775
2645.56209	3743.075
2648.20948	3744.875
2650.85521	3739.275
2653.4993	3734.875
2656.14175	3734.475
2658.78255	3731.275
2661.42171	3724.975
2664.05923	3735.675
2666.6951	3735.975
2669.32934	3750.975
2671.96194	3738.275
2674.59291	3744.575
2677.22224	3741.275
2679.84993	3747.075
2682.476	3734.575
2685.10043	3744.375
2687.72324	3733.075
2690.34441	3745.675
2692.96396	3727.675
2695.58188	3725.975
2698.19818	3719.075
2700.81285	3713.175
2703.4259	3716.875
2706.03733	3721.775
2708.64714	3714.775
2711.25533	3710.175
2713.86191	3689.775
2716.46687	3705.575
2719.07021	3697.375
2721.67194	3699.275
2724.27206	3688.875
2726.87057	3697.475
2729.46747	3691.575
2732.06276	3693.975
2734.65644	3686.075
2737.24852	3683.875
2739.83899	3668.075
2742.42786	3659.475
2745.01513	3642.075
2747.60079	3644.175
2750.18486	3636.675
2752.76733	3634.775
2755.3482	3635.075
2757.92747	3615.575
2760.50515	3620.475
2763.08123	3596.775
2765.65573	3592.575
2768.22863	3579.675
2770.79994	3575.975
2773.36967	3587.175
2775.9378	3565.275
2778.50435	3563.875
2781.06932	3567.675
2783.6327	3571.075
2786.1945	3560.675
2788.75471	3556.475
2791.31335	3528.975
2793.87041	3531.875
2796.42589	3507.675
2798.97979	3503.775
2801.53212	3507.975
2804.08288	3488.175
2806.63206	3485.475
2809.17967	3482.075
2811.72571	3473.275
2814.27018	3484.175
2816.81308	3465.775
2819.35442	3448.975
2821.89419	3461.075
2824.43239	3444.675
2826.96904	3439.675
2829.50412	3431.175
2832.03763	3421.575
2834.56959	3415.875
2837.1	3399.375
2839.62884	3395.475
2842.15613	3400.075
2844.68186	3398.175
2847.20604	3395.175
2849.72867	3394.975
2852.24974	3372.975
2854.76927	3367.175
2857.28724	3364.475
2859.80367	3357.275
2862.31855	3342.475
2864.83189	3352.275
2867.34368	3349.675
2869.85393	3350.975
2872.36264	3332.375
2874.8698	3344.075
2877.37543	3337.875
2879.87952	3326.975
2882.38207	3313.675
2884.88308	3314.375
2887.38256	3317.275
2889.88051	3316.175
2892.37692	3311.475
2894.8718	3293.875
2897.36515	3301.775
2899.85698	3307.675
2902.34727	3296.875
2904.83604	3304.875
2907.32328	3314.875
2909.809	3308.475
2912.29319	3311.775
2914.77587	3322.375
2917.25702	3318.675
2919.73665	3318.975
2922.21476	3311.175
2924.69136	3305.075
2927.16644	3307.175
2929.64	3290.675
2932.11205	3280.075
2934.58258	3270.175
2937.05161	3271.575
2939.51912	3272.875
2941.98513	3259.175
2944.44962	3270.975
2946.91261	3239.875
2949.37409	3254.675
2951.83407	3239.075
2954.29254	3231.275
2956.74951	3228.975
2959.20498	3232.375
2961.65895	3220.075
2964.11142	3224.875
2966.56239	3218.175
2969.01186	3235.975
2971.45984	3211.675
2973.90632	3200.075
2976.35131	3203.675
2978.7948	3187.075
2981.23681	3192.475
2983.67732	3190.075
2986.11635	3176.975
2988.55388	3163.875
2990.98993	3163.975
2993.4245	3150.475
2995.85758	3148.875
2998.28917	3138.175
3000.71928	3128.375
3003.14791	3125.675
3005.57506	3114.575
3008.00073	3085.975
3010.42493	3091.475
3012.84764	3082.275
3015.26888	3080.675
3017.68865	3082.975
3020.10694	3074.975
3022.52376	3059.775
3024.9391	3047.775
3027.35298	3039.575
3029.76539	3036.075
3032.17632	3034.975
3034.5858	3021.575
3036.9938	3014.575
3039.40034	3001.275
3041.80542	2985.575
3044.20903	2976.175
3046.61118	2971.575
3049.01187	2979.275
3051.4111	2977.875
3053.80888	2954.775
3056.20519	2956.675
3058.60005	2928.875
3060.99345	2947.675
3063.3854	2935.375
3065.7759	2926.675
3068.16494	2914.575
3070.55254	2910.975
3072.93868	2898.275
3075.32338	2892.275
3077.70662	2889.375
3080.08842	2881.675
3082.46878	2870.275
3084.84769	2853.775
3087.22515	2838.875
3089.60118	2851.475
3091.97576	2848.475
3094.3489	2850.275
3096.72061	2856.975
3099.09087	2839.075
3101.4597	2830.875
3103.82709	2837.475
3106.19305	2835.075
3108.55757	2829.375
3110.92066	2820.975
3113.28232	2810.575
3115.64255	2802.975
3118.00134	2808.075
3120.35871	2803.975
3122.71466	2785.475
3125.06917	2779.575
3127.42226	2767.675
3129.77393	2772.875
3132.12417	2756.975
3134.47299	2752.875
3136.82039	2755.375
3139.16636	2755.075
3141.51092	2746.275
3143.85406	2750.575
3146.19579	2749.175
3148.53609	2748.875
3150.87499	2737.575
3153.21246	2734.775
3155.54853	2738.275
3157.88318	2725.075
3160.21642	2728.575
3162.54826	2729.075
3164.87868	2741.275
3167.2077	2729.275
3169.5353	2710.375
3171.86151	2706.075
3174.18631	2697.375
3176.5097	2695.775
3178.83169	2678.575
3181.15228	2683.875
3183.47147	2669.475
3185.78926	2670.675
3188.10565	2658.875
3190.42065	2660.275
3192.73424	2643.675
3195.04645	2643.075
3197.35725	2652.175
3199.66667	2643.175
3201.97469	2642.175
3204.28132	2633.575
3206.58656	2650.975
3208.8904	2649.775
3211.19287	2641.575
3213.49394	2643.875
3215.79363	2635.275
3218.09193	2632.575
3220.38884	2636.875
3222.68438	2641.175
3224.97853	2627.375
3227.2713	2627.575
3229.56269	2624.375
3231.8527	2613.875
3234.14133	2611.475
