Data from AgNPs_UA_5uM_CRN_500uM_SU_RamanShift__21__11-32-53-142.txt Node

Date: Thu Aug 04 11:32:53 BST 2022
User: TCL
Spectrometer: QEP01345
Trigger mode: 4
Integration Time (sec): 1.000000E0
Scans to average: 10
Electric dark correction enabled: true
Nonlinearity correction enabled: false
Boxcar width: 0
XAxis mode: Raman Shifts
Number of Pixels in Spectrum: 1044
>>>>>Begin Spectral Data<<<<<
46.04893	0.1375
50.45542	-0.4625
54.85868	-0.4625
59.25871	-1.1625
63.6555	-53.2625
68.04907	-35.3625
72.43941	-67.6625
76.82654	-53.8625
81.21044	-51.3625
85.59113	-43.1625
89.96862	-70.8625
94.34289	-49.9625
98.71396	-70.3625
103.08183	-51.1625
107.4465	-43.6625
111.80798	-47.4625
116.16626	-36.0625
120.52136	-64.7625
124.87327	-39.5625
129.222	-49.3625
133.56755	-34.3625
137.90993	-45.5625
142.24913	-31.1625
146.58517	-19.1625
150.91804	-8.3625
155.24774	9.8375
159.57429	38.5375
163.89768	67.4375
168.21792	142.6375
172.53501	202.5375
176.84895	346.9375
181.15975	571.5375
185.46741	854.7375
189.77193	1188.8375
194.07331	1697.2375
198.37157	2208.5375
202.6667	2743.7375
206.9587	3357.5375
211.24758	4012.5375
215.53334	4707.6375
219.81599	5546.0375
224.09553	6495.8375
228.37195	7486.7375
232.64527	8422.6375
236.91549	9174.9375
241.18261	9570.4375
245.44663	9665.3375
249.70755	9622.7375
253.96539	9617.6375
258.22014	9735.7375
262.4718	9815.9375
266.72039	9807.6375
270.96589	9572.1375
275.20832	9154.2375
279.44768	8748.9375
283.68397	8427.3375
287.91719	8320.3375
292.14735	8545.5375
296.37445	9195.7375
300.59849	10337.3375
304.81948	11941.8375
309.03742	13729.1375
313.25231	15030.3375
317.46415	14832.8375
321.67296	13013.0375
325.87872	10861.0375
330.08145	9634.0375
334.28114	9370.1375
338.47781	9710.7375
342.67145	10409.0375
346.86207	11536.8375
351.04966	13233.5375
355.23424	14878.2375
359.4158	15485.4375
363.59435	14888.2375
367.76989	13882.0375
371.94243	12897.6375
376.11196	12087.9375
380.27849	11494.5375
384.44203	10977.5375
388.60257	10729.8375
392.76012	10747.5375
396.91468	11125.2375
401.06626	11553.8375
405.21485	11585.4375
409.36047	10821.8375
413.50311	9496.0375
417.64277	8310.6375
421.77947	7520.8375
425.9132	7179.1375
430.04396	7003.4375
434.17176	6972.2375
438.2966	7121.9375
442.41849	7393.3375
446.53742	7644.3375
450.6534	7789.9375
454.76644	7765.9375
458.87653	7632.0375
462.98368	7451.6375
467.08789	7277.5375
471.18916	7027.1375
475.2875	6675.8375
479.38291	6364.2375
483.4754	6190.7375
487.56496	6097.3375
491.6516	6008.2375
495.73531	6007.9375
499.81612	6064.8375
503.89401	6275.7375
507.96899	6515.2375
512.04106	6821.5375
516.11023	7150.1375
520.1765	7407.9375
524.23987	7514.8375
528.30034	7479.3375
532.35792	7334.1375
536.41261	7144.6375
540.46441	6893.4375
544.51333	6701.4375
548.55936	6710.3375
552.60252	6881.8375
556.64279	7156.8375
560.6802	7674.1375
564.71473	8845.1375
568.7464	10427.4375
572.7752	10372.7375
576.80114	8391.1375
580.82422	6756.8375
584.84444	6087.1375
588.86181	5867.0375
592.87633	5867.8375
596.888	6115.7375
600.89682	7071.0375
604.9028	10250.2375
608.90594	18401.3375
612.90624	28260.0375
616.90371	25526.6375
620.89834	13291.7375
624.89015	7963.1375
628.87913	7418.2375
632.86528	8211.7375
636.84862	8457.8375
640.82913	7474.9375
644.80683	6191.5375
648.78172	5626.0375
652.75379	5866.8375
656.72306	6792.7375
660.68952	7717.8375
664.65319	7188.0375
668.61405	5942.9375
672.57211	5435.6375
676.52738	5406.1375
680.47986	5345.8375
684.42955	5169.7375
688.37646	5086.2375
692.32058	5069.7375
696.26192	5199.5375
700.20048	5324.1375
704.13626	5398.2375
708.06928	5285.6375
711.99952	5245.5375
715.927	5321.1375
719.85171	5577.1375
723.77365	5758.8375
727.69284	5574.6375
731.60928	5381.0375
735.52295	5331.3375
739.43388	5412.9375
743.34206	5457.4375
747.24749	5469.4375
751.15017	5510.4375
755.05012	5922.2375
758.94733	7526.9375
762.8418	11126.7375
766.73354	15738.8375
770.62254	18083.7375
774.50882	17135.8375
778.39237	15249.6375
782.27321	12457.9375
786.15132	9000.0375
790.02671	6772.4375
793.89938	5739.2375
797.76935	5403.9375
801.6366	5228.5375
805.50115	5131.6375
809.36299	5073.8375
813.22213	5063.8375
817.07857	5049.2375
820.93231	5098.0375
824.78336	5232.2375
828.63172	5373.7375
832.47738	5450.2375
836.32036	5318.2375
840.16066	5045.2375
843.99827	4893.1375
847.8332	4822.4375
851.66546	4819.4375
855.49504	4804.8375
859.32195	4803.0375
863.1462	4735.6375
866.96777	4713.9375
870.78668	4723.0375
874.60293	4766.8375
878.41652	4864.4375
882.22745	5039.5375
886.03573	5120.3375
889.84136	5093.6375
893.64433	5059.4375
897.44466	5076.6375
901.24235	5083.0375
905.0374	4983.5375
908.8298	4778.4375
912.61957	4629.5375
916.40671	4541.8375
920.19121	4600.8375
923.97308	4848.6375
927.75233	5338.2375
931.52895	5853.6375
935.30295	5567.0375
939.07433	4845.7375
942.84309	4368.1375
946.60924	4209.9375
950.37278	4130.9375
954.13371	4109.4375
957.89203	4111.1375
961.64774	4120.0375
965.40086	4086.9375
969.15137	4045.6375
972.89929	4085.1375
976.64461	4046.2375
980.38733	4046.8375
984.12747	4021.6375
987.86502	4034.7375
991.59999	4071.6375
995.33237	4174.4375
999.06217	4289.0375
1002.78939	4521.4375
1006.51404	4875.0375
1010.23611	5051.2375
1013.95561	4857.2375
1017.67255	4632.9375
1021.38692	4422.7375
1025.09872	4266.1375
1028.80796	4177.1375
1032.51465	4225.0375
1036.21877	4267.3375
1039.92035	4348.5375
1043.61937	4431.5375
1047.31584	4530.6375
1051.00976	4514.9375
1054.70114	4465.5375
1058.38998	4382.3375
1062.07627	4365.8375
1065.76003	4333.6375
1069.44126	4418.5375
1073.11995	4549.0375
1076.79611	4879.5375
1080.46974	5467.3375
1084.14085	6325.1375
1087.80943	7056.2375
1091.47549	6985.2375
1095.13903	6266.7375
1098.80005	5516.3375
1102.45857	5104.9375
1106.11456	5064.5375
1109.76805	5199.4375
1113.41903	5732.2375
1117.06751	6493.0375
1120.71348	7727.8375
1124.35696	9611.8375
1127.99793	10873.9375
1131.63641	9860.5375
1135.2724	7909.7375
1138.90589	6611.3375
1142.5369	5876.7375
1146.16542	5427.3375
1149.79145	5133.6375
1153.415	5061.6375
1157.03607	5149.9375
1160.65467	5420.8375
1164.27079	5922.2375
1167.88443	6645.1375
1171.49561	7859.2375
1175.10432	9949.2375
1178.71056	12767.0375
1182.31434	14622.6375
1185.91565	14235.7375
1189.51451	12417.6375
1193.11091	10479.0375
1196.70485	9265.1375
1200.29634	8766.2375
1203.88538	8174.6375
1207.47197	7012.2375
1211.05612	5944.6375
1214.63782	5258.0375
1218.21708	4945.9375
1221.79391	4830.0375
1225.36829	4811.6375
1228.94024	4826.3375
1232.50976	4804.4375
1236.07685	4816.8375
1239.6415	4911.5375
1243.20374	5045.8375
1246.76355	5252.5375
1250.32093	5526.9375
1253.8759	5882.7375
1257.42845	6527.3375
1260.97859	7333.2375
1264.52631	8073.4375
1268.07163	8417.5375
1271.61453	8397.7375
1275.15503	8095.6375
1278.69312	7783.7375
1282.22882	8027.6375
1285.76211	9102.2375
1289.29301	10549.0375
1292.82151	11491.5375
1296.34761	11920.7375
1299.87133	12882.5375
1303.39266	15381.7375
1306.9116	19968.7375
1310.42815	25721.0375
1313.94233	27887.7375
1317.45412	23672.8375
1320.96354	17276.3375
1324.47058	12408.7375
1327.97525	9494.5375
1331.47754	8025.8375
1334.97747	7569.5375
1338.47502	7753.6375
1341.97022	8902.3375
1345.46305	11386.2375
1348.95352	14878.8375
1352.44163	18504.7375
1355.92738	23174.3375
1359.41078	31234.4375
1362.89183	39578.0375
1366.37053	37299.4375
1369.84688	25420.6375
1373.32088	15830.2375
1376.79254	11699.2375
1380.26186	9834.9375
1383.72883	8379.1375
1387.19347	7067.8375
1390.65578	6098.3375
1394.11575	5578.8375
1397.57339	5302.2375
1401.0287	5113.0375
1404.48168	4931.3375
1407.93234	4843.8375
1411.38068	4959.4375
1414.82669	5400.9375
1418.27039	5881.6375
1421.71177	5976.8375
1425.15083	5765.5375
1428.58758	5872.3375
1432.02203	6536.4375
1435.45416	7012.8375
1438.88399	6693.4375
1442.31151	6237.7375
1445.73673	6122.2375
1449.15965	6088.3375
1452.58027	5926.1375
1455.9986	5690.9375
1459.41463	5478.5375
1462.82837	5490.2375
1466.23982	5766.8375
1469.64898	6134.6375
1473.05586	6269.2375
1476.46045	6206.7375
1479.86276	6259.5375
1483.26279	6566.6375
1486.66054	7277.9375
1490.05602	8410.0375
1493.44922	10209.6375
1496.84016	13055.8375
1500.22882	17500.3375
1503.61521	23734.3375
1506.99934	31888.2375
1510.38121	40090.7375
1513.76081	43698.7375
1517.13816	39050.4375
1520.51324	29225.5375
1523.88607	20081.8375
1527.25665	14196.0375
1530.62498	10835.2375
1533.99105	8871.9375
1537.35488	7625.8375
1540.71647	6916.4375
1544.07581	6605.0375
1547.4329	6626.0375
1550.78776	6811.0375
1554.14038	7192.6375
1557.49077	7834.0375
1560.83892	8989.5375
1564.18484	10729.4375
1567.52853	12590.6375
1570.86999	13617.1375
1574.20922	13677.0375
1577.54624	12857.1375
1580.88103	10684.4375
1584.2136	8107.0375
1587.54395	6613.9375
1590.87208	6247.9375
1594.19801	6723.5375
1597.52172	7552.0375
1600.84321	7598.7375
1604.16251	6707.7375
1607.47959	5824.7375
1610.79447	5312.4375
1614.10715	4891.2375
1617.41763	4617.7375
1620.7259	4488.3375
1624.03199	4573.7375
1627.33587	4797.4375
1630.63757	5247.3375
1633.93707	6074.9375
1637.23439	7560.1375
1640.52951	10257.6375
1643.82246	14894.5375
1647.11321	21154.7375
1650.40179	26107.2375
1653.68819	25566.6375
1656.97241	19738.3375
1660.25446	13076.5375
1663.53433	8606.9375
1666.81203	6196.1375
1670.08756	4947.8375
1673.36092	4272.2375
1676.63211	3862.6375
1679.90115	3597.1375
1683.16801	3410.4375
1686.43272	3252.9375
1689.69527	3184.5375
1692.95567	3093.2375
1696.2139	3054.9375
1699.46999	2973.7375
1702.72392	2958.6375
1705.97571	2971.8375
1709.22535	2965.8375
1712.47284	3004.2375
1715.71819	3037.5375
1718.96139	3034.9375
1722.20246	3009.2375
1725.44139	2939.9375
1728.67818	2857.0375
1731.91284	2759.3375
1735.14537	2695.4375
1738.37576	2656.5375
1741.60403	2637.8375
1744.83017	2591.3375
1748.05418	2573.5375
1751.27607	2553.3375
1754.49584	2497.0375
1757.71349	2433.7375
1760.92903	2406.7375
1764.14244	2322.8375
1767.35375	2292.6375
1770.56294	2245.8375
1773.77002	2188.0375
1776.97499	2186.6375
1780.17785	2128.4375
1783.37861	2102.3375
1786.57727	2107.5375
1789.77382	2037.9375
1792.96828	2064.2375
1796.16064	2076.5375
1799.3509	2044.9375
1802.53907	2064.8375
1805.72514	2034.1375
1808.90913	2017.9375
1812.09102	1996.3375
1815.27083	1994.2375
1818.44856	1980.6375
1821.6242	1974.7375
1824.79776	1949.5375
1827.96924	1944.3375
1831.13864	1928.6375
1834.30597	1907.0375
1837.47122	1876.5375
1840.6344	1845.1375
1843.7955	1828.1375
1846.95454	1790.1375
1850.11151	1795.8375
1853.26642	1769.1375
1856.41926	1775.9375
1859.57004	1777.9375
1862.71876	1783.3375
1865.86542	1800.5375
1869.01003	1802.1375
1872.15258	1781.5375
1875.29308	1805.2375
1878.43152	1809.7375
1881.56792	1798.0375
1884.70227	1776.3375
1887.83457	1770.0375
1890.96482	1725.1375
1894.09304	1728.0375
1897.21921	1721.9375
1900.34335	1734.1375
1903.46544	1706.7375
1906.58551	1729.9375
1909.70353	1716.8375
1912.81953	1708.5375
1915.93349	1696.9375
1919.04543	1700.0375
1922.15534	1672.3375
1925.26322	1671.4375
1928.36908	1641.1375
1931.47292	1615.7375
1934.57473	1608.0375
1937.67453	1554.0375
1940.77232	1528.3375
1943.86808	1513.1375
1946.96184	1509.9375
1950.05358	1483.7375
1953.14331	1478.0375
1956.23103	1496.7375
1959.31675	1486.4375
1962.40046	1447.7375
1965.48217	1514.3375
1968.56188	1526.8375
1971.63959	1535.2375
1974.7153	1544.8375
1977.78901	1535.5375
1980.86073	1496.4375
1983.93046	1450.2375
1986.99819	1348.5375
1990.06394	1369.6375
1993.1277	1391.0375
1996.18947	1362.6375
1999.24925	1330.1375
2002.30706	1339.3375
2005.36288	1340.3375
2008.41672	1307.4375
2011.46859	1296.6375
2014.51848	1288.0375
2017.56639	1283.1375
2020.61233	1270.3375
2023.6563	1274.2375
2026.6983	1227.6375
2029.73833	1247.2375
2032.7764	1259.0375
2035.8125	1214.2375
2038.84664	1227.6375
2041.87881	1218.3375
2044.90903	1229.9375
2047.93729	1229.4375
2050.96359	1196.0375
2053.98794	1201.8375
2057.01034	1197.0375
2060.03078	1169.1375
2063.04927	1153.9375
2066.06582	1144.3375
2069.08042	1135.6375
2072.09307	1136.4375
2075.10378	1133.2375
2078.11255	1118.7375
2081.11938	1118.4375
2084.12426	1127.5375
2087.12722	1123.9375
2090.12824	1122.8375
2093.12732	1124.7375
2096.12447	1131.0375
2099.11969	1122.3375
2102.11299	1109.5375
2105.10435	1132.8375
2108.09379	1129.0375
2111.08131	1126.6375
2114.0669	1137.8375
2117.05057	1137.8375
2120.03233	1146.8375
2123.01216	1190.8375
2125.99008	1199.7375
2128.96609	1200.3375
2131.94018	1208.3375
2134.91236	1187.4375
2137.88263	1155.2375
2140.851	1140.5375
2143.81746	1141.8375
2146.78201	1111.2375
2149.74466	1080.1375
2152.7054	1080.2375
2155.66425	1051.0375
2158.6212	1045.1375
2161.57625	1016.8375
2164.52941	991.4375
2167.48067	1017.7375
2170.43004	1022.1375
2173.37752	1046.1375
2176.32311	1046.8375
2179.26681	1054.9375
2182.20863	1068.1375
2185.14856	1051.8375
2188.08661	1055.3375
2191.02278	1039.2375
2193.95707	1013.3375
2196.88948	998.1375
2199.82001	1000.7375
2202.74867	989.3375
2205.67545	992.8375
2208.60037	1005.5375
2211.52341	1001.1375
2214.44458	982.5375
2217.36388	980.8375
2220.28132	971.6375
2223.1969	949.7375
2226.11061	949.4375
2229.02246	948.6375
2231.93245	945.6375
2234.84058	937.0375
2237.74686	929.1375
2240.65128	926.4375
2243.55385	939.4375
2246.45456	927.4375
2249.35343	965.8375
2252.25044	970.5375
2255.14561	1004.2375
2258.03893	1029.6375
2260.93041	1050.7375
2263.82004	1069.4375
2266.70783	1073.7375
2269.59378	1053.6375
2272.4779	1039.4375
2275.36017	1061.6375
2278.24061	1040.9375
2281.11922	1016.8375
2283.996	1020.6375
2286.87094	984.1375
2289.74405	988.6375
2292.61534	967.1375
2295.4848	948.7375
2298.35243	927.4375
2301.21824	922.7375
2304.08223	914.3375
2306.94439	924.0375
2309.80474	926.3375
2312.66327	921.8375
2315.51999	910.1375
2318.37489	912.0375
2321.22797	895.8375
2324.07925	890.9375
2326.92871	884.6375
2329.77637	884.8375
2332.62222	883.6375
2335.46626	874.7375
2338.3085	882.1375
2341.14893	895.8375
2343.98756	916.7375
2346.8244	897.0375
2349.65943	906.5375
2352.49267	925.8375
2355.32411	938.5375
2358.15376	957.1375
2360.98161	975.1375
2363.80768	976.0375
2366.63195	1002.2375
2369.45444	1011.5375
2372.27514	1025.1375
2375.09405	1045.0375
2377.91118	992.7375
2380.72652	984.9375
2383.54009	975.7375
2386.35187	974.5375
2389.16188	935.9375
2391.97011	928.3375
2394.77657	905.8375
2397.58125	911.0375
2400.38416	899.3375
2403.18529	875.0375
2405.98466	856.9375
2408.78226	871.2375
2411.57809	854.7375
2414.37216	850.6375
2417.16446	857.0375
2419.955	834.5375
2422.74378	866.7375
2425.5308	850.8375
2428.31606	866.0375
2431.09956	879.1375
2433.88131	868.7375
2436.6613	892.3375
2439.43954	892.0375
2442.21603	892.9375
2444.99077	898.1375
2447.76377	923.9375
2450.53501	922.2375
2453.30451	928.2375
2456.07226	938.0375
2458.83827	931.0375
2461.60254	885.9375
2464.36507	912.1375
2467.12586	903.0375
2469.88492	915.0375
2472.64224	919.2375
2475.39782	907.5375
2478.15167	934.8375
2480.90379	949.8375
2483.65417	982.2375
2486.40283	1008.3375
2489.14976	1036.5375
2491.89497	1013.4375
2494.63845	1021.2375
2497.3802	1013.4375
2500.12024	999.2375
2502.85855	986.5375
2505.59514	972.3375
2508.33002	941.9375
2511.06318	893.7375
2513.79462	878.4375
2516.52435	815.7375
2519.25237	786.3375
2521.97867	769.4375
2524.70327	769.2375
2527.42616	759.3375
2530.14734	767.3375
2532.86681	749.2375
2535.58458	754.2375
2538.30065	749.1375
2541.01501	774.5375
2543.72768	767.5375
2546.43864	779.7375
2549.14791	791.8375
2551.85548	779.9375
2554.56136	784.4375
2557.26554	806.0375
2559.96803	811.0375
2562.66883	813.2375
2565.36794	801.7375
2568.06536	783.5375
2570.7611	823.9375
2573.45514	801.7375
2576.14751	801.8375
2578.83819	789.6375
2581.52719	774.2375
2584.21451	771.7375
2586.90015	752.0375
2589.58411	742.7375
2592.2664	759.7375
2594.94701	761.9375
2597.62594	762.1375
2600.30321	707.8375
2602.9788	736.3375
2605.65273	732.7375
2608.32498	739.3375
2610.99557	771.8375
2613.66449	748.5375
2616.33175	763.6375
2618.99734	765.5375
2621.66128	773.5375
2624.32355	766.0375
2626.98416	743.4375
2629.64311	726.7375
2632.30041	719.7375
2634.95605	697.1375
2637.61004	683.4375
2640.26238	667.8375
2642.91306	662.2375
2645.56209	687.1375
2648.20948	675.9375
2650.85521	671.8375
2653.4993	696.0375
2656.14175	690.3375
2658.78255	687.1375
2661.42171	658.5375
2664.05923	711.9375
2666.6951	722.5375
2669.32934	737.4375
2671.96194	758.3375
2674.59291	743.7375
2677.22224	745.9375
2679.84993	744.1375
2682.476	722.8375
2685.10043	724.0375
2687.72324	703.8375
2690.34441	703.0375
2692.96396	705.0375
2695.58188	713.4375
2698.19818	699.2375
2700.81285	684.6375
2703.4259	681.5375
2706.03733	655.5375
2708.64714	663.3375
2711.25533	699.5375
2713.86191	711.6375
2716.46687	704.6375
2719.07021	709.9375
2721.67194	706.8375
2724.27206	708.5375
2726.87057	687.8375
2729.46747	682.7375
2732.06276	679.9375
2734.65644	662.4375
2737.24852	662.0375
2739.83899	635.9375
2742.42786	641.2375
2745.01513	638.3375
2747.60079	617.9375
2750.18486	600.6375
2752.76733	604.3375
2755.3482	593.1375
2757.92747	595.3375
2760.50515	582.7375
2763.08123	569.2375
2765.65573	574.0375
2768.22863	566.2375
2770.79994	563.9375
2773.36967	564.4375
2775.9378	564.4375
2778.50435	569.2375
2781.06932	567.6375
2783.6327	559.7375
2786.1945	588.0375
2788.75471	577.1375
2791.31335	579.4375
2793.87041	588.1375
2796.42589	582.3375
2798.97979	579.9375
2801.53212	598.8375
2804.08288	626.6375
2806.63206	625.1375
2809.17967	620.9375
2811.72571	658.4375
2814.27018	675.8375
2816.81308	682.6375
2819.35442	671.7375
2821.89419	719.0375
2824.43239	720.1375
2826.96904	746.3375
2829.50412	719.9375
2832.03763	720.6375
2834.56959	716.2375
2837.1	696.9375
2839.62884	690.1375
2842.15613	672.5375
2844.68186	685.7375
2847.20604	664.9375
2849.72867	677.7375
2852.24974	696.5375
2854.76927	683.2375
2857.28724	661.0375
2859.80367	730.0375
2862.31855	763.6375
2864.83189	760.6375
2867.34368	793.8375
2869.85393	820.5375
2872.36264	802.1375
2874.8698	820.6375
2877.37543	820.8375
2879.87952	796.7375
2882.38207	771.8375
2884.88308	762.9375
2887.38256	749.5375
2889.88051	735.3375
2892.37692	727.5375
2894.8718	699.9375
2897.36515	722.8375
2899.85698	721.0375
2902.34727	724.7375
2904.83604	747.7375
2907.32328	764.0375
2909.809	783.6375
2912.29319	798.0375
2914.77587	809.6375
2917.25702	822.0375
2919.73665	813.6375
2922.21476	785.6375
2924.69136	771.7375
2927.16644	730.5375
2929.64	718.3375
2932.11205	694.8375
2934.58258	697.1375
2937.05161	678.2375
2939.51912	682.2375
2941.98513	703.5375
2944.44962	685.2375
2946.91261	663.8375
2949.37409	673.2375
2951.83407	675.1375
2954.29254	683.9375
2956.74951	694.2375
2959.20498	675.1375
2961.65895	681.0375
2964.11142	677.6375
2966.56239	667.6375
2969.01186	670.5375
2971.45984	659.1375
2973.90632	654.0375
2976.35131	673.8375
2978.7948	659.7375
2981.23681	658.6375
2983.67732	667.2375
2986.11635	673.6375
2988.55388	647.6375
2990.98993	668.1375
2993.4245	660.9375
2995.85758	660.3375
2998.28917	667.9375
3000.71928	662.6375
3003.14791	667.1375
3005.57506	657.5375
3008.00073	662.5375
3010.42493	603.4375
3012.84764	658.7375
3015.26888	656.5375
3017.68865	655.9375
3020.10694	613.8375
3022.52376	626.6375
3024.9391	622.0375
3027.35298	613.0375
3029.76539	592.6375
3032.17632	584.5375
3034.5858	565.1375
3036.9938	562.1375
3039.40034	540.1375
3041.80542	519.2375
3044.20903	504.7375
3046.61118	495.1375
3049.01187	500.9375
3051.4111	487.4375
3053.80888	486.4375
3056.20519	479.4375
3058.60005	466.4375
3060.99345	500.3375
3063.3854	469.5375
3065.7759	463.1375
3068.16494	453.6375
3070.55254	455.6375
3072.93868	466.4375
3075.32338	456.6375
3077.70662	456.5375
3080.08842	445.8375
3082.46878	425.5375
3084.84769	450.6375
3087.22515	432.4375
3089.60118	438.3375
3091.97576	424.2375
3094.3489	436.8375
3096.72061	425.9375
3099.09087	406.4375
3101.4597	427.3375
3103.82709	420.2375
3106.19305	402.5375
3108.55757	413.1375
3110.92066	409.7375
3113.28232	424.3375
3115.64255	428.6375
3118.00134	430.4375
3120.35871	405.5375
3122.71466	398.5375
3125.06917	417.5375
3127.42226	412.8375
3129.77393	402.8375
3132.12417	415.9375
3134.47299	424.9375
3136.82039	409.4375
3139.16636	388.9375
3141.51092	411.0375
3143.85406	421.1375
3146.19579	405.3375
3148.53609	405.2375
3150.87499	418.6375
3153.21246	419.3375
3155.54853	422.3375
