Data from AgNPs_UA_5uM_CRN_500uM_SU_RamanShift__14__11-31-43-141.txt Node

Date: Thu Aug 04 11:31:43 BST 2022
User: TCL
Spectrometer: QEP01345
Trigger mode: 4
Integration Time (sec): 1.000000E0
Scans to average: 10
Electric dark correction enabled: true
Nonlinearity correction enabled: false
Boxcar width: 0
XAxis mode: Raman Shifts
Number of Pixels in Spectrum: 1044
>>>>>Begin Spectral Data<<<<<
46.04893	-0.8875
50.45542	0.0125
54.85868	0.5125
59.25871	-0.1875
63.6555	-52.7875
68.04907	-35.0875
72.43941	-65.2875
76.82654	-50.6875
81.21044	-52.2875
85.59113	-44.1875
89.96862	-69.2875
94.34289	-49.5875
98.71396	-70.1875
103.08183	-50.9875
107.4465	-42.8875
111.80798	-47.6875
116.16626	-36.6875
120.52136	-66.0875
124.87327	-39.5875
129.222	-51.9875
133.56755	-35.8875
137.90993	-47.9875
142.24913	-31.3875
146.58517	-20.6875
150.91804	-12.6875
155.24774	8.1125
159.57429	38.4125
163.89768	65.6125
168.21792	135.8125
172.53501	194.8125
176.84895	339.9125
181.15975	554.3125
185.46741	822.4125
189.77193	1166.5125
194.07331	1647.1125
198.37157	2158.4125
202.6667	2690.3125
206.9587	3276.4125
211.24758	3899.5125
215.53334	4600.1125
219.81599	5395.9125
224.09553	6324.7125
228.37195	7282.1125
232.64527	8181.9125
236.91549	8915.1125
241.18261	9313.4125
245.44663	9423.5125
249.70755	9364.4125
253.96539	9363.2125
258.22014	9468.8125
262.4718	9567.8125
266.72039	9535.5125
270.96589	9314.1125
275.20832	8916.9125
279.44768	8506.9125
283.68397	8205.3125
287.91719	8113.0125
292.14735	8311.3125
296.37445	8970.1125
300.59849	10064.3125
304.81948	11641.0125
309.03742	13366.7125
313.25231	14658.0125
317.46415	14437.4125
321.67296	12618.4125
325.87872	10524.9125
330.08145	9357.2125
334.28114	9114.1125
338.47781	9446.2125
342.67145	10135.2125
346.86207	11204.0125
351.04966	12866.9125
355.23424	14505.1125
359.4158	15090.9125
363.59435	14525.3125
367.76989	13524.8125
371.94243	12579.3125
376.11196	11760.8125
380.27849	11206.3125
384.44203	10728.6125
388.60257	10448.9125
392.76012	10483.5125
396.91468	10854.2125
401.06626	11285.5125
405.21485	11269.4125
409.36047	10533.3125
413.50311	9262.2125
417.64277	8074.6125
421.77947	7351.0125
425.9132	6995.7125
430.04396	6844.5125
434.17176	6784.2125
438.2966	6966.8125
442.41849	7174.9125
446.53742	7449.5125
450.6534	7607.8125
454.76644	7574.5125
458.87653	7457.3125
462.98368	7263.9125
467.08789	7103.8125
471.18916	6862.3125
475.2875	6496.5125
479.38291	6208.5125
483.4754	6038.2125
487.56496	5957.5125
491.6516	5852.8125
495.73531	5857.7125
499.81612	5916.9125
503.89401	6123.5125
507.96899	6351.4125
512.04106	6665.4125
516.11023	6975.5125
520.1765	7219.0125
524.23987	7338.0125
528.30034	7303.2125
532.35792	7141.5125
536.41261	6980.2125
540.46441	6729.4125
544.51333	6544.8125
548.55936	6535.5125
552.60252	6713.1125
556.64279	6982.8125
560.6802	7495.3125
564.71473	8658.6125
568.7464	10141.5125
572.7752	10065.2125
576.80114	8179.9125
580.82422	6592.4125
584.84444	5933.0125
588.86181	5720.3125
592.87633	5712.3125
596.888	5945.3125
600.89682	6883.8125
604.9028	10005.3125
608.90594	17972.5125
612.90624	27613.4125
616.90371	24839.0125
620.89834	12941.9125
624.89015	7770.2125
628.87913	7245.3125
632.86528	7987.3125
636.84862	8251.0125
640.82913	7268.1125
644.80683	6030.4125
648.78172	5507.7125
652.75379	5710.4125
656.72306	6632.3125
660.68952	7530.4125
664.65319	7028.0125
668.61405	5810.8125
672.57211	5293.6125
676.52738	5286.4125
680.47986	5211.9125
684.42955	5050.1125
688.37646	4956.7125
692.32058	4954.2125
696.26192	5057.2125
700.20048	5227.0125
704.13626	5246.8125
708.06928	5155.2125
711.99952	5119.7125
715.927	5191.2125
719.85171	5460.9125
723.77365	5626.1125
727.69284	5444.7125
731.60928	5254.1125
735.52295	5195.3125
739.43388	5278.6125
743.34206	5319.7125
747.24749	5321.2125
751.15017	5355.4125
755.05012	5760.4125
758.94733	7329.0125
762.8418	10841.8125
766.73354	15378.0125
770.62254	17639.3125
774.50882	16711.8125
778.39237	14893.5125
782.27321	12159.5125
786.15132	8797.5125
790.02671	6591.8125
793.89938	5617.1125
797.76935	5275.4125
801.6366	5098.1125
805.50115	5017.6125
809.36299	4967.7125
813.22213	4923.4125
817.07857	4939.6125
820.93231	4983.0125
824.78336	5109.5125
828.63172	5248.2125
832.47738	5318.2125
836.32036	5186.3125
840.16066	4922.3125
843.99827	4765.3125
847.8332	4702.4125
851.66546	4710.7125
855.49504	4687.4125
859.32195	4678.0125
863.1462	4616.5125
866.96777	4607.0125
870.78668	4606.4125
874.60293	4652.7125
878.41652	4725.9125
882.22745	4908.5125
886.03573	5011.1125
889.84136	4982.1125
893.64433	4933.2125
897.44466	4950.8125
901.24235	4940.2125
905.0374	4858.1125
908.8298	4655.0125
912.61957	4515.3125
916.40671	4416.5125
920.19121	4485.0125
923.97308	4716.4125
927.75233	5213.3125
931.52895	5700.1125
935.30295	5437.7125
939.07433	4726.0125
942.84309	4264.2125
946.60924	4108.6125
950.37278	4023.0125
954.13371	4006.5125
957.89203	3998.6125
961.64774	4020.3125
965.40086	3989.2125
969.15137	3933.1125
972.89929	3975.4125
976.64461	3920.6125
980.38733	3938.1125
984.12747	3921.5125
987.86502	3928.7125
991.59999	3982.7125
995.33237	4063.0125
999.06217	4183.4125
1002.78939	4414.5125
1006.51404	4766.3125
1010.23611	4925.2125
1013.95561	4759.0125
1017.67255	4512.7125
1021.38692	4302.7125
1025.09872	4159.1125
1028.80796	4056.9125
1032.51465	4110.4125
1036.21877	4167.5125
1039.92035	4248.2125
1043.61937	4325.6125
1047.31584	4407.5125
1051.00976	4415.7125
1054.70114	4350.8125
1058.38998	4270.9125
1062.07627	4250.4125
1065.76003	4249.2125
1069.44126	4303.3125
1073.11995	4417.7125
1076.79611	4723.3125
1080.46974	5314.7125
1084.14085	6172.5125
1087.80943	6872.7125
1091.47549	6816.0125
1095.13903	6097.0125
1098.80005	5379.6125
1102.45857	4980.3125
1106.11456	4927.9125
1109.76805	5079.9125
1113.41903	5563.8125
1117.06751	6332.9125
1120.71348	7547.6125
1124.35696	9358.5125
1127.99793	10602.1125
1131.63641	9607.3125
1135.2724	7703.8125
1138.90589	6436.0125
1142.5369	5741.7125
1146.16542	5286.3125
1149.79145	5012.7125
1153.415	4936.4125
1157.03607	4998.6125
1160.65467	5281.9125
1164.27079	5772.8125
1167.88443	6473.1125
1171.49561	7647.2125
1175.10432	9688.3125
1178.71056	12423.9125
1182.31434	14235.0125
1185.91565	13888.9125
1189.51451	12100.4125
1193.11091	10217.2125
1196.70485	9026.7125
1200.29634	8562.2125
1203.88538	7954.6125
1207.47197	6810.6125
1211.05612	5775.8125
1214.63782	5110.4125
1218.21708	4814.1125
1221.79391	4702.3125
1225.36829	4682.0125
1228.94024	4691.4125
1232.50976	4684.5125
1236.07685	4694.5125
1239.6415	4773.7125
1243.20374	4918.6125
1246.76355	5125.7125
1250.32093	5390.0125
1253.8759	5722.6125
1257.42845	6340.2125
1260.97859	7129.1125
1264.52631	7832.0125
1268.07163	8198.0125
1271.61453	8165.4125
1275.15503	7886.4125
1278.69312	7588.6125
1282.22882	7811.1125
1285.76211	8838.4125
1289.29301	10265.3125
1292.82151	11209.4125
1296.34761	11618.0125
1299.87133	12559.0125
1303.39266	14974.4125
1306.9116	19496.8125
1310.42815	25073.5125
1313.94233	27189.0125
1317.45412	23010.3125
1320.96354	16805.5125
1324.47058	12106.0125
1327.97525	9233.5125
1331.47754	7828.6125
1334.97747	7360.6125
1338.47502	7539.5125
1341.97022	8658.9125
1345.46305	11084.6125
1348.95352	14480.9125
1352.44163	18028.1125
1355.92738	22578.6125
1359.41078	30454.9125
1362.89183	38606.2125
1366.37053	36356.5125
1369.84688	24749.3125
1373.32088	15411.0125
1376.79254	11387.4125
1380.26186	9575.8125
1383.72883	8151.7125
1387.19347	6895.3125
1390.65578	5924.8125
1394.11575	5414.0125
1397.57339	5172.3125
1401.0287	4976.3125
1404.48168	4798.5125
1407.93234	4701.2125
1411.38068	4833.7125
1414.82669	5249.4125
1418.27039	5732.9125
1421.71177	5824.6125
1425.15083	5608.1125
1428.58758	5705.9125
1432.02203	6335.3125
1435.45416	6815.9125
1438.88399	6490.4125
1442.31151	6058.6125
1445.73673	5959.7125
1449.15965	5909.5125
1452.58027	5753.3125
1455.9986	5529.8125
1459.41463	5345.8125
1462.82837	5343.9125
1466.23982	5598.7125
1469.64898	5977.8125
1473.05586	6090.0125
1476.46045	6056.2125
1479.86276	6093.6125
1483.26279	6392.4125
1486.66054	7092.7125
1490.05602	8157.9125
1493.44922	9943.4125
1496.84016	12749.3125
1500.22882	17085.1125
1503.61521	23126.8125
1506.99934	31062.8125
1510.38121	39090.4125
1513.76081	42550.9125
1517.13816	38006.7125
1520.51324	28436.6125
1523.88607	19566.6125
1527.25665	13835.7125
1530.62498	10548.7125
1533.99105	8638.1125
1537.35488	7404.8125
1540.71647	6719.0125
1544.07581	6448.9125
1547.4329	6447.3125
1550.78776	6657.3125
1554.14038	7007.9125
1557.49077	7646.3125
1560.83892	8740.6125
1564.18484	10463.4125
1567.52853	12250.6125
1570.86999	13304.0125
1574.20922	13336.7125
1577.54624	12538.2125
1580.88103	10436.8125
1584.2136	7914.5125
1587.54395	6461.5125
1590.87208	6090.3125
1594.19801	6556.1125
1597.52172	7374.9125
1600.84321	7391.6125
1604.16251	6530.3125
1607.47959	5688.7125
1610.79447	5178.7125
1614.10715	4759.8125
1617.41763	4498.0125
1620.7259	4380.8125
1624.03199	4437.8125
1627.33587	4667.6125
1630.63757	5098.6125
1633.93707	5896.2125
1637.23439	7336.6125
1640.52951	9959.1125
1643.82246	14446.9125
1647.11321	20560.9125
1650.40179	25371.3125
1653.68819	24813.0125
1656.97241	19169.6125
1660.25446	12725.3125
1663.53433	8384.9125
1666.81203	6028.0125
1670.08756	4805.1125
1673.36092	4154.4125
1676.63211	3742.5125
1679.90115	3498.1125
1683.16801	3319.9125
1686.43272	3173.9125
1689.69527	3107.3125
1692.95567	3015.1125
1696.2139	2976.9125
1699.46999	2888.9125
1702.72392	2901.5125
1705.97571	2895.0125
1709.22535	2874.8125
1712.47284	2916.0125
1715.71819	2951.1125
1718.96139	2970.3125
1722.20246	2929.6125
1725.44139	2858.2125
1728.67818	2782.1125
1731.91284	2701.3125
1735.14537	2628.0125
1738.37576	2586.4125
1741.60403	2577.6125
1744.83017	2533.5125
1748.05418	2509.8125
1751.27607	2496.1125
1754.49584	2434.5125
1757.71349	2357.3125
1760.92903	2342.7125
1764.14244	2276.3125
1767.35375	2239.1125
1770.56294	2190.5125
1773.77002	2140.7125
1776.97499	2136.4125
1780.17785	2085.4125
1783.37861	2046.5125
1786.57727	2047.9125
1789.77382	1982.4125
1792.96828	2018.5125
1796.16064	2027.9125
1799.3509	2004.8125
1802.53907	2004.1125
1805.72514	1975.7125
1808.90913	1956.7125
1812.09102	1962.9125
1815.27083	1951.0125
1818.44856	1928.3125
1821.6242	1933.3125
1824.79776	1907.2125
1827.96924	1890.9125
1831.13864	1868.8125
1834.30597	1858.9125
1837.47122	1825.6125
1840.6344	1810.9125
1843.7955	1769.6125
1846.95454	1745.1125
1850.11151	1768.1125
1853.26642	1720.1125
1856.41926	1734.4125
1859.57004	1725.7125
1862.71876	1741.2125
1865.86542	1749.4125
1869.01003	1750.3125
1872.15258	1736.4125
1875.29308	1764.7125
1878.43152	1764.5125
1881.56792	1751.5125
1884.70227	1727.3125
1887.83457	1725.3125
1890.96482	1698.1125
1894.09304	1697.6125
1897.21921	1688.5125
1900.34335	1697.6125
1903.46544	1667.6125
1906.58551	1685.6125
1909.70353	1685.1125
1912.81953	1676.5125
1915.93349	1673.7125
1919.04543	1658.3125
1922.15534	1626.6125
1925.26322	1631.1125
1928.36908	1599.6125
1931.47292	1581.1125
1934.57473	1564.4125
1937.67453	1515.5125
1940.77232	1485.1125
1943.86808	1479.9125
1946.96184	1481.3125
1950.05358	1446.5125
1953.14331	1450.0125
1956.23103	1464.5125
1959.31675	1447.2125
1962.40046	1427.8125
1965.48217	1466.6125
1968.56188	1495.4125
1971.63959	1511.0125
1974.7153	1517.3125
1977.78901	1499.0125
1980.86073	1464.9125
1983.93046	1408.8125
1986.99819	1327.9125
1990.06394	1340.3125
1993.1277	1356.3125
1996.18947	1348.8125
1999.24925	1308.3125
2002.30706	1308.2125
2005.36288	1307.5125
2008.41672	1297.1125
2011.46859	1260.6125
2014.51848	1263.8125
2017.56639	1244.3125
2020.61233	1231.2125
2023.6563	1249.6125
2026.6983	1199.2125
2029.73833	1222.0125
2032.7764	1227.4125
2035.8125	1194.9125
2038.84664	1196.1125
2041.87881	1183.0125
2044.90903	1209.1125
2047.93729	1194.5125
2050.96359	1173.4125
2053.98794	1179.0125
2057.01034	1171.7125
2060.03078	1140.1125
2063.04927	1130.6125
2066.06582	1127.1125
2069.08042	1107.4125
2072.09307	1102.3125
2075.10378	1106.7125
2078.11255	1103.5125
2081.11938	1106.4125
2084.12426	1101.8125
2087.12722	1100.4125
2090.12824	1098.3125
2093.12732	1103.1125
2096.12447	1108.9125
2099.11969	1088.3125
2102.11299	1088.6125
2105.10435	1112.1125
2108.09379	1105.7125
2111.08131	1099.3125
2114.0669	1117.4125
2117.05057	1123.4125
2120.03233	1115.4125
2123.01216	1161.9125
2125.99008	1177.6125
2128.96609	1176.0125
2131.94018	1185.6125
2134.91236	1153.1125
2137.88263	1127.1125
2140.851	1111.1125
2143.81746	1114.5125
2146.78201	1083.1125
2149.74466	1059.4125
2152.7054	1065.9125
2155.66425	1025.8125
2158.6212	1021.8125
2161.57625	1000.7125
2164.52941	979.4125
2167.48067	1005.7125
2170.43004	1002.1125
2173.37752	1025.4125
2176.32311	1022.3125
2179.26681	1028.6125
2182.20863	1029.8125
2185.14856	1034.3125
2188.08661	1023.6125
2191.02278	1018.6125
2193.95707	996.8125
2196.88948	973.5125
2199.82001	980.7125
2202.74867	964.9125
2205.67545	968.7125
2208.60037	982.6125
2211.52341	965.6125
2214.44458	968.4125
2217.36388	964.0125
2220.28132	951.6125
2223.1969	931.3125
2226.11061	934.9125
2229.02246	925.0125
2231.93245	930.4125
2234.84058	909.5125
2237.74686	914.2125
2240.65128	910.1125
2243.55385	925.9125
2246.45456	913.0125
2249.35343	940.3125
2252.25044	953.8125
2255.14561	985.7125
2258.03893	1012.9125
2260.93041	1031.7125
2263.82004	1046.2125
2266.70783	1054.5125
2269.59378	1031.8125
2272.4779	1018.6125
2275.36017	1036.1125
2278.24061	1010.6125
2281.11922	985.3125
2283.996	997.3125
2286.87094	964.4125
2289.74405	954.3125
2292.61534	944.5125
2295.4848	928.2125
2298.35243	911.4125
2301.21824	894.5125
2304.08223	892.3125
2306.94439	901.7125
2309.80474	906.2125
2312.66327	905.0125
2315.51999	889.9125
2318.37489	895.3125
2321.22797	866.2125
2324.07925	876.3125
2326.92871	865.3125
2329.77637	861.7125
2332.62222	860.9125
2335.46626	854.0125
2338.3085	863.2125
2341.14893	881.5125
2343.98756	890.9125
2346.8244	883.7125
2349.65943	890.5125
2352.49267	899.3125
2355.32411	914.7125
2358.15376	930.4125
2360.98161	954.5125
2363.80768	950.9125
2366.63195	977.2125
2369.45444	999.6125
2372.27514	1002.4125
2375.09405	1017.6125
2377.91118	978.5125
2380.72652	966.7125
2383.54009	952.7125
2386.35187	952.6125
2389.16188	919.8125
2391.97011	906.4125
2394.77657	893.0125
2397.58125	888.1125
2400.38416	874.1125
2403.18529	858.8125
2405.98466	836.5125
2408.78226	844.7125
2411.57809	841.3125
2414.37216	839.5125
2417.16446	844.1125
2419.955	827.9125
2422.74378	846.3125
2425.5308	829.3125
2428.31606	845.7125
2431.09956	860.9125
2433.88131	849.4125
2436.6613	872.4125
2439.43954	866.0125
2442.21603	874.9125
2444.99077	870.8125
2447.76377	900.4125
2450.53501	894.3125
2453.30451	895.8125
2456.07226	915.6125
2458.83827	903.1125
2461.60254	863.2125
2464.36507	909.4125
2467.12586	884.2125
2469.88492	896.0125
2472.64224	885.9125
2475.39782	889.1125
2478.15167	914.6125
2480.90379	930.8125
2483.65417	960.7125
2486.40283	986.5125
2489.14976	1004.6125
2491.89497	999.6125
2494.63845	1009.0125
2497.3802	985.8125
2500.12024	984.0125
2502.85855	965.4125
2505.59514	952.0125
2508.33002	919.2125
2511.06318	879.8125
2513.79462	854.5125
2516.52435	802.0125
2519.25237	762.2125
2521.97867	757.6125
2524.70327	758.0125
2527.42616	746.7125
2530.14734	749.7125
2532.86681	730.5125
2535.58458	742.7125
2538.30065	736.8125
2541.01501	763.0125
2543.72768	744.8125
2546.43864	762.1125
2549.14791	769.0125
2551.85548	765.4125
2554.56136	771.5125
2557.26554	783.7125
2559.96803	793.5125
2562.66883	797.9125
2565.36794	788.0125
2568.06536	763.9125
2570.7611	796.7125
2573.45514	785.5125
2576.14751	783.1125
2578.83819	772.4125
2581.52719	756.6125
2584.21451	754.8125
2586.90015	730.7125
2589.58411	721.8125
2592.2664	733.2125
2594.94701	742.5125
2597.62594	749.4125
2600.30321	689.9125
2602.9788	722.4125
2605.65273	716.7125
2608.32498	731.8125
2610.99557	754.2125
2613.66449	724.4125
2616.33175	750.6125
2618.99734	748.6125
2621.66128	750.3125
2624.32355	744.7125
2626.98416	722.3125
2629.64311	719.0125
2632.30041	707.7125
2634.95605	682.6125
2637.61004	671.6125
2640.26238	654.9125
2642.91306	647.9125
2645.56209	671.0125
2648.20948	667.4125
2650.85521	647.8125
2653.4993	677.7125
2656.14175	671.7125
2658.78255	677.5125
2661.42171	651.5125
2664.05923	694.5125
2666.6951	706.9125
2669.32934	717.9125
2671.96194	731.2125
2674.59291	727.2125
2677.22224	734.4125
2679.84993	719.8125
2682.476	708.8125
2685.10043	696.9125
2687.72324	688.1125
2690.34441	682.1125
2692.96396	683.7125
2695.58188	697.2125
2698.19818	683.6125
2700.81285	670.8125
2703.4259	665.4125
2706.03733	637.4125
2708.64714	650.1125
2711.25533	681.0125
2713.86191	697.5125
2716.46687	689.0125
2719.07021	686.8125
2721.67194	690.2125
2724.27206	705.8125
2726.87057	676.1125
2729.46747	655.8125
2732.06276	658.8125
2734.65644	646.0125
2737.24852	647.4125
2739.83899	618.8125
2742.42786	623.3125
2745.01513	631.1125
2747.60079	607.2125
2750.18486	593.9125
2752.76733	594.6125
2755.3482	582.6125
2757.92747	579.5125
2760.50515	567.4125
2763.08123	555.8125
2765.65573	563.4125
2768.22863	555.0125
2770.79994	544.5125
2773.36967	548.7125
2775.9378	543.3125
2778.50435	552.1125
2781.06932	551.9125
2783.6327	546.4125
2786.1945	578.1125
2788.75471	564.3125
2791.31335	572.4125
2793.87041	576.1125
2796.42589	566.6125
2798.97979	572.4125
2801.53212	589.8125
2804.08288	613.2125
2806.63206	611.3125
2809.17967	613.1125
2811.72571	645.6125
2814.27018	657.7125
2816.81308	672.2125
2819.35442	657.4125
2821.89419	697.6125
2824.43239	695.8125
2826.96904	728.8125
2829.50412	703.0125
2832.03763	705.7125
2834.56959	694.1125
2837.1	676.9125
2839.62884	677.1125
2842.15613	662.8125
2844.68186	672.1125
2847.20604	657.9125
2849.72867	656.9125
2852.24974	681.8125
2854.76927	662.5125
2857.28724	642.5125
2859.80367	715.2125
2862.31855	747.2125
2864.83189	747.3125
2867.34368	773.7125
2869.85393	798.4125
2872.36264	781.4125
2874.8698	800.3125
2877.37543	797.7125
2879.87952	783.4125
2882.38207	751.0125
2884.88308	745.9125
2887.38256	730.8125
2889.88051	715.4125
2892.37692	711.1125
2894.8718	687.4125
2897.36515	707.3125
2899.85698	710.5125
2902.34727	706.3125
2904.83604	721.3125
2907.32328	745.4125
2909.809	764.0125
2912.29319	782.6125
2914.77587	797.0125
2917.25702	801.9125
2919.73665	786.9125
2922.21476	776.6125
2924.69136	750.2125
2927.16644	715.8125
2929.64	704.0125
2932.11205	675.4125
2934.58258	675.8125
2937.05161	668.2125
2939.51912	667.9125
2941.98513	683.0125
2944.44962	666.1125
2946.91261	645.0125
2949.37409	665.2125
2951.83407	655.2125
2954.29254	663.6125
2956.74951	679.6125
2959.20498	660.8125
2961.65895	666.0125
2964.11142	661.1125
2966.56239	663.8125
2969.01186	653.2125
2971.45984	644.7125
2973.90632	633.7125
2976.35131	659.2125
2978.7948	655.1125
2981.23681	645.2125
2983.67732	653.5125
2986.11635	659.1125
2988.55388	634.3125
2990.98993	648.4125
2993.4245	645.3125
2995.85758	632.6125
2998.28917	654.7125
3000.71928	647.7125
3003.14791	657.6125
3005.57506	644.0125
3008.00073	638.9125
3010.42493	582.1125
3012.84764	641.2125
3015.26888	639.4125
3017.68865	639.5125
3020.10694	600.5125
3022.52376	612.6125
3024.9391	603.0125
3027.35298	594.9125
3029.76539	577.4125
3032.17632	567.1125
3034.5858	549.1125
3036.9938	551.1125
3039.40034	531.9125
3041.80542	511.4125
3044.20903	498.3125
3046.61118	481.9125
3049.01187	489.4125
3051.4111	481.2125
3053.80888	471.8125
3056.20519	471.7125
3058.60005	459.3125
3060.99345	486.5125
3063.3854	459.4125
3065.7759	450.5125
3068.16494	451.5125
3070.55254	439.7125
3072.93868	455.3125
3075.32338	449.0125
3077.70662	436.9125
3080.08842	436.3125
3082.46878	418.4125
3084.84769	442.0125
3087.22515	418.0125
3089.60118	433.6125
3091.97576	415.8125
3094.3489	430.9125
3096.72061	418.3125
3099.09087	404.3125
3101.4597	412.9125
3103.82709	404.6125
3106.19305	393.1125
3108.55757	406.1125
3110.92066	401.5125
3113.28232	414.1125
3115.64255	412.6125
3118.00134	422.2125
3120.35871	401.7125
3122.71466	394.4125
3125.06917	407.3125
3127.42226	401.3125
3129.77393	385.7125
3132.12417	403.8125
3134.47299	410.1125
3136.82039	399.9125
3139.16636	374.1125
3141.51092	405.1125
3143.85406	414.3125
3146.19579	394.5125
3148.53609	396.7125
3150.87499	406.8125
3153.21246	402.9125
3155.54853	412.8125
3157.88318	420.9125
