Data from AgNPs_UA_10uM_CRN_500uM_SU_RamanShift__125__13-26-10-278.txt Node

Date: Thu Aug 04 13:26:10 BST 2022
User: TCL
Spectrometer: QEP01345
Trigger mode: 4
Integration Time (sec): 1.000000E0
Scans to average: 10
Electric dark correction enabled: true
Nonlinearity correction enabled: false
Boxcar width: 0
XAxis mode: Raman Shifts
Number of Pixels in Spectrum: 1044
>>>>>Begin Spectral Data<<<<<
46.04893	0.125
50.45542	-0.175
54.85868	-0.075
59.25871	-0.275
63.6555	21.425
68.04907	20.525
72.43941	22.925
76.82654	23.125
81.21044	25.225
85.59113	23.125
89.96862	26.225
94.34289	25.425
98.71396	27.425
103.08183	27.925
107.4465	29.425
111.80798	31.325
116.16626	31.825
120.52136	33.325
124.87327	36.625
129.222	36.025
133.56755	38.325
137.90993	42.825
142.24913	47.925
146.58517	54.825
150.91804	64.225
155.24774	80.625
159.57429	101.525
163.89768	135.125
168.21792	175.825
172.53501	244.125
176.84895	345.025
181.15975	491.525
185.46741	686.525
189.77193	959.425
194.07331	1292.325
198.37157	1663.825
202.6667	2066.925
206.9587	2450.625
211.24758	2847.225
215.53334	3242.925
219.81599	3681.625
224.09553	4161.825
228.37195	4693.525
232.64527	5244.925
236.91549	5792.425
241.18261	6293.925
245.44663	6732.425
249.70755	7027.425
253.96539	7303.625
258.22014	7585.525
262.4718	7796.925
266.72039	7943.025
270.96589	7976.425
275.20832	7941.225
279.44768	7844.725
283.68397	7698.125
287.91719	7630.325
292.14735	7633.525
296.37445	7772.325
300.59849	8003.925
304.81948	8296.525
309.03742	8547.425
313.25231	8701.725
317.46415	8608.225
321.67296	8290.425
325.87872	7966.525
330.08145	7819.025
334.28114	7793.825
338.47781	7856.125
342.67145	8017.325
346.86207	8259.625
351.04966	8571.325
355.23424	8925.025
359.4158	9136.325
363.59435	9257.925
367.76989	9315.325
371.94243	9285.025
376.11196	9247.725
380.27849	9249.825
384.44203	9251.125
388.60257	9288.025
392.76012	9381.625
396.91468	9481.225
401.06626	9628.725
405.21485	9678.825
409.36047	9583.425
413.50311	9253.525
417.64277	8962.725
421.77947	8803.625
425.9132	8726.325
430.04396	8731.125
434.17176	8763.925
438.2966	8881.925
442.41849	9090.925
446.53742	9320.325
450.6534	9544.825
454.76644	9668.325
458.87653	9687.725
462.98368	9667.125
467.08789	9591.425
471.18916	9421.125
475.2875	9194.125
479.38291	9032.525
483.4754	8900.525
487.56496	8795.025
491.6516	8765.025
495.73531	8766.125
499.81612	8801.625
503.89401	8860.725
507.96899	8939.925
512.04106	8953.925
516.11023	9041.725
520.1765	9084.325
524.23987	9111.525
528.30034	9116.625
532.35792	9075.925
536.41261	9003.625
540.46441	8885.325
544.51333	8848.725
548.55936	8908.925
552.60252	9039.325
556.64279	9205.925
560.6802	9357.125
564.71473	9431.025
568.7464	9545.125
572.7752	9542.025
576.80114	9323.425
580.82422	9159.925
584.84444	9111.825
588.86181	9154.325
592.87633	9291.325
596.888	9461.625
600.89682	9885.925
604.9028	10986.325
608.90594	13325.925
612.90624	15531.525
616.90371	14236.425
620.89834	11102.225
624.89015	9837.025
628.87913	9758.525
632.86528	9858.925
636.84862	9875.125
640.82913	9593.925
644.80683	9207.425
648.78172	9003.725
652.75379	9032.825
656.72306	9332.025
660.68952	9622.425
664.65319	9563.025
668.61405	9400.325
672.57211	9446.925
676.52738	9437.125
680.47986	9246.125
684.42955	9063.325
688.37646	9025.625
692.32058	9124.625
696.26192	9301.825
700.20048	9484.325
704.13626	9491.625
708.06928	9357.225
711.99952	9245.525
715.927	9258.425
719.85171	9345.825
723.77365	9352.925
727.69284	9274.625
731.60928	9160.425
735.52295	9150.725
739.43388	9213.725
743.34206	9280.825
747.24749	9293.125
751.15017	9290.725
755.05012	9403.725
758.94733	9766.725
762.8418	10619.525
766.73354	11892.725
770.62254	12895.425
774.50882	13049.725
778.39237	12533.725
782.27321	11613.725
786.15132	10623.925
790.02671	9948.725
793.89938	9579.325
797.76935	9427.125
801.6366	9358.125
805.50115	9277.925
809.36299	9234.525
813.22213	9216.125
817.07857	9197.725
820.93231	9198.025
824.78336	9205.925
828.63172	9223.425
832.47738	9250.225
836.32036	9246.325
840.16066	9236.525
843.99827	9244.025
847.8332	9230.325
851.66546	9233.125
855.49504	9243.525
859.32195	9239.725
863.1462	9244.625
866.96777	9205.825
870.78668	9207.225
874.60293	9244.925
878.41652	9264.625
882.22745	9369.125
886.03573	9419.525
889.84136	9428.925
893.64433	9359.525
897.44466	9324.525
901.24235	9304.725
905.0374	9284.325
908.8298	9259.225
912.61957	9232.825
916.40671	9244.625
920.19121	9300.725
923.97308	9387.525
927.75233	9522.325
931.52895	9607.425
935.30295	9535.525
939.07433	9339.125
942.84309	9231.825
946.60924	9169.325
950.37278	9160.125
954.13371	9145.225
957.89203	9112.525
961.64774	9078.725
965.40086	9076.025
969.15137	9074.825
972.89929	9071.325
976.64461	9083.325
980.38733	9111.825
984.12747	9115.725
987.86502	9189.625
991.59999	9270.525
995.33237	9394.525
999.06217	9615.125
1002.78939	9829.125
1006.51404	9963.725
1010.23611	10121.925
1013.95561	10229.725
1017.67255	10252.825
1021.38692	10234.125
1025.09872	10219.725
1028.80796	10263.225
1032.51465	10431.625
1036.21877	10556.225
1039.92035	10540.025
1043.61937	10448.025
1047.31584	10298.425
1051.00976	10178.225
1054.70114	10112.425
1058.38998	10132.425
1062.07627	10154.225
1065.76003	10188.125
1069.44126	10273.525
1073.11995	10436.925
1076.79611	10607.025
1080.46974	10774.425
1084.14085	10868.925
1087.80943	10999.025
1091.47549	10996.325
1095.13903	10961.125
1098.80005	10887.825
1102.45857	10886.425
1106.11456	10860.925
1109.76805	10769.625
1113.41903	10797.825
1117.06751	10922.625
1120.71348	11160.625
1124.35696	11395.925
1127.99793	11549.225
1131.63641	11376.225
1135.2724	11026.025
1138.90589	10764.625
1142.5369	10576.725
1146.16542	10450.125
1149.79145	10373.825
1153.415	10288.025
1157.03607	10345.025
1160.65467	10411.625
1164.27079	10665.425
1167.88443	11057.525
1171.49561	11609.125
1175.10432	12478.825
1178.71056	13606.025
1182.31434	14571.825
1185.91565	14953.025
1189.51451	14845.525
1193.11091	14452.825
1196.70485	13941.925
1200.29634	13499.725
1203.88538	13011.625
1207.47197	12471.525
1211.05612	11996.625
1214.63782	11603.925
1218.21708	11385.225
1221.79391	11345.625
1225.36829	11370.725
1228.94024	11323.125
1232.50976	11244.525
1236.07685	11192.525
1239.6415	11212.525
1243.20374	11215.025
1246.76355	11321.425
1250.32093	11443.625
1253.8759	11682.525
1257.42845	11995.025
1260.97859	12346.125
1264.52631	12690.525
1268.07163	12970.225
1271.61453	13214.925
1275.15503	13331.525
1278.69312	13413.425
1282.22882	13555.625
1285.76211	13715.025
1289.29301	13913.725
1292.82151	14187.225
1296.34761	14491.625
1299.87133	15060.025
1303.39266	15976.525
1306.9116	17373.025
1310.42815	18802.725
1313.94233	19483.925
1317.45412	18888.725
1320.96354	17762.625
1324.47058	16627.225
1327.97525	15636.925
1331.47754	15067.225
1334.97747	14877.025
1338.47502	15038.725
1341.97022	15508.425
1345.46305	16215.425
1348.95352	17309.925
1352.44163	18488.525
1355.92738	19777.525
1359.41078	21430.125
1362.89183	22536.025
1366.37053	21443.225
1369.84688	18512.525
1373.32088	15925.525
1376.79254	14434.225
1380.26186	13749.025
1383.72883	13347.225
1387.19347	12995.625
1390.65578	12563.525
1394.11575	12214.725
1397.57339	11993.625
1401.0287	11901.125
1404.48168	11902.125
1407.93234	11997.225
1411.38068	12177.925
1414.82669	12327.525
1418.27039	12369.725
1421.71177	12308.825
1425.15083	12255.525
1428.58758	12213.125
1432.02203	12360.925
1435.45416	12476.125
1438.88399	12506.125
1442.31151	12441.525
1445.73673	12389.525
1449.15965	12379.525
1452.58027	12314.425
1455.9986	12222.325
1459.41463	12191.025
1462.82837	12266.625
1466.23982	12454.325
1469.64898	12687.325
1473.05586	12868.425
1476.46045	13027.925
1479.86276	13152.325
1483.26279	13318.725
1486.66054	13530.925
1490.05602	13906.425
1493.44922	14429.925
1496.84016	15281.025
1500.22882	16477.525
1503.61521	17967.425
1506.99934	19442.025
1510.38121	20367.425
1513.76081	20122.925
1517.13816	18712.825
1520.51324	16814.825
1523.88607	15288.925
1527.25665	14352.925
1530.62498	13860.425
1533.99105	13648.125
1537.35488	13509.825
1540.71647	13351.325
1544.07581	13244.725
1547.4329	13135.025
1550.78776	12999.525
1554.14038	12878.025
1557.49077	12871.725
1560.83892	13010.325
1564.18484	13301.225
1567.52853	13584.025
1570.86999	13760.525
1574.20922	13796.625
1577.54624	13572.625
1580.88103	13045.025
1584.2136	12478.125
1587.54395	12276.525
1590.87208	12497.025
1594.19801	13101.725
1597.52172	13809.725
1600.84321	14089.025
1604.16251	13936.325
1607.47959	13513.425
1610.79447	12936.025
1614.10715	12229.825
1617.41763	11556.225
1620.7259	11084.125
1624.03199	10849.025
1627.33587	10826.625
1630.63757	11038.325
1633.93707	11551.025
1637.23439	12383.725
1640.52951	13557.425
1643.82246	14994.125
1647.11321	16303.025
1650.40179	16715.225
1653.68819	15703.225
1656.97241	13814.325
1660.25446	12037.525
1663.53433	10861.825
1666.81203	10133.125
1670.08756	9705.725
1673.36092	9468.625
1676.63211	9312.125
1679.90115	9177.125
1683.16801	9089.425
1686.43272	8981.925
1689.69527	8936.525
1692.95567	8868.925
1696.2139	8844.525
1699.46999	8835.525
1702.72392	8788.725
1705.97571	8795.125
1709.22535	8812.325
1712.47284	8822.425
1715.71819	8810.825
1718.96139	8791.225
1722.20246	8772.025
1725.44139	8757.825
1728.67818	8690.325
1731.91284	8627.525
1735.14537	8595.125
1738.37576	8552.525
1741.60403	8513.525
1744.83017	8503.025
1748.05418	8496.925
1751.27607	8466.925
1754.49584	8466.525
1757.71349	8436.125
1760.92903	8450.425
1764.14244	8433.625
1767.35375	8412.725
1770.56294	8393.725
1773.77002	8360.625
1776.97499	8337.825
1780.17785	8312.125
1783.37861	8288.425
1786.57727	8298.125
1789.77382	8258.625
1792.96828	8265.325
1796.16064	8259.825
1799.3509	8260.025
1802.53907	8243.225
1805.72514	8239.325
1808.90913	8209.125
1812.09102	8170.925
1815.27083	8159.225
1818.44856	8146.225
1821.6242	8100.125
1824.79776	8086.825
1827.96924	8094.525
1831.13864	8072.125
1834.30597	8075.925
1837.47122	8063.325
1840.6344	8045.425
1843.7955	8033.425
1846.95454	8037.225
1850.11151	8001.225
1853.26642	8010.925
1856.41926	8022.125
1859.57004	8027.125
1862.71876	8017.925
1865.86542	8021.725
1869.01003	7999.525
1872.15258	7975.525
1875.29308	7977.325
1878.43152	7976.325
1881.56792	7963.125
1884.70227	7940.225
1887.83457	7909.025
1890.96482	7907.425
1894.09304	7893.225
1897.21921	7884.525
1900.34335	7889.025
1903.46544	7871.925
1906.58551	7867.725
1909.70353	7853.925
1912.81953	7864.525
1915.93349	7846.225
1919.04543	7824.825
1922.15534	7812.125
1925.26322	7820.525
1928.36908	7770.925
1931.47292	7776.625
1934.57473	7754.225
1937.67453	7746.225
1940.77232	7742.525
1943.86808	7695.025
1946.96184	7672.525
1950.05358	7659.925
1953.14331	7637.025
1956.23103	7590.325
1959.31675	7611.925
1962.40046	7573.525
1965.48217	7544.325
1968.56188	7502.125
1971.63959	7505.825
1974.7153	7489.325
1977.78901	7467.625
1980.86073	7465.625
1983.93046	7434.525
1986.99819	7398.025
1990.06394	7376.525
1993.1277	7338.425
1996.18947	7326.725
1999.24925	7306.425
2002.30706	7257.725
2005.36288	7231.425
2008.41672	7221.425
2011.46859	7200.025
2014.51848	7172.525
2017.56639	7155.625
2020.61233	7129.025
2023.6563	7116.325
2026.6983	7099.725
2029.73833	7090.025
2032.7764	7070.125
2035.8125	7064.825
2038.84664	7050.225
2041.87881	7018.925
2044.90903	7020.425
2047.93729	7012.425
2050.96359	6993.925
2053.98794	7007.825
2057.01034	6986.525
2060.03078	6971.525
2063.04927	6974.825
2066.06582	6967.325
2069.08042	6940.325
2072.09307	6943.125
2075.10378	6924.525
2078.11255	6930.625
2081.11938	6918.025
2084.12426	6900.825
2087.12722	6898.425
2090.12824	6903.625
2093.12732	6890.725
2096.12447	6910.725
2099.11969	6913.825
2102.11299	6913.925
2105.10435	6923.525
2108.09379	6899.725
2111.08131	6899.525
2114.0669	6936.625
2117.05057	6922.325
2120.03233	6928.625
2123.01216	6952.825
2125.99008	6943.825
2128.96609	6922.625
2131.94018	6940.625
2134.91236	6940.625
2137.88263	6923.925
2140.851	6928.925
2143.81746	6941.825
2146.78201	6947.325
2149.74466	6937.025
2152.7054	6936.325
2155.66425	6937.125
2158.6212	6925.825
2161.57625	6915.425
2164.52941	6922.725
2167.48067	6915.325
2170.43004	6894.225
2173.37752	6904.525
2176.32311	6905.725
2179.26681	6918.025
2182.20863	6891.725
2185.14856	6908.125
2188.08661	6903.125
2191.02278	6914.425
2193.95707	6925.725
2196.88948	6897.925
2199.82001	6900.625
2202.74867	6902.225
2205.67545	6906.625
2208.60037	6919.025
2211.52341	6874.925
2214.44458	6843.625
2217.36388	6846.525
2220.28132	6816.025
2223.1969	6799.625
2226.11061	6785.425
2229.02246	6775.625
2231.93245	6782.725
2234.84058	6761.425
2237.74686	6750.925
2240.65128	6723.325
2243.55385	6726.925
2246.45456	6704.725
2249.35343	6698.625
2252.25044	6710.525
2255.14561	6701.225
2258.03893	6690.025
2260.93041	6690.225
2263.82004	6675.025
2266.70783	6660.625
2269.59378	6636.125
2272.4779	6598.825
2275.36017	6586.825
2278.24061	6601.925
2281.11922	6572.925
2283.996	6550.225
2286.87094	6553.125
2289.74405	6525.925
2292.61534	6544.025
2295.4848	6501.925
2298.35243	6509.225
2301.21824	6512.825
2304.08223	6515.125
2306.94439	6496.125
2309.80474	6512.225
2312.66327	6500.725
2315.51999	6504.925
2318.37489	6508.225
2321.22797	6500.025
2324.07925	6479.025
2326.92871	6457.425
2329.77637	6440.625
2332.62222	6449.425
2335.46626	6442.325
2338.3085	6423.025
2341.14893	6431.125
2343.98756	6458.125
2346.8244	6443.325
2349.65943	6429.225
2352.49267	6411.725
2355.32411	6433.525
2358.15376	6414.325
2360.98161	6408.625
2363.80768	6422.125
2366.63195	6424.425
2369.45444	6408.725
2372.27514	6391.325
2375.09405	6383.925
2377.91118	6349.525
2380.72652	6343.525
2383.54009	6341.925
2386.35187	6320.225
2389.16188	6307.825
2391.97011	6271.625
2394.77657	6273.825
2397.58125	6266.625
2400.38416	6262.325
2403.18529	6253.325
2405.98466	6243.925
2408.78226	6212.925
2411.57809	6214.825
2414.37216	6191.125
2417.16446	6193.525
2419.955	6180.925
2422.74378	6172.325
2425.5308	6182.425
2428.31606	6176.125
2431.09956	6170.925
2433.88131	6155.525
2436.6613	6143.325
2439.43954	6131.325
2442.21603	6135.025
2444.99077	6142.325
2447.76377	6127.825
2450.53501	6122.625
2453.30451	6130.725
2456.07226	6108.125
2458.83827	6116.125
2461.60254	6110.125
2464.36507	6094.125
2467.12586	6084.425
2469.88492	6079.825
2472.64224	6076.125
2475.39782	6092.625
2478.15167	6092.425
2480.90379	6069.325
2483.65417	6051.225
2486.40283	6082.525
2489.14976	6102.225
2491.89497	6081.825
2494.63845	6087.525
2497.3802	6067.625
2500.12024	6054.125
2502.85855	6051.725
2505.59514	6054.925
2508.33002	6038.725
2511.06318	6015.825
2513.79462	6009.925
2516.52435	5989.625
2519.25237	5984.625
2521.97867	5967.225
2524.70327	5982.625
2527.42616	5966.025
2530.14734	5949.125
2532.86681	5937.725
2535.58458	5968.025
2538.30065	5977.225
2541.01501	5957.825
2543.72768	5948.325
2546.43864	5959.825
2549.14791	5931.825
2551.85548	5930.925
2554.56136	5913.325
2557.26554	5910.825
2559.96803	5893.125
2562.66883	5885.425
2565.36794	5858.925
2568.06536	5854.525
2570.7611	5839.525
2573.45514	5842.525
2576.14751	5831.325
2578.83819	5822.025
2581.52719	5811.525
2584.21451	5811.225
2586.90015	5809.825
2589.58411	5800.325
2592.2664	5786.025
2594.94701	5783.925
2597.62594	5776.825
2600.30321	5773.925
2602.9788	5769.325
2605.65273	5773.225
2608.32498	5759.025
2610.99557	5742.325
2613.66449	5748.225
2616.33175	5733.725
2618.99734	5746.225
2621.66128	5716.125
2624.32355	5723.425
2626.98416	5721.425
2629.64311	5702.725
2632.30041	5702.125
2634.95605	5691.425
2637.61004	5679.425
2640.26238	5681.425
2642.91306	5676.225
2645.56209	5673.725
2648.20948	5680.825
2650.85521	5658.525
2653.4993	5647.625
2656.14175	5660.425
2658.78255	5635.225
2661.42171	5650.725
2664.05923	5644.525
2666.6951	5641.225
2669.32934	5663.825
2671.96194	5684.125
2674.59291	5676.425
2677.22224	5677.925
2679.84993	5652.725
2682.476	5661.725
2685.10043	5658.425
2687.72324	5669.725
2690.34441	5646.625
2692.96396	5641.925
2695.58188	5631.125
2698.19818	5616.025
2700.81285	5607.025
2703.4259	5600.425
2706.03733	5615.825
2708.64714	5590.025
2711.25533	5586.025
2713.86191	5597.025
2716.46687	5619.125
2719.07021	5610.925
2721.67194	5625.625
2724.27206	5602.025
2726.87057	5603.225
2729.46747	5595.825
2732.06276	5602.525
2734.65644	5605.425
2737.24852	5574.925
2739.83899	5564.625
2742.42786	5574.325
2745.01513	5544.825
2747.60079	5551.725
2750.18486	5537.425
2752.76733	5542.125
2755.3482	5528.125
2757.92747	5518.525
2760.50515	5506.225
2763.08123	5508.125
2765.65573	5497.825
2768.22863	5479.625
2770.79994	5483.925
2773.36967	5468.225
2775.9378	5474.025
2778.50435	5471.225
2781.06932	5463.525
2783.6327	5462.125
2786.1945	5473.825
2788.75471	5462.825
2791.31335	5442.625
2793.87041	5420.225
2796.42589	5417.325
2798.97979	5412.925
2801.53212	5383.025
2804.08288	5377.025
2806.63206	5354.225
2809.17967	5363.225
2811.72571	5347.925
2814.27018	5371.625
2816.81308	5338.025
2819.35442	5349.825
2821.89419	5307.325
2824.43239	5302.725
2826.96904	5304.225
2829.50412	5310.925
2832.03763	5287.625
2834.56959	5274.025
2837.1	5265.825
2839.62884	5237.425
2842.15613	5238.825
2844.68186	5267.025
2847.20604	5240.025
2849.72867	5254.825
2852.24974	5224.425
2854.76927	5212.525
2857.28724	5212.325
2859.80367	5204.825
2862.31855	5199.525
2864.83189	5210.225
2867.34368	5208.425
2869.85393	5199.425
2872.36264	5177.025
2874.8698	5179.325
2877.37543	5178.925
2879.87952	5172.725
2882.38207	5178.025
2884.88308	5174.625
2887.38256	5186.325
2889.88051	5155.525
2892.37692	5145.225
2894.8718	5147.725
2897.36515	5164.225
2899.85698	5150.825
2902.34727	5159.525
2904.83604	5158.125
2907.32328	5183.525
2909.809	5167.425
2912.29319	5170.425
2914.77587	5193.525
2917.25702	5191.625
2919.73665	5183.425
2922.21476	5173.825
2924.69136	5159.925
2927.16644	5165.525
2929.64	5129.425
2932.11205	5122.825
2934.58258	5103.225
2937.05161	5113.325
2939.51912	5112.325
2941.98513	5095.925
2944.44962	5106.425
2946.91261	5079.225
2949.37409	5092.125
2951.83407	5096.825
2954.29254	5101.225
2956.74951	5084.225
2959.20498	5093.925
2961.65895	5085.925
2964.11142	5069.625
2966.56239	5052.825
2969.01186	5061.625
2971.45984	5054.125
2973.90632	5042.025
2976.35131	5040.025
2978.7948	5037.625
2981.23681	5018.225
2983.67732	5020.325
2986.11635	4978.725
2988.55388	4977.025
2990.98993	4969.625
2993.4245	4959.425
2995.85758	4944.525
2998.28917	4930.825
3000.71928	4924.525
3003.14791	4910.525
3005.57506	4897.025
3008.00073	4885.325
3010.42493	4863.825
3012.84764	4867.425
3015.26888	4857.025
3017.68865	4852.325
3020.10694	4856.925
3022.52376	4824.625
3024.9391	4821.125
3027.35298	4787.525
3029.76539	4773.225
3032.17632	4778.125
3034.5858	4773.725
3036.9938	4763.225
3039.40034	4753.525
3041.80542	4744.925
3044.20903	4738.925
3046.61118	4741.325
3049.01187	4726.225
3051.4111	4698.925
3053.80888	4697.625
3056.20519	4689.925
3058.60005	4665.325
3060.99345	4667.425
3063.3854	4651.825
3065.7759	4656.725
3068.16494	4617.425
3070.55254	4600.025
3072.93868	4581.525
3075.32338	4575.025
3077.70662	4580.525
3080.08842	4563.125
3082.46878	4567.425
3084.84769	4544.925
3087.22515	4539.525
3089.60118	4536.225
3091.97576	4546.625
3094.3489	4525.725
3096.72061	4523.725
3099.09087	4522.125
3101.4597	4513.125
3103.82709	4527.725
3106.19305	4510.425
3108.55757	4516.525
3110.92066	4496.325
3113.28232	4491.325
3115.64255	4475.525
3118.00134	4472.725
3120.35871	4457.225
3122.71466	4444.225
3125.06917	4443.225
3127.42226	4421.525
3129.77393	4426.825
3132.12417	4411.325
3134.47299	4398.025
3136.82039	4399.225
3139.16636	4402.325
3141.51092	4402.225
3143.85406	4403.025
3146.19579	4382.425
3148.53609	4394.425
3150.87499	4383.725
3153.21246	4376.125
3155.54853	4376.225
3157.88318	4384.725
3160.21642	4392.025
3162.54826	4368.725
3164.87868	4359.225
3167.2077	4351.925
3169.5353	4362.225
3171.86151	4351.225
3174.18631	4345.725
3176.5097	4337.325
3178.83169	4315.925
3181.15228	4332.725
3183.47147	4297.625
3185.78926	4292.625
3188.10565	4279.925
3190.42065	4266.825
3192.73424	4280.425
3195.04645	4264.825
3197.35725	4266.825
3199.66667	4272.825
3201.97469	4260.825
3204.28132	4251.325
3206.58656	4263.525
3208.8904	4264.525
3211.19287	4260.825
3213.49394	4273.425
3215.79363	4258.025
