Data from AgNPs_UA_5uM_CRN_500uM_SU_RamanShift__171__11-57-53-173.txt Node

Date: Thu Aug 04 11:57:53 BST 2022
User: TCL
Spectrometer: QEP01345
Trigger mode: 4
Integration Time (sec): 1.000000E0
Scans to average: 10
Electric dark correction enabled: true
Nonlinearity correction enabled: false
Boxcar width: 0
XAxis mode: Raman Shifts
Number of Pixels in Spectrum: 1044
>>>>>Begin Spectral Data<<<<<
46.04893	-0.7
50.45542	0.4
54.85868	0.2
59.25871	-1
63.6555	-57
68.04907	-38.6
72.43941	-70.4
76.82654	-55.7
81.21044	-55
85.59113	-48.9
89.96862	-76.1
94.34289	-54.3
98.71396	-79.8
103.08183	-57.4
107.4465	-48.1
111.80798	-54.8
116.16626	-44.3
120.52136	-76.2
124.87327	-50.5
129.222	-61.5
133.56755	-50.6
137.90993	-63.7
142.24913	-52.2
146.58517	-43.6
150.91804	-40.5
155.24774	-30.1
159.57429	-11.6
163.89768	-5.5
168.21792	38
172.53501	56.4
176.84895	141.4
181.15975	268.8
185.46741	421.4
189.77193	601.8
194.07331	886.2
198.37157	1177.1
202.6667	1451.4
206.9587	1781.2
211.24758	2087.8
215.53334	2415.7
219.81599	2772
224.09553	3176.1
228.37195	3607.6
232.64527	4064.6
236.91549	4524.6
241.18261	4882.4
245.44663	5164.9
249.70755	5357.4
253.96539	5476.5
258.22014	5594.8
262.4718	5652.3
266.72039	5686.1
270.96589	5652.3
275.20832	5563.2
279.44768	5451.3
283.68397	5341.1
287.91719	5295.9
292.14735	5301.2
296.37445	5473.7
300.59849	5758.5
304.81948	6088.9
309.03742	6443.8
313.25231	6686.4
317.46415	6622.5
321.67296	6229.4
325.87872	5855.3
330.08145	5650.6
334.28114	5625.5
338.47781	5675.4
342.67145	5815
346.86207	6055.7
351.04966	6434.7
355.23424	6821.4
359.4158	7082
363.59435	7129.3
367.76989	7062.2
371.94243	6949.9
376.11196	6817.2
380.27849	6742.2
384.44203	6652.9
388.60257	6622.1
392.76012	6643.7
396.91468	6749.8
401.06626	6893.3
405.21485	6938.6
409.36047	6801.5
413.50311	6489.5
417.64277	6178.5
421.77947	5987.3
425.9132	5915.7
430.04396	5914.7
434.17176	5952.5
438.2966	6045.5
442.41849	6147.8
446.53742	6270.1
450.6534	6363.8
454.76644	6414.3
458.87653	6431.2
462.98368	6407.9
467.08789	6340.5
471.18916	6259.2
475.2875	6139.5
479.38291	6043.1
483.4754	5951.7
487.56496	5920.7
491.6516	5872.2
495.73531	5875
499.81612	5898.9
503.89401	5982.7
507.96899	6030.9
512.04106	6146.7
516.11023	6246.4
520.1765	6327.5
524.23987	6374.1
528.30034	6339.6
532.35792	6275.8
536.41261	6231.3
540.46441	6131.9
544.51333	6086.5
548.55936	6115.3
552.60252	6243.4
556.64279	6350.7
560.6802	6477
564.71473	6612.7
568.7464	6805.1
572.7752	6754.9
576.80114	6441.4
580.82422	6207.3
584.84444	6125
588.86181	6090.5
592.87633	6121.6
596.888	6253.5
600.89682	6616.6
604.9028	7548.7
608.90594	9610
612.90624	11903.2
616.90371	11057.2
620.89834	8050.6
624.89015	6765.9
628.87913	6571.2
632.86528	6712.4
636.84862	6884
640.82913	6752.1
644.80683	6428.2
648.78172	6222.7
652.75379	6262.8
656.72306	6483.7
660.68952	6727
664.65319	6651.5
668.61405	6412.9
672.57211	6345.4
676.52738	6332.6
680.47986	6236.9
684.42955	6171
688.37646	6107.7
692.32058	6141.5
696.26192	6185.2
700.20048	6277.6
704.13626	6350
708.06928	6286.5
711.99952	6264.9
715.927	6242.3
719.85171	6271.6
723.77365	6318.6
727.69284	6294.4
731.60928	6277.7
735.52295	6268.3
739.43388	6296.4
743.34206	6335.1
747.24749	6321.1
751.15017	6357.3
755.05012	6401.6
758.94733	6794
762.8418	7620.1
766.73354	8887.6
770.62254	9855
774.50882	9935.3
778.39237	9447.7
782.27321	8557.5
786.15132	7556.7
790.02671	6872.9
793.89938	6500.6
797.76935	6388.8
801.6366	6300
805.50115	6262
809.36299	6252.1
813.22213	6241.4
817.07857	6254.5
820.93231	6244.7
824.78336	6273.8
828.63172	6299.4
832.47738	6283.8
836.32036	6316.6
840.16066	6276.4
843.99827	6264.1
847.8332	6236.1
851.66546	6283.1
855.49504	6249.6
859.32195	6302.2
863.1462	6281.7
866.96777	6286.7
870.78668	6268.9
874.60293	6315.6
878.41652	6321.1
882.22745	6391.7
886.03573	6420.2
889.84136	6416.5
893.64433	6410
897.44466	6419.4
901.24235	6412.5
905.0374	6392.2
908.8298	6332.5
912.61957	6317.2
916.40671	6253.2
920.19121	6317.3
923.97308	6396
927.75233	6459.7
931.52895	6539
935.30295	6509.9
939.07433	6338.8
942.84309	6228.8
946.60924	6216.1
950.37278	6176.9
954.13371	6154
957.89203	6162.6
961.64774	6191.3
965.40086	6165.9
969.15137	6141.3
972.89929	6179.8
976.64461	6156.8
980.38733	6187.4
984.12747	6185
987.86502	6206.5
991.59999	6230.8
995.33237	6299.4
999.06217	6376.1
1002.78939	6451.8
1006.51404	6597.2
1010.23611	6692.4
1013.95561	6743.9
1017.67255	6754.9
1021.38692	6718.1
1025.09872	6664.5
1028.80796	6554.5
1032.51465	6579.9
1036.21877	6573.1
1039.92035	6627.4
1043.61937	6622.9
1047.31584	6694
1051.00976	6734
1054.70114	6707.8
1058.38998	6721.7
1062.07627	6714.8
1065.76003	6766.4
1069.44126	6842.5
1073.11995	6907.9
1076.79611	7035
1080.46974	7185.2
1084.14085	7348.9
1087.80943	7466.9
1091.47549	7518.7
1095.13903	7411.8
1098.80005	7307.1
1102.45857	7227.1
1106.11456	7180.6
1109.76805	7123.3
1113.41903	7241.9
1117.06751	7404.4
1120.71348	7666
1124.35696	8016.8
1127.99793	8279.2
1131.63641	8137.5
1135.2724	7746.4
1138.90589	7460.8
1142.5369	7274.9
1146.16542	7176.5
1149.79145	7050.7
1153.415	7017.8
1157.03607	7000.6
1160.65467	7062.5
1164.27079	7272.3
1167.88443	7526.1
1171.49561	7921.8
1175.10432	8500.8
1178.71056	9381.3
1182.31434	10145.2
1185.91565	10390.9
1189.51451	10249.2
1193.11091	9998.6
1196.70485	9754
1200.29634	9544.7
1203.88538	9297.7
1207.47197	8861.5
1211.05612	8427.5
1214.63782	8036.1
1218.21708	7788.1
1221.79391	7659.8
1225.36829	7567.7
1228.94024	7542.2
1232.50976	7554.7
1236.07685	7595.5
1239.6415	7629.2
1243.20374	7649.5
1246.76355	7683.7
1250.32093	7773.8
1253.8759	7824.8
1257.42845	8022.1
1260.97859	8217.8
1264.52631	8416.7
1268.07163	8564
1271.61453	8697.7
1275.15503	8754.5
1278.69312	8751.6
1282.22882	8818.9
1285.76211	9011.5
1289.29301	9241.8
1292.82151	9513.5
1296.34761	9728.6
1299.87133	10102.2
1303.39266	10801
1306.9116	11904.9
1310.42815	13108
1313.94233	13524.9
1317.45412	12752.3
1320.96354	11618.7
1324.47058	10660.6
1327.97525	9934.6
1331.47754	9548.2
1334.97747	9444.4
1338.47502	9544.6
1341.97022	9922.3
1345.46305	10624.1
1348.95352	11640
1352.44163	12872.7
1355.92738	14154.6
1359.41078	15764.1
1362.89183	17196.1
1366.37053	16567.5
1369.84688	13810.5
1373.32088	11226.9
1376.79254	9906.1
1380.26186	9292.6
1383.72883	8920.7
1387.19347	8496.6
1390.65578	8173
1394.11575	7951.5
1397.57339	7787.9
1401.0287	7687.2
1404.48168	7673
1407.93234	7667.8
1411.38068	7691.4
1414.82669	7776.6
1418.27039	7858.7
1421.71177	7862.2
1425.15083	7755.2
1428.58758	7677.5
1432.02203	7677.4
1435.45416	7784.6
1438.88399	7795.9
1442.31151	7798.5
1445.73673	7848.1
1449.15965	7886
1452.58027	7913.3
1455.9986	7916.7
1459.41463	7923.1
1462.82837	8006.2
1466.23982	8182.5
1469.64898	8402
1473.05586	8527
1476.46045	8632.9
1479.86276	8690.8
1483.26279	8759.4
1486.66054	8923
1490.05602	9222
1493.44922	9718
1496.84016	10578.9
1500.22882	11888.7
1503.61521	13547.3
1506.99934	15282.1
1510.38121	16410.8
1513.76081	16323.7
1517.13816	14823.9
1520.51324	12773.8
1523.88607	11117.2
1527.25665	10148.3
1530.62498	9634.9
1533.99105	9429.6
1537.35488	9313.7
1540.71647	9249.2
1544.07581	9125.5
1547.4329	9028.8
1550.78776	8900.7
1554.14038	8817
1557.49077	8809.2
1560.83892	8871.2
1564.18484	9099.5
1567.52853	9404.3
1570.86999	9697.7
1574.20922	9842.8
1577.54624	9738
1580.88103	9240.1
1584.2136	8581.1
1587.54395	8233.4
1590.87208	8180.3
1594.19801	8352.1
1597.52172	8700.4
1600.84321	8844.2
1604.16251	8720.7
1607.47959	8541.9
1610.79447	8347.5
1614.10715	8060.2
1617.41763	7769.4
1620.7259	7495.2
1624.03199	7365.7
1627.33587	7308.8
1630.63757	7354.3
1633.93707	7583.5
1637.23439	7990
1640.52951	8645.6
1643.82246	9607.2
1647.11321	10728.4
1650.40179	11403.7
1653.68819	11048.5
1656.97241	9836.1
1660.25446	8522.9
1663.53433	7557.2
1666.81203	6957.8
1670.08756	6623.9
1673.36092	6443.5
1676.63211	6317
1679.90115	6245.3
1683.16801	6153.8
1686.43272	6065.9
1689.69527	6017.5
1692.95567	5960.4
1696.2139	5939.2
1699.46999	5880.4
1702.72392	5901.9
1705.97571	5885.9
1709.22535	5869
1712.47284	5915.1
1715.71819	5921.1
1718.96139	5917.2
1722.20246	5896.3
1725.44139	5863
1728.67818	5855.9
1731.91284	5779.4
1735.14537	5757.9
1738.37576	5732.7
1741.60403	5714.2
1744.83017	5693.7
1748.05418	5708.9
1751.27607	5715.7
1754.49584	5673.8
1757.71349	5620
1760.92903	5631.2
1764.14244	5592.1
1767.35375	5593.2
1770.56294	5587.4
1773.77002	5563.4
1776.97499	5567.7
1780.17785	5551.9
1783.37861	5542.2
1786.57727	5548.1
1789.77382	5490.2
1792.96828	5505.2
1796.16064	5523.5
1799.3509	5507.5
1802.53907	5505.2
1805.72514	5470.1
1808.90913	5435.5
1812.09102	5464.2
1815.27083	5436.7
1818.44856	5418.6
1821.6242	5409.5
1824.79776	5412
1827.96924	5391.8
1831.13864	5382.6
1834.30597	5382.4
1837.47122	5355.9
1840.6344	5359.8
1843.7955	5320.5
1846.95454	5314.6
1850.11151	5347.8
1853.26642	5290.9
1856.41926	5321.4
1859.57004	5322.4
1862.71876	5313.1
1865.86542	5303.5
1869.01003	5301.1
1872.15258	5275.7
1875.29308	5287.7
1878.43152	5293.1
1881.56792	5262
1884.70227	5235
1887.83457	5256.6
1890.96482	5218.3
1894.09304	5244.2
1897.21921	5226
1900.34335	5223.5
1903.46544	5204.9
1906.58551	5226.9
1909.70353	5215.4
1912.81953	5195.8
1915.93349	5194.8
1919.04543	5171.7
1922.15534	5157
1925.26322	5161.6
1928.36908	5157.2
1931.47292	5146.1
1934.57473	5140.1
1937.67453	5116.4
1940.77232	5081.5
1943.86808	5090.2
1946.96184	5081.5
1950.05358	5049
1953.14331	5035.5
1956.23103	5030.3
1959.31675	5006
1962.40046	4972.7
1965.48217	4994.5
1968.56188	4972.2
1971.63959	4944.9
1974.7153	4947.8
1977.78901	4936.2
1980.86073	4930.8
1983.93046	4892.8
1986.99819	4804.8
1990.06394	4816.9
1993.1277	4844.4
1996.18947	4825.6
1999.24925	4782.4
2002.30706	4784
2005.36288	4773.1
2008.41672	4763.5
2011.46859	4731.4
2014.51848	4722.9
2017.56639	4707.7
2020.61233	4680.5
2023.6563	4677
2026.6983	4642.2
2029.73833	4631
2032.7764	4651.8
2035.8125	4605.5
2038.84664	4603.9
2041.87881	4597.7
2044.90903	4602.3
2047.93729	4595.8
2050.96359	4544.3
2053.98794	4577.1
2057.01034	4578.8
2060.03078	4540.5
2063.04927	4524.8
2066.06582	4546.1
2069.08042	4527.4
2072.09307	4536.7
2075.10378	4530.3
2078.11255	4530.8
2081.11938	4531.6
2084.12426	4507.6
2087.12722	4517.3
2090.12824	4511.4
2093.12732	4507.3
2096.12447	4525.5
2099.11969	4512.7
2102.11299	4513.9
2105.10435	4526.2
2108.09379	4529.8
2111.08131	4506.6
2114.0669	4522.9
2117.05057	4528.8
2120.03233	4486.4
2123.01216	4528.2
2125.99008	4523
2128.96609	4528.1
2131.94018	4531.6
2134.91236	4513.1
2137.88263	4513.9
2140.851	4523.2
2143.81746	4532.6
2146.78201	4527.5
2149.74466	4504.5
2152.7054	4527
2155.66425	4493.3
2158.6212	4487.7
2161.57625	4480
2164.52941	4464
2167.48067	4484.8
2170.43004	4477.9
2173.37752	4486.4
2176.32311	4474.3
2179.26681	4469.7
2182.20863	4495.2
2185.14856	4492.8
2188.08661	4476.9
2191.02278	4485.1
2193.95707	4455.9
2196.88948	4452.1
2199.82001	4469.6
2202.74867	4443.7
2205.67545	4442.7
2208.60037	4447.2
2211.52341	4435.8
2214.44458	4419.6
2217.36388	4409.7
2220.28132	4378.9
2223.1969	4381.5
2226.11061	4380.6
2229.02246	4361.8
2231.93245	4357
2234.84058	4354
2237.74686	4342.3
2240.65128	4326.6
2243.55385	4327.6
2246.45456	4292.7
2249.35343	4329
2252.25044	4303.8
2255.14561	4315.9
2258.03893	4321.2
2260.93041	4296.7
2263.82004	4286.9
2266.70783	4279.5
2269.59378	4263.6
2272.4779	4237
2275.36017	4251.8
2278.24061	4230.5
2281.11922	4206.6
2283.996	4217.8
2286.87094	4195.1
2289.74405	4197
2292.61534	4182.7
2295.4848	4182.2
2298.35243	4159.3
2301.21824	4168.3
2304.08223	4151.1
2306.94439	4180.3
2309.80474	4169.2
2312.66327	4161.1
2315.51999	4144.5
2318.37489	4143.3
2321.22797	4112
2324.07925	4107.3
2326.92871	4108.4
2329.77637	4094.4
2332.62222	4091.1
2335.46626	4062.8
2338.3085	4066.8
2341.14893	4071.2
2343.98756	4087
2346.8244	4050.7
2349.65943	4054.2
2352.49267	4052.6
2355.32411	4048.3
2358.15376	4055.1
2360.98161	4055.7
2363.80768	4027
2366.63195	4034.2
2369.45444	4052.6
2372.27514	4037.6
2375.09405	4050
2377.91118	4026.6
2380.72652	4003.8
2383.54009	3983.8
2386.35187	4019.7
2389.16188	3975.2
2391.97011	3968.5
2394.77657	3967.9
2397.58125	3972.2
2400.38416	3956
2403.18529	3932.6
2405.98466	3911.8
2408.78226	3927.7
2411.57809	3913.2
2414.37216	3899.1
2417.16446	3896.5
2419.955	3878.6
2422.74378	3897.7
2425.5308	3887.2
2428.31606	3875.2
2431.09956	3888.2
2433.88131	3871.3
2436.6613	3865.8
2439.43954	3873.4
2442.21603	3871.2
2444.99077	3844.9
2447.76377	3858.5
2450.53501	3851.5
2453.30451	3839.7
2456.07226	3844.1
2458.83827	3837.9
2461.60254	3781
2464.36507	3833.7
2467.12586	3793.9
2469.88492	3814.9
2472.64224	3802.7
2475.39782	3781.1
2478.15167	3810.8
2480.90379	3791.1
2483.65417	3790.6
2486.40283	3806.7
2489.14976	3814.4
2491.89497	3791.2
2494.63845	3801.7
2497.3802	3781
2500.12024	3802.9
2502.85855	3779.7
2505.59514	3767.1
2508.33002	3760.4
2511.06318	3742.3
2513.79462	3754.4
2516.52435	3710.2
2519.25237	3672.5
2521.97867	3688.2
2524.70327	3702.1
2527.42616	3683
2530.14734	3703.7
2532.86681	3677.2
2535.58458	3662.5
2538.30065	3664.8
2541.01501	3692.4
2543.72768	3665.3
2546.43864	3661
2549.14791	3642.5
2551.85548	3630.8
2554.56136	3635.9
2557.26554	3640.7
2559.96803	3628
2562.66883	3636.7
2565.36794	3610.4
2568.06536	3569.2
2570.7611	3599.4
2573.45514	3569.1
2576.14751	3593.4
2578.83819	3560.9
2581.52719	3534.3
2584.21451	3550.6
2586.90015	3524.5
2589.58411	3530
2592.2664	3523.5
2594.94701	3504.1
2597.62594	3497.3
2600.30321	3463.1
2602.9788	3484.5
2605.65273	3464.7
2608.32498	3469.5
2610.99557	3487.1
2613.66449	3461.9
2616.33175	3472.8
2618.99734	3469.3
2621.66128	3460.5
2624.32355	3437.5
2626.98416	3437
2629.64311	3427.4
2632.30041	3420.6
2634.95605	3410.5
2637.61004	3401.3
2640.26238	3382.9
2642.91306	3388.6
2645.56209	3407.8
2648.20948	3403
2650.85521	3371.5
2653.4993	3388.9
2656.14175	3386.5
2658.78255	3366.7
2661.42171	3341.8
2664.05923	3389.2
2666.6951	3396.4
2669.32934	3397.8
2671.96194	3403.9
2674.59291	3383.1
2677.22224	3384.7
2679.84993	3391.8
2682.476	3372.6
2685.10043	3376.5
2687.72324	3359.7
2690.34441	3356.4
2692.96396	3358.3
2695.58188	3376.3
2698.19818	3364.2
2700.81285	3359.4
2703.4259	3340.9
2706.03733	3307.6
2708.64714	3321.8
2711.25533	3328.7
2713.86191	3340.3
2716.46687	3342.6
2719.07021	3341.9
2721.67194	3353.4
2724.27206	3365.5
2726.87057	3342.8
2729.46747	3329.8
2732.06276	3335.4
2734.65644	3315.1
2737.24852	3321.5
2739.83899	3302
2742.42786	3307
2745.01513	3322.4
2747.60079	3303
2750.18486	3285.5
2752.76733	3286.8
2755.3482	3271.7
2757.92747	3271
2760.50515	3257.5
2763.08123	3252.7
2765.65573	3248.8
2768.22863	3245.7
2770.79994	3229.1
2773.36967	3231.5
2775.9378	3223.5
2778.50435	3217.4
2781.06932	3218.4
2783.6327	3207.5
2786.1945	3223.3
2788.75471	3200.8
2791.31335	3196.9
2793.87041	3200.3
2796.42589	3159.8
2798.97979	3157.7
2801.53212	3160.4
2804.08288	3182.3
2806.63206	3155.4
2809.17967	3145.9
2811.72571	3155.1
2814.27018	3137
2816.81308	3127.8
2819.35442	3093.6
2821.89419	3127.9
2824.43239	3100.2
2826.96904	3110.8
2829.50412	3100.7
2832.03763	3093.8
2834.56959	3106.6
2837.1	3085.8
2839.62884	3087.7
2842.15613	3095.2
2844.68186	3098.8
2847.20604	3058.3
2849.72867	3056.6
2852.24974	3064.7
2854.76927	3031.5
2857.28724	3000.8
2859.80367	3059.7
2862.31855	3047.5
2864.83189	3043.3
2867.34368	3048.4
2869.85393	3057.1
2872.36264	3028.1
2874.8698	3024.8
2877.37543	3016.6
2879.87952	3027.5
2882.38207	3004.1
2884.88308	3006.2
2887.38256	3015.1
2889.88051	3003.3
2892.37692	3011.6
2894.8718	2979.2
2897.36515	3008
2899.85698	3003.8
2902.34727	3006.1
2904.83604	2992
2907.32328	3013.6
2909.809	2997.5
2912.29319	3003
2914.77587	3009.3
2917.25702	3034
2919.73665	3021.6
2922.21476	3026
2924.69136	3022.2
2927.16644	3016.1
2929.64	3010.4
2932.11205	2993.4
2934.58258	2999.1
2937.05161	2982.5
2939.51912	2978
2941.98513	2997.2
2944.44962	2973.9
2946.91261	2935.8
2949.37409	2960.9
2951.83407	2953.6
2954.29254	2949.7
2956.74951	2951.1
2959.20498	2933.3
2961.65895	2924.2
2964.11142	2929
2966.56239	2916.1
2969.01186	2913.7
2971.45984	2918.3
2973.90632	2913.1
2976.35131	2912.5
2978.7948	2903.9
2981.23681	2896.6
2983.67732	2891.8
2986.11635	2892.6
2988.55388	2856.2
2990.98993	2872.2
2993.4245	2856.1
2995.85758	2837.6
2998.28917	2841
3000.71928	2834.2
3003.14791	2840
3005.57506	2813.4
3008.00073	2808.4
3010.42493	2746.4
3012.84764	2798.7
3015.26888	2799.2
3017.68865	2786.8
3020.10694	2720.6
3022.52376	2753.9
3024.9391	2756
3027.35298	2748.6
3029.76539	2736.9
3032.17632	2736.2
3034.5858	2739.5
3036.9938	2724.5
3039.40034	2720.9
3041.80542	2699.9
3044.20903	2703
3046.61118	2692.5
3049.01187	2683.5
3051.4111	2682.6
3053.80888	2668
3056.20519	2655.1
3058.60005	2633.6
3060.99345	2674.8
3063.3854	2646.4
3065.7759	2632
3068.16494	2623.7
3070.55254	2608.3
3072.93868	2634
3075.32338	2605.3
3077.70662	2602.5
3080.08842	2596.5
3082.46878	2578.8
3084.84769	2608.7
3087.22515	2578
3089.60118	2581.9
3091.97576	2571.3
3094.3489	2587.7
3096.72061	2572.3
3099.09087	2558.5
3101.4597	2570.3
3103.82709	2570.5
3106.19305	2547.9
3108.55757	2550.4
3110.92066	2547.1
3113.28232	2555.8
3115.64255	2537.6
3118.00134	2532.8
3120.35871	2516.8
3122.71466	2500.5
3125.06917	2504.1
3127.42226	2496.6
3129.77393	2477.8
3132.12417	2496.7
3134.47299	2498.1
3136.82039	2480.5
3139.16636	2446.4
3141.51092	2488
3143.85406	2478.6
3146.19579	2460.3
3148.53609	2463.2
3150.87499	2459.5
3153.21246	2468.8
3155.54853	2465.3
3157.88318	2459.4
3160.21642	2463
3162.54826	2453.5
3164.87868	2461.4
3167.2077	2418.9
3169.5353	2438.2
3171.86151	2456.7
3174.18631	2440.8
3176.5097	2433.2
3178.83169	2429.3
3181.15228	2436.5
3183.47147	2415.5
3185.78926	2391.9
3188.10565	2403.5
3190.42065	2385.3
3192.73424	2395.3
3195.04645	2383.8
3197.35725	2367.2
3199.66667	2388.4
3201.97469	2369.3
3204.28132	2358.9
3206.58656	2375.8
3208.8904	2371
3211.19287	2367.3
3213.49394	2361
3215.79363	2350
3218.09193	2364.4
3220.38884	2375.3
3222.68438	2360.3
3224.97853	2347
3227.2713	2370.9
3229.56269	2338.9
3231.8527	2341.7
3234.14133	2331.5
3236.42858	2321.9
3238.71446	2299.9
3240.99896	2320.7
3243.28209	2307
3245.56384	2308.3
3247.84423	2296.3
3250.12324	2293.4
3252.40088	2286.3
3254.67715	2283.2
3256.95205	2278
3259.22558	2284.1
3261.49775	2279.7
3263.76855	2269.9
3266.03799	2279.9
3268.30606	2273
3270.57277	2274.8
3272.83812	2258.5
3275.10211	2247.1
3277.36474	2261.2
3279.62601	2267.2
3281.88593	2237.7
3284.14448	2215.2
3286.40168	2238.2
3288.65753	2228.4
3290.91202	2219
3293.16516	2205.5
3295.41695	2229.6
3297.66738	2227.3
3299.91647	2190.7
3302.16421	2193.6
3304.4106	2153.1
3306.65564	2170.7
3308.89933	2139.6
3311.14169	2126.3
3313.38269	2112.4
3315.62236	2093.1
3317.86068	2089.7
3320.09766	2082.5
3322.3333	2051.2
3324.5676	2032.5
3326.80056	2011
3329.03219	1993.3
3331.26248	-0.4
3333.49143	0.3
3335.71905	0.6
