Data from AgNPs_UA_5uM_CRN_500uM_SU_RamanShift__231__12-07-53-186.txt Node

Date: Thu Aug 04 12:07:53 BST 2022
User: TCL
Spectrometer: QEP01345
Trigger mode: 4
Integration Time (sec): 1.000000E0
Scans to average: 10
Electric dark correction enabled: true
Nonlinearity correction enabled: false
Boxcar width: 0
XAxis mode: Raman Shifts
Number of Pixels in Spectrum: 1044
>>>>>Begin Spectral Data<<<<<
46.04893	-0.1
50.45542	1.4
54.85868	-0.7
59.25871	-1
63.6555	-59
68.04907	-41
72.43941	-70.9
76.82654	-57.7
81.21044	-56.4
85.59113	-50.3
89.96862	-75.7
94.34289	-56.1
98.71396	-77.7
103.08183	-60.8
107.4465	-51.7
111.80798	-58.4
116.16626	-45.3
120.52136	-72.9
124.87327	-51.3
129.222	-64
133.56755	-50.3
137.90993	-63.9
142.24913	-50.8
146.58517	-45.3
150.91804	-41.1
155.24774	-32.4
159.57429	-12.1
163.89768	-7.6
168.21792	33.1
172.53501	55.4
176.84895	134
181.15975	257.6
185.46741	411.3
189.77193	583.6
194.07331	863.9
198.37157	1148.8
202.6667	1424.2
206.9587	1739.2
211.24758	2038.7
215.53334	2348.8
219.81599	2696.3
224.09553	3088
228.37195	3533.9
232.64527	3971.8
236.91549	4430.9
241.18261	4770
245.44663	5051.6
249.70755	5226.1
253.96539	5356.6
258.22014	5437.8
262.4718	5520.3
266.72039	5557.4
270.96589	5515.2
275.20832	5424.1
279.44768	5337.5
283.68397	5207.2
287.91719	5159.2
292.14735	5205.2
296.37445	5362.4
300.59849	5675.2
304.81948	5990.6
309.03742	6370.5
313.25231	6589.5
317.46415	6538
321.67296	6161.4
325.87872	5782.8
330.08145	5573.8
334.28114	5518.9
338.47781	5590.2
342.67145	5709.3
346.86207	5974.9
351.04966	6318.3
355.23424	6705.7
359.4158	6948
363.59435	6999.6
367.76989	6925.1
371.94243	6802
376.11196	6679.9
380.27849	6606.2
384.44203	6524.9
388.60257	6497.4
392.76012	6527.7
396.91468	6621.3
401.06626	6787.4
405.21485	6805.1
409.36047	6659
413.50311	6326.3
417.64277	6038.8
421.77947	5842
425.9132	5762.2
430.04396	5749.5
434.17176	5790.2
438.2966	5870.2
442.41849	5960.8
446.53742	6062.8
450.6534	6173.4
454.76644	6251.7
458.87653	6247.6
462.98368	6225.7
467.08789	6160
471.18916	6074.9
475.2875	5954.1
479.38291	5840.8
483.4754	5737.1
487.56496	5710.3
491.6516	5662.6
495.73531	5670.6
499.81612	5698
503.89401	5774.5
507.96899	5832.1
512.04106	5927.1
516.11023	6030.5
520.1765	6096.2
524.23987	6131.3
528.30034	6129.9
532.35792	6045.5
536.41261	6002.3
540.46441	5916.7
544.51333	5853.6
548.55936	5882.3
552.60252	6024.1
556.64279	6125.2
560.6802	6245.8
564.71473	6378.3
568.7464	6567
572.7752	6530.2
576.80114	6227
580.82422	6000.4
584.84444	5915.9
588.86181	5882
592.87633	5910.8
596.888	6035.8
600.89682	6417.8
604.9028	7340.1
608.90594	9425.7
612.90624	11758.6
616.90371	10887.6
620.89834	7858.8
624.89015	6517.4
628.87913	6308.7
632.86528	6462.1
636.84862	6611.1
640.82913	6502.1
644.80683	6173
648.78172	5979.9
652.75379	6006.6
656.72306	6231.6
660.68952	6494.5
664.65319	6382
668.61405	6149
672.57211	6087.8
676.52738	6080.2
680.47986	5981.1
684.42955	5875.4
688.37646	5837.9
692.32058	5849.4
696.26192	5932.5
700.20048	6039.3
704.13626	6046.2
708.06928	6009.4
711.99952	5984
715.927	5956.6
719.85171	5984.6
723.77365	6050.4
727.69284	6008.6
731.60928	6006.3
735.52295	5972.2
739.43388	6028.1
743.34206	6027.4
747.24749	6051.3
751.15017	6074
755.05012	6157.9
758.94733	6516.2
762.8418	7359
766.73354	8688.6
770.62254	9704.3
774.50882	9771.1
778.39237	9279.7
782.27321	8330.9
786.15132	7289.7
790.02671	6606.3
793.89938	6237.7
797.76935	6121.5
801.6366	6040.1
805.50115	5973.9
809.36299	5968.7
813.22213	5979.3
817.07857	5954.9
820.93231	5955.6
824.78336	5978.5
828.63172	5997.2
832.47738	5994.2
836.32036	5996.3
840.16066	5946.5
843.99827	5965.5
847.8332	5933.5
851.66546	5960.1
855.49504	5954
859.32195	5990.5
863.1462	5980
866.96777	5980.1
870.78668	5982
874.60293	5987.6
878.41652	6032.7
882.22745	6078.6
886.03573	6123.7
889.84136	6108.7
893.64433	6102.7
897.44466	6097.7
901.24235	6100.1
905.0374	6095.2
908.8298	6042.8
912.61957	5971.4
916.40671	5954.3
920.19121	6015.8
923.97308	6078.3
927.75233	6162.7
931.52895	6210.2
935.30295	6176.5
939.07433	6035.8
942.84309	5923.7
946.60924	5889.3
950.37278	5857.2
954.13371	5837.9
957.89203	5842.7
961.64774	5860.1
965.40086	5844.1
969.15137	5813.7
972.89929	5865.7
976.64461	5839.5
980.38733	5872.7
984.12747	5857.9
987.86502	5886.5
991.59999	5895.6
995.33237	5977
999.06217	6029.3
1002.78939	6103.2
1006.51404	6230.9
1010.23611	6342.3
1013.95561	6391.3
1017.67255	6389.8
1021.38692	6353.9
1025.09872	6315.1
1028.80796	6217.2
1032.51465	6236.9
1036.21877	6205.5
1039.92035	6262
1043.61937	6310.9
1047.31584	6345.9
1051.00976	6372.9
1054.70114	6394.4
1058.38998	6363.9
1062.07627	6391.8
1065.76003	6416.9
1069.44126	6492.3
1073.11995	6576.1
1076.79611	6691.8
1080.46974	6860.8
1084.14085	7016
1087.80943	7146.3
1091.47549	7172.3
1095.13903	7095.4
1098.80005	6980.9
1102.45857	6881.8
1106.11456	6823.5
1109.76805	6787.5
1113.41903	6900.4
1117.06751	7081.7
1120.71348	7352
1124.35696	7706.1
1127.99793	8010.1
1131.63641	7838.3
1135.2724	7453.7
1138.90589	7155.2
1142.5369	6951
1146.16542	6845
1149.79145	6717.5
1153.415	6681.4
1157.03607	6689.4
1160.65467	6797.5
1164.27079	6998
1167.88443	7235.6
1171.49561	7671.1
1175.10432	8271.7
1178.71056	9154.6
1182.31434	9979.5
1185.91565	10238.7
1189.51451	10090.2
1193.11091	9845.6
1196.70485	9567.7
1200.29634	9316.9
1203.88538	9061.2
1207.47197	8600.9
1211.05612	8099.8
1214.63782	7720.2
1218.21708	7473.4
1221.79391	7322
1225.36829	7243.4
1228.94024	7224.8
1232.50976	7251.4
1236.07685	7282.7
1239.6415	7317.5
1243.20374	7330.6
1246.76355	7364.2
1250.32093	7443.6
1253.8759	7493.5
1257.42845	7672.2
1260.97859	7885.8
1264.52631	8108.4
1268.07163	8255.7
1271.61453	8392.8
1275.15503	8437.4
1278.69312	8450.8
1282.22882	8515.3
1285.76211	8718.8
1289.29301	8967
1292.82151	9218.7
1296.34761	9446.6
1299.87133	9849.3
1303.39266	10542.8
1306.9116	11689.6
1310.42815	12917.5
1313.94233	13340.7
1317.45412	12577.1
1320.96354	11429.3
1324.47058	10421
1327.97525	9680
1331.47754	9262.7
1334.97747	9169.3
1338.47502	9258.7
1341.97022	9635.9
1345.46305	10366.7
1348.95352	11426.7
1352.44163	12742.2
1355.92738	14090.3
1359.41078	15780.5
1362.89183	17312.8
1366.37053	16697.1
1369.84688	13856
1373.32088	11148.7
1376.79254	9721
1380.26186	9079.4
1383.72883	8648.9
1387.19347	8249.9
1390.65578	7870
1394.11575	7622.7
1397.57339	7469.2
1401.0287	7384.8
1404.48168	7324.5
1407.93234	7337.5
1411.38068	7357.5
1414.82669	7446.4
1418.27039	7517.2
1421.71177	7523.2
1425.15083	7414
1428.58758	7329.7
1432.02203	7367.5
1435.45416	7431.9
1438.88399	7434.4
1442.31151	7404.9
1445.73673	7494.3
1449.15965	7535.7
1452.58027	7537.4
1455.9986	7540.4
1459.41463	7569.9
1462.82837	7672.5
1466.23982	7847.2
1469.64898	8048.8
1473.05586	8194.4
1476.46045	8306.7
1479.86276	8366.3
1483.26279	8474.7
1486.66054	8678.2
1490.05602	8968.8
1493.44922	9517.2
1496.84016	10408.5
1500.22882	11752.9
1503.61521	13483
1506.99934	15278.1
1510.38121	16540.3
1513.76081	16351.7
1517.13816	14765.2
1520.51324	12654.9
1523.88607	10930.5
1527.25665	9953.8
1530.62498	9446.6
1533.99105	9242.2
1537.35488	9105.5
1540.71647	9013.3
1544.07581	8875.5
1547.4329	8759.5
1550.78776	8620.4
1554.14038	8547.7
1557.49077	8507.6
1560.83892	8579.2
1564.18484	8823.9
1567.52853	9174
1570.86999	9508.3
1574.20922	9647.9
1577.54624	9541.4
1580.88103	9017
1584.2136	8351.1
1587.54395	7942
1590.87208	7858
1594.19801	8027.3
1597.52172	8426.7
1600.84321	8529.5
1604.16251	8416
1607.47959	8191.9
1610.79447	7997.3
1614.10715	7732.1
1617.41763	7444.3
1620.7259	7176.5
1624.03199	7014.1
1627.33587	6950.3
1630.63757	6999.5
1633.93707	7227.1
1637.23439	7634
1640.52951	8302
1643.82246	9290.3
1647.11321	10453.4
1650.40179	11173
1653.68819	10866.9
1656.97241	9619.2
1660.25446	8225.4
1663.53433	7231.7
1666.81203	6622.2
1670.08756	6291.2
1673.36092	6107.6
1676.63211	5968.1
1679.90115	5880.5
1683.16801	5786.5
1686.43272	5704.1
1689.69527	5672.9
1692.95567	5602.4
1696.2139	5600.4
1699.46999	5528.9
1702.72392	5524
1705.97571	5560.9
1709.22535	5531
1712.47284	5569.5
1715.71819	5569.4
1718.96139	5577.1
1722.20246	5556.1
1725.44139	5524
1728.67818	5508.5
1731.91284	5431
1735.14537	5404.6
1738.37576	5391.4
1741.60403	5373.7
1744.83017	5350.3
1748.05418	5340.5
1751.27607	5340.8
1754.49584	5307.5
1757.71349	5263.5
1760.92903	5276.2
1764.14244	5227.1
1767.35375	5223.4
1770.56294	5207.6
1773.77002	5183.5
1776.97499	5208.4
1780.17785	5196.2
1783.37861	5189.9
1786.57727	5194
1789.77382	5142.5
1792.96828	5157.2
1796.16064	5162.8
1799.3509	5151.3
1802.53907	5152.9
1805.72514	5109.8
1808.90913	5097.4
1812.09102	5102.3
1815.27083	5086.7
1818.44856	5062.3
1821.6242	5068.8
1824.79776	5054.6
1827.96924	5026.1
1831.13864	5013.8
1834.30597	5026.1
1837.47122	4997.8
1840.6344	4998.6
1843.7955	4975.3
1846.95454	4969.9
1850.11151	4987.4
1853.26642	4956.8
1856.41926	4965.7
1859.57004	4957.3
1862.71876	4949.5
1865.86542	4952.5
1869.01003	4938.6
1872.15258	4916
1875.29308	4940.5
1878.43152	4939.5
1881.56792	4908.8
1884.70227	4895
1887.83457	4908
1890.96482	4868.5
1894.09304	4871.5
1897.21921	4877.1
1900.34335	4878.4
1903.46544	4843.3
1906.58551	4866.4
1909.70353	4870.1
1912.81953	4836.6
1915.93349	4827.5
1919.04543	4819.4
1922.15534	4810.8
1925.26322	4813.4
1928.36908	4801.7
1931.47292	4777.4
1934.57473	4800.6
1937.67453	4770.8
1940.77232	4754.6
1943.86808	4741.4
1946.96184	4727.2
1950.05358	4710.3
1953.14331	4688.9
1956.23103	4694.3
1959.31675	4649.8
1962.40046	4609.5
1965.48217	4636.5
1968.56188	4630
1971.63959	4607.9
1974.7153	4608.9
1977.78901	4615.8
1980.86073	4574.3
1983.93046	4535.6
1986.99819	4460.8
1990.06394	4489.3
1993.1277	4499.4
1996.18947	4488.6
1999.24925	4450.1
2002.30706	4455.7
2005.36288	4439.5
2008.41672	4423.4
2011.46859	4383.8
2014.51848	4376.6
2017.56639	4370.6
2020.61233	4347.5
2023.6563	4352.6
2026.6983	4297.8
2029.73833	4316.1
2032.7764	4318
2035.8125	4271.4
2038.84664	4292.5
2041.87881	4261.8
2044.90903	4263
2047.93729	4245.7
2050.96359	4232.5
2053.98794	4228.5
2057.01034	4242
2060.03078	4214.3
2063.04927	4221.1
2066.06582	4230.3
2069.08042	4201.2
2072.09307	4212.5
2075.10378	4220.1
2078.11255	4186.7
2081.11938	4194.8
2084.12426	4180.8
2087.12722	4183.4
2090.12824	4183.4
2093.12732	4169.5
2096.12447	4194.8
2099.11969	4161.4
2102.11299	4167
2105.10435	4203.6
2108.09379	4190.5
2111.08131	4173.9
2114.0669	4163.6
2117.05057	4186.7
2120.03233	4162.8
2123.01216	4190.7
2125.99008	4193.6
2128.96609	4189.9
2131.94018	4223.7
2134.91236	4207.2
2137.88263	4193.9
2140.851	4189.3
2143.81746	4224.2
2146.78201	4192.9
2149.74466	4192.7
2152.7054	4210.8
2155.66425	4171.1
2158.6212	4185.4
2161.57625	4152.8
2164.52941	4133.5
2167.48067	4143.7
2170.43004	4151.3
2173.37752	4161.9
2176.32311	4141
2179.26681	4143.8
2182.20863	4150.4
2185.14856	4145.6
2188.08661	4155.3
2191.02278	4144.2
2193.95707	4131.3
2196.88948	4106.4
2199.82001	4124.4
2202.74867	4111.4
2205.67545	4112.8
2208.60037	4123.5
2211.52341	4114.8
2214.44458	4089.8
2217.36388	4075.8
2220.28132	4070.7
2223.1969	4047.2
2226.11061	4053.3
2229.02246	4035.6
2231.93245	4050.6
2234.84058	4011.9
2237.74686	4009.6
2240.65128	4003.1
2243.55385	3997.1
2246.45456	3984.5
2249.35343	4002.9
2252.25044	3986.8
2255.14561	3992.1
2258.03893	3978.2
2260.93041	3976
2263.82004	3960.8
2266.70783	3962.8
2269.59378	3938.2
2272.4779	3920.3
2275.36017	3928.6
2278.24061	3916.1
2281.11922	3894.1
2283.996	3905.2
2286.87094	3861.3
2289.74405	3877.1
2292.61534	3887.4
2295.4848	3868
2298.35243	3860.1
2301.21824	3851.1
2304.08223	3842.5
2306.94439	3870
2309.80474	3847.4
2312.66327	3853.9
2315.51999	3810.4
2318.37489	3820.4
2321.22797	3804.6
2324.07925	3792.9
2326.92871	3792.2
2329.77637	3777.4
2332.62222	3768.8
2335.46626	3741.6
2338.3085	3749
2341.14893	3764.5
2343.98756	3756.4
2346.8244	3750.2
2349.65943	3743.5
2352.49267	3737.2
2355.32411	3754.7
2358.15376	3734.3
2360.98161	3747.4
2363.80768	3725.4
2366.63195	3738.4
2369.45444	3747.1
2372.27514	3733
2375.09405	3751.6
2377.91118	3695.4
2380.72652	3702.4
2383.54009	3699.7
2386.35187	3697.3
2389.16188	3679.2
2391.97011	3678.5
2394.77657	3668.9
2397.58125	3649.3
2400.38416	3654.6
2403.18529	3632.3
2405.98466	3620.9
2408.78226	3623.3
2411.57809	3611.2
2414.37216	3584.9
2417.16446	3598.4
2419.955	3571.3
2422.74378	3607.9
2425.5308	3587.5
2428.31606	3584.2
2431.09956	3589.3
2433.88131	3555.2
2436.6613	3561.1
2439.43954	3558.1
2442.21603	3550.6
2444.99077	3550
2447.76377	3549.3
2450.53501	3547
2453.30451	3546.2
2456.07226	3545.6
2458.83827	3540.6
2461.60254	3503.2
2464.36507	3535
2467.12586	3500.7
2469.88492	3519.8
2472.64224	3506.8
2475.39782	3502.9
2478.15167	3517
2480.90379	3507.5
2483.65417	3508.4
2486.40283	3518
2489.14976	3519.1
2491.89497	3501
2494.63845	3500.7
2497.3802	3491.6
2500.12024	3492.6
2502.85855	3489.2
2505.59514	3493.2
2508.33002	3478.7
2511.06318	3444.5
2513.79462	3446.9
2516.52435	3410.7
2519.25237	3397.7
2521.97867	3409.5
2524.70327	3418.7
2527.42616	3399.2
2530.14734	3401.3
2532.86681	3397.8
2535.58458	3387.9
2538.30065	3368.7
2541.01501	3402.1
2543.72768	3370.1
2546.43864	3363
2549.14791	3354.1
2551.85548	3342.9
2554.56136	3356.4
2557.26554	3340.4
2559.96803	3346.8
2562.66883	3329.2
2565.36794	3321.7
2568.06536	3293.5
2570.7611	3309.4
2573.45514	3321.6
2576.14751	3292.1
2578.83819	3283
2581.52719	3265.6
2584.21451	3278.8
2586.90015	3255.3
2589.58411	3222.4
2592.2664	3252.1
2594.94701	3260.6
2597.62594	3248.5
2600.30321	3185.5
2602.9788	3202.1
2605.65273	3186.4
2608.32498	3197.8
2610.99557	3212.9
2613.66449	3185.5
2616.33175	3202.5
2618.99734	3192.8
2621.66128	3182.5
2624.32355	3176.7
2626.98416	3159.1
2629.64311	3160.9
2632.30041	3155.7
2634.95605	3131.4
2637.61004	3128.8
2640.26238	3110.9
2642.91306	3114.7
2645.56209	3128.2
2648.20948	3127.2
2650.85521	3109.6
2653.4993	3129.5
2656.14175	3114.1
2658.78255	3105
2661.42171	3069.6
2664.05923	3118.7
2666.6951	3112.3
2669.32934	3124.3
2671.96194	3140.6
2674.59291	3117.2
2677.22224	3123.9
2679.84993	3115.1
2682.476	3100.1
2685.10043	3119.4
2687.72324	3083.6
2690.34441	3099.8
2692.96396	3091.8
2695.58188	3108.6
2698.19818	3102.4
2700.81285	3089.7
2703.4259	3066.1
2706.03733	3049.2
2708.64714	3052.2
2711.25533	3079
2713.86191	3082.2
2716.46687	3074.6
2719.07021	3073.6
2721.67194	3076.6
2724.27206	3091.1
2726.87057	3077.7
2729.46747	3056.3
2732.06276	3081.4
2734.65644	3059.8
2737.24852	3052.8
2739.83899	3032.5
2742.42786	3052.8
2745.01513	3050.8
2747.60079	3035.3
2750.18486	3017.2
2752.76733	3030
2755.3482	3006.3
2757.92747	3005.3
2760.50515	2994.6
2763.08123	2986.1
2765.65573	2992.6
2768.22863	2998.9
2770.79994	2981.2
2773.36967	2967.7
2775.9378	2971.5
2778.50435	2958.7
2781.06932	2958.1
2783.6327	2938.8
2786.1945	2972.1
2788.75471	2938.2
2791.31335	2946.5
2793.87041	2940
2796.42589	2913.1
2798.97979	2906.6
2801.53212	2923.7
2804.08288	2917.9
2806.63206	2899.9
2809.17967	2882.6
2811.72571	2915.8
2814.27018	2903
2816.81308	2893.2
2819.35442	2840.9
2821.89419	2870.9
2824.43239	2843.6
2826.96904	2876.4
2829.50412	2858.7
2832.03763	2845.1
2834.56959	2855.2
2837.1	2834.5
2839.62884	2852.1
2842.15613	2833.7
2844.68186	2855.6
2847.20604	2818.8
2849.72867	2818.1
2852.24974	2825.4
2854.76927	2791.6
2857.28724	2755.5
2859.80367	2825.4
2862.31855	2816.5
2864.83189	2796.3
2867.34368	2813.7
2869.85393	2805.1
2872.36264	2792.4
2874.8698	2793
2877.37543	2804.2
2879.87952	2777.8
2882.38207	2776.6
2884.88308	2782.5
2887.38256	2775.6
2889.88051	2770.1
2892.37692	2773.8
2894.8718	2756.9
2897.36515	2764.3
2899.85698	2755.5
2902.34727	2754.8
2904.83604	2783.9
2907.32328	2783.4
2909.809	2776
2912.29319	2780.2
2914.77587	2777
2917.25702	2782.8
2919.73665	2792.8
2922.21476	2798.6
2924.69136	2787.7
2927.16644	2774.8
2929.64	2774
2932.11205	2772.1
2934.58258	2756.2
2937.05161	2740.2
2939.51912	2758.8
2941.98513	2762.8
2944.44962	2748.1
2946.91261	2723.8
2949.37409	2726.3
2951.83407	2717.4
2954.29254	2712.4
2956.74951	2728.4
2959.20498	2706.4
2961.65895	2703.9
2964.11142	2697.3
2966.56239	2692.9
2969.01186	2695.5
2971.45984	2694.6
2973.90632	2681.5
2976.35131	2695.6
2978.7948	2686.6
2981.23681	2669.8
2983.67732	2660.5
2986.11635	2665.1
2988.55388	2627.2
2990.98993	2635.7
2993.4245	2619
2995.85758	2617.6
2998.28917	2611.5
3000.71928	2606.8
3003.14791	2600.4
3005.57506	2589.7
3008.00073	2575.5
3010.42493	2528.4
3012.84764	2563.9
3015.26888	2575.5
3017.68865	2567.6
3020.10694	2521.5
3022.52376	2530.1
3024.9391	2530.8
3027.35298	2517.1
3029.76539	2511
3032.17632	2512.6
3034.5858	2508.1
3036.9938	2506.2
3039.40034	2494.1
3041.80542	2482.9
3044.20903	2466.6
3046.61118	2482.4
3049.01187	2480
3051.4111	2466.3
3053.80888	2448.4
3056.20519	2449.7
3058.60005	2427.2
3060.99345	2457.5
3063.3854	2429.2
3065.7759	2413.3
3068.16494	2408.2
3070.55254	2406.8
3072.93868	2413.3
3075.32338	2408.3
3077.70662	2398.9
3080.08842	2382
3082.46878	2376.6
3084.84769	2397.1
3087.22515	2380.8
3089.60118	2382.6
3091.97576	2362.6
3094.3489	2375.7
3096.72061	2362.2
3099.09087	2352.5
3101.4597	2384.8
3103.82709	2356.7
3106.19305	2346.1
3108.55757	2358.1
3110.92066	2341.6
3113.28232	2343.1
3115.64255	2332.8
3118.00134	2340.9
3120.35871	2316.7
3122.71466	2302.4
3125.06917	2305.6
3127.42226	2289.9
3129.77393	2272.7
3132.12417	2303.5
3134.47299	2302.2
3136.82039	2264.4
3139.16636	2259.8
3141.51092	2282
3143.85406	2271.9
3146.19579	2262.6
3148.53609	2252.3
3150.87499	2258.6
3153.21246	2243.7
3155.54853	2266.2
3157.88318	2267.5
3160.21642	2273.7
3162.54826	2257
3164.87868	2260.4
3167.2077	2231
3169.5353	2242.4
3171.86151	2248.7
3174.18631	2238.9
3176.5097	2234.5
3178.83169	2221.3
3181.15228	2235.3
3183.47147	2207.6
3185.78926	2192.4
3188.10565	2204.4
3190.42065	2179.4
3192.73424	2198.1
3195.04645	2179.3
3197.35725	2172.9
3199.66667	2186.7
3201.97469	2182.2
3204.28132	2164
3206.58656	2185.2
3208.8904	2185.8
3211.19287	2173.3
3213.49394	2172.9
3215.79363	2154
3218.09193	2182.1
3220.38884	2167.9
3222.68438	2165.6
3224.97853	2138.9
3227.2713	2171.7
3229.56269	2152.3
3231.8527	2149.4
3234.14133	2137.7
3236.42858	2133.4
3238.71446	2122.3
3240.99896	2127.9
3243.28209	2111.8
3245.56384	2129.3
3247.84423	2098
3250.12324	2112.2
3252.40088	2115.5
3254.67715	2093.2
3256.95205	2082.6
3259.22558	2104.8
3261.49775	2103.2
3263.76855	2090.1
3266.03799	2098.4
3268.30606	2097.3
3270.57277	2094.1
3272.83812	2073.2
3275.10211	2071.1
3277.36474	2083.6
3279.62601	2072
3281.88593	2058
3284.14448	2038.5
3286.40168	2054.9
3288.65753	2045.5
3290.91202	2046.6
3293.16516	2031
3295.41695	2052.1
3297.66738	2046.8
3299.91647	2026.1
3302.16421	2024.5
3304.4106	1986.1
3306.65564	2008.6
3308.89933	1965.2
3311.14169	1961.8
3313.38269	1960.8
3315.62236	1934.7
3317.86068	1928.7
3320.09766	1925.3
3322.3333	1879.9
3324.5676	1881.7
3326.80056	1851.1
3329.03219	1837.7
3331.26248	0.8
3333.49143	-0.8
3335.71905	0.2
