Data from AgNPs_UA_50uM_CRN_500uM_SU_RamanShift__74__14-08-10-328.txt Node

Date: Thu Aug 04 14:08:10 BST 2022
User: TCL
Spectrometer: QEP01345
Trigger mode: 4
Integration Time (sec): 1.000000E0
Scans to average: 10
Electric dark correction enabled: true
Nonlinearity correction enabled: false
Boxcar width: 0
XAxis mode: Raman Shifts
Number of Pixels in Spectrum: 1044
>>>>>Begin Spectral Data<<<<<
46.04893	1.8125
50.45542	-0.0875
54.85868	-1.0875
59.25871	-1.2875
63.6555	16.6125
68.04907	16.1125
72.43941	20.4125
76.82654	18.0125
81.21044	19.1125
85.59113	22.0125
89.96862	20.3125
94.34289	22.4125
98.71396	22.4125
103.08183	22.6125
107.4465	22.0125
111.80798	23.2125
116.16626	23.4125
120.52136	25.1125
124.87327	29.2125
129.222	31.4125
133.56755	34.7125
137.90993	35.3125
142.24913	38.0125
146.58517	42.0125
150.91804	50.9125
155.24774	63.3125
159.57429	77.1125
163.89768	102.4125
168.21792	135.9125
172.53501	184.6125
176.84895	257.9125
181.15975	367.9125
185.46741	519.3125
189.77193	716.1125
194.07331	966.0125
198.37157	1246.2125
202.6667	1544.1125
206.9587	1826.5125
211.24758	2114.8125
215.53334	2417.1125
219.81599	2734.9125
224.09553	3089.0125
228.37195	3487.1125
232.64527	3883.8125
236.91549	4303.6125
241.18261	4677.7125
245.44663	4977.2125
249.70755	5256.7125
253.96539	5463.5125
258.22014	5657.3125
262.4718	5829.2125
266.72039	5976.5125
270.96589	6022.3125
275.20832	6002.2125
279.44768	5909.9125
283.68397	5798.6125
287.91719	5739.2125
292.14735	5737.3125
296.37445	5824.8125
300.59849	5996.6125
304.81948	6200.9125
309.03742	6424.9125
313.25231	6470.8125
317.46415	6372.7125
321.67296	6146.2125
325.87872	5899.4125
330.08145	5789.8125
334.28114	5788.5125
338.47781	5873.9125
342.67145	6006.8125
346.86207	6196.9125
351.04966	6430.4125
355.23424	6672.2125
359.4158	6884.1125
363.59435	6976.5125
367.76989	7048.6125
371.94243	7057.6125
376.11196	7054.8125
380.27849	7056.6125
384.44203	7062.7125
388.60257	7079.6125
392.76012	7103.9125
396.91468	7187.4125
401.06626	7325.2125
405.21485	7361.3125
409.36047	7282.1125
413.50311	7036.2125
417.64277	6792.2125
421.77947	6669.9125
425.9132	6601.5125
430.04396	6620.9125
434.17176	6702.0125
438.2966	6891.9125
442.41849	7067.7125
446.53742	7306.1125
450.6534	7553.1125
454.76644	7699.9125
458.87653	7734.2125
462.98368	7642.9125
467.08789	7496.4125
471.18916	7274.6125
475.2875	7043.8125
479.38291	6838.3125
483.4754	6735.5125
487.56496	6655.1125
491.6516	6569.4125
495.73531	6561.4125
499.81612	6543.2125
503.89401	6611.2125
507.96899	6651.8125
512.04106	6692.3125
516.11023	6772.2125
520.1765	6862.3125
524.23987	6906.5125
528.30034	6879.9125
532.35792	6841.5125
536.41261	6742.4125
540.46441	6626.0125
544.51333	6599.0125
548.55936	6651.4125
552.60252	6765.1125
556.64279	6885.0125
560.6802	6926.8125
564.71473	6971.0125
568.7464	7083.9125
572.7752	7091.6125
576.80114	6942.0125
580.82422	6856.5125
584.84444	6878.9125
588.86181	7046.2125
592.87633	7262.4125
596.888	7476.9125
600.89682	7750.4125
604.9028	8590.6125
608.90594	10404.4125
612.90624	12055.2125
616.90371	10958.8125
620.89834	8515.9125
624.89015	7666.5125
628.87913	7586.3125
632.86528	7523.6125
636.84862	7358.1125
640.82913	7079.0125
644.80683	6796.8125
648.78172	6644.8125
652.75379	6676.5125
656.72306	6941.6125
660.68952	7179.6125
664.65319	7119.3125
668.61405	6962.9125
672.57211	6920.6125
676.52738	6908.2125
680.47986	6791.0125
684.42955	6701.2125
688.37646	6723.8125
692.32058	6781.3125
696.26192	6898.8125
700.20048	6996.8125
704.13626	6991.4125
708.06928	6902.1125
711.99952	6826.9125
715.927	6842.7125
719.85171	6899.4125
723.77365	6872.9125
727.69284	6815.4125
731.60928	6749.8125
735.52295	6762.6125
739.43388	6803.8125
743.34206	6862.5125
747.24749	6894.1125
751.15017	6921.5125
755.05012	7020.8125
758.94733	7292.7125
762.8418	7951.1125
766.73354	8906.4125
770.62254	9711.9125
774.50882	9936.0125
778.39237	9436.3125
782.27321	8580.5125
786.15132	7737.0125
790.02671	7239.3125
793.89938	7024.7125
797.76935	6942.6125
801.6366	6894.0125
805.50115	6872.4125
809.36299	6829.6125
813.22213	6788.9125
817.07857	6758.4125
820.93231	6758.6125
824.78336	6797.5125
828.63172	6805.0125
832.47738	6819.9125
836.32036	6839.7125
840.16066	6870.0125
843.99827	6927.1125
847.8332	6879.0125
851.66546	6824.2125
855.49504	6827.4125
859.32195	6819.3125
863.1462	6803.3125
866.96777	6769.7125
870.78668	6761.4125
874.60293	6764.0125
878.41652	6784.7125
882.22745	6816.1125
886.03573	6850.6125
889.84136	6850.3125
893.64433	6805.6125
897.44466	6788.8125
901.24235	6786.6125
905.0374	6752.5125
908.8298	6755.2125
912.61957	6754.0125
916.40671	6785.4125
920.19121	6887.9125
923.97308	6975.9125
927.75233	7108.1125
931.52895	7162.9125
935.30295	7079.5125
939.07433	6896.5125
942.84309	6777.2125
946.60924	6740.0125
950.37278	6722.1125
954.13371	6668.6125
957.89203	6613.4125
961.64774	6572.6125
965.40086	6548.8125
969.15137	6529.4125
972.89929	6521.1125
976.64461	6527.3125
980.38733	6524.3125
984.12747	6593.7125
987.86502	6637.0125
991.59999	6755.7125
995.33237	6957.4125
999.06217	7281.1125
1002.78939	7584.6125
1006.51404	7710.5125
1010.23611	7711.2125
1013.95561	7789.7125
1017.67255	7885.6125
1021.38692	7908.6125
1025.09872	7911.8125
1028.80796	8086.3125
1032.51465	8420.4125
1036.21877	8629.4125
1039.92035	8598.6125
1043.61937	8361.7125
1047.31584	8021.1125
1051.00976	7709.7125
1054.70114	7562.1125
1058.38998	7519.2125
1062.07627	7500.6125
1065.76003	7461.4125
1069.44126	7483.5125
1073.11995	7533.3125
1076.79611	7628.7125
1080.46974	7747.6125
1084.14085	7874.6125
1087.80943	7965.4125
1091.47549	7964.0125
1095.13903	7809.1125
1098.80005	7660.3125
1102.45857	7598.4125
1106.11456	7596.4125
1109.76805	7628.2125
1113.41903	7764.2125
1117.06751	7878.8125
1120.71348	8089.6125
1124.35696	8283.0125
1127.99793	8424.9125
1131.63641	8261.7125
1135.2724	8024.5125
1138.90589	7824.3125
1142.5369	7646.6125
1146.16542	7558.0125
1149.79145	7487.9125
1153.415	7487.0125
1157.03607	7506.6125
1160.65467	7612.1125
1164.27079	7853.9125
1167.88443	8172.3125
1171.49561	8725.4125
1175.10432	9527.9125
1178.71056	10561.2125
1182.31434	11473.4125
1185.91565	11886.9125
1189.51451	11767.5125
1193.11091	11183.8125
1196.70485	10494.9125
1200.29634	9951.4125
1203.88538	9476.8125
1207.47197	9024.7125
1211.05612	8647.2125
1214.63782	8468.7125
1218.21708	8440.2125
1221.79391	8542.4125
1225.36829	8640.5125
1228.94024	8621.1125
1232.50976	8482.7125
1236.07685	8366.5125
1239.6415	8326.8125
1243.20374	8377.9125
1246.76355	8429.8125
1250.32093	8557.8125
1253.8759	8791.4125
1257.42845	9070.4125
1260.97859	9390.5125
1264.52631	9645.0125
1268.07163	9867.1125
1271.61453	10070.8125
1275.15503	10292.8125
1278.69312	10527.0125
1282.22882	10763.6125
1285.76211	10946.3125
1289.29301	11141.5125
1292.82151	11299.6125
1296.34761	11578.6125
1299.87133	12133.7125
1303.39266	13037.1125
1306.9116	14313.3125
1310.42815	15667.2125
1313.94233	16221.1125
1317.45412	15728.9125
1320.96354	14634.3125
1324.47058	13595.1125
1327.97525	12786.2125
1331.47754	12350.8125
1334.97747	12274.4125
1338.47502	12460.8125
1341.97022	12750.3125
1345.46305	13209.7125
1348.95352	13822.6125
1352.44163	14623.9125
1355.92738	15686.4125
1359.41078	17139.5125
1362.89183	18034.8125
1366.37053	17037.5125
1369.84688	14667.4125
1373.32088	12543.5125
1376.79254	11312.8125
1380.26186	10724.5125
1383.72883	10435.4125
1387.19347	10135.3125
1390.65578	9743.8125
1394.11575	9472.3125
1397.57339	9353.6125
1401.0287	9384.0125
1404.48168	9469.3125
1407.93234	9598.7125
1411.38068	9823.2125
1414.82669	9947.9125
1418.27039	9888.0125
1421.71177	9697.4125
1425.15083	9578.9125
1428.58758	9616.2125
1432.02203	9788.0125
1435.45416	9930.1125
1438.88399	9981.8125
1442.31151	9908.9125
1445.73673	9878.1125
1449.15965	9836.3125
1452.58027	9719.3125
1455.9986	9535.2125
1459.41463	9478.1125
1462.82837	9565.2125
1466.23982	9756.9125
1469.64898	9979.6125
1473.05586	10141.7125
1476.46045	10315.7125
1479.86276	10452.2125
1483.26279	10555.5125
1486.66054	10700.6125
1490.05602	10902.9125
1493.44922	11280.0125
1496.84016	11820.9125
1500.22882	12596.6125
1503.61521	13639.7125
1506.99934	14679.5125
1510.38121	15345.4125
1513.76081	15172.8125
1517.13816	14104.5125
1520.51324	12814.4125
1523.88607	11770.0125
1527.25665	11152.8125
1530.62498	10822.1125
1533.99105	10645.0125
1537.35488	10543.2125
1540.71647	10480.9125
1544.07581	10388.0125
1547.4329	10236.2125
1550.78776	10049.9125
1554.14038	9930.5125
1557.49077	9871.2125
1560.83892	9925.7125
1564.18484	10015.5125
1567.52853	10211.1125
1570.86999	10319.9125
1574.20922	10280.3125
1577.54624	10146.0125
1580.88103	9755.1125
1584.2136	9442.6125
1587.54395	9383.1125
1590.87208	9787.2125
1594.19801	10622.6125
1597.52172	11601.5125
1600.84321	12060.0125
1604.16251	11845.8125
1607.47959	11119.1125
1610.79447	10230.8125
1614.10715	9358.8125
1617.41763	8699.0125
1620.7259	8314.6125
1624.03199	8143.8125
1627.33587	8196.4125
1630.63757	8445.0125
1633.93707	8952.3125
1637.23439	9708.7125
1640.52951	10691.9125
1643.82246	11782.1125
1647.11321	12641.4125
1650.40179	12683.4125
1653.68819	11676.5125
1656.97241	10149.6125
1660.25446	8794.6125
1663.53433	7891.9125
1666.81203	7372.6125
1670.08756	7021.6125
1673.36092	6834.9125
1676.63211	6696.5125
1679.90115	6580.4125
1683.16801	6500.4125
1686.43272	6464.7125
1689.69527	6423.2125
1692.95567	6377.2125
1696.2139	6367.6125
1699.46999	6343.7125
1702.72392	6348.7125
1705.97571	6344.6125
1709.22535	6336.8125
1712.47284	6347.9125
1715.71819	6340.2125
1718.96139	6323.5125
1722.20246	6315.4125
1725.44139	6266.6125
1728.67818	6225.5125
1731.91284	6203.0125
1735.14537	6179.1125
1738.37576	6161.2125
1741.60403	6149.0125
1744.83017	6119.7125
1748.05418	6098.2125
1751.27607	6095.1125
1754.49584	6058.7125
1757.71349	6053.3125
1760.92903	6070.2125
1764.14244	6053.5125
1767.35375	6061.1125
1770.56294	6037.8125
1773.77002	6033.6125
1776.97499	6018.4125
1780.17785	5998.2125
1783.37861	5994.1125
1786.57727	5977.7125
1789.77382	5968.8125
1792.96828	5954.2125
1796.16064	5940.1125
1799.3509	5941.4125
1802.53907	5942.5125
1805.72514	5938.2125
1808.90913	5909.1125
1812.09102	5908.0125
1815.27083	5874.0125
1818.44856	5853.1125
1821.6242	5847.3125
1824.79776	5842.8125
1827.96924	5830.2125
1831.13864	5808.2125
1834.30597	5822.7125
1837.47122	5810.7125
1840.6344	5791.6125
1843.7955	5803.5125
1846.95454	5797.0125
1850.11151	5803.4125
1853.26642	5810.8125
1856.41926	5800.1125
1859.57004	5796.8125
1862.71876	5812.6125
1865.86542	5778.3125
1869.01003	5792.6125
1872.15258	5796.1125
1875.29308	5783.8125
1878.43152	5784.4125
1881.56792	5768.9125
1884.70227	5775.2125
1887.83457	5756.4125
1890.96482	5748.9125
1894.09304	5739.9125
1897.21921	5747.2125
1900.34335	5737.7125
1903.46544	5714.7125
1906.58551	5720.4125
1909.70353	5711.0125
1912.81953	5684.9125
1915.93349	5706.4125
1919.04543	5696.8125
1922.15534	5678.8125
1925.26322	5678.1125
1928.36908	5674.5125
1931.47292	5672.8125
1934.57473	5671.0125
1937.67453	5650.2125
1940.77232	5633.2125
1943.86808	5624.7125
1946.96184	5615.2125
1950.05358	5605.3125
1953.14331	5565.2125
1956.23103	5553.3125
1959.31675	5516.6125
1962.40046	5507.7125
1965.48217	5493.4125
1968.56188	5501.2125
1971.63959	5482.4125
1974.7153	5459.9125
1977.78901	5432.4125
1980.86073	5433.6125
1983.93046	5413.8125
1986.99819	5379.1125
1990.06394	5395.2125
1993.1277	5355.9125
1996.18947	5350.8125
1999.24925	5326.8125
2002.30706	5313.1125
2005.36288	5265.3125
2008.41672	5281.7125
2011.46859	5268.9125
2014.51848	5257.4125
2017.56639	5241.3125
2020.61233	5228.1125
2023.6563	5204.8125
2026.6983	5196.4125
2029.73833	5158.1125
2032.7764	5165.6125
2035.8125	5156.2125
2038.84664	5168.7125
2041.87881	5158.7125
2044.90903	5130.1125
2047.93729	5110.0125
2050.96359	5125.6125
2053.98794	5112.4125
2057.01034	5122.7125
2060.03078	5105.5125
2063.04927	5122.6125
2066.06582	5114.6125
2069.08042	5095.3125
2072.09307	5090.7125
2075.10378	5080.5125
2078.11255	5073.7125
2081.11938	5085.8125
2084.12426	5083.9125
2087.12722	5086.6125
2090.12824	5055.2125
2093.12732	5064.5125
2096.12447	5068.4125
2099.11969	5064.9125
2102.11299	5051.5125
2105.10435	5068.5125
2108.09379	5049.9125
2111.08131	5065.1125
2114.0669	5081.2125
2117.05057	5059.7125
2120.03233	5074.7125
2123.01216	5071.5125
2125.99008	5057.6125
2128.96609	5094.2125
2131.94018	5095.0125
2134.91236	5067.6125
2137.88263	5072.1125
2140.851	5079.5125
2143.81746	5070.0125
2146.78201	5078.9125
2149.74466	5082.0125
2152.7054	5083.4125
2155.66425	5075.7125
2158.6212	5082.2125
2161.57625	5077.3125
2164.52941	5070.6125
2167.48067	5061.9125
2170.43004	5070.3125
2173.37752	5072.7125
2176.32311	5070.5125
2179.26681	5076.0125
2182.20863	5075.7125
2185.14856	5075.7125
2188.08661	5066.5125
2191.02278	5068.0125
2193.95707	5069.2125
2196.88948	5067.5125
2199.82001	5070.9125
2202.74867	5070.8125
2205.67545	5069.0125
2208.60037	5062.2125
2211.52341	5059.7125
2214.44458	5055.4125
2217.36388	5059.9125
2220.28132	5058.4125
2223.1969	5035.5125
2226.11061	5026.8125
2229.02246	4998.2125
2231.93245	5010.7125
2234.84058	4987.4125
2237.74686	4972.1125
2240.65128	4976.8125
2243.55385	4959.2125
2246.45456	4953.8125
2249.35343	4948.5125
2252.25044	4958.1125
2255.14561	4935.0125
2258.03893	4931.5125
2260.93041	4928.8125
2263.82004	4924.8125
2266.70783	4911.6125
2269.59378	4901.8125
2272.4779	4867.4125
2275.36017	4869.6125
2278.24061	4842.6125
2281.11922	4846.3125
2283.996	4837.7125
2286.87094	4825.7125
2289.74405	4842.6125
2292.61534	4820.3125
2295.4848	4817.1125
2298.35243	4824.1125
2301.21824	4826.7125
2304.08223	4818.4125
2306.94439	4828.4125
2309.80474	4828.4125
2312.66327	4849.3125
2315.51999	4867.2125
2318.37489	4854.4125
2321.22797	4849.6125
2324.07925	4834.0125
2326.92871	4802.5125
2329.77637	4817.0125
2332.62222	4826.0125
2335.46626	4803.1125
2338.3085	4813.1125
2341.14893	4836.2125
2343.98756	4832.6125
2346.8244	4829.4125
2349.65943	4845.7125
2352.49267	4827.6125
2355.32411	4829.9125
2358.15376	4826.4125
2360.98161	4819.1125
2363.80768	4820.0125
2366.63195	4803.6125
2369.45444	4780.0125
2372.27514	4792.5125
2375.09405	4768.0125
2377.91118	4759.8125
2380.72652	4743.1125
2383.54009	4734.2125
2386.35187	4713.6125
2389.16188	4712.5125
2391.97011	4710.9125
2394.77657	4705.3125
2397.58125	4685.5125
2400.38416	4678.2125
2403.18529	4668.3125
2405.98466	4672.5125
2408.78226	4645.6125
2411.57809	4628.0125
2414.37216	4616.3125
2417.16446	4603.2125
2419.955	4605.0125
2422.74378	4607.5125
2425.5308	4595.1125
2428.31606	4574.1125
2431.09956	4594.1125
2433.88131	4587.7125
2436.6613	4599.8125
2439.43954	4579.4125
2442.21603	4582.5125
2444.99077	4566.6125
2447.76377	4572.7125
2450.53501	4564.0125
2453.30451	4571.4125
2456.07226	4573.3125
2458.83827	4555.6125
2461.60254	4571.5125
2464.36507	4549.4125
2467.12586	4549.0125
2469.88492	4548.8125
2472.64224	4560.9125
2475.39782	4539.2125
2478.15167	4552.9125
2480.90379	4536.8125
2483.65417	4557.8125
2486.40283	4564.0125
2489.14976	4575.4125
2491.89497	4585.4125
2494.63845	4588.2125
2497.3802	4578.5125
2500.12024	4580.8125
2502.85855	4554.7125
2505.59514	4547.3125
2508.33002	4544.6125
2511.06318	4557.1125
2513.79462	4523.8125
2516.52435	4506.9125
2519.25237	4506.6125
2521.97867	4502.8125
2524.70327	4488.1125
2527.42616	4503.7125
2530.14734	4518.9125
2532.86681	4512.4125
2535.58458	4529.6125
2538.30065	4510.9125
2541.01501	4488.0125
2543.72768	4499.5125
2546.43864	4501.3125
2549.14791	4479.8125
2551.85548	4494.3125
2554.56136	4487.8125
2557.26554	4441.7125
2559.96803	4466.6125
2562.66883	4454.9125
2565.36794	4455.4125
2568.06536	4455.4125
2570.7611	4442.6125
2573.45514	4439.9125
2576.14751	4443.1125
2578.83819	4412.1125
2581.52719	4427.8125
2584.21451	4423.9125
2586.90015	4413.7125
2589.58411	4426.6125
2592.2664	4424.8125
2594.94701	4414.6125
2597.62594	4402.8125
2600.30321	4410.8125
2602.9788	4407.9125
2605.65273	4393.1125
2608.32498	4408.9125
2610.99557	4406.8125
2613.66449	4417.8125
2616.33175	4408.2125
2618.99734	4416.2125
2621.66128	4414.8125
2624.32355	4408.3125
2626.98416	4406.6125
2629.64311	4396.3125
2632.30041	4408.4125
2634.95605	4414.8125
2637.61004	4388.2125
2640.26238	4375.2125
2642.91306	4370.1125
2645.56209	4373.8125
2648.20948	4369.1125
2650.85521	4358.0125
2653.4993	4351.3125
2656.14175	4344.4125
2658.78255	4342.5125
2661.42171	4344.4125
2664.05923	4369.6125
2666.6951	4342.6125
2669.32934	4352.1125
2671.96194	4351.7125
2674.59291	4354.2125
2677.22224	4356.4125
2679.84993	4356.9125
2682.476	4336.6125
2685.10043	4332.0125
2687.72324	4337.7125
2690.34441	4326.8125
2692.96396	4298.2125
2695.58188	4321.4125
2698.19818	4307.8125
2700.81285	4328.1125
2703.4259	4312.1125
2706.03733	4321.2125
2708.64714	4321.5125
2711.25533	4305.2125
2713.86191	4293.4125
2716.46687	4300.0125
2719.07021	4309.1125
2721.67194	4314.1125
2724.27206	4292.5125
2726.87057	4300.8125
2729.46747	4309.8125
2732.06276	4306.2125
2734.65644	4297.4125
2737.24852	4295.2125
2739.83899	4294.6125
2742.42786	4294.0125
2745.01513	4281.3125
2747.60079	4274.8125
2750.18486	4259.3125
2752.76733	4270.1125
2755.3482	4259.3125
2757.92747	4254.4125
2760.50515	4242.9125
2763.08123	4260.1125
2765.65573	4249.2125
2768.22863	4233.6125
2770.79994	4245.7125
2773.36967	4248.3125
2775.9378	4245.3125
2778.50435	4250.0125
2781.06932	4255.9125
2783.6327	4248.2125
2786.1945	4247.2125
2788.75471	4244.4125
2791.31335	4222.7125
2793.87041	4218.9125
2796.42589	4221.3125
2798.97979	4219.5125
2801.53212	4190.4125
2804.08288	4187.4125
2806.63206	4185.8125
2809.17967	4168.4125
2811.72571	4158.6125
2814.27018	4162.1125
2816.81308	4149.9125
2819.35442	4167.3125
2821.89419	4144.0125
2824.43239	4139.3125
2826.96904	4136.3125
2829.50412	4128.0125
2832.03763	4108.9125
2834.56959	4106.5125
2837.1	4103.0125
2839.62884	4111.1125
2842.15613	4104.7125
2844.68186	4099.4125
2847.20604	4092.4125
2849.72867	4078.8125
2852.24974	4083.8125
2854.76927	4085.2125
2857.28724	4065.1125
2859.80367	4056.8125
2862.31855	4064.9125
2864.83189	4076.4125
2867.34368	4070.3125
2869.85393	4045.3125
2872.36264	4054.7125
2874.8698	4043.2125
2877.37543	4047.1125
2879.87952	4059.9125
2882.38207	4041.7125
2884.88308	4031.9125
2887.38256	4027.1125
2889.88051	4014.0125
2892.37692	4030.6125
2894.8718	4018.6125
2897.36515	4004.5125
2899.85698	4022.4125
2902.34727	4033.8125
2904.83604	4026.4125
2907.32328	4042.0125
2909.809	4040.8125
2912.29319	4043.1125
2914.77587	4051.1125
2917.25702	4069.1125
2919.73665	4045.3125
2922.21476	4043.3125
2924.69136	4035.8125
2927.16644	4025.5125
2929.64	4012.2125
2932.11205	4033.5125
2934.58258	4008.1125
2937.05161	4010.5125
2939.51912	4002.1125
2941.98513	4006.8125
2944.44962	3979.7125
2946.91261	3981.9125
2949.37409	3995.5125
2951.83407	3992.6125
2954.29254	3994.4125
2956.74951	3971.8125
2959.20498	3985.8125
2961.65895	3966.1125
2964.11142	3962.9125
2966.56239	3942.0125
2969.01186	3944.8125
2971.45984	3938.0125
2973.90632	3956.9125
2976.35131	3939.2125
2978.7948	3922.6125
2981.23681	3925.6125
2983.67732	3917.7125
2986.11635	3896.1125
2988.55388	3893.0125
2990.98993	3889.1125
2993.4245	3867.3125
2995.85758	3872.1125
2998.28917	3854.2125
3000.71928	3859.9125
3003.14791	3847.8125
3005.57506	3840.1125
3008.00073	3806.0125
3010.42493	3804.2125
3012.84764	3801.5125
3015.26888	3791.7125
3017.68865	3778.6125
3020.10694	3774.0125
3022.52376	3755.0125
3024.9391	3755.9125
3027.35298	3728.7125
3029.76539	3728.0125
3032.17632	3735.6125
3034.5858	3720.0125
3036.9938	3719.3125
3039.40034	3711.3125
3041.80542	3705.0125
3044.20903	3695.8125
3046.61118	3700.0125
3049.01187	3697.6125
3051.4111	3679.1125
3053.80888	3669.4125
3056.20519	3663.7125
3058.60005	3655.3125
3060.99345	3654.1125
3063.3854	3639.6125
3065.7759	3635.4125
3068.16494	3622.9125
3070.55254	3600.9125
3072.93868	3580.5125
3075.32338	3576.6125
3077.70662	3578.8125
3080.08842	3562.1125
3082.46878	3560.2125
3084.84769	3544.2125
3087.22515	3551.1125
3089.60118	3554.5125
3091.97576	3535.9125
3094.3489	3542.8125
3096.72061	3542.5125
3099.09087	3529.1125
3101.4597	3519.5125
3103.82709	3531.0125
3106.19305	3517.7125
3108.55757	3515.0125
3110.92066	3510.2125
3113.28232	3502.9125
3115.64255	3507.8125
3118.00134	3490.7125
3120.35871	3488.3125
