Data from AgNPs_UA_10uM_CRN_500uM_SU_RamanShift__72__13-17-20-268.txt Node

Date: Thu Aug 04 13:17:20 BST 2022
User: TCL
Spectrometer: QEP01345
Trigger mode: 4
Integration Time (sec): 1.000000E0
Scans to average: 10
Electric dark correction enabled: true
Nonlinearity correction enabled: false
Boxcar width: 0
XAxis mode: Raman Shifts
Number of Pixels in Spectrum: 1044
>>>>>Begin Spectral Data<<<<<
46.04893	-0.125
50.45542	-1.625
54.85868	1.375
59.25871	-0.125
63.6555	23.675
68.04907	23.875
72.43941	25.475
76.82654	25.375
81.21044	27.275
85.59113	27.475
89.96862	30.475
94.34289	28.275
98.71396	30.075
103.08183	32.075
107.4465	32.475
111.80798	33.375
116.16626	32.675
120.52136	37.175
124.87327	37.175
129.222	40.475
133.56755	41.075
137.90993	45.975
142.24913	51.875
146.58517	58.375
150.91804	68.275
155.24774	85.375
159.57429	104.375
163.89768	139.375
168.21792	185.475
172.53501	254.575
176.84895	359.275
181.15975	513.575
185.46741	729.175
189.77193	1000.775
194.07331	1352.175
198.37157	1754.375
202.6667	2141.075
206.9587	2561.675
211.24758	2970.175
215.53334	3396.975
219.81599	3824.375
224.09553	4327.975
228.37195	4859.875
232.64527	5451.375
236.91549	6026.875
241.18261	6577.375
245.44663	7029.475
249.70755	7409.475
253.96539	7745.075
258.22014	8037.975
262.4718	8287.275
266.72039	8446.175
270.96589	8520.075
275.20832	8473.075
279.44768	8387.075
283.68397	8253.275
287.91719	8157.475
292.14735	8158.275
296.37445	8245.475
300.59849	8406.975
304.81948	8627.275
309.03742	8830.075
313.25231	8903.475
317.46415	8825.975
321.67296	8608.475
325.87872	8359.675
330.08145	8245.575
334.28114	8251.675
338.47781	8323.675
342.67145	8449.275
346.86207	8673.875
351.04966	8969.175
355.23424	9255.375
359.4158	9482.775
363.59435	9591.175
367.76989	9677.875
371.94243	9705.675
376.11196	9726.675
380.27849	9779.175
384.44203	9830.475
388.60257	9894.675
392.76012	9999.675
396.91468	10128.175
401.06626	10279.775
405.21485	10339.775
409.36047	10245.975
413.50311	10051.975
417.64277	9823.975
421.77947	9673.575
425.9132	9575.275
430.04396	9540.375
434.17176	9590.275
438.2966	9712.275
442.41849	9867.375
446.53742	10055.875
450.6534	10267.775
454.76644	10438.375
458.87653	10509.275
462.98368	10542.875
467.08789	10480.275
471.18916	10339.875
475.2875	10148.975
479.38291	9959.375
483.4754	9830.175
487.56496	9762.675
491.6516	9754.175
495.73531	9728.375
499.81612	9779.375
503.89401	9842.875
507.96899	9926.375
512.04106	9942.675
516.11023	9981.775
520.1765	10010.375
524.23987	10017.375
528.30034	10007.275
532.35792	10015.775
536.41261	9931.675
540.46441	9845.875
544.51333	9821.875
548.55936	9875.375
552.60252	10012.375
556.64279	10144.475
560.6802	10271.175
564.71473	10354.475
568.7464	10377.975
572.7752	10360.075
576.80114	10129.175
580.82422	9974.675
584.84444	9949.575
588.86181	9961.675
592.87633	10025.275
596.888	10213.575
600.89682	10657.675
604.9028	11718.175
608.90594	13781.375
612.90624	15639.575
616.90371	14441.575
620.89834	11779.675
624.89015	10721.275
628.87913	10624.475
632.86528	10786.975
636.84862	10849.075
640.82913	10633.375
644.80683	10278.975
648.78172	10074.875
652.75379	10092.575
656.72306	10360.475
660.68952	10647.475
664.65319	10632.675
668.61405	10577.575
672.57211	10713.575
676.52738	10696.975
680.47986	10451.075
684.42955	10210.175
688.37646	10170.275
692.32058	10263.775
696.26192	10496.075
700.20048	10662.475
704.13626	10718.075
708.06928	10541.675
711.99952	10409.175
715.927	10419.175
719.85171	10468.275
723.77365	10463.875
727.69284	10402.875
731.60928	10316.775
735.52295	10315.775
739.43388	10363.375
743.34206	10405.675
747.24749	10394.075
751.15017	10408.375
755.05012	10495.675
758.94733	10794.875
762.8418	11482.175
766.73354	12525.775
770.62254	13372.075
774.50882	13684.475
778.39237	13384.275
782.27321	12705.975
786.15132	11832.575
790.02671	11155.775
793.89938	10803.675
797.76935	10608.975
801.6366	10503.275
805.50115	10418.075
809.36299	10391.575
813.22213	10392.175
817.07857	10376.775
820.93231	10388.275
824.78336	10406.775
828.63172	10408.675
832.47738	10411.975
836.32036	10414.675
840.16066	10388.575
843.99827	10399.675
847.8332	10409.275
851.66546	10421.075
855.49504	10420.075
859.32195	10431.275
863.1462	10423.375
866.96777	10405.875
870.78668	10421.475
874.60293	10484.575
878.41652	10515.275
882.22745	10588.675
886.03573	10626.475
889.84136	10637.375
893.64433	10597.375
897.44466	10567.675
901.24235	10523.375
905.0374	10523.075
908.8298	10513.575
912.61957	10493.675
916.40671	10485.375
920.19121	10515.375
923.97308	10565.475
927.75233	10646.775
931.52895	10712.275
935.30295	10672.775
939.07433	10524.475
942.84309	10459.075
946.60924	10420.275
950.37278	10402.375
954.13371	10380.675
957.89203	10369.275
961.64774	10370.775
965.40086	10363.675
969.15137	10358.875
972.89929	10345.575
976.64461	10345.575
980.38733	10345.075
984.12747	10386.375
987.86502	10419.975
991.59999	10486.575
995.33237	10553.775
999.06217	10683.875
1002.78939	10829.575
1006.51404	10991.475
1010.23611	11126.175
1013.95561	11262.975
1017.67255	11290.675
1021.38692	11324.375
1025.09872	11279.075
1028.80796	11204.675
1032.51465	11223.075
1036.21877	11267.275
1039.92035	11286.975
1043.61937	11297.775
1047.31584	11252.075
1051.00976	11254.275
1054.70114	11281.775
1058.38998	11324.975
1062.07627	11384.375
1065.76003	11493.375
1069.44126	11583.075
1073.11995	11826.875
1076.79611	12014.175
1080.46974	12117.575
1084.14085	12204.475
1087.80943	12271.375
1091.47549	12316.175
1095.13903	12346.575
1098.80005	12452.075
1102.45857	12582.275
1106.11456	12593.975
1109.76805	12375.075
1113.41903	12297.175
1117.06751	12382.075
1120.71348	12499.475
1124.35696	12619.475
1127.99793	12676.175
1131.63641	12511.875
1135.2724	12237.075
1138.90589	12009.275
1142.5369	11860.475
1146.16542	11716.375
1149.79145	11629.675
1153.415	11539.375
1157.03607	11543.575
1160.65467	11637.175
1164.27079	11841.875
1167.88443	12174.375
1171.49561	12638.075
1175.10432	13325.575
1178.71056	14224.275
1182.31434	15015.175
1185.91565	15408.975
1189.51451	15509.575
1193.11091	15445.075
1196.70485	15182.075
1200.29634	14830.375
1203.88538	14406.975
1207.47197	13871.275
1211.05612	13408.375
1214.63782	12928.175
1218.21708	12605.175
1221.79391	12449.075
1225.36829	12413.775
1228.94024	12416.175
1232.50976	12410.475
1236.07685	12466.275
1239.6415	12493.075
1243.20374	12541.275
1246.76355	12628.275
1250.32093	12730.775
1253.8759	12903.475
1257.42845	13151.875
1260.97859	13538.175
1264.52631	13844.975
1268.07163	14050.775
1271.61453	14195.675
1275.15503	14247.575
1278.69312	14260.575
1282.22882	14305.675
1285.76211	14389.575
1289.29301	14531.075
1292.82151	14774.075
1296.34761	15004.975
1299.87133	15390.275
1303.39266	16083.375
1306.9116	17028.975
1310.42815	18084.075
1313.94233	18520.175
1317.45412	18113.775
1320.96354	17404.675
1324.47058	16639.475
1327.97525	16025.275
1331.47754	15622.275
1334.97747	15519.575
1338.47502	15773.775
1341.97022	16299.775
1345.46305	17155.875
1348.95352	18270.375
1352.44163	19413.275
1355.92738	20520.575
1359.41078	21582.875
1362.89183	22072.675
1366.37053	20905.375
1369.84688	18485.175
1373.32088	16316.275
1376.79254	15079.075
1380.26186	14473.275
1383.72883	14099.575
1387.19347	13727.475
1390.65578	13359.275
1394.11575	13014.375
1397.57339	12752.175
1401.0287	12619.375
1404.48168	12657.275
1407.93234	12788.175
1411.38068	13056.575
1414.82669	13283.675
1418.27039	13356.375
1421.71177	13318.975
1425.15083	13237.775
1428.58758	13130.475
1432.02203	13157.075
1435.45416	13165.875
1438.88399	13121.175
1442.31151	13067.175
1445.73673	13056.475
1449.15965	13029.575
1452.58027	13015.275
1455.9986	12931.575
1459.41463	12951.775
1462.82837	13048.775
1466.23982	13240.475
1469.64898	13484.275
1473.05586	13663.475
1476.46045	13809.475
1479.86276	13967.975
1483.26279	14165.575
1486.66054	14390.475
1490.05602	14784.975
1493.44922	15347.875
1496.84016	16209.975
1500.22882	17341.975
1503.61521	18622.875
1506.99934	19760.275
1510.38121	20293.975
1513.76081	19900.575
1517.13816	18620.975
1520.51324	17087.475
1523.88607	15819.575
1527.25665	15045.175
1530.62498	14675.875
1533.99105	14461.575
1537.35488	14375.975
1540.71647	14292.775
1544.07581	14165.075
1547.4329	14019.175
1550.78776	13882.375
1554.14038	13741.775
1557.49077	13715.975
1560.83892	13825.475
1564.18484	14071.275
1567.52853	14301.675
1570.86999	14425.375
1574.20922	14458.275
1577.54624	14304.875
1580.88103	13910.875
1584.2136	13369.475
1587.54395	13121.075
1590.87208	13203.975
1594.19801	13629.875
1597.52172	14153.775
1600.84321	14413.275
1604.16251	14361.675
1607.47959	14121.775
1610.79447	13718.375
1614.10715	13175.075
1617.41763	12553.975
1620.7259	12115.375
1624.03199	11836.375
1627.33587	11798.675
1630.63757	11906.075
1633.93707	12290.075
1637.23439	12989.575
1640.52951	13982.675
1643.82246	15253.975
1647.11321	16393.375
1650.40179	16674.275
1653.68819	15805.175
1656.97241	14191.775
1660.25446	12701.275
1663.53433	11735.675
1666.81203	11092.375
1670.08756	10729.075
1673.36092	10545.175
1676.63211	10383.675
1679.90115	10265.775
1683.16801	10179.875
1686.43272	10097.675
1689.69527	10028.675
1692.95567	9987.075
1696.2139	9959.475
1699.46999	9937.175
1702.72392	9898.375
1705.97571	9891.375
1709.22535	9897.575
1712.47284	9899.775
1715.71819	9887.475
1718.96139	9905.575
1722.20246	9874.075
1725.44139	9855.475
1728.67818	9801.875
1731.91284	9747.075
1735.14537	9705.075
1738.37576	9658.675
1741.60403	9618.475
1744.83017	9576.675
1748.05418	9613.675
1751.27607	9561.175
1754.49584	9549.175
1757.71349	9546.775
1760.92903	9542.875
1764.14244	9516.675
1767.35375	9489.175
1770.56294	9455.975
1773.77002	9470.875
1776.97499	9432.575
1780.17785	9398.075
1783.37861	9382.975
1786.57727	9355.475
1789.77382	9338.975
1792.96828	9366.875
1796.16064	9305.775
1799.3509	9320.575
1802.53907	9337.475
1805.72514	9310.375
1808.90913	9252.075
1812.09102	9235.375
1815.27083	9219.875
1818.44856	9174.975
1821.6242	9180.775
1824.79776	9141.375
1827.96924	9127.875
1831.13864	9129.075
1834.30597	9103.675
1837.47122	9082.775
1840.6344	9091.475
1843.7955	9063.375
1846.95454	9053.675
1850.11151	9041.475
1853.26642	9037.475
1856.41926	9052.875
1859.57004	9059.375
1862.71876	9054.475
1865.86542	9035.175
1869.01003	9027.975
1872.15258	9003.175
1875.29308	8985.175
1878.43152	8977.875
1881.56792	8982.475
1884.70227	8963.375
1887.83457	8938.675
1890.96482	8916.875
1894.09304	8896.675
1897.21921	8863.975
1900.34335	8865.275
1903.46544	8875.975
1906.58551	8855.375
1909.70353	8851.775
1912.81953	8838.775
1915.93349	8814.775
1919.04543	8814.575
1922.15534	8782.175
1925.26322	8777.375
1928.36908	8744.975
1931.47292	8728.475
1934.57473	8715.475
1937.67453	8671.575
1940.77232	8671.675
1943.86808	8643.175
1946.96184	8625.275
1950.05358	8613.275
1953.14331	8575.775
1956.23103	8551.275
1959.31675	8515.075
1962.40046	8493.575
1965.48217	8476.675
1968.56188	8431.875
1971.63959	8422.575
1974.7153	8383.575
1977.78901	8395.475
1980.86073	8386.075
1983.93046	8314.075
1986.99819	8274.475
1990.06394	8267.675
1993.1277	8241.075
1996.18947	8194.275
1999.24925	8162.475
2002.30706	8127.975
2005.36288	8126.675
2008.41672	8073.475
2011.46859	8073.775
2014.51848	8024.175
2017.56639	8007.575
2020.61233	8000.175
2023.6563	7960.275
2026.6983	7959.975
2029.73833	7908.475
2032.7764	7888.975
2035.8125	7893.175
2038.84664	7859.775
2041.87881	7826.575
2044.90903	7818.075
2047.93729	7816.175
2050.96359	7801.575
2053.98794	7797.775
2057.01034	7768.975
2060.03078	7772.675
2063.04927	7756.575
2066.06582	7742.175
2069.08042	7731.075
2072.09307	7730.875
2075.10378	7720.875
2078.11255	7717.075
2081.11938	7700.175
2084.12426	7685.275
2087.12722	7681.075
2090.12824	7682.675
2093.12732	7686.375
2096.12447	7696.175
2099.11969	7684.975
2102.11299	7705.075
2105.10435	7692.375
2108.09379	7703.275
2111.08131	7700.575
2114.0669	7690.575
2117.05057	7689.675
2120.03233	7711.575
2123.01216	7703.575
2125.99008	7684.375
2128.96609	7677.975
2131.94018	7733.575
2134.91236	7709.675
2137.88263	7709.875
2140.851	7691.975
2143.81746	7693.875
2146.78201	7701.375
2149.74466	7710.675
2152.7054	7702.175
2155.66425	7678.675
2158.6212	7703.575
2161.57625	7672.475
2164.52941	7679.875
2167.48067	7675.175
2170.43004	7668.975
2173.37752	7665.875
2176.32311	7642.275
2179.26681	7655.475
2182.20863	7663.575
2185.14856	7667.775
2188.08661	7652.375
2191.02278	7650.575
2193.95707	7653.175
2196.88948	7630.675
2199.82001	7608.175
2202.74867	7628.475
2205.67545	7609.875
2208.60037	7634.875
2211.52341	7594.975
2214.44458	7563.875
2217.36388	7534.475
2220.28132	7526.075
2223.1969	7506.975
2226.11061	7469.675
2229.02246	7469.675
2231.93245	7439.475
2234.84058	7445.275
2237.74686	7418.175
2240.65128	7421.375
2243.55385	7390.375
2246.45456	7412.275
2249.35343	7376.375
2252.25044	7364.175
2255.14561	7361.675
2258.03893	7356.975
2260.93041	7343.575
2263.82004	7345.175
2266.70783	7302.075
2269.59378	7272.075
2272.4779	7264.875
2275.36017	7249.775
2278.24061	7215.275
2281.11922	7216.475
2283.996	7210.375
2286.87094	7171.175
2289.74405	7181.075
2292.61534	7159.075
2295.4848	7141.775
2298.35243	7136.475
2301.21824	7128.575
2304.08223	7111.575
2306.94439	7118.175
2309.80474	7107.175
2312.66327	7101.475
2315.51999	7077.875
2318.37489	7092.875
2321.22797	7051.875
2324.07925	7047.175
2326.92871	7040.875
2329.77637	7025.275
2332.62222	7024.575
2335.46626	6994.775
2338.3085	6997.975
2341.14893	6981.875
2343.98756	6991.075
2346.8244	6974.075
2349.65943	6972.275
2352.49267	6968.775
2355.32411	6950.475
2358.15376	6946.475
2360.98161	6944.375
2363.80768	6923.875
2366.63195	6927.075
2369.45444	6931.575
2372.27514	6918.475
2375.09405	6911.075
2377.91118	6878.675
2380.72652	6870.975
2383.54009	6873.175
2386.35187	6861.675
2389.16188	6863.175
2391.97011	6804.575
2394.77657	6767.775
2397.58125	6784.575
2400.38416	6750.775
2403.18529	6768.375
2405.98466	6754.675
2408.78226	6730.775
2411.57809	6715.275
2414.37216	6705.575
2417.16446	6703.875
2419.955	6680.675
2422.74378	6709.375
2425.5308	6677.475
2428.31606	6658.775
2431.09956	6655.875
2433.88131	6662.275
2436.6613	6651.875
2439.43954	6649.975
2442.21603	6642.475
2444.99077	6623.875
2447.76377	6633.175
2450.53501	6602.275
2453.30451	6623.875
2456.07226	6614.275
2458.83827	6584.175
2461.60254	6579.775
2464.36507	6580.775
2467.12586	6568.075
2469.88492	6558.975
2472.64224	6561.675
2475.39782	6546.175
2478.15167	6539.375
2480.90379	6520.375
2483.65417	6522.775
2486.40283	6520.075
2489.14976	6532.475
2491.89497	6523.275
2494.63845	6512.975
2497.3802	6514.875
2500.12024	6497.675
2502.85855	6485.075
2505.59514	6481.075
2508.33002	6466.875
2511.06318	6430.575
2513.79462	6436.975
2516.52435	6441.375
2519.25237	6411.775
2521.97867	6394.075
2524.70327	6402.475
2527.42616	6381.375
2530.14734	6354.675
2532.86681	6358.575
2535.58458	6390.675
2538.30065	6373.175
2541.01501	6360.775
2543.72768	6343.675
2546.43864	6328.775
2549.14791	6326.975
2551.85548	6303.575
2554.56136	6305.275
2557.26554	6294.375
2559.96803	6278.475
2562.66883	6249.075
2565.36794	6243.375
2568.06536	6224.575
2570.7611	6221.075
2573.45514	6198.675
2576.14751	6192.275
2578.83819	6187.875
2581.52719	6151.875
2584.21451	6173.775
2586.90015	6170.475
2589.58411	6141.575
2592.2664	6122.875
2594.94701	6105.875
2597.62594	6100.075
2600.30321	6099.875
2602.9788	6093.175
2605.65273	6080.575
2608.32498	6080.175
2610.99557	6061.075
2613.66449	6067.275
2616.33175	6060.675
2618.99734	6047.075
2621.66128	6027.375
2624.32355	6013.175
2626.98416	6018.675
2629.64311	5995.275
2632.30041	5979.075
2634.95605	5990.075
2637.61004	5965.675
2640.26238	5946.375
2642.91306	5959.175
2645.56209	5960.075
2648.20948	5945.675
2650.85521	5941.475
2653.4993	5943.475
2656.14175	5928.975
2658.78255	5908.875
2661.42171	5913.675
2664.05923	5921.275
2666.6951	5923.175
2669.32934	5944.575
2671.96194	5938.975
2674.59291	5926.275
2677.22224	5930.875
2679.84993	5924.775
2682.476	5929.675
2685.10043	5910.375
2687.72324	5923.375
2690.34441	5918.375
2692.96396	5908.075
2695.58188	5911.475
2698.19818	5902.675
2700.81285	5898.375
2703.4259	5900.475
2706.03733	5885.375
2708.64714	5879.975
2711.25533	5867.875
2713.86191	5858.475
2716.46687	5878.775
2719.07021	5865.875
2721.67194	5884.275
2724.27206	5860.375
2726.87057	5863.475
2729.46747	5865.575
2732.06276	5861.775
2734.65644	5857.775
2737.24852	5840.575
2739.83899	5842.375
2742.42786	5815.175
2745.01513	5808.975
2747.60079	5795.775
2750.18486	5782.175
2752.76733	5789.475
2755.3482	5777.275
2757.92747	5785.775
2760.50515	5755.375
2763.08123	5757.675
2765.65573	5751.275
2768.22863	5734.875
2770.79994	5709.875
2773.36967	5717.475
2775.9378	5716.675
2778.50435	5692.075
2781.06932	5702.375
2783.6327	5696.575
2786.1945	5691.075
2788.75471	5671.475
2791.31335	5653.975
2793.87041	5652.675
2796.42589	5631.375
2798.97979	5609.375
2801.53212	5596.475
2804.08288	5595.875
2806.63206	5576.175
2809.17967	5574.775
2811.72571	5555.475
2814.27018	5553.075
2816.81308	5530.075
2819.35442	5514.475
2821.89419	5512.175
2824.43239	5505.375
2826.96904	5489.075
2829.50412	5486.875
2832.03763	5471.775
2834.56959	5479.975
2837.1	5444.675
2839.62884	5441.575
2842.15613	5422.075
2844.68186	5429.775
2847.20604	5435.275
2849.72867	5428.675
2852.24974	5418.175
2854.76927	5391.775
2857.28724	5382.375
2859.80367	5376.875
2862.31855	5359.175
2864.83189	5368.975
2867.34368	5378.575
2869.85393	5363.375
2872.36264	5334.675
2874.8698	5335.275
2877.37543	5322.975
2879.87952	5315.275
2882.38207	5316.175
2884.88308	5291.075
2887.38256	5300.475
2889.88051	5303.175
2892.37692	5296.375
2894.8718	5278.675
2897.36515	5296.875
2899.85698	5276.775
2902.34727	5283.775
2904.83604	5275.275
2907.32328	5306.675
2909.809	5287.175
2912.29319	5297.075
2914.77587	5289.475
2917.25702	5297.875
2919.73665	5299.575
2922.21476	5300.175
2924.69136	5278.275
2927.16644	5262.475
2929.64	5254.375
2932.11205	5238.175
2934.58258	5229.675
2937.05161	5233.575
2939.51912	5226.475
2941.98513	5237.275
2944.44962	5208.675
2946.91261	5205.175
2949.37409	5216.475
2951.83407	5192.475
2954.29254	5179.275
2956.74951	5197.175
2959.20498	5182.775
2961.65895	5180.475
2964.11142	5180.875
2966.56239	5165.275
2969.01186	5165.275
2971.45984	5169.975
2973.90632	5155.475
2976.35131	5160.575
2978.7948	5132.375
2981.23681	5115.975
2983.67732	5119.575
2986.11635	5089.075
2988.55388	5101.975
2990.98993	5081.875
2993.4245	5066.975
2995.85758	5058.875
2998.28917	5050.875
3000.71928	5034.775
3003.14791	5019.175
3005.57506	4998.275
3008.00073	5000.975
3010.42493	4970.375
3012.84764	4955.275
3015.26888	4970.375
3017.68865	4948.875
3020.10694	4941.875
3022.52376	4915.275
3024.9391	4897.875
3027.35298	4887.975
3029.76539	4880.275
3032.17632	4870.075
3034.5858	4880.875
3036.9938	4859.375
3039.40034	4832.775
3041.80542	4816.775
3044.20903	4809.875
3046.61118	4818.175
3049.01187	4791.675
3051.4111	4788.175
3053.80888	4770.575
3056.20519	4759.475
3058.60005	4750.075
3060.99345	4759.775
3063.3854	4745.075
3065.7759	4716.775
3068.16494	4704.875
3070.55254	4678.875
3072.93868	4674.175
3075.32338	4653.275
3077.70662	4652.475
3080.08842	4633.975
3082.46878	4638.075
3084.84769	4618.075
3087.22515	4614.375
3089.60118	4609.075
3091.97576	4592.275
3094.3489	4597.575
3096.72061	4584.075
3099.09087	4571.575
3101.4597	4571.575
3103.82709	4578.475
3106.19305	4577.575
3108.55757	4585.075
3110.92066	4554.575
3113.28232	4557.375
3115.64255	4530.775
3118.00134	4518.175
3120.35871	4498.875
3122.71466	4499.175
3125.06917	4501.275
3127.42226	4488.975
3129.77393	4479.975
3132.12417	4461.575
3134.47299	4465.475
3136.82039	4438.875
3139.16636	4458.175
3141.51092	4447.375
3143.85406	4436.275
3146.19579	4431.075
3148.53609	4428.475
3150.87499	4432.175
3153.21246	4428.575
3155.54853	4426.375
3157.88318	4423.475
3160.21642	4421.575
3162.54826	4405.775
3164.87868	4399.775
3167.2077	4387.075
3169.5353	4387.175
3171.86151	4381.975
3174.18631	4374.375
3176.5097	4357.475
3178.83169	4342.875
3181.15228	4341.375
3183.47147	4331.075
3185.78926	4323.275
3188.10565	4299.075
3190.42065	4301.375
3192.73424	4288.875
3195.04645	4282.275
3197.35725	4278.475
3199.66667	4273.975
3201.97469	4268.575
