Data from AgNPs_UA_5uM_CRN_500uM_SU_RamanShift__23__11-33-13-143.txt Node

Date: Thu Aug 04 11:33:13 BST 2022
User: TCL
Spectrometer: QEP01345
Trigger mode: 4
Integration Time (sec): 1.000000E0
Scans to average: 10
Electric dark correction enabled: true
Nonlinearity correction enabled: false
Boxcar width: 0
XAxis mode: Raman Shifts
Number of Pixels in Spectrum: 1044
>>>>>Begin Spectral Data<<<<<
46.04893	-1.575
50.45542	-1.075
54.85868	0.725
59.25871	-0.375
63.6555	-53.875
68.04907	-34.075
72.43941	-65.775
76.82654	-50.675
81.21044	-51.775
85.59113	-44.875
89.96862	-68.675
94.34289	-51.275
98.71396	-71.075
103.08183	-48.875
107.4465	-43.075
111.80798	-48.475
116.16626	-34.675
120.52136	-64.875
124.87327	-40.275
129.222	-50.775
133.56755	-33.475
137.90993	-45.275
142.24913	-29.875
146.58517	-17.975
150.91804	-10.475
155.24774	6.925
159.57429	45.025
163.89768	66.025
168.21792	141.525
172.53501	205.825
176.84895	351.925
181.15975	574.925
185.46741	854.425
189.77193	1206.925
194.07331	1702.625
198.37157	2233.925
202.6667	2782.525
206.9587	3381.825
211.24758	4029.825
215.53334	4726.125
219.81599	5576.925
224.09553	6544.025
228.37195	7536.525
232.64527	8491.425
236.91549	9224.825
241.18261	9632.925
245.44663	9743.225
249.70755	9709.325
253.96539	9715.425
258.22014	9791.425
262.4718	9891.725
266.72039	9870.625
270.96589	9640.825
275.20832	9250.725
279.44768	8809.325
283.68397	8471.125
287.91719	8384.925
292.14735	8602.825
296.37445	9253.925
300.59849	10416.925
304.81948	11998.925
309.03742	13801.625
313.25231	15141.825
317.46415	14951.625
321.67296	13088.925
325.87872	10924.225
330.08145	9728.225
334.28114	9437.025
338.47781	9776.325
342.67145	10490.425
346.86207	11617.025
351.04966	13317.825
355.23424	15002.625
359.4158	15621.825
363.59435	15017.325
367.76989	13991.625
371.94243	12992.825
376.11196	12151.525
380.27849	11554.225
384.44203	11080.525
388.60257	10793.425
392.76012	10841.525
396.91468	11193.325
401.06626	11675.525
405.21485	11665.325
409.36047	10887.325
413.50311	9581.825
417.64277	8349.025
421.77947	7563.425
425.9132	7219.425
430.04396	7063.225
434.17176	7025.725
438.2966	7179.725
442.41849	7430.125
446.53742	7704.225
450.6534	7839.625
454.76644	7831.125
458.87653	7684.325
462.98368	7520.025
467.08789	7338.525
471.18916	7061.525
475.2875	6701.625
479.38291	6420.625
483.4754	6235.325
487.56496	6152.725
491.6516	6054.025
495.73531	6034.025
499.81612	6119.825
503.89401	6309.025
507.96899	6554.025
512.04106	6857.725
516.11023	7210.125
520.1765	7453.325
524.23987	7549.525
528.30034	7535.625
532.35792	7382.725
536.41261	7201.725
540.46441	6951.925
544.51333	6749.525
548.55936	6748.125
552.60252	6937.825
556.64279	7200.125
560.6802	7733.825
564.71473	8931.025
568.7464	10504.325
572.7752	10424.025
576.80114	8458.225
580.82422	6825.825
584.84444	6150.925
588.86181	5913.125
592.87633	5913.725
596.888	6155.325
600.89682	7117.325
604.9028	10312.025
608.90594	18532.625
612.90624	28473.025
616.90371	25684.825
620.89834	13402.325
624.89015	8047.925
628.87913	7480.825
632.86528	8252.225
636.84862	8527.125
640.82913	7516.625
644.80683	6237.025
648.78172	5663.525
652.75379	5895.725
656.72306	6833.525
660.68952	7773.525
664.65319	7253.725
668.61405	5983.125
672.57211	5472.425
676.52738	5452.525
680.47986	5382.325
684.42955	5205.325
688.37646	5112.525
692.32058	5112.925
696.26192	5230.425
700.20048	5390.225
704.13626	5433.225
708.06928	5318.825
711.99952	5268.825
715.927	5361.825
719.85171	5628.325
723.77365	5781.625
727.69284	5627.125
731.60928	5426.225
735.52295	5353.925
739.43388	5461.325
743.34206	5483.425
747.24749	5505.725
751.15017	5529.225
755.05012	5954.025
758.94733	7571.125
762.8418	11220.125
766.73354	15837.325
770.62254	18235.225
774.50882	17263.025
778.39237	15365.525
782.27321	12533.625
786.15132	9071.825
790.02671	6816.325
793.89938	5781.925
797.76935	5441.125
801.6366	5263.025
805.50115	5182.125
809.36299	5130.325
813.22213	5104.425
817.07857	5094.125
820.93231	5132.425
824.78336	5273.025
828.63172	5429.225
832.47738	5478.425
836.32036	5367.825
840.16066	5091.525
843.99827	4916.825
847.8332	4863.925
851.66546	4855.025
855.49504	4824.025
859.32195	4830.225
863.1462	4766.125
866.96777	4748.625
870.78668	4756.725
874.60293	4806.925
878.41652	4897.125
882.22745	5067.825
886.03573	5174.125
889.84136	5117.025
893.64433	5096.325
897.44466	5099.725
901.24235	5126.125
905.0374	5018.825
908.8298	4825.825
912.61957	4661.625
916.40671	4554.325
920.19121	4620.325
923.97308	4888.825
927.75233	5371.125
931.52895	5894.025
935.30295	5607.425
939.07433	4879.025
942.84309	4414.725
946.60924	4234.625
950.37278	4161.725
954.13371	4141.025
957.89203	4143.825
961.64774	4144.325
965.40086	4115.625
969.15137	4077.425
972.89929	4111.625
976.64461	4073.125
980.38733	4071.625
984.12747	4058.425
987.86502	4074.925
991.59999	4118.625
995.33237	4186.325
999.06217	4325.525
1002.78939	4559.325
1006.51404	4920.625
1010.23611	5085.625
1013.95561	4912.125
1017.67255	4676.825
1021.38692	4458.425
1025.09872	4292.925
1028.80796	4195.225
1032.51465	4252.925
1036.21877	4291.425
1039.92035	4392.025
1043.61937	4476.125
1047.31584	4552.025
1051.00976	4573.225
1054.70114	4485.025
1058.38998	4407.625
1062.07627	4389.225
1065.76003	4393.725
1069.44126	4443.025
1073.11995	4567.525
1076.79611	4910.725
1080.46974	5529.125
1084.14085	6397.525
1087.80943	7115.825
1091.47549	7032.225
1095.13903	6306.925
1098.80005	5535.325
1102.45857	5122.825
1106.11456	5097.625
1109.76805	5258.725
1113.41903	5747.825
1117.06751	6547.325
1120.71348	7816.025
1124.35696	9678.025
1127.99793	10924.125
1131.63641	9919.025
1135.2724	7947.925
1138.90589	6643.125
1142.5369	5919.725
1146.16542	5468.325
1149.79145	5179.125
1153.415	5109.425
1157.03607	5182.125
1160.65467	5441.225
1164.27079	5964.425
1167.88443	6673.425
1171.49561	7921.225
1175.10432	9990.725
1178.71056	12842.325
1182.31434	14743.325
1185.91565	14354.525
1189.51451	12512.725
1193.11091	10550.225
1196.70485	9332.525
1200.29634	8825.025
1203.88538	8241.425
1207.47197	7059.425
1211.05612	5978.725
1214.63782	5293.625
1218.21708	4982.325
1221.79391	4870.725
1225.36829	4843.125
1228.94024	4853.025
1232.50976	4812.225
1236.07685	4863.625
1239.6415	4948.425
1243.20374	5096.825
1246.76355	5303.925
1250.32093	5566.325
1253.8759	5921.425
1257.42845	6564.225
1260.97859	7378.025
1264.52631	8143.925
1268.07163	8504.925
1271.61453	8469.725
1275.15503	8154.525
1278.69312	7832.025
1282.22882	8087.825
1285.76211	9170.725
1289.29301	10626.425
1292.82151	11600.425
1296.34761	12004.725
1299.87133	12975.025
1303.39266	15453.125
1306.9116	20115.525
1310.42815	25885.225
1313.94233	28059.325
1317.45412	23811.325
1320.96354	17422.125
1324.47058	12512.025
1327.97525	9568.725
1331.47754	8085.325
1334.97747	7619.225
1338.47502	7832.825
1341.97022	8961.425
1345.46305	11457.025
1348.95352	15016.825
1352.44163	18674.425
1355.92738	23346.225
1359.41078	31475.425
1362.89183	39867.125
1366.37053	37627.425
1369.84688	25621.225
1373.32088	15964.125
1376.79254	11794.825
1380.26186	9912.425
1383.72883	8431.325
1387.19347	7132.025
1390.65578	6157.025
1394.11575	5611.025
1397.57339	5355.425
1401.0287	5156.125
1404.48168	4987.725
1407.93234	4880.425
1411.38068	5004.225
1414.82669	5433.525
1418.27039	5951.425
1421.71177	6025.025
1425.15083	5805.325
1428.58758	5921.425
1432.02203	6592.225
1435.45416	7072.125
1438.88399	6743.525
1442.31151	6290.925
1445.73673	6182.625
1449.15965	6123.025
1452.58027	5967.925
1455.9986	5739.325
1459.41463	5536.625
1462.82837	5540.325
1466.23982	5810.625
1469.64898	6182.125
1473.05586	6306.625
1476.46045	6261.025
1479.86276	6309.825
1483.26279	6612.225
1486.66054	7331.325
1490.05602	8493.025
1493.44922	10318.325
1496.84016	13174.325
1500.22882	17656.325
1503.61521	23907.325
1506.99934	32093.625
1510.38121	40408.925
1513.76081	43975.625
1517.13816	39285.325
1520.51324	29460.425
1523.88607	20259.725
1527.25665	14284.225
1530.62498	10912.825
1533.99105	8942.025
1537.35488	7670.225
1540.71647	6950.025
1544.07581	6670.725
1547.4329	6689.325
1550.78776	6861.925
1554.14038	7248.025
1557.49077	7881.125
1560.83892	9054.725
1564.18484	10833.825
1567.52853	12674.825
1570.86999	13695.925
1574.20922	13767.425
1577.54624	12936.925
1580.88103	10764.925
1584.2136	8180.225
1587.54395	6665.425
1590.87208	6300.225
1594.19801	6778.725
1597.52172	7633.925
1600.84321	7646.925
1604.16251	6734.625
1607.47959	5883.325
1610.79447	5349.425
1614.10715	4934.425
1617.41763	4654.525
1620.7259	4537.425
1624.03199	4600.025
1627.33587	4836.925
1630.63757	5269.925
1633.93707	6131.425
1637.23439	7598.325
1640.52951	10339.225
1643.82246	15017.825
1647.11321	21321.825
1650.40179	26302.725
1653.68819	25754.825
1656.97241	19885.725
1660.25446	13197.025
1663.53433	8670.525
1666.81203	6221.725
1670.08756	4985.625
1673.36092	4316.225
1676.63211	3894.625
1679.90115	3620.225
1683.16801	3435.325
1686.43272	3278.025
1689.69527	3194.425
1692.95567	3118.425
1696.2139	3074.625
1699.46999	3007.625
1702.72392	2991.525
1705.97571	2997.925
1709.22535	2969.425
1712.47284	3021.225
1715.71819	3045.825
1718.96139	3062.325
1722.20246	3015.825
1725.44139	2944.725
1728.67818	2876.325
1731.91284	2787.625
1735.14537	2725.825
1738.37576	2674.625
1741.60403	2642.125
1744.83017	2612.725
1748.05418	2592.825
1751.27607	2576.225
1754.49584	2521.225
1757.71349	2452.125
1760.92903	2430.325
1764.14244	2334.925
1767.35375	2319.925
1770.56294	2263.025
1773.77002	2220.125
1776.97499	2208.325
1780.17785	2150.225
1783.37861	2114.125
1786.57727	2126.225
1789.77382	2047.025
1792.96828	2086.825
1796.16064	2081.125
1799.3509	2059.225
1802.53907	2081.325
1805.72514	2041.125
1808.90913	2028.125
1812.09102	2013.625
1815.27083	2016.225
1818.44856	1990.125
1821.6242	1985.825
1824.79776	1976.725
1827.96924	1964.225
1831.13864	1918.225
1834.30597	1925.825
1837.47122	1884.925
1840.6344	1853.425
1843.7955	1825.325
1846.95454	1809.625
1850.11151	1822.325
1853.26642	1781.825
1856.41926	1782.725
1859.57004	1789.225
1862.71876	1798.525
1865.86542	1801.025
1869.01003	1813.125
1872.15258	1809.625
1875.29308	1834.125
1878.43152	1827.125
1881.56792	1812.025
1884.70227	1781.325
1887.83457	1782.825
1890.96482	1765.225
1894.09304	1751.725
1897.21921	1743.725
1900.34335	1755.125
1903.46544	1734.025
1906.58551	1741.825
1909.70353	1733.425
1912.81953	1726.725
1915.93349	1717.725
1919.04543	1717.125
1922.15534	1693.325
1925.26322	1676.225
1928.36908	1652.625
1931.47292	1628.825
1934.57473	1611.825
1937.67453	1559.625
1940.77232	1532.025
1943.86808	1520.025
1946.96184	1522.825
1950.05358	1491.425
1953.14331	1499.225
1956.23103	1510.325
1959.31675	1495.625
1962.40046	1477.425
1965.48217	1518.825
1968.56188	1540.625
1971.63959	1550.025
1974.7153	1556.125
1977.78901	1551.425
1980.86073	1515.625
1983.93046	1459.725
1986.99819	1370.525
1990.06394	1377.225
1993.1277	1403.625
1996.18947	1394.525
1999.24925	1341.125
2002.30706	1352.825
2005.36288	1345.625
2008.41672	1327.625
2011.46859	1311.125
2014.51848	1304.125
2017.56639	1297.625
2020.61233	1279.725
2023.6563	1283.225
2026.6983	1241.425
2029.73833	1251.125
2032.7764	1264.025
2035.8125	1225.825
2038.84664	1240.325
2041.87881	1234.025
2044.90903	1243.725
2047.93729	1234.625
2050.96359	1194.625
2053.98794	1207.825
2057.01034	1206.225
2060.03078	1181.525
2063.04927	1162.825
2066.06582	1162.425
2069.08042	1137.225
2072.09307	1144.125
2075.10378	1146.325
2078.11255	1136.625
2081.11938	1143.025
2084.12426	1136.225
2087.12722	1130.725
2090.12824	1137.625
2093.12732	1133.925
2096.12447	1138.725
2099.11969	1132.325
2102.11299	1122.525
2105.10435	1145.825
2108.09379	1139.125
2111.08131	1130.925
2114.0669	1147.525
2117.05057	1150.625
2120.03233	1155.525
2123.01216	1196.525
2125.99008	1205.825
2128.96609	1211.125
2131.94018	1222.525
2134.91236	1193.125
2137.88263	1167.025
2140.851	1149.425
2143.81746	1150.225
2146.78201	1119.725
2149.74466	1085.525
2152.7054	1090.625
2155.66425	1064.825
2158.6212	1054.225
2161.57625	1027.525
2164.52941	1003.325
2167.48067	1031.425
2170.43004	1022.525
2173.37752	1058.225
2176.32311	1055.925
2179.26681	1059.125
2182.20863	1071.725
2185.14856	1063.625
2188.08661	1057.825
2191.02278	1054.225
2193.95707	1024.925
2196.88948	998.825
2199.82001	1014.125
2202.74867	990.125
2205.67545	997.325
2208.60037	1012.025
2211.52341	1005.725
2214.44458	998.025
2217.36388	992.025
2220.28132	977.025
2223.1969	955.525
2226.11061	972.625
2229.02246	950.325
2231.93245	950.725
2234.84058	945.525
2237.74686	942.625
2240.65128	940.125
2243.55385	943.325
2246.45456	937.525
2249.35343	974.625
2252.25044	983.625
2255.14561	1009.725
2258.03893	1039.925
2260.93041	1069.825
2263.82004	1074.925
2266.70783	1084.325
2269.59378	1060.225
2272.4779	1053.025
2275.36017	1064.925
2278.24061	1050.125
2281.11922	1018.825
2283.996	1024.525
2286.87094	984.425
2289.74405	985.225
2292.61534	980.625
2295.4848	955.425
2298.35243	941.425
2301.21824	925.325
2304.08223	921.725
2306.94439	930.325
2309.80474	930.625
2312.66327	933.325
2315.51999	915.725
2318.37489	920.425
2321.22797	896.625
2324.07925	897.225
2326.92871	907.225
2329.77637	882.025
2332.62222	890.125
2335.46626	878.525
2338.3085	879.025
2341.14893	900.625
2343.98756	913.525
2346.8244	917.925
2349.65943	908.625
2352.49267	926.725
2355.32411	947.825
2358.15376	950.625
2360.98161	986.325
2363.80768	984.625
2366.63195	1008.925
2369.45444	1030.725
2372.27514	1027.825
2375.09405	1038.025
2377.91118	1016.125
2380.72652	989.825
2383.54009	983.625
2386.35187	978.325
2389.16188	946.325
2391.97011	937.225
2394.77657	913.225
2397.58125	916.125
2400.38416	895.825
2403.18529	876.025
2405.98466	861.125
2408.78226	873.525
2411.57809	864.125
2414.37216	861.225
2417.16446	867.825
2419.955	847.325
2422.74378	872.825
2425.5308	853.825
2428.31606	867.825
2431.09956	884.525
2433.88131	871.525
2436.6613	898.025
2439.43954	899.525
2442.21603	894.225
2444.99077	905.425
2447.76377	930.925
2450.53501	926.025
2453.30451	923.625
2456.07226	945.525
2458.83827	930.625
2461.60254	882.725
2464.36507	929.025
2467.12586	906.025
2469.88492	917.625
2472.64224	923.425
2475.39782	908.625
2478.15167	939.725
2480.90379	950.725
2483.65417	993.225
2486.40283	1019.425
2489.14976	1032.625
2491.89497	1019.725
2494.63845	1035.025
2497.3802	1022.925
2500.12024	1013.125
2502.85855	994.425
2505.59514	985.425
2508.33002	945.725
2511.06318	899.825
2513.79462	880.225
2516.52435	827.625
2519.25237	791.025
2521.97867	781.325
2524.70327	775.625
2527.42616	762.225
2530.14734	775.525
2532.86681	748.125
2535.58458	761.725
2538.30065	756.525
2541.01501	777.025
2543.72768	767.925
2546.43864	786.825
2549.14791	796.225
2551.85548	790.825
2554.56136	788.725
2557.26554	814.625
2559.96803	811.825
2562.66883	817.725
2565.36794	811.525
2568.06536	787.825
2570.7611	820.225
2573.45514	816.625
2576.14751	804.525
2578.83819	793.525
2581.52719	785.225
2584.21451	779.425
2586.90015	758.925
2589.58411	740.125
2592.2664	757.325
2594.94701	759.525
2597.62594	772.525
2600.30321	716.125
2602.9788	743.625
2605.65273	740.325
2608.32498	757.225
2610.99557	768.325
2613.66449	748.725
2616.33175	776.525
2618.99734	782.425
2621.66128	777.225
2624.32355	763.825
2626.98416	740.225
2629.64311	739.725
2632.30041	725.025
2634.95605	701.125
2637.61004	692.825
2640.26238	674.525
2642.91306	666.325
2645.56209	686.625
2648.20948	688.625
2650.85521	661.525
2653.4993	695.025
2656.14175	690.125
2658.78255	687.825
2661.42171	664.125
2664.05923	708.525
2666.6951	727.725
2669.32934	741.125
2671.96194	760.025
2674.59291	745.625
2677.22224	743.625
2679.84993	743.925
2682.476	731.825
2685.10043	725.625
2687.72324	708.525
2690.34441	707.725
2692.96396	704.925
2695.58188	718.325
2698.19818	703.125
2700.81285	685.325
2703.4259	684.425
2706.03733	656.425
2708.64714	680.925
2711.25533	701.725
2713.86191	711.725
2716.46687	705.925
2719.07021	709.625
2721.67194	707.625
2724.27206	721.325
2726.87057	694.525
2729.46747	684.125
2732.06276	679.625
2734.65644	662.325
2737.24852	659.725
2739.83899	634.825
2742.42786	643.825
2745.01513	651.225
2747.60079	618.425
2750.18486	611.325
2752.76733	615.425
2755.3482	599.025
2757.92747	599.425
2760.50515	589.025
2763.08123	575.625
2765.65573	575.725
2768.22863	569.425
2770.79994	568.525
2773.36967	567.825
2775.9378	566.825
2778.50435	571.625
2781.06932	573.225
2783.6327	560.025
2786.1945	589.725
2788.75471	584.825
2791.31335	584.425
2793.87041	592.925
2796.42589	580.125
2798.97979	587.425
2801.53212	610.425
2804.08288	634.325
2806.63206	629.225
2809.17967	630.925
2811.72571	673.025
2814.27018	676.925
2816.81308	692.825
2819.35442	677.425
2821.89419	715.425
2824.43239	713.525
2826.96904	756.125
2829.50412	725.125
2832.03763	721.525
2834.56959	718.925
2837.1	700.625
2839.62884	692.525
2842.15613	688.725
2844.68186	693.625
2847.20604	672.325
2849.72867	683.525
2852.24974	701.025
2854.76927	691.025
2857.28724	663.525
2859.80367	744.625
2862.31855	765.725
2864.83189	770.925
2867.34368	800.925
2869.85393	826.025
2872.36264	805.925
2874.8698	822.225
2877.37543	825.825
2879.87952	807.325
2882.38207	769.025
2884.88308	773.325
2887.38256	755.425
2889.88051	746.725
2892.37692	728.325
2894.8718	712.025
2897.36515	728.525
2899.85698	724.525
2902.34727	732.425
2904.83604	753.025
2907.32328	780.825
2909.809	796.625
2912.29319	807.125
2914.77587	820.725
2917.25702	822.625
2919.73665	812.025
2922.21476	793.325
2924.69136	775.625
2927.16644	738.425
2929.64	723.825
2932.11205	703.925
2934.58258	706.425
2937.05161	694.125
2939.51912	689.725
2941.98513	700.125
2944.44962	694.125
2946.91261	667.725
2949.37409	680.525
2951.83407	683.725
2954.29254	686.825
2956.74951	696.525
2959.20498	677.125
2961.65895	691.925
2964.11142	678.725
2966.56239	677.225
2969.01186	672.225
2971.45984	665.125
2973.90632	658.625
2976.35131	681.825
2978.7948	667.225
2981.23681	666.125
2983.67732	674.425
2986.11635	679.925
2988.55388	659.325
2990.98993	669.125
2993.4245	667.125
2995.85758	668.425
2998.28917	675.825
3000.71928	669.425
3003.14791	675.525
3005.57506	671.225
3008.00073	662.025
3010.42493	606.125
3012.84764	663.625
3015.26888	657.825
3017.68865	653.025
3020.10694	614.125
3022.52376	630.825
3024.9391	632.825
3027.35298	618.025
3029.76539	590.725
3032.17632	590.925
3034.5858	564.825
3036.9938	564.425
3039.40034	545.725
3041.80542	527.925
3044.20903	506.025
3046.61118	500.125
3049.01187	513.225
3051.4111	493.025
3053.80888	492.425
3056.20519	483.725
3058.60005	472.525
3060.99345	503.225
3063.3854	481.925
3065.7759	463.725
3068.16494	463.625
3070.55254	457.325
3072.93868	467.925
3075.32338	462.225
3077.70662	457.125
3080.08842	448.825
3082.46878	430.225
3084.84769	451.325
3087.22515	433.725
3089.60118	445.225
3091.97576	423.425
3094.3489	441.825
3096.72061	436.725
3099.09087	411.825
3101.4597	429.525
3103.82709	414.225
3106.19305	406.525
3108.55757	422.825
3110.92066	412.225
3113.28232	421.625
3115.64255	426.025
3118.00134	426.425
3120.35871	410.725
3122.71466	401.425
3125.06917	420.525
3127.42226	416.425
3129.77393	400.525
3132.12417	416.625
3134.47299	426.325
3136.82039	411.525
3139.16636	389.625
3141.51092	416.725
3143.85406	418.625
3146.19579	407.025
3148.53609	409.125
3150.87499	419.925
3153.21246	415.225
3155.54853	424.925
3157.88318	432.825
3160.21642	431.125
3162.54826	423.325
3164.87868	426.525
3167.2077	384.625
3169.5353	404.925
3171.86151	410.525
3174.18631	386.925
3176.5097	378.925
3178.83169	382.525
3181.15228	376.425
3183.47147	352.425
3185.78926	336.125
3188.10565	346.925
3190.42065	333.025
3192.73424	343.825
3195.04645	340.325
3197.35725	331.125
3199.66667	352.325
3201.97469	341.525
3204.28132	334.125
3206.58656	358.525
3208.8904	364.025
3211.19287	356.525
3213.49394	351.325
3215.79363	352.425
3218.09193	370.125
3220.38884	362.125
3222.68438	359.425
3224.97853	347.025
3227.2713	360.925
3229.56269	350.125
3231.8527	351.125
3234.14133	336.225
3236.42858	338.325
3238.71446	315.625
3240.99896	338.325
3243.28209	320.425
3245.56384	339.025
3247.84423	322.625
3250.12324	334.825
3252.40088	327.325
3254.67715	323.225
3256.95205	313.125
3259.22558	326.525
3261.49775	329.625
3263.76855	316.825
3266.03799	328.525
3268.30606	331.825
3270.57277	338.925
3272.83812	325.725
