Data from AgNPs_UA_5uM_CRN_500uM_SU_RamanShift__37__11-35-33-146.txt Node

Date: Thu Aug 04 11:35:33 BST 2022
User: TCL
Spectrometer: QEP01345
Trigger mode: 4
Integration Time (sec): 1.000000E0
Scans to average: 10
Electric dark correction enabled: true
Nonlinearity correction enabled: false
Boxcar width: 0
XAxis mode: Raman Shifts
Number of Pixels in Spectrum: 1044
>>>>>Begin Spectral Data<<<<<
46.04893	-0.175
50.45542	0.425
54.85868	-0.675
59.25871	0.125
63.6555	-54.675
68.04907	-35.275
72.43941	-66.575
76.82654	-52.475
81.21044	-52.475
85.59113	-42.275
89.96862	-70.675
94.34289	-48.975
98.71396	-69.575
103.08183	-51.075
107.4465	-41.675
111.80798	-47.675
116.16626	-36.975
120.52136	-65.275
124.87327	-38.775
129.222	-48.775
133.56755	-34.575
137.90993	-44.375
142.24913	-27.775
146.58517	-17.875
150.91804	-10.675
155.24774	9.125
159.57429	44.325
163.89768	69.325
168.21792	143.725
172.53501	205.225
176.84895	357.325
181.15975	579.925
185.46741	862.425
189.77193	1221.025
194.07331	1725.625
198.37157	2258.225
202.6667	2795.625
206.9587	3414.025
211.24758	4069.725
215.53334	4790.725
219.81599	5620.825
224.09553	6617.725
228.37195	7613.825
232.64527	8563.325
236.91549	9345.025
241.18261	9724.525
245.44663	9828.425
249.70755	9786.825
253.96539	9782.525
258.22014	9878.325
262.4718	9984.325
266.72039	9956.125
270.96589	9710.125
275.20832	9323.825
279.44768	8871.925
283.68397	8582.325
287.91719	8444.325
292.14735	8683.225
296.37445	9316.025
300.59849	10472.525
304.81948	12112.125
309.03742	13952.725
313.25231	15275.225
317.46415	15074.225
321.67296	13250.525
325.87872	11075.125
330.08145	9828.525
334.28114	9533.225
338.47781	9907.225
342.67145	10608.025
346.86207	11738.625
351.04966	13446.725
355.23424	15128.325
359.4158	15724.925
363.59435	15099.825
367.76989	14068.725
371.94243	13069.825
376.11196	12236.425
380.27849	11632.625
384.44203	11135.025
388.60257	10896.325
392.76012	10916.725
396.91468	11295.025
401.06626	11777.325
405.21485	11770.525
409.36047	10996.625
413.50311	9640.325
417.64277	8447.325
421.77947	7669.225
425.9132	7306.025
430.04396	7131.625
434.17176	7106.025
438.2966	7238.425
442.41849	7512.725
446.53742	7773.925
450.6534	7919.525
454.76644	7905.525
458.87653	7753.425
462.98368	7607.625
467.08789	7403.125
471.18916	7121.825
475.2875	6781.825
479.38291	6466.625
483.4754	6285.625
487.56496	6204.025
491.6516	6118.925
495.73531	6097.125
499.81612	6194.225
503.89401	6386.825
507.96899	6628.125
512.04106	6932.425
516.11023	7232.225
520.1765	7516.225
524.23987	7635.425
528.30034	7589.825
532.35792	7449.925
536.41261	7279.325
540.46441	7008.825
544.51333	6841.025
548.55936	6806.525
552.60252	6985.825
556.64279	7266.725
560.6802	7816.725
564.71473	8997.425
568.7464	10600.425
572.7752	10508.725
576.80114	8525.925
580.82422	6914.925
584.84444	6204.625
588.86181	5983.425
592.87633	5982.125
596.888	6218.925
600.89682	7179.425
604.9028	10400.425
608.90594	18650.825
612.90624	28656.125
616.90371	25864.425
620.89834	13499.525
624.89015	8127.325
628.87913	7546.125
632.86528	8358.425
636.84862	8599.325
640.82913	7591.525
644.80683	6300.125
648.78172	5719.625
652.75379	5930.825
656.72306	6892.125
660.68952	7836.525
664.65319	7300.925
668.61405	6041.425
672.57211	5501.125
676.52738	5495.125
680.47986	5447.725
684.42955	5250.725
688.37646	5148.025
692.32058	5140.125
696.26192	5266.825
700.20048	5432.725
704.13626	5476.125
708.06928	5370.825
711.99952	5321.625
715.927	5399.325
719.85171	5667.025
723.77365	5845.825
727.69284	5665.825
731.60928	5488.425
735.52295	5404.525
739.43388	5489.925
743.34206	5558.725
747.24749	5544.525
751.15017	5573.825
755.05012	6008.925
758.94733	7632.725
762.8418	11312.025
766.73354	16010.225
770.62254	18370.625
774.50882	17377.125
778.39237	15418.225
782.27321	12623.525
786.15132	9146.925
790.02671	6870.025
793.89938	5829.225
797.76935	5486.825
801.6366	5301.625
805.50115	5195.425
809.36299	5159.925
813.22213	5133.425
817.07857	5129.825
820.93231	5160.525
824.78336	5320.625
828.63172	5439.425
832.47738	5518.625
836.32036	5404.325
840.16066	5126.225
843.99827	4961.625
847.8332	4905.125
851.66546	4884.225
855.49504	4868.825
859.32195	4870.625
863.1462	4806.725
866.96777	4799.125
870.78668	4783.325
874.60293	4850.425
878.41652	4929.825
882.22745	5105.825
886.03573	5221.525
889.84136	5170.925
893.64433	5144.625
897.44466	5145.825
901.24235	5155.425
905.0374	5066.225
908.8298	4857.125
912.61957	4708.325
916.40671	4599.325
920.19121	4671.425
923.97308	4933.425
927.75233	5431.725
931.52895	5964.425
935.30295	5680.625
939.07433	4904.425
942.84309	4452.225
946.60924	4271.025
950.37278	4189.925
954.13371	4194.125
957.89203	4157.225
961.64774	4180.625
965.40086	4160.425
969.15137	4102.025
972.89929	4138.025
976.64461	4110.025
980.38733	4115.425
984.12747	4092.325
987.86502	4098.025
991.59999	4145.425
995.33237	4231.725
999.06217	4348.825
1002.78939	4589.725
1006.51404	4976.225
1010.23611	5142.625
1013.95561	4938.425
1017.67255	4712.525
1021.38692	4508.525
1025.09872	4342.625
1028.80796	4246.425
1032.51465	4287.225
1036.21877	4342.925
1039.92035	4434.625
1043.61937	4509.625
1047.31584	4597.525
1051.00976	4620.125
1054.70114	4539.925
1058.38998	4470.225
1062.07627	4435.625
1065.76003	4431.725
1069.44126	4483.725
1073.11995	4616.225
1076.79611	4964.325
1080.46974	5585.825
1084.14085	6447.725
1087.80943	7175.725
1091.47549	7112.725
1095.13903	6372.525
1098.80005	5618.425
1102.45857	5195.525
1106.11456	5152.925
1109.76805	5300.525
1113.41903	5806.125
1117.06751	6611.225
1120.71348	7876.925
1124.35696	9785.725
1127.99793	11036.325
1131.63641	10017.825
1135.2724	8042.725
1138.90589	6710.425
1142.5369	5969.525
1146.16542	5516.825
1149.79145	5225.925
1153.415	5155.125
1157.03607	5244.025
1160.65467	5518.325
1164.27079	6024.925
1167.88443	6750.625
1171.49561	7972.525
1175.10432	10064.425
1178.71056	12932.325
1182.31434	14841.425
1185.91565	14475.025
1189.51451	12631.325
1193.11091	10674.925
1196.70485	9450.125
1200.29634	8944.825
1203.88538	8337.725
1207.47197	7165.425
1211.05612	6068.825
1214.63782	5369.625
1218.21708	5048.725
1221.79391	4925.225
1225.36829	4914.525
1228.94024	4904.625
1232.50976	4893.025
1236.07685	4917.925
1239.6415	4983.825
1243.20374	5147.925
1246.76355	5353.125
1250.32093	5631.825
1253.8759	5992.425
1257.42845	6640.325
1260.97859	7470.825
1264.52631	8223.725
1268.07163	8573.425
1271.61453	8563.525
1275.15503	8216.725
1278.69312	7899.725
1282.22882	8177.425
1285.76211	9257.125
1289.29301	10738.425
1292.82151	11696.025
1296.34761	12105.725
1299.87133	13112.725
1303.39266	15576.925
1306.9116	20298.325
1310.42815	26046.625
1313.94233	28312.725
1317.45412	24072.625
1320.96354	17569.625
1324.47058	12655.225
1327.97525	9680.425
1331.47754	8180.125
1334.97747	7708.625
1338.47502	7931.525
1341.97022	9073.125
1345.46305	11559.025
1348.95352	15149.325
1352.44163	18851.425
1355.92738	23586.025
1359.41078	31735.325
1362.89183	40170.125
1366.37053	37922.725
1369.84688	25857.025
1373.32088	16106.025
1376.79254	11921.225
1380.26186	10018.125
1383.72883	8536.325
1387.19347	7208.625
1390.65578	6239.725
1394.11575	5678.225
1397.57339	5413.425
1401.0287	5227.425
1404.48168	5040.825
1407.93234	4949.025
1411.38068	5071.325
1414.82669	5507.625
1418.27039	5987.225
1421.71177	6075.425
1425.15083	5868.725
1428.58758	5993.425
1432.02203	6657.225
1435.45416	7161.325
1438.88399	6827.125
1442.31151	6360.025
1445.73673	6243.225
1449.15965	6203.325
1452.58027	6026.125
1455.9986	5802.425
1459.41463	5596.225
1462.82837	5599.825
1466.23982	5881.525
1469.64898	6256.525
1473.05586	6370.825
1476.46045	6341.025
1479.86276	6370.125
1483.26279	6686.825
1486.66054	7442.325
1490.05602	8567.225
1493.44922	10433.425
1496.84016	13347.225
1500.22882	17815.225
1503.61521	24128.825
1506.99934	32358.325
1510.38121	40703.525
1513.76081	44321.025
1517.13816	39585.025
1520.51324	29666.725
1523.88607	20428.325
1527.25665	14448.825
1530.62498	11024.725
1533.99105	9054.825
1537.35488	7756.925
1540.71647	7045.025
1544.07581	6773.225
1547.4329	6728.925
1550.78776	6933.625
1554.14038	7327.525
1557.49077	7974.525
1560.83892	9148.425
1564.18484	10931.725
1567.52853	12812.425
1570.86999	13828.925
1574.20922	13873.925
1577.54624	13062.025
1580.88103	10851.625
1584.2136	8226.525
1587.54395	6721.225
1590.87208	6348.125
1594.19801	6851.625
1597.52172	7699.825
1600.84321	7722.825
1604.16251	6828.625
1607.47959	5932.125
1610.79447	5425.325
1614.10715	4976.425
1617.41763	4714.025
1620.7259	4586.625
1624.03199	4664.625
1627.33587	4887.625
1630.63757	5353.825
1633.93707	6196.025
1637.23439	7688.625
1640.52951	10459.225
1643.82246	15163.025
1647.11321	21578.025
1650.40179	26527.925
1653.68819	25990.425
1656.97241	20059.525
1660.25446	13281.425
1663.53433	8782.125
1666.81203	6293.425
1670.08756	5032.625
1673.36092	4357.225
1676.63211	3930.625
1679.90115	3655.125
1683.16801	3475.125
1686.43272	3322.925
1689.69527	3251.725
1692.95567	3152.425
1696.2139	3112.525
1699.46999	3034.625
1702.72392	3016.525
1705.97571	3009.525
1709.22535	3015.725
1712.47284	3067.525
1715.71819	3088.825
1718.96139	3086.725
1722.20246	3056.225
1725.44139	2979.125
1728.67818	2909.025
1731.91284	2809.425
1735.14537	2755.825
1738.37576	2708.125
1741.60403	2689.025
1744.83017	2647.325
1748.05418	2624.725
1751.27607	2616.125
1754.49584	2544.025
1757.71349	2478.325
1760.92903	2451.725
1764.14244	2359.225
1767.35375	2334.325
1770.56294	2293.225
1773.77002	2239.825
1776.97499	2231.725
1780.17785	2176.925
1783.37861	2142.225
1786.57727	2135.425
1789.77382	2069.425
1792.96828	2101.425
1796.16064	2113.025
1799.3509	2088.925
1802.53907	2108.825
1805.72514	2071.025
1808.90913	2047.925
1812.09102	2050.225
1815.27083	2034.225
1818.44856	2021.325
1821.6242	2010.825
1824.79776	1992.525
1827.96924	1972.825
1831.13864	1950.525
1834.30597	1947.625
1837.47122	1905.325
1840.6344	1883.225
1843.7955	1846.125
1846.95454	1835.525
1850.11151	1849.425
1853.26642	1810.025
1856.41926	1803.725
1859.57004	1820.125
1862.71876	1821.225
1865.86542	1832.025
1869.01003	1823.925
1872.15258	1812.925
1875.29308	1843.425
1878.43152	1842.725
1881.56792	1831.425
1884.70227	1808.925
1887.83457	1802.025
1890.96482	1768.425
1894.09304	1768.425
1897.21921	1752.825
1900.34335	1770.425
1903.46544	1743.025
1906.58551	1761.725
1909.70353	1752.825
1912.81953	1742.725
1915.93349	1738.425
1919.04543	1727.025
1922.15534	1710.525
1925.26322	1704.225
1928.36908	1662.525
1931.47292	1640.325
1934.57473	1633.325
1937.67453	1578.525
1940.77232	1546.225
1943.86808	1536.325
1946.96184	1534.425
1950.05358	1520.025
1953.14331	1512.725
1956.23103	1525.925
1959.31675	1509.125
1962.40046	1488.825
1965.48217	1531.625
1968.56188	1556.025
1971.63959	1565.625
1974.7153	1591.725
1977.78901	1570.025
1980.86073	1517.925
1983.93046	1474.525
1986.99819	1381.525
1990.06394	1399.725
1993.1277	1417.525
1996.18947	1396.925
1999.24925	1362.225
2002.30706	1364.125
2005.36288	1360.525
2008.41672	1345.725
2011.46859	1321.925
2014.51848	1315.125
2017.56639	1301.725
2020.61233	1283.325
2023.6563	1299.925
2026.6983	1257.625
2029.73833	1268.525
2032.7764	1280.625
2035.8125	1240.225
2038.84664	1248.625
2041.87881	1241.125
2044.90903	1254.525
2047.93729	1250.825
2050.96359	1220.825
2053.98794	1221.325
2057.01034	1218.225
2060.03078	1191.025
2063.04927	1183.625
2066.06582	1177.425
2069.08042	1147.225
2072.09307	1155.825
2075.10378	1157.825
2078.11255	1146.025
2081.11938	1148.425
2084.12426	1148.925
2087.12722	1152.625
2090.12824	1144.225
2093.12732	1142.525
2096.12447	1151.025
2099.11969	1145.725
2102.11299	1131.125
2105.10435	1158.925
2108.09379	1144.325
2111.08131	1144.625
2114.0669	1172.525
2117.05057	1164.825
2120.03233	1156.725
2123.01216	1212.125
2125.99008	1231.025
2128.96609	1222.825
2131.94018	1237.925
2134.91236	1202.525
2137.88263	1175.225
2140.851	1157.525
2143.81746	1152.825
2146.78201	1128.625
2149.74466	1104.225
2152.7054	1105.825
2155.66425	1072.925
2158.6212	1059.125
2161.57625	1037.825
2164.52941	1019.825
2167.48067	1034.025
2170.43004	1046.125
2173.37752	1075.225
2176.32311	1062.725
2179.26681	1068.825
2182.20863	1079.425
2185.14856	1071.425
2188.08661	1068.225
2191.02278	1063.825
2193.95707	1023.325
2196.88948	1011.525
2199.82001	1011.025
2202.74867	1008.825
2205.67545	1006.825
2208.60037	1021.425
2211.52341	1011.625
2214.44458	997.225
2217.36388	1005.225
2220.28132	987.525
2223.1969	980.725
2226.11061	969.925
2229.02246	960.925
2231.93245	967.125
2234.84058	945.025
2237.74686	946.325
2240.65128	944.225
2243.55385	960.325
2246.45456	952.625
2249.35343	980.925
2252.25044	989.225
2255.14561	1019.125
2258.03893	1063.025
2260.93041	1071.825
2263.82004	1083.525
2266.70783	1089.125
2269.59378	1064.325
2272.4779	1052.625
2275.36017	1071.125
2278.24061	1051.725
2281.11922	1027.925
2283.996	1042.425
2286.87094	1004.725
2289.74405	1003.625
2292.61534	983.525
2295.4848	963.225
2298.35243	948.125
2301.21824	939.625
2304.08223	933.025
2306.94439	942.025
2309.80474	936.625
2312.66327	933.925
2315.51999	919.625
2318.37489	920.325
2321.22797	907.925
2324.07925	908.925
2326.92871	906.825
2329.77637	898.825
2332.62222	905.425
2335.46626	889.225
2338.3085	899.925
2341.14893	915.425
2343.98756	936.725
2346.8244	915.325
2349.65943	925.425
2352.49267	939.625
2355.32411	948.225
2358.15376	962.225
2360.98161	987.125
2363.80768	989.925
2366.63195	1019.125
2369.45444	1034.025
2372.27514	1039.825
2375.09405	1054.125
2377.91118	1010.125
2380.72652	1005.125
2383.54009	993.225
2386.35187	986.625
2389.16188	951.725
2391.97011	949.625
2394.77657	916.625
2397.58125	916.625
2400.38416	912.925
2403.18529	890.025
2405.98466	870.225
2408.78226	878.925
2411.57809	873.125
2414.37216	866.925
2417.16446	871.125
2419.955	849.425
2422.74378	874.725
2425.5308	871.025
2428.31606	884.025
2431.09956	892.325
2433.88131	882.725
2436.6613	904.525
2439.43954	907.325
2442.21603	913.525
2444.99077	913.125
2447.76377	936.825
2450.53501	939.125
2453.30451	944.925
2456.07226	954.725
2458.83827	939.825
2461.60254	899.125
2464.36507	933.625
2467.12586	923.825
2469.88492	925.725
2472.64224	940.225
2475.39782	927.925
2478.15167	952.225
2480.90379	966.025
2483.65417	1005.825
2486.40283	1028.325
2489.14976	1053.525
2491.89497	1039.425
2494.63845	1038.625
2497.3802	1029.925
2500.12024	1012.325
2502.85855	995.325
2505.59514	988.625
2508.33002	962.725
2511.06318	911.325
2513.79462	893.025
2516.52435	827.225
2519.25237	796.425
2521.97867	787.225
2524.70327	781.425
2527.42616	775.125
2530.14734	781.725
2532.86681	769.225
2535.58458	769.125
2538.30065	759.825
2541.01501	779.925
2543.72768	774.125
2546.43864	792.925
2549.14791	799.325
2551.85548	788.725
2554.56136	805.925
2557.26554	820.525
2559.96803	821.125
2562.66883	831.025
2565.36794	821.425
2568.06536	801.525
2570.7611	828.325
2573.45514	818.925
2576.14751	819.325
2578.83819	795.225
2581.52719	797.825
2584.21451	788.925
2586.90015	761.825
2589.58411	759.825
2592.2664	766.725
2594.94701	770.725
2597.62594	775.625
2600.30321	718.825
2602.9788	741.625
2605.65273	745.625
2608.32498	756.125
2610.99557	779.025
2613.66449	757.825
2616.33175	770.625
2618.99734	782.725
2621.66128	785.925
2624.32355	777.825
2626.98416	747.125
2629.64311	738.325
2632.30041	735.825
2634.95605	714.025
2637.61004	698.425
2640.26238	680.925
2642.91306	673.625
2645.56209	695.525
2648.20948	691.725
2650.85521	680.525
2653.4993	699.625
2656.14175	706.225
2658.78255	698.225
2661.42171	684.525
2664.05923	719.125
2666.6951	737.525
2669.32934	750.925
2671.96194	762.825
2674.59291	757.925
2677.22224	758.625
2679.84993	750.725
2682.476	736.325
2685.10043	732.525
2687.72324	717.425
2690.34441	720.525
2692.96396	711.625
2695.58188	724.325
2698.19818	711.225
2700.81285	694.025
2703.4259	692.125
2706.03733	666.625
2708.64714	676.725
2711.25533	713.325
2713.86191	720.325
2716.46687	714.225
2719.07021	717.325
2721.67194	715.225
2724.27206	728.125
2726.87057	708.625
2729.46747	681.525
2732.06276	695.025
2734.65644	663.625
2737.24852	666.725
2739.83899	642.425
2742.42786	652.525
2745.01513	656.825
2747.60079	638.125
2750.18486	607.225
2752.76733	619.325
2755.3482	605.125
2757.92747	608.525
2760.50515	581.125
2763.08123	585.625
2765.65573	585.625
2768.22863	570.625
2770.79994	572.625
2773.36967	570.625
2775.9378	576.825
2778.50435	581.625
2781.06932	584.625
2783.6327	569.425
2786.1945	598.425
2788.75471	584.825
2791.31335	590.425
2793.87041	601.425
2796.42589	591.225
2798.97979	591.125
2801.53212	613.125
2804.08288	637.325
2806.63206	638.325
2809.17967	634.425
2811.72571	669.025
2814.27018	684.425
2816.81308	698.125
2819.35442	690.125
2821.89419	726.625
2824.43239	719.425
2826.96904	762.225
2829.50412	733.725
2832.03763	736.825
2834.56959	729.825
2837.1	712.625
2839.62884	699.025
2842.15613	690.825
2844.68186	698.525
2847.20604	677.225
2849.72867	686.925
2852.24974	703.025
2854.76927	693.025
2857.28724	667.125
2859.80367	750.725
2862.31855	781.825
2864.83189	779.125
2867.34368	810.225
2869.85393	835.625
2872.36264	818.925
2874.8698	827.425
2877.37543	830.425
2879.87952	824.025
2882.38207	783.525
2884.88308	777.625
2887.38256	761.025
2889.88051	752.125
2892.37692	739.825
2894.8718	716.525
2897.36515	741.725
2899.85698	738.425
2902.34727	737.225
2904.83604	758.725
2907.32328	784.225
2909.809	803.325
2912.29319	819.025
2914.77587	830.125
2917.25702	834.825
2919.73665	831.825
2922.21476	797.525
2924.69136	777.525
2927.16644	748.625
2929.64	729.125
2932.11205	703.225
2934.58258	715.825
2937.05161	695.025
2939.51912	695.425
2941.98513	709.325
2944.44962	699.725
2946.91261	680.325
2949.37409	690.725
2951.83407	687.425
2954.29254	695.225
2956.74951	704.225
2959.20498	688.125
2961.65895	703.425
2964.11142	690.425
2966.56239	681.525
2969.01186	674.125
2971.45984	668.325
2973.90632	659.725
2976.35131	677.825
2978.7948	679.325
2981.23681	669.925
2983.67732	679.225
2986.11635	682.025
2988.55388	659.625
2990.98993	679.625
2993.4245	677.625
2995.85758	668.825
2998.28917	680.625
3000.71928	671.725
3003.14791	682.025
3005.57506	669.825
3008.00073	669.025
3010.42493	607.825
3012.84764	665.225
3015.26888	674.825
3017.68865	662.625
3020.10694	616.825
3022.52376	645.625
3024.9391	635.325
3027.35298	621.925
3029.76539	600.125
3032.17632	594.325
3034.5858	578.125
3036.9938	573.425
3039.40034	555.925
3041.80542	531.325
3044.20903	512.325
3046.61118	504.625
3049.01187	513.725
3051.4111	497.825
3053.80888	492.025
3056.20519	494.025
3058.60005	479.925
3060.99345	508.025
3063.3854	489.625
3065.7759	467.725
3068.16494	465.125
3070.55254	463.225
3072.93868	475.425
3075.32338	467.125
3077.70662	462.425
3080.08842	454.025
3082.46878	439.425
3084.84769	458.325
3087.22515	440.425
3089.60118	448.125
3091.97576	438.325
3094.3489	438.225
3096.72061	431.225
3099.09087	420.525
3101.4597	431.625
3103.82709	423.825
3106.19305	416.825
3108.55757	413.725
3110.92066	417.125
3113.28232	433.025
3115.64255	430.925
3118.00134	440.025
3120.35871	419.125
3122.71466	410.825
3125.06917	425.025
3127.42226	421.125
3129.77393	406.525
3132.12417	422.525
3134.47299	431.125
3136.82039	414.525
3139.16636	402.225
3141.51092	426.325
3143.85406	428.925
3146.19579	411.525
3148.53609	417.525
3150.87499	423.925
3153.21246	416.925
3155.54853	432.725
3157.88318	438.425
3160.21642	437.625
3162.54826	430.325
3164.87868	436.825
3167.2077	394.225
3169.5353	418.025
3171.86151	414.125
3174.18631	395.225
3176.5097	387.225
3178.83169	385.325
3181.15228	382.925
3183.47147	357.125
3185.78926	339.725
3188.10565	351.525
3190.42065	333.125
3192.73424	344.425
3195.04645	343.025
3197.35725	334.725
3199.66667	348.725
3201.97469	345.025
3204.28132	335.625
3206.58656	356.225
3208.8904	365.825
3211.19287	362.725
3213.49394	354.525
3215.79363	356.325
3218.09193	373.425
3220.38884	364.025
3222.68438	368.425
3224.97853	345.925
3227.2713	369.425
3229.56269	354.125
3231.8527	354.125
3234.14133	341.225
3236.42858	337.625
3238.71446	320.925
3240.99896	345.925
3243.28209	326.925
3245.56384	341.225
3247.84423	328.825
3250.12324	331.025
3252.40088	333.825
3254.67715	325.425
3256.95205	317.925
3259.22558	334.225
3261.49775	332.825
3263.76855	327.425
3266.03799	335.125
3268.30606	332.125
3270.57277	342.425
