Data from AgNPs_UA_5uM_CRN_500uM_SU_RamanShift__17__11-32-13-141.txt Node

Date: Thu Aug 04 11:32:13 BST 2022
User: TCL
Spectrometer: QEP01345
Trigger mode: 4
Integration Time (sec): 1.000000E0
Scans to average: 10
Electric dark correction enabled: true
Nonlinearity correction enabled: false
Boxcar width: 0
XAxis mode: Raman Shifts
Number of Pixels in Spectrum: 1044
>>>>>Begin Spectral Data<<<<<
46.04893	-0.375
50.45542	-0.075
54.85868	1.025
59.25871	-0.375
63.6555	-53.775
68.04907	-34.375
72.43941	-67.075
76.82654	-52.175
81.21044	-53.375
85.59113	-45.475
89.96862	-70.075
94.34289	-48.875
98.71396	-72.375
103.08183	-50.175
107.4465	-42.975
111.80798	-48.075
116.16626	-35.775
120.52136	-65.575
124.87327	-39.275
129.222	-51.475
133.56755	-35.675
137.90993	-44.875
142.24913	-30.675
146.58517	-20.675
150.91804	-12.775
155.24774	7.725
159.57429	40.125
163.89768	62.725
168.21792	135.225
172.53501	198.725
176.84895	338.525
181.15975	570.425
185.46741	829.825
189.77193	1162.325
194.07331	1652.225
198.37157	2167.925
202.6667	2705.525
206.9587	3302.825
211.24758	3909.525
215.53334	4614.525
219.81599	5426.725
224.09553	6348.725
228.37195	7331.525
232.64527	8252.125
236.91549	8978.525
241.18261	9362.425
245.44663	9458.725
249.70755	9416.225
253.96539	9449.525
258.22014	9527.725
262.4718	9596.525
266.72039	9608.025
270.96589	9344.725
275.20832	8963.125
279.44768	8545.725
283.68397	8251.525
287.91719	8161.925
292.14735	8371.625
296.37445	8995.325
300.59849	10121.725
304.81948	11670.625
309.03742	13433.725
313.25231	14719.725
317.46415	14506.725
321.67296	12738.725
325.87872	10623.425
330.08145	9416.725
334.28114	9176.025
338.47781	9520.425
342.67145	10196.825
346.86207	11295.525
351.04966	12941.225
355.23424	14585.825
359.4158	15147.225
363.59435	14600.025
367.76989	13629.125
371.94243	12606.625
376.11196	11834.225
380.27849	11258.225
384.44203	10774.025
388.60257	10500.825
392.76012	10528.625
396.91468	10892.925
401.06626	11326.725
405.21485	11336.225
409.36047	10598.925
413.50311	9299.325
417.64277	8120.225
421.77947	7372.825
425.9132	7036.225
430.04396	6848.625
434.17176	6817.025
438.2966	6985.425
442.41849	7231.525
446.53742	7498.025
450.6534	7632.525
454.76644	7618.625
458.87653	7475.525
462.98368	7318.925
467.08789	7129.425
471.18916	6880.925
475.2875	6514.625
479.38291	6252.025
483.4754	6048.825
487.56496	5975.325
491.6516	5880.325
495.73531	5877.325
499.81612	5947.825
503.89401	6134.925
507.96899	6367.425
512.04106	6707.625
516.11023	7015.325
520.1765	7271.825
524.23987	7346.925
528.30034	7319.725
532.35792	7178.725
536.41261	7000.125
540.46441	6741.425
544.51333	6570.525
548.55936	6558.925
552.60252	6731.925
556.64279	7016.625
560.6802	7528.025
564.71473	8677.725
568.7464	10208.725
572.7752	10154.225
576.80114	8215.525
580.82422	6620.025
584.84444	5959.025
588.86181	5757.625
592.87633	5736.225
596.888	5981.025
600.89682	6918.125
604.9028	10042.625
608.90594	18052.525
612.90624	27710.625
616.90371	24937.225
620.89834	13004.125
624.89015	7800.725
628.87913	7262.525
632.86528	8037.425
636.84862	8286.325
640.82913	7323.425
644.80683	6070.225
648.78172	5527.125
652.75379	5739.325
656.72306	6660.225
660.68952	7542.125
664.65319	7047.425
668.61405	5813.625
672.57211	5319.125
676.52738	5308.925
680.47986	5235.325
684.42955	5063.825
688.37646	4995.025
692.32058	4976.525
696.26192	5092.525
700.20048	5233.725
704.13626	5274.825
708.06928	5174.925
711.99952	5128.525
715.927	5213.525
719.85171	5480.025
723.77365	5632.925
727.69284	5475.425
731.60928	5279.625
735.52295	5217.025
739.43388	5278.825
743.34206	5335.225
747.24749	5340.025
751.15017	5381.525
755.05012	5767.025
758.94733	7369.425
762.8418	10886.125
766.73354	15402.825
770.62254	17742.225
774.50882	16790.625
778.39237	14959.825
782.27321	12221.325
786.15132	8818.525
790.02671	6620.525
793.89938	5619.425
797.76935	5286.325
801.6366	5127.125
805.50115	5038.425
809.36299	4972.325
813.22213	4936.225
817.07857	4949.325
820.93231	4991.025
824.78336	5116.125
828.63172	5262.825
832.47738	5336.725
836.32036	5202.425
840.16066	4920.025
843.99827	4779.625
847.8332	4749.925
851.66546	4714.325
855.49504	4709.825
859.32195	4692.125
863.1462	4629.225
866.96777	4630.625
870.78668	4612.425
874.60293	4665.625
878.41652	4745.925
882.22745	4929.325
886.03573	5025.425
889.84136	5004.425
893.64433	4945.425
897.44466	4961.925
901.24235	4979.625
905.0374	4876.025
908.8298	4663.625
912.61957	4512.125
916.40671	4426.425
920.19121	4506.725
923.97308	4746.625
927.75233	5235.025
931.52895	5723.725
935.30295	5439.125
939.07433	4719.925
942.84309	4278.725
946.60924	4113.625
950.37278	4034.025
954.13371	4027.525
957.89203	4026.025
961.64774	4030.425
965.40086	3994.725
969.15137	3962.225
972.89929	3972.225
976.64461	3941.525
980.38733	3961.525
984.12747	3944.625
987.86502	3951.225
991.59999	3988.525
995.33237	4080.525
999.06217	4197.825
1002.78939	4403.325
1006.51404	4774.025
1010.23611	4950.525
1013.95561	4760.125
1017.67255	4521.925
1021.38692	4340.425
1025.09872	4163.925
1028.80796	4075.125
1032.51465	4147.625
1036.21877	4170.325
1039.92035	4267.725
1043.61937	4339.925
1047.31584	4427.125
1051.00976	4438.025
1054.70114	4366.925
1058.38998	4300.625
1062.07627	4259.625
1065.76003	4275.025
1069.44126	4325.825
1073.11995	4446.125
1076.79611	4773.125
1080.46974	5350.025
1084.14085	6224.325
1087.80943	6899.125
1091.47549	6835.625
1095.13903	6127.625
1098.80005	5384.325
1102.45857	4992.125
1106.11456	4946.025
1109.76805	5099.125
1113.41903	5602.925
1117.06751	6354.925
1120.71348	7577.225
1124.35696	9418.525
1127.99793	10616.325
1131.63641	9653.525
1135.2724	7742.025
1138.90589	6472.025
1142.5369	5754.525
1146.16542	5320.325
1149.79145	5020.025
1153.415	4956.825
1157.03607	5041.925
1160.65467	5305.125
1164.27079	5790.325
1167.88443	6497.625
1171.49561	7690.925
1175.10432	9716.325
1178.71056	12485.125
1182.31434	14308.625
1185.91565	13937.425
1189.51451	12158.225
1193.11091	10261.425
1196.70485	9074.825
1200.29634	8596.825
1203.88538	7995.025
1207.47197	6847.525
1211.05612	5811.325
1214.63782	5141.625
1218.21708	4846.325
1221.79391	4736.525
1225.36829	4704.425
1228.94024	4726.425
1232.50976	4707.625
1236.07685	4712.425
1239.6415	4800.825
1243.20374	4940.125
1246.76355	5145.325
1250.32093	5402.125
1253.8759	5764.425
1257.42845	6381.825
1260.97859	7162.325
1264.52631	7895.025
1268.07163	8222.625
1271.61453	8227.725
1275.15503	7914.425
1278.69312	7599.225
1282.22882	7835.425
1285.76211	8893.325
1289.29301	10309.525
1292.82151	11248.825
1296.34761	11679.925
1299.87133	12624.825
1303.39266	15024.825
1306.9116	19569.925
1310.42815	25182.325
1313.94233	27316.025
1317.45412	23158.625
1320.96354	16894.225
1324.47058	12159.425
1327.97525	9284.925
1331.47754	7863.225
1334.97747	7384.325
1338.47502	7601.025
1341.97022	8721.125
1345.46305	11137.525
1348.95352	14587.725
1352.44163	18143.125
1355.92738	22715.225
1359.41078	30648.525
1362.89183	38769.025
1366.37053	36533.225
1369.84688	24897.725
1373.32088	15488.425
1376.79254	11489.625
1380.26186	9625.125
1383.72883	8196.425
1387.19347	6915.525
1390.65578	5965.325
1394.11575	5430.225
1397.57339	5184.925
1401.0287	5008.625
1404.48168	4829.925
1407.93234	4729.325
1411.38068	4862.725
1414.82669	5283.125
1418.27039	5758.925
1421.71177	5851.325
1425.15083	5631.825
1428.58758	5740.725
1432.02203	6398.625
1435.45416	6859.225
1438.88399	6529.525
1442.31151	6097.925
1445.73673	6007.625
1449.15965	5951.225
1452.58027	5777.325
1455.9986	5558.425
1459.41463	5372.425
1462.82837	5370.225
1466.23982	5648.525
1469.64898	6013.725
1473.05586	6125.625
1476.46045	6066.225
1479.86276	6124.625
1483.26279	6417.625
1486.66054	7134.025
1490.05602	8224.925
1493.44922	9996.725
1496.84016	12804.125
1500.22882	17149.725
1503.61521	23284.525
1506.99934	31198.925
1510.38121	39306.425
1513.76081	42808.425
1517.13816	38205.725
1520.51324	28626.525
1523.88607	19703.625
1527.25665	13865.525
1530.62498	10593.225
1533.99105	8687.425
1537.35488	7462.525
1540.71647	6750.725
1544.07581	6496.325
1547.4329	6474.925
1550.78776	6684.025
1554.14038	7045.325
1557.49077	7676.825
1560.83892	8812.725
1564.18484	10529.925
1567.52853	12359.125
1570.86999	13360.725
1574.20922	13371.225
1577.54624	12590.525
1580.88103	10463.925
1584.2136	7945.625
1587.54395	6476.825
1590.87208	6118.225
1594.19801	6599.725
1597.52172	7412.925
1600.84321	7427.825
1604.16251	6551.125
1607.47959	5707.325
1610.79447	5185.525
1614.10715	4806.425
1617.41763	4525.325
1620.7259	4386.425
1624.03199	4463.125
1627.33587	4683.625
1630.63757	5138.125
1633.93707	5927.725
1637.23439	7389.125
1640.52951	10037.225
1643.82246	14581.125
1647.11321	20702.425
1650.40179	25519.125
1653.68819	25009.625
1656.97241	19271.125
1660.25446	12782.425
1663.53433	8431.825
1666.81203	6056.025
1670.08756	4835.325
1673.36092	4170.525
1676.63211	3757.725
1679.90115	3513.525
1683.16801	3347.225
1686.43272	3194.825
1689.69527	3108.425
1692.95567	3038.525
1696.2139	2980.125
1699.46999	2918.125
1702.72392	2903.125
1705.97571	2903.025
1709.22535	2888.425
1712.47284	2934.225
1715.71819	2971.525
1718.96139	2963.725
1722.20246	2934.025
1725.44139	2875.025
1728.67818	2802.125
1731.91284	2711.725
1735.14537	2649.525
1738.37576	2601.125
1741.60403	2570.025
1744.83017	2538.125
1748.05418	2524.125
1751.27607	2503.825
1754.49584	2455.025
1757.71349	2391.425
1760.92903	2352.225
1764.14244	2283.725
1767.35375	2254.025
1770.56294	2204.025
1773.77002	2142.825
1776.97499	2127.425
1780.17785	2092.825
1783.37861	2063.725
1786.57727	2063.625
1789.77382	1985.125
1792.96828	2022.125
1796.16064	2034.425
1799.3509	2014.325
1802.53907	2017.525
1805.72514	1992.825
1808.90913	1959.325
1812.09102	1972.125
1815.27083	1942.025
1818.44856	1938.425
1821.6242	1934.025
1824.79776	1907.125
1827.96924	1906.925
1831.13864	1868.625
1834.30597	1871.625
1837.47122	1838.125
1840.6344	1812.125
1843.7955	1781.825
1846.95454	1756.425
1850.11151	1767.125
1853.26642	1736.225
1856.41926	1734.925
1859.57004	1746.125
1862.71876	1764.025
1865.86542	1759.525
1869.01003	1759.125
1872.15258	1743.425
1875.29308	1768.825
1878.43152	1782.425
1881.56792	1760.125
1884.70227	1731.525
1887.83457	1730.225
1890.96482	1702.625
1894.09304	1701.825
1897.21921	1695.325
1900.34335	1697.125
1903.46544	1682.525
1906.58551	1692.025
1909.70353	1692.925
1912.81953	1688.125
1915.93349	1665.325
1919.04543	1665.625
1922.15534	1646.825
1925.26322	1638.525
1928.36908	1613.025
1931.47292	1584.725
1934.57473	1580.425
1937.67453	1524.725
1940.77232	1485.325
1943.86808	1476.625
1946.96184	1482.025
1950.05358	1456.525
1953.14331	1449.225
1956.23103	1471.425
1959.31675	1450.625
1962.40046	1426.225
1965.48217	1476.125
1968.56188	1502.025
1971.63959	1505.125
1974.7153	1520.225
1977.78901	1511.025
1980.86073	1473.025
1983.93046	1414.725
1986.99819	1320.725
1990.06394	1341.525
1993.1277	1356.325
1996.18947	1345.425
1999.24925	1306.125
2002.30706	1311.925
2005.36288	1312.425
2008.41672	1292.725
2011.46859	1260.425
2014.51848	1261.825
2017.56639	1258.625
2020.61233	1240.325
2023.6563	1251.325
2026.6983	1206.625
2029.73833	1229.025
2032.7764	1230.025
2035.8125	1195.925
2038.84664	1199.925
2041.87881	1196.825
2044.90903	1214.025
2047.93729	1203.025
2050.96359	1169.025
2053.98794	1173.625
2057.01034	1170.625
2060.03078	1145.625
2063.04927	1132.325
2066.06582	1129.225
2069.08042	1110.325
2072.09307	1101.225
2075.10378	1111.125
2078.11255	1101.725
2081.11938	1110.825
2084.12426	1112.825
2087.12722	1101.725
2090.12824	1096.925
2093.12732	1092.625
2096.12447	1106.425
2099.11969	1097.125
2102.11299	1093.025
2105.10435	1112.925
2108.09379	1106.625
2111.08131	1094.825
2114.0669	1111.825
2117.05057	1125.625
2120.03233	1114.525
2123.01216	1161.125
2125.99008	1187.025
2128.96609	1179.225
2131.94018	1187.225
2134.91236	1165.625
2137.88263	1124.225
2140.851	1115.625
2143.81746	1123.525
2146.78201	1089.325
2149.74466	1056.225
2152.7054	1068.725
2155.66425	1037.925
2158.6212	1015.625
2161.57625	995.025
2164.52941	976.525
2167.48067	992.125
2170.43004	1002.825
2173.37752	1026.925
2176.32311	1024.825
2179.26681	1036.325
2182.20863	1043.625
2185.14856	1034.025
2188.08661	1034.425
2191.02278	1031.225
2193.95707	996.525
2196.88948	980.725
2199.82001	982.425
2202.74867	977.025
2205.67545	973.025
2208.60037	991.525
2211.52341	967.625
2214.44458	967.325
2217.36388	958.525
2220.28132	947.125
2223.1969	930.525
2226.11061	943.825
2229.02246	922.025
2231.93245	930.525
2234.84058	919.325
2237.74686	916.525
2240.65128	914.725
2243.55385	927.325
2246.45456	905.225
2249.35343	945.625
2252.25044	946.525
2255.14561	982.125
2258.03893	1014.525
2260.93041	1034.325
2263.82004	1043.425
2266.70783	1055.125
2269.59378	1030.525
2272.4779	1019.025
2275.36017	1027.425
2278.24061	1013.425
2281.11922	987.225
2283.996	993.625
2286.87094	963.125
2289.74405	963.625
2292.61534	950.425
2295.4848	929.925
2298.35243	911.625
2301.21824	904.325
2304.08223	892.525
2306.94439	900.725
2309.80474	910.425
2312.66327	901.925
2315.51999	889.825
2318.37489	887.825
2321.22797	874.825
2324.07925	874.325
2326.92871	868.225
2329.77637	867.925
2332.62222	865.125
2335.46626	855.425
2338.3085	855.825
2341.14893	883.225
2343.98756	899.825
2346.8244	886.325
2349.65943	887.125
2352.49267	899.125
2355.32411	924.825
2358.15376	927.125
2360.98161	957.725
2363.80768	952.425
2366.63195	980.425
2369.45444	1001.525
2372.27514	1005.125
2375.09405	1015.325
2377.91118	981.025
2380.72652	970.825
2383.54009	956.425
2386.35187	957.725
2389.16188	922.025
2391.97011	912.025
2394.77657	890.825
2397.58125	883.225
2400.38416	877.525
2403.18529	859.825
2405.98466	839.825
2408.78226	843.325
2411.57809	844.825
2414.37216	834.325
2417.16446	841.225
2419.955	817.925
2422.74378	845.825
2425.5308	834.325
2428.31606	849.025
2431.09956	861.425
2433.88131	850.925
2436.6613	873.425
2439.43954	868.825
2442.21603	876.525
2444.99077	873.325
2447.76377	903.925
2450.53501	899.025
2453.30451	907.225
2456.07226	911.025
2458.83827	903.725
2461.60254	868.025
2464.36507	906.025
2467.12586	884.425
2469.88492	890.725
2472.64224	901.525
2475.39782	892.125
2478.15167	922.625
2480.90379	935.425
2483.65417	971.625
2486.40283	986.425
2489.14976	1004.025
2491.89497	997.125
2494.63845	1009.625
2497.3802	992.525
2500.12024	979.125
2502.85855	961.025
2505.59514	950.425
2508.33002	923.925
2511.06318	873.725
2513.79462	860.325
2516.52435	803.825
2519.25237	765.525
2521.97867	759.825
2524.70327	750.925
2527.42616	740.825
2530.14734	753.025
2532.86681	734.025
2535.58458	739.225
2538.30065	744.925
2541.01501	755.425
2543.72768	748.325
2546.43864	766.025
2549.14791	765.325
2551.85548	767.325
2554.56136	778.225
2557.26554	789.525
2559.96803	793.425
2562.66883	800.625
2565.36794	793.625
2568.06536	768.625
2570.7611	795.525
2573.45514	788.625
2576.14751	784.525
2578.83819	765.625
2581.52719	759.525
2584.21451	759.925
2586.90015	739.325
2589.58411	726.925
2592.2664	739.125
2594.94701	740.925
2597.62594	746.525
2600.30321	692.025
2602.9788	717.125
2605.65273	717.825
2608.32498	726.525
2610.99557	757.725
2613.66449	721.825
2616.33175	748.125
2618.99734	755.725
2621.66128	751.525
2624.32355	745.125
2626.98416	722.325
2629.64311	711.525
2632.30041	701.725
2634.95605	690.025
2637.61004	665.825
2640.26238	651.625
2642.91306	650.125
2645.56209	673.625
2648.20948	661.625
2650.85521	650.925
2653.4993	677.425
2656.14175	672.425
2658.78255	677.725
2661.42171	660.825
2664.05923	685.325
2666.6951	709.825
2669.32934	721.525
2671.96194	742.125
2674.59291	726.225
2677.22224	722.225
2679.84993	726.025
2682.476	713.625
2685.10043	702.625
2687.72324	697.725
2690.34441	691.125
2692.96396	681.425
2695.58188	700.925
2698.19818	685.325
2700.81285	661.925
2703.4259	653.725
2706.03733	635.525
2708.64714	654.725
2711.25533	682.925
2713.86191	688.425
2716.46687	689.625
2719.07021	691.625
2721.67194	687.225
2724.27206	699.025
2726.87057	676.425
2729.46747	664.125
2732.06276	663.225
2734.65644	642.625
2737.24852	649.325
2739.83899	612.825
2742.42786	626.925
2745.01513	627.525
2747.60079	607.625
2750.18486	590.625
2752.76733	593.425
2755.3482	583.025
2757.92747	585.125
2760.50515	564.325
2763.08123	556.725
2765.65573	565.325
2768.22863	556.725
2770.79994	544.825
2773.36967	551.925
2775.9378	550.525
2778.50435	551.525
2781.06932	556.825
2783.6327	550.425
2786.1945	574.125
2788.75471	564.325
2791.31335	572.725
2793.87041	577.025
2796.42589	564.725
2798.97979	569.825
2801.53212	591.425
2804.08288	615.825
2806.63206	611.625
2809.17967	612.125
2811.72571	653.425
2814.27018	662.925
2816.81308	670.525
2819.35442	665.425
2821.89419	692.325
2824.43239	694.725
2826.96904	726.325
2829.50412	703.925
2832.03763	700.325
2834.56959	694.325
2837.1	678.125
2839.62884	670.325
2842.15613	661.525
2844.68186	674.025
2847.20604	652.125
2849.72867	662.125
2852.24974	680.625
2854.76927	668.125
2857.28724	636.925
2859.80367	722.925
2862.31855	748.325
2864.83189	753.325
2867.34368	779.025
2869.85393	795.925
2872.36264	784.925
2874.8698	793.325
2877.37543	803.225
2879.87952	785.025
2882.38207	750.825
2884.88308	745.025
2887.38256	731.325
2889.88051	716.625
2892.37692	713.625
2894.8718	689.325
2897.36515	708.625
2899.85698	708.525
2902.34727	708.625
2904.83604	729.925
2907.32328	752.625
2909.809	773.425
2912.29319	778.725
2914.77587	795.425
2917.25702	801.125
2919.73665	791.325
2922.21476	772.825
2924.69136	753.025
2927.16644	719.125
2929.64	697.625
2932.11205	681.725
2934.58258	684.825
2937.05161	670.025
2939.51912	671.125
2941.98513	682.525
2944.44962	668.425
2946.91261	653.025
2949.37409	659.725
2951.83407	656.125
2954.29254	668.225
2956.74951	674.625
2959.20498	662.125
2961.65895	669.725
2964.11142	665.525
2966.56239	657.625
2969.01186	655.525
2971.45984	646.025
2973.90632	637.025
2976.35131	657.525
2978.7948	656.525
2981.23681	644.025
2983.67732	657.025
2986.11635	653.025
2988.55388	633.525
2990.98993	659.825
2993.4245	647.525
2995.85758	648.125
2998.28917	655.325
3000.71928	654.625
3003.14791	662.325
3005.57506	644.225
3008.00073	638.025
3010.42493	580.025
3012.84764	638.425
3015.26888	639.625
3017.68865	639.925
3020.10694	596.825
3022.52376	615.625
3024.9391	613.625
3027.35298	596.425
3029.76539	578.125
3032.17632	569.925
3034.5858	557.425
3036.9938	550.925
3039.40034	531.425
3041.80542	510.125
3044.20903	492.825
3046.61118	484.725
3049.01187	497.025
3051.4111	477.425
3053.80888	478.225
3056.20519	472.225
3058.60005	457.925
3060.99345	491.225
3063.3854	468.425
3065.7759	455.225
3068.16494	449.025
3070.55254	439.125
3072.93868	453.625
3075.32338	445.025
3077.70662	442.525
3080.08842	433.725
3082.46878	418.725
3084.84769	447.725
3087.22515	419.025
3089.60118	432.725
3091.97576	415.625
3094.3489	425.625
3096.72061	414.325
3099.09087	402.225
3101.4597	414.225
3103.82709	409.525
3106.19305	397.125
3108.55757	402.725
3110.92066	399.425
3113.28232	409.425
3115.64255	412.625
3118.00134	417.725
3120.35871	403.225
3122.71466	391.025
3125.06917	408.325
3127.42226	406.325
3129.77393	390.425
3132.12417	407.825
3134.47299	415.825
3136.82039	399.825
3139.16636	382.125
3141.51092	406.825
3143.85406	413.325
3146.19579	395.425
3148.53609	396.325
3150.87499	406.625
3153.21246	406.425
3155.54853	415.125
3157.88318	420.325
3160.21642	417.125
3162.54826	409.225
3164.87868	421.125
3167.2077	376.525
3169.5353	396.325
3171.86151	400.125
3174.18631	375.625
3176.5097	371.125
3178.83169	371.625
3181.15228	365.425
3183.47147	347.525
3185.78926	328.525
3188.10565	339.425
3190.42065	318.825
3192.73424	337.725
3195.04645	330.525
3197.35725	318.025
3199.66667	335.525
3201.97469	334.825
3204.28132	324.725
3206.58656	338.825
3208.8904	355.025
3211.19287	346.925
3213.49394	342.725
3215.79363	342.225
3218.09193	358.525
3220.38884	351.825
3222.68438	349.125
3224.97853	329.625
3227.2713	351.625
3229.56269	340.625
3231.8527	338.725
3234.14133	325.125
3236.42858	326.925
3238.71446	310.225
3240.99896	329.925
3243.28209	311.725
3245.56384	323.925
3247.84423	315.525
3250.12324	324.025
3252.40088	322.225
3254.67715	312.725
3256.95205	303.125
3259.22558	317.925
3261.49775	320.425
3263.76855	313.325
3266.03799	316.025
3268.30606	326.625
3270.57277	328.825
3272.83812	318.825
3275.10211	327.325
