Data from AgNPs_UA_10uM_CRN_500uM_SU_RamanShift__131__13-27-10-279.txt Node

Date: Thu Aug 04 13:27:10 BST 2022
User: TCL
Spectrometer: QEP01345
Trigger mode: 4
Integration Time (sec): 1.000000E0
Scans to average: 10
Electric dark correction enabled: true
Nonlinearity correction enabled: false
Boxcar width: 0
XAxis mode: Raman Shifts
Number of Pixels in Spectrum: 1044
>>>>>Begin Spectral Data<<<<<
46.04893	-0.6875
50.45542	-0.0875
54.85868	-0.0875
59.25871	-0.9875
63.6555	20.7125
68.04907	21.8125
72.43941	22.0125
76.82654	21.8125
81.21044	22.3125
85.59113	25.8125
89.96862	27.2125
94.34289	26.7125
98.71396	27.9125
103.08183	28.9125
107.4465	28.5125
111.80798	29.3125
116.16626	30.1125
120.52136	32.1125
124.87327	36.8125
129.222	36.8125
133.56755	38.1125
137.90993	41.7125
142.24913	48.1125
146.58517	53.5125
150.91804	64.2125
155.24774	81.2125
159.57429	97.0125
163.89768	126.2125
168.21792	171.2125
172.53501	236.5125
176.84895	330.0125
181.15975	469.3125
185.46741	661.5125
189.77193	920.8125
194.07331	1241.9125
198.37157	1588.7125
202.6667	1972.6125
206.9587	2355.4125
211.24758	2713.4125
215.53334	3101.7125
219.81599	3496.3125
224.09553	3963.4125
228.37195	4449.1125
232.64527	4981.8125
236.91549	5515.0125
241.18261	6011.4125
245.44663	6405.8125
249.70755	6701.1125
253.96539	7000.0125
258.22014	7257.2125
262.4718	7484.8125
266.72039	7616.8125
270.96589	7672.0125
275.20832	7655.9125
279.44768	7541.0125
283.68397	7428.2125
287.91719	7331.6125
292.14735	7350.5125
296.37445	7457.0125
300.59849	7667.1125
304.81948	7938.7125
309.03742	8158.6125
313.25231	8264.9125
317.46415	8166.3125
321.67296	7897.0125
325.87872	7610.8125
330.08145	7469.9125
334.28114	7437.0125
338.47781	7530.4125
342.67145	7699.6125
346.86207	7883.4125
351.04966	8192.3125
355.23424	8507.9125
359.4158	8727.6125
363.59435	8872.3125
367.76989	8918.0125
371.94243	8923.5125
376.11196	8907.7125
380.27849	8913.7125
384.44203	8927.3125
388.60257	8961.6125
392.76012	9007.1125
396.91468	9132.8125
401.06626	9279.5125
405.21485	9329.5125
409.36047	9221.2125
413.50311	8935.7125
417.64277	8685.4125
421.77947	8510.9125
425.9132	8462.0125
430.04396	8468.9125
434.17176	8549.1125
438.2966	8656.0125
442.41849	8867.4125
446.53742	9118.5125
450.6534	9345.8125
454.76644	9458.5125
458.87653	9513.3125
462.98368	9466.0125
467.08789	9304.7125
471.18916	9156.4125
475.2875	8917.8125
479.38291	8743.1125
483.4754	8620.8125
487.56496	8538.4125
491.6516	8489.4125
495.73531	8490.8125
499.81612	8500.5125
503.89401	8591.5125
507.96899	8634.1125
512.04106	8668.9125
516.11023	8728.6125
520.1765	8801.3125
524.23987	8816.3125
528.30034	8811.7125
532.35792	8789.5125
536.41261	8689.0125
540.46441	8585.5125
544.51333	8550.7125
548.55936	8647.0125
552.60252	8742.7125
556.64279	8921.3125
560.6802	9016.2125
564.71473	9106.8125
568.7464	9245.1125
572.7752	9234.5125
576.80114	9012.8125
580.82422	8875.0125
584.84444	8880.2125
588.86181	8980.0125
592.87633	9149.0125
596.888	9320.9125
600.89682	9693.8125
604.9028	10688.9125
608.90594	12879.9125
612.90624	14927.0125
616.90371	13692.1125
620.89834	10746.8125
624.89015	9611.6125
628.87913	9554.7125
632.86528	9610.5125
636.84862	9553.7125
640.82913	9270.2125
644.80683	8908.2125
648.78172	8716.1125
652.75379	8760.7125
656.72306	9055.5125
660.68952	9329.0125
664.65319	9272.8125
668.61405	9090.2125
672.57211	9140.1125
676.52738	9109.9125
680.47986	8963.5125
684.42955	8800.9125
688.37646	8790.6125
692.32058	8881.0125
696.26192	9049.5125
700.20048	9190.2125
704.13626	9200.4125
708.06928	9081.7125
711.99952	8965.6125
715.927	8977.3125
719.85171	9068.0125
723.77365	9082.4125
727.69284	8988.6125
731.60928	8888.0125
735.52295	8920.2125
739.43388	8967.7125
743.34206	9014.0125
747.24749	9029.6125
751.15017	9077.0125
755.05012	9166.9125
758.94733	9513.7125
762.8418	10292.0125
766.73354	11501.2125
770.62254	12469.2125
774.50882	12643.2125
778.39237	12115.9125
782.27321	11195.9125
786.15132	10264.6125
790.02671	9642.5125
793.89938	9300.6125
797.76935	9174.8125
801.6366	9109.5125
805.50115	9055.5125
809.36299	9011.1125
813.22213	8984.5125
817.07857	8975.2125
820.93231	8963.9125
824.78336	8958.2125
828.63172	8984.2125
832.47738	9022.4125
836.32036	9001.8125
840.16066	9026.1125
843.99827	9039.4125
847.8332	9039.6125
851.66546	9013.4125
855.49504	8998.1125
859.32195	9039.2125
863.1462	9016.3125
866.96777	8973.9125
870.78668	8980.0125
874.60293	8981.1125
878.41652	9042.9125
882.22745	9138.7125
886.03573	9147.7125
889.84136	9181.4125
893.64433	9119.6125
897.44466	9087.4125
901.24235	9078.2125
905.0374	9046.1125
908.8298	9009.2125
912.61957	9009.9125
916.40671	9038.7125
920.19121	9111.2125
923.97308	9181.3125
927.75233	9341.6125
931.52895	9399.1125
935.30295	9318.1125
939.07433	9120.0125
942.84309	9015.8125
946.60924	8977.5125
950.37278	8972.7125
954.13371	8910.3125
957.89203	8882.1125
961.64774	8866.2125
965.40086	8837.8125
969.15137	8817.6125
972.89929	8842.4125
976.64461	8833.3125
980.38733	8878.1125
984.12747	8903.6125
987.86502	8938.3125
991.59999	9040.5125
995.33237	9211.8125
999.06217	9453.6125
1002.78939	9738.5125
1006.51404	9854.3125
1010.23611	9937.9125
1013.95561	10046.2125
1017.67255	10110.5125
1021.38692	10103.5125
1025.09872	10119.1125
1028.80796	10211.6125
1032.51465	10419.2125
1036.21877	10587.5125
1039.92035	10565.6125
1043.61937	10431.6125
1047.31584	10195.9125
1051.00976	10026.9125
1054.70114	9927.8125
1058.38998	9921.7125
1062.07627	9937.9125
1065.76003	9964.2125
1069.44126	9991.7125
1073.11995	10134.3125
1076.79611	10284.6125
1080.46974	10404.9125
1084.14085	10541.3125
1087.80943	10668.5125
1091.47549	10672.5125
1095.13903	10574.4125
1098.80005	10460.8125
1102.45857	10484.5125
1106.11456	10469.3125
1109.76805	10403.3125
1113.41903	10452.4125
1117.06751	10610.9125
1120.71348	10818.0125
1124.35696	11042.7125
1127.99793	11171.8125
1131.63641	11001.8125
1135.2724	10696.3125
1138.90589	10447.2125
1142.5369	10251.0125
1146.16542	10144.8125
1149.79145	10067.4125
1153.415	10019.6125
1157.03607	10057.5125
1160.65467	10159.8125
1164.27079	10419.2125
1167.88443	10805.1125
1171.49561	11397.7125
1175.10432	12283.8125
1178.71056	13403.8125
1182.31434	14372.4125
1185.91565	14772.4125
1189.51451	14646.8125
1193.11091	14203.3125
1196.70485	13641.8125
1200.29634	13134.7125
1203.88538	12635.0125
1207.47197	12109.4125
1211.05612	11620.4125
1214.63782	11312.2125
1218.21708	11165.3125
1221.79391	11173.5125
1225.36829	11262.3125
1228.94024	11217.3125
1232.50976	11124.1125
1236.07685	11019.3125
1239.6415	10982.3125
1243.20374	11022.9125
1246.76355	11118.8125
1250.32093	11239.7125
1253.8759	11480.4125
1257.42845	11802.2125
1260.97859	12137.5125
1264.52631	12458.5125
1268.07163	12757.2125
1271.61453	12957.7125
1275.15503	13120.5125
1278.69312	13309.5125
1282.22882	13457.7125
1285.76211	13637.9125
1289.29301	13815.2125
1292.82151	14076.7125
1296.34761	14386.2125
1299.87133	14916.5125
1303.39266	15875.9125
1306.9116	17269.2125
1310.42815	18768.6125
1313.94233	19426.7125
1317.45412	18915.2125
1320.96354	17781.6125
1324.47058	16637.2125
1327.97525	15678.3125
1331.47754	15116.2125
1334.97747	14923.7125
1338.47502	15088.6125
1341.97022	15548.9125
1345.46305	16237.7125
1348.95352	17169.5125
1352.44163	18212.3125
1355.92738	19417.9125
1359.41078	21002.7125
1362.89183	22082.7125
1366.37053	20927.0125
1369.84688	18183.8125
1373.32088	15663.0125
1376.79254	14213.0125
1380.26186	13593.4125
1383.72883	13173.2125
1387.19347	12836.2125
1390.65578	12471.1125
1394.11575	12127.6125
1397.57339	11965.7125
1401.0287	11938.7125
1404.48168	11985.6125
1407.93234	12086.0125
1411.38068	12293.3125
1414.82669	12454.3125
1418.27039	12403.9125
1421.71177	12332.0125
1425.15083	12235.0125
1428.58758	12212.1125
1432.02203	12371.1125
1435.45416	12501.7125
1438.88399	12537.0125
1442.31151	12483.4125
1445.73673	12459.5125
1449.15965	12437.1125
1452.58027	12344.4125
1455.9986	12241.4125
1459.41463	12219.1125
1462.82837	12342.8125
1466.23982	12539.8125
1469.64898	12744.8125
1473.05586	12901.6125
1476.46045	13047.0125
1479.86276	13180.8125
1483.26279	13353.1125
1486.66054	13541.3125
1490.05602	13860.2125
1493.44922	14404.4125
1496.84016	15119.5125
1500.22882	16200.8125
1503.61521	17475.6125
1506.99934	18826.3125
1510.38121	19675.0125
1513.76081	19472.2125
1517.13816	18143.8125
1520.51324	16441.8125
1523.88607	15044.2125
1527.25665	14185.2125
1530.62498	13755.9125
1533.99105	13530.1125
1537.35488	13436.2125
1540.71647	13294.2125
1544.07581	13143.7125
1547.4329	13044.1125
1550.78776	12884.7125
1554.14038	12785.2125
1557.49077	12773.1125
1560.83892	12879.1125
1564.18484	13125.6125
1567.52853	13389.4125
1570.86999	13500.6125
1574.20922	13494.0125
1577.54624	13298.9125
1580.88103	12823.4125
1584.2136	12331.5125
1587.54395	12188.0125
1590.87208	12461.4125
1594.19801	13198.2125
1597.52172	14057.9125
1600.84321	14418.3125
1604.16251	14173.7125
1607.47959	13655.4125
1610.79447	12964.3125
1614.10715	12157.8125
1617.41763	11461.9125
1620.7259	10997.8125
1624.03199	10756.3125
1627.33587	10781.6125
1630.63757	11043.9125
1633.93707	11557.2125
1637.23439	12426.9125
1640.52951	13589.8125
1643.82246	14918.6125
1647.11321	16078.7125
1650.40179	16319.0125
1653.68819	15261.9125
1656.97241	13397.9125
1660.25446	11707.4125
1663.53433	10603.2125
1666.81203	9948.4125
1670.08756	9561.9125
1673.36092	9316.0125
1676.63211	9162.3125
1679.90115	9021.5125
1683.16801	8904.4125
1686.43272	8825.9125
1689.69527	8787.3125
1692.95567	8750.0125
1696.2139	8699.2125
1699.46999	8724.7125
1702.72392	8691.8125
1705.97571	8671.8125
1709.22535	8682.2125
1712.47284	8687.0125
1715.71819	8693.4125
1718.96139	8673.9125
1722.20246	8673.4125
1725.44139	8585.0125
1728.67818	8548.3125
1731.91284	8503.2125
1735.14537	8469.1125
1738.37576	8442.5125
1741.60403	8425.2125
1744.83017	8392.9125
1748.05418	8401.2125
1751.27607	8347.8125
1754.49584	8333.9125
1757.71349	8341.2125
1760.92903	8326.3125
1764.14244	8333.5125
1767.35375	8310.0125
1770.56294	8287.6125
1773.77002	8262.3125
1776.97499	8242.6125
1780.17785	8226.0125
1783.37861	8208.4125
1786.57727	8205.9125
1789.77382	8193.9125
1792.96828	8176.5125
1796.16064	8174.9125
1799.3509	8150.0125
1802.53907	8155.5125
1805.72514	8137.3125
1808.90913	8103.1125
1812.09102	8108.6125
1815.27083	8076.3125
1818.44856	8027.0125
1821.6242	8036.1125
1824.79776	8022.5125
1827.96924	7994.4125
1831.13864	7997.0125
1834.30597	7990.1125
1837.47122	7973.7125
1840.6344	7946.6125
1843.7955	7962.0125
1846.95454	7966.0125
1850.11151	7958.8125
1853.26642	7942.7125
1856.41926	7951.3125
1859.57004	7957.4125
1862.71876	7942.2125
1865.86542	7946.1125
1869.01003	7950.3125
1872.15258	7919.1125
1875.29308	7921.1125
1878.43152	7901.5125
1881.56792	7901.9125
1884.70227	7891.3125
1887.83457	7872.6125
1890.96482	7848.1125
1894.09304	7844.5125
1897.21921	7833.7125
1900.34335	7834.7125
1903.46544	7812.7125
1906.58551	7827.3125
1909.70353	7817.6125
1912.81953	7810.0125
1915.93349	7804.7125
1919.04543	7791.4125
1922.15534	7752.7125
1925.26322	7778.1125
1928.36908	7733.9125
1931.47292	7717.7125
1934.57473	7719.7125
1937.67453	7714.8125
1940.77232	7692.0125
1943.86808	7651.8125
1946.96184	7645.0125
1950.05358	7604.0125
1953.14331	7608.1125
1956.23103	7578.6125
1959.31675	7551.1125
1962.40046	7535.9125
1965.48217	7508.7125
1968.56188	7474.8125
1971.63959	7481.4125
1974.7153	7447.0125
1977.78901	7457.2125
1980.86073	7443.2125
1983.93046	7386.9125
1986.99819	7358.0125
1990.06394	7355.3125
1993.1277	7329.5125
1996.18947	7277.8125
1999.24925	7274.7125
2002.30706	7252.0125
2005.36288	7227.3125
2008.41672	7207.9125
2011.46859	7185.2125
2014.51848	7167.9125
2017.56639	7142.5125
2020.61233	7111.8125
2023.6563	7102.4125
2026.6983	7094.1125
2029.73833	7066.8125
2032.7764	7044.4125
2035.8125	7048.2125
2038.84664	7031.4125
2041.87881	7010.0125
2044.90903	6999.8125
2047.93729	7010.3125
2050.96359	6975.3125
2053.98794	6964.8125
2057.01034	6950.6125
2060.03078	6966.0125
2063.04927	6970.3125
2066.06582	6943.2125
2069.08042	6949.2125
2072.09307	6931.3125
2075.10378	6932.3125
2078.11255	6932.8125
2081.11938	6899.0125
2084.12426	6883.3125
2087.12722	6906.8125
2090.12824	6902.8125
2093.12732	6907.8125
2096.12447	6903.3125
2099.11969	6899.4125
2102.11299	6906.4125
2105.10435	6911.1125
2108.09379	6907.7125
2111.08131	6918.4125
2114.0669	6913.1125
2117.05057	6917.6125
2120.03233	6940.3125
2123.01216	6926.6125
2125.99008	6933.4125
2128.96609	6933.5125
2131.94018	6936.7125
2134.91236	6933.5125
2137.88263	6936.5125
2140.851	6937.1125
2143.81746	6948.1125
2146.78201	6935.3125
2149.74466	6932.2125
2152.7054	6948.8125
2155.66425	6927.3125
2158.6212	6936.0125
2161.57625	6913.1125
2164.52941	6933.8125
2167.48067	6930.9125
2170.43004	6899.2125
2173.37752	6901.7125
2176.32311	6911.8125
2179.26681	6912.2125
2182.20863	6927.8125
2185.14856	6913.3125
2188.08661	6915.2125
2191.02278	6925.4125
2193.95707	6922.1125
2196.88948	6921.3125
2199.82001	6895.3125
2202.74867	6894.9125
2205.67545	6929.3125
2208.60037	6911.6125
2211.52341	6886.4125
2214.44458	6900.1125
2217.36388	6878.4125
2220.28132	6842.9125
2223.1969	6839.5125
2226.11061	6819.6125
2229.02246	6797.3125
2231.93245	6796.4125
2234.84058	6778.4125
2237.74686	6776.4125
2240.65128	6763.6125
2243.55385	6748.7125
2246.45456	6745.6125
2249.35343	6711.4125
2252.25044	6717.5125
2255.14561	6714.0125
2258.03893	6722.8125
2260.93041	6715.4125
2263.82004	6691.9125
2266.70783	6680.3125
2269.59378	6660.1125
2272.4779	6632.7125
2275.36017	6626.2125
2278.24061	6620.3125
2281.11922	6601.2125
2283.996	6572.5125
2286.87094	6577.0125
2289.74405	6587.0125
2292.61534	6554.3125
2295.4848	6533.2125
2298.35243	6533.8125
2301.21824	6537.2125
2304.08223	6532.8125
2306.94439	6542.8125
2309.80474	6531.5125
2312.66327	6548.4125
2315.51999	6526.2125
2318.37489	6528.3125
2321.22797	6540.5125
2324.07925	6534.8125
2326.92871	6514.4125
2329.77637	6498.3125
2332.62222	6485.1125
2335.46626	6481.6125
2338.3085	6487.3125
2341.14893	6493.2125
2343.98756	6500.9125
2346.8244	6498.9125
2349.65943	6497.4125
2352.49267	6484.2125
2355.32411	6484.5125
2358.15376	6487.5125
2360.98161	6462.6125
2363.80768	6479.2125
2366.63195	6448.5125
2369.45444	6439.2125
2372.27514	6441.4125
2375.09405	6420.0125
2377.91118	6418.5125
2380.72652	6398.3125
2383.54009	6405.4125
2386.35187	6355.5125
2389.16188	6364.5125
2391.97011	6330.0125
2394.77657	6329.2125
2397.58125	6296.7125
2400.38416	6294.3125
2403.18529	6316.5125
2405.98466	6293.9125
2408.78226	6256.8125
2411.57809	6259.4125
2414.37216	6222.7125
2417.16446	6223.5125
2419.955	6200.9125
2422.74378	6214.4125
2425.5308	6197.9125
2428.31606	6220.4125
2431.09956	6192.0125
2433.88131	6190.4125
2436.6613	6195.1125
2439.43954	6194.4125
2442.21603	6181.9125
2444.99077	6183.1125
2447.76377	6185.3125
2450.53501	6174.5125
2453.30451	6172.7125
2456.07226	6162.9125
2458.83827	6164.8125
2461.60254	6140.3125
2464.36507	6141.2125
2467.12586	6125.4125
2469.88492	6136.6125
2472.64224	6131.1125
2475.39782	6148.0125
2478.15167	6116.1125
2480.90379	6113.2125
2483.65417	6129.6125
2486.40283	6133.1125
2489.14976	6156.5125
2491.89497	6144.7125
2494.63845	6141.6125
2497.3802	6128.7125
2500.12024	6112.6125
2502.85855	6099.0125
2505.59514	6115.7125
2508.33002	6109.1125
2511.06318	6078.9125
2513.79462	6071.4125
2516.52435	6054.4125
2519.25237	6057.8125
2521.97867	6025.1125
2524.70327	6034.9125
2527.42616	6045.6125
2530.14734	6025.8125
2532.86681	6019.9125
2535.58458	6038.6125
2538.30065	6023.8125
2541.01501	6026.4125
2543.72768	6018.7125
2546.43864	6009.4125
2549.14791	5998.1125
2551.85548	5989.4125
2554.56136	5997.8125
2557.26554	5967.5125
2559.96803	5965.6125
2562.66883	5954.0125
2565.36794	5922.5125
2568.06536	5932.5125
2570.7611	5912.0125
2573.45514	5898.8125
2576.14751	5905.4125
2578.83819	5895.0125
2581.52719	5881.3125
2584.21451	5895.1125
2586.90015	5902.1125
2589.58411	5878.2125
2592.2664	5872.5125
2594.94701	5854.7125
2597.62594	5869.7125
2600.30321	5839.7125
2602.9788	5864.4125
2605.65273	5835.3125
2608.32498	5840.6125
2610.99557	5826.4125
2613.66449	5824.2125
2616.33175	5836.4125
2618.99734	5836.3125
2621.66128	5822.0125
2624.32355	5821.8125
2626.98416	5799.8125
2629.64311	5815.6125
2632.30041	5802.6125
2634.95605	5801.6125
2637.61004	5785.1125
2640.26238	5776.1125
2642.91306	5782.1125
2645.56209	5776.4125
2648.20948	5750.4125
2650.85521	5759.7125
2653.4993	5755.4125
2656.14175	5735.2125
2658.78255	5750.0125
2661.42171	5749.1125
2664.05923	5744.7125
2666.6951	5756.8125
2669.32934	5772.9125
2671.96194	5764.6125
2674.59291	5756.1125
2677.22224	5757.6125
2679.84993	5760.2125
2682.476	5757.3125
2685.10043	5754.0125
2687.72324	5754.5125
2690.34441	5741.1125
2692.96396	5731.8125
2695.58188	5736.8125
2698.19818	5709.2125
2700.81285	5717.9125
2703.4259	5712.3125
2706.03733	5704.5125
2708.64714	5691.1125
2711.25533	5693.2125
2713.86191	5693.1125
2716.46687	5717.6125
2719.07021	5709.6125
2721.67194	5717.8125
2724.27206	5709.0125
2726.87057	5720.7125
2729.46747	5699.4125
2732.06276	5692.9125
2734.65644	5720.4125
2737.24852	5691.0125
2739.83899	5681.3125
2742.42786	5653.6125
2745.01513	5661.0125
2747.60079	5663.3125
2750.18486	5650.6125
2752.76733	5649.4125
2755.3482	5634.0125
2757.92747	5644.7125
2760.50515	5623.7125
2763.08123	5621.9125
2765.65573	5604.6125
2768.22863	5602.0125
2770.79994	5598.3125
2773.36967	5601.9125
2775.9378	5585.8125
2778.50435	5588.3125
2781.06932	5582.0125
2783.6327	5573.6125
2786.1945	5582.4125
2788.75471	5569.0125
2791.31335	5562.9125
2793.87041	5551.9125
2796.42589	5527.0125
2798.97979	5532.1125
2801.53212	5505.4125
2804.08288	5502.4125
2806.63206	5491.5125
2809.17967	5497.1125
2811.72571	5463.7125
2814.27018	5475.7125
2816.81308	5444.0125
2819.35442	5444.0125
2821.89419	5441.4125
2824.43239	5432.5125
2826.96904	5418.5125
2829.50412	5430.6125
2832.03763	5399.6125
2834.56959	5408.2125
2837.1	5386.6125
2839.62884	5370.3125
2842.15613	5369.9125
2844.68186	5377.4125
2847.20604	5373.3125
2849.72867	5351.8125
2852.24974	5336.8125
2854.76927	5324.8125
2857.28724	5333.7125
2859.80367	5329.8125
2862.31855	5330.1125
2864.83189	5322.8125
2867.34368	5312.9125
2869.85393	5321.3125
2872.36264	5321.7125
2874.8698	5299.6125
2877.37543	5315.8125
2879.87952	5306.9125
2882.38207	5284.1125
2884.88308	5289.0125
2887.38256	5292.5125
2889.88051	5288.5125
2892.37692	5273.5125
2894.8718	5274.8125
2897.36515	5289.9125
2899.85698	5268.1125
2902.34727	5289.4125
2904.83604	5309.8125
2907.32328	5309.2125
2909.809	5300.7125
2912.29319	5304.8125
2914.77587	5321.1125
2917.25702	5317.7125
2919.73665	5298.4125
2922.21476	5310.2125
2924.69136	5299.0125
2927.16644	5280.4125
2929.64	5287.9125
2932.11205	5262.2125
2934.58258	5234.7125
2937.05161	5238.0125
2939.51912	5251.5125
2941.98513	5239.7125
2944.44962	5223.0125
2946.91261	5209.2125
2949.37409	5225.1125
2951.83407	5213.0125
2954.29254	5211.5125
2956.74951	5226.8125
2959.20498	5227.7125
2961.65895	5202.7125
2964.11142	5212.7125
2966.56239	5198.3125
2969.01186	5192.8125
2971.45984	5171.8125
2973.90632	5185.2125
2976.35131	5169.3125
2978.7948	5166.2125
2981.23681	5146.9125
2983.67732	5143.4125
2986.11635	5127.5125
2988.55388	5099.1125
2990.98993	5104.4125
2993.4245	5081.5125
2995.85758	5079.9125
2998.28917	5041.9125
3000.71928	5030.6125
3003.14791	5034.0125
3005.57506	5017.2125
3008.00073	5010.0125
3010.42493	4994.7125
3012.84764	4995.1125
3015.26888	4983.4125
3017.68865	4977.3125
3020.10694	4974.2125
3022.52376	4950.6125
3024.9391	4951.3125
3027.35298	4917.8125
3029.76539	4902.1125
3032.17632	4910.2125
3034.5858	4902.6125
3036.9938	4898.3125
3039.40034	4890.7125
3041.80542	4869.2125
3044.20903	4870.7125
3046.61118	4851.7125
3049.01187	4854.5125
3051.4111	4833.6125
3053.80888	4829.7125
3056.20519	4811.6125
3058.60005	4799.6125
3060.99345	4792.8125
3063.3854	4785.0125
3065.7759	4762.9125
3068.16494	4752.0125
3070.55254	4736.3125
3072.93868	4714.8125
3075.32338	4705.7125
3077.70662	4718.9125
3080.08842	4697.3125
3082.46878	4700.3125
3084.84769	4672.8125
3087.22515	4666.9125
3089.60118	4657.1125
3091.97576	4658.2125
3094.3489	4658.1125
3096.72061	4644.1125
3099.09087	4648.3125
3101.4597	4637.6125
3103.82709	4647.8125
3106.19305	4643.8125
