Data from AgNPs_UA_10uM_CRN_500uM_SU_RamanShift__16__13-08-00-256.txt Node

Date: Thu Aug 04 13:08:00 BST 2022
User: TCL
Spectrometer: QEP01345
Trigger mode: 4
Integration Time (sec): 1.000000E0
Scans to average: 10
Electric dark correction enabled: true
Nonlinearity correction enabled: false
Boxcar width: 0
XAxis mode: Raman Shifts
Number of Pixels in Spectrum: 1044
>>>>>Begin Spectral Data<<<<<
46.04893	0.8125
50.45542	-0.5875
54.85868	1.5125
59.25871	-0.3875
63.6555	16.7125
68.04907	16.5125
72.43941	18.1125
76.82654	18.2125
81.21044	18.7125
85.59113	21.7125
89.96862	22.2125
94.34289	22.8125
98.71396	24.1125
103.08183	24.1125
107.4465	23.6125
111.80798	24.5125
116.16626	25.5125
120.52136	27.7125
124.87327	28.4125
129.222	30.0125
133.56755	31.1125
137.90993	33.2125
142.24913	39.2125
146.58517	44.5125
150.91804	51.2125
155.24774	64.7125
159.57429	78.7125
163.89768	104.4125
168.21792	138.8125
172.53501	192.8125
176.84895	274.7125
181.15975	382.4125
185.46741	538.9125
189.77193	758.4125
194.07331	1017.8125
198.37157	1320.5125
202.6667	1631.0125
206.9587	1946.5125
211.24758	2258.5125
215.53334	2587.3125
219.81599	2937.8125
224.09553	3320.0125
228.37195	3761.5125
232.64527	4212.8125
236.91549	4651.3125
241.18261	5051.6125
245.44663	5371.9125
249.70755	5599.4125
253.96539	5804.1125
258.22014	5996.9125
262.4718	6148.8125
266.72039	6228.3125
270.96589	6230.8125
275.20832	6198.1125
279.44768	6106.7125
283.68397	5998.6125
287.91719	5947.1125
292.14735	5955.3125
296.37445	6076.3125
300.59849	6278.9125
304.81948	6540.1125
309.03742	6788.4125
313.25231	6940.7125
317.46415	6895.5125
321.67296	6610.4125
325.87872	6327.5125
330.08145	6177.9125
334.28114	6130.3125
338.47781	6209.2125
342.67145	6327.6125
346.86207	6535.1125
351.04966	6818.9125
355.23424	7120.3125
359.4158	7305.9125
363.59435	7383.1125
367.76989	7355.5125
371.94243	7327.8125
376.11196	7250.2125
380.27849	7244.8125
384.44203	7253.5125
388.60257	7272.8125
392.76012	7324.3125
396.91468	7436.4125
401.06626	7554.0125
405.21485	7597.9125
409.36047	7503.8125
413.50311	7257.9125
417.64277	7032.4125
421.77947	6891.1125
425.9132	6798.0125
430.04396	6792.3125
434.17176	6789.3125
438.2966	6860.8125
442.41849	6958.1125
446.53742	7115.9125
450.6534	7233.4125
454.76644	7341.4125
458.87653	7391.2125
462.98368	7403.0125
467.08789	7380.0125
471.18916	7245.4125
475.2875	7101.0125
479.38291	6968.0125
483.4754	6868.4125
487.56496	6816.0125
491.6516	6798.9125
495.73531	6801.2125
499.81612	6831.2125
503.89401	6896.7125
507.96899	6946.2125
512.04106	6975.1125
516.11023	7026.3125
520.1765	7097.6125
524.23987	7095.2125
528.30034	7099.7125
532.35792	7064.0125
536.41261	7014.6125
540.46441	6934.1125
544.51333	6898.6125
548.55936	6968.9125
552.60252	7038.1125
556.64279	7179.1125
560.6802	7277.1125
564.71473	7382.9125
568.7464	7506.0125
572.7752	7433.8125
576.80114	7202.5125
580.82422	7015.4125
584.84444	6959.2125
588.86181	6937.6125
592.87633	6944.2125
596.888	7085.0125
600.89682	7441.7125
604.9028	8336.6125
608.90594	10208.9125
612.90624	12052.5125
616.90371	11150.8125
620.89834	8560.5125
624.89015	7525.0125
628.87913	7427.7125
632.86528	7560.3125
636.84862	7670.8125
640.82913	7489.9125
644.80683	7191.4125
648.78172	7016.8125
652.75379	7042.8125
656.72306	7253.0125
660.68952	7500.8125
664.65319	7450.7125
668.61405	7337.1125
672.57211	7358.1125
676.52738	7360.7125
680.47986	7169.7125
684.42955	7018.9125
688.37646	6976.0125
692.32058	7011.6125
696.26192	7140.3125
700.20048	7279.7125
704.13626	7334.0125
708.06928	7232.5125
711.99952	7160.2125
715.927	7132.4125
719.85171	7194.8125
723.77365	7200.2125
727.69284	7172.8125
731.60928	7116.9125
735.52295	7106.7125
739.43388	7128.4125
743.34206	7149.9125
747.24749	7137.9125
751.15017	7138.3125
755.05012	7243.7125
758.94733	7527.0125
762.8418	8229.7125
766.73354	9276.2125
770.62254	10063.8125
774.50882	10208.5125
778.39237	9871.8125
782.27321	9189.5125
786.15132	8350.8125
790.02671	7743.3125
793.89938	7420.0125
797.76935	7275.6125
801.6366	7170.8125
805.50115	7118.8125
809.36299	7105.6125
813.22213	7105.4125
817.07857	7103.5125
820.93231	7086.8125
824.78336	7095.6125
828.63172	7130.0125
832.47738	7120.7125
836.32036	7102.2125
840.16066	7100.7125
843.99827	7069.7125
847.8332	7085.0125
851.66546	7092.6125
855.49504	7103.1125
859.32195	7099.2125
863.1462	7102.1125
866.96777	7092.1125
870.78668	7106.9125
874.60293	7136.3125
878.41652	7159.5125
882.22745	7213.8125
886.03573	7266.5125
889.84136	7262.7125
893.64433	7216.2125
897.44466	7202.8125
901.24235	7182.0125
905.0374	7186.2125
908.8298	7156.7125
912.61957	7155.1125
916.40671	7153.0125
920.19121	7163.4125
923.97308	7197.3125
927.75233	7270.0125
931.52895	7322.3125
935.30295	7276.6125
939.07433	7152.1125
942.84309	7078.7125
946.60924	7052.2125
950.37278	7013.2125
954.13371	7029.2125
957.89203	7028.6125
961.64774	7046.8125
965.40086	7037.2125
969.15137	7019.4125
972.89929	6985.5125
976.64461	7005.3125
980.38733	7016.6125
984.12747	7007.5125
987.86502	7056.6125
991.59999	7065.2125
995.33237	7120.2125
999.06217	7182.6125
1002.78939	7251.8125
1006.51404	7414.7125
1010.23611	7513.0125
1013.95561	7593.8125
1017.67255	7600.6125
1021.38692	7594.4125
1025.09872	7541.8125
1028.80796	7444.8125
1032.51465	7446.1125
1036.21877	7454.7125
1039.92035	7461.2125
1043.61937	7502.2125
1047.31584	7537.8125
1051.00976	7574.1125
1054.70114	7580.9125
1058.38998	7615.5125
1062.07627	7632.5125
1065.76003	7706.5125
1069.44126	7779.6125
1073.11995	7957.9125
1076.79611	8105.5125
1080.46974	8211.9125
1084.14085	8311.3125
1087.80943	8390.9125
1091.47549	8438.0125
1095.13903	8438.4125
1098.80005	8468.8125
1102.45857	8554.5125
1106.11456	8523.1125
1109.76805	8378.0125
1113.41903	8358.5125
1117.06751	8452.6125
1120.71348	8613.7125
1124.35696	8824.0125
1127.99793	8946.8125
1131.63641	8801.1125
1135.2724	8489.4125
1138.90589	8255.1125
1142.5369	8124.3125
1146.16542	8044.6125
1149.79145	7989.8125
1153.415	7883.0125
1157.03607	7876.3125
1160.65467	7953.4125
1164.27079	8118.6125
1167.88443	8403.9125
1171.49561	8755.8125
1175.10432	9327.4125
1178.71056	10113.9125
1182.31434	10722.9125
1185.91565	10962.5125
1189.51451	10966.9125
1193.11091	10873.8125
1196.70485	10696.0125
1200.29634	10476.8125
1203.88538	10190.6125
1207.47197	9823.3125
1211.05612	9406.1125
1214.63782	9009.1125
1218.21708	8699.9125
1221.79391	8536.9125
1225.36829	8445.3125
1228.94024	8438.2125
1232.50976	8458.3125
1236.07685	8490.0125
1239.6415	8537.1125
1243.20374	8575.0125
1246.76355	8621.7125
1250.32093	8689.2125
1253.8759	8784.0125
1257.42845	9038.2125
1260.97859	9277.8125
1264.52631	9534.4125
1268.07163	9733.0125
1271.61453	9798.5125
1275.15503	9784.7125
1278.69312	9785.8125
1282.22882	9756.4125
1285.76211	9849.7125
1289.29301	10022.7125
1292.82151	10240.0125
1296.34761	10424.5125
1299.87133	10751.5125
1303.39266	11338.3125
1306.9116	12215.9125
1310.42815	13202.8125
1313.94233	13548.7125
1317.45412	13062.2125
1320.96354	12259.1125
1324.47058	11546.7125
1327.97525	10938.0125
1331.47754	10578.3125
1334.97747	10478.1125
1338.47502	10602.7125
1341.97022	10977.3125
1345.46305	11672.4125
1348.95352	12735.9125
1352.44163	13913.8125
1355.92738	15083.9125
1359.41078	16313.6125
1362.89183	17174.9125
1366.37053	16295.6125
1369.84688	13933.7125
1373.32088	11786.6125
1376.79254	10647.9125
1380.26186	10059.2125
1383.72883	9678.4125
1387.19347	9361.6125
1390.65578	9026.4125
1394.11575	8767.5125
1397.57339	8587.6125
1401.0287	8517.0125
1404.48168	8496.1125
1407.93234	8527.0125
1411.38068	8677.4125
1414.82669	8786.3125
1418.27039	8849.0125
1421.71177	8825.7125
1425.15083	8748.8125
1428.58758	8650.6125
1432.02203	8642.3125
1435.45416	8657.5125
1438.88399	8637.8125
1442.31151	8623.4125
1445.73673	8649.1125
1449.15965	8691.8125
1452.58027	8661.7125
1455.9986	8645.5125
1459.41463	8642.2125
1462.82837	8745.8125
1466.23982	8936.1125
1469.64898	9094.7125
1473.05586	9248.2125
1476.46045	9376.0125
1479.86276	9488.6125
1483.26279	9610.5125
1486.66054	9786.3125
1490.05602	10123.2125
1493.44922	10587.8125
1496.84016	11350.4125
1500.22882	12486.4125
1503.61521	13837.5125
1506.99934	15096.3125
1510.38121	15896.8125
1513.76081	15735.9125
1517.13816	14524.1125
1520.51324	12893.6125
1523.88607	11576.3125
1527.25665	10766.4125
1530.62498	10365.6125
1533.99105	10153.2125
1537.35488	10069.7125
1540.71647	9953.8125
1544.07581	9840.8125
1547.4329	9723.4125
1550.78776	9581.7125
1554.14038	9506.4125
1557.49077	9463.8125
1560.83892	9586.3125
1564.18484	9830.8125
1567.52853	10106.6125
1570.86999	10269.6125
1574.20922	10338.6125
1577.54624	10244.9125
1580.88103	9790.2125
1584.2136	9289.4125
1587.54395	8996.7125
1590.87208	8953.3125
1594.19801	9175.3125
1597.52172	9499.0125
1600.84321	9626.6125
1604.16251	9547.3125
1607.47959	9395.0125
1610.79447	9187.7125
1614.10715	8851.1125
1617.41763	8493.4125
1620.7259	8227.9125
1624.03199	8020.3125
1627.33587	7965.4125
1630.63757	8034.3125
1633.93707	8278.1125
1637.23439	8715.7125
1640.52951	9481.2125
1643.82246	10489.7125
1647.11321	11553.0125
1650.40179	12110.6125
1653.68819	11611.2125
1656.97241	10339.0125
1660.25446	9049.1125
1663.53433	8166.5125
1666.81203	7614.3125
1670.08756	7282.0125
1673.36092	7114.3125
1676.63211	6991.7125
1679.90115	6882.8125
1683.16801	6818.2125
1686.43272	6745.7125
1689.69527	6704.5125
1692.95567	6669.8125
1696.2139	6644.8125
1699.46999	6641.1125
1702.72392	6613.1125
1705.97571	6595.5125
1709.22535	6606.2125
1712.47284	6590.7125
1715.71819	6607.6125
1718.96139	6614.3125
1722.20246	6591.2125
1725.44139	6576.0125
1728.67818	6524.4125
1731.91284	6477.1125
1735.14537	6448.0125
1738.37576	6432.6125
1741.60403	6399.9125
1744.83017	6391.8125
1748.05418	6374.0125
1751.27607	6344.8125
1754.49584	6340.8125
1757.71349	6330.8125
1760.92903	6317.6125
1764.14244	6294.1125
1767.35375	6273.6125
1770.56294	6278.0125
1773.77002	6257.5125
1776.97499	6233.0125
1780.17785	6206.4125
1783.37861	6197.7125
1786.57727	6190.7125
1789.77382	6184.6125
1792.96828	6181.0125
1796.16064	6146.1125
1799.3509	6153.9125
1802.53907	6141.7125
1805.72514	6144.8125
1808.90913	6112.1125
1812.09102	6100.6125
1815.27083	6085.6125
1818.44856	6061.6125
1821.6242	6030.2125
1824.79776	6025.5125
1827.96924	6024.4125
1831.13864	6008.7125
1834.30597	5993.3125
1837.47122	5981.5125
1840.6344	5967.4125
1843.7955	5965.3125
1846.95454	5975.1125
1850.11151	5953.9125
1853.26642	5954.1125
1856.41926	5955.3125
1859.57004	5962.8125
1862.71876	5948.0125
1865.86542	5944.1125
1869.01003	5939.2125
1872.15258	5922.0125
1875.29308	5917.3125
1878.43152	5898.0125
1881.56792	5901.5125
1884.70227	5884.1125
1887.83457	5850.8125
1890.96482	5841.5125
1894.09304	5818.1125
1897.21921	5840.0125
1900.34335	5824.8125
1903.46544	5824.9125
1906.58551	5817.9125
1909.70353	5811.0125
1912.81953	5796.6125
1915.93349	5801.3125
1919.04543	5752.3125
1922.15534	5757.5125
1925.26322	5747.0125
1928.36908	5712.4125
1931.47292	5724.8125
1934.57473	5714.4125
1937.67453	5683.9125
1940.77232	5678.3125
1943.86808	5668.3125
1946.96184	5628.9125
1950.05358	5633.5125
1953.14331	5625.0125
1956.23103	5583.9125
1959.31675	5575.3125
1962.40046	5558.1125
1965.48217	5524.9125
1968.56188	5502.1125
1971.63959	5509.3125
1974.7153	5486.6125
1977.78901	5480.6125
1980.86073	5463.3125
1983.93046	5456.5125
1986.99819	5412.4125
1990.06394	5419.3125
1993.1277	5396.7125
1996.18947	5360.6125
1999.24925	5342.5125
2002.30706	5310.0125
2005.36288	5292.3125
2008.41672	5282.9125
2011.46859	5255.4125
2014.51848	5247.3125
2017.56639	5227.9125
2020.61233	5213.0125
2023.6563	5201.0125
2026.6983	5188.7125
2029.73833	5165.3125
2032.7764	5144.3125
2035.8125	5130.3125
2038.84664	5125.8125
2041.87881	5106.7125
2044.90903	5106.0125
2047.93729	5102.5125
2050.96359	5074.8125
2053.98794	5076.1125
2057.01034	5060.8125
2060.03078	5067.8125
2063.04927	5054.4125
2066.06582	5068.2125
2069.08042	5048.0125
2072.09307	5035.8125
2075.10378	5025.4125
2078.11255	5038.2125
2081.11938	5021.2125
2084.12426	5016.8125
2087.12722	4999.3125
2090.12824	5007.7125
2093.12732	5004.2125
2096.12447	4999.1125
2099.11969	5011.0125
2102.11299	5015.8125
2105.10435	4999.0125
2108.09379	5004.1125
2111.08131	4999.4125
2114.0669	5007.0125
2117.05057	5021.6125
2120.03233	5019.9125
2123.01216	5005.6125
2125.99008	5008.4125
2128.96609	5002.3125
2131.94018	5031.5125
2134.91236	4998.5125
2137.88263	5005.6125
2140.851	5004.2125
2143.81746	5012.6125
2146.78201	4988.4125
2149.74466	4991.0125
2152.7054	4993.5125
2155.66425	5003.2125
2158.6212	5000.9125
2161.57625	4983.7125
2164.52941	4975.9125
2167.48067	4988.9125
2170.43004	4957.5125
2173.37752	4960.3125
2176.32311	4951.7125
2179.26681	4971.3125
2182.20863	4980.2125
2185.14856	4961.0125
2188.08661	4958.1125
2191.02278	4955.3125
2193.95707	4979.5125
2196.88948	4955.9125
2199.82001	4938.2125
2202.74867	4929.5125
2205.67545	4942.6125
2208.60037	4910.6125
2211.52341	4911.8125
2214.44458	4904.7125
2217.36388	4895.6125
2220.28132	4867.1125
2223.1969	4862.9125
2226.11061	4829.2125
2229.02246	4829.3125
2231.93245	4827.7125
2234.84058	4810.5125
2237.74686	4794.4125
2240.65128	4799.2125
2243.55385	4788.8125
2246.45456	4782.0125
2249.35343	4778.9125
2252.25044	4774.0125
2255.14561	4762.7125
2258.03893	4759.2125
2260.93041	4761.0125
2263.82004	4743.1125
2266.70783	4724.7125
2269.59378	4717.0125
2272.4779	4705.5125
2275.36017	4680.3125
2278.24061	4682.7125
2281.11922	4680.0125
2283.996	4653.8125
2286.87094	4637.2125
2289.74405	4637.1125
2292.61534	4640.2125
2295.4848	4621.4125
2298.35243	4625.5125
2301.21824	4614.0125
2304.08223	4586.7125
2306.94439	4592.8125
2309.80474	4584.4125
2312.66327	4603.8125
2315.51999	4578.2125
2318.37489	4560.7125
2321.22797	4554.6125
2324.07925	4548.2125
2326.92871	4534.3125
2329.77637	4521.1125
2332.62222	4520.4125
2335.46626	4526.5125
2338.3085	4507.8125
2341.14893	4502.0125
2343.98756	4493.0125
2346.8244	4482.8125
2349.65943	4481.2125
2352.49267	4468.4125
2355.32411	4457.5125
2358.15376	4468.7125
2360.98161	4459.3125
2363.80768	4475.6125
2366.63195	4472.5125
2369.45444	4454.7125
2372.27514	4472.8125
2375.09405	4472.3125
2377.91118	4439.6125
2380.72652	4432.8125
2383.54009	4419.2125
2386.35187	4431.7125
2389.16188	4408.5125
2391.97011	4390.8125
2394.77657	4370.9125
2397.58125	4351.8125
2400.38416	4346.6125
2403.18529	4334.6125
2405.98466	4347.4125
2408.78226	4318.4125
2411.57809	4314.9125
2414.37216	4293.9125
2417.16446	4316.5125
2419.955	4302.4125
2422.74378	4299.1125
2425.5308	4300.2125
2428.31606	4300.7125
2431.09956	4282.6125
2433.88131	4266.7125
2436.6613	4278.0125
2439.43954	4273.7125
2442.21603	4256.9125
2444.99077	4259.8125
2447.76377	4266.8125
2450.53501	4257.3125
2453.30451	4259.8125
2456.07226	4244.0125
2458.83827	4244.4125
2461.60254	4218.6125
2464.36507	4228.7125
2467.12586	4216.4125
2469.88492	4201.6125
2472.64224	4207.1125
2475.39782	4205.3125
2478.15167	4196.9125
2480.90379	4193.0125
2483.65417	4181.7125
2486.40283	4189.4125
2489.14976	4185.0125
2491.89497	4203.8125
2494.63845	4194.5125
2497.3802	4185.3125
2500.12024	4157.9125
2502.85855	4159.6125
2505.59514	4162.1125
2508.33002	4145.2125
2511.06318	4129.8125
2513.79462	4118.0125
2516.52435	4110.6125
2519.25237	4104.5125
2521.97867	4090.0125
2524.70327	4088.0125
2527.42616	4083.9125
2530.14734	4054.3125
2532.86681	4053.9125
2535.58458	4072.1125
2538.30065	4070.5125
2541.01501	4061.2125
2543.72768	4053.7125
2546.43864	4036.9125
2549.14791	4030.1125
2551.85548	4050.1125
2554.56136	4030.1125
2557.26554	4024.6125
2559.96803	4021.7125
2562.66883	3988.9125
2565.36794	3990.4125
2568.06536	3980.3125
2570.7611	3953.7125
2573.45514	3947.6125
2576.14751	3954.2125
2578.83819	3932.3125
2581.52719	3925.6125
2584.21451	3936.5125
2586.90015	3928.1125
2589.58411	3906.3125
2592.2664	3897.3125
2594.94701	3890.1125
2597.62594	3888.9125
2600.30321	3873.8125
2602.9788	3882.0125
2605.65273	3876.8125
2608.32498	3873.3125
2610.99557	3856.1125
2613.66449	3850.4125
2616.33175	3853.6125
2618.99734	3840.6125
2621.66128	3834.1125
2624.32355	3826.8125
2626.98416	3820.5125
2629.64311	3798.1125
2632.30041	3805.1125
2634.95605	3792.8125
2637.61004	3781.8125
2640.26238	3762.9125
2642.91306	3770.4125
2645.56209	3754.0125
2648.20948	3772.8125
2650.85521	3753.0125
2653.4993	3751.3125
2656.14175	3752.7125
2658.78255	3738.3125
2661.42171	3726.4125
2664.05923	3740.6125
2666.6951	3759.9125
2669.32934	3761.8125
2671.96194	3758.0125
2674.59291	3762.5125
2677.22224	3761.6125
2679.84993	3750.6125
2682.476	3759.5125
2685.10043	3745.5125
2687.72324	3733.6125
2690.34441	3744.0125
2692.96396	3738.4125
2695.58188	3744.8125
2698.19818	3738.4125
2700.81285	3739.7125
2703.4259	3722.1125
2706.03733	3726.9125
2708.64714	3710.9125
2711.25533	3710.4125
2713.86191	3710.5125
2716.46687	3713.4125
2719.07021	3711.2125
2721.67194	3727.6125
2724.27206	3714.4125
2726.87057	3710.5125
2729.46747	3704.3125
2732.06276	3719.9125
2734.65644	3701.7125
2737.24852	3683.9125
2739.83899	3681.6125
2742.42786	3675.0125
2745.01513	3663.9125
2747.60079	3644.5125
2750.18486	3645.2125
2752.76733	3658.9125
2755.3482	3637.3125
2757.92747	3642.1125
2760.50515	3629.8125
2763.08123	3632.8125
2765.65573	3605.7125
2768.22863	3597.1125
2770.79994	3597.7125
2773.36967	3589.7125
2775.9378	3581.5125
2778.50435	3582.0125
2781.06932	3569.8125
2783.6327	3563.1125
2786.1945	3564.1125
2788.75471	3562.4125
2791.31335	3541.9125
2793.87041	3548.8125
2796.42589	3521.9125
2798.97979	3522.2125
2801.53212	3515.4125
2804.08288	3510.5125
2806.63206	3501.7125
2809.17967	3508.7125
2811.72571	3487.0125
2814.27018	3492.3125
2816.81308	3474.2125
2819.35442	3475.9125
2821.89419	3462.5125
2824.43239	3460.9125
2826.96904	3442.7125
2829.50412	3449.6125
2832.03763	3437.8125
2834.56959	3430.0125
2837.1	3407.4125
2839.62884	3414.7125
2842.15613	3414.9125
2844.68186	3413.6125
2847.20604	3409.6125
2849.72867	3406.0125
2852.24974	3383.5125
2854.76927	3382.4125
2857.28724	3374.6125
2859.80367	3364.8125
2862.31855	3364.9125
2864.83189	3374.9125
2867.34368	3373.2125
2869.85393	3369.4125
2872.36264	3365.7125
2874.8698	3363.3125
2877.37543	3349.7125
2879.87952	3348.5125
2882.38207	3335.7125
2884.88308	3338.0125
2887.38256	3320.4125
2889.88051	3330.2125
2892.37692	3311.7125
2894.8718	3325.8125
2897.36515	3319.7125
2899.85698	3314.0125
2902.34727	3307.6125
2904.83604	3317.3125
2907.32328	3320.6125
2909.809	3317.0125
2912.29319	3332.5125
2914.77587	3333.2125
2917.25702	3349.5125
2919.73665	3328.3125
2922.21476	3331.4125
2924.69136	3318.8125
2927.16644	3320.8125
2929.64	3307.7125
2932.11205	3298.0125
2934.58258	3289.2125
2937.05161	3290.3125
2939.51912	3282.9125
2941.98513	3288.9125
2944.44962	3272.7125
2946.91261	3271.7125
2949.37409	3268.7125
2951.83407	3264.2125
2954.29254	3247.3125
2956.74951	3245.0125
2959.20498	3243.4125
2961.65895	3258.0125
2964.11142	3242.4125
2966.56239	3249.4125
2969.01186	3241.6125
2971.45984	3228.9125
2973.90632	3231.6125
2976.35131	3214.8125
2978.7948	3218.2125
2981.23681	3209.9125
2983.67732	3206.6125
2986.11635	3185.0125
2988.55388	3186.2125
2990.98993	3164.0125
2993.4245	3179.6125
2995.85758	3172.2125
2998.28917	3150.4125
3000.71928	3146.8125
3003.14791	3122.0125
3005.57506	3126.6125
3008.00073	3119.3125
3010.42493	3111.0125
3012.84764	3101.7125
3015.26888	3091.5125
3017.68865	3106.5125
3020.10694	3083.4125
3022.52376	3079.4125
3024.9391	3065.1125
3027.35298	3050.4125
3029.76539	3037.0125
3032.17632	3037.2125
3034.5858	3028.2125
3036.9938	3044.4125
3039.40034	3012.0125
3041.80542	3006.4125
3044.20903	3005.6125
3046.61118	2993.1125
3049.01187	3005.7125
3051.4111	2992.2125
3053.80888	2980.3125
3056.20519	2963.2125
3058.60005	2957.5125
3060.99345	2957.3125
3063.3854	2948.5125
3065.7759	2948.5125
3068.16494	2927.5125
3070.55254	2920.9125
3072.93868	2914.8125
3075.32338	2908.3125
3077.70662	2899.4125
3080.08842	2888.5125
3082.46878	2891.7125
3084.84769	2875.0125
3087.22515	2867.2125
3089.60118	2863.7125
3091.97576	2868.5125
3094.3489	2862.7125
3096.72061	2858.4125
3099.09087	2852.6125
3101.4597	2854.5125
3103.82709	2856.5125
3106.19305	2842.5125
3108.55757	2842.6125
3110.92066	2840.4125
3113.28232	2831.2125
3115.64255	2823.3125
3118.00134	2810.9125
3120.35871	2806.2125
3122.71466	2813.8125
