Data from AgNPs_UA_50uM_CRN_500uM_SU_RamanShift__5__13-56-40-315.txt Node

Date: Thu Aug 04 13:56:40 BST 2022
User: TCL
Spectrometer: QEP01345
Trigger mode: 4
Integration Time (sec): 1.000000E0
Scans to average: 10
Electric dark correction enabled: true
Nonlinearity correction enabled: false
Boxcar width: 0
XAxis mode: Raman Shifts
Number of Pixels in Spectrum: 1044
>>>>>Begin Spectral Data<<<<<
46.04893	1.275
50.45542	-0.225
54.85868	1.375
59.25871	-1.125
63.6555	14.575
68.04907	12.575
72.43941	14.575
76.82654	18.575
81.21044	15.775
85.59113	19.275
89.96862	19.875
94.34289	20.375
98.71396	19.675
103.08183	21.275
107.4465	18.675
111.80798	21.675
116.16626	21.775
120.52136	22.475
124.87327	26.275
129.222	26.675
133.56755	28.375
137.90993	31.175
142.24913	34.075
146.58517	38.175
150.91804	44.075
155.24774	49.775
159.57429	67.675
163.89768	88.775
168.21792	118.075
172.53501	164.075
176.84895	228.975
181.15975	323.075
185.46741	459.075
189.77193	635.675
194.07331	860.075
198.37157	1110.775
202.6667	1376.175
206.9587	1653.675
211.24758	1924.275
215.53334	2201.475
219.81599	2502.375
224.09553	2842.875
228.37195	3229.075
232.64527	3637.475
236.91549	4044.175
241.18261	4374.075
245.44663	4603.075
249.70755	4784.975
253.96539	4936.775
258.22014	5049.075
262.4718	5183.975
266.72039	5262.275
270.96589	5275.875
275.20832	5220.875
279.44768	5136.475
283.68397	5051.275
287.91719	5001.075
292.14735	5013.475
296.37445	5139.075
300.59849	5359.175
304.81948	5670.975
309.03742	5966.675
313.25231	6146.275
317.46415	6074.575
321.67296	5766.075
325.87872	5404.775
330.08145	5225.475
334.28114	5200.275
338.47781	5273.775
342.67145	5396.575
346.86207	5566.275
351.04966	5877.975
355.23424	6152.375
359.4158	6316.375
363.59435	6380.875
367.76989	6360.775
371.94243	6284.475
376.11196	6211.575
380.27849	6148.975
384.44203	6104.775
388.60257	6082.375
392.76012	6148.475
396.91468	6228.375
401.06626	6344.375
405.21485	6365.675
409.36047	6220.075
413.50311	5944.575
417.64277	5681.675
421.77947	5533.675
425.9132	5471.075
430.04396	5480.575
434.17176	5508.475
438.2966	5586.675
442.41849	5692.375
446.53742	5807.575
450.6534	5914.475
454.76644	5973.875
458.87653	5987.975
462.98368	5929.775
467.08789	5883.375
471.18916	5790.775
475.2875	5657.075
479.38291	5554.675
483.4754	5471.375
487.56496	5413.075
491.6516	5387.375
495.73531	5387.575
499.81612	5401.775
503.89401	5449.175
507.96899	5495.375
512.04106	5565.375
516.11023	5638.975
520.1765	5711.975
524.23987	5732.375
528.30034	5734.875
532.35792	5678.675
536.41261	5635.275
540.46441	5527.675
544.51333	5503.175
548.55936	5527.075
552.60252	5630.475
556.64279	5754.875
560.6802	5831.075
564.71473	5920.475
568.7464	6082.575
572.7752	6051.075
576.80114	5831.875
580.82422	5635.675
584.84444	5559.675
588.86181	5549.475
592.87633	5587.075
596.888	5694.375
600.89682	6006.275
604.9028	6868.575
608.90594	8704.075
612.90624	10666.075
616.90371	9753.975
620.89834	7105.275
624.89015	5957.175
628.87913	5810.475
632.86528	5964.975
636.84862	6061.975
640.82913	5920.875
644.80683	5664.075
648.78172	5537.775
652.75379	5545.375
656.72306	5748.275
660.68952	5947.875
664.65319	5844.975
668.61405	5628.775
672.57211	5596.775
676.52738	5585.475
680.47986	5515.475
684.42955	5431.475
688.37646	5390.375
692.32058	5416.575
696.26192	5512.775
700.20048	5584.775
704.13626	5628.775
708.06928	5588.975
711.99952	5541.275
715.927	5518.475
719.85171	5567.875
723.77365	5582.975
727.69284	5548.775
731.60928	5511.275
735.52295	5488.575
739.43388	5495.375
743.34206	5522.275
747.24749	5540.475
751.15017	5536.375
755.05012	5616.875
758.94733	5911.375
762.8418	6650.175
766.73354	7732.375
770.62254	8572.875
774.50882	8653.575
778.39237	8131.875
782.27321	7269.075
786.15132	6426.175
790.02671	5870.075
793.89938	5631.575
797.76935	5521.275
801.6366	5457.175
805.50115	5431.775
809.36299	5396.375
813.22213	5393.975
817.07857	5374.675
820.93231	5382.575
824.78336	5398.275
828.63172	5417.475
832.47738	5423.775
836.32036	5428.275
840.16066	5388.575
843.99827	5378.875
847.8332	5368.075
851.66546	5362.075
855.49504	5389.575
859.32195	5394.975
863.1462	5385.075
866.96777	5373.875
870.78668	5388.975
874.60293	5410.275
878.41652	5426.975
882.22745	5483.975
886.03573	5499.975
889.84136	5488.875
893.64433	5469.475
897.44466	5451.375
901.24235	5448.475
905.0374	5422.575
908.8298	5399.475
912.61957	5369.275
916.40671	5387.775
920.19121	5404.875
923.97308	5474.075
927.75233	5541.675
931.52895	5591.975
935.30295	5523.975
939.07433	5382.975
942.84309	5304.575
946.60924	5268.575
950.37278	5241.375
954.13371	5239.675
957.89203	5252.975
961.64774	5228.375
965.40086	5215.175
969.15137	5221.175
972.89929	5199.175
976.64461	5193.775
980.38733	5193.375
984.12747	5220.475
987.86502	5228.575
991.59999	5280.275
995.33237	5335.875
999.06217	5419.575
1002.78939	5517.375
1006.51404	5668.975
1010.23611	5788.475
1013.95561	5827.075
1017.67255	5823.175
1021.38692	5772.975
1025.09872	5685.575
1028.80796	5577.575
1032.51465	5549.975
1036.21877	5587.675
1039.92035	5632.275
1043.61937	5677.675
1047.31584	5671.875
1051.00976	5671.175
1054.70114	5643.375
1058.38998	5645.775
1062.07627	5682.175
1065.76003	5717.575
1069.44126	5817.175
1073.11995	5923.875
1076.79611	6058.575
1080.46974	6229.975
1084.14085	6315.975
1087.80943	6413.175
1091.47549	6468.175
1095.13903	6438.275
1098.80005	6311.775
1102.45857	6181.775
1106.11456	6068.775
1109.76805	6020.975
1113.41903	6068.675
1117.06751	6203.075
1120.71348	6394.775
1124.35696	6691.075
1127.99793	6899.275
1131.63641	6744.775
1135.2724	6466.775
1138.90589	6235.975
1142.5369	6141.375
1146.16542	6096.775
1149.79145	6057.375
1153.415	5982.675
1157.03607	5904.475
1160.65467	5940.575
1164.27079	6072.375
1167.88443	6284.175
1171.49561	6628.175
1175.10432	7182.275
1178.71056	7942.075
1182.31434	8579.375
1185.91565	8761.675
1189.51451	8586.875
1193.11091	8320.275
1196.70485	8037.675
1200.29634	7838.675
1203.88538	7619.775
1207.47197	7296.875
1211.05612	7035.175
1214.63782	6817.875
1218.21708	6632.175
1221.79391	6475.375
1225.36829	6361.875
1228.94024	6322.075
1232.50976	6297.375
1236.07685	6306.775
1239.6415	6328.475
1243.20374	6360.875
1246.76355	6399.775
1250.32093	6501.075
1253.8759	6661.575
1257.42845	6891.575
1260.97859	7133.875
1264.52631	7339.175
1268.07163	7473.875
1271.61453	7520.575
1275.15503	7550.975
1278.69312	7550.575
1282.22882	7562.975
1285.76211	7711.275
1289.29301	7926.675
1292.82151	8087.075
1296.34761	8308.575
1299.87133	8653.875
1303.39266	9229.375
1306.9116	10111.475
1310.42815	10994.975
1313.94233	11303.175
1317.45412	10730.575
1320.96354	9889.675
1324.47058	9095.175
1327.97525	8447.375
1331.47754	8073.775
1334.97747	7996.775
1338.47502	8148.775
1341.97022	8489.675
1345.46305	9088.375
1348.95352	9893.375
1352.44163	10858.275
1355.92738	11938.675
1359.41078	13269.975
1362.89183	14380.375
1366.37053	13724.075
1369.84688	11454.575
1373.32088	9409.575
1376.79254	8244.375
1380.26186	7739.475
1383.72883	7429.075
1387.19347	7165.375
1390.65578	6906.975
1394.11575	6673.375
1397.57339	6530.175
1401.0287	6420.975
1404.48168	6354.375
1407.93234	6391.475
1411.38068	6463.875
1414.82669	6531.675
1418.27039	6582.575
1421.71177	6553.575
1425.15083	6475.675
1428.58758	6443.375
1432.02203	6491.675
1435.45416	6585.575
1438.88399	6600.375
1442.31151	6655.475
1445.73673	6705.275
1449.15965	6757.475
1452.58027	6717.175
1455.9986	6653.475
1459.41463	6614.375
1462.82837	6664.875
1466.23982	6829.675
1469.64898	6984.175
1473.05586	7093.175
1476.46045	7147.275
1479.86276	7188.775
1483.26279	7297.175
1486.66054	7468.775
1490.05602	7729.175
1493.44922	8161.775
1496.84016	8854.975
1500.22882	9917.975
1503.61521	11288.275
1506.99934	12705.675
1510.38121	13535.075
1513.76081	13375.975
1517.13816	12158.275
1520.51324	10538.775
1523.88607	9210.575
1527.25665	8447.575
1530.62498	8067.075
1533.99105	7850.075
1537.35488	7738.275
1540.71647	7655.975
1544.07581	7604.775
1547.4329	7528.475
1550.78776	7448.575
1554.14038	7366.275
1557.49077	7358.975
1560.83892	7431.375
1564.18484	7642.075
1567.52853	7943.675
1570.86999	8156.275
1574.20922	8261.275
1577.54624	8093.275
1580.88103	7638.875
1584.2136	7146.175
1587.54395	6841.175
1590.87208	6816.975
1594.19801	7056.675
1597.52172	7381.575
1600.84321	7527.175
1604.16251	7478.875
1607.47959	7335.575
1610.79447	7069.075
1614.10715	6688.875
1617.41763	6340.675
1620.7259	6071.275
1624.03199	5935.775
1627.33587	5887.475
1630.63757	5974.175
1633.93707	6201.975
1637.23439	6581.275
1640.52951	7204.175
1643.82246	8127.375
1647.11321	9149.975
1650.40179	9719.975
1653.68819	9323.975
1656.97241	8176.375
1660.25446	6993.675
1663.53433	6149.475
1666.81203	5653.875
1670.08756	5381.275
1673.36092	5212.075
1676.63211	5086.375
1679.90115	4994.275
1683.16801	4946.775
1686.43272	4905.175
1689.69527	4878.075
1692.95567	4845.475
1696.2139	4830.475
1699.46999	4801.875
1702.72392	4808.875
1705.97571	4815.175
1709.22535	4787.775
1712.47284	4794.875
1715.71819	4803.975
1718.96139	4778.275
1722.20246	4762.075
1725.44139	4755.975
1728.67818	4736.375
1731.91284	4698.475
1735.14537	4694.475
1738.37576	4642.075
1741.60403	4637.975
1744.83017	4612.575
1748.05418	4627.075
1751.27607	4596.175
1754.49584	4591.075
1757.71349	4574.875
1760.92903	4577.375
1764.14244	4569.575
1767.35375	4564.975
1770.56294	4545.975
1773.77002	4539.075
1776.97499	4526.575
1780.17785	4498.575
1783.37861	4493.475
1786.57727	4478.475
1789.77382	4470.775
1792.96828	4477.175
1796.16064	4451.875
1799.3509	4440.175
1802.53907	4432.775
1805.72514	4433.075
1808.90913	4408.075
1812.09102	4413.375
1815.27083	4403.475
1818.44856	4389.175
1821.6242	4371.875
1824.79776	4368.675
1827.96924	4337.475
1831.13864	4333.275
1834.30597	4335.675
1837.47122	4311.075
1840.6344	4319.275
1843.7955	4325.075
1846.95454	4318.275
1850.11151	4325.375
1853.26642	4319.875
1856.41926	4306.275
1859.57004	4317.075
1862.71876	4313.875
1865.86542	4297.275
1869.01003	4304.875
1872.15258	4295.675
1875.29308	4304.675
1878.43152	4272.775
1881.56792	4265.975
1884.70227	4261.775
1887.83457	4249.375
1890.96482	4264.775
1894.09304	4236.775
1897.21921	4251.775
1900.34335	4240.975
1903.46544	4232.075
1906.58551	4230.275
1909.70353	4200.975
1912.81953	4209.175
1915.93349	4212.275
1919.04543	4194.775
1922.15534	4189.875
1925.26322	4186.775
1928.36908	4181.175
1931.47292	4172.675
1934.57473	4163.875
1937.67453	4123.075
1940.77232	4127.275
1943.86808	4120.375
1946.96184	4104.775
1950.05358	4108.075
1953.14331	4083.375
1956.23103	4069.475
1959.31675	4056.775
1962.40046	4069.575
1965.48217	4045.275
1968.56188	4032.275
1971.63959	4024.175
1974.7153	4016.275
1977.78901	3984.175
1980.86073	3990.975
1983.93046	3976.175
1986.99819	3968.875
1990.06394	3949.175
1993.1277	3928.175
1996.18947	3925.475
1999.24925	3917.575
2002.30706	3894.775
2005.36288	3881.575
2008.41672	3869.075
2011.46859	3861.775
2014.51848	3852.375
2017.56639	3852.475
2020.61233	3827.475
2023.6563	3804.975
2026.6983	3794.075
2029.73833	3785.875
2032.7764	3759.975
2035.8125	3761.875
2038.84664	3756.075
2041.87881	3745.675
2044.90903	3742.375
2047.93729	3729.075
2050.96359	3723.975
2053.98794	3720.875
2057.01034	3722.375
2060.03078	3721.475
2063.04927	3721.075
2066.06582	3705.675
2069.08042	3707.175
2072.09307	3693.275
2075.10378	3686.975
2078.11255	3685.275
2081.11938	3688.675
2084.12426	3695.475
2087.12722	3702.175
2090.12824	3700.475
2093.12732	3696.575
2096.12447	3697.475
2099.11969	3698.475
2102.11299	3689.675
2105.10435	3700.675
2108.09379	3693.975
2111.08131	3692.975
2114.0669	3693.875
2117.05057	3706.775
2120.03233	3706.375
2123.01216	3716.175
2125.99008	3691.275
2128.96609	3709.375
2131.94018	3721.375
2134.91236	3717.875
2137.88263	3704.875
2140.851	3704.875
2143.81746	3707.875
2146.78201	3712.875
2149.74466	3707.675
2152.7054	3698.975
2155.66425	3712.975
2158.6212	3692.275
2161.57625	3697.775
2164.52941	3700.675
2167.48067	3693.675
2170.43004	3682.975
2173.37752	3688.675
2176.32311	3687.775
2179.26681	3693.175
2182.20863	3702.275
2185.14856	3680.275
2188.08661	3697.375
2191.02278	3679.175
2193.95707	3672.975
2196.88948	3675.175
2199.82001	3665.275
2202.74867	3670.875
2205.67545	3663.675
2208.60037	3658.675
2211.52341	3660.875
2214.44458	3646.275
2217.36388	3646.975
2220.28132	3626.575
2223.1969	3622.575
2226.11061	3605.975
2229.02246	3605.175
2231.93245	3617.575
2234.84058	3602.175
2237.74686	3591.475
2240.65128	3599.375
2243.55385	3578.575
2246.45456	3584.675
2249.35343	3590.575
2252.25044	3568.675
2255.14561	3554.775
2258.03893	3567.975
2260.93041	3557.475
2263.82004	3553.575
2266.70783	3547.975
2269.59378	3546.775
2272.4779	3543.875
2275.36017	3512.475
2278.24061	3504.175
2281.11922	3518.175
2283.996	3495.075
2286.87094	3490.875
2289.74405	3502.475
2292.61534	3496.375
2295.4848	3482.775
2298.35243	3489.475
2301.21824	3484.675
2304.08223	3479.575
2306.94439	3461.975
2309.80474	3472.075
2312.66327	3464.575
2315.51999	3460.775
2318.37489	3460.875
2321.22797	3455.275
2324.07925	3439.875
2326.92871	3425.075
2329.77637	3428.275
2332.62222	3422.975
2335.46626	3415.675
2338.3085	3408.975
2341.14893	3411.875
2343.98756	3421.475
2346.8244	3408.075
2349.65943	3412.075
2352.49267	3414.575
2355.32411	3411.175
2358.15376	3399.475
2360.98161	3429.975
2363.80768	3414.075
2366.63195	3416.775
2369.45444	3410.275
2372.27514	3410.875
2375.09405	3412.675
2377.91118	3399.475
2380.72652	3386.075
2383.54009	3381.375
2386.35187	3369.475
2389.16188	3369.175
2391.97011	3359.375
2394.77657	3351.575
2397.58125	3326.675
2400.38416	3321.775
2403.18529	3328.475
2405.98466	3325.575
2408.78226	3331.375
2411.57809	3311.575
2414.37216	3301.875
2417.16446	3295.975
2419.955	3294.875
2422.74378	3300.075
2425.5308	3301.875
2428.31606	3300.775
2431.09956	3297.375
2433.88131	3275.175
2436.6613	3283.875
2439.43954	3293.575
2442.21603	3289.675
2444.99077	3295.175
2447.76377	3280.275
2450.53501	3275.275
2453.30451	3287.175
2456.07226	3285.775
2458.83827	3272.975
2461.60254	3271.075
2464.36507	3263.575
2467.12586	3259.875
2469.88492	3265.275
2472.64224	3261.675
2475.39782	3255.775
2478.15167	3265.275
2480.90379	3260.375
2483.65417	3256.975
2486.40283	3258.375
2489.14976	3269.675
2491.89497	3268.075
2494.63845	3273.275
2497.3802	3272.275
2500.12024	3254.675
2502.85855	3235.375
2505.59514	3245.075
2508.33002	3251.075
2511.06318	3225.875
2513.79462	3225.675
2516.52435	3200.675
2519.25237	3207.275
2521.97867	3185.275
2524.70327	3187.275
2527.42616	3177.375
2530.14734	3184.075
2532.86681	3193.375
2535.58458	3185.075
2538.30065	3200.975
2541.01501	3173.175
2543.72768	3185.975
2546.43864	3185.875
2549.14791	3170.875
2551.85548	3174.275
2554.56136	3168.075
2557.26554	3174.475
2559.96803	3158.375
2562.66883	3152.375
2565.36794	3152.575
2568.06536	3144.575
2570.7611	3119.675
2573.45514	3120.875
2576.14751	3114.175
2578.83819	3093.975
2581.52719	3101.775
2584.21451	3090.175
2586.90015	3081.275
2589.58411	3074.975
2592.2664	3088.575
2594.94701	3085.375
2597.62594	3073.175
2600.30321	3076.275
2602.9788	3070.975
2605.65273	3067.475
2608.32498	3066.175
2610.99557	3060.575
2613.66449	3060.675
2616.33175	3062.675
2618.99734	3056.775
2621.66128	3042.475
2624.32355	3048.675
2626.98416	3038.175
2629.64311	3015.275
2632.30041	3024.975
2634.95605	3011.875
2637.61004	3007.075
2640.26238	2987.275
2642.91306	2995.475
2645.56209	3004.775
2648.20948	3002.075
2650.85521	2996.475
2653.4993	2987.775
2656.14175	2985.375
2658.78255	2989.875
2661.42171	2996.275
2664.05923	2988.975
2666.6951	2992.575
2669.32934	2998.275
2671.96194	2999.875
2674.59291	2983.775
2677.22224	2990.875
2679.84993	3001.375
2682.476	2978.275
2685.10043	2982.175
2687.72324	2993.975
2690.34441	2992.375
2692.96396	2982.375
2695.58188	2986.675
2698.19818	2985.375
2700.81285	2976.975
2703.4259	2973.075
2706.03733	2996.475
2708.64714	2997.975
2711.25533	2981.275
2713.86191	2973.275
2716.46687	2977.275
2719.07021	2978.975
2721.67194	2976.075
2724.27206	2977.775
2726.87057	2982.675
2729.46747	2974.375
2732.06276	2973.575
2734.65644	2985.275
2737.24852	2970.375
2739.83899	2971.475
2742.42786	2978.875
2745.01513	2945.575
2747.60079	2960.875
2750.18486	2950.675
2752.76733	2948.875
2755.3482	2943.375
2757.92747	2921.575
2760.50515	2928.475
2763.08123	2921.575
2765.65573	2918.875
2768.22863	2894.675
2770.79994	2895.775
2773.36967	2903.475
2775.9378	2909.175
2778.50435	2898.575
2781.06932	2891.775
2783.6327	2878.875
2786.1945	2883.075
2788.75471	2882.375
2791.31335	2884.175
2793.87041	2879.375
2796.42589	2874.475
2798.97979	2871.975
2801.53212	2856.475
2804.08288	2867.675
2806.63206	2862.475
2809.17967	2860.375
2811.72571	2847.175
2814.27018	2848.375
2816.81308	2850.575
2819.35442	2832.575
2821.89419	2827.175
2824.43239	2820.075
2826.96904	2826.075
2829.50412	2803.975
2832.03763	2806.175
2834.56959	2813.775
2837.1	2785.475
2839.62884	2794.375
2842.15613	2781.975
2844.68186	2777.475
2847.20604	2779.275
2849.72867	2777.575
2852.24974	2769.975
2854.76927	2781.675
2857.28724	2763.375
2859.80367	2765.275
2862.31855	2762.575
2864.83189	2772.575
2867.34368	2767.275
2869.85393	2755.175
2872.36264	2756.075
2874.8698	2761.975
2877.37543	2756.675
2879.87952	2745.375
2882.38207	2756.175
2884.88308	2738.275
2887.38256	2737.575
2889.88051	2726.875
2892.37692	2735.775
2894.8718	2728.175
2897.36515	2726.375
2899.85698	2720.575
2902.34727	2726.775
2904.83604	2736.075
2907.32328	2736.175
2909.809	2725.475
2912.29319	2736.975
2914.77587	2739.275
2917.25702	2742.475
2919.73665	2744.375
2922.21476	2756.575
2924.69136	2737.875
2927.16644	2746.675
2929.64	2723.975
2932.11205	2715.775
2934.58258	2697.775
2937.05161	2721.375
2939.51912	2718.275
2941.98513	2700.375
2944.44962	2700.575
2946.91261	2679.875
2949.37409	2698.175
2951.83407	2696.275
2954.29254	2698.375
2956.74951	2686.375
2959.20498	2681.475
2961.65895	2678.975
2964.11142	2673.975
2966.56239	2669.375
2969.01186	2668.675
2971.45984	2671.275
2973.90632	2664.575
2976.35131	2666.275
2978.7948	2659.775
2981.23681	2663.875
2983.67732	2642.075
2986.11635	2651.275
2988.55388	2636.975
2990.98993	2634.375
2993.4245	2637.875
2995.85758	2617.575
2998.28917	2621.475
3000.71928	2620.975
3003.14791	2615.975
3005.57506	2604.775
3008.00073	2586.575
3010.42493	2595.975
3012.84764	2587.075
3015.26888	2586.575
3017.68865	2567.075
3020.10694	2571.575
3022.52376	2560.875
3024.9391	2551.875
3027.35298	2541.775
3029.76539	2546.375
3032.17632	2544.475
3034.5858	2540.475
3036.9938	2521.175
3039.40034	2518.875
3041.80542	2515.575
3044.20903	2531.575
3046.61118	2507.675
3049.01187	2508.375
3051.4111	2509.275
3053.80888	2489.375
3056.20519	2497.175
3058.60005	2485.075
3060.99345	2494.475
3063.3854	2477.175
3065.7759	2475.975
3068.16494	2457.575
3070.55254	2444.975
3072.93868	2439.375
3075.32338	2451.975
3077.70662	2428.575
3080.08842	2433.375
3082.46878	2424.475
3084.84769	2414.475
3087.22515	2422.475
3089.60118	2410.175
3091.97576	2416.375
3094.3489	2409.375
3096.72061	2413.075
3099.09087	2415.075
3101.4597	2413.475
3103.82709	2404.575
3106.19305	2389.575
3108.55757	2398.575
3110.92066	2384.075
3113.28232	2381.475
3115.64255	2383.275
3118.00134	2380.975
3120.35871	2371.875
3122.71466	2369.075
3125.06917	2358.675
3127.42226	2351.475
3129.77393	2356.075
3132.12417	2352.275
3134.47299	2357.875
3136.82039	2343.875
3139.16636	2352.375
3141.51092	2346.775
3143.85406	2334.075
3146.19579	2334.875
3148.53609	2345.275
3150.87499	2336.275
3153.21246	2343.475
3155.54853	2349.075
3157.88318	2340.875
3160.21642	2338.575
3162.54826	2332.575
3164.87868	2346.475
3167.2077	2337.375
3169.5353	2323.775
3171.86151	2325.775
3174.18631	2314.575
3176.5097	2310.875
3178.83169	2320.975
3181.15228	2312.175
3183.47147	2299.675
3185.78926	2311.075
3188.10565	2286.075
3190.42065	2286.475
3192.73424	2291.275
3195.04645	2276.075
3197.35725	2284.775
3199.66667	2281.575
3201.97469	2287.975
3204.28132	2281.575
3206.58656	2276.375
3208.8904	2275.375
3211.19287	2266.275
3213.49394	2271.775
3215.79363	2283.375
3218.09193	2277.175
3220.38884	2274.275
3222.68438	2284.475
3224.97853	2275.875
3227.2713	2266.975
3229.56269	2262.175
3231.8527	2251.975
3234.14133	2254.675
3236.42858	2244.475
3238.71446	2248.875
