Data from AgNPs_UA_5uM_CRN_500uM_SU_RamanShift__135__11-51-53-166.txt Node

Date: Thu Aug 04 11:51:53 BST 2022
User: TCL
Spectrometer: QEP01345
Trigger mode: 4
Integration Time (sec): 1.000000E0
Scans to average: 10
Electric dark correction enabled: true
Nonlinearity correction enabled: false
Boxcar width: 0
XAxis mode: Raman Shifts
Number of Pixels in Spectrum: 1044
>>>>>Begin Spectral Data<<<<<
46.04893	0.275
50.45542	0.575
54.85868	-0.225
59.25871	-0.625
63.6555	-56.525
68.04907	-39.125
72.43941	-71.425
76.82654	-57.525
81.21044	-57.225
85.59113	-49.125
89.96862	-75.625
94.34289	-54.525
98.71396	-77.425
103.08183	-57.525
107.4465	-49.525
111.80798	-56.325
116.16626	-43.425
120.52136	-74.025
124.87327	-49.225
129.222	-62.425
133.56755	-49.025
137.90993	-63.625
142.24913	-50.925
146.58517	-43.925
150.91804	-38.625
155.24774	-29.225
159.57429	-11.325
163.89768	-6.625
168.21792	41.075
172.53501	60.275
176.84895	140.575
181.15975	271.775
185.46741	420.475
189.77193	606.075
194.07331	895.975
198.37157	1184.375
202.6667	1457.575
206.9587	1790.875
211.24758	2104.875
215.53334	2418.175
219.81599	2770.075
224.09553	3185.975
228.37195	3631.675
232.64527	4082.475
236.91549	4555.675
241.18261	4935.375
245.44663	5220.675
249.70755	5439.675
253.96539	5589.775
258.22014	5670.075
262.4718	5763.975
266.72039	5776.275
270.96589	5727.675
275.20832	5640.175
279.44768	5526.275
283.68397	5403.575
287.91719	5332.275
292.14735	5344.575
296.37445	5484.675
300.59849	5730.175
304.81948	6035.475
309.03742	6333.675
313.25231	6547.675
317.46415	6502.475
321.67296	6156.375
325.87872	5793.375
330.08145	5638.875
334.28114	5605.275
338.47781	5682.775
342.67145	5805.675
346.86207	6036.675
351.04966	6377.575
355.23424	6721.975
359.4158	6973.875
363.59435	7031.675
367.76989	6968.575
371.94243	6853.175
376.11196	6760.275
380.27849	6715.075
384.44203	6661.775
388.60257	6610.675
392.76012	6630.075
396.91468	6734.975
401.06626	6900.075
405.21485	6935.075
409.36047	6784.875
413.50311	6515.075
417.64277	6276.575
421.77947	6079.575
425.9132	6029.775
430.04396	6017.975
434.17176	6074.175
438.2966	6175.075
442.41849	6266.775
446.53742	6388.375
450.6534	6466.675
454.76644	6553.975
458.87653	6568.175
462.98368	6542.475
467.08789	6507.575
471.18916	6444.075
475.2875	6339.175
479.38291	6235.575
483.4754	6145.775
487.56496	6094.175
491.6516	6061.475
495.73531	6057.775
499.81612	6099.675
503.89401	6156.975
507.96899	6199.075
512.04106	6308.675
516.11023	6392.975
520.1765	6462.775
524.23987	6477.475
528.30034	6493.075
532.35792	6421.275
536.41261	6396.775
540.46441	6319.275
544.51333	6272.075
548.55936	6307.975
552.60252	6444.475
556.64279	6512.375
560.6802	6640.675
564.71473	6769.075
568.7464	6929.175
572.7752	6888.075
576.80114	6595.675
580.82422	6399.875
584.84444	6306.375
588.86181	6292.675
592.87633	6311.175
596.888	6432.775
600.89682	6765.075
604.9028	7637.175
608.90594	9480.975
612.90624	11568.575
616.90371	10801.875
620.89834	8087.475
624.89015	6931.875
628.87913	6768.975
632.86528	6904.075
636.84862	7050.175
640.82913	6910.775
644.80683	6618.075
648.78172	6476.075
652.75379	6499.775
656.72306	6710.475
660.68952	6911.675
664.65319	6836.675
668.61405	6656.275
672.57211	6594.975
676.52738	6609.175
680.47986	6524.075
684.42955	6453.875
688.37646	6405.375
692.32058	6405.975
696.26192	6469.675
700.20048	6554.275
704.13626	6600.475
708.06928	6547.275
711.99952	6520.375
715.927	6485.775
719.85171	6531.875
723.77365	6599.875
727.69284	6562.675
731.60928	6560.175
735.52295	6518.875
739.43388	6587.875
743.34206	6590.875
747.24749	6582.875
751.15017	6607.475
755.05012	6672.175
758.94733	6994.775
762.8418	7719.075
766.73354	8859.675
770.62254	9729.675
774.50882	9796.075
778.39237	9369.575
782.27321	8593.275
786.15132	7686.075
790.02671	7078.675
793.89938	6762.175
797.76935	6653.375
801.6366	6579.075
805.50115	6549.875
809.36299	6527.775
813.22213	6550.375
817.07857	6543.475
820.93231	6523.275
824.78336	6572.075
828.63172	6565.575
832.47738	6567.675
836.32036	6586.275
840.16066	6575.775
843.99827	6572.375
847.8332	6552.275
851.66546	6578.275
855.49504	6579.575
859.32195	6608.575
863.1462	6586.875
866.96777	6599.175
870.78668	6587.775
874.60293	6618.675
878.41652	6647.675
882.22745	6723.075
886.03573	6728.675
889.84136	6724.975
893.64433	6739.175
897.44466	6710.975
901.24235	6710.575
905.0374	6718.175
908.8298	6649.275
912.61957	6628.575
916.40671	6595.875
920.19121	6646.975
923.97308	6723.175
927.75233	6772.975
931.52895	6824.875
935.30295	6826.075
939.07433	6689.375
942.84309	6588.575
946.60924	6540.375
950.37278	6528.675
954.13371	6533.675
957.89203	6499.575
961.64774	6547.575
965.40086	6530.975
969.15137	6480.575
972.89929	6519.775
976.64461	6507.775
980.38733	6515.075
984.12747	6539.075
987.86502	6565.575
991.59999	6582.675
995.33237	6665.375
999.06217	6741.875
1002.78939	6828.675
1006.51404	6960.375
1010.23611	7090.075
1013.95561	7127.875
1017.67255	7139.675
1021.38692	7132.375
1025.09872	7066.575
1028.80796	6954.175
1032.51465	6950.275
1036.21877	6944.875
1039.92035	6984.075
1043.61937	7034.575
1047.31584	7063.375
1051.00976	7100.175
1054.70114	7098.675
1058.38998	7109.675
1062.07627	7095.375
1065.76003	7123.375
1069.44126	7212.475
1073.11995	7305.275
1076.79611	7439.775
1080.46974	7579.175
1084.14085	7701.875
1087.80943	7809.775
1091.47549	7855.575
1095.13903	7789.775
1098.80005	7728.075
1102.45857	7628.675
1106.11456	7569.175
1109.76805	7496.475
1113.41903	7591.275
1117.06751	7712.575
1120.71348	7933.675
1124.35696	8244.375
1127.99793	8503.675
1131.63641	8386.775
1135.2724	8029.175
1138.90589	7780.075
1142.5369	7630.475
1146.16542	7567.375
1149.79145	7459.675
1153.415	7403.675
1157.03607	7362.475
1160.65467	7426.375
1164.27079	7619.175
1167.88443	7808.275
1171.49561	8166.975
1175.10432	8681.875
1178.71056	9446.875
1182.31434	10109.975
1185.91565	10336.075
1189.51451	10274.875
1193.11091	10045.875
1196.70485	9892.575
1200.29634	9719.875
1203.88538	9500.275
1207.47197	9141.675
1211.05612	8757.875
1214.63782	8438.575
1218.21708	8209.875
1221.79391	8065.975
1225.36829	7969.475
1228.94024	7937.475
1232.50976	7944.675
1236.07685	7981.375
1239.6415	8007.775
1243.20374	8029.475
1246.76355	8076.875
1250.32093	8139.775
1253.8759	8230.675
1257.42845	8416.775
1260.97859	8621.075
1264.52631	8812.975
1268.07163	8937.075
1271.61453	9054.375
1275.15503	9073.775
1278.69312	9067.375
1282.22882	9129.275
1285.76211	9292.575
1289.29301	9543.075
1292.82151	9749.175
1296.34761	9957.075
1299.87133	10301.375
1303.39266	10899.675
1306.9116	11885.075
1310.42815	12934.775
1313.94233	13305.475
1317.45412	12631.975
1320.96354	11658.375
1324.47058	10808.175
1327.97525	10183.075
1331.47754	9837.075
1334.97747	9790.475
1338.47502	9891.675
1341.97022	10235.175
1345.46305	10871.075
1348.95352	11807.575
1352.44163	12892.775
1355.92738	13951.575
1359.41078	15301.875
1362.89183	16487.375
1366.37053	15871.675
1369.84688	13432.075
1373.32088	11227.275
1376.79254	10052.175
1380.26186	9485.875
1383.72883	9154.775
1387.19347	8800.375
1390.65578	8520.675
1394.11575	8302.675
1397.57339	8181.175
1401.0287	8086.975
1404.48168	8065.175
1407.93234	8070.775
1411.38068	8096.575
1414.82669	8174.875
1418.27039	8225.175
1421.71177	8232.875
1425.15083	8145.575
1428.58758	8077.075
1432.02203	8100.475
1435.45416	8176.875
1438.88399	8193.375
1442.31151	8175.175
1445.73673	8256.075
1449.15965	8310.775
1452.58027	8327.675
1455.9986	8332.675
1459.41463	8346.275
1462.82837	8420.875
1466.23982	8600.775
1469.64898	8784.175
1473.05586	8922.175
1476.46045	8982.975
1479.86276	9034.575
1483.26279	9099.475
1486.66054	9279.875
1490.05602	9459.475
1493.44922	9935.675
1496.84016	10656.475
1500.22882	11832.875
1503.61521	13256.975
1506.99934	14731.975
1510.38121	15699.875
1513.76081	15608.075
1517.13816	14304.475
1520.51324	12537.275
1523.88607	11071.775
1527.25665	10240.975
1530.62498	9832.675
1533.99105	9616.775
1537.35488	9557.375
1540.71647	9490.575
1544.07581	9407.475
1547.4329	9325.375
1550.78776	9211.775
1554.14038	9102.775
1557.49077	9055.675
1560.83892	9120.075
1564.18484	9276.275
1567.52853	9559.775
1570.86999	9805.375
1574.20922	9936.475
1577.54624	9819.475
1580.88103	9401.175
1584.2136	8837.475
1587.54395	8567.275
1590.87208	8540.575
1594.19801	8699.575
1597.52172	9018.375
1600.84321	9200.575
1604.16251	9085.175
1607.47959	8940.075
1610.79447	8749.375
1614.10715	8462.275
1617.41763	8170.875
1620.7259	7906.375
1624.03199	7750.575
1627.33587	7688.375
1630.63757	7711.975
1633.93707	7946.475
1637.23439	8316.475
1640.52951	8937.075
1643.82246	9793.975
1647.11321	10796.575
1650.40179	11330.175
1653.68819	10997.975
1656.97241	9936.175
1660.25446	8719.075
1663.53433	7844.575
1666.81203	7320.775
1670.08756	7030.875
1673.36092	6870.475
1676.63211	6742.075
1679.90115	6668.675
1683.16801	6562.175
1686.43272	6491.475
1689.69527	6441.775
1692.95567	6371.575
1696.2139	6361.275
1699.46999	6287.375
1702.72392	6292.575
1705.97571	6309.575
1709.22535	6290.975
1712.47284	6330.675
1715.71819	6359.875
1718.96139	6334.575
1722.20246	6328.075
1725.44139	6286.975
1728.67818	6264.175
1731.91284	6221.275
1735.14537	6194.275
1738.37576	6169.675
1741.60403	6156.275
1744.83017	6124.975
1748.05418	6152.375
1751.27607	6128.875
1754.49584	6092.775
1757.71349	6084.175
1760.92903	6079.575
1764.14244	6037.375
1767.35375	6038.375
1770.56294	6011.575
1773.77002	6006.975
1776.97499	6016.575
1780.17785	5993.675
1783.37861	5990.575
1786.57727	5985.375
1789.77382	5922.975
1792.96828	5967.975
1796.16064	5960.675
1799.3509	5940.975
1802.53907	5948.275
1805.72514	5913.475
1808.90913	5877.075
1812.09102	5890.875
1815.27083	5882.975
1818.44856	5865.075
1821.6242	5865.975
1824.79776	5853.475
1827.96924	5835.375
1831.13864	5795.375
1834.30597	5821.875
1837.47122	5801.175
1840.6344	5789.775
1843.7955	5761.975
1846.95454	5763.175
1850.11151	5786.575
1853.26642	5745.875
1856.41926	5762.075
1859.57004	5746.975
1862.71876	5738.675
1865.86542	5748.175
1869.01003	5743.375
1872.15258	5719.575
1875.29308	5730.375
1878.43152	5700.375
1881.56792	5687.975
1884.70227	5679.875
1887.83457	5681.275
1890.96482	5669.075
1894.09304	5681.775
1897.21921	5679.775
1900.34335	5653.775
1903.46544	5647.875
1906.58551	5654.775
1909.70353	5645.475
1912.81953	5653.575
1915.93349	5625.075
1919.04543	5637.375
1922.15534	5594.075
1925.26322	5594.975
1928.36908	5578.975
1931.47292	5571.475
1934.57473	5584.775
1937.67453	5556.375
1940.77232	5534.175
1943.86808	5510.275
1946.96184	5512.475
1950.05358	5489.475
1953.14331	5460.975
1956.23103	5469.275
1959.31675	5427.475
1962.40046	5378.175
1965.48217	5404.675
1968.56188	5380.775
1971.63959	5372.975
1974.7153	5371.275
1977.78901	5350.775
1980.86073	5339.775
1983.93046	5303.475
1986.99819	5216.175
1990.06394	5236.975
1993.1277	5255.675
1996.18947	5228.375
1999.24925	5206.275
2002.30706	5192.475
2005.36288	5181.475
2008.41672	5169.375
2011.46859	5133.775
2014.51848	5130.475
2017.56639	5125.375
2020.61233	5094.375
2023.6563	5080.375
2026.6983	5047.075
2029.73833	5044.575
2032.7764	5049.675
2035.8125	5017.975
2038.84664	5017.475
2041.87881	5017.675
2044.90903	5009.475
2047.93729	4985.175
2050.96359	4969.375
2053.98794	4975.675
2057.01034	4973.975
2060.03078	4969.875
2063.04927	4944.475
2066.06582	4944.575
2069.08042	4936.075
2072.09307	4934.275
2075.10378	4930.175
2078.11255	4933.475
2081.11938	4916.975
2084.12426	4921.275
2087.12722	4898.675
2090.12824	4913.475
2093.12732	4917.175
2096.12447	4914.275
2099.11969	4912.675
2102.11299	4907.675
2105.10435	4942.475
2108.09379	4909.075
2111.08131	4908.675
2114.0669	4909.875
2117.05057	4893.275
2120.03233	4900.575
2123.01216	4917.175
2125.99008	4914.675
2128.96609	4921.775
2131.94018	4935.575
2134.91236	4929.675
2137.88263	4921.975
2140.851	4928.775
2143.81746	4953.975
2146.78201	4935.675
2149.74466	4920.475
2152.7054	4923.375
2155.66425	4913.275
2158.6212	4904.475
2161.57625	4887.875
2164.52941	4868.875
2167.48067	4900.575
2170.43004	4894.575
2173.37752	4896.675
2176.32311	4881.675
2179.26681	4894.275
2182.20863	4893.775
2185.14856	4882.975
2188.08661	4882.375
2191.02278	4907.775
2193.95707	4869.075
2196.88948	4862.575
2199.82001	4868.575
2202.74867	4869.375
2205.67545	4851.175
2208.60037	4857.175
2211.52341	4845.875
2214.44458	4828.075
2217.36388	4814.875
2220.28132	4798.575
2223.1969	4778.775
2226.11061	4785.675
2229.02246	4776.375
2231.93245	4765.275
2234.84058	4760.475
2237.74686	4733.075
2240.65128	4740.575
2243.55385	4724.775
2246.45456	4707.075
2249.35343	4735.975
2252.25044	4708.875
2255.14561	4701.075
2258.03893	4710.975
2260.93041	4686.475
2263.82004	4672.775
2266.70783	4671.075
2269.59378	4669.175
2272.4779	4642.275
2275.36017	4636.675
2278.24061	4605.475
2281.11922	4577.275
2283.996	4594.475
2286.87094	4579.275
2289.74405	4584.075
2292.61534	4566.175
2295.4848	4578.975
2298.35243	4550.175
2301.21824	4554.375
2304.08223	4559.175
2306.94439	4575.675
2309.80474	4558.175
2312.66327	4541.375
2315.51999	4519.175
2318.37489	4513.775
2321.22797	4500.575
2324.07925	4499.575
2326.92871	4503.875
2329.77637	4481.975
2332.62222	4465.875
2335.46626	4446.075
2338.3085	4441.475
2341.14893	4452.475
2343.98756	4466.875
2346.8244	4447.675
2349.65943	4414.875
2352.49267	4417.375
2355.32411	4427.475
2358.15376	4427.375
2360.98161	4439.175
2363.80768	4401.375
2366.63195	4430.075
2369.45444	4436.175
2372.27514	4420.775
2375.09405	4418.275
2377.91118	4388.775
2380.72652	4390.775
2383.54009	4383.475
2386.35187	4380.275
2389.16188	4351.375
2391.97011	4352.575
2394.77657	4345.075
2397.58125	4354.075
2400.38416	4321.275
2403.18529	4310.375
2405.98466	4291.975
2408.78226	4310.675
2411.57809	4285.575
2414.37216	4270.775
2417.16446	4273.875
2419.955	4248.475
2422.74378	4277.375
2425.5308	4240.475
2428.31606	4230.075
2431.09956	4254.375
2433.88131	4223.275
2436.6613	4238.175
2439.43954	4226.875
2442.21603	4224.075
2444.99077	4204.375
2447.76377	4231.175
2450.53501	4209.375
2453.30451	4185.475
2456.07226	4205.775
2458.83827	4199.375
2461.60254	4143.975
2464.36507	4177.675
2467.12586	4160.775
2469.88492	4181.475
2472.64224	4160.775
2475.39782	4137.175
2478.15167	4165.475
2480.90379	4158.475
2483.65417	4168.975
2486.40283	4157.475
2489.14976	4185.775
2491.89497	4151.575
2494.63845	4155.975
2497.3802	4131.275
2500.12024	4155.775
2502.85855	4119.075
2505.59514	4132.075
2508.33002	4123.975
2511.06318	4092.075
2513.79462	4090.175
2516.52435	4062.375
2519.25237	4038.275
2521.97867	4052.375
2524.70327	4041.775
2527.42616	4049.275
2530.14734	4072.375
2532.86681	4017.175
2535.58458	4046.275
2538.30065	4037.075
2541.01501	4034.075
2543.72768	4019.675
2546.43864	4017.675
2549.14791	4013.075
2551.85548	3995.175
2554.56136	3971.175
2557.26554	3989.975
2559.96803	3984.575
2562.66883	3978.075
2565.36794	3958.875
2568.06536	3926.475
2570.7611	3944.075
2573.45514	3921.675
2576.14751	3921.675
2578.83819	3893.875
2581.52719	3906.275
2584.21451	3888.875
2586.90015	3886.975
2589.58411	3864.375
2592.2664	3859.075
2594.94701	3862.475
2597.62594	3869.675
2600.30321	3793.775
2602.9788	3813.775
2605.65273	3811.975
2608.32498	3812.575
2610.99557	3820.775
2613.66449	3797.375
2616.33175	3817.875
2618.99734	3807.475
2621.66128	3804.175
2624.32355	3793.775
2626.98416	3771.475
2629.64311	3771.275
2632.30041	3750.775
2634.95605	3739.775
2637.61004	3735.475
2640.26238	3707.675
2642.91306	3714.375
2645.56209	3735.475
2648.20948	3736.575
2650.85521	3711.475
2653.4993	3731.375
2656.14175	3727.175
2658.78255	3693.575
2661.42171	3682.775
2664.05923	3708.875
2666.6951	3717.175
2669.32934	3714.875
2671.96194	3731.375
2674.59291	3720.475
2677.22224	3737.475
2679.84993	3726.675
2682.476	3711.175
2685.10043	3697.075
2687.72324	3691.075
2690.34441	3689.675
2692.96396	3673.875
2695.58188	3704.975
2698.19818	3693.975
2700.81285	3677.075
2703.4259	3667.275
2706.03733	3638.275
2708.64714	3649.575
2711.25533	3683.475
2713.86191	3673.675
2716.46687	3671.975
2719.07021	3671.675
2721.67194	3678.575
2724.27206	3683.075
2726.87057	3652.475
2729.46747	3663.475
2732.06276	3657.975
2734.65644	3633.475
2737.24852	3641.375
2739.83899	3635.775
2742.42786	3629.375
2745.01513	3637.175
2747.60079	3634.475
2750.18486	3612.175
2752.76733	3617.075
2755.3482	3603.675
2757.92747	3604.075
2760.50515	3583.775
2763.08123	3568.675
2765.65573	3573.775
2768.22863	3570.775
2770.79994	3560.875
2773.36967	3554.575
2775.9378	3541.275
2778.50435	3543.575
2781.06932	3540.575
2783.6327	3515.475
2786.1945	3532.675
2788.75471	3520.175
2791.31335	3508.475
2793.87041	3500.975
2796.42589	3483.775
2798.97979	3474.075
2801.53212	3483.975
2804.08288	3483.575
2806.63206	3474.175
2809.17967	3451.975
2811.72571	3463.175
2814.27018	3448.575
2816.81308	3446.275
2819.35442	3400.575
2821.89419	3414.975
2824.43239	3395.175
2826.96904	3427.475
2829.50412	3401.275
2832.03763	3408.075
2834.56959	3395.275
2837.1	3385.175
2839.62884	3396.075
2842.15613	3392.475
2844.68186	3392.875
2847.20604	3365.975
2849.72867	3355.175
2852.24974	3366.275
2854.76927	3327.975
2857.28724	3285.275
2859.80367	3348.675
2862.31855	3360.275
2864.83189	3328.675
2867.34368	3333.475
2869.85393	3331.275
2872.36264	3312.875
2874.8698	3320.275
2877.37543	3322.675
2879.87952	3315.475
2882.38207	3286.375
2884.88308	3288.075
2887.38256	3299.875
2889.88051	3301.575
2892.37692	3296.975
2894.8718	3270.875
2897.36515	3300.875
2899.85698	3283.175
2902.34727	3277.775
2904.83604	3293.575
2907.32328	3287.275
2909.809	3313.675
2912.29319	3282.075
2914.77587	3307.475
2917.25702	3308.275
2919.73665	3303.975
2922.21476	3308.675
2924.69136	3309.975
2927.16644	3287.475
2929.64	3300.575
2932.11205	3272.675
2934.58258	3270.875
2937.05161	3252.075
2939.51912	3282.775
2941.98513	3274.875
2944.44962	3262.775
2946.91261	3218.875
2949.37409	3237.375
2951.83407	3230.875
2954.29254	3241.275
2956.74951	3237.975
2959.20498	3224.175
2961.65895	3211.275
2964.11142	3186.675
2966.56239	3205.775
2969.01186	3212.975
2971.45984	3208.075
2973.90632	3184.575
2976.35131	3196.675
2978.7948	3183.675
2981.23681	3178.375
2983.67732	3181.575
2986.11635	3170.575
2988.55388	3136.075
2990.98993	3142.075
2993.4245	3137.475
2995.85758	3124.175
2998.28917	3119.975
3000.71928	3107.575
3003.14791	3098.575
3005.57506	3097.775
3008.00073	3081.575
3010.42493	3019.275
3012.84764	3065.175
3015.26888	3066.975
3017.68865	3053.175
3020.10694	3005.575
3022.52376	3028.775
3024.9391	3022.475
3027.35298	3016.075
3029.76539	2991.275
3032.17632	3000.175
3034.5858	2983.575
3036.9938	2986.275
3039.40034	2978.875
3041.80542	2973.475
3044.20903	2952.075
3046.61118	2956.575
3049.01187	2957.575
3051.4111	2953.275
3053.80888	2937.175
3056.20519	2923.375
3058.60005	2918.275
3060.99345	2937.475
3063.3854	2893.475
3065.7759	2882.075
3068.16494	2877.275
3070.55254	2875.175
3072.93868	2889.275
3075.32338	2877.775
3077.70662	2854.675
3080.08842	2867.075
3082.46878	2827.175
3084.84769	2845.875
3087.22515	2838.475
3089.60118	2845.975
3091.97576	2830.075
3094.3489	2839.275
3096.72061	2828.275
3099.09087	2817.575
3101.4597	2836.375
3103.82709	2806.275
3106.19305	2800.875
3108.55757	2804.075
3110.92066	2792.875
3113.28232	2800.275
3115.64255	2797.675
3118.00134	2784.275
3120.35871	2766.075
3122.71466	2752.375
3125.06917	2751.475
3127.42226	2727.775
3129.77393	2735.275
3132.12417	2734.475
3134.47299	2753.375
3136.82039	2716.675
3139.16636	2698.475
3141.51092	2725.275
3143.85406	2722.975
3146.19579	2713.475
3148.53609	2704.975
3150.87499	2706.175
3153.21246	2693.075
3155.54853	2710.275
3157.88318	2707.075
3160.21642	2715.375
3162.54826	2701.375
3164.87868	2694.175
3167.2077	2659.975
3169.5353	2687.075
3171.86151	2698.175
3174.18631	2675.475
3176.5097	2680.375
3178.83169	2677.075
3181.15228	2670.375
3183.47147	2652.775
3185.78926	2619.075
3188.10565	2636.975
3190.42065	2635.775
3192.73424	2634.875
3195.04645	2615.875
3197.35725	2608.975
3199.66667	2617.975
3201.97469	2606.575
3204.28132	2597.275
3206.58656	2625.075
3208.8904	2622.875
3211.19287	2598.675
3213.49394	2593.575
3215.79363	2587.975
3218.09193	2609.275
3220.38884	2605.375
3222.68438	2586.375
3224.97853	2572.575
3227.2713	2588.675
3229.56269	2578.075
3231.8527	2573.175
3234.14133	2551.175
