Data from AgNPs_UA_20uM_CRN_500uM_SU_RamanShift__56__13-45-50-302.txt Node

Date: Thu Aug 04 13:45:50 BST 2022
User: TCL
Spectrometer: QEP01345
Trigger mode: 4
Integration Time (sec): 1.000000E0
Scans to average: 10
Electric dark correction enabled: true
Nonlinearity correction enabled: false
Boxcar width: 0
XAxis mode: Raman Shifts
Number of Pixels in Spectrum: 1044
>>>>>Begin Spectral Data<<<<<
46.04893	-1.5875
50.45542	0.3125
54.85868	0.9125
59.25871	0.5125
63.6555	16.9125
68.04907	16.2125
72.43941	18.8125
76.82654	17.6125
81.21044	15.9125
85.59113	19.0125
89.96862	18.2125
94.34289	20.2125
98.71396	20.1125
103.08183	21.9125
107.4465	21.1125
111.80798	23.6125
116.16626	24.5125
120.52136	25.2125
124.87327	24.8125
129.222	29.4125
133.56755	29.2125
137.90993	30.5125
142.24913	34.7125
146.58517	39.8125
150.91804	45.5125
155.24774	55.5125
159.57429	70.6125
163.89768	91.3125
168.21792	119.6125
172.53501	165.1125
176.84895	231.1125
181.15975	326.8125
185.46741	453.4125
189.77193	634.4125
194.07331	857.2125
198.37157	1101.5125
202.6667	1359.3125
206.9587	1620.0125
211.24758	1870.9125
215.53334	2141.5125
219.81599	2409.3125
224.09553	2711.7125
228.37195	3050.2125
232.64527	3410.0125
236.91549	3784.2125
241.18261	4124.7125
245.44663	4418.1125
249.70755	4680.1125
253.96539	4896.3125
258.22014	5104.8125
262.4718	5249.0125
266.72039	5377.4125
270.96589	5433.5125
275.20832	5421.0125
279.44768	5362.5125
283.68397	5245.9125
287.91719	5194.8125
292.14735	5182.9125
296.37445	5237.8125
300.59849	5352.3125
304.81948	5499.3125
309.03742	5605.9125
313.25231	5667.9125
317.46415	5603.1125
321.67296	5434.4125
325.87872	5281.1125
330.08145	5204.5125
334.28114	5244.4125
338.47781	5284.2125
342.67145	5423.3125
346.86207	5547.8125
351.04966	5721.4125
355.23424	5902.5125
359.4158	6052.3125
363.59435	6188.6125
367.76989	6241.4125
371.94243	6287.9125
376.11196	6298.4125
380.27849	6342.9125
384.44203	6356.8125
388.60257	6383.4125
392.76012	6436.1125
396.91468	6518.7125
401.06626	6629.1125
405.21485	6691.3125
409.36047	6632.0125
413.50311	6458.0125
417.64277	6308.8125
421.77947	6212.6125
425.9132	6178.3125
430.04396	6185.9125
434.17176	6259.0125
438.2966	6379.6125
442.41849	6546.7125
446.53742	6752.2125
450.6534	6959.7125
454.76644	7102.8125
458.87653	7107.1125
462.98368	7066.0125
467.08789	6944.1125
471.18916	6779.5125
475.2875	6589.7125
479.38291	6459.4125
483.4754	6356.6125
487.56496	6296.1125
491.6516	6246.2125
495.73531	6214.1125
499.81612	6208.6125
503.89401	6252.1125
507.96899	6305.3125
512.04106	6328.8125
516.11023	6378.3125
520.1765	6449.8125
524.23987	6440.5125
528.30034	6419.0125
532.35792	6380.3125
536.41261	6342.1125
540.46441	6266.8125
544.51333	6240.3125
548.55936	6291.1125
552.60252	6390.2125
556.64279	6478.3125
560.6802	6512.4125
564.71473	6536.5125
568.7464	6602.3125
572.7752	6589.0125
576.80114	6506.1125
580.82422	6457.9125
584.84444	6489.1125
588.86181	6580.6125
592.87633	6775.1125
596.888	6919.8125
600.89682	7176.9125
604.9028	7872.3125
608.90594	9241.0125
612.90624	10465.6125
616.90371	9585.9125
620.89834	7767.8125
624.89015	7129.7125
628.87913	7076.6125
632.86528	7043.8125
636.84862	6932.5125
640.82913	6731.6125
644.80683	6488.4125
648.78172	6387.2125
652.75379	6432.3125
656.72306	6610.2125
660.68952	6822.2125
664.65319	6801.0125
668.61405	6686.7125
672.57211	6691.2125
676.52738	6678.0125
680.47986	6578.1125
684.42955	6494.3125
688.37646	6503.6125
692.32058	6554.6125
696.26192	6665.6125
700.20048	6767.2125
704.13626	6755.1125
708.06928	6678.0125
711.99952	6622.4125
715.927	6634.6125
719.85171	6642.4125
723.77365	6624.3125
727.69284	6578.7125
731.60928	6537.6125
735.52295	6561.8125
739.43388	6589.9125
743.34206	6636.5125
747.24749	6695.2125
751.15017	6700.3125
755.05012	6774.6125
758.94733	6982.6125
762.8418	7458.2125
766.73354	8167.6125
770.62254	8797.4125
774.50882	8994.4125
778.39237	8653.0125
782.27321	8022.0125
786.15132	7394.7125
790.02671	7000.8125
793.89938	6823.5125
797.76935	6733.6125
801.6366	6691.9125
805.50115	6649.6125
809.36299	6629.2125
813.22213	6591.5125
817.07857	6602.1125
820.93231	6605.1125
824.78336	6596.2125
828.63172	6646.6125
832.47738	6646.1125
836.32036	6646.3125
840.16066	6681.4125
843.99827	6702.3125
847.8332	6707.3125
851.66546	6676.3125
855.49504	6685.8125
859.32195	6681.9125
863.1462	6674.3125
866.96777	6651.1125
870.78668	6609.2125
874.60293	6636.3125
878.41652	6649.6125
882.22745	6703.9125
886.03573	6721.6125
889.84136	6715.6125
893.64433	6699.5125
897.44466	6674.5125
901.24235	6652.8125
905.0374	6644.7125
908.8298	6616.5125
912.61957	6612.5125
916.40671	6645.9125
920.19121	6703.1125
923.97308	6803.2125
927.75233	6889.0125
931.52895	6926.8125
935.30295	6889.9125
939.07433	6749.6125
942.84309	6641.7125
946.60924	6614.7125
950.37278	6602.3125
954.13371	6570.0125
957.89203	6537.6125
961.64774	6531.5125
965.40086	6502.7125
969.15137	6480.4125
972.89929	6479.4125
976.64461	6490.2125
980.38733	6515.2125
984.12747	6546.4125
987.86502	6581.3125
991.59999	6685.7125
995.33237	6832.3125
999.06217	7070.1125
1002.78939	7299.9125
1006.51404	7388.9125
1010.23611	7427.2125
1013.95561	7518.2125
1017.67255	7635.0125
1021.38692	7597.2125
1025.09872	7605.0125
1028.80796	7711.0125
1032.51465	7928.5125
1036.21877	8097.5125
1039.92035	8050.7125
1043.61937	7900.1125
1047.31584	7684.3125
1051.00976	7485.1125
1054.70114	7368.4125
1058.38998	7351.4125
1062.07627	7368.5125
1065.76003	7374.2125
1069.44126	7415.1125
1073.11995	7506.2125
1076.79611	7569.6125
1080.46974	7609.9125
1084.14085	7721.0125
1087.80943	7802.6125
1091.47549	7785.9125
1095.13903	7700.2125
1098.80005	7591.4125
1102.45857	7572.9125
1106.11456	7539.0125
1109.76805	7549.9125
1113.41903	7579.0125
1117.06751	7699.1125
1120.71348	7831.7125
1124.35696	7982.7125
1127.99793	8038.4125
1131.63641	7939.2125
1135.2724	7767.4125
1138.90589	7596.7125
1142.5369	7475.2125
1146.16542	7401.0125
1149.79145	7346.1125
1153.415	7325.9125
1157.03607	7372.1125
1160.65467	7472.7125
1164.27079	7631.6125
1167.88443	7874.9125
1171.49561	8305.3125
1175.10432	8878.0125
1178.71056	9703.3125
1182.31434	10449.4125
1185.91565	10846.5125
1189.51451	10849.0125
1193.11091	10509.0125
1196.70485	10006.8125
1200.29634	9551.5125
1203.88538	9159.8125
1207.47197	8784.7125
1211.05612	8457.8125
1214.63782	8289.6125
1218.21708	8220.5125
1221.79391	8247.9125
1225.36829	8333.0125
1228.94024	8321.6125
1232.50976	8216.4125
1236.07685	8175.2125
1239.6415	8197.4125
1243.20374	8223.0125
1246.76355	8264.0125
1250.32093	8404.5125
1253.8759	8583.6125
1257.42845	8831.4125
1260.97859	9070.9125
1264.52631	9284.4125
1268.07163	9464.9125
1271.61453	9622.0125
1275.15503	9791.2125
1278.69312	9974.4125
1282.22882	10124.2125
1285.76211	10281.8125
1289.29301	10417.3125
1292.82151	10601.0125
1296.34761	10841.6125
1299.87133	11233.4125
1303.39266	11908.3125
1306.9116	12803.6125
1310.42815	13722.6125
1313.94233	14133.9125
1317.45412	13793.4125
1320.96354	13104.6125
1324.47058	12378.2125
1327.97525	11827.9125
1331.47754	11600.2125
1334.97747	11637.5125
1338.47502	11838.8125
1341.97022	12148.5125
1345.46305	12526.0125
1348.95352	13013.4125
1352.44163	13562.5125
1355.92738	14300.7125
1359.41078	15243.4125
1362.89183	15765.8125
1366.37053	14984.2125
1369.84688	13214.9125
1373.32088	11569.8125
1376.79254	10586.1125
1380.26186	10147.4125
1383.72883	9897.1125
1387.19347	9677.3125
1390.65578	9374.6125
1394.11575	9139.1125
1397.57339	9005.6125
1401.0287	9015.7125
1404.48168	9124.7125
1407.93234	9248.9125
1411.38068	9454.2125
1414.82669	9544.6125
1418.27039	9532.0125
1421.71177	9412.4125
1425.15083	9320.2125
1428.58758	9328.2125
1432.02203	9493.9125
1435.45416	9607.0125
1438.88399	9622.8125
1442.31151	9576.0125
1445.73673	9493.6125
1449.15965	9440.1125
1452.58027	9326.5125
1455.9986	9221.7125
1459.41463	9178.0125
1462.82837	9261.9125
1466.23982	9413.3125
1469.64898	9580.6125
1473.05586	9763.0125
1476.46045	9861.3125
1479.86276	9973.9125
1483.26279	10066.4125
1486.66054	10205.9125
1490.05602	10398.0125
1493.44922	10718.6125
1496.84016	11183.3125
1500.22882	11820.1125
1503.61521	12615.9125
1506.99934	13343.3125
1510.38121	13732.9125
1513.76081	13508.0125
1517.13816	12668.5125
1520.51324	11762.4125
1523.88607	10967.8125
1527.25665	10517.7125
1530.62498	10308.9125
1533.99105	10173.9125
1537.35488	10123.6125
1540.71647	10048.7125
1544.07581	9964.2125
1547.4329	9855.3125
1550.78776	9707.9125
1554.14038	9607.8125
1557.49077	9516.3125
1560.83892	9517.8125
1564.18484	9601.7125
1567.52853	9692.9125
1570.86999	9771.8125
1574.20922	9793.2125
1577.54624	9639.4125
1580.88103	9366.5125
1584.2136	9097.0125
1587.54395	9075.7125
1590.87208	9385.3125
1594.19801	10065.7125
1597.52172	10858.9125
1600.84321	11285.4125
1604.16251	11154.9125
1607.47959	10632.8125
1610.79447	9910.0125
1614.10715	9168.8125
1617.41763	8571.9125
1620.7259	8196.6125
1624.03199	8034.5125
1627.33587	8042.8125
1630.63757	8237.1125
1633.93707	8688.0125
1637.23439	9329.4125
1640.52951	10138.7125
1643.82246	11037.2125
1647.11321	11658.3125
1650.40179	11592.5125
1653.68819	10745.6125
1656.97241	9482.8125
1660.25446	8389.5125
1663.53433	7658.7125
1666.81203	7225.0125
1670.08756	6962.6125
1673.36092	6810.2125
1676.63211	6684.5125
1679.90115	6618.0125
1683.16801	6534.0125
1686.43272	6473.6125
1689.69527	6439.6125
1692.95567	6429.6125
1696.2139	6420.9125
1699.46999	6381.4125
1702.72392	6384.7125
1705.97571	6392.0125
1709.22535	6393.5125
1712.47284	6371.9125
1715.71819	6362.3125
1718.96139	6356.2125
1722.20246	6358.8125
1725.44139	6321.3125
1728.67818	6274.8125
1731.91284	6260.4125
1735.14537	6233.4125
1738.37576	6213.8125
1741.60403	6208.3125
1744.83017	6170.0125
1748.05418	6163.1125
1751.27607	6155.5125
1754.49584	6137.2125
1757.71349	6126.7125
1760.92903	6113.2125
1764.14244	6112.1125
1767.35375	6105.5125
1770.56294	6098.6125
1773.77002	6104.4125
1776.97499	6093.8125
1780.17785	6060.0125
1783.37861	6064.0125
1786.57727	6053.4125
1789.77382	6033.4125
1792.96828	6037.9125
1796.16064	6012.2125
1799.3509	6013.3125
1802.53907	6003.4125
1805.72514	5999.8125
1808.90913	5992.2125
1812.09102	5971.3125
1815.27083	5969.4125
1818.44856	5947.2125
1821.6242	5934.9125
1824.79776	5913.6125
1827.96924	5929.7125
1831.13864	5925.7125
1834.30597	5902.5125
1837.47122	5882.5125
1840.6344	5873.6125
1843.7955	5879.9125
1846.95454	5871.2125
1850.11151	5865.9125
1853.26642	5856.7125
1856.41926	5872.0125
1859.57004	5873.9125
1862.71876	5855.1125
1865.86542	5870.5125
1869.01003	5842.8125
1872.15258	5839.1125
1875.29308	5855.9125
1878.43152	5833.5125
1881.56792	5836.8125
1884.70227	5829.8125
1887.83457	5835.9125
1890.96482	5830.5125
1894.09304	5814.4125
1897.21921	5797.7125
1900.34335	5783.9125
1903.46544	5797.5125
1906.58551	5809.9125
1909.70353	5797.0125
1912.81953	5804.7125
1915.93349	5799.2125
1919.04543	5765.2125
1922.15534	5768.4125
1925.26322	5752.0125
1928.36908	5742.0125
1931.47292	5726.9125
1934.57473	5724.8125
1937.67453	5728.7125
1940.77232	5724.0125
1943.86808	5703.3125
1946.96184	5675.5125
1950.05358	5674.0125
1953.14331	5662.9125
1956.23103	5605.7125
1959.31675	5608.3125
1962.40046	5577.3125
1965.48217	5577.8125
1968.56188	5563.3125
1971.63959	5546.3125
1974.7153	5509.9125
1977.78901	5526.3125
1980.86073	5485.6125
1983.93046	5487.1125
1986.99819	5443.5125
1990.06394	5446.5125
1993.1277	5424.3125
1996.18947	5432.9125
1999.24925	5399.0125
2002.30706	5357.9125
2005.36288	5358.6125
2008.41672	5343.6125
2011.46859	5312.1125
2014.51848	5300.2125
2017.56639	5309.9125
2020.61233	5298.3125
2023.6563	5285.3125
2026.6983	5260.7125
2029.73833	5255.8125
2032.7764	5241.3125
2035.8125	5221.7125
2038.84664	5221.7125
2041.87881	5236.2125
2044.90903	5211.4125
2047.93729	5190.9125
2050.96359	5193.1125
2053.98794	5190.7125
2057.01034	5198.1125
2060.03078	5166.3125
2063.04927	5172.2125
2066.06582	5163.9125
2069.08042	5159.4125
2072.09307	5152.1125
2075.10378	5155.2125
2078.11255	5142.1125
2081.11938	5142.4125
2084.12426	5132.9125
2087.12722	5130.6125
2090.12824	5135.3125
2093.12732	5130.3125
2096.12447	5124.1125
2099.11969	5131.0125
2102.11299	5130.6125
2105.10435	5130.3125
2108.09379	5110.8125
2111.08131	5116.2125
2114.0669	5130.9125
2117.05057	5123.7125
2120.03233	5134.2125
2123.01216	5132.9125
2125.99008	5121.7125
2128.96609	5143.8125
2131.94018	5154.2125
2134.91236	5155.0125
2137.88263	5158.2125
2140.851	5161.6125
2143.81746	5144.5125
2146.78201	5151.3125
2149.74466	5150.5125
2152.7054	5131.7125
2155.66425	5144.0125
2158.6212	5160.5125
2161.57625	5159.5125
2164.52941	5143.1125
2167.48067	5144.5125
2170.43004	5136.7125
2173.37752	5133.2125
2176.32311	5144.5125
2179.26681	5122.1125
2182.20863	5126.9125
2185.14856	5128.1125
2188.08661	5132.0125
2191.02278	5143.0125
2193.95707	5135.4125
2196.88948	5125.7125
2199.82001	5126.3125
2202.74867	5130.8125
2205.67545	5137.2125
2208.60037	5134.2125
2211.52341	5120.6125
2214.44458	5122.5125
2217.36388	5106.9125
2220.28132	5082.5125
2223.1969	5071.7125
2226.11061	5066.9125
2229.02246	5047.3125
2231.93245	5055.8125
2234.84058	5028.0125
2237.74686	5030.1125
2240.65128	5019.9125
2243.55385	5025.9125
2246.45456	5012.4125
2249.35343	5001.9125
2252.25044	4989.7125
2255.14561	4994.8125
2258.03893	4991.9125
2260.93041	4981.7125
2263.82004	4975.1125
2266.70783	4957.2125
2269.59378	4924.0125
2272.4779	4938.9125
2275.36017	4917.0125
2278.24061	4887.8125
2281.11922	4885.8125
2283.996	4880.7125
2286.87094	4862.8125
2289.74405	4857.4125
2292.61534	4874.9125
2295.4848	4849.6125
2298.35243	4866.7125
2301.21824	4866.1125
2304.08223	4852.5125
2306.94439	4877.3125
2309.80474	4851.6125
2312.66327	4865.9125
2315.51999	4860.1125
2318.37489	4871.0125
2321.22797	4854.4125
2324.07925	4838.3125
2326.92871	4845.0125
2329.77637	4819.9125
2332.62222	4831.3125
2335.46626	4822.3125
2338.3085	4844.4125
2341.14893	4820.5125
2343.98756	4834.5125
2346.8244	4834.6125
2349.65943	4833.8125
2352.49267	4838.7125
2355.32411	4830.3125
2358.15376	4828.6125
2360.98161	4814.2125
2363.80768	4811.2125
2366.63195	4794.6125
2369.45444	4792.2125
2372.27514	4780.2125
2375.09405	4771.2125
2377.91118	4779.0125
2380.72652	4760.2125
2383.54009	4754.3125
2386.35187	4742.8125
2389.16188	4723.1125
2391.97011	4715.6125
2394.77657	4710.8125
2397.58125	4691.0125
2400.38416	4685.0125
2403.18529	4683.7125
2405.98466	4658.7125
2408.78226	4664.3125
2411.57809	4648.6125
2414.37216	4645.2125
2417.16446	4639.1125
2419.955	4617.0125
2422.74378	4620.2125
2425.5308	4624.1125
2428.31606	4603.4125
2431.09956	4593.9125
2433.88131	4595.0125
2436.6613	4599.2125
2439.43954	4592.1125
2442.21603	4606.1125
2444.99077	4588.6125
2447.76377	4594.4125
2450.53501	4599.5125
2453.30451	4591.8125
2456.07226	4576.4125
2458.83827	4571.8125
2461.60254	4559.5125
2464.36507	4555.9125
2467.12586	4566.4125
2469.88492	4560.9125
2472.64224	4559.6125
2475.39782	4562.0125
2478.15167	4539.7125
2480.90379	4543.6125
2483.65417	4564.2125
2486.40283	4559.3125
2489.14976	4565.2125
2491.89497	4565.1125
2494.63845	4565.9125
2497.3802	4567.1125
2500.12024	4560.9125
2502.85855	4535.8125
2505.59514	4534.6125
2508.33002	4538.0125
2511.06318	4516.2125
2513.79462	4521.5125
2516.52435	4489.6125
2519.25237	4501.4125
2521.97867	4493.3125
2524.70327	4489.7125
2527.42616	4484.8125
2530.14734	4487.7125
2532.86681	4482.7125
2535.58458	4476.2125
2538.30065	4467.4125
2541.01501	4469.9125
2543.72768	4488.7125
2546.43864	4481.5125
2549.14791	4470.4125
2551.85548	4465.2125
2554.56136	4464.7125
2557.26554	4457.8125
2559.96803	4456.0125
2562.66883	4438.4125
2565.36794	4432.2125
2568.06536	4417.6125
2570.7611	4407.0125
2573.45514	4410.6125
2576.14751	4416.6125
2578.83819	4399.9125
2581.52719	4396.3125
2584.21451	4395.5125
2586.90015	4379.3125
2589.58411	4369.6125
2592.2664	4395.2125
2594.94701	4379.7125
2597.62594	4384.0125
2600.30321	4364.6125
2602.9788	4371.3125
2605.65273	4354.3125
2608.32498	4353.2125
2610.99557	4360.1125
2613.66449	4362.9125
2616.33175	4343.6125
2618.99734	4359.7125
2621.66128	4339.3125
2624.32355	4355.5125
2626.98416	4364.0125
2629.64311	4359.2125
2632.30041	4365.2125
2634.95605	4360.7125
2637.61004	4343.1125
2640.26238	4336.0125
2642.91306	4335.9125
2645.56209	4309.8125
2648.20948	4310.7125
2650.85521	4310.4125
2653.4993	4295.7125
2656.14175	4303.3125
2658.78255	4291.4125
2661.42171	4298.2125
2664.05923	4313.6125
2666.6951	4334.0125
2669.32934	4330.3125
2671.96194	4312.8125
2674.59291	4305.4125
2677.22224	4310.8125
2679.84993	4320.6125
2682.476	4314.4125
2685.10043	4297.7125
2687.72324	4286.4125
2690.34441	4295.0125
2692.96396	4281.0125
2695.58188	4282.6125
2698.19818	4279.4125
2700.81285	4291.6125
2703.4259	4285.4125
2706.03733	4274.5125
2708.64714	4269.7125
2711.25533	4263.0125
2713.86191	4249.8125
2716.46687	4275.0125
2719.07021	4266.9125
2721.67194	4296.2125
2724.27206	4283.9125
2726.87057	4275.1125
2729.46747	4260.7125
2732.06276	4277.7125
2734.65644	4257.2125
2737.24852	4253.0125
2739.83899	4259.2125
2742.42786	4266.1125
2745.01513	4242.1125
2747.60079	4251.8125
2750.18486	4247.4125
2752.76733	4235.4125
2755.3482	4236.5125
2757.92747	4234.4125
2760.50515	4221.5125
2763.08123	4229.1125
2765.65573	4223.4125
2768.22863	4197.3125
2770.79994	4232.1125
2773.36967	4218.8125
2775.9378	4220.4125
2778.50435	4215.6125
2781.06932	4212.7125
2783.6327	4199.5125
2786.1945	4197.3125
2788.75471	4180.9125
2791.31335	4177.0125
2793.87041	4162.2125
2796.42589	4157.4125
2798.97979	4178.9125
2801.53212	4155.1125
2804.08288	4168.8125
2806.63206	4155.0125
2809.17967	4147.1125
2811.72571	4128.2125
2814.27018	4126.0125
2816.81308	4118.9125
2819.35442	4109.3125
2821.89419	4090.2125
2824.43239	4101.7125
2826.96904	4073.2125
2829.50412	4081.0125
2832.03763	4085.6125
2834.56959	4074.9125
2837.1	4056.6125
2839.62884	4055.4125
2842.15613	4053.8125
2844.68186	4063.3125
2847.20604	4041.2125
2849.72867	4057.7125
2852.24974	4029.0125
2854.76927	4024.3125
2857.28724	4013.6125
2859.80367	4018.0125
2862.31855	4017.8125
2864.83189	4007.9125
2867.34368	3998.6125
2869.85393	3991.7125
2872.36264	3991.0125
2874.8698	3993.6125
2877.37543	3969.9125
2879.87952	3976.1125
2882.38207	3984.2125
2884.88308	3966.8125
2887.38256	3970.8125
2889.88051	3975.9125
2892.37692	3961.5125
2894.8718	3956.3125
2897.36515	3959.0125
2899.85698	3983.0125
2902.34727	3971.9125
2904.83604	3978.2125
2907.32328	3980.4125
2909.809	3973.4125
2912.29319	3978.5125
2914.77587	3969.9125
2917.25702	3978.8125
2919.73665	3975.0125
2922.21476	3989.2125
2924.69136	3979.1125
2927.16644	3958.9125
2929.64	3967.4125
2932.11205	3954.8125
2934.58258	3926.9125
2937.05161	3946.1125
2939.51912	3933.6125
2941.98513	3936.3125
2944.44962	3922.2125
2946.91261	3917.2125
2949.37409	3929.0125
2951.83407	3929.8125
2954.29254	3911.7125
2956.74951	3912.4125
2959.20498	3912.1125
2961.65895	3909.4125
2964.11142	3895.5125
2966.56239	3900.7125
2969.01186	3907.7125
2971.45984	3900.7125
2973.90632	3883.1125
2976.35131	3883.9125
2978.7948	3854.2125
2981.23681	3853.9125
2983.67732	3848.2125
2986.11635	3831.3125
2988.55388	3834.9125
2990.98993	3821.8125
2993.4245	3820.7125
2995.85758	3815.1125
2998.28917	3787.3125
3000.71928	3795.4125
3003.14791	3780.5125
3005.57506	3776.7125
3008.00073	3748.3125
3010.42493	3743.8125
3012.84764	3727.0125
3015.26888	3736.2125
3017.68865	3718.6125
3020.10694	3721.9125
3022.52376	3703.0125
3024.9391	3699.6125
3027.35298	3682.3125
3029.76539	3672.4125
3032.17632	3684.0125
3034.5858	3680.7125
3036.9938	3666.4125
3039.40034	3666.7125
3041.80542	3652.0125
3044.20903	3637.9125
3046.61118	3642.1125
3049.01187	3630.3125
3051.4111	3619.5125
3053.80888	3622.7125
3056.20519	3610.7125
3058.60005	3595.4125
3060.99345	3599.4125
3063.3854	3583.0125
3065.7759	3576.1125
3068.16494	3568.3125
3070.55254	3555.0125
3072.93868	3547.1125
3075.32338	3530.5125
3077.70662	3517.9125
3080.08842	3492.4125
3082.46878	3499.5125
3084.84769	3480.7125
3087.22515	3494.8125
3089.60118	3498.8125
3091.97576	3491.1125
3094.3489	3489.3125
3096.72061	3481.9125
3099.09087	3477.0125
3101.4597	3468.1125
3103.82709	3463.3125
3106.19305	3453.6125
3108.55757	3460.0125
3110.92066	3458.2125
3113.28232	3459.3125
3115.64255	3419.8125
3118.00134	3415.0125
3120.35871	3424.4125
3122.71466	3414.9125
