Data from AgNPs_UA_10uM_CRN_500uM_SU_RamanShift__3__13-05-50-254.txt Node

Date: Thu Aug 04 13:05:50 BST 2022
User: TCL
Spectrometer: QEP01345
Trigger mode: 4
Integration Time (sec): 1.000000E0
Scans to average: 10
Electric dark correction enabled: true
Nonlinearity correction enabled: false
Boxcar width: 0
XAxis mode: Raman Shifts
Number of Pixels in Spectrum: 1044
>>>>>Begin Spectral Data<<<<<
46.04893	-1.1
50.45542	-0.2
54.85868	0.3
59.25871	0.1
63.6555	17.5
68.04907	16.8
72.43941	17.8
76.82654	18.7
81.21044	19
85.59113	22.2
89.96862	21.3
94.34289	24.3
98.71396	21.9
103.08183	25.8
107.4465	24.9
111.80798	23.8
116.16626	25.3
120.52136	27.7
124.87327	30.5
129.222	30.3
133.56755	33.3
137.90993	34.8
142.24913	40.5
146.58517	44.9
150.91804	51
155.24774	64.4
159.57429	78.5
163.89768	103.9
168.21792	137
172.53501	191
176.84895	271.6
181.15975	382.4
185.46741	536.7
189.77193	746.1
194.07331	1010.2
198.37157	1309.7
202.6667	1616.7
206.9587	1939.7
211.24758	2239.2
215.53334	2564.8
219.81599	2912.6
224.09553	3290.3
228.37195	3717
232.64527	4170.1
236.91549	4614.2
241.18261	5009.1
245.44663	5314.8
249.70755	5561.5
253.96539	5777.7
258.22014	5957.2
262.4718	6094.6
266.72039	6191.9
270.96589	6210.9
275.20832	6179.6
279.44768	6077.6
283.68397	5977.1
287.91719	5919.6
292.14735	5910.8
296.37445	6035.4
300.59849	6199.1
304.81948	6450.4
309.03742	6690.9
313.25231	6820.6
317.46415	6791
321.67296	6535.8
325.87872	6264.1
330.08145	6102.4
334.28114	6087
338.47781	6157.1
342.67145	6272.9
346.86207	6440.7
351.04966	6745.6
355.23424	7034.3
359.4158	7203.1
363.59435	7279.8
367.76989	7265.5
371.94243	7207.2
376.11196	7176.9
380.27849	7177
384.44203	7179.7
388.60257	7226.9
392.76012	7262.1
396.91468	7353.3
401.06626	7501.5
405.21485	7528.5
409.36047	7435.4
413.50311	7220.5
417.64277	7005.2
421.77947	6874.7
425.9132	6789
430.04396	6779.5
434.17176	6810.6
438.2966	6859.7
442.41849	6980.3
446.53742	7094.2
450.6534	7237.4
454.76644	7315.7
458.87653	7380.1
462.98368	7402.9
467.08789	7367.7
471.18916	7272.1
475.2875	7115.5
479.38291	6992.5
483.4754	6897.1
487.56496	6850.4
491.6516	6825.1
495.73531	6825.2
499.81612	6877.1
503.89401	6927.9
507.96899	6989.5
512.04106	7013.8
516.11023	7087.1
520.1765	7107.8
524.23987	7134.2
528.30034	7100
532.35792	7081
536.41261	7024.9
540.46441	6936.5
544.51333	6924.4
548.55936	6982.3
552.60252	7087.5
556.64279	7170.8
560.6802	7300.1
564.71473	7389.5
568.7464	7475.3
572.7752	7430.2
576.80114	7199.7
580.82422	7021.1
584.84444	6965.6
588.86181	6941.6
592.87633	6987.7
596.888	7118
600.89682	7438.6
604.9028	8319.8
608.90594	10049.3
612.90624	11815.2
616.90371	10934.2
620.89834	8504.9
624.89015	7525.4
628.87913	7436
632.86528	7596
636.84862	7690
640.82913	7504.1
644.80683	7230.3
648.78172	7063.2
652.75379	7096.5
656.72306	7287.2
660.68952	7520
664.65319	7485.2
668.61405	7387.1
672.57211	7426.4
676.52738	7429.6
680.47986	7242.6
684.42955	7096.8
688.37646	7063.3
692.32058	7096.7
696.26192	7228
700.20048	7349.4
704.13626	7382.1
708.06928	7327.2
711.99952	7210
715.927	7201.1
719.85171	7259.8
723.77365	7276
727.69284	7227
731.60928	7176.1
735.52295	7175.2
739.43388	7201.7
743.34206	7244.3
747.24749	7218.2
751.15017	7215.4
755.05012	7287
758.94733	7559.3
762.8418	8228.8
766.73354	9247.5
770.62254	9959.8
774.50882	10100.6
778.39237	9843.1
782.27321	9188.6
786.15132	8420.8
790.02671	7796.5
793.89938	7503
797.76935	7342.3
801.6366	7272.1
805.50115	7233.6
809.36299	7193.6
813.22213	7171.3
817.07857	7185.4
820.93231	7177.7
824.78336	7179.9
828.63172	7209
832.47738	7230.9
836.32036	7198.1
840.16066	7179.2
843.99827	7163.1
847.8332	7170.2
851.66546	7180.9
855.49504	7193.8
859.32195	7213.4
863.1462	7181.8
866.96777	7185.7
870.78668	7192.9
874.60293	7230.1
878.41652	7274.1
882.22745	7341.9
886.03573	7371.9
889.84136	7346.9
893.64433	7333.8
897.44466	7312.7
901.24235	7307
905.0374	7285.3
908.8298	7230.6
912.61957	7246
916.40671	7254.2
920.19121	7254.3
923.97308	7301.6
927.75233	7356.9
931.52895	7437.6
935.30295	7369.3
939.07433	7263.5
942.84309	7197.7
946.60924	7162.3
950.37278	7142.1
954.13371	7133.7
957.89203	7120.2
961.64774	7162.7
965.40086	7108.3
969.15137	7103.9
972.89929	7138.3
976.64461	7095.6
980.38733	7130.5
984.12747	7134.3
987.86502	7155.7
991.59999	7205.8
995.33237	7248.4
999.06217	7294.3
1002.78939	7383.5
1006.51404	7532.6
1010.23611	7631
1013.95561	7689.9
1017.67255	7705.7
1021.38692	7704.4
1025.09872	7655.6
1028.80796	7577
1032.51465	7540.7
1036.21877	7546.7
1039.92035	7582.9
1043.61937	7603.4
1047.31584	7639.1
1051.00976	7698
1054.70114	7684.3
1058.38998	7722.1
1062.07627	7757.8
1065.76003	7799.3
1069.44126	7896.7
1073.11995	8041.3
1076.79611	8224.7
1080.46974	8326.4
1084.14085	8426.2
1087.80943	8481.2
1091.47549	8541.4
1095.13903	8555.8
1098.80005	8618.8
1102.45857	8681.8
1106.11456	8633.1
1109.76805	8487.3
1113.41903	8426.4
1117.06751	8528.3
1120.71348	8683.1
1124.35696	8851.5
1127.99793	8990.9
1131.63641	8833.2
1135.2724	8547.6
1138.90589	8342.5
1142.5369	8208.1
1146.16542	8137.2
1149.79145	8089.7
1153.415	7979.2
1157.03607	7979.5
1160.65467	8029.1
1164.27079	8194.4
1167.88443	8443.6
1171.49561	8805.5
1175.10432	9356.3
1178.71056	10076
1182.31434	10692.6
1185.91565	10931.9
1189.51451	10890.7
1193.11091	10796.7
1196.70485	10666.8
1200.29634	10485.7
1203.88538	10209.5
1207.47197	9854.3
1211.05612	9478.8
1214.63782	9112.4
1218.21708	8799.9
1221.79391	8629.8
1225.36829	8558.8
1228.94024	8522.1
1232.50976	8533.5
1236.07685	8566
1239.6415	8609.7
1243.20374	8638.3
1246.76355	8726.3
1250.32093	8783.4
1253.8759	8874.9
1257.42845	9113.8
1260.97859	9345.8
1264.52631	9597.4
1268.07163	9761
1271.61453	9815.1
1275.15503	9845.6
1278.69312	9802.2
1282.22882	9797.8
1285.76211	9876.5
1289.29301	10035.9
1292.82151	10217.8
1296.34761	10411.2
1299.87133	10699.1
1303.39266	11263.7
1306.9116	12107.3
1310.42815	12981.8
1313.94233	13317.6
1317.45412	12823
1320.96354	12102.4
1324.47058	11407.6
1327.97525	10868.5
1331.47754	10515.3
1334.97747	10402.5
1338.47502	10550.9
1341.97022	10911.9
1345.46305	11647.2
1348.95352	12649.3
1352.44163	13763.3
1355.92738	14856.3
1359.41078	15979.5
1362.89183	16765.1
1366.37053	15862.2
1369.84688	13693
1373.32088	11683.5
1376.79254	10560.6
1380.26186	10037.7
1383.72883	9695.6
1387.19347	9361.1
1390.65578	9042.5
1394.11575	8825.8
1397.57339	8632.2
1401.0287	8535.8
1404.48168	8531.5
1407.93234	8566.2
1411.38068	8700.4
1414.82669	8828.9
1418.27039	8874.1
1421.71177	8851.5
1425.15083	8754.6
1428.58758	8635.2
1432.02203	8642.7
1435.45416	8649.4
1438.88399	8638.5
1442.31151	8628.1
1445.73673	8674.1
1449.15965	8684.3
1452.58027	8677.6
1455.9986	8674.4
1459.41463	8680.1
1462.82837	8760.6
1466.23982	8913.5
1469.64898	9124.5
1473.05586	9265.9
1476.46045	9379
1479.86276	9498.1
1483.26279	9612.4
1486.66054	9763.8
1490.05602	10066.2
1493.44922	10524.8
1496.84016	11256.4
1500.22882	12293.1
1503.61521	13530.6
1506.99934	14731.9
1510.38121	15428.1
1513.76081	15214.5
1517.13816	14031.3
1520.51324	12582.6
1523.88607	11362.1
1527.25665	10601.3
1530.62498	10248.7
1533.99105	10098.2
1537.35488	10007.3
1540.71647	9913.9
1544.07581	9845.4
1547.4329	9719.4
1550.78776	9594.3
1554.14038	9482.8
1557.49077	9439.5
1560.83892	9518.6
1564.18484	9733.2
1567.52853	9993.5
1570.86999	10186.2
1574.20922	10259.9
1577.54624	10167.7
1580.88103	9750.9
1584.2136	9245.1
1587.54395	8970.7
1590.87208	8926.9
1594.19801	9142.4
1597.52172	9448.3
1600.84321	9584.2
1604.16251	9492
1607.47959	9380.4
1610.79447	9184.1
1614.10715	8843.3
1617.41763	8519.3
1620.7259	8236.3
1624.03199	8045.7
1627.33587	8010.8
1630.63757	8049.7
1633.93707	8254.5
1637.23439	8655.7
1640.52951	9331.7
1643.82246	10272.5
1647.11321	11268.9
1650.40179	11749.8
1653.68819	11328.2
1656.97241	10166.9
1660.25446	8964.6
1663.53433	8130.3
1666.81203	7630.4
1670.08756	7357.3
1673.36092	7173
1676.63211	7064.9
1679.90115	6974.2
1683.16801	6900.6
1686.43272	6846
1689.69527	6788.1
1692.95567	6753.6
1696.2139	6745.1
1699.46999	6709
1702.72392	6709.6
1705.97571	6707.1
1709.22535	6707.6
1712.47284	6695.4
1715.71819	6692.7
1718.96139	6682.9
1722.20246	6676.8
1725.44139	6659.4
1728.67818	6611.7
1731.91284	6573.6
1735.14537	6540.3
1738.37576	6514.9
1741.60403	6476.9
1744.83017	6472.3
1748.05418	6459
1751.27607	6449.4
1754.49584	6434.9
1757.71349	6426.9
1760.92903	6419.5
1764.14244	6396.8
1767.35375	6387.7
1770.56294	6364.6
1773.77002	6350.8
1776.97499	6319.4
1780.17785	6295.3
1783.37861	6300.5
1786.57727	6292.3
1789.77382	6287
1792.96828	6269.3
1796.16064	6259.5
1799.3509	6245.5
1802.53907	6228.6
1805.72514	6211.7
1808.90913	6210.8
1812.09102	6191.8
1815.27083	6160.7
1818.44856	6146.2
1821.6242	6140.8
1824.79776	6110.2
1827.96924	6128.6
1831.13864	6101.8
1834.30597	6090.9
1837.47122	6070.8
1840.6344	6069.2
1843.7955	6055.2
1846.95454	6046.8
1850.11151	6057.3
1853.26642	6046.2
1856.41926	6047.3
1859.57004	6050.1
1862.71876	6059.6
1865.86542	6046.4
1869.01003	6049.5
1872.15258	6024
1875.29308	6007.9
1878.43152	6001.5
1881.56792	5995.8
1884.70227	5980.6
1887.83457	5954.2
1890.96482	5950.9
1894.09304	5924.8
1897.21921	5916.8
1900.34335	5914.9
1903.46544	5919.2
1906.58551	5911.4
1909.70353	5897.4
1912.81953	5890.7
1915.93349	5876
1919.04543	5865.5
1922.15534	5855.7
1925.26322	5842.8
1928.36908	5817.5
1931.47292	5808.7
1934.57473	5803.2
1937.67453	5795.2
1940.77232	5756.5
1943.86808	5743.1
1946.96184	5720.7
1950.05358	5729.7
1953.14331	5698.3
1956.23103	5674.4
1959.31675	5656.5
1962.40046	5643
1965.48217	5625.3
1968.56188	5602.8
1971.63959	5595.7
1974.7153	5578.3
1977.78901	5577.5
1980.86073	5565
1983.93046	5540.3
1986.99819	5508.5
1990.06394	5478.5
1993.1277	5473.9
1996.18947	5451.9
1999.24925	5428.3
2002.30706	5422.4
2005.36288	5394.3
2008.41672	5380
2011.46859	5354
2014.51848	5332.4
2017.56639	5308.9
2020.61233	5291
2023.6563	5304.3
2026.6983	5265.3
2029.73833	5255.7
2032.7764	5219.5
2035.8125	5221.4
2038.84664	5227.3
2041.87881	5197.1
2044.90903	5182.9
2047.93729	5175.7
2050.96359	5170.2
2053.98794	5155.7
2057.01034	5136.8
2060.03078	5148.5
2063.04927	5146.6
2066.06582	5126.5
2069.08042	5128.3
2072.09307	5104
2075.10378	5120.3
2078.11255	5086.7
2081.11938	5101.4
2084.12426	5077.9
2087.12722	5093.4
2090.12824	5085.1
2093.12732	5093.6
2096.12447	5098.1
2099.11969	5077.2
2102.11299	5095.1
2105.10435	5092.2
2108.09379	5081.7
2111.08131	5064.6
2114.0669	5094.8
2117.05057	5093.8
2120.03233	5092.7
2123.01216	5102.5
2125.99008	5096.3
2128.96609	5105.6
2131.94018	5107.6
2134.91236	5093.2
2137.88263	5078.1
2140.851	5093.9
2143.81746	5087.2
2146.78201	5087.2
2149.74466	5085
2152.7054	5093.5
2155.66425	5080.7
2158.6212	5083.3
2161.57625	5067.7
2164.52941	5064.1
2167.48067	5058.7
2170.43004	5053.6
2173.37752	5034.3
2176.32311	5051.6
2179.26681	5043.7
2182.20863	5054.1
2185.14856	5064.6
2188.08661	5050
2191.02278	5055.2
2193.95707	5041.5
2196.88948	5029.6
2199.82001	5018.2
2202.74867	5011.6
2205.67545	5020.6
2208.60037	5013.1
2211.52341	5001
2214.44458	4973.2
2217.36388	4968.9
2220.28132	4945.7
2223.1969	4933.1
2226.11061	4925.6
2229.02246	4891.2
2231.93245	4905.3
2234.84058	4879.2
2237.74686	4882.7
2240.65128	4887.2
2243.55385	4867.5
2246.45456	4851.6
2249.35343	4859.2
2252.25044	4839.7
2255.14561	4848.4
2258.03893	4826.3
2260.93041	4835
2263.82004	4818.7
2266.70783	4804.5
2269.59378	4793.4
2272.4779	4777.8
2275.36017	4769.3
2278.24061	4770.8
2281.11922	4745
2283.996	4729.2
2286.87094	4724.5
2289.74405	4730.5
2292.61534	4709.1
2295.4848	4702
2298.35243	4687.9
2301.21824	4690.9
2304.08223	4678.5
2306.94439	4674.1
2309.80474	4674.3
2312.66327	4662.1
2315.51999	4651.2
2318.37489	4652.9
2321.22797	4630.8
2324.07925	4632.1
2326.92871	4611.6
2329.77637	4599.5
2332.62222	4589.2
2335.46626	4583.5
2338.3085	4574.2
2341.14893	4567.2
2343.98756	4573.2
2346.8244	4556
2349.65943	4569.4
2352.49267	4547.4
2355.32411	4535
2358.15376	4534.4
2360.98161	4537.2
2363.80768	4538.5
2366.63195	4532.4
2369.45444	4521.8
2372.27514	4529.2
2375.09405	4523.1
2377.91118	4501.7
2380.72652	4509
2383.54009	4480.4
2386.35187	4476.2
2389.16188	4459.8
2391.97011	4446.4
2394.77657	4428.8
2397.58125	4423.6
2400.38416	4426.1
2403.18529	4409.2
2405.98466	4403.1
2408.78226	4385.3
2411.57809	4375.1
2414.37216	4364.8
2417.16446	4370.9
2419.955	4358.5
2422.74378	4372.2
2425.5308	4358.5
2428.31606	4377.1
2431.09956	4352.8
2433.88131	4340.1
2436.6613	4339.1
2439.43954	4341
2442.21603	4330.8
2444.99077	4336
2447.76377	4324.9
2450.53501	4310.3
2453.30451	4317.7
2456.07226	4321.2
2458.83827	4299.8
2461.60254	4291.1
2464.36507	4271.4
2467.12586	4266
2469.88492	4267.1
2472.64224	4266.6
2475.39782	4268.9
2478.15167	4271.8
2480.90379	4265.4
2483.65417	4250.3
2486.40283	4246.4
2489.14976	4245.1
2491.89497	4245.4
2494.63845	4252
2497.3802	4243.9
2500.12024	4232.9
2502.85855	4231.3
2505.59514	4218.4
2508.33002	4214.7
2511.06318	4194.8
2513.79462	4190.3
2516.52435	4183.4
2519.25237	4162.8
2521.97867	4151.2
2524.70327	4155
2527.42616	4128.1
2530.14734	4129.4
2532.86681	4126.4
2535.58458	4135
2538.30065	4130.6
2541.01501	4114.4
2543.72768	4108.7
2546.43864	4109.9
2549.14791	4097.5
2551.85548	4100.4
2554.56136	4091.7
2557.26554	4079
2559.96803	4078.5
2562.66883	4055.4
2565.36794	4056.1
2568.06536	4030.3
2570.7611	4009.3
2573.45514	4022.4
2576.14751	4010.5
2578.83819	3996.3
2581.52719	3993.5
2584.21451	3980
2586.90015	3978.6
2589.58411	3963.7
2592.2664	3945
2594.94701	3940.3
2597.62594	3944.4
2600.30321	3930.7
2602.9788	3932
2605.65273	3925.5
2608.32498	3914.6
2610.99557	3908.4
2613.66449	3902.7
2616.33175	3913.5
2618.99734	3894.6
2621.66128	3898.8
2624.32355	3863.8
2626.98416	3865.3
2629.64311	3833.3
2632.30041	3842.7
2634.95605	3840.8
2637.61004	3830.3
2640.26238	3812.7
2642.91306	3823
2645.56209	3812.4
2648.20948	3800.4
2650.85521	3809.9
2653.4993	3800
2656.14175	3787.3
2658.78255	3787.2
2661.42171	3790.6
2664.05923	3802.4
2666.6951	3796.1
2669.32934	3797.4
2671.96194	3803.4
2674.59291	3806.7
2677.22224	3799.4
2679.84993	3786
2682.476	3799.1
2685.10043	3795.8
2687.72324	3796
2690.34441	3790
2692.96396	3792.1
2695.58188	3775.7
2698.19818	3779.3
2700.81285	3770.1
2703.4259	3761
2706.03733	3766.3
2708.64714	3766.1
2711.25533	3760.6
2713.86191	3757.5
2716.46687	3768.6
2719.07021	3754.4
2721.67194	3767
2724.27206	3758.4
2726.87057	3743.6
2729.46747	3747
2732.06276	3738
2734.65644	3740.7
2737.24852	3733.6
2739.83899	3731.8
2742.42786	3718.2
2745.01513	3711.6
2747.60079	3693.3
2750.18486	3697.9
2752.76733	3684.8
2755.3482	3679.6
2757.92747	3676.4
2760.50515	3664
2763.08123	3661.6
2765.65573	3649
2768.22863	3636.6
2770.79994	3629.2
2773.36967	3617.9
2775.9378	3625.9
2778.50435	3623.9
2781.06932	3611.4
2783.6327	3616.9
2786.1945	3607.6
2788.75471	3609.4
2791.31335	3583.2
2793.87041	3573.2
2796.42589	3558.9
2798.97979	3558.3
2801.53212	3559.5
2804.08288	3526.7
2806.63206	3539.7
2809.17967	3529.3
2811.72571	3529.1
2814.27018	3526.2
2816.81308	3508.1
2819.35442	3505.3
2821.89419	3486.8
2824.43239	3497.1
2826.96904	3483.6
2829.50412	3471.7
2832.03763	3471.3
2834.56959	3446.3
2837.1	3429.5
2839.62884	3441.2
2842.15613	3455.1
2844.68186	3438
2847.20604	3439.8
2849.72867	3440.1
2852.24974	3426.5
2854.76927	3409.2
2857.28724	3408.8
2859.80367	3391.3
2862.31855	3398.9
2864.83189	3392.9
2867.34368	3399.1
2869.85393	3383.5
2872.36264	3387.7
2874.8698	3383.1
2877.37543	3384.2
2879.87952	3372.1
2882.38207	3358.9
2884.88308	3352.1
2887.38256	3365.5
2889.88051	3366.5
2892.37692	3352.9
2894.8718	3349.9
2897.36515	3355
2899.85698	3339.9
2902.34727	3333.5
2904.83604	3334.7
2907.32328	3330.9
2909.809	3335.9
2912.29319	3366.5
2914.77587	3348
2917.25702	3358.2
2919.73665	3346.1
2922.21476	3361.7
2924.69136	3344.2
2927.16644	3340.7
2929.64	3339.5
2932.11205	3327.7
2934.58258	3316.1
2937.05161	3320.1
2939.51912	3308.9
2941.98513	3307.2
2944.44962	3293.7
2946.91261	3283.3
2949.37409	3277.1
2951.83407	3279.9
2954.29254	3283.7
2956.74951	3281
2959.20498	3271.7
2961.65895	3276
2964.11142	3275.5
2966.56239	3255
2969.01186	3249.2
2971.45984	3257.7
2973.90632	3249.9
2976.35131	3233.7
2978.7948	3245.5
2981.23681	3233.6
2983.67732	3219.3
2986.11635	3214.2
2988.55388	3196.7
2990.98993	3184.2
2993.4245	3193.1
2995.85758	3193.4
2998.28917	3173.8
3000.71928	3163
3003.14791	3154.2
3005.57506	3150.2
3008.00073	3131.5
3010.42493	3109.5
3012.84764	3124.4
3015.26888	3116.9
3017.68865	3107.8
3020.10694	3113.9
3022.52376	3090.8
3024.9391	3082.7
3027.35298	3068.1
3029.76539	3063.6
3032.17632	3069.8
3034.5858	3056.7
3036.9938	3054.7
3039.40034	3028.8
3041.80542	3023
3044.20903	3016.5
3046.61118	3011.3
3049.01187	3014.2
3051.4111	3000.4
3053.80888	2996.5
3056.20519	2990.7
3058.60005	2974.5
3060.99345	2969.8
3063.3854	2968.5
3065.7759	2960.3
3068.16494	2957.2
3070.55254	2935.2
3072.93868	2929.4
3075.32338	2928.7
3077.70662	2910.6
3080.08842	2908.9
3082.46878	2887.5
3084.84769	2890.3
3087.22515	2891.6
3089.60118	2888.6
3091.97576	2883.7
3094.3489	2873.5
3096.72061	2876.9
3099.09087	2868.7
3101.4597	2856.5
3103.82709	2870.9
3106.19305	2867.8
3108.55757	2876.4
3110.92066	2839.4
3113.28232	2847.2
3115.64255	2847.7
3118.00134	2835.8
3120.35871	2826.6
3122.71466	2833.5
3125.06917	2820.7
3127.42226	2798.5
3129.77393	2790.7
3132.12417	2792.3
3134.47299	2783.8
3136.82039	2790.3
3139.16636	2782.6
3141.51092	2786.5
3143.85406	2782
3146.19579	2774.6
3148.53609	2781.3
3150.87499	2763.4
3153.21246	2759.3
3155.54853	2776.3
3157.88318	2769.6
3160.21642	2769
3162.54826	2767.5
3164.87868	2761.5
3167.2077	2749.5
3169.5353	2749.3
3171.86151	2738.3
3174.18631	2739.6
3176.5097	2716.3
3178.83169	2718
3181.15228	2723.8
3183.47147	2709.2
3185.78926	2705.4
3188.10565	2678.9
3190.42065	2679.6
3192.73424	2686.9
3195.04645	2674.6
3197.35725	2671.8
3199.66667	2664.1
3201.97469	2667.8
3204.28132	2664.9
3206.58656	2679.1
3208.8904	2669
3211.19287	2679.7
3213.49394	2671.4
3215.79363	2663.6
3218.09193	2656.4
3220.38884	2664.5
3222.68438	2667.3
3224.97853	2654.6
3227.2713	2651.3
3229.56269	2641.6
3231.8527	2648.6
3234.14133	2638.4
3236.42858	2621.8
3238.71446	2624.8
3240.99896	2617.1
3243.28209	2612.6
3245.56384	2593.1
3247.84423	2588.6
3250.12324	2585.2
3252.40088	2582
3254.67715	2571.6
3256.95205	2572
3259.22558	2575.8
3261.49775	2563.7
3263.76855	2573
3266.03799	2586.6
3268.30606	2561.2
3270.57277	2557.3
3272.83812	2561.8
3275.10211	2539.4
3277.36474	2527.2
3279.62601	2533.8
3281.88593	2532.1
3284.14448	2521
3286.40168	2527.2
3288.65753	2526.3
3290.91202	2515.3
3293.16516	2504.9
3295.41695	2505
3297.66738	2500.1
3299.91647	2488.5
3302.16421	2463.3
3304.4106	2458.8
3306.65564	2434.6
3308.89933	2417.2
3311.14169	2390.3
3313.38269	2371.9
3315.62236	2364.8
3317.86068	2339.7
3320.09766	2315.5
3322.3333	2306.2
3324.5676	2286.7
3326.80056	2254.8
3329.03219	2230.6
3331.26248	0.1
3333.49143	-0.6
3335.71905	0.7
