Data from AgNPs_UA_50uM_CRN_500uM_SU_RamanShift__64__14-06-30-326.txt Node

Date: Thu Aug 04 14:06:30 BST 2022
User: TCL
Spectrometer: QEP01345
Trigger mode: 4
Integration Time (sec): 1.000000E0
Scans to average: 10
Electric dark correction enabled: true
Nonlinearity correction enabled: false
Boxcar width: 0
XAxis mode: Raman Shifts
Number of Pixels in Spectrum: 1044
>>>>>Begin Spectral Data<<<<<
46.04893	0.925
50.45542	-0.475
54.85868	-0.975
59.25871	-0.675
63.6555	19.425
68.04907	18.325
72.43941	21.725
76.82654	21.025
81.21044	21.625
85.59113	24.425
89.96862	24.625
94.34289	23.925
98.71396	24.425
103.08183	24.725
107.4465	24.325
111.80798	26.625
116.16626	26.225
120.52136	30.425
124.87327	31.525
129.222	31.925
133.56755	36.025
137.90993	40.125
142.24913	40.425
146.58517	47.125
150.91804	56.525
155.24774	69.025
159.57429	87.525
163.89768	115.025
168.21792	152.525
172.53501	212.125
176.84895	299.725
181.15975	427.125
185.46741	601.325
189.77193	830.725
194.07331	1113.825
198.37157	1449.525
202.6667	1788.125
206.9587	2132.025
211.24758	2484.925
215.53334	2837.225
219.81599	3208.625
224.09553	3621.325
228.37195	4113.625
232.64527	4588.725
236.91549	5074.825
241.18261	5501.425
245.44663	5815.025
249.70755	6090.325
253.96539	6293.325
258.22014	6538.025
262.4718	6695.825
266.72039	6837.625
270.96589	6897.725
275.20832	6830.625
279.44768	6713.625
283.68397	6623.025
287.91719	6544.425
292.14735	6542.225
296.37445	6682.925
300.59849	6919.225
304.81948	7243.225
309.03742	7492.925
313.25231	7640.525
317.46415	7532.025
321.67296	7202.125
325.87872	6843.025
330.08145	6648.025
334.28114	6633.525
338.47781	6736.325
342.67145	6885.225
346.86207	7135.925
351.04966	7452.325
355.23424	7789.925
359.4158	7989.025
363.59435	8089.825
367.76989	8111.825
371.94243	8083.525
376.11196	8034.025
380.27849	7990.725
384.44203	7969.025
388.60257	7980.425
392.76012	8048.625
396.91468	8129.425
401.06626	8246.725
405.21485	8304.425
409.36047	8152.325
413.50311	7854.225
417.64277	7539.425
421.77947	7359.125
425.9132	7278.725
430.04396	7284.425
434.17176	7312.425
438.2966	7447.625
442.41849	7621.925
446.53742	7819.925
450.6534	8009.025
454.76644	8134.525
458.87653	8133.625
462.98368	8110.925
467.08789	8021.125
471.18916	7836.725
475.2875	7629.025
479.38291	7460.625
483.4754	7351.325
487.56496	7272.025
491.6516	7238.625
495.73531	7211.725
499.81612	7217.925
503.89401	7283.625
507.96899	7342.525
512.04106	7390.425
516.11023	7476.325
520.1765	7556.425
524.23987	7562.225
528.30034	7533.825
532.35792	7524.425
536.41261	7429.325
540.46441	7336.025
544.51333	7289.625
548.55936	7340.625
552.60252	7464.725
556.64279	7600.825
560.6802	7717.925
564.71473	7822.125
568.7464	7965.825
572.7752	7938.025
576.80114	7703.825
580.82422	7498.325
584.84444	7446.925
588.86181	7525.425
592.87633	7631.125
596.888	7821.625
600.89682	8156.525
604.9028	9222.525
608.90594	11527.325
612.90624	13765.725
616.90371	12516.025
620.89834	9364.025
624.89015	8154.625
628.87913	8078.625
632.86528	8141.325
636.84862	8109.325
640.82913	7812.825
644.80683	7432.125
648.78172	7241.925
652.75379	7304.725
656.72306	7575.925
660.68952	7894.325
664.65319	7812.825
668.61405	7613.625
672.57211	7608.125
676.52738	7594.025
680.47986	7455.925
684.42955	7279.625
688.37646	7267.225
692.32058	7366.025
696.26192	7497.125
700.20048	7616.825
704.13626	7629.525
708.06928	7518.125
711.99952	7443.325
715.927	7444.725
719.85171	7503.925
723.77365	7509.725
727.69284	7444.525
731.60928	7360.225
735.52295	7333.725
739.43388	7377.225
743.34206	7424.125
747.24749	7468.825
751.15017	7462.825
755.05012	7569.625
758.94733	7919.325
762.8418	8750.325
766.73354	9977.925
770.62254	10945.025
774.50882	11089.425
778.39237	10514.825
782.27321	9562.425
786.15132	8592.725
790.02671	7959.625
793.89938	7632.525
797.76935	7496.625
801.6366	7435.125
805.50115	7398.425
809.36299	7360.825
813.22213	7325.425
817.07857	7318.225
820.93231	7313.725
824.78336	7335.025
828.63172	7343.525
832.47738	7381.825
836.32036	7365.225
840.16066	7382.325
843.99827	7375.825
847.8332	7345.125
851.66546	7324.125
855.49504	7326.225
859.32195	7347.125
863.1462	7304.725
866.96777	7296.525
870.78668	7290.625
874.60293	7287.225
878.41652	7309.425
882.22745	7374.325
886.03573	7428.325
889.84136	7401.525
893.64433	7360.325
897.44466	7334.025
901.24235	7327.725
905.0374	7313.825
908.8298	7295.025
912.61957	7247.225
916.40671	7295.225
920.19121	7338.625
923.97308	7445.225
927.75233	7549.225
931.52895	7631.125
935.30295	7555.125
939.07433	7365.725
942.84309	7233.925
946.60924	7202.125
950.37278	7160.025
954.13371	7128.925
957.89203	7112.225
961.64774	7067.425
965.40086	7051.525
969.15137	7046.225
972.89929	7018.625
976.64461	7046.825
980.38733	7054.825
984.12747	7078.225
987.86502	7128.825
991.59999	7211.425
995.33237	7357.225
999.06217	7566.125
1002.78939	7771.925
1006.51404	7906.325
1010.23611	7959.425
1013.95561	8044.225
1017.67255	8086.725
1021.38692	8082.425
1025.09872	8062.325
1028.80796	8140.725
1032.51465	8319.725
1036.21877	8447.125
1039.92035	8461.225
1043.61937	8321.025
1047.31584	8156.125
1051.00976	7980.725
1054.70114	7898.225
1058.38998	7895.025
1062.07627	7870.525
1065.76003	7904.625
1069.44126	7951.225
1073.11995	8051.725
1076.79611	8175.925
1080.46974	8318.625
1084.14085	8467.825
1087.80943	8592.425
1091.47549	8602.725
1095.13903	8463.925
1098.80005	8341.125
1102.45857	8315.625
1106.11456	8289.125
1109.76805	8267.725
1113.41903	8357.425
1117.06751	8539.125
1120.71348	8743.725
1124.35696	9020.725
1127.99793	9167.425
1131.63641	8971.025
1135.2724	8640.525
1138.90589	8392.725
1142.5369	8201.225
1146.16542	8075.325
1149.79145	8003.725
1153.415	7972.625
1157.03607	7961.225
1160.65467	8078.825
1164.27079	8292.225
1167.88443	8637.725
1171.49561	9162.325
1175.10432	9985.325
1178.71056	11006.925
1182.31434	11904.025
1185.91565	12177.725
1189.51451	11985.625
1193.11091	11478.025
1196.70485	10904.325
1200.29634	10448.625
1203.88538	10026.425
1207.47197	9545.525
1211.05612	9125.025
1214.63782	8843.625
1218.21708	8737.925
1221.79391	8735.125
1225.36829	8765.525
1228.94024	8760.025
1232.50976	8668.425
1236.07685	8592.825
1239.6415	8594.125
1243.20374	8608.125
1246.76355	8664.125
1250.32093	8793.225
1253.8759	8987.225
1257.42845	9293.025
1260.97859	9609.125
1264.52631	9875.125
1268.07163	10108.025
1271.61453	10286.425
1275.15503	10410.825
1278.69312	10549.025
1282.22882	10652.625
1285.76211	10858.325
1289.29301	11066.525
1292.82151	11274.925
1296.34761	11553.525
1299.87133	12114.725
1303.39266	12972.725
1306.9116	14303.425
1310.42815	15692.925
1313.94233	16241.725
1317.45412	15609.625
1320.96354	14419.225
1324.47058	13306.125
1327.97525	12381.425
1331.47754	11822.025
1334.97747	11668.625
1338.47502	11809.325
1341.97022	12224.725
1345.46305	12881.425
1348.95352	13785.425
1352.44163	14825.125
1355.92738	16109.125
1359.41078	17795.325
1362.89183	18960.225
1366.37053	17940.825
1369.84688	15224.725
1373.32088	12783.625
1376.79254	11399.225
1380.26186	10738.525
1383.72883	10395.625
1387.19347	10065.525
1390.65578	9680.825
1394.11575	9375.225
1397.57339	9189.625
1401.0287	9147.325
1404.48168	9158.825
1407.93234	9237.225
1411.38068	9403.425
1414.82669	9541.625
1418.27039	9583.225
1421.71177	9526.225
1425.15083	9426.425
1428.58758	9403.825
1432.02203	9545.725
1435.45416	9654.725
1438.88399	9662.025
1442.31151	9601.825
1445.73673	9548.825
1449.15965	9556.525
1452.58027	9449.625
1455.9986	9301.625
1459.41463	9247.225
1462.82837	9348.525
1466.23982	9508.925
1469.64898	9707.825
1473.05586	9876.025
1476.46045	9977.225
1479.86276	10119.025
1483.26279	10291.125
1486.66054	10497.525
1490.05602	10805.725
1493.44922	11329.125
1496.84016	12061.925
1500.22882	13212.025
1503.61521	14626.025
1506.99934	16066.725
1510.38121	17044.925
1513.76081	16900.225
1517.13816	15606.425
1520.51324	13783.425
1523.88607	12260.625
1527.25665	11357.625
1530.62498	10832.525
1533.99105	10539.925
1537.35488	10398.525
1540.71647	10274.525
1544.07581	10140.825
1547.4329	10022.825
1550.78776	9928.125
1554.14038	9868.025
1557.49077	9919.125
1560.83892	10082.625
1564.18484	10324.225
1567.52853	10601.425
1570.86999	10772.025
1574.20922	10759.625
1577.54624	10589.625
1580.88103	10093.525
1584.2136	9573.425
1587.54395	9396.925
1590.87208	9604.325
1594.19801	10185.925
1597.52172	10861.125
1600.84321	11150.725
1604.16251	10924.425
1607.47959	10448.625
1610.79447	9853.925
1614.10715	9212.525
1617.41763	8679.525
1620.7259	8334.025
1624.03199	8155.225
1627.33587	8182.925
1630.63757	8402.725
1633.93707	8836.125
1637.23439	9551.725
1640.52951	10569.825
1643.82246	11828.325
1647.11321	13034.025
1650.40179	13403.025
1653.68819	12564.425
1656.97241	10896.225
1660.25446	9322.425
1663.53433	8267.425
1666.81203	7656.525
1670.08756	7303.325
1673.36092	7067.025
1676.63211	6906.025
1679.90115	6845.725
1683.16801	6737.425
1686.43272	6672.125
1689.69527	6646.425
1692.95567	6593.625
1696.2139	6590.425
1699.46999	6562.225
1702.72392	6549.425
1705.97571	6554.025
1709.22535	6545.025
1712.47284	6543.625
1715.71819	6539.725
1718.96139	6532.625
1722.20246	6523.825
1725.44139	6480.025
1728.67818	6439.625
1731.91284	6408.425
1735.14537	6380.425
1738.37576	6349.925
1741.60403	6319.625
1744.83017	6282.125
1748.05418	6304.625
1751.27607	6264.625
1754.49584	6260.825
1757.71349	6228.625
1760.92903	6238.525
1764.14244	6228.025
1767.35375	6216.025
1770.56294	6196.725
1773.77002	6202.425
1776.97499	6166.425
1780.17785	6159.425
1783.37861	6132.325
1786.57727	6127.725
1789.77382	6087.625
1792.96828	6097.225
1796.16064	6087.725
1799.3509	6091.925
1802.53907	6080.625
1805.72514	6056.125
1808.90913	6047.325
1812.09102	6030.625
1815.27083	6007.725
1818.44856	5998.125
1821.6242	5980.225
1824.79776	5974.325
1827.96924	5949.025
1831.13864	5920.825
1834.30597	5907.325
1837.47122	5916.725
1840.6344	5935.425
1843.7955	5912.725
1846.95454	5914.025
1850.11151	5899.025
1853.26642	5900.925
1856.41926	5901.525
1859.57004	5908.125
1862.71876	5904.325
1865.86542	5864.825
1869.01003	5861.125
1872.15258	5866.525
1875.29308	5871.125
1878.43152	5883.425
1881.56792	5858.825
1884.70227	5870.225
1887.83457	5861.825
1890.96482	5840.325
1894.09304	5829.525
1897.21921	5834.425
1900.34335	5792.625
1903.46544	5790.125
1906.58551	5779.325
1909.70353	5768.125
1912.81953	5756.925
1915.93349	5764.825
1919.04543	5747.725
1922.15534	5748.325
1925.26322	5725.525
1928.36908	5748.725
1931.47292	5721.325
1934.57473	5719.825
1937.67453	5690.925
1940.77232	5661.625
1943.86808	5641.225
1946.96184	5640.425
1950.05358	5621.925
1953.14331	5597.425
1956.23103	5574.125
1959.31675	5576.825
1962.40046	5543.125
1965.48217	5525.525
1968.56188	5532.225
1971.63959	5509.825
1974.7153	5504.125
1977.78901	5493.925
1980.86073	5465.825
1983.93046	5451.325
1986.99819	5418.325
1990.06394	5417.625
1993.1277	5399.425
1996.18947	5364.725
1999.24925	5356.725
2002.30706	5328.825
2005.36288	5310.725
2008.41672	5288.025
2011.46859	5256.225
2014.51848	5274.925
2017.56639	5264.425
2020.61233	5238.125
2023.6563	5231.825
2026.6983	5189.225
2029.73833	5178.125
2032.7764	5179.425
2035.8125	5165.925
2038.84664	5178.725
2041.87881	5152.625
2044.90903	5136.425
2047.93729	5129.725
2050.96359	5126.725
2053.98794	5129.025
2057.01034	5105.125
2060.03078	5100.425
2063.04927	5105.725
2066.06582	5110.625
2069.08042	5097.225
2072.09307	5095.125
2075.10378	5065.825
2078.11255	5055.425
2081.11938	5067.725
2084.12426	5047.925
2087.12722	5055.625
2090.12824	5052.925
2093.12732	5055.625
2096.12447	5058.225
2099.11969	5060.625
2102.11299	5056.125
2105.10435	5077.625
2108.09379	5061.625
2111.08131	5051.825
2114.0669	5053.825
2117.05057	5066.825
2120.03233	5059.625
2123.01216	5062.325
2125.99008	5063.325
2128.96609	5092.825
2131.94018	5065.025
2134.91236	5067.025
2137.88263	5066.525
2140.851	5074.525
2143.81746	5075.425
2146.78201	5068.125
2149.74466	5063.425
2152.7054	5041.325
2155.66425	5075.225
2158.6212	5063.025
2161.57625	5041.825
2164.52941	5041.425
2167.48067	5044.625
2170.43004	5048.625
2173.37752	5052.125
2176.32311	5044.425
2179.26681	5052.125
2182.20863	5057.325
2185.14856	5039.525
2188.08661	5043.025
2191.02278	5040.025
2193.95707	5030.625
2196.88948	5032.825
2199.82001	5025.925
2202.74867	5029.325
2205.67545	5012.625
2208.60037	5042.725
2211.52341	5041.525
2214.44458	5032.025
2217.36388	5000.825
2220.28132	4999.125
2223.1969	4971.925
2226.11061	4963.325
2229.02246	4950.725
2231.93245	4956.525
2234.84058	4935.425
2237.74686	4929.025
2240.65128	4913.425
2243.55385	4912.025
2246.45456	4896.125
2249.35343	4907.125
2252.25044	4899.825
2255.14561	4879.125
2258.03893	4884.425
2260.93041	4876.925
2263.82004	4877.825
2266.70783	4874.425
2269.59378	4849.325
2272.4779	4834.325
2275.36017	4819.225
2278.24061	4790.425
2281.11922	4795.725
2283.996	4793.525
2286.87094	4782.825
2289.74405	4765.525
2292.61534	4762.725
2295.4848	4764.325
2298.35243	4753.725
2301.21824	4769.125
2304.08223	4750.125
2306.94439	4760.525
2309.80474	4753.225
2312.66327	4775.525
2315.51999	4773.525
2318.37489	4759.725
2321.22797	4757.825
2324.07925	4739.825
2326.92871	4726.225
2329.77637	4729.625
2332.62222	4710.225
2335.46626	4710.325
2338.3085	4717.625
2341.14893	4733.925
2343.98756	4727.525
2346.8244	4707.625
2349.65943	4724.225
2352.49267	4709.625
2355.32411	4703.325
2358.15376	4720.125
2360.98161	4710.025
2363.80768	4697.725
2366.63195	4691.025
2369.45444	4683.025
2372.27514	4682.025
2375.09405	4676.325
2377.91118	4674.125
2380.72652	4639.625
2383.54009	4640.225
2386.35187	4635.125
2389.16188	4631.225
2391.97011	4601.225
2394.77657	4600.025
2397.58125	4581.025
2400.38416	4571.925
2403.18529	4559.825
2405.98466	4558.325
2408.78226	4559.225
2411.57809	4540.925
2414.37216	4518.225
2417.16446	4513.625
2419.955	4503.825
2422.74378	4509.825
2425.5308	4512.525
2428.31606	4516.325
2431.09956	4505.325
2433.88131	4496.425
2436.6613	4504.925
2439.43954	4491.525
2442.21603	4498.825
2444.99077	4486.825
2447.76377	4487.625
2450.53501	4472.325
2453.30451	4480.825
2456.07226	4489.625
2458.83827	4471.225
2461.60254	4460.925
2464.36507	4470.325
2467.12586	4467.525
2469.88492	4463.725
2472.64224	4467.625
2475.39782	4440.325
2478.15167	4448.225
2480.90379	4434.125
2483.65417	4457.425
2486.40283	4447.625
2489.14976	4464.425
2491.89497	4473.025
2494.63845	4473.625
2497.3802	4454.425
2500.12024	4451.825
2502.85855	4444.625
2505.59514	4432.825
2508.33002	4426.325
2511.06318	4420.725
2513.79462	4408.525
2516.52435	4394.525
2519.25237	4406.725
2521.97867	4371.525
2524.70327	4376.825
2527.42616	4362.425
2530.14734	4374.425
2532.86681	4351.825
2535.58458	4375.025
2538.30065	4372.625
2541.01501	4357.625
2543.72768	4363.325
2546.43864	4362.125
2549.14791	4339.425
2551.85548	4344.225
2554.56136	4344.325
2557.26554	4303.625
2559.96803	4301.025
2562.66883	4299.525
2565.36794	4304.225
2568.06536	4310.825
2570.7611	4271.225
2573.45514	4292.725
2576.14751	4282.725
2578.83819	4257.325
2581.52719	4262.325
2584.21451	4269.525
2586.90015	4262.025
2589.58411	4264.625
2592.2664	4253.025
2594.94701	4247.925
2597.62594	4251.325
2600.30321	4245.725
2602.9788	4248.825
2605.65273	4232.125
2608.32498	4239.525
2610.99557	4237.825
2613.66449	4253.525
2616.33175	4220.925
2618.99734	4215.325
2621.66128	4221.125
2624.32355	4211.725
2626.98416	4215.125
2629.64311	4215.125
2632.30041	4224.025
2634.95605	4199.125
2637.61004	4187.325
2640.26238	4190.925
2642.91306	4179.525
2645.56209	4163.125
2648.20948	4181.325
2650.85521	4159.925
2653.4993	4157.825
2656.14175	4154.525
2658.78255	4150.225
2661.42171	4162.825
2664.05923	4168.225
2666.6951	4157.025
2669.32934	4140.525
2671.96194	4149.025
2674.59291	4152.025
2677.22224	4161.725
2679.84993	4163.425
2682.476	4146.225
2685.10043	4146.625
2687.72324	4148.525
2690.34441	4138.925
2692.96396	4127.025
2695.58188	4129.025
2698.19818	4115.125
2700.81285	4125.425
2703.4259	4131.325
2706.03733	4122.425
2708.64714	4124.925
2711.25533	4125.125
2713.86191	4105.825
2716.46687	4107.025
2719.07021	4118.425
2721.67194	4123.025
2724.27206	4122.225
2726.87057	4128.425
2729.46747	4116.325
2732.06276	4124.925
2734.65644	4091.625
2737.24852	4102.225
2739.83899	4081.825
2742.42786	4090.725
2745.01513	4072.625
2747.60079	4073.825
2750.18486	4082.325
2752.76733	4081.325
2755.3482	4062.525
2757.92747	4058.625
2760.50515	4040.825
2763.08123	4050.025
2765.65573	4046.525
2768.22863	4028.625
2770.79994	4022.225
2773.36967	4021.025
2775.9378	4033.125
2778.50435	4034.025
2781.06932	4024.025
2783.6327	4031.025
2786.1945	4014.025
2788.75471	4011.025
2791.31335	4014.325
2793.87041	4006.825
2796.42589	4003.525
2798.97979	3979.325
2801.53212	3985.225
2804.08288	3965.625
2806.63206	3980.125
2809.17967	3946.225
2811.72571	3938.725
2814.27018	3948.325
2816.81308	3939.625
2819.35442	3937.725
2821.89419	3923.025
2824.43239	3899.525
2826.96904	3919.325
2829.50412	3916.125
2832.03763	3902.425
2834.56959	3891.325
2837.1	3897.125
2839.62884	3882.925
2842.15613	3880.925
2844.68186	3875.625
2847.20604	3871.225
2849.72867	3857.425
2852.24974	3851.825
2854.76927	3852.125
2857.28724	3825.025
2859.80367	3842.025
2862.31855	3839.225
2864.83189	3844.125
2867.34368	3843.425
2869.85393	3843.425
2872.36264	3828.125
2874.8698	3831.825
2877.37543	3829.625
2879.87952	3826.425
2882.38207	3807.025
2884.88308	3811.125
2887.38256	3808.525
2889.88051	3808.025
2892.37692	3795.425
2894.8718	3788.725
2897.36515	3792.825
2899.85698	3789.025
2902.34727	3805.725
2904.83604	3815.125
2907.32328	3822.725
2909.809	3808.925
2912.29319	3821.825
2914.77587	3832.225
2917.25702	3823.225
2919.73665	3813.225
2922.21476	3822.725
2924.69136	3800.825
2927.16644	3806.825
2929.64	3785.925
2932.11205	3784.125
2934.58258	3765.225
2937.05161	3777.525
2939.51912	3777.525
2941.98513	3761.225
2944.44962	3764.525
2946.91261	3756.425
2949.37409	3745.125
2951.83407	3757.725
2954.29254	3760.825
2956.74951	3758.025
2959.20498	3752.125
2961.65895	3733.125
2964.11142	3720.425
2966.56239	3714.925
2969.01186	3731.725
2971.45984	3705.925
2973.90632	3721.325
2976.35131	3716.225
2978.7948	3705.225
2981.23681	3692.125
2983.67732	3693.325
2986.11635	3682.225
2988.55388	3670.025
2990.98993	3662.125
2993.4245	3646.225
2995.85758	3633.325
2998.28917	3640.425
3000.71928	3643.825
3003.14791	3617.825
3005.57506	3620.325
3008.00073	3601.725
3010.42493	3586.825
3012.84764	3591.925
3015.26888	3583.125
3017.68865	3564.125
3020.10694	3558.125
3022.52376	3567.325
3024.9391	3542.425
3027.35298	3539.725
3029.76539	3515.125
3032.17632	3521.225
3034.5858	3509.125
3036.9938	3503.525
3039.40034	3497.325
3041.80542	3487.325
3044.20903	3485.925
3046.61118	3473.625
3049.01187	3462.925
3051.4111	3471.425
3053.80888	3455.025
3056.20519	3456.325
3058.60005	3446.625
3060.99345	3426.025
3063.3854	3436.025
3065.7759	3422.225
3068.16494	3420.125
3070.55254	3406.125
3072.93868	3384.125
3075.32338	3383.425
3077.70662	3377.525
3080.08842	3374.525
3082.46878	3350.525
3084.84769	3339.725
3087.22515	3331.525
3089.60118	3346.825
3091.97576	3349.225
3094.3489	3330.925
3096.72061	3337.025
3099.09087	3337.425
3101.4597	3335.125
3103.82709	3314.225
3106.19305	3306.125
3108.55757	3314.325
3110.92066	3306.525
3113.28232	3313.225
3115.64255	3295.525
3118.00134	3285.725
3120.35871	3275.125
3122.71466	3275.025
3125.06917	3261.725
3127.42226	3266.525
3129.77393	3255.725
3132.12417	3267.025
3134.47299	3250.425
3136.82039	3233.425
3139.16636	3244.325
3141.51092	3240.225
3143.85406	3235.425
3146.19579	3223.925
3148.53609	3218.425
3150.87499	3227.625
3153.21246	3230.225
3155.54853	3235.725
3157.88318	3227.925
3160.21642	3227.725
3162.54826	3228.125
3164.87868	3233.125
3167.2077	3228.025
3169.5353	3217.225
3171.86151	3219.125
3174.18631	3213.225
3176.5097	3193.025
3178.83169	3200.325
3181.15228	3193.625
3183.47147	3200.125
3185.78926	3174.825
3188.10565	3167.225
3190.42065	3173.225
3192.73424	3154.325
3195.04645	3156.725
3197.35725	3158.825
3199.66667	3161.525
3201.97469	3146.325
3204.28132	3152.225
3206.58656	3150.725
3208.8904	3159.025
3211.19287	3153.825
3213.49394	3155.925
3215.79363	3166.225
3218.09193	3151.525
3220.38884	3150.125
3222.68438	3158.625
3224.97853	3131.225
3227.2713	3134.625
3229.56269	3133.925
