Data from AgNPs_UA_5uM_CRN_500uM_SU_RamanShift__175__11-58-33-174.txt Node

Date: Thu Aug 04 11:58:33 BST 2022
User: TCL
Spectrometer: QEP01345
Trigger mode: 4
Integration Time (sec): 1.000000E0
Scans to average: 10
Electric dark correction enabled: true
Nonlinearity correction enabled: false
Boxcar width: 0
XAxis mode: Raman Shifts
Number of Pixels in Spectrum: 1044
>>>>>Begin Spectral Data<<<<<
46.04893	-0.575
50.45542	-0.275
54.85868	0.525
59.25871	-0.975
63.6555	-58.275
68.04907	-38.075
72.43941	-70.775
76.82654	-55.875
81.21044	-56.775
85.59113	-49.675
89.96862	-74.775
94.34289	-54.675
98.71396	-77.275
103.08183	-57.575
107.4465	-50.175
111.80798	-57.875
116.16626	-43.475
120.52136	-73.575
124.87327	-49.575
129.222	-63.775
133.56755	-49.875
137.90993	-62.775
142.24913	-52.175
146.58517	-43.675
150.91804	-39.675
155.24774	-28.675
159.57429	-9.675
163.89768	-5.075
168.21792	38.925
172.53501	60.025
176.84895	138.025
181.15975	270.925
185.46741	414.825
189.77193	595.325
194.07331	881.025
198.37157	1164.425
202.6667	1442.225
206.9587	1764.125
211.24758	2079.325
215.53334	2394.525
219.81599	2753.225
224.09553	3148.725
228.37195	3596.925
232.64527	4043.025
236.91549	4513.325
241.18261	4872.525
245.44663	5140.625
249.70755	5322.625
253.96539	5440.425
258.22014	5541.925
262.4718	5616.725
266.72039	5648.225
270.96589	5631.125
275.20832	5527.925
279.44768	5419.725
283.68397	5294.225
287.91719	5263.525
292.14735	5285.925
296.37445	5445.225
300.59849	5712.025
304.81948	6078.325
309.03742	6411.625
313.25231	6657.325
317.46415	6600.725
321.67296	6208.025
325.87872	5833.725
330.08145	5622.025
334.28114	5591.825
338.47781	5651.825
342.67145	5798.825
346.86207	6032.525
351.04966	6381.425
355.23424	6786.325
359.4158	7069.225
363.59435	7081.125
367.76989	7032.125
371.94243	6892.225
376.11196	6776.625
380.27849	6729.125
384.44203	6637.725
388.60257	6588.525
392.76012	6599.625
396.91468	6724.025
401.06626	6891.925
405.21485	6897.525
409.36047	6759.625
413.50311	6460.025
417.64277	6138.725
421.77947	5927.725
425.9132	5882.125
430.04396	5864.425
434.17176	5907.525
438.2966	5989.425
442.41849	6096.725
446.53742	6206.525
450.6534	6309.225
454.76644	6380.325
458.87653	6403.825
462.98368	6361.925
467.08789	6306.925
471.18916	6222.225
475.2875	6105.425
479.38291	6003.925
483.4754	5916.925
487.56496	5858.725
491.6516	5836.625
495.73531	5830.125
499.81612	5858.925
503.89401	5945.925
507.96899	5990.825
512.04106	6090.725
516.11023	6176.625
520.1765	6277.225
524.23987	6306.525
528.30034	6285.725
532.35792	6218.925
536.41261	6162.925
540.46441	6080.825
544.51333	6008.425
548.55936	6074.225
552.60252	6183.425
556.64279	6297.225
560.6802	6425.625
564.71473	6558.525
568.7464	6747.125
572.7752	6725.325
576.80114	6394.625
580.82422	6173.125
584.84444	6054.625
588.86181	6044.825
592.87633	6058.525
596.888	6225.525
600.89682	6555.525
604.9028	7527.325
608.90594	9564.825
612.90624	11887.225
616.90371	11022.225
620.89834	8014.525
624.89015	6722.125
628.87913	6507.325
632.86528	6656.525
636.84862	6822.825
640.82913	6689.625
644.80683	6334.525
648.78172	6162.125
652.75379	6215.125
656.72306	6449.125
660.68952	6672.625
664.65319	6584.225
668.61405	6342.625
672.57211	6297.325
676.52738	6294.025
680.47986	6211.125
684.42955	6110.525
688.37646	6060.525
692.32058	6078.025
696.26192	6138.825
700.20048	6229.625
704.13626	6272.525
708.06928	6236.025
711.99952	6196.525
715.927	6169.625
719.85171	6204.525
723.77365	6271.825
727.69284	6238.225
731.60928	6223.025
735.52295	6217.525
739.43388	6231.225
743.34206	6247.425
747.24749	6289.825
751.15017	6303.725
755.05012	6360.525
758.94733	6737.225
762.8418	7556.825
766.73354	8853.625
770.62254	9800.625
774.50882	9873.225
778.39237	9417.225
782.27321	8504.925
786.15132	7477.925
790.02671	6799.525
793.89938	6448.725
797.76935	6338.025
801.6366	6258.525
805.50115	6198.525
809.36299	6198.025
813.22213	6183.125
817.07857	6209.425
820.93231	6203.925
824.78336	6221.625
828.63172	6239.525
832.47738	6243.025
836.32036	6249.725
840.16066	6205.325
843.99827	6210.925
847.8332	6196.225
851.66546	6224.825
855.49504	6209.025
859.32195	6242.825
863.1462	6223.225
866.96777	6241.725
870.78668	6217.225
874.60293	6239.725
878.41652	6273.125
882.22745	6336.825
886.03573	6373.025
889.84136	6350.225
893.64433	6353.725
897.44466	6349.925
901.24235	6361.625
905.0374	6353.425
908.8298	6277.725
912.61957	6259.025
916.40671	6204.125
920.19121	6255.925
923.97308	6336.025
927.75233	6397.725
931.52895	6477.725
935.30295	6447.125
939.07433	6292.825
942.84309	6173.425
946.60924	6144.725
950.37278	6105.625
954.13371	6121.325
957.89203	6111.125
961.64774	6131.825
965.40086	6114.225
969.15137	6093.425
972.89929	6133.725
976.64461	6111.425
980.38733	6115.625
984.12747	6128.025
987.86502	6147.525
991.59999	6176.625
995.33237	6251.325
999.06217	6320.125
1002.78939	6390.625
1006.51404	6510.825
1010.23611	6627.125
1013.95561	6676.125
1017.67255	6696.725
1021.38692	6671.525
1025.09872	6604.325
1028.80796	6524.025
1032.51465	6512.725
1036.21877	6494.525
1039.92035	6552.825
1043.61937	6582.725
1047.31584	6640.025
1051.00976	6676.725
1054.70114	6673.025
1058.38998	6654.025
1062.07627	6683.925
1065.76003	6700.025
1069.44126	6773.225
1073.11995	6873.225
1076.79611	6989.025
1080.46974	7130.425
1084.14085	7281.525
1087.80943	7439.925
1091.47549	7462.425
1095.13903	7385.225
1098.80005	7258.625
1102.45857	7156.425
1106.11456	7139.925
1109.76805	7063.525
1113.41903	7196.625
1117.06751	7352.325
1120.71348	7584.025
1124.35696	7972.425
1127.99793	8247.225
1131.63641	8089.825
1135.2724	7693.225
1138.90589	7390.725
1142.5369	7205.225
1146.16542	7116.325
1149.79145	7003.425
1153.415	6943.925
1157.03607	6952.325
1160.65467	7057.025
1164.27079	7236.025
1167.88443	7475.225
1171.49561	7880.325
1175.10432	8459.425
1178.71056	9357.225
1182.31434	10102.225
1185.91565	10349.025
1189.51451	10184.825
1193.11091	9978.225
1196.70485	9716.025
1200.29634	9517.525
1203.88538	9232.125
1207.47197	8818.725
1211.05612	8362.825
1214.63782	7990.625
1218.21708	7760.125
1221.79391	7611.025
1225.36829	7533.225
1228.94024	7496.625
1232.50976	7524.125
1236.07685	7540.125
1239.6415	7555.825
1243.20374	7603.125
1246.76355	7619.525
1250.32093	7712.825
1253.8759	7787.425
1257.42845	7975.125
1260.97859	8174.325
1264.52631	8382.825
1268.07163	8525.825
1271.61453	8650.125
1275.15503	8684.325
1278.69312	8693.125
1282.22882	8758.825
1285.76211	8955.225
1289.29301	9207.925
1292.82151	9473.725
1296.34761	9673.725
1299.87133	10055.725
1303.39266	10768.725
1306.9116	11839.525
1310.42815	13060.125
1313.94233	13473.425
1317.45412	12704.525
1320.96354	11593.025
1324.47058	10607.925
1327.97525	9871.125
1331.47754	9501.425
1334.97747	9397.025
1338.47502	9495.425
1341.97022	9862.625
1345.46305	10584.725
1348.95352	11614.825
1352.44163	12839.525
1355.92738	14113.725
1359.41078	15727.325
1362.89183	17191.725
1366.37053	16558.225
1369.84688	13787.225
1373.32088	11180.325
1376.79254	9855.025
1380.26186	9244.125
1383.72883	8850.125
1387.19347	8474.525
1390.65578	8122.925
1394.11575	7911.025
1397.57339	7726.425
1401.0287	7641.225
1404.48168	7616.425
1407.93234	7613.325
1411.38068	7639.425
1414.82669	7725.225
1418.27039	7806.825
1421.71177	7788.725
1425.15083	7696.425
1428.58758	7622.825
1432.02203	7659.825
1435.45416	7736.625
1438.88399	7735.825
1442.31151	7722.425
1445.73673	7797.925
1449.15965	7851.825
1452.58027	7855.125
1455.9986	7854.825
1459.41463	7843.225
1462.82837	7951.725
1466.23982	8146.225
1469.64898	8326.325
1473.05586	8468.925
1476.46045	8564.825
1479.86276	8631.725
1483.26279	8722.525
1486.66054	8920.025
1490.05602	9164.925
1493.44922	9699.425
1496.84016	10522.725
1500.22882	11859.525
1503.61521	13500.925
1506.99934	15233.625
1510.38121	16426.225
1513.76081	16306.425
1517.13816	14791.525
1520.51324	12747.125
1523.88607	11067.525
1527.25665	10081.525
1530.62498	9585.125
1533.99105	9397.825
1537.35488	9271.525
1540.71647	9184.625
1544.07581	9068.625
1547.4329	8954.725
1550.78776	8847.825
1554.14038	8761.825
1557.49077	8745.725
1560.83892	8833.025
1564.18484	9037.425
1567.52853	9341.725
1570.86999	9673.225
1574.20922	9800.225
1577.54624	9684.525
1580.88103	9190.925
1584.2136	8564.125
1587.54395	8208.025
1590.87208	8137.225
1594.19801	8291.925
1597.52172	8656.625
1600.84321	8804.125
1604.16251	8670.225
1607.47959	8474.925
1610.79447	8307.525
1614.10715	8016.125
1617.41763	7721.225
1620.7259	7463.125
1624.03199	7307.525
1627.33587	7230.325
1630.63757	7290.225
1633.93707	7525.525
1637.23439	7918.425
1640.52951	8591.125
1643.82246	9552.025
1647.11321	10650.425
1650.40179	11373.825
1653.68819	11031.925
1656.97241	9822.025
1660.25446	8464.525
1663.53433	7509.425
1666.81203	6901.625
1670.08756	6581.025
1673.36092	6418.025
1676.63211	6287.025
1679.90115	6189.325
1683.16801	6101.625
1686.43272	6016.825
1689.69527	5963.225
1692.95567	5915.825
1696.2139	5890.025
1699.46999	5832.825
1702.72392	5840.025
1705.97571	5847.325
1709.22535	5821.325
1712.47284	5856.425
1715.71819	5874.625
1718.96139	5878.625
1722.20246	5846.925
1725.44139	5827.725
1728.67818	5807.525
1731.91284	5747.625
1735.14537	5725.725
1738.37576	5691.025
1741.60403	5664.925
1744.83017	5646.125
1748.05418	5652.425
1751.27607	5648.025
1754.49584	5619.025
1757.71349	5571.625
1760.92903	5585.325
1764.14244	5532.925
1767.35375	5547.725
1770.56294	5518.925
1773.77002	5527.125
1776.97499	5533.725
1780.17785	5513.025
1783.37861	5484.525
1786.57727	5492.025
1789.77382	5435.925
1792.96828	5469.125
1796.16064	5487.925
1799.3509	5469.125
1802.53907	5469.125
1805.72514	5435.125
1808.90913	5392.625
1812.09102	5418.025
1815.27083	5407.925
1818.44856	5368.625
1821.6242	5390.025
1824.79776	5364.025
1827.96924	5343.025
1831.13864	5336.525
1834.30597	5338.625
1837.47122	5307.425
1840.6344	5303.025
1843.7955	5279.925
1846.95454	5263.425
1850.11151	5304.825
1853.26642	5250.525
1856.41926	5287.225
1859.57004	5265.325
1862.71876	5257.425
1865.86542	5276.625
1869.01003	5253.325
1872.15258	5232.925
1875.29308	5239.125
1878.43152	5254.025
1881.56792	5232.625
1884.70227	5194.025
1887.83457	5208.925
1890.96482	5176.425
1894.09304	5198.525
1897.21921	5193.425
1900.34335	5190.725
1903.46544	5152.225
1906.58551	5183.925
1909.70353	5168.525
1912.81953	5181.425
1915.93349	5143.925
1919.04543	5137.625
1922.15534	5123.225
1925.26322	5122.925
1928.36908	5102.425
1931.47292	5088.225
1934.57473	5092.525
1937.67453	5077.525
1940.77232	5053.425
1943.86808	5032.925
1946.96184	5044.725
1950.05358	5002.125
1953.14331	4988.825
1956.23103	4994.325
1959.31675	4965.525
1962.40046	4923.325
1965.48217	4945.625
1968.56188	4936.225
1971.63959	4905.725
1974.7153	4904.725
1977.78901	4897.125
1980.86073	4876.825
1983.93046	4837.625
1986.99819	4767.725
1990.06394	4785.225
1993.1277	4794.325
1996.18947	4775.125
1999.24925	4748.825
2002.30706	4762.325
2005.36288	4737.625
2008.41672	4720.325
2011.46859	4690.225
2014.51848	4691.925
2017.56639	4658.325
2020.61233	4639.625
2023.6563	4648.725
2026.6983	4592.125
2029.73833	4593.925
2032.7764	4619.425
2035.8125	4562.125
2038.84664	4571.025
2041.87881	4556.325
2044.90903	4555.925
2047.93729	4531.525
2050.96359	4518.125
2053.98794	4544.625
2057.01034	4536.025
2060.03078	4518.625
2063.04927	4494.425
2066.06582	4506.825
2069.08042	4479.525
2072.09307	4501.225
2075.10378	4499.925
2078.11255	4484.725
2081.11938	4484.025
2084.12426	4458.025
2087.12722	4470.125
2090.12824	4472.725
2093.12732	4472.825
2096.12447	4480.025
2099.11969	4461.625
2102.11299	4452.225
2105.10435	4480.825
2108.09379	4478.625
2111.08131	4452.225
2114.0669	4483.525
2117.05057	4465.625
2120.03233	4462.725
2123.01216	4475.225
2125.99008	4468.525
2128.96609	4486.225
2131.94018	4482.325
2134.91236	4485.325
2137.88263	4471.125
2140.851	4495.325
2143.81746	4486.025
2146.78201	4490.025
2149.74466	4478.525
2152.7054	4478.725
2155.66425	4465.625
2158.6212	4458.725
2161.57625	4444.225
2164.52941	4424.725
2167.48067	4439.225
2170.43004	4432.925
2173.37752	4457.525
2176.32311	4448.825
2179.26681	4441.625
2182.20863	4455.925
2185.14856	4452.425
2188.08661	4440.325
2191.02278	4430.625
2193.95707	4419.425
2196.88948	4420.425
2199.82001	4434.425
2202.74867	4400.425
2205.67545	4403.225
2208.60037	4408.325
2211.52341	4393.525
2214.44458	4378.225
2217.36388	4365.225
2220.28132	4353.225
2223.1969	4327.325
2226.11061	4339.725
2229.02246	4321.925
2231.93245	4328.525
2234.84058	4312.925
2237.74686	4293.425
2240.65128	4286.525
2243.55385	4282.525
2246.45456	4249.825
2249.35343	4280.125
2252.25044	4268.625
2255.14561	4269.725
2258.03893	4261.425
2260.93041	4253.125
2263.82004	4246.225
2266.70783	4245.925
2269.59378	4213.325
2272.4779	4196.125
2275.36017	4190.225
2278.24061	4195.925
2281.11922	4157.825
2283.996	4180.625
2286.87094	4163.525
2289.74405	4155.625
2292.61534	4149.525
2295.4848	4137.625
2298.35243	4137.725
2301.21824	4120.325
2304.08223	4119.325
2306.94439	4122.325
2309.80474	4123.325
2312.66327	4122.125
2315.51999	4099.525
2318.37489	4090.825
2321.22797	4080.725
2324.07925	4070.525
2326.92871	4058.325
2329.77637	4050.825
2332.62222	4042.125
2335.46626	4018.025
2338.3085	4015.025
2341.14893	4040.425
2343.98756	4041.125
2346.8244	4024.625
2349.65943	4007.825
2352.49267	4022.225
2355.32411	4013.525
2358.15376	4016.825
2360.98161	4020.225
2363.80768	3988.525
2366.63195	4001.125
2369.45444	4005.925
2372.27514	4014.325
2375.09405	4015.425
2377.91118	3967.525
2380.72652	3973.225
2383.54009	3966.425
2386.35187	3976.425
2389.16188	3948.525
2391.97011	3932.725
2394.77657	3935.725
2397.58125	3944.625
2400.38416	3910.025
2403.18529	3893.625
2405.98466	3882.225
2408.78226	3885.625
2411.57809	3875.125
2414.37216	3865.325
2417.16446	3860.325
2419.955	3846.425
2422.74378	3863.525
2425.5308	3832.025
2428.31606	3846.025
2431.09956	3854.125
2433.88131	3829.825
2436.6613	3842.225
2439.43954	3835.725
2442.21603	3816.525
2444.99077	3812.225
2447.76377	3814.925
2450.53501	3798.825
2453.30451	3793.625
2456.07226	3810.725
2458.83827	3789.425
2461.60254	3751.025
2464.36507	3785.725
2467.12586	3763.925
2469.88492	3774.225
2472.64224	3779.425
2475.39782	3748.225
2478.15167	3760.225
2480.90379	3757.125
2483.65417	3760.925
2486.40283	3776.325
2489.14976	3765.025
2491.89497	3775.225
2494.63845	3774.725
2497.3802	3744.625
2500.12024	3734.525
2502.85855	3736.925
2505.59514	3740.425
2508.33002	3738.025
2511.06318	3709.725
2513.79462	3713.025
2516.52435	3659.925
2519.25237	3660.425
2521.97867	3658.025
2524.70327	3669.225
2527.42616	3655.725
2530.14734	3677.125
2532.86681	3656.025
2535.58458	3637.725
2538.30065	3645.925
2541.01501	3654.725
2543.72768	3616.725
2546.43864	3624.025
2549.14791	3598.625
2551.85548	3599.325
2554.56136	3592.825
2557.26554	3606.125
2559.96803	3596.825
2562.66883	3604.225
2565.36794	3568.325
2568.06536	3539.025
2570.7611	3558.825
2573.45514	3535.625
2576.14751	3543.425
2578.83819	3524.825
2581.52719	3515.125
2584.21451	3519.125
2586.90015	3513.125
2589.58411	3490.625
2592.2664	3490.625
2594.94701	3484.825
2597.62594	3493.225
2600.30321	3427.225
2602.9788	3434.525
2605.65273	3434.425
2608.32498	3452.625
2610.99557	3451.125
2613.66449	3411.125
2616.33175	3423.725
2618.99734	3438.225
2621.66128	3433.125
2624.32355	3407.525
2626.98416	3398.625
2629.64311	3401.625
2632.30041	3387.325
2634.95605	3379.525
2637.61004	3356.525
2640.26238	3355.025
2642.91306	3348.525
2645.56209	3371.425
2648.20948	3365.325
2650.85521	3348.925
2653.4993	3364.225
2656.14175	3344.725
2658.78255	3346.425
2661.42171	3310.025
2664.05923	3355.025
2666.6951	3370.525
2669.32934	3349.925
2671.96194	3371.825
2674.59291	3363.525
2677.22224	3359.025
2679.84993	3348.125
2682.476	3331.325
2685.10043	3337.725
2687.72324	3333.325
2690.34441	3311.525
2692.96396	3316.925
2695.58188	3340.225
2698.19818	3328.925
2700.81285	3333.425
2703.4259	3312.625
2706.03733	3286.125
2708.64714	3276.725
2711.25533	3296.925
2713.86191	3309.925
2716.46687	3325.725
2719.07021	3303.025
2721.67194	3301.425
2724.27206	3324.325
2726.87057	3302.925
2729.46747	3285.225
2732.06276	3308.525
2734.65644	3296.225
2737.24852	3287.825
2739.83899	3261.025
2742.42786	3271.925
2745.01513	3283.825
2747.60079	3261.625
2750.18486	3239.325
2752.76733	3259.725
2755.3482	3245.625
2757.92747	3255.725
2760.50515	3210.225
2763.08123	3222.925
2765.65573	3215.025
2768.22863	3201.825
2770.79994	3197.825
2773.36967	3197.225
2775.9378	3181.125
2778.50435	3176.425
2781.06932	3179.925
2783.6327	3165.625
2786.1945	3194.325
2788.75471	3168.925
2791.31335	3176.625
2793.87041	3157.925
2796.42589	3139.725
2798.97979	3131.025
2801.53212	3130.125
2804.08288	3147.625
2806.63206	3116.225
2809.17967	3112.125
2811.72571	3124.225
2814.27018	3113.425
2816.81308	3104.725
2819.35442	3058.825
2821.89419	3100.425
2824.43239	3063.925
2826.96904	3100.525
2829.50412	3071.625
2832.03763	3065.225
2834.56959	3071.825
2837.1	3059.625
2839.62884	3064.625
2842.15613	3046.825
2844.68186	3061.425
2847.20604	3030.325
2849.72867	3027.225
2852.24974	3036.825
2854.76927	3001.725
2857.28724	2960.725
2859.80367	3025.325
2862.31855	3021.525
2864.83189	3000.225
2867.34368	3020.625
2869.85393	3036.625
2872.36264	2987.725
2874.8698	3005.025
2877.37543	2999.925
2879.87952	2998.325
2882.38207	2982.125
2884.88308	2975.325
2887.38256	2981.325
2889.88051	2973.625
2892.37692	2975.825
2894.8718	2958.925
2897.36515	2984.625
2899.85698	2978.525
2902.34727	2960.025
2904.83604	2966.225
2907.32328	2984.525
2909.809	2971.125
2912.29319	2976.025
2914.77587	2979.925
2917.25702	2982.125
2919.73665	2999.325
2922.21476	2995.425
2924.69136	3002.025
2927.16644	2978.125
2929.64	2972.225
2932.11205	2964.025
2934.58258	2967.625
2937.05161	2935.825
2939.51912	2960.425
2941.98513	2975.225
2944.44962	2946.825
2946.91261	2906.425
2949.37409	2924.625
2951.83407	2916.225
2954.29254	2927.425
2956.74951	2909.225
2959.20498	2903.725
2961.65895	2911.025
2964.11142	2898.725
2966.56239	2883.025
2969.01186	2888.225
2971.45984	2880.525
2973.90632	2876.925
2976.35131	2883.425
2978.7948	2869.725
2981.23681	2866.725
2983.67732	2865.225
2986.11635	2864.325
2988.55388	2830.825
2990.98993	2840.925
2993.4245	2818.925
2995.85758	2816.525
2998.28917	2818.025
3000.71928	2802.025
3003.14791	2797.825
3005.57506	2786.825
3008.00073	2764.125
3010.42493	2716.125
3012.84764	2765.425
3015.26888	2751.925
3017.68865	2762.625
3020.10694	2705.025
3022.52376	2730.225
3024.9391	2727.125
3027.35298	2722.425
3029.76539	2714.125
3032.17632	2693.125
3034.5858	2696.325
3036.9938	2705.625
3039.40034	2687.025
3041.80542	2691.125
3044.20903	2670.825
3046.61118	2662.925
3049.01187	2672.625
3051.4111	2645.525
3053.80888	2639.625
3056.20519	2634.425
3058.60005	2620.025
3060.99345	2638.125
3063.3854	2626.425
3065.7759	2603.825
3068.16494	2591.525
3070.55254	2587.225
3072.93868	2605.225
3075.32338	2592.325
3077.70662	2573.525
3080.08842	2560.425
3082.46878	2556.125
3084.84769	2571.725
3087.22515	2546.825
3089.60118	2563.525
3091.97576	2549.325
3094.3489	2558.825
3096.72061	2542.725
3099.09087	2528.025
3101.4597	2535.425
3103.82709	2536.225
3106.19305	2518.725
3108.55757	2540.925
3110.92066	2517.125
3113.28232	2525.025
3115.64255	2519.325
3118.00134	2519.125
3120.35871	2491.525
3122.71466	2475.125
3125.06917	2486.125
3127.42226	2478.825
3129.77393	2454.425
3132.12417	2464.225
3134.47299	2476.925
3136.82039	2457.425
3139.16636	2430.725
3141.51092	2443.025
3143.85406	2454.425
3146.19579	2441.525
3148.53609	2421.525
3150.87499	2444.125
3153.21246	2422.225
3155.54853	2419.225
3157.88318	2431.125
3160.21642	2446.125
3162.54826	2435.325
3164.87868	2430.225
3167.2077	2388.325
3169.5353	2416.425
3171.86151	2424.925
3174.18631	2410.125
3176.5097	2396.525
3178.83169	2405.425
3181.15228	2404.625
3183.47147	2374.825
3185.78926	2373.125
3188.10565	2381.725
3190.42065	2352.225
3192.73424	2372.325
3195.04645	2354.525
3197.35725	2344.325
3199.66667	2346.825
3201.97469	2343.825
3204.28132	2337.825
3206.58656	2351.425
3208.8904	2357.525
3211.19287	2344.425
3213.49394	2354.925
3215.79363	2329.925
3218.09193	2347.525
3220.38884	2335.125
3222.68438	2332.625
3224.97853	2315.325
3227.2713	2331.925
3229.56269	2311.925
3231.8527	2308.825
3234.14133	2293.225
