Data from AgNPs_UA_10uM_CRN_500uM_SU_RamanShift__38__13-11-40-261.txt Node

Date: Thu Aug 04 13:11:40 BST 2022
User: TCL
Spectrometer: QEP01345
Trigger mode: 4
Integration Time (sec): 1.000000E0
Scans to average: 10
Electric dark correction enabled: true
Nonlinearity correction enabled: false
Boxcar width: 0
XAxis mode: Raman Shifts
Number of Pixels in Spectrum: 1044
>>>>>Begin Spectral Data<<<<<
46.04893	0.5625
50.45542	-1.2375
54.85868	0.1625
59.25871	0.9625
63.6555	18.5625
68.04907	19.8625
72.43941	17.0625
76.82654	18.0625
81.21044	19.7625
85.59113	21.9625
89.96862	20.5625
94.34289	21.0625
98.71396	22.0625
103.08183	25.0625
107.4465	23.3625
111.80798	23.7625
116.16626	25.8625
120.52136	27.5625
124.87327	27.9625
129.222	29.5625
133.56755	31.7625
137.90993	31.9625
142.24913	35.1625
146.58517	42.1625
150.91804	46.2625
155.24774	59.8625
159.57429	72.4625
163.89768	90.5625
168.21792	124.1625
172.53501	168.8625
176.84895	237.1625
181.15975	337.3625
185.46741	475.3625
189.77193	656.9625
194.07331	880.2625
198.37157	1141.1625
202.6667	1406.9625
206.9587	1683.4625
211.24758	1944.0625
215.53334	2214.4625
219.81599	2479.6625
224.09553	2789.6625
228.37195	3130.8625
232.64527	3500.0625
236.91549	3897.5625
241.18261	4271.7625
245.44663	4615.7625
249.70755	4932.9625
253.96539	5206.2625
258.22014	5431.3625
262.4718	5615.3625
266.72039	5706.8625
270.96589	5745.0625
275.20832	5747.8625
279.44768	5689.0625
283.68397	5615.9625
287.91719	5541.6625
292.14735	5513.7625
296.37445	5507.0625
300.59849	5554.9625
304.81948	5620.1625
309.03742	5679.1625
313.25231	5710.0625
317.46415	5696.2625
321.67296	5594.2625
325.87872	5543.0625
330.08145	5515.1625
334.28114	5542.0625
338.47781	5611.3625
342.67145	5687.1625
346.86207	5783.0625
351.04966	5937.7625
355.23424	6086.4625
359.4158	6191.3625
363.59435	6293.2625
367.76989	6326.4625
371.94243	6393.5625
376.11196	6407.9625
380.27849	6453.6625
384.44203	6499.8625
388.60257	6559.0625
392.76012	6631.0625
396.91468	6696.8625
401.06626	6796.3625
405.21485	6830.4625
409.36047	6841.1625
413.50311	6774.1625
417.64277	6687.8625
421.77947	6666.5625
425.9132	6667.5625
430.04396	6679.2625
434.17176	6707.8625
438.2966	6763.3625
442.41849	6846.0625
446.53742	6951.7625
450.6534	7044.3625
454.76644	7126.8625
458.87653	7178.1625
462.98368	7220.0625
467.08789	7209.2625
471.18916	7169.1625
475.2875	7106.4625
479.38291	7072.3625
483.4754	7024.3625
487.56496	6996.5625
491.6516	7036.0625
495.73531	7013.2625
499.81612	7036.8625
503.89401	7100.1625
507.96899	7141.8625
512.04106	7146.5625
516.11023	7197.6625
520.1765	7200.2625
524.23987	7237.4625
528.30034	7254.4625
532.35792	7256.2625
536.41261	7250.3625
540.46441	7210.4625
544.51333	7217.3625
548.55936	7268.6625
552.60252	7314.3625
556.64279	7376.7625
560.6802	7442.3625
564.71473	7497.6625
568.7464	7518.9625
572.7752	7511.4625
576.80114	7456.7625
580.82422	7400.6625
584.84444	7426.7625
588.86181	7434.9625
592.87633	7468.9625
596.888	7546.7625
600.89682	7743.9625
604.9028	8156.7625
608.90594	8905.2625
612.90624	9614.8625
616.90371	9227.9625
620.89834	8202.4625
624.89015	7798.9625
628.87913	7776.4625
632.86528	7872.6625
636.84862	7921.3625
640.82913	7866.1625
644.80683	7757.1625
648.78172	7689.7625
652.75379	7728.7625
656.72306	7825.3625
660.68952	7943.4625
664.65319	7954.2625
668.61405	7929.4625
672.57211	7975.2625
676.52738	8003.8625
680.47986	7948.4625
684.42955	7890.5625
688.37646	7853.3625
692.32058	7925.8625
696.26192	7999.4625
700.20048	8092.4625
704.13626	8135.1625
708.06928	8059.5625
711.99952	8038.7625
715.927	8046.7625
719.85171	8090.3625
723.77365	8086.1625
727.69284	8089.2625
731.60928	8060.7625
735.52295	8086.9625
739.43388	8092.1625
743.34206	8137.8625
747.24749	8132.0625
751.15017	8182.1625
755.05012	8178.4625
758.94733	8323.3625
762.8418	8568.1625
766.73354	9013.0625
770.62254	9363.6625
774.50882	9471.5625
778.39237	9374.7625
782.27321	9120.7625
786.15132	8804.1625
790.02671	8566.8625
793.89938	8401.9625
797.76935	8323.5625
801.6366	8297.3625
805.50115	8271.7625
809.36299	8265.1625
813.22213	8277.2625
817.07857	8297.2625
820.93231	8275.9625
824.78336	8306.8625
828.63172	8321.4625
832.47738	8328.2625
836.32036	8337.8625
840.16066	8350.4625
843.99827	8339.2625
847.8332	8375.9625
851.66546	8388.9625
855.49504	8394.2625
859.32195	8430.1625
863.1462	8436.5625
866.96777	8432.1625
870.78668	8461.5625
874.60293	8483.1625
878.41652	8521.3625
882.22745	8560.8625
886.03573	8607.3625
889.84136	8611.7625
893.64433	8604.1625
897.44466	8600.2625
901.24235	8585.3625
905.0374	8571.6625
908.8298	8550.8625
912.61957	8603.9625
916.40671	8573.8625
920.19121	8577.3625
923.97308	8595.4625
927.75233	8629.3625
931.52895	8638.3625
935.30295	8639.6625
939.07433	8580.2625
942.84309	8563.9625
946.60924	8553.0625
950.37278	8538.3625
954.13371	8542.7625
957.89203	8556.3625
961.64774	8553.2625
965.40086	8553.0625
969.15137	8522.5625
972.89929	8539.0625
976.64461	8530.2625
980.38733	8549.6625
984.12747	8566.3625
987.86502	8585.8625
991.59999	8592.8625
995.33237	8616.5625
999.06217	8672.9625
1002.78939	8736.5625
1006.51404	8810.0625
1010.23611	8874.9625
1013.95561	8944.6625
1017.67255	8967.2625
1021.38692	8952.0625
1025.09872	8908.9625
1028.80796	8899.7625
1032.51465	8872.8625
1036.21877	8884.9625
1039.92035	8910.0625
1043.61937	8902.3625
1047.31584	8955.7625
1051.00976	8957.1625
1054.70114	9004.2625
1058.38998	9007.6625
1062.07627	9043.7625
1065.76003	9093.1625
1069.44126	9138.8625
1073.11995	9256.2625
1076.79611	9360.4625
1080.46974	9419.3625
1084.14085	9424.6625
1087.80943	9454.4625
1091.47549	9482.6625
1095.13903	9514.8625
1098.80005	9555.5625
1102.45857	9621.0625
1106.11456	9617.5625
1109.76805	9503.3625
1113.41903	9461.8625
1117.06751	9471.6625
1120.71348	9527.5625
1124.35696	9586.4625
1127.99793	9623.0625
1131.63641	9573.2625
1135.2724	9472.2625
1138.90589	9391.7625
1142.5369	9317.5625
1146.16542	9297.5625
1149.79145	9246.8625
1153.415	9217.9625
1157.03607	9193.9625
1160.65467	9200.6625
1164.27079	9303.4625
1167.88443	9437.8625
1171.49561	9642.1625
1175.10432	9914.2625
1178.71056	10275.2625
1182.31434	10595.5625
1185.91565	10747.2625
1189.51451	10808.1625
1193.11091	10783.8625
1196.70485	10724.6625
1200.29634	10627.3625
1203.88538	10480.2625
1207.47197	10321.6625
1211.05612	10130.1625
1214.63782	9932.8625
1218.21708	9825.1625
1221.79391	9703.1625
1225.36829	9675.7625
1228.94024	9656.3625
1232.50976	9652.9625
1236.07685	9691.7625
1239.6415	9719.4625
1243.20374	9758.8625
1246.76355	9814.4625
1250.32093	9859.1625
1253.8759	9925.0625
1257.42845	10040.4625
1260.97859	10165.8625
1264.52631	10277.0625
1268.07163	10387.8625
1271.61453	10427.3625
1275.15503	10428.5625
1278.69312	10411.2625
1282.22882	10415.9625
1285.76211	10424.2625
1289.29301	10509.3625
1292.82151	10582.3625
1296.34761	10691.5625
1299.87133	10816.1625
1303.39266	11077.5625
1306.9116	11402.7625
1310.42815	11783.9625
1313.94233	11948.2625
1317.45412	11806.1625
1320.96354	11549.8625
1324.47058	11332.7625
1327.97525	11073.2625
1331.47754	10944.3625
1334.97747	10891.3625
1338.47502	10962.6625
1341.97022	11160.3625
1345.46305	11477.7625
1348.95352	11952.7625
1352.44163	12393.8625
1355.92738	12808.9625
1359.41078	13155.9625
1362.89183	13377.4625
1366.37053	13011.2625
1369.84688	12085.9625
1373.32088	11187.4625
1376.79254	10678.1625
1380.26186	10434.5625
1383.72883	10272.5625
1387.19347	10096.6625
1390.65578	9916.9625
1394.11575	9782.8625
1397.57339	9678.8625
1401.0287	9624.8625
1404.48168	9633.9625
1407.93234	9646.0625
1411.38068	9713.3625
1414.82669	9765.9625
1418.27039	9754.1625
1421.71177	9744.1625
1425.15083	9682.0625
1428.58758	9645.3625
1432.02203	9628.5625
1435.45416	9611.6625
1438.88399	9622.9625
1442.31151	9614.4625
1445.73673	9632.6625
1449.15965	9635.9625
1452.58027	9633.7625
1455.9986	9653.0625
1459.41463	9642.9625
1462.82837	9706.3625
1466.23982	9806.5625
1469.64898	9917.7625
1473.05586	10011.2625
1476.46045	10066.6625
1479.86276	10135.0625
1483.26279	10204.7625
1486.66054	10278.0625
1490.05602	10412.5625
1493.44922	10583.5625
1496.84016	10878.5625
1500.22882	11312.3625
1503.61521	11817.7625
1506.99934	12266.7625
1510.38121	12456.4625
1513.76081	12322.0625
1517.13816	11861.4625
1520.51324	11305.0625
1523.88607	10862.1625
1527.25665	10576.6625
1530.62498	10425.4625
1533.99105	10394.9625
1537.35488	10367.3625
1540.71647	10336.9625
1544.07581	10324.0625
1547.4329	10274.6625
1550.78776	10204.2625
1554.14038	10160.4625
1557.49077	10121.4625
1560.83892	10145.1625
1564.18484	10267.4625
1567.52853	10325.7625
1570.86999	10411.7625
1574.20922	10450.7625
1577.54624	10433.5625
1580.88103	10256.6625
1584.2136	10049.3625
1587.54395	9924.2625
1590.87208	9964.7625
1594.19801	10084.4625
1597.52172	10263.6625
1600.84321	10332.9625
1604.16251	10324.4625
1607.47959	10248.6625
1610.79447	10114.8625
1614.10715	9902.1625
1617.41763	9678.7625
1620.7259	9482.7625
1624.03199	9388.5625
1627.33587	9353.9625
1630.63757	9358.0625
1633.93707	9466.4625
1637.23439	9701.8625
1640.52951	10028.5625
1643.82246	10465.7625
1647.11321	10884.6625
1650.40179	11042.8625
1653.68819	10781.3625
1656.97241	10252.5625
1660.25446	9693.5625
1663.53433	9299.3625
1666.81203	9055.8625
1670.08756	8912.6625
1673.36092	8829.1625
1676.63211	8771.1625
1679.90115	8708.5625
1683.16801	8652.7625
1686.43272	8608.9625
1689.69527	8582.1625
1692.95567	8549.7625
1696.2139	8561.2625
1699.46999	8521.4625
1702.72392	8515.1625
1705.97571	8526.7625
1709.22535	8520.0625
1712.47284	8492.5625
1715.71819	8512.2625
1718.96139	8521.9625
1722.20246	8499.0625
1725.44139	8491.6625
1728.67818	8451.8625
1731.91284	8450.8625
1735.14537	8422.2625
1738.37576	8418.8625
1741.60403	8387.9625
1744.83017	8369.7625
1748.05418	8381.6625
1751.27607	8370.8625
1754.49584	8364.6625
1757.71349	8348.8625
1760.92903	8351.8625
1764.14244	8328.8625
1767.35375	8319.4625
1770.56294	8322.4625
1773.77002	8317.9625
1776.97499	8283.1625
1780.17785	8253.0625
1783.37861	8252.9625
1786.57727	8247.8625
1789.77382	8266.9625
1792.96828	8247.1625
1796.16064	8231.8625
1799.3509	8230.6625
1802.53907	8207.5625
1805.72514	8189.8625
1808.90913	8181.8625
1812.09102	8179.4625
1815.27083	8151.8625
1818.44856	8137.1625
1821.6242	8112.0625
1824.79776	8107.7625
1827.96924	8088.3625
1831.13864	8104.2625
1834.30597	8092.8625
1837.47122	8090.1625
1840.6344	8066.7625
1843.7955	8075.2625
1846.95454	8058.5625
1850.11151	8080.7625
1853.26642	8053.9625
1856.41926	8053.5625
1859.57004	8058.2625
1862.71876	8077.3625
1865.86542	8055.5625
1869.01003	8033.9625
1872.15258	8023.7625
1875.29308	8024.7625
1878.43152	8022.5625
1881.56792	8002.3625
1884.70227	7995.8625
1887.83457	7956.7625
1890.96482	7930.8625
1894.09304	7944.2625
1897.21921	7919.5625
1900.34335	7908.1625
1903.46544	7917.7625
1906.58551	7917.7625
1909.70353	7910.8625
1912.81953	7914.9625
1915.93349	7883.6625
1919.04543	7866.2625
1922.15534	7868.6625
1925.26322	7870.1625
1928.36908	7846.6625
1931.47292	7820.0625
1934.57473	7819.4625
1937.67453	7808.1625
1940.77232	7793.6625
1943.86808	7764.8625
1946.96184	7742.0625
1950.05358	7717.0625
1953.14331	7697.9625
1956.23103	7674.6625
1959.31675	7645.9625
1962.40046	7625.3625
1965.48217	7605.0625
1968.56188	7571.8625
1971.63959	7562.4625
1974.7153	7545.7625
1977.78901	7560.4625
1980.86073	7528.5625
1983.93046	7487.7625
1986.99819	7465.0625
1990.06394	7441.6625
1993.1277	7435.2625
1996.18947	7404.2625
1999.24925	7397.4625
2002.30706	7347.4625
2005.36288	7341.2625
2008.41672	7283.5625
2011.46859	7288.8625
2014.51848	7279.4625
2017.56639	7270.7625
2020.61233	7241.2625
2023.6563	7219.1625
2026.6983	7175.3625
2029.73833	7178.1625
2032.7764	7149.5625
2035.8125	7129.2625
2038.84664	7125.9625
2041.87881	7095.5625
2044.90903	7102.3625
2047.93729	7079.8625
2050.96359	7063.4625
2053.98794	7052.3625
2057.01034	7052.9625
2060.03078	7066.9625
2063.04927	7040.6625
2066.06582	7046.3625
2069.08042	7025.4625
2072.09307	7028.0625
2075.10378	7023.3625
2078.11255	7029.1625
2081.11938	7003.0625
2084.12426	7001.5625
2087.12722	6988.7625
2090.12824	6998.5625
2093.12732	6996.7625
2096.12447	7008.1625
2099.11969	7013.8625
2102.11299	7019.8625
2105.10435	7023.2625
2108.09379	6990.1625
2111.08131	7012.7625
2114.0669	7011.2625
2117.05057	7017.5625
2120.03233	7036.2625
2123.01216	7021.1625
2125.99008	7030.5625
2128.96609	7036.8625
2131.94018	7043.6625
2134.91236	7033.0625
2137.88263	7048.3625
2140.851	7038.6625
2143.81746	7043.9625
2146.78201	7039.7625
2149.74466	7046.0625
2152.7054	7042.3625
2155.66425	7038.0625
2158.6212	7039.5625
2161.57625	7026.5625
2164.52941	7038.1625
2167.48067	7026.1625
2170.43004	7009.3625
2173.37752	7037.1625
2176.32311	7025.9625
2179.26681	7028.5625
2182.20863	7039.0625
2185.14856	7028.1625
2188.08661	7020.7625
2191.02278	7022.8625
2193.95707	7035.5625
2196.88948	7028.7625
2199.82001	6986.5625
2202.74867	6997.3625
2205.67545	6983.3625
2208.60037	6996.3625
2211.52341	6986.8625
2214.44458	6947.0625
2217.36388	6924.7625
2220.28132	6915.9625
2223.1969	6897.5625
2226.11061	6879.5625
2229.02246	6869.3625
2231.93245	6862.9625
2234.84058	6842.6625
2237.74686	6842.3625
2240.65128	6832.8625
2243.55385	6820.7625
2246.45456	6806.3625
2249.35343	6804.1625
2252.25044	6791.8625
2255.14561	6790.8625
2258.03893	6776.6625
2260.93041	6747.5625
2263.82004	6740.0625
2266.70783	6727.3625
2269.59378	6717.8625
2272.4779	6685.1625
2275.36017	6656.5625
2278.24061	6684.4625
2281.11922	6643.4625
2283.996	6625.5625
2286.87094	6619.0625
2289.74405	6626.2625
2292.61534	6604.7625
2295.4848	6602.1625
2298.35243	6605.1625
2301.21824	6580.8625
2304.08223	6560.6625
2306.94439	6577.2625
2309.80474	6553.6625
2312.66327	6571.3625
2315.51999	6557.1625
2318.37489	6552.6625
2321.22797	6518.3625
2324.07925	6509.6625
2326.92871	6504.2625
2329.77637	6490.4625
2332.62222	6482.1625
2335.46626	6470.4625
2338.3085	6443.4625
2341.14893	6439.8625
2343.98756	6449.3625
2346.8244	6430.9625
2349.65943	6412.4625
2352.49267	6408.7625
2355.32411	6379.3625
2358.15376	6400.5625
2360.98161	6405.8625
2363.80768	6391.6625
2366.63195	6380.6625
2369.45444	6383.8625
2372.27514	6376.6625
2375.09405	6373.1625
2377.91118	6346.3625
2380.72652	6342.6625
2383.54009	6319.1625
2386.35187	6322.4625
2389.16188	6296.9625
2391.97011	6296.0625
2394.77657	6272.3625
2397.58125	6255.3625
2400.38416	6248.2625
2403.18529	6251.9625
2405.98466	6239.5625
2408.78226	6222.9625
2411.57809	6225.6625
2414.37216	6214.0625
2417.16446	6196.7625
2419.955	6188.3625
2422.74378	6181.6625
2425.5308	6172.4625
2428.31606	6170.8625
2431.09956	6156.9625
2433.88131	6148.1625
2436.6613	6133.8625
2439.43954	6134.7625
2442.21603	6120.6625
2444.99077	6126.6625
2447.76377	6128.0625
2450.53501	6111.8625
2453.30451	6109.2625
2456.07226	6091.8625
2458.83827	6069.0625
2461.60254	6079.4625
2464.36507	6057.4625
2467.12586	6058.1625
2469.88492	6035.4625
2472.64224	6027.2625
2475.39782	6033.7625
2478.15167	6037.4625
2480.90379	6005.2625
2483.65417	5978.4625
2486.40283	6011.9625
2489.14976	6009.2625
2491.89497	6008.7625
2494.63845	6007.4625
2497.3802	5980.7625
2500.12024	5966.0625
2502.85855	5950.8625
2505.59514	5961.5625
2508.33002	5967.5625
2511.06318	5930.1625
2513.79462	5932.4625
2516.52435	5918.0625
2519.25237	5923.6625
2521.97867	5906.9625
2524.70327	5886.9625
2527.42616	5879.4625
2530.14734	5863.1625
2532.86681	5846.0625
2535.58458	5878.6625
2538.30065	5853.0625
2541.01501	5851.1625
2543.72768	5835.8625
2546.43864	5826.0625
2549.14791	5813.1625
2551.85548	5804.3625
2554.56136	5799.9625
2557.26554	5774.5625
2559.96803	5766.4625
2562.66883	5764.9625
2565.36794	5738.2625
2568.06536	5721.6625
2570.7611	5701.7625
2573.45514	5686.1625
2576.14751	5701.3625
2578.83819	5669.2625
2581.52719	5668.3625
2584.21451	5670.5625
2586.90015	5668.5625
2589.58411	5630.6625
2592.2664	5630.1625
2594.94701	5612.9625
2597.62594	5615.6625
2600.30321	5602.0625
2602.9788	5605.7625
2605.65273	5570.7625
2608.32498	5580.8625
2610.99557	5538.5625
2613.66449	5547.6625
2616.33175	5530.3625
2618.99734	5528.1625
2621.66128	5521.8625
2624.32355	5492.6625
2626.98416	5491.2625
2629.64311	5478.0625
2632.30041	5466.7625
2634.95605	5466.4625
2637.61004	5452.9625
2640.26238	5437.0625
2642.91306	5426.1625
2645.56209	5422.0625
2648.20948	5407.2625
2650.85521	5435.2625
2653.4993	5417.6625
2656.14175	5392.2625
2658.78255	5383.2625
2661.42171	5390.2625
2664.05923	5391.0625
2666.6951	5400.0625
2669.32934	5412.8625
2671.96194	5388.4625
2674.59291	5413.4625
2677.22224	5401.0625
2679.84993	5415.0625
2682.476	5396.6625
2685.10043	5388.0625
2687.72324	5401.6625
2690.34441	5391.0625
2692.96396	5369.7625
2695.58188	5380.1625
2698.19818	5378.7625
2700.81285	5368.1625
2703.4259	5367.6625
2706.03733	5347.3625
2708.64714	5337.6625
2711.25533	5363.2625
2713.86191	5352.5625
2716.46687	5352.1625
2719.07021	5343.3625
2721.67194	5344.4625
2724.27206	5336.1625
2726.87057	5361.9625
2729.46747	5342.6625
2732.06276	5339.0625
2734.65644	5333.3625
2737.24852	5328.3625
2739.83899	5300.5625
2742.42786	5314.2625
2745.01513	5280.6625
2747.60079	5278.4625
2750.18486	5276.0625
2752.76733	5275.1625
2755.3482	5264.1625
2757.92747	5259.4625
2760.50515	5243.7625
2763.08123	5246.2625
2765.65573	5212.2625
2768.22863	5218.2625
2770.79994	5209.0625
2773.36967	5180.7625
2775.9378	5178.0625
2778.50435	5165.9625
2781.06932	5162.0625
2783.6327	5176.4625
2786.1945	5158.3625
2788.75471	5163.0625
2791.31335	5123.4625
2793.87041	5114.7625
2796.42589	5112.6625
2798.97979	5104.6625
2801.53212	5086.9625
2804.08288	5062.5625
2806.63206	5056.0625
2809.17967	5063.4625
2811.72571	5053.9625
2814.27018	5024.2625
2816.81308	5021.2625
2819.35442	5006.8625
2821.89419	4996.2625
2824.43239	4983.8625
2826.96904	4972.1625
2829.50412	4967.7625
2832.03763	4939.4625
2834.56959	4940.5625
2837.1	4912.1625
2839.62884	4919.0625
2842.15613	4921.7625
2844.68186	4917.2625
2847.20604	4913.2625
2849.72867	4921.6625
2852.24974	4881.3625
2854.76927	4886.3625
2857.28724	4862.9625
2859.80367	4855.7625
2862.31855	4856.8625
2864.83189	4847.5625
2867.34368	4844.1625
2869.85393	4819.9625
2872.36264	4817.5625
2874.8698	4825.1625
2877.37543	4820.4625
2879.87952	4819.7625
2882.38207	4809.7625
2884.88308	4790.8625
2887.38256	4804.2625
2889.88051	4795.5625
2892.37692	4779.0625
2894.8718	4791.0625
2897.36515	4795.2625
2899.85698	4782.1625
2902.34727	4773.6625
2904.83604	4778.8625
2907.32328	4795.1625
2909.809	4780.7625
2912.29319	4765.6625
2914.77587	4786.0625
2917.25702	4796.4625
2919.73665	4782.3625
2922.21476	4789.9625
2924.69136	4762.3625
2927.16644	4768.3625
2929.64	4756.3625
2932.11205	4739.5625
2934.58258	4737.4625
2937.05161	4754.1625
2939.51912	4755.7625
2941.98513	4733.5625
2944.44962	4725.3625
2946.91261	4713.8625
2949.37409	4732.7625
2951.83407	4697.6625
2954.29254	4709.3625
2956.74951	4706.6625
2959.20498	4711.9625
2961.65895	4711.1625
2964.11142	4706.7625
2966.56239	4700.1625
2969.01186	4681.1625
2971.45984	4712.9625
2973.90632	4688.8625
2976.35131	4678.6625
2978.7948	4678.1625
2981.23681	4671.8625
2983.67732	4653.5625
2986.11635	4627.2625
2988.55388	4620.9625
2990.98993	4615.8625
2993.4245	4605.1625
2995.85758	4603.6625
2998.28917	4587.0625
3000.71928	4568.4625
3003.14791	4571.4625
3005.57506	4557.7625
3008.00073	4530.7625
3010.42493	4521.9625
3012.84764	4537.0625
3015.26888	4532.3625
3017.68865	4526.5625
3020.10694	4510.5625
3022.52376	4495.1625
3024.9391	4487.6625
3027.35298	4468.2625
3029.76539	4465.1625
3032.17632	4447.8625
3034.5858	4450.4625
3036.9938	4442.9625
3039.40034	4442.2625
3041.80542	4433.9625
3044.20903	4411.6625
3046.61118	4415.2625
3049.01187	4409.1625
3051.4111	4396.6625
3053.80888	4369.0625
3056.20519	4367.7625
3058.60005	4361.6625
3060.99345	4347.1625
3063.3854	4344.1625
3065.7759	4332.3625
3068.16494	4320.1625
3070.55254	4300.9625
3072.93868	4300.8625
3075.32338	4284.6625
3077.70662	4285.9625
3080.08842	4267.0625
3082.46878	4269.5625
3084.84769	4233.2625
3087.22515	4246.5625
3089.60118	4244.3625
3091.97576	4249.1625
3094.3489	4230.4625
3096.72061	4232.2625
3099.09087	4235.3625
3101.4597	4216.5625
3103.82709	4230.0625
3106.19305	4234.9625
3108.55757	4223.2625
3110.92066	4207.9625
3113.28232	4194.1625
3115.64255	4194.2625
3118.00134	4180.1625
