Data from AgNPs_UA_50uM_CRN_500uM_SU_RamanShift__53__14-04-40-324.txt Node

Date: Thu Aug 04 14:04:40 BST 2022
User: TCL
Spectrometer: QEP01345
Trigger mode: 4
Integration Time (sec): 1.000000E0
Scans to average: 10
Electric dark correction enabled: true
Nonlinearity correction enabled: false
Boxcar width: 0
XAxis mode: Raman Shifts
Number of Pixels in Spectrum: 1044
>>>>>Begin Spectral Data<<<<<
46.04893	0.825
50.45542	-1.275
54.85868	0.225
59.25871	-0.675
63.6555	20.325
68.04907	16.025
72.43941	18.325
76.82654	17.625
81.21044	20.025
85.59113	20.725
89.96862	23.325
94.34289	22.825
98.71396	23.925
103.08183	23.425
107.4465	24.625
111.80798	22.425
116.16626	24.525
120.52136	27.625
124.87327	29.525
129.222	33.825
133.56755	35.525
137.90993	36.225
142.24913	38.425
146.58517	46.725
150.91804	51.925
155.24774	66.425
159.57429	81.425
163.89768	109.425
168.21792	146.225
172.53501	204.925
176.84895	285.625
181.15975	408.225
185.46741	577.925
189.77193	801.225
194.07331	1082.825
198.37157	1401.325
202.6667	1738.025
206.9587	2070.725
211.24758	2408.525
215.53334	2750.125
219.81599	3124.725
224.09553	3561.325
228.37195	4007.825
232.64527	4512.625
236.91549	4983.425
241.18261	5389.925
245.44663	5698.825
249.70755	5957.725
253.96539	6159.425
258.22014	6368.025
262.4718	6522.025
266.72039	6643.925
270.96589	6665.025
275.20832	6623.525
279.44768	6515.625
283.68397	6401.725
287.91719	6338.225
292.14735	6348.925
296.37445	6467.225
300.59849	6720.325
304.81948	7007.125
309.03742	7329.325
313.25231	7506.325
317.46415	7417.325
321.67296	7078.925
325.87872	6701.225
330.08145	6494.925
334.28114	6494.425
338.47781	6577.325
342.67145	6719.425
346.86207	6943.025
351.04966	7268.725
355.23424	7614.925
359.4158	7804.925
363.59435	7885.225
367.76989	7868.625
371.94243	7826.525
376.11196	7773.525
380.27849	7733.025
384.44203	7711.125
388.60257	7710.525
392.76012	7769.725
396.91468	7887.525
401.06626	8001.225
405.21485	8052.825
409.36047	7866.425
413.50311	7569.925
417.64277	7271.125
421.77947	7107.025
425.9132	7008.925
430.04396	6991.425
434.17176	7025.125
438.2966	7129.025
442.41849	7266.825
446.53742	7409.525
450.6534	7554.825
454.76644	7663.325
458.87653	7692.525
462.98368	7711.725
467.08789	7621.025
471.18916	7488.525
475.2875	7297.625
479.38291	7182.625
483.4754	7069.625
487.56496	7020.425
491.6516	6991.225
495.73531	6944.125
499.81612	6980.325
503.89401	7043.225
507.96899	7090.925
512.04106	7154.225
516.11023	7219.125
520.1765	7265.925
524.23987	7294.125
528.30034	7280.825
532.35792	7241.325
536.41261	7157.525
540.46441	7066.225
544.51333	7047.525
548.55936	7087.025
552.60252	7194.625
556.64279	7333.325
560.6802	7439.525
564.71473	7549.125
568.7464	7722.525
572.7752	7685.725
576.80114	7411.825
580.82422	7178.425
584.84444	7078.225
588.86181	7069.425
592.87633	7142.125
596.888	7296.025
600.89682	7667.525
604.9028	8724.725
608.90594	10962.125
612.90624	13244.525
616.90371	12075.725
620.89834	8942.925
624.89015	7678.525
628.87913	7548.825
632.86528	7720.925
636.84862	7813.225
640.82913	7571.925
644.80683	7204.825
648.78172	7018.525
652.75379	7060.725
656.72306	7318.125
660.68952	7628.625
664.65319	7545.025
668.61405	7379.225
672.57211	7377.525
676.52738	7353.425
680.47986	7192.625
684.42955	7024.325
688.37646	6992.325
692.32058	7058.825
696.26192	7202.225
700.20048	7351.725
704.13626	7363.525
708.06928	7268.425
711.99952	7200.025
715.927	7164.525
719.85171	7222.425
723.77365	7233.625
727.69284	7182.725
731.60928	7087.625
735.52295	7069.525
739.43388	7059.625
743.34206	7138.725
747.24749	7139.925
751.15017	7135.225
755.05012	7236.825
758.94733	7558.425
762.8418	8386.325
766.73354	9579.025
770.62254	10500.125
774.50882	10652.425
778.39237	10188.225
782.27321	9321.325
786.15132	8359.825
790.02671	7679.425
793.89938	7344.425
797.76935	7191.425
801.6366	7099.025
805.50115	7048.725
809.36299	7027.325
813.22213	6996.125
817.07857	7016.425
820.93231	7000.125
824.78336	7015.825
828.63172	7052.625
832.47738	7056.525
836.32036	7031.325
840.16066	6998.525
843.99827	6994.825
847.8332	6966.225
851.66546	6978.025
855.49504	6984.525
859.32195	7004.825
863.1462	6965.725
866.96777	6971.525
870.78668	6984.525
874.60293	6976.925
878.41652	7036.125
882.22745	7080.125
886.03573	7113.425
889.84136	7104.325
893.64433	7075.625
897.44466	7061.625
901.24235	7050.425
905.0374	7020.425
908.8298	6984.925
912.61957	6949.525
916.40671	6966.825
920.19121	6995.125
923.97308	7066.925
927.75233	7169.825
931.52895	7196.025
935.30295	7140.925
939.07433	6990.625
942.84309	6885.925
946.60924	6851.225
950.37278	6840.625
954.13371	6812.425
957.89203	6816.425
961.64774	6784.225
965.40086	6780.625
969.15137	6763.025
972.89929	6750.325
976.64461	6770.825
980.38733	6767.125
984.12747	6763.425
987.86502	6785.425
991.59999	6869.225
995.33237	6916.025
999.06217	7025.425
1002.78939	7152.725
1006.51404	7294.225
1010.23611	7403.125
1013.95561	7483.525
1017.67255	7492.125
1021.38692	7439.625
1025.09872	7364.625
1028.80796	7319.425
1032.51465	7357.725
1036.21877	7380.925
1039.92035	7445.025
1043.61937	7421.625
1047.31584	7402.825
1051.00976	7386.325
1054.70114	7383.725
1058.38998	7370.825
1062.07627	7420.225
1065.76003	7456.125
1069.44126	7555.925
1073.11995	7706.325
1076.79611	7863.225
1080.46974	8008.625
1084.14085	8113.225
1087.80943	8238.525
1091.47549	8243.125
1095.13903	8175.625
1098.80005	8136.725
1102.45857	8132.125
1106.11456	8100.025
1109.76805	8003.525
1113.41903	8040.725
1117.06751	8164.125
1120.71348	8380.525
1124.35696	8640.925
1127.99793	8799.425
1131.63641	8653.225
1135.2724	8286.325
1138.90589	8022.325
1142.5369	7836.825
1146.16542	7739.025
1149.79145	7691.525
1153.415	7601.425
1157.03607	7565.325
1160.65467	7648.425
1164.27079	7814.325
1167.88443	8096.425
1171.49561	8521.325
1175.10432	9204.925
1178.71056	10093.925
1182.31434	10852.825
1185.91565	11068.625
1189.51451	10910.125
1193.11091	10554.025
1196.70485	10161.825
1200.29634	9867.325
1203.88538	9505.525
1207.47197	9088.025
1211.05612	8675.225
1214.63782	8384.625
1218.21708	8200.625
1221.79391	8079.225
1225.36829	8023.025
1228.94024	8023.025
1232.50976	8027.925
1236.07685	8003.325
1239.6415	8030.925
1243.20374	8069.825
1246.76355	8127.125
1250.32093	8207.725
1253.8759	8379.025
1257.42845	8636.925
1260.97859	8917.025
1264.52631	9202.325
1268.07163	9411.825
1271.61453	9505.625
1275.15503	9512.325
1278.69312	9550.825
1282.22882	9541.525
1285.76211	9712.525
1289.29301	9910.925
1292.82151	10130.625
1296.34761	10382.525
1299.87133	10785.225
1303.39266	11527.825
1306.9116	12584.425
1310.42815	13771.525
1313.94233	14141.125
1317.45412	13499.725
1320.96354	12485.925
1324.47058	11576.725
1327.97525	10860.325
1331.47754	10375.125
1334.97747	10260.625
1338.47502	10382.225
1341.97022	10792.925
1345.46305	11487.425
1348.95352	12490.425
1352.44163	13566.925
1355.92738	14758.325
1359.41078	16297.425
1362.89183	17456.325
1366.37053	16519.625
1369.84688	13969.325
1373.32088	11672.325
1376.79254	10396.725
1380.26186	9804.125
1383.72883	9426.925
1387.19347	9104.825
1390.65578	8745.725
1394.11575	8472.225
1397.57339	8239.825
1401.0287	8128.025
1404.48168	8105.625
1407.93234	8177.825
1411.38068	8322.325
1414.82669	8487.025
1418.27039	8566.425
1421.71177	8571.025
1425.15083	8501.525
1428.58758	8430.325
1432.02203	8500.725
1435.45416	8573.525
1438.88399	8559.525
1442.31151	8507.925
1445.73673	8497.525
1449.15965	8519.325
1452.58027	8432.125
1455.9986	8327.125
1459.41463	8323.725
1462.82837	8345.925
1466.23982	8511.225
1469.64898	8709.525
1473.05586	8832.725
1476.46045	8939.825
1479.86276	9028.425
1483.26279	9196.125
1486.66054	9416.625
1490.05602	9744.325
1493.44922	10294.825
1496.84016	11098.025
1500.22882	12304.925
1503.61521	13818.725
1506.99934	15284.725
1510.38121	16237.625
1513.76081	16064.625
1517.13816	14705.525
1520.51324	12842.825
1523.88607	11282.125
1527.25665	10324.925
1530.62498	9799.225
1533.99105	9537.225
1537.35488	9382.325
1540.71647	9284.425
1544.07581	9155.425
1547.4329	9078.825
1550.78776	8988.025
1554.14038	8946.925
1557.49077	9026.225
1560.83892	9205.125
1564.18484	9511.825
1567.52853	9820.325
1570.86999	10048.225
1574.20922	10052.625
1577.54624	9894.225
1580.88103	9379.125
1584.2136	8836.125
1587.54395	8491.125
1590.87208	8542.725
1594.19801	8890.325
1597.52172	9273.725
1600.84321	9433.625
1604.16251	9296.125
1607.47959	9071.625
1610.79447	8745.425
1614.10715	8324.225
1617.41763	7911.825
1620.7259	7589.925
1624.03199	7443.125
1627.33587	7433.825
1630.63757	7549.925
1633.93707	7872.025
1637.23439	8419.725
1640.52951	9310.725
1643.82246	10558.525
1647.11321	11837.625
1650.40179	12421.925
1653.68819	11780.925
1656.97241	10274.825
1660.25446	8756.925
1663.53433	7763.825
1666.81203	7170.425
1670.08756	6835.825
1673.36092	6611.125
1676.63211	6471.625
1679.90115	6388.425
1683.16801	6315.325
1686.43272	6251.025
1689.69527	6201.425
1692.95567	6167.025
1696.2139	6134.125
1699.46999	6117.925
1702.72392	6122.625
1705.97571	6118.925
1709.22535	6107.625
1712.47284	6123.325
1715.71819	6103.625
1718.96139	6088.025
1722.20246	6088.925
1725.44139	6067.225
1728.67818	6000.625
1731.91284	5966.625
1735.14537	5953.225
1738.37576	5931.925
1741.60403	5909.025
1744.83017	5893.725
1748.05418	5870.225
1751.27607	5871.825
1754.49584	5838.825
1757.71349	5842.025
1760.92903	5822.225
1764.14244	5789.425
1767.35375	5802.725
1770.56294	5772.625
1773.77002	5762.625
1776.97499	5732.725
1780.17785	5721.325
1783.37861	5690.725
1786.57727	5675.125
1789.77382	5676.225
1792.96828	5656.125
1796.16064	5668.925
1799.3509	5633.625
1802.53907	5645.725
1805.72514	5612.725
1808.90913	5595.225
1812.09102	5591.225
1815.27083	5581.825
1818.44856	5556.225
1821.6242	5545.925
1824.79776	5531.325
1827.96924	5533.825
1831.13864	5498.525
1834.30597	5491.625
1837.47122	5474.025
1840.6344	5462.925
1843.7955	5478.925
1846.95454	5459.625
1850.11151	5464.525
1853.26642	5467.325
1856.41926	5445.325
1859.57004	5457.725
1862.71876	5440.825
1865.86542	5424.225
1869.01003	5441.625
1872.15258	5418.425
1875.29308	5417.825
1878.43152	5412.425
1881.56792	5421.525
1884.70227	5409.325
1887.83457	5383.925
1890.96482	5365.925
1894.09304	5361.525
1897.21921	5351.625
1900.34335	5344.525
1903.46544	5324.825
1906.58551	5303.425
1909.70353	5299.625
1912.81953	5302.225
1915.93349	5301.025
1919.04543	5296.225
1922.15534	5275.725
1925.26322	5259.325
1928.36908	5260.725
1931.47292	5243.025
1934.57473	5237.825
1937.67453	5206.725
1940.77232	5188.225
1943.86808	5173.925
1946.96184	5181.825
1950.05358	5160.125
1953.14331	5145.325
1956.23103	5112.325
1959.31675	5103.325
1962.40046	5072.525
1965.48217	5075.625
1968.56188	5075.025
1971.63959	5057.525
1974.7153	5042.325
1977.78901	5023.725
1980.86073	5019.025
1983.93046	4986.925
1986.99819	4957.525
1990.06394	4953.325
1993.1277	4938.625
1996.18947	4909.625
1999.24925	4896.925
2002.30706	4889.525
2005.36288	4849.425
2008.41672	4822.225
2011.46859	4831.125
2014.51848	4806.225
2017.56639	4790.125
2020.61233	4801.925
2023.6563	4762.625
2026.6983	4745.825
2029.73833	4721.425
2032.7764	4710.525
2035.8125	4696.725
2038.84664	4700.425
2041.87881	4692.625
2044.90903	4671.525
2047.93729	4664.825
2050.96359	4654.025
2053.98794	4649.825
2057.01034	4644.925
2060.03078	4645.525
2063.04927	4654.425
2066.06582	4648.125
2069.08042	4624.425
2072.09307	4611.925
2075.10378	4595.725
2078.11255	4605.725
2081.11938	4600.725
2084.12426	4608.025
2087.12722	4599.325
2090.12824	4597.625
2093.12732	4606.525
2096.12447	4586.625
2099.11969	4592.325
2102.11299	4600.725
2105.10435	4609.125
2108.09379	4590.425
2111.08131	4600.325
2114.0669	4591.525
2117.05057	4590.425
2120.03233	4594.825
2123.01216	4587.325
2125.99008	4600.025
2128.96609	4606.425
2131.94018	4610.125
2134.91236	4606.625
2137.88263	4598.225
2140.851	4601.925
2143.81746	4588.425
2146.78201	4593.025
2149.74466	4587.425
2152.7054	4588.225
2155.66425	4576.325
2158.6212	4583.225
2161.57625	4571.325
2164.52941	4578.125
2167.48067	4578.225
2170.43004	4571.025
2173.37752	4575.625
2176.32311	4559.225
2179.26681	4565.225
2182.20863	4564.225
2185.14856	4564.025
2188.08661	4559.525
2191.02278	4557.725
2193.95707	4525.825
2196.88948	4521.625
2199.82001	4537.725
2202.74867	4517.425
2205.67545	4514.325
2208.60037	4527.025
2211.52341	4523.525
2214.44458	4522.325
2217.36388	4490.625
2220.28132	4497.325
2223.1969	4465.625
2226.11061	4459.925
2229.02246	4435.825
2231.93245	4435.125
2234.84058	4429.825
2237.74686	4421.325
2240.65128	4422.825
2243.55385	4416.225
2246.45456	4397.625
2249.35343	4395.025
2252.25044	4406.325
2255.14561	4403.725
2258.03893	4367.625
2260.93041	4377.525
2263.82004	4384.925
2266.70783	4358.725
2269.59378	4345.825
2272.4779	4339.625
2275.36017	4309.125
2278.24061	4311.425
2281.11922	4308.125
2283.996	4291.025
2286.87094	4282.925
2289.74405	4295.925
2292.61534	4271.625
2295.4848	4270.825
2298.35243	4265.125
2301.21824	4253.025
2304.08223	4244.425
2306.94439	4249.125
2309.80474	4250.225
2312.66327	4242.225
2315.51999	4240.525
2318.37489	4241.925
2321.22797	4236.525
2324.07925	4210.425
2326.92871	4210.225
2329.77637	4200.725
2332.62222	4190.725
2335.46626	4179.625
2338.3085	4174.225
2341.14893	4191.925
2343.98756	4175.125
2346.8244	4188.725
2349.65943	4165.725
2352.49267	4172.725
2355.32411	4166.625
2358.15376	4172.725
2360.98161	4176.125
2363.80768	4177.425
2366.63195	4159.125
2369.45444	4147.225
2372.27514	4150.225
2375.09405	4150.025
2377.91118	4144.025
2380.72652	4138.625
2383.54009	4109.325
2386.35187	4095.025
2389.16188	4090.125
2391.97011	4070.425
2394.77657	4079.625
2397.58125	4057.925
2400.38416	4047.225
2403.18529	4045.325
2405.98466	4032.025
2408.78226	4022.125
2411.57809	4005.025
2414.37216	4000.825
2417.16446	4005.725
2419.955	4001.825
2422.74378	4014.525
2425.5308	3983.625
2428.31606	4002.225
2431.09956	3998.525
2433.88131	3976.825
2436.6613	3991.125
2439.43954	3969.425
2442.21603	3976.825
2444.99077	3971.725
2447.76377	3963.425
2450.53501	3970.925
2453.30451	3963.625
2456.07226	3974.825
2458.83827	3956.125
2461.60254	3959.525
2464.36507	3939.825
2467.12586	3948.425
2469.88492	3942.125
2472.64224	3931.225
2475.39782	3941.025
2478.15167	3934.125
2480.90379	3923.225
2483.65417	3946.225
2486.40283	3932.025
2489.14976	3942.225
2491.89497	3950.125
2494.63845	3939.625
2497.3802	3935.025
2500.12024	3917.625
2502.85855	3898.725
2505.59514	3909.925
2508.33002	3900.425
2511.06318	3882.225
2513.79462	3865.225
2516.52435	3864.325
2519.25237	3853.825
2521.97867	3838.125
2524.70327	3833.525
2527.42616	3825.825
2530.14734	3829.425
2532.86681	3826.825
2535.58458	3829.325
2538.30065	3833.425
2541.01501	3822.625
2543.72768	3811.625
2546.43864	3822.525
2549.14791	3798.225
2551.85548	3798.725
2554.56136	3795.025
2557.26554	3794.925
2559.96803	3776.325
2562.66883	3775.325
2565.36794	3755.525
2568.06536	3758.425
2570.7611	3741.425
2573.45514	3740.825
2576.14751	3729.325
2578.83819	3703.025
2581.52719	3712.925
2584.21451	3692.525
2586.90015	3697.525
2589.58411	3692.025
2592.2664	3679.125
2594.94701	3688.725
2597.62594	3675.125
2600.30321	3683.725
2602.9788	3661.325
2605.65273	3676.925
2608.32498	3666.625
2610.99557	3661.725
2613.66449	3662.925
2616.33175	3648.125
2618.99734	3637.625
2621.66128	3645.425
2624.32355	3640.925
2626.98416	3630.225
2629.64311	3619.225
2632.30041	3620.825
2634.95605	3616.625
2637.61004	3589.825
2640.26238	3572.925
2642.91306	3592.625
2645.56209	3581.725
2648.20948	3585.325
2650.85521	3582.825
2653.4993	3570.725
2656.14175	3587.125
2658.78255	3577.525
2661.42171	3571.425
2664.05923	3561.725
2666.6951	3575.725
2669.32934	3578.125
2671.96194	3575.825
2674.59291	3575.225
2677.22224	3574.925
2679.84993	3567.425
2682.476	3561.325
2685.10043	3556.525
2687.72324	3541.725
2690.34441	3563.025
2692.96396	3552.525
2695.58188	3541.825
2698.19818	3543.425
2700.81285	3548.325
2703.4259	3552.425
2706.03733	3549.625
2708.64714	3545.825
2711.25533	3528.825
2713.86191	3545.825
2716.46687	3531.125
2719.07021	3538.525
2721.67194	3539.325
2724.27206	3530.425
2726.87057	3533.125
2729.46747	3534.225
2732.06276	3535.125
2734.65644	3500.725
2737.24852	3542.725
2739.83899	3518.125
2742.42786	3517.425
2745.01513	3505.825
2747.60079	3507.325
2750.18486	3502.325
2752.76733	3495.025
2755.3482	3482.425
2757.92747	3485.725
2760.50515	3467.025
2763.08123	3457.325
2765.65573	3461.625
2768.22863	3437.325
2770.79994	3437.825
2773.36967	3440.325
2775.9378	3435.125
2778.50435	3437.925
2781.06932	3431.225
2783.6327	3431.325
2786.1945	3442.425
2788.75471	3415.925
2791.31335	3405.225
2793.87041	3423.725
2796.42589	3391.825
2798.97979	3399.525
2801.53212	3390.325
2804.08288	3393.925
2806.63206	3381.725
2809.17967	3375.025
2811.72571	3355.025
2814.27018	3354.725
2816.81308	3359.025
2819.35442	3351.625
2821.89419	3332.825
2824.43239	3326.225
2826.96904	3332.425
2829.50412	3327.625
2832.03763	3308.025
2834.56959	3314.125
2837.1	3297.925
2839.62884	3297.925
2842.15613	3289.525
2844.68186	3283.025
2847.20604	3283.925
2849.72867	3286.625
2852.24974	3266.825
2854.76927	3267.125
2857.28724	3255.925
2859.80367	3259.225
2862.31855	3260.725
2864.83189	3262.425
2867.34368	3240.225
2869.85393	3261.925
2872.36264	3248.725
2874.8698	3258.125
2877.37543	3242.125
2879.87952	3240.725
2882.38207	3223.925
2884.88308	3212.425
2887.38256	3215.525
2889.88051	3214.525
2892.37692	3221.325
2894.8718	3197.225
2897.36515	3205.525
2899.85698	3202.625
2902.34727	3201.125
2904.83604	3201.625
2907.32328	3218.825
2909.809	3209.525
2912.29319	3216.525
2914.77587	3217.025
2917.25702	3231.725
2919.73665	3220.525
2922.21476	3211.725
2924.69136	3207.325
2927.16644	3203.125
2929.64	3191.925
2932.11205	3189.625
2934.58258	3181.825
2937.05161	3191.125
2939.51912	3182.425
2941.98513	3175.125
2944.44962	3168.725
2946.91261	3147.625
2949.37409	3167.925
2951.83407	3146.525
2954.29254	3170.125
2956.74951	3151.325
2959.20498	3162.125
2961.65895	3148.125
2964.11142	3147.025
2966.56239	3132.625
2969.01186	3125.025
2971.45984	3137.825
2973.90632	3131.125
2976.35131	3125.425
2978.7948	3122.125
2981.23681	3123.825
2983.67732	3104.225
2986.11635	3110.125
2988.55388	3099.625
2990.98993	3087.525
2993.4245	3071.725
2995.85758	3072.125
2998.28917	3069.625
3000.71928	3068.025
3003.14791	3050.425
3005.57506	3043.425
3008.00073	3040.025
3010.42493	3023.925
3012.84764	3023.825
3015.26888	3013.625
3017.68865	3003.925
3020.10694	2981.325
3022.52376	2997.125
3024.9391	2986.925
3027.35298	2968.725
3029.76539	2966.725
3032.17632	2959.125
3034.5858	2944.625
3036.9938	2942.925
3039.40034	2945.425
3041.80542	2937.325
3044.20903	2939.825
3046.61118	2928.525
3049.01187	2901.725
3051.4111	2913.125
3053.80888	2896.625
3056.20519	2882.825
3058.60005	2880.025
3060.99345	2885.325
3063.3854	2893.525
3065.7759	2872.825
3068.16494	2861.925
3070.55254	2855.725
3072.93868	2854.525
3075.32338	2828.525
3077.70662	2819.925
3080.08842	2831.825
3082.46878	2813.225
3084.84769	2806.025
3087.22515	2792.325
3089.60118	2803.325
3091.97576	2790.425
3094.3489	2797.725
3096.72061	2802.225
3099.09087	2801.425
3101.4597	2797.925
3103.82709	2779.225
3106.19305	2769.025
3108.55757	2785.525
3110.92066	2774.525
3113.28232	2762.425
3115.64255	2759.225
3118.00134	2759.025
3120.35871	2759.425
3122.71466	2737.025
3125.06917	2728.525
3127.42226	2722.625
3129.77393	2736.325
3132.12417	2721.825
3134.47299	2726.425
3136.82039	2707.025
3139.16636	2707.525
3141.51092	2708.525
3143.85406	2708.725
3146.19579	2697.025
3148.53609	2706.625
3150.87499	2702.925
3153.21246	2696.825
3155.54853	2710.025
3157.88318	2704.425
3160.21642	2705.425
3162.54826	2697.825
3164.87868	2695.625
3167.2077	2694.225
3169.5353	2683.025
3171.86151	2681.225
3174.18631	2678.525
3176.5097	2677.925
3178.83169	2681.225
3181.15228	2668.325
3183.47147	2664.525
3185.78926	2658.125
3188.10565	2640.325
3190.42065	2641.625
3192.73424	2634.625
3195.04645	2636.425
3197.35725	2619.325
3199.66667	2615.825
3201.97469	2641.125
3204.28132	2622.725
3206.58656	2624.525
3208.8904	2618.325
3211.19287	2625.325
3213.49394	2619.425
3215.79363	2616.625
3218.09193	2622.425
3220.38884	2631.125
3222.68438	2626.625
3224.97853	2615.925
3227.2713	2617.725
3229.56269	2613.225
3231.8527	2601.625
3234.14133	2588.725
