Data from AgNPs_UA_5uM_CRN_500uM_SU_RamanShift__138__11-52-23-167.txt Node

Date: Thu Aug 04 11:52:23 BST 2022
User: TCL
Spectrometer: QEP01345
Trigger mode: 4
Integration Time (sec): 1.000000E0
Scans to average: 10
Electric dark correction enabled: true
Nonlinearity correction enabled: false
Boxcar width: 0
XAxis mode: Raman Shifts
Number of Pixels in Spectrum: 1044
>>>>>Begin Spectral Data<<<<<
46.04893	-1.5
50.45542	-0.3
54.85868	-0.5
59.25871	-0.7
63.6555	-58.8
68.04907	-39
72.43941	-69.7
76.82654	-54.5
81.21044	-56
85.59113	-48.5
89.96862	-75.5
94.34289	-54.3
98.71396	-77.8
103.08183	-57.3
107.4465	-47.6
111.80798	-54.8
116.16626	-44
120.52136	-73.7
124.87327	-49.5
129.222	-63.2
133.56755	-48.2
137.90993	-64
142.24913	-50.9
146.58517	-44.9
150.91804	-39.8
155.24774	-29.9
159.57429	-9
163.89768	-5
168.21792	39.8
172.53501	60.5
176.84895	137.6
181.15975	272.4
185.46741	424.5
189.77193	601.5
194.07331	890.4
198.37157	1182.3
202.6667	1465.7
206.9587	1783.2
211.24758	2105.7
215.53334	2412.6
219.81599	2775.6
224.09553	3173.8
228.37195	3612.9
232.64527	4067.2
236.91549	4547.2
241.18261	4920.9
245.44663	5217
249.70755	5423.8
253.96539	5558.8
258.22014	5675.9
262.4718	5724.1
266.72039	5747.1
270.96589	5699.9
275.20832	5602.1
279.44768	5501.6
283.68397	5374.7
287.91719	5314.5
292.14735	5333.6
296.37445	5473.2
300.59849	5715.9
304.81948	6032.5
309.03742	6343.6
313.25231	6556.2
317.46415	6508.3
321.67296	6137.3
325.87872	5789.1
330.08145	5626.3
334.28114	5589.1
338.47781	5662
342.67145	5807.3
346.86207	6027.8
351.04966	6363.5
355.23424	6726
359.4158	7010.7
363.59435	7021.1
367.76989	6968.6
371.94243	6865.7
376.11196	6763.4
380.27849	6706.9
384.44203	6647.7
388.60257	6610.1
392.76012	6608
396.91468	6732.3
401.06626	6877.3
405.21485	6924.7
409.36047	6767.6
413.50311	6488.7
417.64277	6222.3
421.77947	6042
425.9132	6005.8
430.04396	5995.3
434.17176	6034.4
438.2966	6129.9
442.41849	6226.7
446.53742	6321.7
450.6534	6449.1
454.76644	6500.3
458.87653	6515.9
462.98368	6501.8
467.08789	6449.4
471.18916	6390.7
475.2875	6295.6
479.38291	6190
483.4754	6085.7
487.56496	6050.9
491.6516	6013.9
495.73531	6003
499.81612	6026.6
503.89401	6107.7
507.96899	6157.3
512.04106	6244.7
516.11023	6369.4
520.1765	6434.3
524.23987	6461.6
528.30034	6437
532.35792	6401.3
536.41261	6348.4
540.46441	6278.1
544.51333	6220.6
548.55936	6268.5
552.60252	6380.6
556.64279	6468
560.6802	6582.4
564.71473	6716.4
568.7464	6880.3
572.7752	6851.4
576.80114	6576
580.82422	6348.1
584.84444	6247
588.86181	6239.9
592.87633	6262.6
596.888	6369.6
600.89682	6707.1
604.9028	7594.5
608.90594	9467.8
612.90624	11586.1
616.90371	10820.9
620.89834	8050.5
624.89015	6889.3
628.87913	6712.7
632.86528	6856.8
636.84862	6989.3
640.82913	6868.9
644.80683	6589.4
648.78172	6419.9
652.75379	6449.7
656.72306	6652.2
660.68952	6862.7
664.65319	6804.8
668.61405	6582.2
672.57211	6532
676.52738	6543.6
680.47986	6478.2
684.42955	6375.8
688.37646	6327.3
692.32058	6337.7
696.26192	6409.6
700.20048	6513.6
704.13626	6545.3
708.06928	6485.3
711.99952	6448.9
715.927	6427.5
719.85171	6466.6
723.77365	6533.4
727.69284	6496.5
731.60928	6487.7
735.52295	6462.3
739.43388	6500.3
743.34206	6551.9
747.24749	6538.5
751.15017	6558
755.05012	6616.8
758.94733	6951
762.8418	7680.9
766.73354	8853.9
770.62254	9741.2
774.50882	9811.9
778.39237	9390.1
782.27321	8582.2
786.15132	7653.1
790.02671	7039.8
793.89938	6681.3
797.76935	6593.5
801.6366	6511
805.50115	6490.4
809.36299	6480.6
813.22213	6481.4
817.07857	6490.4
820.93231	6471.9
824.78336	6505.2
828.63172	6523.4
832.47738	6538
836.32036	6531.1
840.16066	6507.1
843.99827	6489.3
847.8332	6473.3
851.66546	6499
855.49504	6508.5
859.32195	6545.9
863.1462	6528.2
866.96777	6537.3
870.78668	6527.2
874.60293	6556.9
878.41652	6592.1
882.22745	6648.9
886.03573	6686.6
889.84136	6650
893.64433	6667.8
897.44466	6664.9
901.24235	6640.4
905.0374	6649.5
908.8298	6596.9
912.61957	6572.8
916.40671	6532.5
920.19121	6582.8
923.97308	6645.9
927.75233	6713.8
931.52895	6760.3
935.30295	6749.2
939.07433	6613.3
942.84309	6503.9
946.60924	6479.5
950.37278	6446.4
954.13371	6439.4
957.89203	6464.7
961.64774	6467.5
965.40086	6439
969.15137	6419.9
972.89929	6444.8
976.64461	6434.8
980.38733	6469.6
984.12747	6455.8
987.86502	6491.5
991.59999	6508.5
995.33237	6611.2
999.06217	6675.2
1002.78939	6749.6
1006.51404	6883.8
1010.23611	6992.3
1013.95561	7037.9
1017.67255	7066.2
1021.38692	7044.7
1025.09872	6966.2
1028.80796	6865.8
1032.51465	6877.8
1036.21877	6868.4
1039.92035	6910.6
1043.61937	6929.6
1047.31584	6979.1
1051.00976	7024.2
1054.70114	7034.7
1058.38998	7012.8
1062.07627	7026.1
1065.76003	7062.7
1069.44126	7134.9
1073.11995	7227.6
1076.79611	7348.3
1080.46974	7491
1084.14085	7640
1087.80943	7741.4
1091.47549	7773.8
1095.13903	7719.4
1098.80005	7634.8
1102.45857	7546.7
1106.11456	7481.8
1109.76805	7419.6
1113.41903	7497.8
1117.06751	7638.9
1120.71348	7862.1
1124.35696	8193.1
1127.99793	8439.1
1131.63641	8325
1135.2724	7976.6
1138.90589	7704.1
1142.5369	7542.8
1146.16542	7459.5
1149.79145	7378.3
1153.415	7315
1157.03607	7293.4
1160.65467	7363.7
1164.27079	7527.7
1167.88443	7753.3
1171.49561	8094.2
1175.10432	8647
1178.71056	9420.3
1182.31434	10100.8
1185.91565	10339
1189.51451	10197.6
1193.11091	10035.7
1196.70485	9822
1200.29634	9671.2
1203.88538	9449.1
1207.47197	9081.8
1211.05612	8673.3
1214.63782	8330.9
1218.21708	8125.4
1221.79391	7974.5
1225.36829	7869.2
1228.94024	7845.1
1232.50976	7867.7
1236.07685	7879.2
1239.6415	7912.7
1243.20374	7923.8
1246.76355	8000.2
1250.32093	8061.5
1253.8759	8130.9
1257.42845	8320.8
1260.97859	8509.2
1264.52631	8745.2
1268.07163	8845.7
1271.61453	8945.7
1275.15503	8996
1278.69312	9011.7
1282.22882	9060.7
1285.76211	9248.9
1289.29301	9454.2
1292.82151	9684.7
1296.34761	9892.5
1299.87133	10228.3
1303.39266	10877.2
1306.9116	11876.5
1310.42815	12933.7
1313.94233	13290.4
1317.45412	12633.8
1320.96354	11612.7
1324.47058	10730.2
1327.97525	10093.8
1331.47754	9759.8
1334.97747	9701.2
1338.47502	9804.3
1341.97022	10144.6
1345.46305	10807.6
1348.95352	11729.3
1352.44163	12847.6
1355.92738	13947.2
1359.41078	15310.4
1362.89183	16566.7
1366.37053	15937.1
1369.84688	13445.6
1373.32088	11155.7
1376.79254	10001.4
1380.26186	9443.4
1383.72883	9107.8
1387.19347	8745
1390.65578	8449.7
1394.11575	8238.1
1397.57339	8099.7
1401.0287	7986.2
1404.48168	7955.7
1407.93234	7985.7
1411.38068	8006.1
1414.82669	8077.5
1418.27039	8156.6
1421.71177	8133.6
1425.15083	8044.2
1428.58758	7987.9
1432.02203	7992.9
1435.45416	8095.8
1438.88399	8084.4
1442.31151	8097.1
1445.73673	8177.1
1449.15965	8235.9
1452.58027	8238.8
1455.9986	8240.2
1459.41463	8219.9
1462.82837	8310.6
1466.23982	8492.1
1469.64898	8690.1
1473.05586	8816.5
1476.46045	8912
1479.86276	8952
1483.26279	9012.6
1486.66054	9170
1490.05602	9394.4
1493.44922	9848.6
1496.84016	10613.5
1500.22882	11777.4
1503.61521	13243.1
1506.99934	14756.5
1510.38121	15730.6
1513.76081	15655.2
1517.13816	14321.5
1520.51324	12523.3
1523.88607	11035.5
1527.25665	10179.8
1530.62498	9741.5
1533.99105	9557.2
1537.35488	9466.6
1540.71647	9410.5
1544.07581	9339.7
1547.4329	9214.4
1550.78776	9133.8
1554.14038	9007.8
1557.49077	8988.6
1560.83892	9032.8
1564.18484	9229.6
1567.52853	9492.8
1570.86999	9757.6
1574.20922	9891.3
1577.54624	9768.5
1580.88103	9357.8
1584.2136	8785.2
1587.54395	8491.4
1590.87208	8452.6
1594.19801	8621
1597.52172	8929.6
1600.84321	9102.5
1604.16251	8993.4
1607.47959	8829.4
1610.79447	8696.5
1614.10715	8386.1
1617.41763	8067.6
1620.7259	7817.2
1624.03199	7661
1627.33587	7589
1630.63757	7639.8
1633.93707	7851
1637.23439	8237.5
1640.52951	8861.3
1643.82246	9735.3
1647.11321	10728.7
1650.40179	11331.7
1653.68819	10994.5
1656.97241	9878.5
1660.25446	8663.1
1663.53433	7782.5
1666.81203	7244.7
1670.08756	6942.7
1673.36092	6788.7
1676.63211	6647.6
1679.90115	6573.5
1683.16801	6489.2
1686.43272	6398.6
1689.69527	6383
1692.95567	6309.8
1696.2139	6276.5
1699.46999	6215.5
1702.72392	6226.2
1705.97571	6229.6
1709.22535	6203.9
1712.47284	6260.5
1715.71819	6239.9
1718.96139	6247.2
1722.20246	6239
1725.44139	6199.9
1728.67818	6181.1
1731.91284	6150.8
1735.14537	6098.2
1738.37576	6079.5
1741.60403	6068.5
1744.83017	6040.6
1748.05418	6046.2
1751.27607	6044.1
1754.49584	6024.8
1757.71349	5969.8
1760.92903	5984.9
1764.14244	5921.1
1767.35375	5942.8
1770.56294	5932.3
1773.77002	5925.7
1776.97499	5926.2
1780.17785	5889.5
1783.37861	5893.6
1786.57727	5914.6
1789.77382	5837.3
1792.96828	5868.4
1796.16064	5887.1
1799.3509	5846.4
1802.53907	5864.3
1805.72514	5812.6
1808.90913	5805.6
1812.09102	5802.6
1815.27083	5785.3
1818.44856	5793.8
1821.6242	5781.8
1824.79776	5761.5
1827.96924	5746.9
1831.13864	5729.4
1834.30597	5742.2
1837.47122	5721.5
1840.6344	5703
1843.7955	5695.2
1846.95454	5671.5
1850.11151	5705.8
1853.26642	5652.1
1856.41926	5686.2
1859.57004	5672.1
1862.71876	5665.5
1865.86542	5645.6
1869.01003	5651.2
1872.15258	5645.4
1875.29308	5645.6
1878.43152	5649.1
1881.56792	5626.1
1884.70227	5605
1887.83457	5616.3
1890.96482	5576.1
1894.09304	5576.5
1897.21921	5564.7
1900.34335	5583.1
1903.46544	5550.7
1906.58551	5572.4
1909.70353	5573.4
1912.81953	5550.3
1915.93349	5538.9
1919.04543	5533.5
1922.15534	5537.3
1925.26322	5519.5
1928.36908	5502.7
1931.47292	5505
1934.57473	5492.1
1937.67453	5457.7
1940.77232	5434.8
1943.86808	5434.6
1946.96184	5426.3
1950.05358	5408.8
1953.14331	5369.8
1956.23103	5388.8
1959.31675	5359.5
1962.40046	5303.4
1965.48217	5336.9
1968.56188	5312.5
1971.63959	5293.4
1974.7153	5299
1977.78901	5276.8
1980.86073	5269.8
1983.93046	5187.9
1986.99819	5136.3
1990.06394	5161.3
1993.1277	5178.8
1996.18947	5158.4
1999.24925	5114.6
2002.30706	5116.7
2005.36288	5110.1
2008.41672	5096.9
2011.46859	5066.4
2014.51848	5058.8
2017.56639	5039.1
2020.61233	5005.2
2023.6563	5014.2
2026.6983	4965.3
2029.73833	4975.4
2032.7764	4973.1
2035.8125	4921.3
2038.84664	4947.5
2041.87881	4918.3
2044.90903	4935
2047.93729	4912.1
2050.96359	4888.2
2053.98794	4909.2
2057.01034	4883
2060.03078	4883.7
2063.04927	4855.9
2066.06582	4881.5
2069.08042	4869.8
2072.09307	4873.2
2075.10378	4862.7
2078.11255	4846
2081.11938	4848.2
2084.12426	4836.3
2087.12722	4832.5
2090.12824	4847.7
2093.12732	4835.6
2096.12447	4852.2
2099.11969	4838.1
2102.11299	4850
2105.10435	4850
2108.09379	4841.3
2111.08131	4843.1
2114.0669	4815
2117.05057	4833.5
2120.03233	4822.8
2123.01216	4839.6
2125.99008	4847
2128.96609	4836.6
2131.94018	4872.2
2134.91236	4843.3
2137.88263	4832.5
2140.851	4851.1
2143.81746	4866.5
2146.78201	4853
2149.74466	4823.1
2152.7054	4865.2
2155.66425	4846.4
2158.6212	4842.7
2161.57625	4806.2
2164.52941	4808.9
2167.48067	4812.2
2170.43004	4809.6
2173.37752	4830.9
2176.32311	4815.9
2179.26681	4815.4
2182.20863	4806.4
2185.14856	4812.8
2188.08661	4821.1
2191.02278	4815.1
2193.95707	4809.3
2196.88948	4773.6
2199.82001	4795.5
2202.74867	4772.3
2205.67545	4772.4
2208.60037	4787.2
2211.52341	4785.8
2214.44458	4755.9
2217.36388	4731.9
2220.28132	4735.9
2223.1969	4719.2
2226.11061	4704.1
2229.02246	4691.1
2231.93245	4689.6
2234.84058	4672
2237.74686	4657.8
2240.65128	4646.6
2243.55385	4643.4
2246.45456	4630.6
2249.35343	4659.2
2252.25044	4635.3
2255.14561	4634
2258.03893	4615.3
2260.93041	4598
2263.82004	4606.9
2266.70783	4614.1
2269.59378	4566
2272.4779	4561
2275.36017	4557.8
2278.24061	4552.8
2281.11922	4515
2283.996	4534.3
2286.87094	4499.5
2289.74405	4503
2292.61534	4517.4
2295.4848	4495.7
2298.35243	4501.2
2301.21824	4481.5
2304.08223	4470.7
2306.94439	4498.4
2309.80474	4479.4
2312.66327	4471.3
2315.51999	4451.4
2318.37489	4438.6
2321.22797	4445.2
2324.07925	4439.1
2326.92871	4416
2329.77637	4420.3
2332.62222	4399.6
2335.46626	4381.8
2338.3085	4381.1
2341.14893	4385.4
2343.98756	4399.8
2346.8244	4360.4
2349.65943	4339.7
2352.49267	4359.1
2355.32411	4354.3
2358.15376	4350
2360.98161	4358.3
2363.80768	4337.2
2366.63195	4349.9
2369.45444	4347.2
2372.27514	4347.2
2375.09405	4345.1
2377.91118	4321.8
2380.72652	4311.6
2383.54009	4300.4
2386.35187	4300.9
2389.16188	4291.3
2391.97011	4282.2
2394.77657	4272.2
2397.58125	4274.4
2400.38416	4264.4
2403.18529	4227.5
2405.98466	4235.7
2408.78226	4232.2
2411.57809	4202.5
2414.37216	4200.2
2417.16446	4198.7
2419.955	4164.4
2422.74378	4194.5
2425.5308	4189.8
2428.31606	4186.9
2431.09956	4189.8
2433.88131	4171.6
2436.6613	4171.9
2439.43954	4152
2442.21603	4161.4
2444.99077	4135
2447.76377	4157.6
2450.53501	4146.5
2453.30451	4125.3
2456.07226	4128.2
2458.83827	4108.4
2461.60254	4085.8
2464.36507	4127
2467.12586	4103.5
2469.88492	4096.6
2472.64224	4108.5
2475.39782	4083.1
2478.15167	4092.8
2480.90379	4067.8
2483.65417	4104.9
2486.40283	4099.7
2489.14976	4098.4
2491.89497	4093.3
2494.63845	4089.1
2497.3802	4056.2
2500.12024	4059.9
2502.85855	4071.9
2505.59514	4053.1
2508.33002	4049.3
2511.06318	4018
2513.79462	4045.3
2516.52435	4000.3
2519.25237	3973.9
2521.97867	3989.2
2524.70327	3989.5
2527.42616	3983.2
2530.14734	3974.7
2532.86681	3973.2
2535.58458	3969.3
2538.30065	3945.6
2541.01501	3968.4
2543.72768	3951.2
2546.43864	3942.6
2549.14791	3948
2551.85548	3928.1
2554.56136	3921.6
2557.26554	3934.6
2559.96803	3917.8
2562.66883	3906.4
2565.36794	3877.4
2568.06536	3858.2
2570.7611	3870
2573.45514	3873.9
2576.14751	3856.6
2578.83819	3831.1
2581.52719	3834.3
2584.21451	3827.9
2586.90015	3798.3
2589.58411	3797.9
2592.2664	3798.1
2594.94701	3799.5
2597.62594	3804.8
2600.30321	3730
2602.9788	3748.9
2605.65273	3744.7
2608.32498	3761.6
2610.99557	3772.5
2613.66449	3736.1
2616.33175	3746.2
2618.99734	3757.5
2621.66128	3755.1
2624.32355	3733.5
2626.98416	3695.6
2629.64311	3693
2632.30041	3712.5
2634.95605	3668.2
2637.61004	3667
2640.26238	3643.1
2642.91306	3649.6
2645.56209	3687.8
2648.20948	3656.3
2650.85521	3657.9
2653.4993	3676.6
2656.14175	3652.8
2658.78255	3637.8
2661.42171	3611.3
2664.05923	3647.6
2666.6951	3649.8
2669.32934	3671.5
2671.96194	3664.3
2674.59291	3640.6
2677.22224	3654.5
2679.84993	3656.3
2682.476	3637.8
2685.10043	3635.2
2687.72324	3631.3
2690.34441	3639.4
2692.96396	3626.1
2695.58188	3627.5
2698.19818	3635.1
2700.81285	3619.3
2703.4259	3603.4
2706.03733	3591
2708.64714	3580
2711.25533	3606.7
2713.86191	3606.9
2716.46687	3609.8
2719.07021	3592.6
2721.67194	3599.8
2724.27206	3607
2726.87057	3602.2
2729.46747	3594.1
2732.06276	3612.2
2734.65644	3584.7
2737.24852	3579.7
2739.83899	3557.5
2742.42786	3579.7
2745.01513	3579
2747.60079	3557.6
2750.18486	3552.5
2752.76733	3538.5
2755.3482	3533.8
2757.92747	3531.4
2760.50515	3529.3
2763.08123	3501.4
2765.65573	3507.2
2768.22863	3500.8
2770.79994	3487.7
2773.36967	3487.7
2775.9378	3478.4
2778.50435	3485.1
2781.06932	3474.3
2783.6327	3468.5
2786.1945	3473.8
2788.75471	3462
2791.31335	3466.9
2793.87041	3456.9
2796.42589	3429
2798.97979	3411.9
2801.53212	3432.4
2804.08288	3444.9
2806.63206	3418.3
2809.17967	3397.9
2811.72571	3405.2
2814.27018	3406.6
2816.81308	3379
2819.35442	3342.4
2821.89419	3361.3
2824.43239	3338.6
2826.96904	3374.2
2829.50412	3353.4
2832.03763	3342.8
2834.56959	3355
2837.1	3329.2
2839.62884	3333.5
2842.15613	3331.7
2844.68186	3335.5
2847.20604	3321.7
2849.72867	3299.5
2852.24974	3308.3
2854.76927	3273.7
2857.28724	3233.2
2859.80367	3291.3
2862.31855	3295.2
2864.83189	3276
2867.34368	3285
2869.85393	3293.6
2872.36264	3255.9
2874.8698	3259.3
2877.37543	3263.5
2879.87952	3257.9
2882.38207	3230.1
2884.88308	3257.5
2887.38256	3243.8
2889.88051	3248.6
2892.37692	3238.1
2894.8718	3224.1
2897.36515	3237.7
2899.85698	3235
2902.34727	3222.7
2904.83604	3231.1
2907.32328	3233.5
2909.809	3246.8
2912.29319	3241.9
2914.77587	3244.6
2917.25702	3255.9
2919.73665	3258.7
2922.21476	3258
2924.69136	3259.4
2927.16644	3250.1
2929.64	3233
2932.11205	3202
2934.58258	3208
2937.05161	3210.6
2939.51912	3211.2
2941.98513	3216.5
2944.44962	3215.9
2946.91261	3183.8
2949.37409	3190.7
2951.83407	3186.8
2954.29254	3179.5
2956.74951	3175.9
2959.20498	3158.9
2961.65895	3160.6
2964.11142	3168
2966.56239	3142.8
2969.01186	3166.5
2971.45984	3147.8
2973.90632	3138
2976.35131	3147.9
2978.7948	3132.4
2981.23681	3113.1
2983.67732	3128.2
2986.11635	3120.8
2988.55388	3079.4
2990.98993	3094.3
2993.4245	3079.3
2995.85758	3072.6
2998.28917	3079.2
3000.71928	3053.4
3003.14791	3054.2
3005.57506	3053.2
3008.00073	3017.5
3010.42493	2960.7
3012.84764	3013.4
3015.26888	3019
3017.68865	2997.2
3020.10694	2962.8
3022.52376	2989.1
3024.9391	2971.6
3027.35298	2957.6
3029.76539	2949
3032.17632	2959.8
3034.5858	2936.6
3036.9938	2951.8
3039.40034	2928.8
3041.80542	2917.4
3044.20903	2913.6
3046.61118	2899.9
3049.01187	2910.9
3051.4111	2902.9
3053.80888	2882.8
3056.20519	2885
3058.60005	2853.7
3060.99345	2892.9
3063.3854	2855.6
3065.7759	2842
3068.16494	2831.3
3070.55254	2815.6
3072.93868	2835
3075.32338	2818.9
3077.70662	2807.7
3080.08842	2786
3082.46878	2792.7
3084.84769	2808.6
3087.22515	2785.8
3089.60118	2797.2
3091.97576	2795.6
3094.3489	2789.8
3096.72061	2780.5
3099.09087	2762.8
3101.4597	2773.8
3103.82709	2773.1
3106.19305	2756.8
3108.55757	2763
3110.92066	2744.5
3113.28232	2759.3
3115.64255	2756.1
3118.00134	2738
3120.35871	2714.2
3122.71466	2699.5
3125.06917	2713.4
3127.42226	2701.1
3129.77393	2698.9
3132.12417	2695.1
3134.47299	2690.3
3136.82039	2679.3
3139.16636	2652.1
3141.51092	2664.5
3143.85406	2675.1
3146.19579	2659.3
3148.53609	2660.4
3150.87499	2665.2
3153.21246	2654.5
3155.54853	2653.1
3157.88318	2652.6
3160.21642	2666.3
3162.54826	2659.8
3164.87868	2663.3
3167.2077	2622.7
3169.5353	2641.4
3171.86151	2658.4
3174.18631	2634
3176.5097	2637.3
3178.83169	2630.9
3181.15228	2623.3
3183.47147	2602.4
3185.78926	2588.4
3188.10565	2594.7
3190.42065	2578.9
3192.73424	2590.9
3195.04645	2576.6
3197.35725	2566.5
3199.66667	2580.1
3201.97469	2566.1
3204.28132	2554
3206.58656	2572.6
3208.8904	2569.3
3211.19287	2557
3213.49394	2553.1
3215.79363	2550.1
3218.09193	2561.6
3220.38884	2553
3222.68438	2545.7
3224.97853	2524.7
3227.2713	2550.4
3229.56269	2529.4
3231.8527	2531.4
3234.14133	2522.7
3236.42858	2513.1
3238.71446	2492.9
3240.99896	2508.9
3243.28209	2497.3
3245.56384	2501.5
3247.84423	2477.5
3250.12324	2494.7
3252.40088	2477.8
3254.67715	2465.3
3256.95205	2463.9
3259.22558	2472
3261.49775	2466.9
3263.76855	2475.3
3266.03799	2473.7
3268.30606	2461.3
3270.57277	2460.6
3272.83812	2442
3275.10211	2438.6
3277.36474	2448.8
3279.62601	2440.8
3281.88593	2413.6
3284.14448	2404.8
3286.40168	2418.3
3288.65753	2400.4
3290.91202	2408.1
3293.16516	2381.9
3295.41695	2407.5
3297.66738	2397.8
3299.91647	2371.7
3302.16421	2366.5
3304.4106	2319.9
3306.65564	2336.9
3308.89933	2309.7
3311.14169	2310
3313.38269	2290.6
3315.62236	2268
3317.86068	2244.6
3320.09766	2235.9
3322.3333	2212.2
3324.5676	2200.9
3326.80056	2166.5
3329.03219	2156.8
3331.26248	0.2
3333.49143	0.6
3335.71905	0.7
