Data from AgNPs_UA_10uM_CRN_500uM_SU_RamanShift__1__13-05-30-253.txt Node

Date: Thu Aug 04 13:05:30 BST 2022
User: TCL
Spectrometer: QEP01345
Trigger mode: 4
Integration Time (sec): 1.000000E0
Scans to average: 10
Electric dark correction enabled: true
Nonlinearity correction enabled: false
Boxcar width: 0
XAxis mode: Raman Shifts
Number of Pixels in Spectrum: 1044
>>>>>Begin Spectral Data<<<<<
46.04893	-1.0375
50.45542	-0.4375
54.85868	0.0625
59.25871	-0.1375
63.6555	18.9625
68.04907	19.8625
72.43941	19.3625
76.82654	19.7625
81.21044	19.2625
85.59113	20.9625
89.96862	21.4625
94.34289	23.5625
98.71396	22.7625
103.08183	25.0625
107.4465	24.2625
111.80798	23.9625
116.16626	25.2625
120.52136	28.4625
124.87327	27.2625
129.222	31.2625
133.56755	31.2625
137.90993	36.1625
142.24913	39.4625
146.58517	45.3625
150.91804	51.6625
155.24774	64.4625
159.57429	79.9625
163.89768	102.1625
168.21792	138.4625
172.53501	186.4625
176.84895	264.9625
181.15975	377.4625
185.46741	542.5625
189.77193	745.6625
194.07331	1009.8625
198.37157	1292.6625
202.6667	1617.1625
206.9587	1925.7625
211.24758	2241.1625
215.53334	2549.4625
219.81599	2890.3625
224.09553	3284.3625
228.37195	3691.9625
232.64527	4150.0625
236.91549	4582.0625
241.18261	4976.4625
245.44663	5299.0625
249.70755	5552.6625
253.96539	5740.9625
258.22014	5925.6625
262.4718	6079.6625
266.72039	6165.3625
270.96589	6189.9625
275.20832	6143.2625
279.44768	6046.0625
283.68397	5945.3625
287.91719	5897.4625
292.14735	5893.6625
296.37445	5993.2625
300.59849	6187.3625
304.81948	6403.5625
309.03742	6672.8625
313.25231	6789.3625
317.46415	6737.4625
321.67296	6479.1625
325.87872	6225.8625
330.08145	6080.6625
334.28114	6080.6625
338.47781	6111.2625
342.67145	6242.9625
346.86207	6423.8625
351.04966	6704.2625
355.23424	6966.7625
359.4158	7168.8625
363.59435	7238.8625
367.76989	7218.7625
371.94243	7176.7625
376.11196	7139.4625
380.27849	7153.3625
384.44203	7145.8625
388.60257	7197.9625
392.76012	7225.2625
396.91468	7330.0625
401.06626	7457.8625
405.21485	7502.6625
409.36047	7406.9625
413.50311	7196.6625
417.64277	6985.5625
421.77947	6855.8625
425.9132	6778.9625
430.04396	6751.5625
434.17176	6788.0625
438.2966	6827.2625
442.41849	6937.3625
446.53742	7041.9625
450.6534	7210.7625
454.76644	7313.9625
458.87653	7353.6625
462.98368	7378.5625
467.08789	7330.5625
471.18916	7222.9625
475.2875	7113.2625
479.38291	6962.9625
483.4754	6877.7625
487.56496	6820.9625
491.6516	6802.0625
495.73531	6813.4625
499.81612	6844.6625
503.89401	6907.6625
507.96899	6948.4625
512.04106	6994.1625
516.11023	7055.2625
520.1765	7061.3625
524.23987	7098.3625
528.30034	7064.2625
532.35792	7046.2625
536.41261	7011.1625
540.46441	6929.6625
544.51333	6899.7625
548.55936	6959.5625
552.60252	7035.2625
556.64279	7159.9625
560.6802	7246.6625
564.71473	7344.5625
568.7464	7450.1625
572.7752	7404.6625
576.80114	7184.3625
580.82422	7001.7625
584.84444	6943.0625
588.86181	6915.9625
592.87633	6949.5625
596.888	7078.1625
600.89682	7419.3625
604.9028	8268.5625
608.90594	10013.9625
612.90624	11742.9625
616.90371	10839.5625
620.89834	8450.3625
624.89015	7492.7625
628.87913	7401.6625
632.86528	7560.1625
636.84862	7657.1625
640.82913	7503.8625
644.80683	7220.6625
648.78172	7046.5625
652.75379	7059.1625
656.72306	7263.5625
660.68952	7470.8625
664.65319	7424.1625
668.61405	7348.0625
672.57211	7411.0625
676.52738	7387.1625
680.47986	7228.2625
684.42955	7075.4625
688.37646	7014.6625
692.32058	7077.0625
696.26192	7205.3625
700.20048	7325.6625
704.13626	7353.7625
708.06928	7273.4625
711.99952	7207.6625
715.927	7158.6625
719.85171	7235.0625
723.77365	7235.9625
727.69284	7189.2625
731.60928	7167.8625
735.52295	7133.1625
739.43388	7180.6625
743.34206	7196.5625
747.24749	7194.9625
751.15017	7180.9625
755.05012	7258.5625
758.94733	7534.1625
762.8418	8193.3625
766.73354	9171.6625
770.62254	9916.0625
774.50882	10045.0625
778.39237	9737.9625
782.27321	9145.3625
786.15132	8364.9625
790.02671	7780.9625
793.89938	7475.6625
797.76935	7302.2625
801.6366	7253.1625
805.50115	7174.3625
809.36299	7152.7625
813.22213	7144.0625
817.07857	7152.6625
820.93231	7143.6625
824.78336	7159.3625
828.63172	7192.7625
832.47738	7187.2625
836.32036	7152.6625
840.16066	7154.5625
843.99827	7143.4625
847.8332	7133.3625
851.66546	7158.6625
855.49504	7174.9625
859.32195	7177.2625
863.1462	7174.2625
866.96777	7172.3625
870.78668	7167.0625
874.60293	7194.4625
878.41652	7233.7625
882.22745	7308.5625
886.03573	7344.4625
889.84136	7346.0625
893.64433	7309.8625
897.44466	7286.7625
901.24235	7290.8625
905.0374	7278.3625
908.8298	7221.6625
912.61957	7235.7625
916.40671	7225.1625
920.19121	7225.6625
923.97308	7270.7625
927.75233	7342.9625
931.52895	7387.8625
935.30295	7335.5625
939.07433	7230.3625
942.84309	7170.2625
946.60924	7130.4625
950.37278	7105.8625
954.13371	7114.4625
957.89203	7096.7625
961.64774	7108.0625
965.40086	7108.8625
969.15137	7089.9625
972.89929	7103.3625
976.64461	7096.9625
980.38733	7084.3625
984.12747	7109.6625
987.86502	7138.2625
991.59999	7151.9625
995.33237	7215.8625
999.06217	7260.1625
1002.78939	7357.8625
1006.51404	7486.8625
1010.23611	7612.0625
1013.95561	7683.2625
1017.67255	7687.3625
1021.38692	7676.8625
1025.09872	7631.2625
1028.80796	7534.5625
1032.51465	7503.1625
1036.21877	7506.3625
1039.92035	7531.4625
1043.61937	7581.9625
1047.31584	7604.4625
1051.00976	7648.1625
1054.70114	7664.2625
1058.38998	7707.2625
1062.07627	7744.4625
1065.76003	7774.4625
1069.44126	7856.7625
1073.11995	8014.9625
1076.79611	8188.1625
1080.46974	8300.2625
1084.14085	8377.5625
1087.80943	8476.4625
1091.47549	8520.7625
1095.13903	8521.6625
1098.80005	8584.4625
1102.45857	8651.0625
1106.11456	8621.3625
1109.76805	8456.0625
1113.41903	8396.6625
1117.06751	8506.5625
1120.71348	8659.3625
1124.35696	8811.4625
1127.99793	8929.0625
1131.63641	8794.9625
1135.2724	8511.5625
1138.90589	8300.8625
1142.5369	8175.9625
1146.16542	8117.1625
1149.79145	8067.8625
1153.415	7966.5625
1157.03607	7930.8625
1160.65467	7979.5625
1164.27079	8162.2625
1167.88443	8427.4625
1171.49561	8749.4625
1175.10432	9318.8625
1178.71056	10021.1625
1182.31434	10631.4625
1185.91565	10857.7625
1189.51451	10838.5625
1193.11091	10751.7625
1196.70485	10616.1625
1200.29634	10422.3625
1203.88538	10172.8625
1207.47197	9819.0625
1211.05612	9416.9625
1214.63782	9065.5625
1218.21708	8797.7625
1221.79391	8583.4625
1225.36829	8522.9625
1228.94024	8488.0625
1232.50976	8510.8625
1236.07685	8543.8625
1239.6415	8563.1625
1243.20374	8621.2625
1246.76355	8685.0625
1250.32093	8732.5625
1253.8759	8851.5625
1257.42845	9067.1625
1260.97859	9293.9625
1264.52631	9547.3625
1268.07163	9700.5625
1271.61453	9797.4625
1275.15503	9783.0625
1278.69312	9776.6625
1282.22882	9760.5625
1285.76211	9809.2625
1289.29301	9996.6625
1292.82151	10173.2625
1296.34761	10353.9625
1299.87133	10659.0625
1303.39266	11197.6625
1306.9116	12015.3625
1310.42815	12906.6625
1313.94233	13222.3625
1317.45412	12756.8625
1320.96354	12028.6625
1324.47058	11370.2625
1327.97525	10811.3625
1331.47754	10482.3625
1334.97747	10398.3625
1338.47502	10483.6625
1341.97022	10871.1625
1345.46305	11567.0625
1348.95352	12589.7625
1352.44163	13695.9625
1355.92738	14761.1625
1359.41078	15855.4625
1362.89183	16585.2625
1366.37053	15742.1625
1369.84688	13571.3625
1373.32088	11614.9625
1376.79254	10496.7625
1380.26186	9978.8625
1383.72883	9663.1625
1387.19347	9322.6625
1390.65578	8997.1625
1394.11575	8775.9625
1397.57339	8599.4625
1401.0287	8504.8625
1404.48168	8491.2625
1407.93234	8556.0625
1411.38068	8669.3625
1414.82669	8791.8625
1418.27039	8805.3625
1421.71177	8802.4625
1425.15083	8725.6625
1428.58758	8628.1625
1432.02203	8607.7625
1435.45416	8608.4625
1438.88399	8598.0625
1442.31151	8600.6625
1445.73673	8624.6625
1449.15965	8649.2625
1452.58027	8636.6625
1455.9986	8636.3625
1459.41463	8644.5625
1462.82837	8735.6625
1466.23982	8876.0625
1469.64898	9085.3625
1473.05586	9231.4625
1476.46045	9330.9625
1479.86276	9431.4625
1483.26279	9556.4625
1486.66054	9687.5625
1490.05602	10044.4625
1493.44922	10469.0625
1496.84016	11174.6625
1500.22882	12226.7625
1503.61521	13446.9625
1506.99934	14589.1625
1510.38121	15275.8625
1513.76081	15047.6625
1517.13816	13912.8625
1520.51324	12481.2625
1523.88607	11255.0625
1527.25665	10541.3625
1530.62498	10200.9625
1533.99105	10051.1625
1537.35488	9949.0625
1540.71647	9872.4625
1544.07581	9769.0625
1547.4329	9670.3625
1550.78776	9533.5625
1554.14038	9419.1625
1557.49077	9391.2625
1560.83892	9460.0625
1564.18484	9685.6625
1567.52853	9943.9625
1570.86999	10132.5625
1574.20922	10191.8625
1577.54624	10089.0625
1580.88103	9677.9625
1584.2136	9199.6625
1587.54395	8948.0625
1590.87208	8893.5625
1594.19801	9083.1625
1597.52172	9406.8625
1600.84321	9527.9625
1604.16251	9464.6625
1607.47959	9336.0625
1610.79447	9123.1625
1614.10715	8827.2625
1617.41763	8464.6625
1620.7259	8187.5625
1624.03199	8012.3625
1627.33587	7945.0625
1630.63757	7994.8625
1633.93707	8180.9625
1637.23439	8605.0625
1640.52951	9290.3625
1643.82246	10239.3625
1647.11321	11203.9625
1650.40179	11678.8625
1653.68819	11254.5625
1656.97241	10097.9625
1660.25446	8917.0625
1663.53433	8092.0625
1666.81203	7602.0625
1670.08756	7334.4625
1673.36092	7130.0625
1676.63211	7013.1625
1679.90115	6933.4625
1683.16801	6864.5625
1686.43272	6802.7625
1689.69527	6761.9625
1692.95567	6741.8625
1696.2139	6708.9625
1699.46999	6685.7625
1702.72392	6677.7625
1705.97571	6658.5625
1709.22535	6653.9625
1712.47284	6664.8625
1715.71819	6671.4625
1718.96139	6661.3625
1722.20246	6654.6625
1725.44139	6643.4625
1728.67818	6589.0625
1731.91284	6559.0625
1735.14537	6522.3625
1738.37576	6508.3625
1741.60403	6470.0625
1744.83017	6451.6625
1748.05418	6452.4625
1751.27607	6414.6625
1754.49584	6389.3625
1757.71349	6396.3625
1760.92903	6402.2625
1764.14244	6361.7625
1767.35375	6342.9625
1770.56294	6345.7625
1773.77002	6333.3625
1776.97499	6305.4625
1780.17785	6297.4625
1783.37861	6263.9625
1786.57727	6264.6625
1789.77382	6257.6625
1792.96828	6259.9625
1796.16064	6225.2625
1799.3509	6225.0625
1802.53907	6213.7625
1805.72514	6206.1625
1808.90913	6186.6625
1812.09102	6156.8625
1815.27083	6139.8625
1818.44856	6157.7625
1821.6242	6113.5625
1824.79776	6100.5625
1827.96924	6097.4625
1831.13864	6083.7625
1834.30597	6082.1625
1837.47122	6061.0625
1840.6344	6026.6625
1843.7955	6032.4625
1846.95454	6041.0625
1850.11151	6018.8625
1853.26642	6016.9625
1856.41926	6035.7625
1859.57004	6020.2625
1862.71876	6030.5625
1865.86542	6019.6625
1869.01003	6013.8625
1872.15258	5995.3625
1875.29308	5971.9625
1878.43152	5994.0625
1881.56792	5980.7625
1884.70227	5949.4625
1887.83457	5931.6625
1890.96482	5932.2625
1894.09304	5907.6625
1897.21921	5912.0625
1900.34335	5888.4625
1903.46544	5894.1625
1906.58551	5901.8625
1909.70353	5873.6625
1912.81953	5877.8625
1915.93349	5862.0625
1919.04543	5852.2625
1922.15534	5834.2625
1925.26322	5829.5625
1928.36908	5804.6625
1931.47292	5771.0625
1934.57473	5773.6625
1937.67453	5768.7625
1940.77232	5748.6625
1943.86808	5732.3625
1946.96184	5717.5625
1950.05358	5702.0625
1953.14331	5667.4625
1956.23103	5680.9625
1959.31675	5634.5625
1962.40046	5623.7625
1965.48217	5601.2625
1968.56188	5598.7625
1971.63959	5583.8625
1974.7153	5566.0625
1977.78901	5557.6625
1980.86073	5543.9625
1983.93046	5516.2625
1986.99819	5480.4625
1990.06394	5463.2625
1993.1277	5454.3625
1996.18947	5416.7625
1999.24925	5415.6625
2002.30706	5379.5625
2005.36288	5357.9625
2008.41672	5340.3625
2011.46859	5316.3625
2014.51848	5320.1625
2017.56639	5296.7625
2020.61233	5276.8625
2023.6563	5271.1625
2026.6983	5249.6625
2029.73833	5225.4625
2032.7764	5211.9625
2035.8125	5218.3625
2038.84664	5189.8625
2041.87881	5190.1625
2044.90903	5171.3625
2047.93729	5152.7625
2050.96359	5160.3625
2053.98794	5123.5625
2057.01034	5147.6625
2060.03078	5126.1625
2063.04927	5111.9625
2066.06582	5106.2625
2069.08042	5098.9625
2072.09307	5090.5625
2075.10378	5093.7625
2078.11255	5082.8625
2081.11938	5085.7625
2084.12426	5059.9625
2087.12722	5051.1625
2090.12824	5076.3625
2093.12732	5054.5625
2096.12447	5068.1625
2099.11969	5069.0625
2102.11299	5078.0625
2105.10435	5074.2625
2108.09379	5071.3625
2111.08131	5052.6625
2114.0669	5066.0625
2117.05057	5097.0625
2120.03233	5087.2625
2123.01216	5077.4625
2125.99008	5074.6625
2128.96609	5070.0625
2131.94018	5087.3625
2134.91236	5077.6625
2137.88263	5070.0625
2140.851	5059.0625
2143.81746	5084.0625
2146.78201	5080.9625
2149.74466	5069.6625
2152.7054	5059.6625
2155.66425	5073.6625
2158.6212	5051.9625
2161.57625	5028.0625
2164.52941	5047.8625
2167.48067	5050.5625
2170.43004	5019.8625
2173.37752	5027.2625
2176.32311	5028.8625
2179.26681	5048.8625
2182.20863	5016.8625
2185.14856	5042.4625
2188.08661	5020.3625
2191.02278	5036.0625
2193.95707	5027.6625
2196.88948	5013.2625
2199.82001	5001.9625
2202.74867	5003.7625
2205.67545	4999.7625
2208.60037	4994.8625
2211.52341	4975.2625
2214.44458	4967.2625
2217.36388	4944.9625
2220.28132	4935.1625
2223.1969	4899.9625
2226.11061	4893.6625
2229.02246	4884.3625
2231.93245	4882.8625
2234.84058	4889.1625
2237.74686	4865.2625
2240.65128	4858.7625
2243.55385	4845.2625
2246.45456	4845.9625
2249.35343	4831.3625
2252.25044	4818.8625
2255.14561	4820.0625
2258.03893	4834.2625
2260.93041	4815.7625
2263.82004	4816.5625
2266.70783	4794.2625
2269.59378	4777.0625
2272.4779	4758.2625
2275.36017	4755.9625
2278.24061	4747.3625
2281.11922	4720.9625
2283.996	4698.9625
2286.87094	4717.8625
2289.74405	4703.4625
2292.61534	4693.1625
2295.4848	4686.1625
2298.35243	4665.8625
2301.21824	4659.4625
2304.08223	4657.2625
2306.94439	4655.2625
2309.80474	4658.7625
2312.66327	4645.9625
2315.51999	4639.2625
2318.37489	4625.3625
2321.22797	4613.4625
2324.07925	4595.9625
2326.92871	4601.1625
2329.77637	4588.8625
2332.62222	4573.4625
2335.46626	4577.7625
2338.3085	4555.8625
2341.14893	4545.0625
2343.98756	4542.5625
2346.8244	4549.7625
2349.65943	4524.3625
2352.49267	4526.1625
2355.32411	4515.7625
2358.15376	4513.8625
2360.98161	4515.9625
2363.80768	4528.2625
2366.63195	4518.1625
2369.45444	4532.4625
2372.27514	4521.0625
2375.09405	4503.3625
2377.91118	4500.6625
2380.72652	4490.6625
2383.54009	4477.7625
2386.35187	4463.4625
2389.16188	4453.7625
2391.97011	4436.2625
2394.77657	4418.3625
2397.58125	4404.3625
2400.38416	4402.4625
2403.18529	4396.1625
2405.98466	4390.8625
2408.78226	4394.1625
2411.57809	4364.4625
2414.37216	4358.2625
2417.16446	4349.9625
2419.955	4373.2625
2422.74378	4349.4625
2425.5308	4343.5625
2428.31606	4334.0625
2431.09956	4357.6625
2433.88131	4327.0625
2436.6613	4332.5625
2439.43954	4319.2625
2442.21603	4321.6625
2444.99077	4310.1625
2447.76377	4309.4625
2450.53501	4311.3625
2453.30451	4309.4625
2456.07226	4296.5625
2458.83827	4283.0625
2461.60254	4275.7625
2464.36507	4271.9625
2467.12586	4248.5625
2469.88492	4259.5625
2472.64224	4249.9625
2475.39782	4268.1625
2478.15167	4248.4625
2480.90379	4244.8625
2483.65417	4238.1625
2486.40283	4232.9625
2489.14976	4251.8625
2491.89497	4246.7625
2494.63845	4232.9625
2497.3802	4239.3625
2500.12024	4206.5625
2502.85855	4214.9625
2505.59514	4204.5625
2508.33002	4197.8625
2511.06318	4181.0625
2513.79462	4176.3625
2516.52435	4165.5625
2519.25237	4157.6625
2521.97867	4137.2625
2524.70327	4145.6625
2527.42616	4132.1625
2530.14734	4118.1625
2532.86681	4105.5625
2535.58458	4124.0625
2538.30065	4125.9625
2541.01501	4106.6625
2543.72768	4109.1625
2546.43864	4096.2625
2549.14791	4091.4625
2551.85548	4066.8625
2554.56136	4069.2625
2557.26554	4066.8625
2559.96803	4056.7625
2562.66883	4052.1625
2565.36794	4048.4625
2568.06536	4017.0625
2570.7611	4004.8625
2573.45514	4001.1625
2576.14751	3977.3625
2578.83819	3981.5625
2581.52719	3963.6625
2584.21451	3961.8625
2586.90015	3969.6625
2589.58411	3954.8625
2592.2664	3946.7625
2594.94701	3949.4625
2597.62594	3933.4625
2600.30321	3914.4625
2602.9788	3916.9625
2605.65273	3911.1625
2608.32498	3901.6625
2610.99557	3902.6625
2613.66449	3892.5625
2616.33175	3893.6625
2618.99734	3879.8625
2621.66128	3869.4625
2624.32355	3866.0625
2626.98416	3847.2625
2629.64311	3835.2625
2632.30041	3829.2625
2634.95605	3821.0625
2637.61004	3807.9625
2640.26238	3797.1625
2642.91306	3784.2625
2645.56209	3799.9625
2648.20948	3797.4625
2650.85521	3784.0625
2653.4993	3791.3625
2656.14175	3783.2625
2658.78255	3775.3625
2661.42171	3778.4625
2664.05923	3782.8625
2666.6951	3785.6625
2669.32934	3784.9625
2671.96194	3776.3625
2674.59291	3800.6625
2677.22224	3783.3625
2679.84993	3798.0625
2682.476	3778.0625
2685.10043	3767.1625
2687.72324	3785.3625
2690.34441	3773.5625
2692.96396	3771.4625
2695.58188	3776.4625
2698.19818	3764.5625
2700.81285	3763.6625
2703.4259	3772.3625
2706.03733	3745.7625
2708.64714	3753.2625
2711.25533	3750.4625
2713.86191	3752.9625
2716.46687	3750.7625
2719.07021	3735.6625
2721.67194	3743.6625
2724.27206	3753.5625
2726.87057	3734.4625
2729.46747	3740.4625
2732.06276	3735.1625
2734.65644	3726.1625
2737.24852	3725.4625
2739.83899	3711.1625
2742.42786	3708.1625
2745.01513	3700.4625
2747.60079	3686.8625
2750.18486	3687.1625
2752.76733	3679.2625
2755.3482	3683.9625
2757.92747	3678.2625
2760.50515	3651.4625
2763.08123	3639.1625
2765.65573	3629.9625
2768.22863	3624.8625
2770.79994	3622.4625
2773.36967	3616.4625
2775.9378	3607.0625
2778.50435	3615.4625
2781.06932	3605.3625
2783.6327	3600.0625
2786.1945	3591.0625
2788.75471	3578.5625
2791.31335	3562.3625
2793.87041	3570.3625
2796.42589	3547.4625
2798.97979	3542.3625
2801.53212	3536.5625
2804.08288	3526.4625
2806.63206	3531.0625
2809.17967	3525.7625
2811.72571	3518.3625
2814.27018	3509.0625
2816.81308	3500.9625
2819.35442	3502.3625
2821.89419	3475.7625
2824.43239	3466.9625
2826.96904	3469.5625
2829.50412	3468.6625
2832.03763	3445.5625
2834.56959	3452.2625
2837.1	3437.1625
2839.62884	3431.1625
2842.15613	3439.7625
2844.68186	3430.6625
2847.20604	3438.7625
2849.72867	3414.0625
2852.24974	3398.3625
2854.76927	3398.5625
2857.28724	3392.4625
2859.80367	3376.4625
2862.31855	3372.3625
2864.83189	3374.4625
2867.34368	3373.6625
2869.85393	3368.8625
2872.36264	3375.2625
2874.8698	3359.2625
2877.37543	3362.5625
2879.87952	3359.4625
2882.38207	3345.8625
2884.88308	3338.5625
2887.38256	3347.6625
2889.88051	3348.9625
2892.37692	3333.6625
2894.8718	3329.6625
2897.36515	3337.6625
2899.85698	3318.4625
2902.34727	3333.3625
2904.83604	3328.6625
2907.32328	3324.4625
2909.809	3332.4625
2912.29319	3333.3625
2914.77587	3343.5625
2917.25702	3339.7625
2919.73665	3346.9625
2922.21476	3331.3625
2924.69136	3335.9625
2927.16644	3326.2625
2929.64	3323.2625
2932.11205	3308.3625
2934.58258	3291.4625
2937.05161	3291.6625
2939.51912	3294.2625
2941.98513	3292.6625
2944.44962	3279.2625
2946.91261	3284.5625
2949.37409	3253.9625
2951.83407	3265.6625
2954.29254	3257.5625
2956.74951	3249.8625
2959.20498	3268.0625
2961.65895	3252.9625
2964.11142	3253.0625
2966.56239	3240.9625
2969.01186	3245.5625
2971.45984	3250.8625
2973.90632	3230.4625
2976.35131	3222.7625
2978.7948	3234.3625
2981.23681	3223.7625
2983.67732	3210.3625
2986.11635	3205.5625
2988.55388	3187.3625
2990.98993	3183.0625
2993.4245	3188.0625
2995.85758	3176.7625
2998.28917	3160.6625
3000.71928	3151.4625
3003.14791	3131.7625
3005.57506	3137.7625
3008.00073	3129.9625
3010.42493	3111.2625
3012.84764	3109.3625
3015.26888	3102.8625
3017.68865	3096.1625
3020.10694	3105.6625
3022.52376	3080.9625
3024.9391	3075.3625
3027.35298	3048.3625
3029.76539	3056.3625
3032.17632	3040.3625
3034.5858	3049.1625
3036.9938	3046.9625
3039.40034	3024.6625
3041.80542	3015.9625
3044.20903	3008.5625
3046.61118	3007.8625
3049.01187	2995.0625
3051.4111	2988.7625
3053.80888	2980.2625
3056.20519	2977.6625
3058.60005	2956.2625
3060.99345	2964.7625
3063.3854	2957.0625
3065.7759	2938.7625
3068.16494	2941.4625
3070.55254	2924.8625
3072.93868	2935.6625
3075.32338	2918.7625
3077.70662	2900.4625
3080.08842	2896.2625
3082.46878	2898.4625
3084.84769	2887.2625
3087.22515	2880.5625
3089.60118	2876.6625
3091.97576	2873.1625
3094.3489	2869.0625
3096.72061	2858.7625
3099.09087	2857.4625
3101.4597	2864.7625
3103.82709	2844.9625
3106.19305	2847.2625
3108.55757	2849.7625
3110.92066	2844.1625
3113.28232	2843.0625
3115.64255	2834.5625
3118.00134	2815.9625
3120.35871	2818.2625
3122.71466	2815.1625
