Data from AgNPs_UA_10uM_CRN_500uM_SU_RamanShift__110__13-23-40-275.txt Node

Date: Thu Aug 04 13:23:40 BST 2022
User: TCL
Spectrometer: QEP01345
Trigger mode: 4
Integration Time (sec): 1.000000E0
Scans to average: 10
Electric dark correction enabled: true
Nonlinearity correction enabled: false
Boxcar width: 0
XAxis mode: Raman Shifts
Number of Pixels in Spectrum: 1044
>>>>>Begin Spectral Data<<<<<
46.04893	0.6875
50.45542	-0.7125
54.85868	1.0875
59.25871	-1.5125
63.6555	20.9875
68.04907	20.8875
72.43941	21.1875
76.82654	23.4875
81.21044	25.2875
85.59113	25.6875
89.96862	25.6875
94.34289	28.4875
98.71396	26.0875
103.08183	30.4875
107.4465	29.9875
111.80798	29.4875
116.16626	32.6875
120.52136	33.8875
124.87327	33.9875
129.222	37.8875
133.56755	39.3875
137.90993	41.4875
142.24913	47.3875
146.58517	54.4875
150.91804	62.4875
155.24774	78.2875
159.57429	96.5875
163.89768	128.2875
168.21792	171.1875
172.53501	237.1875
176.84895	334.2875
181.15975	467.4875
185.46741	659.2875
189.77193	923.3875
194.07331	1246.6875
198.37157	1594.7875
202.6667	1977.4875
206.9587	2342.3875
211.24758	2724.3875
215.53334	3113.2875
219.81599	3535.3875
224.09553	3986.0875
228.37195	4490.8875
232.64527	5040.6875
236.91549	5570.4875
241.18261	6063.7875
245.44663	6458.7875
249.70755	6779.6875
253.96539	7092.9875
258.22014	7314.8875
262.4718	7536.0875
266.72039	7682.4875
270.96589	7715.8875
275.20832	7692.0875
279.44768	7583.9875
283.68397	7460.3875
287.91719	7375.8875
292.14735	7358.1875
296.37445	7484.0875
300.59849	7708.2875
304.81948	7960.6875
309.03742	8213.3875
313.25231	8337.0875
317.46415	8233.7875
321.67296	7947.1875
325.87872	7693.0875
330.08145	7495.6875
334.28114	7502.8875
338.47781	7592.5875
342.67145	7724.5875
346.86207	7946.5875
351.04966	8254.5875
355.23424	8555.3875
359.4158	8769.9875
363.59435	8898.6875
367.76989	8924.7875
371.94243	8903.1875
376.11196	8911.9875
380.27849	8905.6875
384.44203	8940.3875
388.60257	8973.6875
392.76012	9043.7875
396.91468	9167.4875
401.06626	9307.3875
405.21485	9337.4875
409.36047	9254.1875
413.50311	8987.8875
417.64277	8730.6875
421.77947	8567.6875
425.9132	8494.6875
430.04396	8490.1875
434.17176	8541.7875
438.2966	8643.8875
442.41849	8806.0875
446.53742	9031.2875
450.6534	9230.4875
454.76644	9339.4875
458.87653	9394.1875
462.98368	9394.9875
467.08789	9298.4875
471.18916	9171.5875
475.2875	8956.2875
479.38291	8813.0875
483.4754	8673.3875
487.56496	8620.4875
491.6516	8584.8875
495.73531	8569.4875
499.81612	8614.1875
503.89401	8685.2875
507.96899	8731.6875
512.04106	8768.0875
516.11023	8808.2875
520.1765	8887.7875
524.23987	8902.0875
528.30034	8890.6875
532.35792	8845.6875
536.41261	8781.5875
540.46441	8684.9875
544.51333	8670.0875
548.55936	8715.0875
552.60252	8827.0875
556.64279	9002.3875
560.6802	9119.7875
564.71473	9229.2875
568.7464	9298.6875
572.7752	9292.5875
576.80114	9081.6875
580.82422	8926.6875
584.84444	8888.8875
588.86181	8930.9875
592.87633	9031.4875
596.888	9195.6875
600.89682	9585.9875
604.9028	10640.1875
608.90594	12787.8875
612.90624	14822.8875
616.90371	13622.9875
620.89834	10738.0875
624.89015	9612.1875
628.87913	9540.6875
632.86528	9666.4875
636.84862	9658.8875
640.82913	9397.3875
644.80683	9051.5875
648.78172	8853.1875
652.75379	8896.9875
656.72306	9173.4875
660.68952	9465.9875
664.65319	9385.9875
668.61405	9246.3875
672.57211	9301.7875
676.52738	9301.9875
680.47986	9115.9875
684.42955	8932.3875
688.37646	8908.3875
692.32058	9002.4875
696.26192	9169.3875
700.20048	9330.2875
704.13626	9366.0875
708.06928	9226.4875
711.99952	9111.6875
715.927	9114.4875
719.85171	9193.6875
723.77365	9184.4875
727.69284	9111.2875
731.60928	9039.3875
735.52295	9014.0875
739.43388	9076.3875
743.34206	9139.5875
747.24749	9145.8875
751.15017	9157.2875
755.05012	9247.4875
758.94733	9575.7875
762.8418	10336.7875
766.73354	11481.1875
770.62254	12408.3875
774.50882	12623.2875
778.39237	12149.9875
782.27321	11335.4875
786.15132	10448.4875
790.02671	9759.2875
793.89938	9443.6875
797.76935	9286.1875
801.6366	9217.6875
805.50115	9137.5875
809.36299	9118.2875
813.22213	9079.8875
817.07857	9093.2875
820.93231	9089.0875
824.78336	9079.8875
828.63172	9112.1875
832.47738	9112.8875
836.32036	9126.5875
840.16066	9124.9875
843.99827	9116.1875
847.8332	9150.8875
851.66546	9138.7875
855.49504	9123.8875
859.32195	9150.1875
863.1462	9126.5875
866.96777	9125.2875
870.78668	9133.8875
874.60293	9134.6875
878.41652	9175.8875
882.22745	9261.1875
886.03573	9301.1875
889.84136	9299.2875
893.64433	9259.0875
897.44466	9211.3875
901.24235	9194.2875
905.0374	9184.4875
908.8298	9131.6875
912.61957	9135.2875
916.40671	9162.0875
920.19121	9207.9875
923.97308	9298.8875
927.75233	9397.4875
931.52895	9470.1875
935.30295	9401.8875
939.07433	9217.0875
942.84309	9128.7875
946.60924	9106.9875
950.37278	9077.3875
954.13371	9038.2875
957.89203	9025.2875
961.64774	9002.8875
965.40086	9010.4875
969.15137	8993.7875
972.89929	8980.7875
976.64461	8985.9875
980.38733	8990.5875
984.12747	9076.1875
987.86502	9094.1875
991.59999	9185.0875
995.33237	9293.8875
999.06217	9477.7875
1002.78939	9682.3875
1006.51404	9858.3875
1010.23611	9959.2875
1013.95561	10030.8875
1017.67255	10091.5875
1021.38692	10126.0875
1025.09872	10091.2875
1028.80796	10130.3875
1032.51465	10237.4875
1036.21877	10339.8875
1039.92035	10329.6875
1043.61937	10251.7875
1047.31584	10142.3875
1051.00976	10029.6875
1054.70114	9991.8875
1058.38998	10003.0875
1062.07627	10020.5875
1065.76003	10076.6875
1069.44126	10142.4875
1073.11995	10296.8875
1076.79611	10479.6875
1080.46974	10656.2875
1084.14085	10728.0875
1087.80943	10841.9875
1091.47549	10877.5875
1095.13903	10841.7875
1098.80005	10780.2875
1102.45857	10813.8875
1106.11456	10747.2875
1109.76805	10654.7875
1113.41903	10654.5875
1117.06751	10794.1875
1120.71348	10970.6875
1124.35696	11183.3875
1127.99793	11297.6875
1131.63641	11124.6875
1135.2724	10890.3875
1138.90589	10602.5875
1142.5369	10427.1875
1146.16542	10329.0875
1149.79145	10255.6875
1153.415	10182.3875
1157.03607	10152.5875
1160.65467	10252.4875
1164.27079	10459.1875
1167.88443	10811.9875
1171.49561	11343.0875
1175.10432	12135.6875
1178.71056	13158.6875
1182.31434	14046.7875
1185.91565	14400.9875
1189.51451	14343.4875
1193.11091	14021.2875
1196.70485	13585.3875
1200.29634	13179.2875
1203.88538	12753.6875
1207.47197	12286.2875
1211.05612	11827.3875
1214.63782	11476.5875
1218.21708	11252.6875
1221.79391	11177.9875
1225.36829	11160.4875
1228.94024	11146.8875
1232.50976	11077.4875
1236.07685	11008.0875
1239.6415	11026.5875
1243.20374	11072.1875
1246.76355	11135.0875
1250.32093	11259.7875
1253.8759	11467.2875
1257.42845	11789.4875
1260.97859	12137.5875
1264.52631	12453.0875
1268.07163	12693.3875
1271.61453	12897.9875
1275.15503	13016.0875
1278.69312	13102.6875
1282.22882	13223.3875
1285.76211	13367.6875
1289.29301	13542.4875
1292.82151	13725.8875
1296.34761	14024.2875
1299.87133	14537.8875
1303.39266	15375.7875
1306.9116	16622.2875
1310.42815	17953.3875
1313.94233	18490.7875
1317.45412	18042.7875
1320.96354	17042.5875
1324.47058	15991.0875
1327.97525	15134.2875
1331.47754	14580.0875
1334.97747	14406.2875
1338.47502	14575.4875
1341.97022	14983.3875
1345.46305	15722.0875
1348.95352	16751.5875
1352.44163	17808.4875
1355.92738	19039.4875
1359.41078	20432.0875
1362.89183	21402.2875
1366.37053	20363.0875
1369.84688	17740.8875
1373.32088	15329.2875
1376.79254	13944.3875
1380.26186	13328.0875
1383.72883	12964.9875
1387.19347	12617.1875
1390.65578	12248.5875
1394.11575	11901.9875
1397.57339	11678.1875
1401.0287	11593.4875
1404.48168	11601.5875
1407.93234	11684.7875
1411.38068	11879.0875
1414.82669	12038.3875
1418.27039	12039.1875
1421.71177	12017.2875
1425.15083	11944.2875
1428.58758	11916.1875
1432.02203	11981.5875
1435.45416	12130.5875
1438.88399	12112.6875
1442.31151	12065.7875
1445.73673	12032.1875
1449.15965	12010.2875
1452.58027	11949.7875
1455.9986	11879.1875
1459.41463	11868.6875
1462.82837	11947.6875
1466.23982	12144.3875
1469.64898	12348.7875
1473.05586	12489.4875
1476.46045	12627.6875
1479.86276	12804.1875
1483.26279	12932.7875
1486.66054	13126.9875
1490.05602	13436.6875
1493.44922	13991.7875
1496.84016	14767.9875
1500.22882	15865.1875
1503.61521	17287.1875
1506.99934	18628.4875
1510.38121	19412.6875
1513.76081	19137.6875
1517.13816	17820.3875
1520.51324	16099.9875
1523.88607	14728.7875
1527.25665	13891.2875
1530.62498	13443.1875
1533.99105	13221.4875
1537.35488	13117.5875
1540.71647	13027.1875
1544.07581	12930.7875
1547.4329	12809.6875
1550.78776	12676.1875
1554.14038	12561.8875
1557.49077	12529.6875
1560.83892	12646.4875
1564.18484	12907.4875
1567.52853	13164.9875
1570.86999	13368.6875
1574.20922	13333.8875
1577.54624	13151.9875
1580.88103	12688.8875
1584.2136	12183.3875
1587.54395	11957.3875
1590.87208	12157.0875
1594.19801	12719.4875
1597.52172	13353.3875
1600.84321	13628.7875
1604.16251	13500.2875
1607.47959	13149.4875
1610.79447	12647.9875
1614.10715	11973.7875
1617.41763	11331.5875
1620.7259	10871.1875
1624.03199	10646.7875
1627.33587	10627.6875
1630.63757	10821.9875
1633.93707	11260.0875
1637.23439	11991.7875
1640.52951	13075.8875
1643.82246	14393.4875
1647.11321	15563.2875
1650.40179	15975.7875
1653.68819	15037.7875
1656.97241	13314.2875
1660.25446	11694.3875
1663.53433	10595.7875
1666.81203	9957.8875
1670.08756	9568.6875
1673.36092	9354.9875
1676.63211	9201.5875
1679.90115	9065.8875
1683.16801	8971.6875
1686.43272	8884.0875
1689.69527	8852.2875
1692.95567	8808.2875
1696.2139	8771.3875
1699.46999	8741.5875
1702.72392	8742.8875
1705.97571	8725.6875
1709.22535	8732.8875
1712.47284	8716.2875
1715.71819	8740.1875
1718.96139	8729.5875
1722.20246	8715.8875
1725.44139	8682.9875
1728.67818	8605.4875
1731.91284	8557.5875
1735.14537	8540.1875
1738.37576	8501.1875
1741.60403	8474.5875
1744.83017	8442.3875
1748.05418	8455.2875
1751.27607	8408.1875
1754.49584	8403.7875
1757.71349	8400.2875
1760.92903	8402.4875
1764.14244	8362.9875
1767.35375	8328.2875
1770.56294	8345.6875
1773.77002	8315.5875
1776.97499	8292.1875
1780.17785	8280.8875
1783.37861	8247.9875
1786.57727	8234.3875
1789.77382	8249.7875
1792.96828	8223.2875
1796.16064	8196.6875
1799.3509	8207.3875
1802.53907	8194.4875
1805.72514	8167.0875
1808.90913	8163.8875
1812.09102	8126.0875
1815.27083	8122.2875
1818.44856	8079.2875
1821.6242	8068.5875
1824.79776	8054.8875
1827.96924	8026.7875
1831.13864	8024.5875
1834.30597	8022.2875
1837.47122	7997.4875
1840.6344	7994.6875
1843.7955	7985.9875
1846.95454	7958.7875
1850.11151	7974.0875
1853.26642	7996.1875
1856.41926	7984.0875
1859.57004	7962.7875
1862.71876	7980.5875
1865.86542	7937.5875
1869.01003	7957.3875
1872.15258	7929.6875
1875.29308	7925.8875
1878.43152	7925.0875
1881.56792	7916.7875
1884.70227	7888.8875
1887.83457	7870.6875
1890.96482	7859.1875
1894.09304	7844.3875
1897.21921	7828.1875
1900.34335	7829.5875
1903.46544	7826.6875
1906.58551	7836.9875
1909.70353	7812.1875
1912.81953	7818.6875
1915.93349	7814.8875
1919.04543	7773.4875
1922.15534	7772.0875
1925.26322	7753.7875
1928.36908	7728.8875
1931.47292	7725.1875
1934.57473	7711.1875
1937.67453	7691.8875
1940.77232	7678.2875
1943.86808	7665.5875
1946.96184	7624.6875
1950.05358	7626.4875
1953.14331	7592.2875
1956.23103	7559.8875
1959.31675	7544.7875
1962.40046	7526.7875
1965.48217	7499.7875
1968.56188	7470.6875
1971.63959	7468.8875
1974.7153	7453.9875
1977.78901	7447.1875
1980.86073	7421.9875
1983.93046	7395.9875
1986.99819	7352.5875
1990.06394	7326.2875
1993.1277	7300.2875
1996.18947	7281.7875
1999.24925	7268.7875
2002.30706	7208.4875
2005.36288	7213.2875
2008.41672	7192.4875
2011.46859	7145.8875
2014.51848	7160.5875
2017.56639	7108.9875
2020.61233	7094.3875
2023.6563	7079.1875
2026.6983	7073.6875
2029.73833	7038.9875
2032.7764	7027.2875
2035.8125	7029.4875
2038.84664	7002.2875
2041.87881	6983.6875
2044.90903	6992.3875
2047.93729	6966.5875
2050.96359	6966.2875
2053.98794	6939.9875
2057.01034	6935.0875
2060.03078	6953.8875
2063.04927	6919.8875
2066.06582	6909.2875
2069.08042	6902.5875
2072.09307	6889.1875
2075.10378	6887.8875
2078.11255	6892.1875
2081.11938	6881.9875
2084.12426	6872.2875
2087.12722	6846.3875
2090.12824	6861.2875
2093.12732	6855.0875
2096.12447	6859.9875
2099.11969	6886.3875
2102.11299	6868.6875
2105.10435	6869.5875
2108.09379	6876.7875
2111.08131	6890.6875
2114.0669	6856.9875
2117.05057	6879.8875
2120.03233	6892.1875
2123.01216	6906.6875
2125.99008	6884.8875
2128.96609	6899.5875
2131.94018	6894.5875
2134.91236	6905.4875
2137.88263	6883.8875
2140.851	6874.0875
2143.81746	6893.5875
2146.78201	6880.8875
2149.74466	6892.0875
2152.7054	6886.7875
2155.66425	6895.9875
2158.6212	6883.6875
2161.57625	6854.2875
2164.52941	6862.3875
2167.48067	6879.3875
2170.43004	6862.0875
2173.37752	6850.1875
2176.32311	6866.4875
2179.26681	6879.3875
2182.20863	6872.5875
2185.14856	6864.4875
2188.08661	6871.8875
2191.02278	6861.7875
2193.95707	6867.3875
2196.88948	6868.7875
2199.82001	6852.8875
2202.74867	6850.1875
2205.67545	6857.1875
2208.60037	6828.2875
2211.52341	6834.9875
2214.44458	6806.4875
2217.36388	6794.7875
2220.28132	6784.8875
2223.1969	6754.9875
2226.11061	6741.6875
2229.02246	6733.3875
2231.93245	6727.9875
2234.84058	6716.0875
2237.74686	6701.8875
2240.65128	6680.4875
2243.55385	6672.3875
2246.45456	6673.2875
2249.35343	6650.1875
2252.25044	6640.8875
2255.14561	6646.6875
2258.03893	6652.3875
2260.93041	6628.7875
2263.82004	6634.4875
2266.70783	6618.8875
2269.59378	6578.0875
2272.4779	6551.6875
2275.36017	6538.8875
2278.24061	6558.2875
2281.11922	6523.6875
2283.996	6516.5875
2286.87094	6505.5875
2289.74405	6495.0875
2292.61534	6489.7875
2295.4848	6458.6875
2298.35243	6460.3875
2301.21824	6453.7875
2304.08223	6447.8875
2306.94439	6466.8875
2309.80474	6468.7875
2312.66327	6452.6875
2315.51999	6449.1875
2318.37489	6459.6875
2321.22797	6420.9875
2324.07925	6418.4875
2326.92871	6409.0875
2329.77637	6419.0875
2332.62222	6381.5875
2335.46626	6390.7875
2338.3085	6369.2875
2341.14893	6391.3875
2343.98756	6397.7875
2346.8244	6387.1875
2349.65943	6383.2875
2352.49267	6369.7875
2355.32411	6360.7875
2358.15376	6365.6875
2360.98161	6354.2875
2363.80768	6363.2875
2366.63195	6346.8875
2369.45444	6330.5875
2372.27514	6339.0875
2375.09405	6323.2875
2377.91118	6321.9875
2380.72652	6293.4875
2383.54009	6287.0875
2386.35187	6276.4875
2389.16188	6257.3875
2391.97011	6226.0875
2394.77657	6220.3875
2397.58125	6196.3875
2400.38416	6205.2875
2403.18529	6203.3875
2405.98466	6184.4875
2408.78226	6150.9875
2411.57809	6142.3875
2414.37216	6131.6875
2417.16446	6122.3875
2419.955	6116.4875
2422.74378	6104.9875
2425.5308	6115.4875
2428.31606	6117.8875
2431.09956	6111.8875
2433.88131	6093.0875
2436.6613	6094.5875
2439.43954	6096.3875
2442.21603	6088.3875
2444.99077	6079.8875
2447.76377	6083.0875
2450.53501	6082.7875
2453.30451	6077.4875
2456.07226	6051.8875
2458.83827	6034.0875
2461.60254	6041.6875
2464.36507	6030.1875
2467.12586	6013.7875
2469.88492	6020.1875
2472.64224	6043.5875
2475.39782	6039.0875
2478.15167	6021.6875
2480.90379	6020.1875
2483.65417	5988.5875
2486.40283	6016.1875
2489.14976	6007.0875
2491.89497	6004.8875
2494.63845	6000.7875
2497.3802	5995.1875
2500.12024	6006.4875
2502.85855	6003.4875
2505.59514	6003.0875
2508.33002	5987.5875
2511.06318	5972.9875
2513.79462	5942.5875
2516.52435	5931.3875
2519.25237	5936.5875
2521.97867	5917.8875
2524.70327	5908.0875
2527.42616	5903.7875
2530.14734	5893.7875
2532.86681	5875.5875
2535.58458	5897.4875
2538.30065	5901.2875
2541.01501	5899.4875
2543.72768	5880.8875
2546.43864	5871.8875
2549.14791	5863.6875
2551.85548	5865.6875
2554.56136	5862.7875
2557.26554	5844.5875
2559.96803	5835.2875
2562.66883	5807.5875
2565.36794	5809.5875
2568.06536	5792.4875
2570.7611	5766.2875
2573.45514	5778.6875
2576.14751	5769.7875
2578.83819	5742.3875
2581.52719	5757.1875
2584.21451	5744.7875
2586.90015	5740.9875
2589.58411	5741.3875
2592.2664	5736.5875
2594.94701	5722.3875
2597.62594	5705.2875
2600.30321	5704.0875
2602.9788	5691.5875
2605.65273	5704.6875
2608.32498	5694.3875
2610.99557	5682.9875
2613.66449	5667.8875
2616.33175	5694.8875
2618.99734	5670.7875
2621.66128	5647.3875
2624.32355	5664.9875
2626.98416	5648.3875
2629.64311	5641.4875
2632.30041	5633.2875
2634.95605	5618.1875
2637.61004	5607.7875
2640.26238	5601.1875
2642.91306	5596.4875
2645.56209	5589.8875
2648.20948	5581.5875
2650.85521	5584.7875
2653.4993	5605.0875
2656.14175	5572.8875
2658.78255	5564.1875
2661.42171	5560.3875
2664.05923	5571.5875
2666.6951	5597.1875
2669.32934	5590.9875
2671.96194	5588.7875
2674.59291	5589.6875
2677.22224	5605.2875
2679.84993	5585.3875
2682.476	5560.5875
2685.10043	5577.4875
2687.72324	5566.3875
2690.34441	5575.7875
2692.96396	5547.9875
2695.58188	5563.1875
2698.19818	5565.5875
2700.81285	5555.2875
2703.4259	5520.3875
2706.03733	5522.5875
2708.64714	5515.2875
2711.25533	5520.3875
2713.86191	5525.5875
2716.46687	5517.0875
2719.07021	5522.9875
2721.67194	5529.4875
2724.27206	5518.1875
2726.87057	5535.3875
2729.46747	5523.0875
2732.06276	5524.6875
2734.65644	5513.2875
2737.24852	5515.1875
2739.83899	5495.7875
2742.42786	5496.1875
2745.01513	5474.5875
2747.60079	5485.3875
2750.18486	5477.8875
2752.76733	5471.9875
2755.3482	5461.1875
2757.92747	5455.2875
2760.50515	5436.1875
2763.08123	5432.0875
2765.65573	5417.9875
2768.22863	5420.4875
2770.79994	5421.4875
2773.36967	5398.8875
2775.9378	5408.4875
2778.50435	5386.8875
2781.06932	5402.8875
2783.6327	5396.1875
2786.1945	5397.9875
2788.75471	5379.9875
2791.31335	5342.4875
2793.87041	5350.1875
2796.42589	5335.7875
2798.97979	5328.6875
2801.53212	5304.7875
2804.08288	5303.3875
2806.63206	5300.1875
2809.17967	5284.3875
2811.72571	5263.0875
2814.27018	5272.8875
2816.81308	5267.4875
2819.35442	5271.7875
2821.89419	5244.2875
2824.43239	5244.8875
2826.96904	5213.7875
2829.50412	5234.5875
2832.03763	5196.3875
2834.56959	5209.1875
2837.1	5196.2875
2839.62884	5174.2875
2842.15613	5159.2875
2844.68186	5174.1875
2847.20604	5148.1875
2849.72867	5159.0875
2852.24974	5147.8875
2854.76927	5136.1875
2857.28724	5130.0875
2859.80367	5126.0875
2862.31855	5113.8875
2864.83189	5109.8875
2867.34368	5125.9875
2869.85393	5102.2875
2872.36264	5090.8875
2874.8698	5102.0875
2877.37543	5086.4875
2879.87952	5085.6875
2882.38207	5068.5875
2884.88308	5067.9875
2887.38256	5082.3875
2889.88051	5056.4875
2892.37692	5061.6875
2894.8718	5063.2875
2897.36515	5054.4875
2899.85698	5053.1875
2902.34727	5053.6875
2904.83604	5066.8875
2907.32328	5081.8875
2909.809	5080.1875
2912.29319	5089.6875
2914.77587	5072.9875
2917.25702	5084.7875
2919.73665	5099.9875
2922.21476	5084.6875
2924.69136	5061.3875
2927.16644	5058.3875
2929.64	5045.5875
2932.11205	5039.9875
2934.58258	5019.9875
2937.05161	5011.3875
2939.51912	5035.0875
2941.98513	5021.2875
2944.44962	5000.9875
2946.91261	5000.0875
2949.37409	5006.8875
2951.83407	4997.5875
2954.29254	4994.8875
2956.74951	4982.1875
2959.20498	4987.3875
2961.65895	4986.0875
2964.11142	5003.9875
2966.56239	4986.6875
2969.01186	4985.8875
2971.45984	4966.0875
2973.90632	4960.5875
2976.35131	4950.6875
2978.7948	4944.6875
2981.23681	4933.2875
2983.67732	4920.8875
2986.11635	4909.2875
2988.55388	4892.4875
2990.98993	4871.6875
2993.4245	4863.6875
2995.85758	4868.2875
2998.28917	4842.6875
3000.71928	4840.4875
3003.14791	4824.2875
3005.57506	4807.2875
3008.00073	4805.4875
3010.42493	4785.2875
3012.84764	4793.2875
3015.26888	4780.6875
3017.68865	4771.9875
3020.10694	4766.1875
3022.52376	4740.8875
3024.9391	4710.5875
3027.35298	4708.0875
3029.76539	4699.1875
3032.17632	4715.6875
3034.5858	4694.4875
3036.9938	4690.6875
3039.40034	4670.7875
3041.80542	4652.8875
3044.20903	4634.3875
3046.61118	4648.8875
3049.01187	4625.9875
3051.4111	4616.9875
3053.80888	4613.5875
3056.20519	4596.9875
3058.60005	4590.3875
3060.99345	4595.8875
3063.3854	4579.5875
3065.7759	4556.4875
3068.16494	4546.9875
3070.55254	4527.3875
3072.93868	4500.7875
3075.32338	4502.1875
3077.70662	4508.7875
3080.08842	4497.2875
3082.46878	4473.6875
3084.84769	4468.9875
3087.22515	4461.3875
3089.60118	4465.1875
3091.97576	4438.9875
3094.3489	4442.8875
3096.72061	4454.4875
3099.09087	4434.0875
3101.4597	4431.9875
3103.82709	4427.0875
3106.19305	4429.3875
