Data from AgNPs_UA_50uM_CRN_500uM_SU_RamanShift__24__13-59-50-318.txt Node

Date: Thu Aug 04 13:59:50 BST 2022
User: TCL
Spectrometer: QEP01345
Trigger mode: 4
Integration Time (sec): 1.000000E0
Scans to average: 10
Electric dark correction enabled: true
Nonlinearity correction enabled: false
Boxcar width: 0
XAxis mode: Raman Shifts
Number of Pixels in Spectrum: 1044
>>>>>Begin Spectral Data<<<<<
46.04893	1.85
50.45542	-0.75
54.85868	-0.05
59.25871	-1.85
63.6555	14.55
68.04907	13.25
72.43941	15.45
76.82654	15.65
81.21044	17.65
85.59113	17.85
89.96862	19.55
94.34289	20.45
98.71396	18.75
103.08183	19.35
107.4465	19.05
111.80798	19.65
116.16626	21.45
120.52136	21.25
124.87327	22.85
129.222	26.65
133.56755	28.55
137.90993	29.15
142.24913	29.75
146.58517	36.45
150.91804	41.95
155.24774	50.85
159.57429	65.35
163.89768	86.15
168.21792	113.55
172.53501	156.55
176.84895	221.05
181.15975	313.05
185.46741	446.35
189.77193	620.95
194.07331	836.75
198.37157	1082.65
202.6667	1335.75
206.9587	1596.55
211.24758	1871.45
215.53334	2139.45
219.81599	2442.15
224.09553	2785.65
228.37195	3153.85
232.64527	3555.15
236.91549	3924.75
241.18261	4266.75
245.44663	4496.25
249.70755	4666.25
253.96539	4794.15
258.22014	4916.15
262.4718	5025.85
266.72039	5091.65
270.96589	5089.55
275.20832	5034.85
279.44768	4946.55
283.68397	4854.05
287.91719	4815.65
292.14735	4843.95
296.37445	4948.85
300.59849	5183.65
304.81948	5468.75
309.03742	5787.35
313.25231	5947.85
317.46415	5885.95
321.67296	5592.25
325.87872	5255.75
330.08145	5056.65
334.28114	5028.75
338.47781	5092.05
342.67145	5231.55
346.86207	5406.95
351.04966	5678.85
355.23424	5975.95
359.4158	6143.85
363.59435	6210.55
367.76989	6177.05
371.94243	6089.75
376.11196	5982.35
380.27849	5924.85
384.44203	5887.95
388.60257	5895.35
392.76012	5905.55
396.91468	5991.45
401.06626	6111.55
405.21485	6132.55
409.36047	5997.35
413.50311	5703.85
417.64277	5456.05
421.77947	5312.15
425.9132	5255.95
430.04396	5269.25
434.17176	5294.95
438.2966	5366.45
442.41849	5460.55
446.53742	5548.65
450.6534	5678.95
454.76644	5716.05
458.87653	5715.45
462.98368	5700.75
467.08789	5636.65
471.18916	5543.75
475.2875	5407.05
479.38291	5303.15
483.4754	5232.45
487.56496	5192.55
491.6516	5183.35
495.73531	5171.95
499.81612	5191.35
503.89401	5241.95
507.96899	5303.45
512.04106	5347.35
516.11023	5443.35
520.1765	5485.35
524.23987	5526.35
528.30034	5486.35
532.35792	5460.35
536.41261	5396.15
540.46441	5301.15
544.51333	5278.15
548.55936	5304.85
552.60252	5400.55
556.64279	5489.95
560.6802	5573.95
564.71473	5680.55
568.7464	5813.55
572.7752	5810.35
576.80114	5591.05
580.82422	5388.55
584.84444	5328.35
588.86181	5314.15
592.87633	5334.85
596.888	5424.85
600.89682	5767.75
604.9028	6572.75
608.90594	8364.15
612.90624	10292.45
616.90371	9439.15
620.89834	6826.45
624.89015	5724.35
628.87913	5580.25
632.86528	5713.65
636.84862	5834.65
640.82913	5691.65
644.80683	5429.45
648.78172	5264.05
652.75379	5303.05
656.72306	5496.95
660.68952	5713.35
664.65319	5619.25
668.61405	5423.25
672.57211	5382.15
676.52738	5380.35
680.47986	5302.85
684.42955	5206.65
688.37646	5167.45
692.32058	5220.95
696.26192	5277.85
700.20048	5360.75
704.13626	5409.85
708.06928	5343.45
711.99952	5308.85
715.927	5314.75
719.85171	5343.95
723.77365	5361.95
727.69284	5325.75
731.60928	5269.85
735.52295	5251.05
739.43388	5286.55
743.34206	5291.85
747.24749	5305.05
751.15017	5320.15
755.05012	5401.15
758.94733	5677.85
762.8418	6408.15
766.73354	7478.15
770.62254	8257.05
774.50882	8343.75
778.39237	7842.45
782.27321	7036.95
786.15132	6214.15
790.02671	5690.15
793.89938	5404.65
797.76935	5297.45
801.6366	5258.35
805.50115	5214.95
809.36299	5197.15
813.22213	5171.85
817.07857	5164.05
820.93231	5171.85
824.78336	5180.65
828.63172	5206.85
832.47738	5227.15
836.32036	5206.45
840.16066	5167.25
843.99827	5147.35
847.8332	5151.95
851.66546	5152.25
855.49504	5163.55
859.32195	5169.85
863.1462	5182.75
866.96777	5184.65
870.78668	5174.65
874.60293	5192.95
878.41652	5203.75
882.22745	5240.95
886.03573	5274.95
889.84136	5275.25
893.64433	5258.75
897.44466	5238.35
901.24235	5222.95
905.0374	5200.65
908.8298	5188.95
912.61957	5171.55
916.40671	5167.05
920.19121	5203.95
923.97308	5256.35
927.75233	5313.25
931.52895	5353.75
935.30295	5297.05
939.07433	5180.95
942.84309	5072.85
946.60924	5033.45
950.37278	5043.55
954.13371	5034.05
957.89203	5028.15
961.64774	5023.85
965.40086	5020.05
969.15137	5006.55
972.89929	4998.25
976.64461	4998.85
980.38733	5002.65
984.12747	4992.75
987.86502	5031.85
991.59999	5058.35
995.33237	5101.85
999.06217	5166.75
1002.78939	5257.15
1006.51404	5372.75
1010.23611	5501.15
1013.95561	5513.85
1017.67255	5514.05
1021.38692	5468.25
1025.09872	5384.15
1028.80796	5300.25
1032.51465	5293.35
1036.21877	5306.35
1039.92035	5335.75
1043.61937	5362.45
1047.31584	5388.55
1051.00976	5414.85
1054.70114	5387.95
1058.38998	5380.05
1062.07627	5410.95
1065.76003	5449.45
1069.44126	5528.65
1073.11995	5624.55
1076.79611	5770.95
1080.46974	5879.05
1084.14085	5999.55
1087.80943	6110.65
1091.47549	6122.65
1095.13903	6063.15
1098.80005	5985.95
1102.45857	5879.05
1106.11456	5797.35
1109.76805	5757.65
1113.41903	5808.75
1117.06751	5944.25
1120.71348	6139.65
1124.35696	6425.35
1127.99793	6617.85
1131.63641	6453.55
1135.2724	6175.35
1138.90589	5945.45
1142.5369	5838.75
1146.16542	5771.75
1149.79145	5730.75
1153.415	5678.05
1157.03607	5617.85
1160.65467	5652.05
1164.27079	5788.65
1167.88443	5997.25
1171.49561	6315.05
1175.10432	6835.95
1178.71056	7587.05
1182.31434	8200.15
1185.91565	8354.45
1189.51451	8170.45
1193.11091	7887.45
1196.70485	7631.55
1200.29634	7416.75
1203.88538	7215.35
1207.47197	6894.05
1211.05612	6589.95
1214.63782	6373.15
1218.21708	6187.85
1221.79391	6062.55
1225.36829	5981.65
1228.94024	5948.65
1232.50976	5941.45
1236.07685	5971.95
1239.6415	5983.25
1243.20374	6000.05
1246.76355	6058.85
1250.32093	6120.95
1253.8759	6234.85
1257.42845	6465.05
1260.97859	6666.25
1264.52631	6845.25
1268.07163	6984.05
1271.61453	7057.75
1275.15503	7065.05
1278.69312	7058.75
1282.22882	7093.25
1285.76211	7211.85
1289.29301	7423.05
1292.82151	7596.55
1296.34761	7768.05
1299.87133	8087.85
1303.39266	8651.95
1306.9116	9520.05
1310.42815	10418.65
1313.94233	10650.25
1317.45412	10063.55
1320.96354	9214.35
1324.47058	8458.65
1327.97525	7850.35
1331.47754	7515.75
1334.97747	7448.35
1338.47502	7541.35
1341.97022	7874.25
1345.46305	8461.25
1348.95352	9281.55
1352.44163	10221.95
1355.92738	11257.45
1359.41078	12598.85
1362.89183	13793.45
1366.37053	13199.75
1369.84688	10978.55
1373.32088	8978.65
1376.79254	7859.75
1380.26186	7358.85
1383.72883	7034.85
1387.19347	6741.65
1390.65578	6506.45
1394.11575	6268.25
1397.57339	6108.25
1401.0287	6022.05
1404.48168	5979.15
1407.93234	5972.15
1411.38068	6035.85
1414.82669	6116.15
1418.27039	6163.05
1421.71177	6126.75
1425.15083	6044.95
1428.58758	6025.05
1432.02203	6046.15
1435.45416	6101.45
1438.88399	6157.55
1442.31151	6165.35
1445.73673	6210.05
1449.15965	6260.95
1452.58027	6216.95
1455.9986	6158.75
1459.41463	6135.75
1462.82837	6194.35
1466.23982	6326.85
1469.64898	6516.15
1473.05586	6616.45
1476.46045	6673.05
1479.86276	6727.35
1483.26279	6851.55
1486.66054	7016.95
1490.05602	7267.05
1493.44922	7693.75
1496.84016	8366.55
1500.22882	9404.25
1503.61521	10731.25
1506.99934	12109.55
1510.38121	12919.85
1513.76081	12728.75
1517.13816	11555.75
1520.51324	9970.65
1523.88607	8687.75
1527.25665	7921.75
1530.62498	7532.55
1533.99105	7358.65
1537.35488	7239.95
1540.71647	7181.55
1544.07581	7094.25
1547.4329	7006.25
1550.78776	6921.05
1554.14038	6861.45
1557.49077	6864.15
1560.83892	6946.65
1564.18484	7182.35
1567.52853	7476.45
1570.86999	7737.85
1574.20922	7798.45
1577.54624	7677.95
1580.88103	7221.35
1584.2136	6717.35
1587.54395	6416.85
1590.87208	6361.25
1594.19801	6565.75
1597.52172	6828.95
1600.84321	6937.55
1604.16251	6871.15
1607.47959	6710.85
1610.79447	6494.45
1614.10715	6183.75
1617.41763	5888.25
1620.7259	5690.95
1624.03199	5555.65
1627.33587	5533.45
1630.63757	5601.75
1633.93707	5784.85
1637.23439	6129.55
1640.52951	6694.05
1643.82246	7539.95
1647.11321	8519.05
1650.40179	9108.85
1653.68819	8820.75
1656.97241	7786.45
1660.25446	6631.15
1663.53433	5836.85
1666.81203	5366.45
1670.08756	5079.35
1673.36092	4909.05
1676.63211	4816.15
1679.90115	4742.35
1683.16801	4685.25
1686.43272	4628.25
1689.69527	4619.65
1692.95567	4590.65
1696.2139	4564.55
1699.46999	4547.85
1702.72392	4536.35
1705.97571	4536.55
1709.22535	4539.55
1712.47284	4530.15
1715.71819	4542.85
1718.96139	4533.65
1722.20246	4518.75
1725.44139	4494.45
1728.67818	4467.95
1731.91284	4443.25
1735.14537	4404.25
1738.37576	4411.85
1741.60403	4394.05
1744.83017	4360.05
1748.05418	4359.75
1751.27607	4342.55
1754.49584	4321.05
1757.71349	4309.85
1760.92903	4326.75
1764.14244	4303.15
1767.35375	4303.55
1770.56294	4283.15
1773.77002	4268.15
1776.97499	4247.55
1780.17785	4244.15
1783.37861	4227.15
1786.57727	4213.35
1789.77382	4210.45
1792.96828	4203.85
1796.16064	4196.35
1799.3509	4195.55
1802.53907	4183.15
1805.72514	4164.55
1808.90913	4159.45
1812.09102	4140.35
1815.27083	4124.95
1818.44856	4131.85
1821.6242	4114.15
1824.79776	4119.15
1827.96924	4097.15
1831.13864	4076.95
1834.30597	4064.85
1837.47122	4064.85
1840.6344	4061.45
1843.7955	4056.85
1846.95454	4055.85
1850.11151	4053.15
1853.26642	4043.05
1856.41926	4053.35
1859.57004	4061.85
1862.71876	4045.35
1865.86542	4049.05
1869.01003	4039.35
1872.15258	4037.55
1875.29308	4032.05
1878.43152	4022.55
1881.56792	4014.55
1884.70227	4012.25
1887.83457	4000.55
1890.96482	3996.45
1894.09304	3991.95
1897.21921	3977.35
1900.34335	3976.65
1903.46544	3954.15
1906.58551	3960.05
1909.70353	3936.85
1912.81953	3953.55
1915.93349	3945.35
1919.04543	3948.45
1922.15534	3930.85
1925.26322	3913.25
1928.36908	3916.95
1931.47292	3897.05
1934.57473	3892.35
1937.67453	3886.95
1940.77232	3856.95
1943.86808	3849.85
1946.96184	3843.85
1950.05358	3826.25
1953.14331	3819.75
1956.23103	3812.15
1959.31675	3800.65
1962.40046	3781.55
1965.48217	3777.25
1968.56188	3766.45
1971.63959	3770.35
1974.7153	3754.65
1977.78901	3740.05
1980.86073	3737.75
1983.93046	3723.05
1986.99819	3699.85
1990.06394	3696.45
1993.1277	3680.65
1996.18947	3678.05
1999.24925	3650.15
2002.30706	3636.65
2005.36288	3614.55
2008.41672	3609.65
2011.46859	3608.95
2014.51848	3591.25
2017.56639	3579.05
2020.61233	3569.25
2023.6563	3562.55
2026.6983	3555.65
2029.73833	3525.15
2032.7764	3509.55
2035.8125	3509.35
2038.84664	3512.35
2041.87881	3510.85
2044.90903	3472.65
2047.93729	3475.85
2050.96359	3473.95
2053.98794	3458.25
2057.01034	3461.05
2060.03078	3461.65
2063.04927	3459.15
2066.06582	3461.85
2069.08042	3445.05
2072.09307	3442.35
2075.10378	3425.55
2078.11255	3424.55
2081.11938	3433.55
2084.12426	3441.25
2087.12722	3436.35
2090.12824	3438.35
2093.12732	3433.25
2096.12447	3442.75
2099.11969	3444.55
2102.11299	3442.05
2105.10435	3441.05
2108.09379	3445.05
2111.08131	3441.85
2114.0669	3437.25
2117.05057	3428.95
2120.03233	3431.85
2123.01216	3427.45
2125.99008	3453.45
2128.96609	3455.05
2131.94018	3451.45
2134.91236	3439.75
2137.88263	3450.55
2140.851	3445.95
2143.81746	3446.55
2146.78201	3443.45
2149.74466	3446.35
2152.7054	3436.45
2155.66425	3432.15
2158.6212	3445.95
2161.57625	3421.55
2164.52941	3427.55
2167.48067	3427.95
2170.43004	3437.75
2173.37752	3434.05
2176.32311	3421.55
2179.26681	3424.65
2182.20863	3421.85
2185.14856	3424.75
2188.08661	3415.75
2191.02278	3424.15
2193.95707	3401.25
2196.88948	3404.95
2199.82001	3403.25
2202.74867	3388.55
2205.67545	3376.85
2208.60037	3400.35
2211.52341	3393.95
2214.44458	3368.35
2217.36388	3372.75
2220.28132	3377.45
2223.1969	3343.95
2226.11061	3345.55
2229.02246	3345.95
2231.93245	3333.25
2234.84058	3331.25
2237.74686	3329.25
2240.65128	3331.15
2243.55385	3309.75
2246.45456	3299.05
2249.35343	3311.35
2252.25044	3295.65
2255.14561	3305.25
2258.03893	3304.15
2260.93041	3294.95
2263.82004	3297.15
2266.70783	3277.35
2269.59378	3279.65
2272.4779	3263.85
2275.36017	3260.55
2278.24061	3238.15
2281.11922	3241.35
2283.996	3233.55
2286.87094	3223.75
2289.74405	3224.45
2292.61534	3230.55
2295.4848	3226.75
2298.35243	3221.55
2301.21824	3206.35
2304.08223	3210.25
2306.94439	3197.55
2309.80474	3201.15
2312.66327	3196.25
2315.51999	3182.15
2318.37489	3182.75
2321.22797	3182.75
2324.07925	3171.35
2326.92871	3160.65
2329.77637	3171.85
2332.62222	3157.85
2335.46626	3135.95
2338.3085	3140.35
2341.14893	3146.05
2343.98756	3144.55
2346.8244	3144.45
2349.65943	3151.55
2352.49267	3135.35
2355.32411	3133.25
2358.15376	3137.05
2360.98161	3140.15
2363.80768	3140.45
2366.63195	3135.95
2369.45444	3129.85
2372.27514	3143.25
2375.09405	3137.85
2377.91118	3128.05
2380.72652	3117.95
2383.54009	3097.75
2386.35187	3096.45
2389.16188	3095.75
2391.97011	3084.45
2394.77657	3074.65
2397.58125	3062.75
2400.38416	3054.15
2403.18529	3045.15
2405.98466	3049.45
2408.78226	3044.85
2411.57809	3038.25
2414.37216	3036.55
2417.16446	3026.25
2419.955	3019.35
2422.74378	3031.35
2425.5308	3026.65
2428.31606	3016.35
2431.09956	3027.05
2433.88131	3015.55
2436.6613	3012.15
2439.43954	3026.15
2442.21603	3016.15
2444.99077	3015.55
2447.76377	3004.15
2450.53501	3004.35
2453.30451	2996.75
2456.07226	3008.95
2458.83827	2993.25
2461.60254	2994.35
2464.36507	2986.25
2467.12586	2990.45
2469.88492	2981.95
2472.64224	2975.15
2475.39782	2982.65
2478.15167	2978.15
2480.90379	2987.05
2483.65417	2994.55
2486.40283	2982.25
2489.14976	2990.45
2491.89497	2992.05
2494.63845	2991.75
2497.3802	2974.55
2500.12024	2972.85
2502.85855	2975.75
2505.59514	2972.85
2508.33002	2952.55
2511.06318	2960.95
2513.79462	2947.15
2516.52435	2934.75
2519.25237	2923.45
2521.97867	2912.15
2524.70327	2915.35
2527.42616	2905.65
2530.14734	2903.95
2532.86681	2894.85
2535.58458	2908.75
2538.30065	2902.55
2541.01501	2899.05
2543.72768	2900.05
2546.43864	2887.15
2549.14791	2881.45
2551.85548	2890.05
2554.56136	2880.45
2557.26554	2880.45
2559.96803	2876.15
2562.66883	2862.55
2565.36794	2877.35
2568.06536	2853.75
2570.7611	2823.85
2573.45514	2839.55
2576.14751	2817.95
2578.83819	2801.05
2581.52719	2821.85
2584.21451	2812.95
2586.90015	2800.75
2589.58411	2812.95
2592.2664	2801.55
2594.94701	2789.55
2597.62594	2789.65
2600.30321	2789.25
2602.9788	2789.95
2605.65273	2781.05
2608.32498	2762.25
2610.99557	2778.65
2613.66449	2766.85
2616.33175	2758.45
2618.99734	2760.65
2621.66128	2755.75
2624.32355	2753.75
2626.98416	2749.75
2629.64311	2737.65
2632.30041	2715.35
2634.95605	2716.25
2637.61004	2711.75
2640.26238	2709.45
2642.91306	2716.65
2645.56209	2714.95
2648.20948	2712.75
2650.85521	2698.65
2653.4993	2713.45
2656.14175	2696.35
2658.78255	2699.15
2661.42171	2706.45
2664.05923	2703.75
2666.6951	2715.65
2669.32934	2707.75
2671.96194	2705.05
2674.59291	2691.65
2677.22224	2706.55
2679.84993	2704.15
2682.476	2696.65
2685.10043	2696.05
2687.72324	2704.45
2690.34441	2698.55
2692.96396	2699.05
2695.58188	2681.85
2698.19818	2689.45
2700.81285	2700.75
2703.4259	2688.85
2706.03733	2699.25
2708.64714	2696.35
2711.25533	2694.15
2713.86191	2677.55
2716.46687	2684.55
2719.07021	2689.25
2721.67194	2685.15
2724.27206	2674.75
2726.87057	2679.55
2729.46747	2673.95
2732.06276	2675.95
2734.65644	2673.55
2737.24852	2672.35
2739.83899	2674.75
2742.42786	2671.95
2745.01513	2667.05
2747.60079	2669.75
2750.18486	2652.15
2752.76733	2657.25
2755.3482	2635.25
2757.92747	2634.55
2760.50515	2633.65
2763.08123	2644.15
2765.65573	2617.05
2768.22863	2614.15
2770.79994	2611.25
2773.36967	2602.65
2775.9378	2605.95
2778.50435	2608.65
2781.06932	2600.95
2783.6327	2592.05
2786.1945	2600.95
2788.75471	2591.55
2791.31335	2579.75
2793.87041	2576.05
2796.42589	2574.15
2798.97979	2577.05
2801.53212	2565.35
2804.08288	2568.65
2806.63206	2569.65
2809.17967	2548.75
2811.72571	2553.15
2814.27018	2542.15
2816.81308	2544.95
2819.35442	2542.15
2821.89419	2525.55
2824.43239	2521.15
2826.96904	2509.55
2829.50412	2523.25
2832.03763	2510.85
2834.56959	2502.55
2837.1	2510.85
2839.62884	2503.75
2842.15613	2498.75
2844.68186	2501.45
2847.20604	2489.65
2849.72867	2479.75
2852.24974	2481.95
2854.76927	2474.35
2857.28724	2491.35
2859.80367	2475.75
2862.31855	2454.75
2864.83189	2470.15
2867.34368	2469.05
2869.85393	2477.65
2872.36264	2468.55
2874.8698	2484.35
2877.37543	2474.85
2879.87952	2452.45
2882.38207	2448.25
2884.88308	2455.15
2887.38256	2442.05
2889.88051	2428.85
2892.37692	2441.65
2894.8718	2431.85
2897.36515	2439.15
2899.85698	2429.65
2902.34727	2427.95
2904.83604	2434.05
2907.32328	2441.25
2909.809	2444.95
2912.29319	2449.25
2914.77587	2449.55
2917.25702	2452.55
2919.73665	2444.25
2922.21476	2456.15
2924.69136	2442.95
2927.16644	2429.55
2929.64	2428.45
2932.11205	2430.05
2934.58258	2407.65
2937.05161	2422.25
2939.51912	2411.35
2941.98513	2399.95
2944.44962	2404.55
2946.91261	2401.85
2949.37409	2410.55
2951.83407	2396.15
2954.29254	2403.75
2956.74951	2401.65
2959.20498	2387.25
2961.65895	2389.75
2964.11142	2380.35
2966.56239	2372.15
2969.01186	2375.65
2971.45984	2375.65
2973.90632	2376.05
2976.35131	2368.25
2978.7948	2370.45
2981.23681	2368.25
2983.67732	2357.85
2986.11635	2359.15
2988.55388	2344.75
2990.98993	2344.15
2993.4245	2341.95
2995.85758	2331.75
2998.28917	2322.85
3000.71928	2328.85
3003.14791	2321.75
3005.57506	2312.55
3008.00073	2312.15
3010.42493	2308.65
3012.84764	2297.35
3015.26888	2285.65
3017.68865	2291.55
3020.10694	2288.75
3022.52376	2270.05
3024.9391	2274.65
3027.35298	2266.25
3029.76539	2245.55
3032.17632	2256.25
3034.5858	2249.85
3036.9938	2242.75
3039.40034	2236.55
3041.80542	2243.05
3044.20903	2231.05
3046.61118	2227.15
3049.01187	2217.25
3051.4111	2219.75
3053.80888	2211.45
3056.20519	2209.55
3058.60005	2207.95
3060.99345	2203.25
3063.3854	2197.75
3065.7759	2190.65
3068.16494	2197.95
3070.55254	2179.15
3072.93868	2179.95
3075.32338	2167.35
3077.70662	2174.35
3080.08842	2166.95
3082.46878	2156.95
3084.84769	2134.55
3087.22515	2133.15
3089.60118	2139.65
3091.97576	2145.45
3094.3489	2133.05
3096.72061	2146.25
3099.09087	2146.05
3101.4597	2140.75
3103.82709	2133.15
3106.19305	2125.75
3108.55757	2121.25
3110.92066	2125.75
3113.28232	2115.05
3115.64255	2113.05
3118.00134	2100.75
3120.35871	2110.05
3122.71466	2101.85
3125.06917	2079.65
3127.42226	2085.25
3129.77393	2092.95
3132.12417	2081.45
3134.47299	2084.05
3136.82039	2083.45
3139.16636	2075.35
3141.51092	2067.75
3143.85406	2074.75
3146.19579	2070.75
3148.53609	2073.75
3150.87499	2081.85
3153.21246	2081.95
3155.54853	2073.75
3157.88318	2075.75
3160.21642	2066.55
3162.54826	2062.05
3164.87868	2072.15
3167.2077	2057.95
3169.5353	2053.75
3171.86151	2057.35
3174.18631	2065.45
3176.5097	2051.25
3178.83169	2055.45
3181.15228	2059.05
3183.47147	2039.85
3185.78926	2037.25
3188.10565	2020.85
3190.42065	2024.95
3192.73424	2016.65
3195.04645	2016.65
3197.35725	2021.55
3199.66667	2014.05
3201.97469	1999.45
3204.28132	2010.25
3206.58656	2019.55
3208.8904	2007.75
3211.19287	2013.75
3213.49394	2015.75
3215.79363	2020.45
3218.09193	2019.85
3220.38884	2017.05
3222.68438	2008.75
3224.97853	2007.25
3227.2713	2017.25
3229.56269	1992.65
3231.8527	1996.15
3234.14133	1986.45
3236.42858	1986.15
3238.71446	1982.95
3240.99896	1975.15
3243.28209	1967.55
3245.56384	1968.65
3247.84423	1963.25
3250.12324	1968.25
3252.40088	1964.95
3254.67715	1966.15
3256.95205	1948.45
3259.22558	1956.45
3261.49775	1957.25
3263.76855	1961.85
3266.03799	1954.25
3268.30606	1948.55
3270.57277	1953.85
3272.83812	1937.45
3275.10211	1931.15
3277.36474	1926.15
3279.62601	1928.85
3281.88593	1916.65
3284.14448	1913.15
3286.40168	1924.75
3288.65753	1921.75
3290.91202	1924.65
3293.16516	1913.85
3295.41695	1907.35
3297.66738	1901.15
3299.91647	1883.65
3302.16421	1877.55
3304.4106	1867.05
3306.65564	1854.95
3308.89933	1839.45
3311.14169	1831.45
3313.38269	1810.65
3315.62236	1798.55
3317.86068	1789.45
3320.09766	1774.95
3322.3333	1769.05
3324.5676	1747.95
3326.80056	1723.65
3329.03219	1711.45
3331.26248	-0.25
3333.49143	0.65
3335.71905	-0.65
