Data from AgNPs_UA_5uM_CRN_500uM_SU_RamanShift__264__12-13-23-192.txt Node

Date: Thu Aug 04 12:13:23 BST 2022
User: TCL
Spectrometer: QEP01345
Trigger mode: 4
Integration Time (sec): 1.000000E0
Scans to average: 10
Electric dark correction enabled: true
Nonlinearity correction enabled: false
Boxcar width: 0
XAxis mode: Raman Shifts
Number of Pixels in Spectrum: 1044
>>>>>Begin Spectral Data<<<<<
46.04893	0.325
50.45542	-0.075
54.85868	-0.775
59.25871	-0.275
63.6555	-58.075
68.04907	-40.975
72.43941	-71.775
76.82654	-57.775
81.21044	-56.475
85.59113	-49.775
89.96862	-74.175
94.34289	-55.975
98.71396	-78.575
103.08183	-58.575
107.4465	-49.175
111.80798	-56.975
116.16626	-44.475
120.52136	-73.875
124.87327	-50.975
129.222	-64.475
133.56755	-50.275
137.90993	-64.075
142.24913	-51.775
146.58517	-45.875
150.91804	-41.975
155.24774	-30.775
159.57429	-12.275
163.89768	-7.475
168.21792	35.225
172.53501	52.325
176.84895	132.825
181.15975	263.725
185.46741	409.925
189.77193	579.725
194.07331	858.425
198.37157	1137.725
202.6667	1411.225
206.9587	1726.925
211.24758	2022.825
215.53334	2334.825
219.81599	2677.925
224.09553	3071.125
228.37195	3498.425
232.64527	3951.125
236.91549	4394.825
241.18261	4740.725
245.44663	5014.525
249.70755	5170.025
253.96539	5295.625
258.22014	5379.925
262.4718	5451.925
266.72039	5508.925
270.96589	5458.725
275.20832	5377.025
279.44768	5275.125
283.68397	5178.925
287.91719	5123.225
292.14735	5167.425
296.37445	5327.425
300.59849	5603.625
304.81948	5943.725
309.03742	6313.525
313.25231	6564.725
317.46415	6508.325
321.67296	6145.525
325.87872	5751.825
330.08145	5534.825
334.28114	5500.125
338.47781	5549.025
342.67145	5695.425
346.86207	5917.725
351.04966	6253.325
355.23424	6638.025
359.4158	6892.825
363.59435	6928.925
367.76989	6864.325
371.94243	6742.725
376.11196	6620.425
380.27849	6553.425
384.44203	6496.825
388.60257	6440.025
392.76012	6450.025
396.91468	6566.525
401.06626	6711.125
405.21485	6733.425
409.36047	6583.925
413.50311	6271.725
417.64277	5977.325
421.77947	5785.525
425.9132	5703.725
430.04396	5684.225
434.17176	5729.125
438.2966	5812.925
442.41849	5893.225
446.53742	5995.425
450.6534	6111.225
454.76644	6168.125
458.87653	6183.425
462.98368	6136.725
467.08789	6075.125
471.18916	6004.825
475.2875	5877.725
479.38291	5771.225
483.4754	5674.825
487.56496	5640.925
491.6516	5611.525
495.73531	5618.525
499.81612	5636.925
503.89401	5718.025
507.96899	5769.125
512.04106	5865.825
516.11023	5962.025
520.1765	6047.125
524.23987	6048.725
528.30034	6062.125
532.35792	5985.025
536.41261	5932.625
540.46441	5820.325
544.51333	5781.325
548.55936	5823.625
552.60252	5942.025
556.64279	6055.825
560.6802	6183.825
564.71473	6302.225
568.7464	6475.925
572.7752	6469.225
576.80114	6177.825
580.82422	5950.925
584.84444	5855.125
588.86181	5825.425
592.87633	5869.325
596.888	5969.925
600.89682	6327.125
604.9028	7304.825
608.90594	9380.525
612.90624	11689.625
616.90371	10813.325
620.89834	7760.525
624.89015	6450.025
628.87913	6238.625
632.86528	6377.425
636.84862	6526.425
640.82913	6426.025
644.80683	6081.325
648.78172	5872.425
652.75379	5911.525
656.72306	6158.925
660.68952	6383.225
664.65319	6295.525
668.61405	6071.125
672.57211	5985.825
676.52738	5974.725
680.47986	5885.225
684.42955	5806.025
688.37646	5742.225
692.32058	5757.225
696.26192	5835.725
700.20048	5912.725
704.13626	5956.725
708.06928	5914.225
711.99952	5903.925
715.927	5863.525
719.85171	5903.425
723.77365	5958.325
727.69284	5922.525
731.60928	5913.725
735.52295	5887.025
739.43388	5910.725
743.34206	5938.925
747.24749	5969.225
751.15017	5976.425
755.05012	6051.825
758.94733	6417.925
762.8418	7282.925
766.73354	8638.925
770.62254	9648.125
774.50882	9727.825
778.39237	9196.825
782.27321	8232.725
786.15132	7177.525
790.02671	6523.425
793.89938	6162.325
797.76935	6021.125
801.6366	5927.725
805.50115	5869.425
809.36299	5875.225
813.22213	5874.825
817.07857	5854.525
820.93231	5873.725
824.78336	5898.625
828.63172	5890.025
832.47738	5896.325
836.32036	5909.325
840.16066	5867.625
843.99827	5849.825
847.8332	5844.725
851.66546	5874.225
855.49504	5862.025
859.32195	5893.325
863.1462	5867.025
866.96777	5850.125
870.78668	5861.125
874.60293	5868.825
878.41652	5907.425
882.22745	5962.925
886.03573	6005.925
889.84136	5998.625
893.64433	6004.325
897.44466	5995.425
901.24235	5983.925
905.0374	5987.825
908.8298	5929.025
912.61957	5894.025
916.40671	5872.525
920.19121	5907.125
923.97308	6010.525
927.75233	6072.425
931.52895	6102.125
935.30295	6079.725
939.07433	5937.925
942.84309	5810.925
946.60924	5781.725
950.37278	5735.725
954.13371	5738.325
957.89203	5732.425
961.64774	5752.025
965.40086	5742.725
969.15137	5702.925
972.89929	5739.825
976.64461	5719.525
980.38733	5747.125
984.12747	5746.725
987.86502	5758.825
991.59999	5795.125
995.33237	5846.525
999.06217	5923.725
1002.78939	5995.825
1006.51404	6122.125
1010.23611	6243.825
1013.95561	6277.125
1017.67255	6278.425
1021.38692	6253.425
1025.09872	6195.425
1028.80796	6106.225
1032.51465	6127.025
1036.21877	6099.825
1039.92035	6137.125
1043.61937	6191.025
1047.31584	6240.325
1051.00976	6284.225
1054.70114	6281.525
1058.38998	6272.625
1062.07627	6277.325
1065.76003	6300.725
1069.44126	6386.725
1073.11995	6453.325
1076.79611	6578.125
1080.46974	6750.525
1084.14085	6911.325
1087.80943	7031.025
1091.47549	7069.625
1095.13903	6984.525
1098.80005	6846.925
1102.45857	6766.825
1106.11456	6724.225
1109.76805	6683.725
1113.41903	6773.625
1117.06751	6944.225
1120.71348	7223.725
1124.35696	7604.525
1127.99793	7878.025
1131.63641	7712.925
1135.2724	7323.925
1138.90589	7030.325
1142.5369	6823.825
1146.16542	6711.625
1149.79145	6595.325
1153.415	6561.425
1157.03607	6567.825
1160.65467	6666.725
1164.27079	6874.025
1167.88443	7133.525
1171.49561	7574.225
1175.10432	8190.825
1178.71056	9100.925
1182.31434	9905.625
1185.91565	10142.325
1189.51451	10022.025
1193.11091	9756.425
1196.70485	9500.625
1200.29634	9249.325
1203.88538	8970.225
1207.47197	8526.725
1211.05612	8039.325
1214.63782	7604.325
1218.21708	7378.825
1221.79391	7201.925
1225.36829	7125.925
1228.94024	7141.225
1232.50976	7151.825
1236.07685	7183.425
1239.6415	7213.425
1243.20374	7233.225
1246.76355	7253.125
1250.32093	7327.325
1253.8759	7382.125
1257.42845	7569.625
1260.97859	7761.725
1264.52631	8001.825
1268.07163	8145.525
1271.61453	8283.425
1275.15503	8332.325
1278.69312	8335.525
1282.22882	8404.525
1285.76211	8617.625
1289.29301	8854.125
1292.82151	9136.225
1296.34761	9321.725
1299.87133	9747.325
1303.39266	10435.025
1306.9116	11577.525
1310.42815	12789.625
1313.94233	13217.025
1317.45412	12445.825
1320.96354	11340.525
1324.47058	10310.425
1327.97525	9566.825
1331.47754	9142.025
1334.97747	9034.825
1338.47502	9150.025
1341.97022	9515.125
1345.46305	10251.825
1348.95352	11345.425
1352.44163	12664.925
1355.92738	14058.625
1359.41078	15763.025
1362.89183	17251.825
1366.37053	16685.125
1369.84688	13832.825
1373.32088	11091.925
1376.79254	9614.225
1380.26186	8949.925
1383.72883	8522.225
1387.19347	8137.225
1390.65578	7765.125
1394.11575	7544.025
1397.57339	7352.725
1401.0287	7245.925
1404.48168	7191.425
1407.93234	7210.825
1411.38068	7215.325
1414.82669	7290.625
1418.27039	7375.125
1421.71177	7390.225
1425.15083	7263.225
1428.58758	7191.225
1432.02203	7220.625
1435.45416	7292.325
1438.88399	7287.425
1442.31151	7274.325
1445.73673	7331.725
1449.15965	7400.725
1452.58027	7407.525
1455.9986	7413.725
1459.41463	7428.625
1462.82837	7528.225
1466.23982	7715.925
1469.64898	7922.025
1473.05586	8062.325
1476.46045	8191.425
1479.86276	8236.125
1483.26279	8355.325
1486.66054	8557.125
1490.05602	8842.525
1493.44922	9399.025
1496.84016	10294.325
1500.22882	11688.125
1503.61521	13411.225
1506.99934	15230.425
1510.38121	16414.725
1513.76081	16256.325
1517.13816	14685.125
1520.51324	12518.125
1523.88607	10829.625
1527.25665	9854.725
1530.62498	9349.725
1533.99105	9163.625
1537.35488	9024.125
1540.71647	8922.925
1544.07581	8794.225
1547.4329	8639.025
1550.78776	8502.725
1554.14038	8422.125
1557.49077	8375.925
1560.83892	8485.225
1564.18484	8712.325
1567.52853	9045.125
1570.86999	9386.325
1574.20922	9505.725
1577.54624	9410.325
1580.88103	8891.725
1584.2136	8209.025
1587.54395	7823.625
1590.87208	7717.625
1594.19801	7893.525
1597.52172	8276.625
1600.84321	8398.425
1604.16251	8275.925
1607.47959	8054.125
1610.79447	7864.525
1614.10715	7595.125
1617.41763	7304.325
1620.7259	7039.925
1624.03199	6876.325
1627.33587	6798.925
1630.63757	6876.425
1633.93707	7088.125
1637.23439	7489.425
1640.52951	8170.125
1643.82246	9157.525
1647.11321	10305.525
1650.40179	11064.925
1653.68819	10741.725
1656.97241	9503.125
1660.25446	8092.325
1663.53433	7083.225
1666.81203	6465.625
1670.08756	6155.025
1673.36092	5968.425
1676.63211	5814.025
1679.90115	5736.525
1683.16801	5660.125
1686.43272	5577.125
1689.69527	5521.925
1692.95567	5475.725
1696.2139	5458.325
1699.46999	5400.425
1702.72392	5405.825
1705.97571	5413.625
1709.22535	5404.125
1712.47284	5434.225
1715.71819	5436.825
1718.96139	5427.025
1722.20246	5416.425
1725.44139	5374.225
1728.67818	5350.425
1731.91284	5303.425
1735.14537	5280.325
1738.37576	5250.325
1741.60403	5228.225
1744.83017	5202.125
1748.05418	5191.925
1751.27607	5215.725
1754.49584	5169.925
1757.71349	5129.425
1760.92903	5138.025
1764.14244	5083.925
1767.35375	5097.425
1770.56294	5083.325
1773.77002	5061.925
1776.97499	5078.725
1780.17785	5045.525
1783.37861	5041.425
1786.57727	5057.025
1789.77382	4988.625
1792.96828	5029.925
1796.16064	5020.625
1799.3509	4995.225
1802.53907	5012.225
1805.72514	4994.825
1808.90913	4956.925
1812.09102	4960.625
1815.27083	4949.525
1818.44856	4928.825
1821.6242	4928.025
1824.79776	4908.225
1827.96924	4906.725
1831.13864	4869.125
1834.30597	4885.525
1837.47122	4870.825
1840.6344	4863.225
1843.7955	4845.025
1846.95454	4831.125
1850.11151	4848.725
1853.26642	4807.925
1856.41926	4821.625
1859.57004	4831.625
1862.71876	4803.025
1865.86542	4833.625
1869.01003	4806.525
1872.15258	4781.925
1875.29308	4803.225
1878.43152	4800.925
1881.56792	4783.425
1884.70227	4770.225
1887.83457	4762.725
1890.96482	4754.525
1894.09304	4721.325
1897.21921	4720.025
1900.34335	4734.925
1903.46544	4719.225
1906.58551	4747.325
1909.70353	4723.325
1912.81953	4719.525
1915.93349	4695.525
1919.04543	4683.225
1922.15534	4660.325
1925.26322	4671.825
1928.36908	4652.725
1931.47292	4655.725
1934.57473	4659.225
1937.67453	4630.725
1940.77232	4595.425
1943.86808	4597.825
1946.96184	4595.825
1950.05358	4567.125
1953.14331	4561.225
1956.23103	4562.525
1959.31675	4521.825
1962.40046	4486.125
1965.48217	4496.525
1968.56188	4487.525
1971.63959	4493.125
1974.7153	4471.425
1977.78901	4468.025
1980.86073	4450.425
1983.93046	4415.825
1986.99819	4332.325
1990.06394	4367.725
1993.1277	4366.825
1996.18947	4363.125
1999.24925	4329.925
2002.30706	4331.525
2005.36288	4303.025
2008.41672	4293.225
2011.46859	4272.125
2014.51848	4260.725
2017.56639	4244.125
2020.61233	4226.225
2023.6563	4238.625
2026.6983	4186.725
2029.73833	4191.825
2032.7764	4202.025
2035.8125	4150.025
2038.84664	4170.025
2041.87881	4134.325
2044.90903	4147.825
2047.93729	4147.925
2050.96359	4110.025
2053.98794	4128.925
2057.01034	4125.325
2060.03078	4121.025
2063.04927	4091.825
2066.06582	4098.325
2069.08042	4074.825
2072.09307	4090.725
2075.10378	4073.125
2078.11255	4061.625
2081.11938	4081.125
2084.12426	4063.725
2087.12722	4055.125
2090.12824	4053.125
2093.12732	4050.225
2096.12447	4073.625
2099.11969	4064.325
2102.11299	4065.125
2105.10435	4085.525
2108.09379	4053.425
2111.08131	4055.025
2114.0669	4052.325
2117.05057	4058.425
2120.03233	4044.625
2123.01216	4079.025
2125.99008	4084.625
2128.96609	4089.125
2131.94018	4078.825
2134.91236	4083.325
2137.88263	4070.625
2140.851	4063.325
2143.81746	4082.725
2146.78201	4067.125
2149.74466	4073.325
2152.7054	4083.825
2155.66425	4058.725
2158.6212	4056.225
2161.57625	4023.225
2164.52941	4011.325
2167.48067	4028.025
2170.43004	4027.225
2173.37752	4043.125
2176.32311	4020.825
2179.26681	4049.625
2182.20863	4033.925
2185.14856	4031.025
2188.08661	4018.325
2191.02278	4041.725
2193.95707	4016.525
2196.88948	4012.625
2199.82001	4011.925
2202.74867	3997.425
2205.67545	3999.425
2208.60037	3994.525
2211.52341	3988.425
2214.44458	3980.625
2217.36388	3954.325
2220.28132	3946.325
2223.1969	3932.825
2226.11061	3943.525
2229.02246	3915.325
2231.93245	3919.225
2234.84058	3895.725
2237.74686	3897.825
2240.65128	3883.425
2243.55385	3893.625
2246.45456	3869.525
2249.35343	3878.025
2252.25044	3867.825
2255.14561	3867.125
2258.03893	3862.825
2260.93041	3852.025
2263.82004	3857.125
2266.70783	3850.725
2269.59378	3830.125
2272.4779	3810.625
2275.36017	3815.925
2278.24061	3811.325
2281.11922	3771.525
2283.996	3790.825
2286.87094	3773.925
2289.74405	3770.225
2292.61534	3751.425
2295.4848	3757.825
2298.35243	3747.825
2301.21824	3743.425
2304.08223	3730.825
2306.94439	3742.225
2309.80474	3749.525
2312.66327	3724.025
2315.51999	3709.825
2318.37489	3709.225
2321.22797	3693.125
2324.07925	3683.025
2326.92871	3683.925
2329.77637	3670.725
2332.62222	3667.425
2335.46626	3643.825
2338.3085	3649.125
2341.14893	3652.225
2343.98756	3671.025
2346.8244	3635.625
2349.65943	3618.725
2352.49267	3634.425
2355.32411	3643.125
2358.15376	3624.325
2360.98161	3647.025
2363.80768	3622.725
2366.63195	3620.525
2369.45444	3647.125
2372.27514	3637.225
2375.09405	3649.225
2377.91118	3602.525
2380.72652	3600.225
2383.54009	3585.825
2386.35187	3593.225
2389.16188	3565.825
2391.97011	3572.225
2394.77657	3561.625
2397.58125	3549.125
2400.38416	3549.325
2403.18529	3529.825
2405.98466	3517.225
2408.78226	3507.325
2411.57809	3508.925
2414.37216	3494.225
2417.16446	3498.725
2419.955	3474.525
2422.74378	3490.425
2425.5308	3489.525
2428.31606	3484.725
2431.09956	3481.125
2433.88131	3460.225
2436.6613	3477.725
2439.43954	3461.425
2442.21603	3460.425
2444.99077	3447.325
2447.76377	3450.325
2450.53501	3459.725
2453.30451	3437.225
2456.07226	3464.925
2458.83827	3441.125
2461.60254	3382.125
2464.36507	3433.725
2467.12586	3410.225
2469.88492	3408.625
2472.64224	3408.925
2475.39782	3393.725
2478.15167	3420.625
2480.90379	3389.625
2483.65417	3417.025
2486.40283	3422.325
2489.14976	3436.325
2491.89497	3402.425
2494.63845	3411.525
2497.3802	3390.825
2500.12024	3386.625
2502.85855	3391.325
2505.59514	3386.225
2508.33002	3390.125
2511.06318	3345.225
2513.79462	3372.425
2516.52435	3322.425
2519.25237	3297.925
2521.97867	3306.125
2524.70327	3318.225
2527.42616	3311.925
2530.14734	3308.825
2532.86681	3292.925
2535.58458	3289.725
2538.30065	3279.925
2541.01501	3297.925
2543.72768	3283.425
2546.43864	3279.725
2549.14791	3277.325
2551.85548	3257.925
2554.56136	3254.725
2557.26554	3248.125
2559.96803	3250.425
2562.66883	3251.425
2565.36794	3222.125
2568.06536	3203.125
2570.7611	3223.625
2573.45514	3208.125
2576.14751	3196.025
2578.83819	3180.925
2581.52719	3179.725
2584.21451	3187.425
2586.90015	3148.625
2589.58411	3141.425
2592.2664	3158.125
2594.94701	3154.325
2597.62594	3163.525
2600.30321	3093.925
2602.9788	3119.225
2605.65273	3100.625
2608.32498	3104.225
2610.99557	3133.425
2613.66449	3091.925
2616.33175	3100.325
2618.99734	3118.325
2621.66128	3101.925
2624.32355	3083.525
2626.98416	3076.625
2629.64311	3058.325
2632.30041	3064.125
2634.95605	3037.325
2637.61004	3038.025
2640.26238	3019.925
2642.91306	3022.425
2645.56209	3039.725
2648.20948	3035.525
2650.85521	3010.225
2653.4993	3043.125
2656.14175	3037.325
2658.78255	3013.825
2661.42171	2987.125
2664.05923	3038.225
2666.6951	3035.325
2669.32934	3023.225
2671.96194	3051.325
2674.59291	3027.425
2677.22224	3022.125
2679.84993	3028.725
2682.476	3018.425
2685.10043	3010.825
2687.72324	2999.925
2690.34441	3004.625
2692.96396	3006.725
2695.58188	3015.625
2698.19818	3004.125
2700.81285	3007.725
2703.4259	2987.925
2706.03733	2959.425
2708.64714	2956.125
2711.25533	2997.425
2713.86191	2995.325
2716.46687	2980.725
2719.07021	2980.025
2721.67194	2985.525
2724.27206	3002.625
2726.87057	2994.625
2729.46747	2983.725
2732.06276	2987.225
2734.65644	2955.525
2737.24852	2960.025
2739.83899	2939.325
2742.42786	2956.725
2745.01513	2961.825
2747.60079	2938.625
2750.18486	2918.825
2752.76733	2933.325
2755.3482	2933.725
2757.92747	2919.925
2760.50515	2904.125
2763.08123	2911.125
2765.65573	2905.325
2768.22863	2888.925
2770.79994	2880.425
2773.36967	2874.125
2775.9378	2870.325
2778.50435	2867.325
2781.06932	2859.325
2783.6327	2849.525
2786.1945	2877.425
2788.75471	2863.525
2791.31335	2856.325
2793.87041	2853.425
2796.42589	2828.025
2798.97979	2824.925
2801.53212	2831.025
2804.08288	2832.925
2806.63206	2814.825
2809.17967	2795.725
2811.72571	2807.425
2814.27018	2821.725
2816.81308	2798.325
2819.35442	2765.025
2821.89419	2777.925
2824.43239	2763.825
2826.96904	2804.125
2829.50412	2776.025
2832.03763	2780.625
2834.56959	2766.625
2837.1	2760.025
2839.62884	2764.025
2842.15613	2761.525
2844.68186	2775.625
2847.20604	2741.025
2849.72867	2734.625
2852.24974	2747.125
2854.76927	2718.325
2857.28724	2669.725
2859.80367	2731.825
2862.31855	2740.825
2864.83189	2727.125
2867.34368	2727.125
2869.85393	2740.325
2872.36264	2699.125
2874.8698	2721.525
2877.37543	2717.825
2879.87952	2706.525
2882.38207	2691.725
2884.88308	2703.025
2887.38256	2698.525
2889.88051	2697.725
2892.37692	2694.425
2894.8718	2674.225
2897.36515	2692.425
2899.85698	2677.725
2902.34727	2693.625
2904.83604	2695.625
2907.32328	2697.725
2909.809	2700.025
2912.29319	2708.325
2914.77587	2711.925
2917.25702	2723.825
2919.73665	2719.425
2922.21476	2726.325
2924.69136	2715.725
2927.16644	2703.725
2929.64	2699.725
2932.11205	2680.925
2934.58258	2682.325
2937.05161	2671.125
2939.51912	2680.625
2941.98513	2684.625
2944.44962	2663.825
2946.91261	2627.425
2949.37409	2645.525
2951.83407	2644.225
2954.29254	2635.425
2956.74951	2640.325
2959.20498	2628.925
2961.65895	2627.325
2964.11142	2622.925
2966.56239	2618.225
2969.01186	2612.225
2971.45984	2611.025
2973.90632	2595.825
2976.35131	2611.825
2978.7948	2612.025
2981.23681	2590.925
2983.67732	2601.625
2986.11635	2580.525
2988.55388	2567.525
2990.98993	2570.925
2993.4245	2561.825
2995.85758	2541.625
2998.28917	2543.125
3000.71928	2522.625
3003.14791	2528.225
3005.57506	2508.725
3008.00073	2502.925
3010.42493	2443.825
3012.84764	2501.425
3015.26888	2500.525
3017.68865	2490.725
3020.10694	2455.625
3022.52376	2464.025
3024.9391	2459.925
3027.35298	2447.225
3029.76539	2451.225
3032.17632	2429.725
3034.5858	2424.525
3036.9938	2440.425
3039.40034	2429.825
3041.80542	2430.325
3044.20903	2399.425
3046.61118	2406.425
3049.01187	2404.025
3051.4111	2392.325
3053.80888	2388.225
3056.20519	2384.025
3058.60005	2360.325
3060.99345	2386.125
3063.3854	2366.725
3065.7759	2351.925
3068.16494	2345.925
3070.55254	2322.225
3072.93868	2352.225
3075.32338	2337.425
3077.70662	2329.925
3080.08842	2305.125
3082.46878	2306.625
3084.84769	2322.025
3087.22515	2309.025
3089.60118	2322.825
3091.97576	2298.725
3094.3489	2316.525
3096.72061	2287.825
3099.09087	2285.225
3101.4597	2290.325
3103.82709	2292.625
3106.19305	2274.125
3108.55757	2272.625
3110.92066	2278.225
3113.28232	2287.425
3115.64255	2279.125
3118.00134	2264.825
3120.35871	2247.625
3122.71466	2226.725
3125.06917	2244.125
3127.42226	2220.325
3129.77393	2219.425
3132.12417	2231.325
3134.47299	2233.525
3136.82039	2210.225
3139.16636	2188.125
3141.51092	2215.925
3143.85406	2216.225
3146.19579	2189.625
3148.53609	2190.325
3150.87499	2196.125
3153.21246	2193.625
3155.54853	2190.625
3157.88318	2205.725
3160.21642	2202.325
3162.54826	2200.725
3164.87868	2199.325
3167.2077	2165.325
3169.5353	2177.425
3171.86151	2190.625
3174.18631	2171.625
3176.5097	2165.225
3178.83169	2163.225
3181.15228	2166.425
3183.47147	2145.425
3185.78926	2123.425
3188.10565	2145.925
3190.42065	2111.725
3192.73424	2132.525
3195.04645	2117.125
3197.35725	2104.625
3199.66667	2125.125
3201.97469	2108.925
3204.28132	2103.925
3206.58656	2118.125
3208.8904	2113.125
3211.19287	2117.425
3213.49394	2110.425
3215.79363	2091.225
3218.09193	2115.025
3220.38884	2106.325
3222.68438	2093.325
3224.97853	2082.125
3227.2713	2105.225
3229.56269	2096.825
3231.8527	2095.425
3234.14133	2075.625
