Data from AgNPs_UA_5uM_CRN_500uM_SU_RamanShift__196__12-02-03-181.txt Node

Date: Thu Aug 04 12:02:03 BST 2022
User: TCL
Spectrometer: QEP01345
Trigger mode: 4
Integration Time (sec): 1.000000E0
Scans to average: 10
Electric dark correction enabled: true
Nonlinearity correction enabled: false
Boxcar width: 0
XAxis mode: Raman Shifts
Number of Pixels in Spectrum: 1044
>>>>>Begin Spectral Data<<<<<
46.04893	-0.125
50.45542	0.675
54.85868	-0.025
59.25871	-0.625
63.6555	-58.025
68.04907	-39.825
72.43941	-71.125
76.82654	-56.125
81.21044	-56.225
85.59113	-49.125
89.96862	-73.625
94.34289	-54.625
98.71396	-76.725
103.08183	-57.325
107.4465	-47.625
111.80798	-55.225
116.16626	-43.125
120.52136	-73.725
124.87327	-49.225
129.222	-62.025
133.56755	-48.125
137.90993	-61.925
142.24913	-50.425
146.58517	-41.225
150.91804	-39.925
155.24774	-27.025
159.57429	-8.225
163.89768	-5.725
168.21792	41.575
172.53501	64.075
176.84895	146.775
181.15975	275.875
185.46741	425.175
189.77193	614.875
194.07331	909.075
198.37157	1200.175
202.6667	1490.675
206.9587	1806.675
211.24758	2134.675
215.53334	2462.675
219.81599	2820.275
224.09553	3225.675
228.37195	3692.275
232.64527	4138.875
236.91549	4621.375
241.18261	4986.175
245.44663	5283.175
249.70755	5473.475
253.96539	5592.575
258.22014	5687.575
262.4718	5757.975
266.72039	5812.675
270.96589	5763.775
275.20832	5664.475
279.44768	5551.175
283.68397	5463.175
287.91719	5390.275
292.14735	5418.475
296.37445	5601.775
300.59849	5886.675
304.81948	6250.375
309.03742	6612.075
313.25231	6844.375
317.46415	6797.975
321.67296	6403.175
325.87872	5990.475
330.08145	5800.875
334.28114	5746.275
338.47781	5816.975
342.67145	5958.375
346.86207	6197.175
351.04966	6583.675
355.23424	6959.175
359.4158	7239.375
363.59435	7272.975
367.76989	7206.075
371.94243	7086.575
376.11196	6963.875
380.27849	6887.075
384.44203	6790.175
388.60257	6778.875
392.76012	6794.075
396.91468	6905.275
401.06626	7053.575
405.21485	7093.075
409.36047	6926.975
413.50311	6599.375
417.64277	6296.275
421.77947	6087.675
425.9132	6016.875
430.04396	5998.275
434.17176	6050.375
438.2966	6148.675
442.41849	6248.375
446.53742	6362.975
450.6534	6452.375
454.76644	6540.075
458.87653	6542.575
462.98368	6503.575
467.08789	6422.575
471.18916	6358.875
475.2875	6214.175
479.38291	6120.775
483.4754	6039.675
487.56496	5979.775
491.6516	5952.075
495.73531	5955.175
499.81612	5997.575
503.89401	6078.475
507.96899	6107.175
512.04106	6224.475
516.11023	6317.575
520.1765	6398.375
524.23987	6430.875
528.30034	6445.675
532.35792	6358.875
536.41261	6268.575
540.46441	6193.075
544.51333	6135.775
548.55936	6192.675
552.60252	6333.175
556.64279	6423.075
560.6802	6567.775
564.71473	6699.875
568.7464	6908.575
572.7752	6850.475
576.80114	6553.175
580.82422	6292.575
584.84444	6195.675
588.86181	6170.975
592.87633	6198.475
596.888	6336.075
600.89682	6710.475
604.9028	7668.675
608.90594	9793.475
612.90624	12233.375
616.90371	11326.575
620.89834	8204.675
624.89015	6850.075
628.87913	6653.175
632.86528	6813.275
636.84862	6955.875
640.82913	6825.875
644.80683	6467.075
648.78172	6288.875
652.75379	6310.575
656.72306	6562.375
660.68952	6795.775
664.65319	6708.075
668.61405	6460.775
672.57211	6413.475
676.52738	6406.575
680.47986	6314.275
684.42955	6213.775
688.37646	6161.475
692.32058	6176.975
696.26192	6254.475
700.20048	6345.975
704.13626	6391.675
708.06928	6325.075
711.99952	6310.075
715.927	6285.375
719.85171	6319.075
723.77365	6372.875
727.69284	6347.375
731.60928	6316.475
735.52295	6294.175
739.43388	6334.875
743.34206	6362.475
747.24749	6384.375
751.15017	6420.475
755.05012	6478.375
758.94733	6857.575
762.8418	7726.175
766.73354	9057.675
770.62254	10108.275
774.50882	10179.175
778.39237	9662.175
782.27321	8705.375
786.15132	7645.275
790.02671	6944.175
793.89938	6551.775
797.76935	6434.275
801.6366	6354.575
805.50115	6314.375
809.36299	6288.575
813.22213	6282.175
817.07857	6291.775
820.93231	6299.875
824.78336	6311.175
828.63172	6327.375
832.47738	6336.775
836.32036	6335.275
840.16066	6303.675
843.99827	6292.675
847.8332	6288.675
851.66546	6293.875
855.49504	6289.375
859.32195	6320.475
863.1462	6318.575
866.96777	6334.975
870.78668	6302.375
874.60293	6347.075
878.41652	6360.775
882.22745	6436.875
886.03573	6463.475
889.84136	6458.475
893.64433	6446.875
897.44466	6446.275
901.24235	6447.675
905.0374	6445.975
908.8298	6363.375
912.61957	6342.275
916.40671	6291.675
920.19121	6345.075
923.97308	6442.875
927.75233	6503.775
931.52895	6579.075
935.30295	6522.375
939.07433	6381.375
942.84309	6265.475
946.60924	6231.775
950.37278	6193.375
954.13371	6180.375
957.89203	6181.275
961.64774	6221.975
965.40086	6187.975
969.15137	6187.775
972.89929	6218.775
976.64461	6197.975
980.38733	6201.975
984.12747	6220.175
987.86502	6224.475
991.59999	6256.075
995.33237	6337.075
999.06217	6381.975
1002.78939	6466.775
1006.51404	6618.075
1010.23611	6705.675
1013.95561	6774.975
1017.67255	6778.675
1021.38692	6750.375
1025.09872	6687.375
1028.80796	6597.875
1032.51465	6601.075
1036.21877	6592.075
1039.92035	6634.375
1043.61937	6685.575
1047.31584	6742.275
1051.00976	6764.575
1054.70114	6759.575
1058.38998	6751.175
1062.07627	6743.675
1065.76003	6805.875
1069.44126	6865.475
1073.11995	6960.575
1076.79611	7082.375
1080.46974	7227.475
1084.14085	7408.675
1087.80943	7526.075
1091.47549	7563.175
1095.13903	7493.575
1098.80005	7370.675
1102.45857	7266.675
1106.11456	7228.575
1109.76805	7173.275
1113.41903	7281.175
1117.06751	7456.575
1120.71348	7734.775
1124.35696	8118.675
1127.99793	8412.875
1131.63641	8248.975
1135.2724	7830.775
1138.90589	7520.975
1142.5369	7317.075
1146.16542	7208.675
1149.79145	7100.975
1153.415	7027.475
1157.03607	7052.875
1160.65467	7149.275
1164.27079	7363.475
1167.88443	7597.175
1171.49561	8021.575
1175.10432	8658.375
1178.71056	9581.275
1182.31434	10356.175
1185.91565	10628.575
1189.51451	10472.275
1193.11091	10225.575
1196.70485	9975.075
1200.29634	9736.775
1203.88538	9439.475
1207.47197	9000.375
1211.05612	8523.875
1214.63782	8122.075
1218.21708	7867.975
1221.79391	7718.075
1225.36829	7609.775
1228.94024	7636.675
1232.50976	7638.875
1236.07685	7667.575
1239.6415	7695.775
1243.20374	7728.075
1246.76355	7736.175
1250.32093	7823.475
1253.8759	7896.475
1257.42845	8088.575
1260.97859	8287.375
1264.52631	8494.475
1268.07163	8694.475
1271.61453	8818.275
1275.15503	8837.675
1278.69312	8842.675
1282.22882	8929.375
1285.76211	9146.775
1289.29301	9392.075
1292.82151	9663.575
1296.34761	9886.775
1299.87133	10283.675
1303.39266	10995.875
1306.9116	12174.475
1310.42815	13432.875
1313.94233	13856.575
1317.45412	13066.275
1320.96354	11896.075
1324.47058	10866.775
1327.97525	10113.275
1331.47754	9689.375
1334.97747	9592.675
1338.47502	9710.275
1341.97022	10080.875
1345.46305	10801.875
1348.95352	11903.975
1352.44163	13238.675
1355.92738	14551.875
1359.41078	16256.075
1362.89183	17810.575
1366.37053	17141.775
1369.84688	14267.775
1373.32088	11548.175
1376.79254	10125.575
1380.26186	9439.975
1383.72883	9028.275
1387.19347	8632.775
1390.65578	8284.675
1394.11575	8028.875
1397.57339	7859.575
1401.0287	7748.575
1404.48168	7705.175
1407.93234	7742.475
1411.38068	7755.675
1414.82669	7831.375
1418.27039	7920.075
1421.71177	7924.575
1425.15083	7818.475
1428.58758	7726.375
1432.02203	7761.675
1435.45416	7860.475
1438.88399	7826.075
1442.31151	7824.475
1445.73673	7881.375
1449.15965	7982.075
1452.58027	7957.375
1455.9986	7953.375
1459.41463	7971.075
1462.82837	8067.175
1466.23982	8259.075
1469.64898	8478.975
1473.05586	8610.975
1476.46045	8720.775
1479.86276	8803.575
1483.26279	8899.675
1486.66054	9091.675
1490.05602	9381.575
1493.44922	9926.975
1496.84016	10813.875
1500.22882	12192.975
1503.61521	13930.175
1506.99934	15757.975
1510.38121	16991.575
1513.76081	16868.875
1517.13816	15296.875
1520.51324	13106.575
1523.88607	11375.875
1527.25665	10337.875
1530.62498	9840.575
1533.99105	9614.575
1537.35488	9497.075
1540.71647	9385.675
1544.07581	9266.875
1547.4329	9133.775
1550.78776	9041.975
1554.14038	8937.375
1557.49077	8920.975
1560.83892	9016.775
1564.18484	9226.775
1567.52853	9577.875
1570.86999	9905.575
1574.20922	10057.675
1577.54624	9928.175
1580.88103	9407.475
1584.2136	8732.675
1587.54395	8349.475
1590.87208	8279.575
1594.19801	8427.075
1597.52172	8819.075
1600.84321	8983.275
1604.16251	8833.875
1607.47959	8640.175
1610.79447	8420.875
1614.10715	8140.175
1617.41763	7859.875
1620.7259	7575.575
1624.03199	7385.775
1627.33587	7341.375
1630.63757	7391.475
1633.93707	7621.275
1637.23439	8047.375
1640.52951	8746.875
1643.82246	9739.075
1647.11321	10935.975
1650.40179	11649.675
1653.68819	11336.375
1656.97241	10049.775
1660.25446	8630.675
1663.53433	7606.875
1666.81203	6994.875
1670.08756	6658.875
1673.36092	6471.875
1676.63211	6317.375
1679.90115	6241.675
1683.16801	6154.575
1686.43272	6079.475
1689.69527	6015.875
1692.95567	5950.775
1696.2139	5942.475
1699.46999	5863.875
1702.72392	5886.575
1705.97571	5895.375
1709.22535	5878.975
1712.47284	5915.075
1715.71819	5917.475
1718.96139	5917.775
1722.20246	5897.675
1725.44139	5862.075
1728.67818	5857.075
1731.91284	5790.675
1735.14537	5772.275
1738.37576	5714.275
1741.60403	5719.875
1744.83017	5688.375
1748.05418	5693.375
1751.27607	5680.175
1754.49584	5648.575
1757.71349	5612.375
1760.92903	5622.175
1764.14244	5560.975
1767.35375	5559.475
1770.56294	5542.175
1773.77002	5552.275
1776.97499	5554.675
1780.17785	5529.075
1783.37861	5528.075
1786.57727	5514.175
1789.77382	5465.575
1792.96828	5491.175
1796.16064	5517.975
1799.3509	5466.375
1802.53907	5495.475
1805.72514	5448.775
1808.90913	5427.675
1812.09102	5430.075
1815.27083	5420.075
1818.44856	5410.075
1821.6242	5394.675
1824.79776	5356.775
1827.96924	5365.975
1831.13864	5347.775
1834.30597	5365.475
1837.47122	5335.975
1840.6344	5325.775
1843.7955	5307.575
1846.95454	5315.375
1850.11151	5333.275
1853.26642	5295.175
1856.41926	5282.175
1859.57004	5292.875
1862.71876	5286.875
1865.86542	5282.175
1869.01003	5272.875
1872.15258	5246.475
1875.29308	5267.775
1878.43152	5260.475
1881.56792	5244.075
1884.70227	5224.575
1887.83457	5223.975
1890.96482	5209.975
1894.09304	5209.775
1897.21921	5189.075
1900.34335	5196.175
1903.46544	5187.675
1906.58551	5179.575
1909.70353	5186.175
1912.81953	5185.375
1915.93349	5176.875
1919.04543	5142.575
1922.15534	5134.475
1925.26322	5154.975
1928.36908	5120.575
1931.47292	5113.575
1934.57473	5119.375
1937.67453	5079.575
1940.77232	5061.875
1943.86808	5058.175
1946.96184	5048.775
1950.05358	5038.675
1953.14331	5000.375
1956.23103	5006.475
1959.31675	4972.275
1962.40046	4925.175
1965.48217	4950.975
1968.56188	4941.375
1971.63959	4913.375
1974.7153	4922.575
1977.78901	4907.475
1980.86073	4885.475
1983.93046	4854.375
1986.99819	4788.175
1990.06394	4794.375
1993.1277	4812.275
1996.18947	4803.375
1999.24925	4741.675
2002.30706	4760.375
2005.36288	4747.075
2008.41672	4725.575
2011.46859	4708.675
2014.51848	4684.875
2017.56639	4684.975
2020.61233	4650.175
2023.6563	4647.475
2026.6983	4607.975
2029.73833	4612.975
2032.7764	4614.275
2035.8125	4571.775
2038.84664	4565.575
2041.87881	4570.475
2044.90903	4564.475
2047.93729	4559.375
2050.96359	4539.075
2053.98794	4551.175
2057.01034	4547.375
2060.03078	4532.975
2063.04927	4530.275
2066.06582	4510.475
2069.08042	4513.175
2072.09307	4519.575
2075.10378	4509.175
2078.11255	4492.475
2081.11938	4495.175
2084.12426	4484.875
2087.12722	4487.875
2090.12824	4471.075
2093.12732	4497.775
2096.12447	4484.975
2099.11969	4472.775
2102.11299	4476.075
2105.10435	4476.075
2108.09379	4473.575
2111.08131	4479.575
2114.0669	4472.675
2117.05057	4465.475
2120.03233	4469.475
2123.01216	4493.075
2125.99008	4493.275
2128.96609	4494.575
2131.94018	4516.275
2134.91236	4499.875
2137.88263	4484.675
2140.851	4492.275
2143.81746	4499.475
2146.78201	4490.775
2149.74466	4473.975
2152.7054	4500.975
2155.66425	4482.575
2158.6212	4475.075
2161.57625	4451.175
2164.52941	4423.575
2167.48067	4441.075
2170.43004	4443.475
2173.37752	4438.575
2176.32311	4459.375
2179.26681	4443.375
2182.20863	4452.975
2185.14856	4446.475
2188.08661	4450.575
2191.02278	4461.475
2193.95707	4410.375
2196.88948	4406.475
2199.82001	4429.075
2202.74867	4411.775
2205.67545	4407.775
2208.60037	4424.975
2211.52341	4400.675
2214.44458	4384.975
2217.36388	4388.075
2220.28132	4370.475
2223.1969	4337.675
2226.11061	4344.075
2229.02246	4331.675
2231.93245	4334.375
2234.84058	4302.475
2237.74686	4308.775
2240.65128	4280.575
2243.55385	4280.375
2246.45456	4265.175
2249.35343	4278.975
2252.25044	4276.975
2255.14561	4288.075
2258.03893	4262.175
2260.93041	4257.975
2263.82004	4251.675
2266.70783	4241.475
2269.59378	4236.275
2272.4779	4210.075
2275.36017	4222.075
2278.24061	4200.175
2281.11922	4163.075
2283.996	4186.575
2286.87094	4160.175
2289.74405	4150.975
2292.61534	4152.675
2295.4848	4145.975
2298.35243	4133.175
2301.21824	4122.375
2304.08223	4122.875
2306.94439	4129.175
2309.80474	4129.575
2312.66327	4127.275
2315.51999	4103.775
2318.37489	4093.375
2321.22797	4094.775
2324.07925	4089.075
2326.92871	4074.375
2329.77637	4055.475
2332.62222	4051.275
2335.46626	4016.975
2338.3085	4030.075
2341.14893	4028.975
2343.98756	4042.475
2346.8244	4021.675
2349.65943	4009.275
2352.49267	4010.875
2355.32411	4032.075
2358.15376	4012.875
2360.98161	4014.675
2363.80768	4004.875
2366.63195	4000.075
2369.45444	3992.575
2372.27514	4003.875
2375.09405	4019.675
2377.91118	3976.375
2380.72652	3977.475
2383.54009	3972.275
2386.35187	3979.875
2389.16188	3941.175
2391.97011	3939.175
2394.77657	3923.375
2397.58125	3927.975
2400.38416	3917.775
2403.18529	3904.275
2405.98466	3891.575
2408.78226	3894.775
2411.57809	3878.275
2414.37216	3870.075
2417.16446	3869.675
2419.955	3854.675
2422.74378	3870.975
2425.5308	3833.275
2428.31606	3839.675
2431.09956	3845.675
2433.88131	3834.075
2436.6613	3835.975
2439.43954	3827.975
2442.21603	3822.075
2444.99077	3806.875
2447.76377	3816.675
2450.53501	3814.575
2453.30451	3786.775
2456.07226	3795.175
2458.83827	3801.975
2461.60254	3750.175
2464.36507	3791.675
2467.12586	3765.875
2469.88492	3773.075
2472.64224	3781.075
2475.39782	3748.875
2478.15167	3775.875
2480.90379	3757.575
2483.65417	3772.275
2486.40283	3782.875
2489.14976	3791.875
2491.89497	3774.875
2494.63845	3765.175
2497.3802	3745.775
2500.12024	3745.775
2502.85855	3747.875
2505.59514	3742.175
2508.33002	3731.775
2511.06318	3710.175
2513.79462	3716.775
2516.52435	3671.575
2519.25237	3650.875
2521.97867	3668.775
2524.70327	3673.775
2527.42616	3658.575
2530.14734	3670.875
2532.86681	3642.675
2535.58458	3645.675
2538.30065	3636.275
2541.01501	3639.475
2543.72768	3629.575
2546.43864	3629.075
2549.14791	3607.275
2551.85548	3595.575
2554.56136	3593.675
2557.26554	3593.775
2559.96803	3583.675
2562.66883	3583.975
2565.36794	3565.575
2568.06536	3551.475
2570.7611	3567.675
2573.45514	3547.175
2576.14751	3527.375
2578.83819	3524.275
2581.52719	3511.675
2584.21451	3524.575
2586.90015	3488.975
2589.58411	3490.975
2592.2664	3486.075
2594.94701	3488.675
2597.62594	3490.275
2600.30321	3421.075
2602.9788	3438.275
2605.65273	3439.275
2608.32498	3431.575
2610.99557	3453.775
2613.66449	3428.275
2616.33175	3429.275
2618.99734	3434.775
2621.66128	3438.375
2624.32355	3415.675
2626.98416	3404.175
2629.64311	3379.575
2632.30041	3380.775
2634.95605	3358.575
2637.61004	3356.675
2640.26238	3357.175
2642.91306	3344.475
2645.56209	3369.975
2648.20948	3359.875
2650.85521	3344.675
2653.4993	3352.475
2656.14175	3353.575
2658.78255	3334.375
2661.42171	3312.775
2664.05923	3345.575
2666.6951	3356.875
2669.32934	3362.975
2671.96194	3360.375
2674.59291	3344.175
2677.22224	3353.775
2679.84993	3345.275
2682.476	3334.575
2685.10043	3326.975
2687.72324	3316.175
2690.34441	3323.875
2692.96396	3322.575
2695.58188	3333.575
2698.19818	3326.675
2700.81285	3327.975
2703.4259	3296.175
2706.03733	3282.375
2708.64714	3282.875
2711.25533	3307.075
2713.86191	3321.275
2716.46687	3311.675
2719.07021	3315.375
2721.67194	3315.875
2724.27206	3323.075
2726.87057	3316.175
2729.46747	3284.675
2732.06276	3309.175
2734.65644	3277.675
2737.24852	3274.975
2739.83899	3274.375
2742.42786	3269.975
2745.01513	3281.275
2747.60079	3262.175
2750.18486	3243.675
2752.76733	3246.975
2755.3482	3245.375
2757.92747	3250.175
2760.50515	3218.375
2763.08123	3222.575
2765.65573	3227.875
2768.22863	3205.875
2770.79994	3201.875
2773.36967	3188.275
2775.9378	3177.075
2778.50435	3195.775
2781.06932	3184.275
2783.6327	3162.975
2786.1945	3190.375
2788.75471	3165.575
2791.31335	3164.075
2793.87041	3160.575
2796.42589	3132.075
2798.97979	3128.175
2801.53212	3135.975
2804.08288	3150.175
2806.63206	3122.475
2809.17967	3102.275
2811.72571	3117.775
2814.27018	3108.075
2816.81308	3089.075
2819.35442	3056.475
2821.89419	3088.075
2824.43239	3065.875
2826.96904	3088.475
2829.50412	3064.175
2832.03763	3077.675
2834.56959	3068.675
2837.1	3060.275
2839.62884	3067.475
2842.15613	3046.375
2844.68186	3061.675
2847.20604	3039.075
2849.72867	3036.375
2852.24974	3035.475
2854.76927	3000.275
2857.28724	2970.375
2859.80367	3016.775
2862.31855	3023.175
2864.83189	3003.375
2867.34368	3018.975
2869.85393	3028.075
2872.36264	3000.375
2874.8698	2994.375
2877.37543	3005.975
2879.87952	2989.675
2882.38207	2975.575
2884.88308	2974.575
2887.38256	2983.175
2889.88051	2968.275
2892.37692	2984.175
2894.8718	2951.875
2897.36515	2979.475
2899.85698	2954.375
2902.34727	2960.775
2904.83604	2971.375
2907.32328	2984.275
2909.809	2984.175
2912.29319	2975.675
2914.77587	2985.475
2917.25702	3001.175
2919.73665	3003.875
2922.21476	2987.675
2924.69136	2990.575
2927.16644	2982.675
2929.64	2981.775
2932.11205	2952.375
2934.58258	2955.775
2937.05161	2952.375
2939.51912	2960.875
2941.98513	2956.175
2944.44962	2943.475
2946.91261	2911.575
2949.37409	2932.575
2951.83407	2930.575
2954.29254	2915.875
2956.74951	2910.575
2959.20498	2893.175
2961.65895	2897.475
2964.11142	2881.375
2966.56239	2891.575
2969.01186	2901.275
2971.45984	2881.075
2973.90632	2870.475
2976.35131	2880.775
2978.7948	2870.375
2981.23681	2867.375
2983.67732	2862.575
2986.11635	2864.575
2988.55388	2837.775
2990.98993	2838.975
2993.4245	2823.875
2995.85758	2815.775
2998.28917	2811.275
3000.71928	2795.275
3003.14791	2802.475
3005.57506	2783.175
3008.00073	2775.975
3010.42493	2718.275
3012.84764	2758.775
3015.26888	2766.975
3017.68865	2751.475
3020.10694	2705.475
3022.52376	2730.075
3024.9391	2715.275
3027.35298	2712.175
3029.76539	2701.075
3032.17632	2704.675
3034.5858	2696.475
3036.9938	2698.475
3039.40034	2694.075
3041.80542	2678.575
3044.20903	2676.375
3046.61118	2654.275
3049.01187	2682.475
3051.4111	2646.775
3053.80888	2632.975
3056.20519	2636.375
3058.60005	2618.975
3060.99345	2643.475
3063.3854	2618.675
3065.7759	2609.775
3068.16494	2582.475
3070.55254	2580.675
3072.93868	2603.075
3075.32338	2588.675
3077.70662	2585.375
3080.08842	2571.075
3082.46878	2549.275
3084.84769	2563.075
3087.22515	2548.275
3089.60118	2565.275
3091.97576	2544.575
3094.3489	2563.475
3096.72061	2543.275
3099.09087	2533.875
3101.4597	2536.475
3103.82709	2535.375
3106.19305	2509.375
3108.55757	2519.675
3110.92066	2515.875
3113.28232	2516.175
3115.64255	2511.375
3118.00134	2517.675
3120.35871	2487.375
3122.71466	2477.275
3125.06917	2473.875
3127.42226	2465.375
3129.77393	2451.775
3132.12417	2462.775
3134.47299	2473.375
3136.82039	2454.775
3139.16636	2417.875
3141.51092	2445.175
3143.85406	2449.775
3146.19579	2426.175
3148.53609	2432.775
3150.87499	2441.975
3153.21246	2435.575
3155.54853	2433.275
3157.88318	2427.175
3160.21642	2431.775
3162.54826	2421.975
3164.87868	2437.175
3167.2077	2391.975
3169.5353	2413.175
3171.86151	2428.975
3174.18631	2391.875
3176.5097	2399.975
3178.83169	2402.275
3181.15228	2393.775
3183.47147	2382.575
3185.78926	2359.375
3188.10565	2375.275
3190.42065	2344.275
3192.73424	2363.075
3195.04645	2347.575
3197.35725	2329.075
3199.66667	2351.875
3201.97469	2342.975
3204.28132	2326.275
3206.58656	2341.275
3208.8904	2339.775
3211.19287	2336.275
3213.49394	2337.375
3215.79363	2325.775
3218.09193	2340.775
3220.38884	2335.175
3222.68438	2332.975
3224.97853	2296.175
3227.2713	2337.875
3229.56269	2312.575
3231.8527	2311.875
