Data from AgNPs_UA_10uM_CRN_500uM_SU_RamanShift__122__13-25-40-278.txt Node

Date: Thu Aug 04 13:25:40 BST 2022
User: TCL
Spectrometer: QEP01345
Trigger mode: 4
Integration Time (sec): 1.000000E0
Scans to average: 10
Electric dark correction enabled: true
Nonlinearity correction enabled: false
Boxcar width: 0
XAxis mode: Raman Shifts
Number of Pixels in Spectrum: 1044
>>>>>Begin Spectral Data<<<<<
46.04893	0.125
50.45542	-1.375
54.85868	1.325
59.25871	-0.975
63.6555	22.125
68.04907	22.825
72.43941	20.925
76.82654	21.425
81.21044	24.725
85.59113	25.425
89.96862	28.425
94.34289	29.325
98.71396	27.825
103.08183	30.425
107.4465	28.125
111.80798	30.225
116.16626	31.825
120.52136	34.025
124.87327	36.725
129.222	37.325
133.56755	38.525
137.90993	43.225
142.24913	47.725
146.58517	56.025
150.91804	65.225
155.24774	81.125
159.57429	101.625
163.89768	128.825
168.21792	172.525
172.53501	242.125
176.84895	341.025
181.15975	487.225
185.46741	687.225
189.77193	944.525
194.07331	1282.825
198.37157	1660.625
202.6667	2045.525
206.9587	2451.625
211.24758	2827.125
215.53334	3232.725
219.81599	3661.925
224.09553	4135.225
228.37195	4656.925
232.64527	5216.925
236.91549	5797.925
241.18261	6290.725
245.44663	6678.125
249.70755	7003.525
253.96539	7270.225
258.22014	7532.325
262.4718	7752.225
266.72039	7906.425
270.96589	7960.825
275.20832	7891.825
279.44768	7780.025
283.68397	7674.725
287.91719	7601.225
292.14735	7601.025
296.37445	7736.225
300.59849	7955.625
304.81948	8261.225
309.03742	8515.925
313.25231	8661.525
317.46415	8564.525
321.67296	8262.925
325.87872	7938.825
330.08145	7773.425
334.28114	7750.425
338.47781	7848.125
342.67145	7988.925
346.86207	8203.725
351.04966	8525.925
355.23424	8883.925
359.4158	9129.225
363.59435	9217.225
367.76989	9237.825
371.94243	9259.525
376.11196	9213.525
380.27849	9186.225
384.44203	9206.425
388.60257	9256.425
392.76012	9310.825
396.91468	9442.125
401.06626	9596.925
405.21485	9637.825
409.36047	9530.025
413.50311	9220.725
417.64277	8961.225
421.77947	8753.825
425.9132	8685.625
430.04396	8672.625
434.17176	8723.825
438.2966	8839.425
442.41849	9015.925
446.53742	9247.725
450.6534	9461.425
454.76644	9591.125
458.87653	9638.025
462.98368	9604.925
467.08789	9523.425
471.18916	9361.625
475.2875	9141.225
479.38291	8953.925
483.4754	8820.325
487.56496	8750.825
491.6516	8726.025
495.73531	8728.625
499.81612	8769.325
503.89401	8841.925
507.96899	8902.225
512.04106	8938.325
516.11023	8997.225
520.1765	9044.625
524.23987	9082.325
528.30034	9086.725
532.35792	9028.425
536.41261	8968.025
540.46441	8854.125
544.51333	8821.025
548.55936	8884.325
552.60252	9006.025
556.64279	9162.725
560.6802	9277.625
564.71473	9420.325
568.7464	9512.925
572.7752	9510.725
576.80114	9274.925
580.82422	9093.725
584.84444	9063.525
588.86181	9099.025
592.87633	9213.825
596.888	9401.425
600.89682	9808.525
604.9028	10948.725
608.90594	13248.725
612.90624	15477.125
616.90371	14161.925
620.89834	11034.525
624.89015	9798.225
628.87913	9696.925
632.86528	9847.525
636.84862	9848.225
640.82913	9551.625
644.80683	9178.625
648.78172	8968.725
652.75379	9012.525
656.72306	9307.625
660.68952	9613.625
664.65319	9529.825
668.61405	9388.525
672.57211	9412.725
676.52738	9418.625
680.47986	9225.525
684.42955	9022.325
688.37646	9026.125
692.32058	9098.325
696.26192	9280.625
700.20048	9430.825
704.13626	9471.425
708.06928	9333.725
711.99952	9219.825
715.927	9235.025
719.85171	9298.725
723.77365	9313.225
727.69284	9231.525
731.60928	9142.825
735.52295	9120.625
739.43388	9192.525
743.34206	9249.725
747.24749	9246.525
751.15017	9244.125
755.05012	9384.125
758.94733	9729.425
762.8418	10550.925
766.73354	11846.725
770.62254	12830.625
774.50882	12997.425
778.39237	12502.025
782.27321	11603.825
786.15132	10596.125
790.02671	9897.725
793.89938	9567.525
797.76935	9391.925
801.6366	9296.325
805.50115	9257.525
809.36299	9206.725
813.22213	9184.325
817.07857	9156.125
820.93231	9167.325
824.78336	9176.025
828.63172	9195.625
832.47738	9228.125
836.32036	9217.025
840.16066	9208.225
843.99827	9211.625
847.8332	9188.625
851.66546	9203.025
855.49504	9194.825
859.32195	9211.825
863.1462	9206.725
866.96777	9186.525
870.78668	9200.525
874.60293	9184.825
878.41652	9261.825
882.22745	9333.425
886.03573	9384.025
889.84136	9369.725
893.64433	9344.825
897.44466	9310.125
901.24235	9263.225
905.0374	9246.225
908.8298	9222.725
912.61957	9204.525
916.40671	9201.225
920.19121	9282.325
923.97308	9340.125
927.75233	9471.725
931.52895	9565.325
935.30295	9472.925
939.07433	9291.925
942.84309	9182.125
946.60924	9154.925
950.37278	9142.225
954.13371	9079.725
957.89203	9094.425
961.64774	9066.825
965.40086	9053.325
969.15137	9025.625
972.89929	9044.425
976.64461	9076.625
980.38733	9080.125
984.12747	9104.925
987.86502	9167.525
991.59999	9225.625
995.33237	9345.625
999.06217	9536.525
1002.78939	9766.025
1006.51404	9935.225
1010.23611	10028.225
1013.95561	10140.125
1017.67255	10189.025
1021.38692	10196.025
1025.09872	10166.425
1028.80796	10170.525
1032.51465	10316.325
1036.21877	10420.325
1039.92035	10434.425
1043.61937	10378.525
1047.31584	10243.525
1051.00976	10114.825
1054.70114	10082.725
1058.38998	10081.025
1062.07627	10123.025
1065.76003	10141.025
1069.44126	10238.825
1073.11995	10395.925
1076.79611	10584.825
1080.46974	10748.025
1084.14085	10856.025
1087.80943	10952.525
1091.47549	10995.225
1095.13903	10938.425
1098.80005	10879.625
1102.45857	10886.925
1106.11456	10867.925
1109.76805	10755.825
1113.41903	10756.025
1117.06751	10885.025
1120.71348	11140.125
1124.35696	11350.925
1127.99793	11514.725
1131.63641	11348.625
1135.2724	11005.125
1138.90589	10723.225
1142.5369	10544.725
1146.16542	10414.825
1149.79145	10335.225
1153.415	10283.125
1157.03607	10272.825
1160.65467	10382.225
1164.27079	10613.525
1167.88443	10981.325
1171.49561	11551.825
1175.10432	12362.425
1178.71056	13502.125
1182.31434	14423.525
1185.91565	14833.525
1189.51451	14723.725
1193.11091	14373.825
1196.70485	13894.425
1200.29634	13410.025
1203.88538	12959.025
1207.47197	12439.425
1211.05612	11956.925
1214.63782	11580.325
1218.21708	11348.325
1221.79391	11280.425
1225.36829	11310.825
1228.94024	11262.625
1232.50976	11228.225
1236.07685	11141.425
1239.6415	11137.325
1243.20374	11189.825
1246.76355	11266.425
1250.32093	11413.725
1253.8759	11626.525
1257.42845	11957.225
1260.97859	12303.625
1264.52631	12655.525
1268.07163	12907.025
1271.61453	13099.125
1275.15503	13238.825
1278.69312	13318.725
1282.22882	13432.125
1285.76211	13600.925
1289.29301	13789.625
1292.82151	14073.025
1296.34761	14363.925
1299.87133	14895.225
1303.39266	15809.725
1306.9116	17187.925
1310.42815	18580.025
1313.94233	19215.825
1317.45412	18644.725
1320.96354	17538.525
1324.47058	16445.525
1327.97525	15520.825
1331.47754	14902.425
1334.97747	14751.125
1338.47502	14858.325
1341.97022	15329.525
1345.46305	16104.725
1348.95352	17143.525
1352.44163	18373.725
1355.92738	19622.325
1359.41078	21264.925
1362.89183	22370.925
1366.37053	21261.525
1369.84688	18393.525
1373.32088	15789.725
1376.79254	14338.725
1380.26186	13634.025
1383.72883	13233.325
1387.19347	12868.025
1390.65578	12462.725
1394.11575	12087.825
1397.57339	11859.125
1401.0287	11801.725
1404.48168	11773.125
1407.93234	11897.725
1411.38068	12079.725
1414.82669	12204.825
1418.27039	12244.825
1421.71177	12211.225
1425.15083	12127.125
1428.58758	12093.025
1432.02203	12235.625
1435.45416	12354.225
1438.88399	12360.425
1442.31151	12270.925
1445.73673	12293.425
1449.15965	12249.225
1452.58027	12163.825
1455.9986	12098.825
1459.41463	12054.025
1462.82837	12143.025
1466.23982	12342.225
1469.64898	12557.325
1473.05586	12737.325
1476.46045	12895.325
1479.86276	13076.225
1483.26279	13204.225
1486.66054	13386.025
1490.05602	13771.625
1493.44922	14318.125
1496.84016	15147.325
1500.22882	16375.925
1503.61521	17867.025
1506.99934	19394.725
1510.38121	20291.925
1513.76081	20008.825
1517.13816	18599.425
1520.51324	16716.025
1523.88607	15202.925
1527.25665	14259.225
1530.62498	13768.625
1533.99105	13541.825
1537.35488	13399.425
1540.71647	13249.625
1544.07581	13112.025
1547.4329	13053.525
1550.78776	12886.025
1554.14038	12792.525
1557.49077	12776.225
1560.83892	12906.725
1564.18484	13218.525
1567.52853	13483.325
1570.86999	13671.925
1574.20922	13726.525
1577.54624	13508.425
1580.88103	12961.725
1584.2136	12384.825
1587.54395	12175.525
1590.87208	12366.725
1594.19801	12908.225
1597.52172	13621.025
1600.84321	13911.225
1604.16251	13752.025
1607.47959	13350.625
1610.79447	12835.825
1614.10715	12138.425
1617.41763	11478.725
1620.7259	11019.925
1624.03199	10796.025
1627.33587	10763.125
1630.63757	10933.225
1633.93707	11430.325
1637.23439	12250.525
1640.52951	13416.825
1643.82246	14851.025
1647.11321	16200.325
1650.40179	16585.625
1653.68819	15617.825
1656.97241	13736.725
1660.25446	11975.325
1663.53433	10791.225
1666.81203	10082.325
1670.08756	9675.425
1673.36092	9443.025
1676.63211	9244.825
1679.90115	9131.125
1683.16801	9014.425
1686.43272	8918.825
1689.69527	8884.225
1692.95567	8853.725
1696.2139	8819.225
1699.46999	8788.325
1702.72392	8784.325
1705.97571	8736.825
1709.22535	8763.725
1712.47284	8774.325
1715.71819	8747.225
1718.96139	8759.225
1722.20246	8740.625
1725.44139	8699.825
1728.67818	8628.525
1731.91284	8582.825
1735.14537	8555.625
1738.37576	8521.225
1741.60403	8484.425
1744.83017	8473.425
1748.05418	8445.525
1751.27607	8424.625
1754.49584	8404.425
1757.71349	8417.525
1760.92903	8402.325
1764.14244	8379.825
1767.35375	8347.825
1770.56294	8326.825
1773.77002	8326.625
1776.97499	8299.225
1780.17785	8243.925
1783.37861	8264.625
1786.57727	8244.225
1789.77382	8243.625
1792.96828	8217.625
1796.16064	8205.425
1799.3509	8198.425
1802.53907	8212.325
1805.72514	8176.925
1808.90913	8149.125
1812.09102	8149.525
1815.27083	8106.425
1818.44856	8081.725
1821.6242	8057.925
1824.79776	8052.025
1827.96924	8049.225
1831.13864	8046.825
1834.30597	8009.125
1837.47122	7995.125
1840.6344	7969.825
1843.7955	7982.625
1846.95454	7980.525
1850.11151	7987.125
1853.26642	7983.625
1856.41926	7964.125
1859.57004	7985.525
1862.71876	7952.925
1865.86542	7966.125
1869.01003	7951.325
1872.15258	7934.925
1875.29308	7914.725
1878.43152	7923.325
1881.56792	7917.925
1884.70227	7899.625
1887.83457	7857.225
1890.96482	7880.125
1894.09304	7856.825
1897.21921	7829.425
1900.34335	7828.025
1903.46544	7818.625
1906.58551	7831.925
1909.70353	7790.525
1912.81953	7839.625
1915.93349	7786.825
1919.04543	7779.025
1922.15534	7761.725
1925.26322	7779.025
1928.36908	7749.825
1931.47292	7695.625
1934.57473	7707.025
1937.67453	7696.825
1940.77232	7688.725
1943.86808	7635.625
1946.96184	7631.025
1950.05358	7590.625
1953.14331	7595.325
1956.23103	7553.825
1959.31675	7513.825
1962.40046	7507.625
1965.48217	7491.425
1968.56188	7429.025
1971.63959	7442.125
1974.7153	7445.525
1977.78901	7414.425
1980.86073	7413.025
1983.93046	7377.025
1986.99819	7350.425
1990.06394	7342.025
1993.1277	7330.325
1996.18947	7272.925
1999.24925	7274.425
2002.30706	7202.925
2005.36288	7205.225
2008.41672	7170.125
2011.46859	7146.525
2014.51848	7151.125
2017.56639	7143.025
2020.61233	7091.325
2023.6563	7081.925
2026.6983	7063.625
2029.73833	7018.325
2032.7764	7029.425
2035.8125	6997.125
2038.84664	6994.725
2041.87881	6999.725
2044.90903	6974.325
2047.93729	6969.925
2050.96359	6950.125
2053.98794	6941.225
2057.01034	6922.725
2060.03078	6945.025
2063.04927	6912.225
2066.06582	6887.325
2069.08042	6888.625
2072.09307	6874.725
2075.10378	6877.525
2078.11255	6865.125
2081.11938	6856.925
2084.12426	6847.425
2087.12722	6848.125
2090.12824	6862.125
2093.12732	6846.225
2096.12447	6856.325
2099.11969	6870.925
2102.11299	6859.925
2105.10435	6859.925
2108.09379	6849.425
2111.08131	6863.625
2114.0669	6866.225
2117.05057	6868.025
2120.03233	6892.525
2123.01216	6873.725
2125.99008	6883.925
2128.96609	6899.025
2131.94018	6876.625
2134.91236	6888.025
2137.88263	6882.425
2140.851	6885.025
2143.81746	6894.425
2146.78201	6905.325
2149.74466	6885.225
2152.7054	6877.825
2155.66425	6877.425
2158.6212	6872.925
2161.57625	6871.325
2164.52941	6869.625
2167.48067	6852.025
2170.43004	6837.325
2173.37752	6830.225
2176.32311	6846.425
2179.26681	6838.625
2182.20863	6844.725
2185.14856	6871.725
2188.08661	6852.925
2191.02278	6851.625
2193.95707	6839.225
2196.88948	6855.625
2199.82001	6840.625
2202.74867	6829.425
2205.67545	6836.125
2208.60037	6844.725
2211.52341	6822.625
2214.44458	6805.325
2217.36388	6778.625
2220.28132	6778.225
2223.1969	6738.425
2226.11061	6737.825
2229.02246	6715.725
2231.93245	6721.125
2234.84058	6706.125
2237.74686	6688.125
2240.65128	6694.725
2243.55385	6674.025
2246.45456	6662.125
2249.35343	6629.525
2252.25044	6621.925
2255.14561	6648.125
2258.03893	6652.425
2260.93041	6629.225
2263.82004	6616.325
2266.70783	6609.625
2269.59378	6564.525
2272.4779	6563.025
2275.36017	6531.425
2278.24061	6517.025
2281.11922	6512.325
2283.996	6494.225
2286.87094	6502.325
2289.74405	6478.425
2292.61534	6469.925
2295.4848	6462.425
2298.35243	6443.025
2301.21824	6437.125
2304.08223	6449.625
2306.94439	6439.525
2309.80474	6450.925
2312.66327	6421.625
2315.51999	6447.425
2318.37489	6431.325
2321.22797	6414.325
2324.07925	6416.725
2326.92871	6392.425
2329.77637	6400.225
2332.62222	6397.525
2335.46626	6389.025
2338.3085	6390.325
2341.14893	6381.625
2343.98756	6379.725
2346.8244	6375.125
2349.65943	6372.825
2352.49267	6353.825
2355.32411	6356.825
2358.15376	6361.325
2360.98161	6345.325
2363.80768	6337.425
2366.63195	6338.025
2369.45444	6327.925
2372.27514	6338.725
2375.09405	6323.525
2377.91118	6287.625
2380.72652	6291.925
2383.54009	6274.225
2386.35187	6271.925
2389.16188	6262.925
2391.97011	6226.425
2394.77657	6209.825
2397.58125	6186.625
2400.38416	6191.025
2403.18529	6192.225
2405.98466	6175.025
2408.78226	6163.625
2411.57809	6116.725
2414.37216	6120.725
2417.16446	6126.425
2419.955	6130.925
2422.74378	6105.525
2425.5308	6095.925
2428.31606	6104.325
2431.09956	6116.625
2433.88131	6100.625
2436.6613	6081.425
2439.43954	6091.825
2442.21603	6077.725
2444.99077	6081.425
2447.76377	6084.925
2450.53501	6075.225
2453.30451	6070.725
2456.07226	6059.725
2458.83827	6051.625
2461.60254	6020.225
2464.36507	6027.925
2467.12586	6015.925
2469.88492	6008.525
2472.64224	6034.025
2475.39782	6033.625
2478.15167	6020.325
2480.90379	5999.725
2483.65417	6011.725
2486.40283	6001.625
2489.14976	6022.725
2491.89497	6029.325
2494.63845	6016.425
2497.3802	6009.225
2500.12024	5996.025
2502.85855	5981.325
2505.59514	6004.825
2508.33002	5991.925
2511.06318	5961.825
2513.79462	5929.625
2516.52435	5947.225
2519.25237	5940.825
2521.97867	5917.525
2524.70327	5906.625
2527.42616	5888.425
2530.14734	5881.725
2532.86681	5880.025
2535.58458	5912.425
2538.30065	5889.725
2541.01501	5891.425
2543.72768	5884.625
2546.43864	5864.825
2549.14791	5860.725
2551.85548	5863.125
2554.56136	5847.225
2557.26554	5838.725
2559.96803	5830.225
2562.66883	5821.025
2565.36794	5790.025
2568.06536	5784.325
2570.7611	5773.825
2573.45514	5776.225
2576.14751	5774.025
2578.83819	5771.125
2581.52719	5745.325
2584.21451	5753.725
2586.90015	5752.725
2589.58411	5741.525
2592.2664	5710.025
2594.94701	5717.025
2597.62594	5705.025
2600.30321	5691.125
2602.9788	5684.025
2605.65273	5695.425
2608.32498	5692.925
2610.99557	5678.625
2613.66449	5683.225
2616.33175	5672.025
2618.99734	5680.225
2621.66128	5660.625
2624.32355	5646.925
2626.98416	5634.525
2629.64311	5644.125
2632.30041	5639.225
2634.95605	5638.725
2637.61004	5624.925
2640.26238	5606.025
2642.91306	5607.625
2645.56209	5620.125
2648.20948	5602.525
2650.85521	5586.725
2653.4993	5590.625
2656.14175	5582.925
2658.78255	5587.425
2661.42171	5576.425
2664.05923	5574.425
2666.6951	5582.325
2669.32934	5582.925
2671.96194	5586.825
2674.59291	5589.425
2677.22224	5594.325
2679.84993	5579.525
2682.476	5593.225
2685.10043	5571.925
2687.72324	5575.825
2690.34441	5582.225
2692.96396	5557.225
2695.58188	5553.325
2698.19818	5554.325
2700.81285	5544.925
2703.4259	5534.825
2706.03733	5531.325
2708.64714	5533.925
2711.25533	5541.225
2713.86191	5531.825
2716.46687	5543.525
2719.07021	5542.425
2721.67194	5539.025
2724.27206	5527.525
2726.87057	5528.525
2729.46747	5538.025
2732.06276	5532.725
2734.65644	5515.225
2737.24852	5523.325
2739.83899	5500.525
2742.42786	5501.425
2745.01513	5476.125
2747.60079	5466.825
2750.18486	5473.925
2752.76733	5477.625
2755.3482	5458.825
2757.92747	5450.425
2760.50515	5453.925
2763.08123	5443.225
2765.65573	5410.225
2768.22863	5418.025
2770.79994	5412.825
2773.36967	5399.525
2775.9378	5415.225
2778.50435	5393.925
2781.06932	5396.125
2783.6327	5394.725
2786.1945	5405.025
2788.75471	5376.425
2791.31335	5369.125
2793.87041	5360.725
2796.42589	5336.825
2798.97979	5328.825
2801.53212	5319.925
2804.08288	5301.725
2806.63206	5296.125
2809.17967	5307.125
2811.72571	5297.125
2814.27018	5284.425
2816.81308	5255.525
2819.35442	5254.725
2821.89419	5265.625
2824.43239	5236.325
2826.96904	5236.125
2829.50412	5228.625
2832.03763	5211.925
2834.56959	5188.325
2837.1	5204.925
2839.62884	5179.425
2842.15613	5185.925
2844.68186	5180.625
2847.20604	5173.225
2849.72867	5175.425
2852.24974	5138.525
2854.76927	5151.725
2857.28724	5129.225
2859.80367	5130.225
2862.31855	5135.925
2864.83189	5137.825
2867.34368	5121.525
2869.85393	5123.725
2872.36264	5111.425
2874.8698	5100.325
2877.37543	5116.825
2879.87952	5111.325
2882.38207	5098.025
2884.88308	5076.225
2887.38256	5094.225
2889.88051	5081.825
2892.37692	5075.325
2894.8718	5062.825
2897.36515	5079.525
2899.85698	5064.625
2902.34727	5083.325
2904.83604	5080.425
2907.32328	5085.925
2909.809	5095.225
2912.29319	5107.325
2914.77587	5107.925
2917.25702	5100.725
2919.73665	5107.825
2922.21476	5103.025
2924.69136	5085.625
2927.16644	5091.425
2929.64	5070.725
2932.11205	5056.525
2934.58258	5018.125
2937.05161	5051.125
2939.51912	5052.325
2941.98513	5038.325
2944.44962	5034.225
2946.91261	4997.125
2949.37409	5035.525
2951.83407	5019.725
2954.29254	5004.625
2956.74951	4996.325
2959.20498	5002.025
2961.65895	4977.225
2964.11142	4994.425
2966.56239	4988.325
2969.01186	5004.325
2971.45984	4982.525
2973.90632	4966.825
2976.35131	4960.225
2978.7948	4954.225
2981.23681	4945.725
2983.67732	4938.525
2986.11635	4908.825
2988.55388	4916.025
2990.98993	4890.925
2993.4245	4892.025
2995.85758	4874.925
2998.28917	4868.325
3000.71928	4843.125
3003.14791	4834.025
3005.57506	4821.725
3008.00073	4800.525
3010.42493	4795.025
3012.84764	4780.425
3015.26888	4793.125
3017.68865	4776.525
3020.10694	4773.825
3022.52376	4747.725
3024.9391	4748.825
3027.35298	4734.825
3029.76539	4706.325
3032.17632	4712.925
3034.5858	4702.825
3036.9938	4699.825
3039.40034	4671.625
3041.80542	4666.825
3044.20903	4660.025
3046.61118	4662.625
3049.01187	4651.625
3051.4111	4638.125
3053.80888	4618.825
3056.20519	4606.425
3058.60005	4598.525
3060.99345	4606.325
3063.3854	4594.025
3065.7759	4570.725
3068.16494	4554.925
3070.55254	4532.425
3072.93868	4509.825
3075.32338	4506.925
3077.70662	4515.325
3080.08842	4487.025
3082.46878	4491.225
3084.84769	4465.725
3087.22515	4469.825
3089.60118	4475.125
3091.97576	4465.325
3094.3489	4459.125
3096.72061	4454.425
3099.09087	4460.025
3101.4597	4458.125
3103.82709	4461.625
3106.19305	4444.325
3108.55757	4442.525
3110.92066	4432.925
3113.28232	4417.025
3115.64255	4418.625
3118.00134	4400.625
3120.35871	4399.225
3122.71466	4383.225
3125.06917	4375.325
3127.42226	4359.625
3129.77393	4369.725
3132.12417	4340.525
3134.47299	4331.025
3136.82039	4328.625
3139.16636	4336.225
3141.51092	4338.825
3143.85406	4310.525
3146.19579	4325.025
3148.53609	4319.225
3150.87499	4321.425
3153.21246	4323.025
3155.54853	4327.225
3157.88318	4315.125
3160.21642	4325.025
3162.54826	4309.825
3164.87868	4306.525
3167.2077	4288.225
3169.5353	4287.025
3171.86151	4284.325
3174.18631	4270.325
3176.5097	4257.825
3178.83169	4252.425
3181.15228	4243.025
3183.47147	4240.925
3185.78926	4235.925
3188.10565	4219.525
3190.42065	4199.625
3192.73424	4199.525
3195.04645	4193.625
3197.35725	4197.725
3199.66667	4194.225
3201.97469	4178.925
3204.28132	4180.125
3206.58656	4200.625
3208.8904	4182.025
3211.19287	4191.125
3213.49394	4189.825
3215.79363	4196.725
