Data from AgNPs_UA_10uM_CRN_500uM_SU_RamanShift__118__13-25-00-277.txt Node

Date: Thu Aug 04 13:25:00 BST 2022
User: TCL
Spectrometer: QEP01345
Trigger mode: 4
Integration Time (sec): 1.000000E0
Scans to average: 10
Electric dark correction enabled: true
Nonlinearity correction enabled: false
Boxcar width: 0
XAxis mode: Raman Shifts
Number of Pixels in Spectrum: 1044
>>>>>Begin Spectral Data<<<<<
46.04893	1.3875
50.45542	-1.0125
54.85868	0.7875
59.25871	-0.5125
63.6555	19.9875
68.04907	21.3875
72.43941	23.1875
76.82654	23.9875
81.21044	24.9875
85.59113	26.1875
89.96862	27.1875
94.34289	25.8875
98.71396	26.3875
103.08183	28.9875
107.4465	30.4875
111.80798	30.5875
116.16626	32.9875
120.52136	35.0875
124.87327	36.5875
129.222	36.1875
133.56755	38.5875
137.90993	44.0875
142.24913	50.6875
146.58517	58.4875
150.91804	66.3875
155.24774	81.9875
159.57429	99.9875
163.89768	131.9875
168.21792	178.1875
172.53501	245.1875
176.84895	346.7875
181.15975	495.9875
185.46741	697.2875
189.77193	965.2875
194.07331	1307.3875
198.37157	1688.7875
202.6667	2089.6875
206.9587	2491.1875
211.24758	2881.7875
215.53334	3281.3875
219.81599	3730.6875
224.09553	4220.4875
228.37195	4760.3875
232.64527	5313.5875
236.91549	5893.3875
241.18261	6419.7875
245.44663	6822.3875
249.70755	7147.0875
253.96539	7437.6875
258.22014	7702.8875
262.4718	7900.5875
266.72039	8055.8875
270.96589	8100.5875
275.20832	8053.1875
279.44768	7939.1875
283.68397	7820.6875
287.91719	7745.3875
292.14735	7753.6875
296.37445	7879.6875
300.59849	8118.8875
304.81948	8428.3875
309.03742	8699.9875
313.25231	8830.2875
317.46415	8730.4875
321.67296	8422.2875
325.87872	8085.1875
330.08145	7919.3875
334.28114	7904.3875
338.47781	8000.2875
342.67145	8139.3875
346.86207	8397.2875
351.04966	8740.7875
355.23424	9048.3875
359.4158	9280.6875
363.59435	9411.5875
367.76989	9442.6875
371.94243	9432.3875
376.11196	9413.5875
380.27849	9356.8875
384.44203	9413.6875
388.60257	9439.4875
392.76012	9504.8875
396.91468	9643.8875
401.06626	9801.3875
405.21485	9846.5875
409.36047	9706.9875
413.50311	9407.1875
417.64277	9126.9875
421.77947	8950.2875
425.9132	8852.6875
430.04396	8873.7875
434.17176	8919.0875
438.2966	9002.0875
442.41849	9200.8875
446.53742	9418.5875
450.6534	9617.1875
454.76644	9742.1875
458.87653	9804.6875
462.98368	9782.7875
467.08789	9703.7875
471.18916	9524.2875
475.2875	9337.4875
479.38291	9142.7875
483.4754	8996.1875
487.56496	8929.4875
491.6516	8887.6875
495.73531	8888.7875
499.81612	8947.4875
503.89401	9030.7875
507.96899	9095.5875
512.04106	9121.9875
516.11023	9179.8875
520.1765	9241.8875
524.23987	9269.0875
528.30034	9235.5875
532.35792	9213.7875
536.41261	9143.4875
540.46441	9028.3875
544.51333	9005.1875
548.55936	9081.9875
552.60252	9200.3875
556.64279	9352.4875
560.6802	9493.3875
564.71473	9609.5875
568.7464	9708.5875
572.7752	9688.2875
576.80114	9458.4875
580.82422	9262.5875
584.84444	9212.6875
588.86181	9250.7875
592.87633	9343.1875
596.888	9529.5875
600.89682	9984.2875
604.9028	11123.9875
608.90594	13491.4875
612.90624	15762.1875
616.90371	14459.3875
620.89834	11243.4875
624.89015	9977.6875
628.87913	9860.4875
632.86528	9993.0875
636.84862	10046.1875
640.82913	9780.3875
644.80683	9374.6875
648.78172	9165.6875
652.75379	9211.5875
656.72306	9502.0875
660.68952	9819.7875
664.65319	9726.5875
668.61405	9578.1875
672.57211	9645.0875
676.52738	9642.8875
680.47986	9411.4875
684.42955	9231.4875
688.37646	9184.7875
692.32058	9293.0875
696.26192	9467.9875
700.20048	9649.1875
704.13626	9658.1875
708.06928	9545.7875
711.99952	9388.3875
715.927	9409.7875
719.85171	9509.8875
723.77365	9514.8875
727.69284	9436.0875
731.60928	9339.9875
735.52295	9327.0875
739.43388	9371.7875
743.34206	9425.1875
747.24749	9430.3875
751.15017	9423.0875
755.05012	9553.8875
758.94733	9902.6875
762.8418	10777.3875
766.73354	12060.9875
770.62254	13053.5875
774.50882	13267.2875
778.39237	12757.8875
782.27321	11843.2875
786.15132	10847.1875
790.02671	10120.7875
793.89938	9746.0875
797.76935	9603.4875
801.6366	9482.2875
805.50115	9413.7875
809.36299	9362.9875
813.22213	9362.7875
817.07857	9360.7875
820.93231	9323.3875
824.78336	9346.5875
828.63172	9378.5875
832.47738	9394.8875
836.32036	9387.4875
840.16066	9395.7875
843.99827	9368.2875
847.8332	9351.0875
851.66546	9358.6875
855.49504	9380.3875
859.32195	9399.2875
863.1462	9373.5875
866.96777	9363.2875
870.78668	9363.7875
874.60293	9409.1875
878.41652	9434.7875
882.22745	9524.7875
886.03573	9593.3875
889.84136	9575.5875
893.64433	9530.8875
897.44466	9473.2875
901.24235	9478.4875
905.0374	9438.2875
908.8298	9409.9875
912.61957	9388.9875
916.40671	9391.1875
920.19121	9445.9875
923.97308	9512.0875
927.75233	9635.0875
931.52895	9741.8875
935.30295	9646.1875
939.07433	9479.2875
942.84309	9364.9875
946.60924	9306.5875
950.37278	9307.0875
954.13371	9293.9875
957.89203	9285.0875
961.64774	9248.3875
965.40086	9237.6875
969.15137	9224.5875
972.89929	9207.6875
976.64461	9246.1875
980.38733	9238.3875
984.12747	9249.8875
987.86502	9319.4875
991.59999	9382.6875
995.33237	9502.3875
999.06217	9658.8875
1002.78939	9874.8875
1006.51404	10039.2875
1010.23611	10169.8875
1013.95561	10278.8875
1017.67255	10321.6875
1021.38692	10338.8875
1025.09872	10287.1875
1028.80796	10299.3875
1032.51465	10366.0875
1036.21877	10477.5875
1039.92035	10492.1875
1043.61937	10434.9875
1047.31584	10362.2875
1051.00976	10262.6875
1054.70114	10221.6875
1058.38998	10248.2875
1062.07627	10282.0875
1065.76003	10341.1875
1069.44126	10433.9875
1073.11995	10589.7875
1076.79611	10798.5875
1080.46974	10952.2875
1084.14085	11057.2875
1087.80943	11188.7875
1091.47549	11200.2875
1095.13903	11139.9875
1098.80005	11123.1875
1102.45857	11125.6875
1106.11456	11096.2875
1109.76805	10963.1875
1113.41903	10973.0875
1117.06751	11142.4875
1120.71348	11342.9875
1124.35696	11546.7875
1127.99793	11735.8875
1131.63641	11523.6875
1135.2724	11206.3875
1138.90589	10922.0875
1142.5369	10734.6875
1146.16542	10631.0875
1149.79145	10489.3875
1153.415	10448.4875
1157.03607	10434.5875
1160.65467	10551.2875
1164.27079	10756.5875
1167.88443	11134.3875
1171.49561	11682.0875
1175.10432	12517.1875
1178.71056	13599.5875
1182.31434	14529.8875
1185.91565	14920.9875
1189.51451	14869.1875
1193.11091	14499.3875
1196.70485	14077.8875
1200.29634	13658.7875
1203.88538	13164.1875
1207.47197	12650.5875
1211.05612	12132.5875
1214.63782	11741.8875
1218.21708	11510.5875
1221.79391	11393.9875
1225.36829	11410.3875
1228.94024	11370.1875
1232.50976	11305.1875
1236.07685	11295.9875
1239.6415	11281.5875
1243.20374	11360.5875
1246.76355	11420.1875
1250.32093	11562.0875
1253.8759	11765.2875
1257.42845	12107.5875
1260.97859	12467.3875
1264.52631	12789.0875
1268.07163	13056.5875
1271.61453	13254.7875
1275.15503	13344.7875
1278.69312	13407.7875
1282.22882	13521.1875
1285.76211	13657.5875
1289.29301	13893.8875
1292.82151	14144.1875
1296.34761	14461.0875
1299.87133	15006.6875
1303.39266	15925.1875
1306.9116	17230.6875
1310.42815	18576.2875
1313.94233	19165.3875
1317.45412	18591.5875
1320.96354	17497.6875
1324.47058	16428.1875
1327.97525	15499.1875
1331.47754	14957.1875
1334.97747	14771.6875
1338.47502	14940.2875
1341.97022	15434.4875
1345.46305	16237.3875
1348.95352	17341.8875
1352.44163	18539.0875
1355.92738	19859.9875
1359.41078	21454.3875
1362.89183	22547.1875
1366.37053	21387.6875
1369.84688	18526.4875
1373.32088	15891.0875
1376.79254	14441.7875
1380.26186	13755.3875
1383.72883	13318.2875
1387.19347	12956.3875
1390.65578	12558.1875
1394.11575	12202.5875
1397.57339	11930.9875
1401.0287	11850.8875
1404.48168	11833.0875
1407.93234	11930.3875
1411.38068	12093.2875
1414.82669	12297.4875
1418.27039	12357.7875
1421.71177	12351.1875
1425.15083	12250.7875
1428.58758	12190.4875
1432.02203	12325.7875
1435.45416	12422.6875
1438.88399	12435.5875
1442.31151	12352.0875
1445.73673	12344.8875
1449.15965	12332.7875
1452.58027	12237.8875
1455.9986	12171.3875
1459.41463	12145.2875
1462.82837	12234.4875
1466.23982	12436.3875
1469.64898	12654.7875
1473.05586	12822.9875
1476.46045	12969.8875
1479.86276	13096.3875
1483.26279	13279.1875
1486.66054	13483.4875
1490.05602	13888.8875
1493.44922	14441.0875
1496.84016	15332.3875
1500.22882	16576.9875
1503.61521	18139.0875
1506.99934	19660.5875
1510.38121	20598.0875
1513.76081	20312.1875
1517.13816	18838.9875
1520.51324	16899.9875
1523.88607	15338.4875
1527.25665	14372.2875
1530.62498	13883.0875
1533.99105	13638.6875
1537.35488	13495.4875
1540.71647	13384.5875
1544.07581	13252.0875
1547.4329	13168.6875
1550.78776	13021.7875
1554.14038	12919.0875
1557.49077	12905.5875
1560.83892	13066.6875
1564.18484	13373.2875
1567.52853	13662.9875
1570.86999	13857.3875
1574.20922	13879.6875
1577.54624	13652.5875
1580.88103	13131.5875
1584.2136	12535.6875
1587.54395	12271.7875
1590.87208	12424.1875
1594.19801	12964.3875
1597.52172	13623.3875
1600.84321	13922.8875
1604.16251	13771.8875
1607.47959	13434.4875
1610.79447	12928.9875
1614.10715	12277.0875
1617.41763	11603.2875
1620.7259	11127.9875
1624.03199	10870.2875
1627.33587	10862.3875
1630.63757	11052.0875
1633.93707	11489.1875
1637.23439	12304.4875
1640.52951	13468.3875
1643.82246	14931.8875
1647.11321	16294.5875
1650.40179	16784.6875
1653.68819	15774.0875
1656.97241	13888.9875
1660.25446	12122.1875
1663.53433	10940.7875
1666.81203	10211.3875
1670.08756	9785.0875
1673.36092	9562.1875
1676.63211	9374.4875
1679.90115	9248.7875
1683.16801	9151.1875
1686.43272	9053.4875
1689.69527	9014.7875
1692.95567	8951.3875
1696.2139	8917.1875
1699.46999	8896.6875
1702.72392	8881.9875
1705.97571	8887.9875
1709.22535	8871.2875
1712.47284	8857.9875
1715.71819	8869.6875
1718.96139	8847.0875
1722.20246	8837.3875
1725.44139	8815.5875
1728.67818	8750.2875
1731.91284	8699.8875
1735.14537	8666.4875
1738.37576	8629.4875
1741.60403	8587.8875
1744.83017	8584.9875
1748.05418	8568.2875
1751.27607	8535.2875
1754.49584	8518.9875
1757.71349	8529.0875
1760.92903	8513.1875
1764.14244	8482.9875
1767.35375	8473.8875
1770.56294	8462.3875
1773.77002	8423.0875
1776.97499	8411.1875
1780.17785	8389.4875
1783.37861	8373.2875
1786.57727	8364.5875
1789.77382	8343.7875
1792.96828	8338.6875
1796.16064	8322.2875
1799.3509	8309.7875
1802.53907	8291.9875
1805.72514	8299.6875
1808.90913	8253.9875
1812.09102	8235.4875
1815.27083	8248.9875
1818.44856	8201.2875
1821.6242	8185.7875
1824.79776	8149.4875
1827.96924	8153.1875
1831.13864	8138.1875
1834.30597	8137.9875
1837.47122	8094.2875
1840.6344	8062.2875
1843.7955	8084.0875
1846.95454	8100.6875
1850.11151	8102.5875
1853.26642	8070.3875
1856.41926	8063.3875
1859.57004	8088.8875
1862.71876	8101.6875
1865.86542	8076.4875
1869.01003	8057.4875
1872.15258	8038.4875
1875.29308	8023.7875
1878.43152	8018.0875
1881.56792	8004.0875
1884.70227	7986.2875
1887.83457	7976.3875
1890.96482	7971.3875
1894.09304	7960.4875
1897.21921	7946.1875
1900.34335	7909.2875
1903.46544	7911.3875
1906.58551	7922.4875
1909.70353	7909.9875
1912.81953	7898.7875
1915.93349	7893.8875
1919.04543	7866.5875
1922.15534	7842.0875
1925.26322	7879.4875
1928.36908	7820.8875
1931.47292	7792.7875
1934.57473	7783.7875
1937.67453	7794.1875
1940.77232	7777.0875
1943.86808	7726.8875
1946.96184	7727.7875
1950.05358	7693.1875
1953.14331	7693.2875
1956.23103	7657.6875
1959.31675	7623.4875
1962.40046	7608.5875
1965.48217	7584.3875
1968.56188	7546.1875
1971.63959	7540.6875
1974.7153	7516.2875
1977.78901	7521.9875
1980.86073	7513.1875
1983.93046	7479.2875
1986.99819	7438.8875
1990.06394	7403.7875
1993.1277	7390.2875
1996.18947	7343.6875
1999.24925	7340.1875
2002.30706	7305.9875
2005.36288	7290.3875
2008.41672	7251.4875
2011.46859	7252.0875
2014.51848	7197.4875
2017.56639	7182.5875
2020.61233	7163.9875
2023.6563	7155.1875
2026.6983	7148.6875
2029.73833	7096.7875
2032.7764	7096.1875
2035.8125	7076.4875
2038.84664	7092.1875
2041.87881	7050.2875
2044.90903	7037.3875
2047.93729	7038.8875
2050.96359	7029.2875
2053.98794	7005.8875
2057.01034	7000.3875
2060.03078	6997.3875
2063.04927	6977.1875
2066.06582	6956.1875
2069.08042	6968.6875
2072.09307	6961.6875
2075.10378	6957.2875
2078.11255	6935.6875
2081.11938	6931.5875
2084.12426	6921.9875
2087.12722	6911.2875
2090.12824	6939.6875
2093.12732	6909.7875
2096.12447	6929.5875
2099.11969	6936.8875
2102.11299	6940.4875
2105.10435	6914.8875
2108.09379	6921.2875
2111.08131	6932.4875
2114.0669	6939.8875
2117.05057	6949.3875
2120.03233	6967.9875
2123.01216	6961.1875
2125.99008	6944.2875
2128.96609	6953.5875
2131.94018	6978.2875
2134.91236	6947.3875
2137.88263	6954.8875
2140.851	6950.2875
2143.81746	6953.2875
2146.78201	6969.8875
2149.74466	6954.6875
2152.7054	6950.0875
2155.66425	6949.3875
2158.6212	6940.9875
2161.57625	6930.0875
2164.52941	6937.4875
2167.48067	6927.3875
2170.43004	6927.5875
2173.37752	6923.7875
2176.32311	6935.4875
2179.26681	6932.3875
2182.20863	6929.6875
2185.14856	6943.6875
2188.08661	6920.4875
2191.02278	6933.9875
2193.95707	6915.9875
2196.88948	6901.3875
2199.82001	6919.2875
2202.74867	6877.1875
2205.67545	6909.6875
2208.60037	6888.7875
2211.52341	6883.2875
2214.44458	6878.3875
2217.36388	6848.4875
2220.28132	6839.3875
2223.1969	6811.8875
2226.11061	6783.4875
2229.02246	6773.8875
2231.93245	6756.6875
2234.84058	6750.0875
2237.74686	6744.7875
2240.65128	6726.1875
2243.55385	6720.2875
2246.45456	6706.8875
2249.35343	6683.4875
2252.25044	6688.1875
2255.14561	6698.1875
2258.03893	6684.4875
2260.93041	6697.2875
2263.82004	6660.0875
2266.70783	6665.6875
2269.59378	6627.6875
2272.4779	6631.7875
2275.36017	6581.6875
2278.24061	6595.5875
2281.11922	6567.5875
2283.996	6532.6875
2286.87094	6549.2875
2289.74405	6548.9875
2292.61534	6546.8875
2295.4848	6519.7875
2298.35243	6509.5875
2301.21824	6491.7875
2304.08223	6488.7875
2306.94439	6492.9875
2309.80474	6493.8875
2312.66327	6493.6875
2315.51999	6485.1875
2318.37489	6516.8875
2321.22797	6476.0875
2324.07925	6454.4875
2326.92871	6466.1875
2329.77637	6445.7875
2332.62222	6427.8875
2335.46626	6417.0875
2338.3085	6407.5875
2341.14893	6429.4875
2343.98756	6435.1875
2346.8244	6424.5875
2349.65943	6417.4875
2352.49267	6401.3875
2355.32411	6398.3875
2358.15376	6395.8875
2360.98161	6392.7875
2363.80768	6380.8875
2366.63195	6366.0875
2369.45444	6387.7875
2372.27514	6364.4875
2375.09405	6357.8875
2377.91118	6345.4875
2380.72652	6327.9875
2383.54009	6321.4875
2386.35187	6310.6875
2389.16188	6286.9875
2391.97011	6274.7875
2394.77657	6243.5875
2397.58125	6233.3875
2400.38416	6229.2875
2403.18529	6222.7875
2405.98466	6224.0875
2408.78226	6197.7875
2411.57809	6169.4875
2414.37216	6181.7875
2417.16446	6165.9875
2419.955	6173.9875
2422.74378	6146.7875
2425.5308	6154.1875
2428.31606	6167.8875
2431.09956	6157.6875
2433.88131	6138.5875
2436.6613	6125.5875
2439.43954	6112.3875
2442.21603	6118.6875
2444.99077	6106.6875
2447.76377	6129.2875
2450.53501	6104.0875
2453.30451	6103.6875
2456.07226	6100.8875
2458.83827	6082.9875
2461.60254	6076.6875
2464.36507	6058.5875
2467.12586	6059.8875
2469.88492	6057.7875
2472.64224	6060.4875
2475.39782	6059.7875
2478.15167	6038.6875
2480.90379	6070.9875
2483.65417	6045.3875
2486.40283	6056.7875
2489.14976	6054.2875
2491.89497	6053.7875
2494.63845	6041.3875
2497.3802	6045.4875
2500.12024	6033.5875
2502.85855	6038.9875
2505.59514	6025.7875
2508.33002	6017.6875
2511.06318	5978.4875
2513.79462	5980.4875
2516.52435	5975.7875
2519.25237	5959.2875
2521.97867	5950.8875
2524.70327	5945.0875
2527.42616	5938.6875
2530.14734	5906.7875
2532.86681	5908.8875
2535.58458	5932.3875
2538.30065	5930.9875
2541.01501	5914.5875
2543.72768	5911.9875
2546.43864	5884.1875
2549.14791	5875.8875
2551.85548	5901.8875
2554.56136	5878.2875
2557.26554	5870.7875
2559.96803	5865.7875
2562.66883	5844.9875
2565.36794	5826.5875
2568.06536	5807.8875
2570.7611	5801.7875
2573.45514	5775.6875
2576.14751	5795.7875
2578.83819	5771.8875
2581.52719	5765.7875
2584.21451	5764.6875
2586.90015	5768.6875
2589.58411	5741.0875
2592.2664	5744.8875
2594.94701	5720.9875
2597.62594	5727.0875
2600.30321	5734.0875
2602.9788	5710.9875
2605.65273	5702.6875
2608.32498	5708.1875
2610.99557	5692.5875
2613.66449	5699.9875
2616.33175	5679.4875
2618.99734	5692.1875
2621.66128	5671.0875
2624.32355	5673.2875
2626.98416	5653.6875
2629.64311	5658.5875
2632.30041	5640.9875
2634.95605	5641.9875
2637.61004	5622.4875
2640.26238	5619.6875
2642.91306	5599.3875
2645.56209	5593.6875
2648.20948	5595.0875
2650.85521	5586.4875
2653.4993	5613.9875
2656.14175	5574.5875
2658.78255	5586.3875
2661.42171	5579.3875
2664.05923	5576.8875
2666.6951	5605.1875
2669.32934	5605.6875
2671.96194	5606.6875
2674.59291	5591.1875
2677.22224	5600.2875
2679.84993	5601.2875
2682.476	5588.0875
2685.10043	5595.0875
2687.72324	5587.6875
2690.34441	5595.4875
2692.96396	5580.3875
2695.58188	5571.6875
2698.19818	5579.1875
2700.81285	5560.7875
2703.4259	5562.6875
2706.03733	5551.6875
2708.64714	5538.0875
2711.25533	5547.9875
2713.86191	5535.4875
2716.46687	5554.5875
2719.07021	5554.7875
2721.67194	5557.4875
2724.27206	5551.4875
2726.87057	5551.9875
2729.46747	5552.1875
2732.06276	5546.1875
2734.65644	5545.1875
2737.24852	5526.1875
2739.83899	5522.6875
2742.42786	5518.7875
2745.01513	5516.0875
2747.60079	5492.9875
2750.18486	5481.9875
2752.76733	5499.6875
2755.3482	5464.7875
2757.92747	5466.3875
2760.50515	5453.3875
2763.08123	5444.4875
2765.65573	5435.0875
2768.22863	5431.3875
2770.79994	5411.8875
2773.36967	5416.5875
2775.9378	5410.8875
2778.50435	5397.6875
2781.06932	5407.2875
2783.6327	5400.6875
2786.1945	5411.6875
2788.75471	5387.8875
2791.31335	5373.9875
2793.87041	5358.3875
2796.42589	5349.4875
2798.97979	5324.2875
2801.53212	5332.1875
2804.08288	5309.0875
2806.63206	5310.1875
2809.17967	5329.5875
2811.72571	5291.3875
2814.27018	5295.9875
2816.81308	5272.5875
2819.35442	5274.6875
2821.89419	5272.1875
2824.43239	5261.0875
2826.96904	5250.1875
2829.50412	5255.6875
2832.03763	5204.2875
2834.56959	5218.7875
2837.1	5195.5875
2839.62884	5189.7875
2842.15613	5190.9875
2844.68186	5174.4875
2847.20604	5176.8875
2849.72867	5171.2875
2852.24974	5167.0875
2854.76927	5148.2875
2857.28724	5138.8875
2859.80367	5134.6875
2862.31855	5128.8875
2864.83189	5135.9875
2867.34368	5144.0875
2869.85393	5121.7875
2872.36264	5117.3875
2874.8698	5103.2875
2877.37543	5104.1875
2879.87952	5109.6875
2882.38207	5081.7875
2884.88308	5087.5875
2887.38256	5098.8875
2889.88051	5094.1875
2892.37692	5079.7875
2894.8718	5078.2875
2897.36515	5085.3875
2899.85698	5074.1875
2902.34727	5075.3875
2904.83604	5074.7875
2907.32328	5086.2875
2909.809	5084.9875
2912.29319	5097.4875
2914.77587	5100.1875
2917.25702	5099.5875
2919.73665	5099.7875
2922.21476	5099.1875
2924.69136	5078.4875
2927.16644	5078.1875
2929.64	5048.0875
2932.11205	5053.2875
2934.58258	5008.5875
2937.05161	5037.2875
2939.51912	5057.5875
2941.98513	5037.7875
2944.44962	5019.2875
2946.91261	5009.2875
2949.37409	5005.5875
2951.83407	5012.6875
2954.29254	5010.3875
2956.74951	4997.8875
2959.20498	5006.3875
2961.65895	5011.7875
2964.11142	4998.2875
2966.56239	4993.2875
2969.01186	4975.8875
2971.45984	4977.0875
2973.90632	4977.2875
2976.35131	4941.2875
2978.7948	4967.0875
2981.23681	4952.0875
2983.67732	4941.6875
2986.11635	4918.3875
2988.55388	4921.6875
2990.98993	4886.5875
2993.4245	4885.9875
2995.85758	4862.2875
2998.28917	4862.2875
3000.71928	4846.4875
3003.14791	4822.5875
3005.57506	4831.9875
3008.00073	4807.3875
3010.42493	4799.8875
3012.84764	4800.0875
3015.26888	4782.5875
3017.68865	4791.0875
3020.10694	4762.5875
3022.52376	4756.2875
3024.9391	4745.3875
3027.35298	4713.7875
3029.76539	4706.8875
3032.17632	4701.7875
3034.5858	4700.6875
3036.9938	4697.5875
3039.40034	4690.5875
3041.80542	4662.5875
3044.20903	4662.9875
3046.61118	4651.1875
3049.01187	4637.6875
3051.4111	4627.1875
3053.80888	4621.3875
3056.20519	4599.0875
3058.60005	4586.4875
3060.99345	4585.8875
3063.3854	4578.1875
3065.7759	4564.7875
3068.16494	4543.4875
3070.55254	4532.6875
3072.93868	4530.1875
3075.32338	4510.8875
3077.70662	4501.9875
3080.08842	4493.1875
3082.46878	4497.2875
3084.84769	4468.0875
3087.22515	4469.7875
3089.60118	4470.1875
3091.97576	4463.4875
3094.3489	4437.3875
3096.72061	4450.9875
3099.09087	4443.5875
3101.4597	4447.2875
3103.82709	4456.4875
3106.19305	4432.1875
