Data from AgNPs_UA_5uM_CRN_500uM_SU_RamanShift__88__11-44-03-156.txt Node

Date: Thu Aug 04 11:44:03 BST 2022
User: TCL
Spectrometer: QEP01345
Trigger mode: 4
Integration Time (sec): 1.000000E0
Scans to average: 10
Electric dark correction enabled: true
Nonlinearity correction enabled: false
Boxcar width: 0
XAxis mode: Raman Shifts
Number of Pixels in Spectrum: 1044
>>>>>Begin Spectral Data<<<<<
46.04893	-0.0625
50.45542	0.2375
54.85868	0.5375
59.25871	-1.3625
63.6555	-62.5625
68.04907	-44.9625
72.43941	-76.9625
76.82654	-62.6625
81.21044	-63.3625
85.59113	-55.9625
89.96862	-82.7625
94.34289	-61.6625
98.71396	-86.4625
103.08183	-66.5625
107.4465	-57.8625
111.80798	-63.5625
116.16626	-54.6625
120.52136	-83.6625
124.87327	-62.2625
129.222	-75.3625
133.56755	-63.1625
137.90993	-77.2625
142.24913	-67.8625
146.58517	-64.3625
150.91804	-63.7625
155.24774	-59.8625
159.57429	-46.7625
163.89768	-54.7625
168.21792	-27.7625
172.53501	-36.2625
176.84895	8.7375
181.15975	78.9375
185.46741	141.2375
189.77193	211.9375
194.07331	357.8375
198.37157	482.5375
202.6667	608.4375
206.9587	752.6375
211.24758	886.1375
215.53334	1021.6375
219.81599	1167.8375
224.09553	1338.5375
228.37195	1505.2375
232.64527	1700.9375
236.91549	1899.6375
241.18261	2073.7375
245.44663	2246.4375
249.70755	2407.1375
253.96539	2529.4375
258.22014	2650.0375
262.4718	2754.6375
266.72039	2825.3375
270.96589	2838.5375
275.20832	2798.1375
279.44768	2776.5375
283.68397	2721.8375
287.91719	2685.6375
292.14735	2655.5375
296.37445	2674.7375
300.59849	2721.8375
304.81948	2763.7375
309.03742	2839.8375
313.25231	2889.5375
317.46415	2903.4375
321.67296	2810.5375
325.87872	2726.7375
330.08145	2713.3375
334.28114	2712.3375
338.47781	2736.1375
342.67145	2795.5375
346.86207	2861.4375
351.04966	2973.8375
355.23424	3070.8375
359.4158	3170.5375
363.59435	3161.0375
367.76989	3168.6375
371.94243	3156.7375
376.11196	3140.5375
380.27849	3162.9375
384.44203	3157.2375
388.60257	3166.6375
392.76012	3191.5375
396.91468	3255.4375
401.06626	3316.0375
405.21485	3307.7375
409.36047	3307.5375
413.50311	3277.0375
417.64277	3233.1375
421.77947	3201.6375
425.9132	3200.4375
430.04396	3210.2375
434.17176	3242.5375
438.2966	3281.3375
442.41849	3318.4375
446.53742	3349.7375
450.6534	3370.2375
454.76644	3424.3375
458.87653	3465.9375
462.98368	3443.6375
467.08789	3424.9375
471.18916	3444.8375
475.2875	3461.3375
479.38291	3444.1375
483.4754	3440.8375
487.56496	3452.3375
491.6516	3438.0375
495.73531	3465.6375
499.81612	3472.3375
503.89401	3520.4375
507.96899	3518.0375
512.04106	3554.6375
516.11023	3598.0375
520.1765	3600.8375
524.23987	3609.2375
528.30034	3642.4375
532.35792	3617.1375
536.41261	3630.8375
540.46441	3628.0375
544.51333	3625.2375
548.55936	3655.6375
552.60252	3687.1375
556.64279	3701.0375
560.6802	3771.0375
564.71473	3808.3375
568.7464	3866.7375
572.7752	3861.9375
576.80114	3796.1375
580.82422	3748.5375
584.84444	3728.9375
588.86181	3727.4375
592.87633	3764.7375
596.888	3788.5375
600.89682	3875.8375
604.9028	4076.2375
608.90594	4480.5375
612.90624	4965.0375
616.90371	4801.4375
620.89834	4208.3375
624.89015	3973.3375
628.87913	3956.7375
632.86528	3995.8375
636.84862	4054.8375
640.82913	4023.3375
644.80683	3954.0375
648.78172	3946.2375
652.75379	3970.3375
656.72306	4042.9375
660.68952	4093.0375
664.65319	4078.7375
668.61405	4042.0375
672.57211	4027.5375
676.52738	4077.2375
680.47986	4065.3375
684.42955	4054.6375
688.37646	4071.0375
692.32058	4071.5375
696.26192	4095.4375
700.20048	4121.0375
704.13626	4144.2375
708.06928	4129.9375
711.99952	4165.8375
715.927	4149.2375
719.85171	4177.1375
723.77365	4220.8375
727.69284	4190.9375
731.60928	4211.5375
735.52295	4198.7375
739.43388	4233.5375
743.34206	4239.5375
747.24749	4273.4375
751.15017	4283.8375
755.05012	4285.9375
758.94733	4390.5375
762.8418	4534.3375
766.73354	4791.5375
770.62254	4956.9375
774.50882	4919.3375
778.39237	4842.8375
782.27321	4712.2375
786.15132	4555.4375
790.02671	4467.7375
793.89938	4362.5375
797.76935	4368.1375
801.6366	4348.7375
805.50115	4355.7375
809.36299	4378.5375
813.22213	4373.1375
817.07857	4394.3375
820.93231	4397.2375
824.78336	4400.2375
828.63172	4427.4375
832.47738	4426.0375
836.32036	4468.6375
840.16066	4428.5375
843.99827	4445.3375
847.8332	4456.4375
851.66546	4466.0375
855.49504	4459.2375
859.32195	4493.6375
863.1462	4493.6375
866.96777	4505.8375
870.78668	4499.9375
874.60293	4532.9375
878.41652	4536.1375
882.22745	4584.8375
886.03573	4578.6375
889.84136	4562.8375
893.64433	4600.2375
897.44466	4592.4375
901.24235	4586.7375
905.0374	4618.0375
908.8298	4589.9375
912.61957	4583.0375
916.40671	4558.0375
920.19121	4563.2375
923.97308	4619.5375
927.75233	4602.9375
931.52895	4628.7375
935.30295	4652.5375
939.07433	4620.2375
942.84309	4575.9375
946.60924	4592.7375
950.37278	4576.1375
954.13371	4583.4375
957.89203	4569.0375
961.64774	4594.8375
965.40086	4573.4375
969.15137	4549.4375
972.89929	4581.2375
976.64461	4578.7375
980.38733	4604.6375
984.12747	4591.0375
987.86502	4586.8375
991.59999	4616.1375
995.33237	4647.1375
999.06217	4653.8375
1002.78939	4655.1375
1006.51404	4702.2375
1010.23611	4735.5375
1013.95561	4739.4375
1017.67255	4752.4375
1021.38692	4772.8375
1025.09872	4737.0375
1028.80796	4706.5375
1032.51465	4724.6375
1036.21877	4720.4375
1039.92035	4762.4375
1043.61937	4766.6375
1047.31584	4777.3375
1051.00976	4795.9375
1054.70114	4813.2375
1058.38998	4822.5375
1062.07627	4815.9375
1065.76003	4827.1375
1069.44126	4856.2375
1073.11995	4893.0375
1076.79611	4921.7375
1080.46974	4971.2375
1084.14085	5007.3375
1087.80943	5025.9375
1091.47549	5029.9375
1095.13903	5023.1375
1098.80005	5014.0375
1102.45857	4965.6375
1106.11456	4980.6375
1109.76805	4934.7375
1113.41903	4964.7375
1117.06751	4994.9375
1120.71348	5033.0375
1124.35696	5149.7375
1127.99793	5201.0375
1131.63641	5160.9375
1135.2724	5092.2375
1138.90589	5025.0375
1142.5369	4969.2375
1146.16542	4957.9375
1149.79145	4930.3375
1153.415	4907.9375
1157.03607	4899.0375
1160.65467	4920.2375
1164.27079	4960.4375
1167.88443	4983.8375
1171.49561	5096.3375
1175.10432	5206.7375
1178.71056	5364.1375
1182.31434	5538.7375
1185.91565	5565.9375
1189.51451	5501.4375
1193.11091	5456.7375
1196.70485	5407.5375
1200.29634	5365.5375
1203.88538	5318.3375
1207.47197	5219.5375
1211.05612	5176.5375
1214.63782	5114.0375
1218.21708	5109.4375
1221.79391	5067.1375
1225.36829	5031.1375
1228.94024	5033.8375
1232.50976	5069.1375
1236.07685	5077.6375
1239.6415	5084.5375
1243.20374	5092.2375
1246.76355	5107.0375
1250.32093	5137.5375
1253.8759	5168.0375
1257.42845	5214.5375
1260.97859	5252.9375
1264.52631	5335.3375
1268.07163	5337.7375
1271.61453	5369.2375
1275.15503	5356.4375
1278.69312	5353.0375
1282.22882	5368.8375
1285.76211	5414.2375
1289.29301	5410.4375
1292.82151	5479.8375
1296.34761	5506.2375
1299.87133	5553.6375
1303.39266	5690.0375
1306.9116	5900.3375
1310.42815	6160.1375
1313.94233	6286.6375
1317.45412	6132.7375
1320.96354	5911.7375
1324.47058	5709.2375
1327.97525	5541.1375
1331.47754	5456.0375
1334.97747	5410.9375
1338.47502	5418.0375
1341.97022	5493.9375
1345.46305	5645.8375
1348.95352	5821.1375
1352.44163	6029.9375
1355.92738	6199.6375
1359.41078	6482.3375
1362.89183	6798.3375
1366.37053	6686.4375
1369.84688	6183.3375
1373.32088	5714.3375
1376.79254	5495.9375
1380.26186	5340.1375
1383.72883	5254.0375
1387.19347	5140.2375
1390.65578	5067.4375
1394.11575	5008.6375
1397.57339	4983.9375
1401.0287	4966.7375
1404.48168	4968.3375
1407.93234	4971.6375
1411.38068	4962.0375
1414.82669	4990.6375
1418.27039	5014.2375
1421.71177	5039.9375
1425.15083	4994.4375
1428.58758	4975.0375
1432.02203	4986.4375
1435.45416	5006.6375
1438.88399	4989.6375
1442.31151	4960.7375
1445.73673	4944.7375
1449.15965	4948.1375
1452.58027	4939.4375
1455.9986	4926.4375
1459.41463	4950.5375
1462.82837	4967.2375
1466.23982	4999.6375
1469.64898	5014.3375
1473.05586	5032.0375
1476.46045	5057.4375
1479.86276	5079.5375
1483.26279	5112.1375
1486.66054	5154.4375
1490.05602	5205.9375
1493.44922	5316.7375
1496.84016	5458.8375
1500.22882	5725.6375
1503.61521	5998.7375
1506.99934	6336.4375
1510.38121	6657.8375
1513.76081	6764.3375
1517.13816	6519.7375
1520.51324	6115.2375
1523.88607	5732.7375
1527.25665	5514.2375
1530.62498	5358.7375
1533.99105	5312.5375
1537.35488	5269.8375
1540.71647	5272.1375
1544.07581	5263.5375
1547.4329	5243.5375
1550.78776	5269.3375
1554.14038	5246.6375
1557.49077	5280.7375
1560.83892	5331.5375
1564.18484	5415.6375
1567.52853	5467.9375
1570.86999	5518.3375
1574.20922	5539.2375
1577.54624	5511.9375
1580.88103	5435.5375
1584.2136	5285.4375
1587.54395	5251.6375
1590.87208	5259.1375
1594.19801	5242.1375
1597.52172	5328.3375
1600.84321	5363.5375
1604.16251	5312.9375
1607.47959	5248.8375
1610.79447	5213.7375
1614.10715	5171.9375
1617.41763	5132.7375
1620.7259	5081.4375
1624.03199	5069.4375
1627.33587	5063.8375
1630.63757	5045.2375
1633.93707	5097.3375
1637.23439	5184.6375
1640.52951	5329.5375
1643.82246	5523.2375
1647.11321	5785.8375
1650.40179	5945.9375
1653.68819	5870.3375
1656.97241	5636.8375
1660.25446	5337.6375
1663.53433	5124.5375
1666.81203	4999.5375
1670.08756	4962.6375
1673.36092	4945.0375
1676.63211	4908.7375
1679.90115	4883.4375
1683.16801	4867.5375
1686.43272	4831.5375
1689.69527	4830.1375
1692.95567	4818.8375
1696.2139	4811.0375
1699.46999	4785.8375
1702.72392	4785.3375
1705.97571	4819.3375
1709.22535	4804.4375
1712.47284	4842.0375
1715.71819	4865.6375
1718.96139	4867.2375
1722.20246	4869.1375
1725.44139	4847.7375
1728.67818	4863.6375
1731.91284	4834.9375
1735.14537	4810.8375
1738.37576	4816.8375
1741.60403	4810.7375
1744.83017	4808.3375
1748.05418	4815.1375
1751.27607	4823.9375
1754.49584	4796.1375
1757.71349	4768.2375
1760.92903	4777.5375
1764.14244	4741.4375
1767.35375	4759.8375
1770.56294	4750.8375
1773.77002	4752.6375
1776.97499	4780.9375
1780.17785	4772.4375
1783.37861	4776.6375
1786.57727	4772.5375
1789.77382	4729.5375
1792.96828	4774.1375
1796.16064	4770.6375
1799.3509	4763.7375
1802.53907	4782.3375
1805.72514	4747.8375
1808.90913	4717.3375
1812.09102	4740.0375
1815.27083	4736.1375
1818.44856	4734.9375
1821.6242	4732.3375
1824.79776	4721.2375
1827.96924	4699.6375
1831.13864	4697.6375
1834.30597	4710.8375
1837.47122	4686.7375
1840.6344	4680.8375
1843.7955	4676.2375
1846.95454	4681.8375
1850.11151	4712.9375
1853.26642	4676.2375
1856.41926	4691.1375
1859.57004	4672.2375
1862.71876	4679.6375
1865.86542	4683.2375
1869.01003	4696.2375
1872.15258	4659.0375
1875.29308	4671.2375
1878.43152	4678.6375
1881.56792	4668.0375
1884.70227	4644.5375
1887.83457	4656.6375
1890.96482	4633.2375
1894.09304	4629.7375
1897.21921	4632.6375
1900.34335	4629.8375
1903.46544	4618.4375
1906.58551	4629.7375
1909.70353	4612.4375
1912.81953	4622.5375
1915.93349	4587.5375
1919.04543	4602.4375
1922.15534	4598.5375
1925.26322	4606.9375
1928.36908	4590.2375
1931.47292	4563.3375
1934.57473	4593.2375
1937.67453	4581.1375
1940.77232	4564.0375
1943.86808	4540.3375
1946.96184	4541.6375
1950.05358	4533.3375
1953.14331	4496.3375
1956.23103	4513.3375
1959.31675	4498.1375
1962.40046	4437.0375
1965.48217	4447.0375
1968.56188	4454.5375
1971.63959	4441.4375
1974.7153	4440.0375
1977.78901	4427.7375
1980.86073	4399.1375
1983.93046	4387.3375
1986.99819	4312.4375
1990.06394	4347.0375
1993.1277	4355.1375
1996.18947	4346.1375
1999.24925	4322.8375
2002.30706	4329.7375
2005.36288	4327.5375
2008.41672	4301.9375
2011.46859	4285.8375
2014.51848	4280.5375
2017.56639	4255.5375
2020.61233	4246.7375
2023.6563	4233.3375
2026.6983	4216.7375
2029.73833	4210.6375
2032.7764	4225.8375
2035.8125	4178.9375
2038.84664	4193.5375
2041.87881	4179.5375
2044.90903	4166.7375
2047.93729	4175.0375
2050.96359	4157.2375
2053.98794	4158.7375
2057.01034	4167.7375
2060.03078	4129.5375
2063.04927	4151.6375
2066.06582	4164.2375
2069.08042	4143.6375
2072.09307	4163.4375
2075.10378	4160.2375
2078.11255	4139.2375
2081.11938	4157.9375
2084.12426	4139.8375
2087.12722	4141.1375
2090.12824	4129.3375
2093.12732	4154.5375
2096.12447	4151.9375
2099.11969	4143.7375
2102.11299	4139.3375
2105.10435	4156.5375
2108.09379	4157.5375
2111.08131	4138.2375
2114.0669	4151.8375
2117.05057	4139.7375
2120.03233	4132.4375
2123.01216	4169.2375
2125.99008	4167.1375
2128.96609	4150.4375
2131.94018	4178.4375
2134.91236	4167.9375
2137.88263	4167.0375
2140.851	4175.1375
2143.81746	4204.4375
2146.78201	4196.3375
2149.74466	4175.6375
2152.7054	4192.2375
2155.66425	4188.3375
2158.6212	4172.1375
2161.57625	4173.0375
2164.52941	4129.2375
2167.48067	4161.2375
2170.43004	4147.3375
2173.37752	4183.7375
2176.32311	4163.0375
2179.26681	4181.7375
2182.20863	4178.7375
2185.14856	4164.2375
2188.08661	4170.4375
2191.02278	4179.8375
2193.95707	4165.3375
2196.88948	4152.3375
2199.82001	4166.7375
2202.74867	4157.5375
2205.67545	4157.1375
2208.60037	4178.7375
2211.52341	4170.8375
2214.44458	4137.5375
2217.36388	4135.2375
2220.28132	4124.6375
2223.1969	4094.3375
2226.11061	4107.5375
2229.02246	4092.2375
2231.93245	4093.9375
2234.84058	4084.1375
2237.74686	4077.9375
2240.65128	4076.1375
2243.55385	4071.8375
2246.45456	4057.3375
2249.35343	4069.8375
2252.25044	4062.6375
2255.14561	4061.2375
2258.03893	4050.1375
2260.93041	4025.3375
2263.82004	4026.1375
2266.70783	4045.8375
2269.59378	3998.9375
2272.4779	3983.8375
2275.36017	3999.2375
2278.24061	3985.5375
2281.11922	3939.7375
2283.996	3954.3375
2286.87094	3940.4375
2289.74405	3943.6375
2292.61534	3947.2375
2295.4848	3947.6375
2298.35243	3942.4375
2301.21824	3931.9375
2304.08223	3926.9375
2306.94439	3946.0375
2309.80474	3934.9375
2312.66327	3928.5375
2315.51999	3928.5375
2318.37489	3914.8375
2321.22797	3889.9375
2324.07925	3887.3375
2326.92871	3888.6375
2329.77637	3884.3375
2332.62222	3880.1375
2335.46626	3854.2375
2338.3085	3850.3375
2341.14893	3851.4375
2343.98756	3860.4375
2346.8244	3840.4375
2349.65943	3816.1375
2352.49267	3831.6375
2355.32411	3828.9375
2358.15376	3832.8375
2360.98161	3821.9375
2363.80768	3797.7375
2366.63195	3810.9375
2369.45444	3815.3375
2372.27514	3802.3375
2375.09405	3809.4375
2377.91118	3780.2375
2380.72652	3770.5375
2383.54009	3786.4375
2386.35187	3797.2375
2389.16188	3773.4375
2391.97011	3754.5375
2394.77657	3745.8375
2397.58125	3751.0375
2400.38416	3741.3375
2403.18529	3735.9375
2405.98466	3724.3375
2408.78226	3725.4375
2411.57809	3726.0375
2414.37216	3711.5375
2417.16446	3708.4375
2419.955	3686.3375
2422.74378	3723.9375
2425.5308	3691.9375
2428.31606	3689.3375
2431.09956	3687.9375
2433.88131	3673.3375
2436.6613	3679.3375
2439.43954	3681.2375
2442.21603	3658.0375
2444.99077	3642.3375
2447.76377	3668.1375
2450.53501	3644.9375
2453.30451	3633.1375
2456.07226	3645.1375
2458.83827	3635.1375
2461.60254	3602.8375
2464.36507	3619.9375
2467.12586	3594.6375
2469.88492	3606.9375
2472.64224	3609.2375
2475.39782	3587.8375
2478.15167	3593.4375
2480.90379	3586.1375
2483.65417	3596.0375
2486.40283	3598.1375
2489.14976	3601.2375
2491.89497	3567.3375
2494.63845	3579.9375
2497.3802	3561.6375
2500.12024	3555.8375
2502.85855	3554.9375
2505.59514	3557.3375
2508.33002	3554.4375
2511.06318	3529.3375
2513.79462	3537.6375
2516.52435	3512.0375
2519.25237	3483.9375
2521.97867	3514.9375
2524.70327	3521.7375
2527.42616	3513.4375
2530.14734	3524.5375
2532.86681	3487.9375
2535.58458	3498.0375
2538.30065	3486.9375
2541.01501	3496.2375
2543.72768	3476.0375
2546.43864	3477.6375
2549.14791	3454.5375
2551.85548	3434.8375
2554.56136	3444.9375
2557.26554	3437.8375
2559.96803	3433.6375
2562.66883	3426.1375
2565.36794	3421.3375
2568.06536	3375.2375
2570.7611	3409.3375
2573.45514	3402.7375
2576.14751	3393.6375
2578.83819	3380.2375
2581.52719	3362.8375
2584.21451	3376.7375
2586.90015	3361.5375
2589.58411	3335.7375
2592.2664	3347.6375
2594.94701	3352.6375
2597.62594	3330.7375
2600.30321	3279.1375
2602.9788	3309.4375
2605.65273	3299.2375
2608.32498	3287.5375
2610.99557	3304.8375
2613.66449	3273.2375
2616.33175	3287.9375
2618.99734	3283.9375
2621.66128	3276.9375
2624.32355	3269.8375
2626.98416	3248.1375
2629.64311	3252.9375
2632.30041	3242.2375
2634.95605	3228.6375
2637.61004	3221.4375
2640.26238	3206.6375
2642.91306	3217.0375
2645.56209	3227.3375
2648.20948	3219.8375
2650.85521	3199.6375
2653.4993	3215.7375
2656.14175	3205.4375
2658.78255	3190.7375
2661.42171	3157.9375
2664.05923	3211.5375
2666.6951	3201.6375
2669.32934	3198.6375
2671.96194	3206.2375
2674.59291	3194.6375
2677.22224	3199.5375
2679.84993	3187.6375
2682.476	3184.9375
2685.10043	3179.3375
2687.72324	3177.2375
2690.34441	3176.3375
2692.96396	3165.6375
2695.58188	3181.7375
2698.19818	3181.0375
2700.81285	3174.1375
2703.4259	3157.4375
2706.03733	3136.1375
2708.64714	3125.9375
2711.25533	3162.7375
2713.86191	3152.1375
2716.46687	3167.1375
2719.07021	3147.5375
2721.67194	3153.6375
2724.27206	3169.4375
2726.87057	3157.1375
2729.46747	3145.8375
2732.06276	3160.0375
2734.65644	3126.5375
2737.24852	3150.7375
2739.83899	3106.1375
2742.42786	3132.5375
2745.01513	3142.3375
2747.60079	3128.0375
2750.18486	3113.2375
2752.76733	3108.5375
2755.3482	3097.7375
2757.92747	3096.3375
2760.50515	3089.6375
2763.08123	3078.5375
2765.65573	3087.8375
2768.22863	3075.2375
2770.79994	3060.6375
2773.36967	3068.6375
2775.9378	3048.3375
2778.50435	3056.0375
2781.06932	3045.6375
2783.6327	3033.2375
2786.1945	3045.0375
2788.75471	3028.0375
2791.31335	3016.0375
2793.87041	3024.3375
2796.42589	2990.6375
2798.97979	2975.8375
2801.53212	2979.5375
2804.08288	3001.4375
2806.63206	2969.5375
2809.17967	2973.3375
2811.72571	2967.7375
2814.27018	2961.2375
2816.81308	2946.9375
2819.35442	2909.2375
2821.89419	2926.0375
2824.43239	2903.6375
2826.96904	2938.9375
2829.50412	2921.4375
2832.03763	2910.8375
2834.56959	2910.5375
2837.1	2904.4375
2839.62884	2907.7375
2842.15613	2908.4375
2844.68186	2914.6375
2847.20604	2874.4375
2849.72867	2877.3375
2852.24974	2876.8375
2854.76927	2853.0375
2857.28724	2795.6375
2859.80367	2864.3375
2862.31855	2854.8375
2864.83189	2852.6375
2867.34368	2855.1375
2869.85393	2846.8375
2872.36264	2815.4375
2874.8698	2817.9375
2877.37543	2830.8375
2879.87952	2830.6375
2882.38207	2800.4375
2884.88308	2828.6375
2887.38256	2814.0375
2889.88051	2828.8375
2892.37692	2812.0375
2894.8718	2801.9375
2897.36515	2817.7375
2899.85698	2810.8375
2902.34727	2803.5375
2904.83604	2797.5375
2907.32328	2812.7375
2909.809	2787.0375
2912.29319	2793.2375
2914.77587	2787.0375
2917.25702	2804.3375
2919.73665	2808.1375
2922.21476	2807.0375
2924.69136	2813.0375
2927.16644	2794.0375
2929.64	2805.7375
2932.11205	2785.6375
2934.58258	2786.0375
2937.05161	2766.5375
2939.51912	2781.6375
2941.98513	2794.4375
2944.44962	2784.0375
2946.91261	2748.8375
2949.37409	2763.4375
2951.83407	2765.3375
2954.29254	2757.6375
2956.74951	2773.4375
2959.20498	2751.5375
2961.65895	2756.3375
2964.11142	2749.6375
2966.56239	2754.1375
2969.01186	2761.1375
2971.45984	2752.1375
2973.90632	2745.6375
2976.35131	2752.4375
2978.7948	2758.9375
2981.23681	2733.8375
2983.67732	2739.8375
2986.11635	2735.8375
2988.55388	2711.7375
2990.98993	2713.8375
2993.4245	2697.7375
2995.85758	2694.0375
2998.28917	2696.0375
3000.71928	2684.8375
3003.14791	2670.7375
3005.57506	2659.5375
3008.00073	2661.2375
3010.42493	2594.8375
3012.84764	2667.5375
3015.26888	2675.1375
3017.68865	2656.2375
3020.10694	2619.7375
3022.52376	2626.0375
3024.9391	2626.8375
3027.35298	2618.6375
3029.76539	2599.9375
3032.17632	2623.9375
3034.5858	2614.6375
3036.9938	2614.1375
3039.40034	2603.4375
3041.80542	2602.0375
3044.20903	2586.8375
3046.61118	2582.0375
3049.01187	2605.6375
3051.4111	2584.0375
3053.80888	2569.7375
3056.20519	2562.8375
3058.60005	2542.9375
3060.99345	2573.4375
3063.3854	2555.7375
3065.7759	2534.4375
3068.16494	2521.2375
3070.55254	2507.6375
3072.93868	2530.4375
3075.32338	2519.2375
3077.70662	2515.2375
3080.08842	2505.2375
3082.46878	2498.2375
3084.84769	2517.2375
3087.22515	2494.9375
3089.60118	2505.1375
3091.97576	2506.6375
3094.3489	2507.3375
3096.72061	2492.2375
3099.09087	2485.3375
3101.4597	2492.8375
3103.82709	2494.5375
3106.19305	2479.3375
3108.55757	2492.0375
3110.92066	2468.1375
3113.28232	2493.6375
3115.64255	2490.8375
3118.00134	2488.9375
3120.35871	2460.9375
3122.71466	2444.8375
3125.06917	2450.5375
3127.42226	2438.4375
