Data from AgNPs_UA_20uM_CRN_500uM_SU_RamanShift__49__13-44-40-300.txt Node

Date: Thu Aug 04 13:44:40 BST 2022
User: TCL
Spectrometer: QEP01345
Trigger mode: 4
Integration Time (sec): 1.000000E0
Scans to average: 10
Electric dark correction enabled: true
Nonlinearity correction enabled: false
Boxcar width: 0
XAxis mode: Raman Shifts
Number of Pixels in Spectrum: 1044
>>>>>Begin Spectral Data<<<<<
46.04893	-1.825
50.45542	0.375
54.85868	0.575
59.25871	-0.325
63.6555	18.075
68.04907	14.575
72.43941	20.475
76.82654	18.075
81.21044	19.975
85.59113	21.475
89.96862	21.475
94.34289	22.075
98.71396	23.775
103.08183	24.975
107.4465	23.175
111.80798	25.775
116.16626	29.375
120.52136	29.075
124.87327	27.875
129.222	32.075
133.56755	32.975
137.90993	35.775
142.24913	37.775
146.58517	45.675
150.91804	53.175
155.24774	62.075
159.57429	82.675
163.89768	104.675
168.21792	136.375
172.53501	195.475
176.84895	269.075
181.15975	379.475
185.46741	536.575
189.77193	749.875
194.07331	1008.475
198.37157	1294.875
202.6667	1604.375
206.9587	1916.675
211.24758	2217.275
215.53334	2534.075
219.81599	2856.375
224.09553	3221.875
228.37195	3619.075
232.64527	4061.075
236.91549	4510.275
241.18261	4912.875
245.44663	5242.175
249.70755	5530.775
253.96539	5769.375
258.22014	6001.775
262.4718	6172.275
266.72039	6313.975
270.96589	6371.775
275.20832	6349.975
279.44768	6254.675
283.68397	6155.675
287.91719	6082.075
292.14735	6070.275
296.37445	6147.075
300.59849	6300.575
304.81948	6494.575
309.03742	6665.175
313.25231	6740.875
317.46415	6660.775
321.67296	6446.875
325.87872	6225.475
330.08145	6127.975
334.28114	6128.075
338.47781	6199.975
342.67145	6341.375
346.86207	6499.575
351.04966	6718.075
355.23424	6978.175
359.4158	7144.975
363.59435	7237.775
367.76989	7327.075
371.94243	7336.575
376.11196	7347.675
380.27849	7363.775
384.44203	7371.675
388.60257	7410.275
392.76012	7477.675
396.91468	7561.875
401.06626	7684.875
405.21485	7733.875
409.36047	7632.275
413.50311	7427.675
417.64277	7224.575
421.77947	7109.475
425.9132	7059.075
430.04396	7048.975
434.17176	7092.075
438.2966	7194.175
442.41849	7362.475
446.53742	7549.775
450.6534	7728.375
454.76644	7846.875
458.87653	7866.075
462.98368	7845.175
467.08789	7752.275
471.18916	7615.375
475.2875	7462.575
479.38291	7309.875
483.4754	7229.575
487.56496	7179.275
491.6516	7130.075
495.73531	7107.975
499.81612	7121.275
503.89401	7173.975
507.96899	7219.075
512.04106	7257.975
516.11023	7326.375
520.1765	7361.675
524.23987	7386.875
528.30034	7351.475
532.35792	7335.075
536.41261	7270.275
540.46441	7180.575
544.51333	7161.575
548.55936	7189.975
552.60252	7314.975
556.64279	7422.875
560.6802	7500.375
564.71473	7559.775
568.7464	7626.275
572.7752	7623.175
576.80114	7471.075
580.82422	7349.075
584.84444	7331.575
588.86181	7402.075
592.87633	7498.875
596.888	7667.775
600.89682	7973.975
604.9028	8805.675
608.90594	10483.275
612.90624	12092.275
616.90371	11120.975
620.89834	8869.675
624.89015	7987.375
628.87913	7944.875
632.86528	7971.575
636.84862	7947.275
640.82913	7716.875
644.80683	7459.075
648.78172	7302.875
652.75379	7336.675
656.72306	7571.675
660.68952	7779.675
664.65319	7761.675
668.61405	7661.075
672.57211	7674.975
676.52738	7664.575
680.47986	7529.675
684.42955	7401.475
688.37646	7379.575
692.32058	7474.975
696.26192	7575.575
700.20048	7724.775
704.13626	7736.775
708.06928	7640.875
711.99952	7566.375
715.927	7563.575
719.85171	7600.875
723.77365	7604.275
727.69284	7548.475
731.60928	7491.075
735.52295	7492.475
739.43388	7528.275
743.34206	7557.375
747.24749	7605.575
751.15017	7610.875
755.05012	7694.175
758.94733	7940.875
762.8418	8516.175
766.73354	9412.275
770.62254	10154.975
774.50882	10348.375
778.39237	9981.175
782.27321	9272.075
786.15132	8509.575
790.02671	8008.875
793.89938	7779.275
797.76935	7673.475
801.6366	7603.775
805.50115	7564.975
809.36299	7542.075
813.22213	7510.175
817.07857	7528.475
820.93231	7511.075
824.78336	7520.175
828.63172	7542.275
832.47738	7569.275
836.32036	7565.675
840.16066	7554.975
843.99827	7587.075
847.8332	7581.775
851.66546	7559.975
855.49504	7579.775
859.32195	7571.775
863.1462	7583.775
866.96777	7544.075
870.78668	7521.775
874.60293	7559.875
878.41652	7596.075
882.22745	7632.575
886.03573	7674.375
889.84136	7652.475
893.64433	7623.575
897.44466	7603.175
901.24235	7588.375
905.0374	7586.675
908.8298	7556.575
912.61957	7527.075
916.40671	7554.575
920.19121	7599.375
923.97308	7673.675
927.75233	7771.175
931.52895	7803.675
935.30295	7769.975
939.07433	7629.875
942.84309	7525.775
946.60924	7496.475
950.37278	7473.775
954.13371	7448.275
957.89203	7422.675
961.64774	7414.775
965.40086	7403.175
969.15137	7381.375
972.89929	7385.975
976.64461	7385.375
980.38733	7402.775
984.12747	7426.275
987.86502	7468.975
991.59999	7549.975
995.33237	7650.575
999.06217	7850.275
1002.78939	8031.075
1006.51404	8126.775
1010.23611	8191.775
1013.95561	8308.775
1017.67255	8337.375
1021.38692	8352.475
1025.09872	8322.175
1028.80796	8358.175
1032.51465	8517.875
1036.21877	8596.675
1039.92035	8598.475
1043.61937	8506.375
1047.31584	8388.675
1051.00976	8263.975
1054.70114	8194.775
1058.38998	8204.775
1062.07627	8235.475
1065.76003	8262.575
1069.44126	8332.175
1073.11995	8433.675
1076.79611	8549.975
1080.46974	8641.475
1084.14085	8748.575
1087.80943	8818.375
1091.47549	8855.975
1095.13903	8785.175
1098.80005	8717.675
1102.45857	8674.775
1106.11456	8655.175
1109.76805	8608.975
1113.41903	8650.275
1117.06751	8751.475
1120.71348	8901.875
1124.35696	9055.975
1127.99793	9166.675
1131.63641	9020.275
1135.2724	8792.875
1138.90589	8587.975
1142.5369	8454.175
1146.16542	8388.175
1149.79145	8309.975
1153.415	8261.975
1157.03607	8285.875
1160.65467	8360.675
1164.27079	8535.175
1167.88443	8796.875
1171.49561	9216.675
1175.10432	9822.475
1178.71056	10669.275
1182.31434	11387.875
1185.91565	11708.075
1189.51451	11665.475
1193.11091	11371.575
1196.70485	10953.775
1200.29634	10587.075
1203.88538	10240.975
1207.47197	9820.475
1211.05612	9464.575
1214.63782	9204.075
1218.21708	9078.275
1221.79391	9018.875
1225.36829	9074.175
1228.94024	9048.975
1232.50976	8999.375
1236.07685	8932.975
1239.6415	8955.875
1243.20374	8993.175
1246.76355	9058.775
1250.32093	9165.775
1253.8759	9345.075
1257.42845	9599.075
1260.97859	9863.475
1264.52631	10109.175
1268.07163	10267.675
1271.61453	10410.575
1275.15503	10535.575
1278.69312	10647.575
1282.22882	10756.575
1285.76211	10874.575
1289.29301	11018.875
1292.82151	11209.175
1296.34761	11420.575
1299.87133	11846.475
1303.39266	12510.775
1306.9116	13467.475
1310.42815	14438.575
1313.94233	14826.775
1317.45412	14425.575
1320.96354	13660.975
1324.47058	12887.675
1327.97525	12206.675
1331.47754	11897.475
1334.97747	11836.475
1338.47502	12031.475
1341.97022	12448.575
1345.46305	12977.775
1348.95352	13666.375
1352.44163	14422.675
1355.92738	15308.175
1359.41078	16398.475
1362.89183	17120.675
1366.37053	16289.075
1369.84688	14238.775
1373.32088	12388.275
1376.79254	11313.375
1380.26186	10781.675
1383.72883	10501.775
1387.19347	10235.575
1390.65578	9941.875
1394.11575	9666.275
1397.57339	9513.075
1401.0287	9498.575
1404.48168	9480.275
1407.93234	9578.375
1411.38068	9723.675
1414.82669	9882.275
1418.27039	9909.175
1421.71177	9830.975
1425.15083	9754.675
1428.58758	9752.175
1432.02203	9842.375
1435.45416	9939.475
1438.88399	9952.175
1442.31151	9913.675
1445.73673	9833.975
1449.15965	9831.775
1452.58027	9743.375
1455.9986	9658.075
1459.41463	9631.375
1462.82837	9724.875
1466.23982	9878.575
1469.64898	10036.175
1473.05586	10212.375
1476.46045	10305.475
1479.86276	10440.975
1483.26279	10547.575
1486.66054	10721.175
1490.05602	11006.475
1493.44922	11421.175
1496.84016	12005.275
1500.22882	12867.075
1503.61521	13972.475
1506.99934	14942.875
1510.38121	15479.875
1513.76081	15217.575
1517.13816	14170.875
1520.51324	12894.575
1523.88607	11885.875
1527.25665	11258.275
1530.62498	10919.775
1533.99105	10746.375
1537.35488	10644.475
1540.71647	10583.975
1544.07581	10494.975
1547.4329	10338.575
1550.78776	10251.175
1554.14038	10167.275
1557.49077	10156.075
1560.83892	10220.575
1564.18484	10404.375
1567.52853	10589.075
1570.86999	10703.775
1574.20922	10713.575
1577.54624	10545.575
1580.88103	10167.675
1584.2136	9821.675
1587.54395	9703.775
1590.87208	9884.975
1594.19801	10380.275
1597.52172	11019.175
1600.84321	11310.075
1604.16251	11209.775
1607.47959	10825.275
1610.79447	10283.775
1614.10715	9675.475
1617.41763	9144.075
1620.7259	8793.575
1624.03199	8619.775
1627.33587	8602.875
1630.63757	8776.775
1633.93707	9150.575
1637.23439	9752.875
1640.52951	10597.275
1643.82246	11582.675
1647.11321	12436.775
1650.40179	12591.875
1653.68819	11844.375
1656.97241	10515.475
1660.25446	9290.175
1663.53433	8445.675
1666.81203	7995.275
1670.08756	7682.875
1673.36092	7523.775
1676.63211	7406.675
1679.90115	7317.675
1683.16801	7239.175
1686.43272	7164.075
1689.69527	7164.275
1692.95567	7137.175
1696.2139	7100.475
1699.46999	7081.075
1702.72392	7067.075
1705.97571	7096.175
1709.22535	7083.875
1712.47284	7077.275
1715.71819	7054.575
1718.96139	7056.775
1722.20246	7034.675
1725.44139	7025.975
1728.67818	6982.175
1731.91284	6942.075
1735.14537	6909.675
1738.37576	6898.975
1741.60403	6847.175
1744.83017	6850.475
1748.05418	6844.575
1751.27607	6829.075
1754.49584	6783.275
1757.71349	6784.075
1760.92903	6775.275
1764.14244	6755.775
1767.35375	6745.275
1770.56294	6752.875
1773.77002	6760.475
1776.97499	6718.375
1780.17785	6715.075
1783.37861	6701.475
1786.57727	6684.875
1789.77382	6676.275
1792.96828	6655.375
1796.16064	6640.975
1799.3509	6639.275
1802.53907	6635.475
1805.72514	6624.575
1808.90913	6613.875
1812.09102	6595.575
1815.27083	6585.475
1818.44856	6561.375
1821.6242	6542.275
1824.79776	6549.675
1827.96924	6557.075
1831.13864	6527.375
1834.30597	6533.075
1837.47122	6502.375
1840.6344	6477.975
1843.7955	6488.275
1846.95454	6481.375
1850.11151	6488.075
1853.26642	6477.075
1856.41926	6468.975
1859.57004	6459.475
1862.71876	6466.975
1865.86542	6440.575
1869.01003	6447.675
1872.15258	6435.275
1875.29308	6433.775
1878.43152	6417.475
1881.56792	6421.175
1884.70227	6404.275
1887.83457	6399.175
1890.96482	6411.175
1894.09304	6389.775
1897.21921	6369.875
1900.34335	6357.075
1903.46544	6357.175
1906.58551	6370.275
1909.70353	6371.875
1912.81953	6336.075
1915.93349	6343.575
1919.04543	6325.275
1922.15534	6314.975
1925.26322	6301.975
1928.36908	6284.075
1931.47292	6292.175
1934.57473	6267.175
1937.67453	6258.075
1940.77232	6252.775
1943.86808	6225.975
1946.96184	6215.175
1950.05358	6195.175
1953.14331	6178.475
1956.23103	6170.275
1959.31675	6130.775
1962.40046	6108.375
1965.48217	6097.675
1968.56188	6077.875
1971.63959	6062.875
1974.7153	6044.975
1977.78901	6026.975
1980.86073	6002.775
1983.93046	5987.575
1986.99819	5976.675
1990.06394	5965.575
1993.1277	5924.775
1996.18947	5924.875
1999.24925	5904.475
2002.30706	5876.275
2005.36288	5858.575
2008.41672	5828.275
2011.46859	5819.175
2014.51848	5806.975
2017.56639	5795.075
2020.61233	5776.075
2023.6563	5769.075
2026.6983	5743.475
2029.73833	5734.275
2032.7764	5710.375
2035.8125	5716.375
2038.84664	5712.175
2041.87881	5686.575
2044.90903	5671.375
2047.93729	5660.975
2050.96359	5662.575
2053.98794	5655.575
2057.01034	5650.075
2060.03078	5630.375
2063.04927	5616.875
2066.06582	5628.275
2069.08042	5620.075
2072.09307	5612.375
2075.10378	5600.375
2078.11255	5602.175
2081.11938	5599.875
2084.12426	5585.675
2087.12722	5575.475
2090.12824	5589.875
2093.12732	5582.475
2096.12447	5603.675
2099.11969	5590.175
2102.11299	5589.275
2105.10435	5602.175
2108.09379	5590.575
2111.08131	5583.875
2114.0669	5582.575
2117.05057	5574.875
2120.03233	5586.075
2123.01216	5581.575
2125.99008	5585.875
2128.96609	5610.975
2131.94018	5613.875
2134.91236	5617.575
2137.88263	5598.275
2140.851	5608.175
2143.81746	5607.375
2146.78201	5595.375
2149.74466	5593.275
2152.7054	5586.975
2155.66425	5596.675
2158.6212	5594.275
2161.57625	5590.975
2164.52941	5583.375
2167.48067	5582.875
2170.43004	5576.075
2173.37752	5562.975
2176.32311	5599.875
2179.26681	5589.675
2182.20863	5573.875
2185.14856	5586.475
2188.08661	5568.475
2191.02278	5567.575
2193.95707	5573.575
2196.88948	5576.975
2199.82001	5539.575
2202.74867	5568.275
2205.67545	5578.375
2208.60037	5556.775
2211.52341	5549.675
2214.44458	5547.675
2217.36388	5516.275
2220.28132	5514.475
2223.1969	5469.475
2226.11061	5492.475
2229.02246	5477.375
2231.93245	5453.675
2234.84058	5431.475
2237.74686	5431.175
2240.65128	5424.875
2243.55385	5455.175
2246.45456	5433.075
2249.35343	5412.075
2252.25044	5403.475
2255.14561	5424.675
2258.03893	5393.575
2260.93041	5384.575
2263.82004	5391.275
2266.70783	5370.775
2269.59378	5357.975
2272.4779	5328.975
2275.36017	5318.075
2278.24061	5284.375
2281.11922	5292.875
2283.996	5270.675
2286.87094	5262.275
2289.74405	5249.075
2292.61534	5255.775
2295.4848	5243.375
2298.35243	5258.375
2301.21824	5248.475
2304.08223	5243.875
2306.94439	5243.375
2309.80474	5240.075
2312.66327	5244.175
2315.51999	5232.975
2318.37489	5218.075
2321.22797	5224.375
2324.07925	5222.475
2326.92871	5211.275
2329.77637	5214.875
2332.62222	5208.875
2335.46626	5185.675
2338.3085	5170.475
2341.14893	5186.175
2343.98756	5190.675
2346.8244	5176.475
2349.65943	5166.975
2352.49267	5183.275
2355.32411	5167.075
2358.15376	5169.875
2360.98161	5169.075
2363.80768	5170.375
2366.63195	5145.675
2369.45444	5138.075
2372.27514	5139.575
2375.09405	5123.375
2377.91118	5141.975
2380.72652	5111.775
2383.54009	5099.075
2386.35187	5091.775
2389.16188	5079.675
2391.97011	5060.875
2394.77657	5064.175
2397.58125	5036.875
2400.38416	5031.475
2403.18529	5021.175
2405.98466	5022.375
2408.78226	5015.475
2411.57809	5015.575
2414.37216	4997.075
2417.16446	4989.175
2419.955	4980.975
2422.74378	4958.275
2425.5308	4959.875
2428.31606	4942.175
2431.09956	4951.775
2433.88131	4940.275
2436.6613	4949.475
2439.43954	4935.775
2442.21603	4948.175
2444.99077	4947.075
2447.76377	4941.675
2450.53501	4920.975
2453.30451	4931.875
2456.07226	4903.675
2458.83827	4897.475
2461.60254	4896.375
2464.36507	4876.775
2467.12586	4874.375
2469.88492	4891.875
2472.64224	4908.075
2475.39782	4884.075
2478.15167	4901.375
2480.90379	4876.275
2483.65417	4879.675
2486.40283	4889.775
2489.14976	4894.375
2491.89497	4876.175
2494.63845	4884.875
2497.3802	4880.075
2500.12024	4893.075
2502.85855	4858.875
2505.59514	4836.675
2508.33002	4833.475
2511.06318	4822.575
2513.79462	4810.675
2516.52435	4810.675
2519.25237	4809.675
2521.97867	4792.875
2524.70327	4810.475
2527.42616	4793.975
2530.14734	4793.975
2532.86681	4778.175
2535.58458	4786.875
2538.30065	4783.975
2541.01501	4760.675
2543.72768	4770.175
2546.43864	4768.375
2549.14791	4755.675
2551.85548	4765.175
2554.56136	4756.075
2557.26554	4750.675
2559.96803	4754.775
2562.66883	4715.975
2565.36794	4710.675
2568.06536	4700.675
2570.7611	4689.475
2573.45514	4703.575
2576.14751	4679.175
2578.83819	4679.175
2581.52719	4667.375
2584.21451	4653.475
2586.90015	4642.575
2589.58411	4640.575
2592.2664	4656.175
2594.94701	4633.475
2597.62594	4636.075
2600.30321	4627.475
2602.9788	4638.375
2605.65273	4619.175
2608.32498	4602.975
2610.99557	4609.075
2613.66449	4595.875
2616.33175	4595.175
2618.99734	4601.075
2621.66128	4583.375
2624.32355	4597.875
2626.98416	4595.175
2629.64311	4582.875
2632.30041	4588.775
2634.95605	4582.375
2637.61004	4559.075
2640.26238	4567.175
2642.91306	4550.675
2645.56209	4556.375
2648.20948	4543.375
2650.85521	4544.075
2653.4993	4529.775
2656.14175	4528.775
2658.78255	4541.875
2661.42171	4520.275
2664.05923	4538.075
2666.6951	4545.075
2669.32934	4550.175
2671.96194	4540.475
2674.59291	4535.375
2677.22224	4516.775
2679.84993	4543.075
2682.476	4536.975
2685.10043	4531.175
2687.72324	4500.675
2690.34441	4528.875
2692.96396	4506.475
2695.58188	4527.675
2698.19818	4506.475
2700.81285	4522.175
2703.4259	4504.875
2706.03733	4510.575
2708.64714	4488.075
2711.25533	4490.275
2713.86191	4479.975
2716.46687	4505.275
2719.07021	4495.175
2721.67194	4499.275
2724.27206	4500.775
2726.87057	4491.775
2729.46747	4514.675
2732.06276	4493.575
2734.65644	4491.375
2737.24852	4483.675
2739.83899	4483.775
2742.42786	4478.075
2745.01513	4460.975
2747.60079	4465.775
2750.18486	4467.275
2752.76733	4456.675
2755.3482	4439.475
2757.92747	4443.875
2760.50515	4431.475
2763.08123	4426.175
2765.65573	4430.575
2768.22863	4405.375
2770.79994	4414.575
2773.36967	4406.975
2775.9378	4419.175
2778.50435	4402.575
2781.06932	4388.475
2783.6327	4401.775
2786.1945	4380.975
2788.75471	4364.675
2791.31335	4369.975
2793.87041	4350.675
2796.42589	4348.175
2798.97979	4333.075
2801.53212	4330.875
2804.08288	4346.575
2806.63206	4322.475
2809.17967	4318.375
2811.72571	4315.175
2814.27018	4327.675
2816.81308	4298.975
2819.35442	4266.875
2821.89419	4270.075
2824.43239	4263.275
2826.96904	4263.675
2829.50412	4265.175
2832.03763	4253.675
2834.56959	4251.375
2837.1	4225.375
2839.62884	4230.775
2842.15613	4237.075
2844.68186	4228.775
2847.20604	4225.175
2849.72867	4219.675
2852.24974	4199.275
2854.76927	4185.275
2857.28724	4171.575
2859.80367	4172.175
2862.31855	4176.675
2864.83189	4169.375
2867.34368	4157.075
2869.85393	4162.775
2872.36264	4156.375
2874.8698	4154.975
2877.37543	4153.175
2879.87952	4132.475
2882.38207	4133.375
2884.88308	4135.375
2887.38256	4124.375
2889.88051	4136.675
2892.37692	4120.075
2894.8718	4119.475
2897.36515	4115.175
2899.85698	4126.475
2902.34727	4136.475
2904.83604	4119.775
2907.32328	4130.275
2909.809	4118.375
2912.29319	4123.675
2914.77587	4117.675
2917.25702	4135.975
2919.73665	4121.975
2922.21476	4133.275
2924.69136	4127.675
2927.16644	4125.875
2929.64	4114.575
2932.11205	4102.575
2934.58258	4087.575
2937.05161	4110.475
2939.51912	4074.475
2941.98513	4081.075
2944.44962	4072.775
2946.91261	4061.875
2949.37409	4065.875
2951.83407	4066.575
2954.29254	4059.975
2956.74951	4065.875
2959.20498	4066.275
2961.65895	4043.575
2964.11142	4042.075
2966.56239	4045.875
2969.01186	4048.775
2971.45984	4048.375
2973.90632	4038.775
2976.35131	4017.475
2978.7948	4002.975
2981.23681	4006.975
2983.67732	4007.075
2986.11635	3976.075
2988.55388	3971.875
2990.98993	3976.575
2993.4245	3963.975
2995.85758	3970.275
2998.28917	3955.675
3000.71928	3931.575
3003.14791	3925.175
3005.57506	3924.075
3008.00073	3911.675
3010.42493	3883.975
3012.84764	3896.675
3015.26888	3875.775
3017.68865	3867.175
3020.10694	3854.775
3022.52376	3855.275
3024.9391	3843.675
3027.35298	3836.975
3029.76539	3819.175
3032.17632	3830.575
3034.5858	3825.475
3036.9938	3811.275
3039.40034	3786.775
3041.80542	3798.775
3044.20903	3775.275
3046.61118	3777.675
3049.01187	3761.775
3051.4111	3763.275
3053.80888	3754.075
3056.20519	3741.175
3058.60005	3740.475
3060.99345	3722.575
3063.3854	3717.475
3065.7759	3715.275
3068.16494	3714.875
3070.55254	3698.375
3072.93868	3687.075
3075.32338	3664.175
3077.70662	3647.675
3080.08842	3623.275
3082.46878	3631.875
3084.84769	3609.975
3087.22515	3628.775
3089.60118	3626.975
3091.97576	3640.475
3094.3489	3632.875
3096.72061	3605.375
3099.09087	3617.475
3101.4597	3602.575
3103.82709	3609.375
3106.19305	3588.475
3108.55757	3590.075
3110.92066	3590.175
3113.28232	3596.575
3115.64255	3576.975
3118.00134	3555.875
3120.35871	3553.775
3122.71466	3558.475
3125.06917	3564.575
3127.42226	3530.875
3129.77393	3528.975
3132.12417	3516.275
3134.47299	3524.075
3136.82039	3491.175
3139.16636	3503.875
3141.51092	3497.975
3143.85406	3506.275
3146.19579	3504.675
3148.53609	3479.675
3150.87499	3501.275
3153.21246	3484.975
3155.54853	3500.175
3157.88318	3497.175
3160.21642	3500.675
3162.54826	3489.375
3164.87868	3493.075
3167.2077	3478.175
3169.5353	3469.375
3171.86151	3474.775
3174.18631	3459.975
3176.5097	3478.675
3178.83169	3459.075
3181.15228	3448.275
3183.47147	3443.675
3185.78926	3438.675
3188.10565	3420.675
3190.42065	3422.075
3192.73424	3410.975
3195.04645	3401.175
3197.35725	3395.675
3199.66667	3396.775
3201.97469	3396.475
3204.28132	3391.475
3206.58656	3385.775
3208.8904	3388.175
3211.19287	3396.075
3213.49394	3396.775
3215.79363	3392.075
3218.09193	3386.675
3220.38884	3382.575
3222.68438	3386.375
3224.97853	3384.375
3227.2713	3381.275
3229.56269	3380.275
