Data from AgNPs_UA_5uM_CRN_500uM_SU_RamanShift__282__12-16-23-196.txt Node

Date: Thu Aug 04 12:16:23 BST 2022
User: TCL
Spectrometer: QEP01345
Trigger mode: 4
Integration Time (sec): 1.000000E0
Scans to average: 10
Electric dark correction enabled: true
Nonlinearity correction enabled: false
Boxcar width: 0
XAxis mode: Raman Shifts
Number of Pixels in Spectrum: 1044
>>>>>Begin Spectral Data<<<<<
46.04893	-0.675
50.45542	1.025
54.85868	0.725
59.25871	-2.575
63.6555	-57.975
68.04907	-41.175
72.43941	-70.575
76.82654	-56.675
81.21044	-56.675
85.59113	-49.175
89.96862	-76.875
94.34289	-57.875
98.71396	-77.875
103.08183	-58.475
107.4465	-51.875
111.80798	-56.975
116.16626	-45.375
120.52136	-75.675
124.87327	-51.275
129.222	-63.975
133.56755	-50.975
137.90993	-65.475
142.24913	-52.875
146.58517	-44.375
150.91804	-41.575
155.24774	-29.975
159.57429	-12.475
163.89768	-8.075
168.21792	35.325
172.53501	54.025
176.84895	134.625
181.15975	264.225
185.46741	412.525
189.77193	585.925
194.07331	872.025
198.37157	1154.525
202.6667	1430.125
206.9587	1749.825
211.24758	2060.225
215.53334	2366.525
219.81599	2723.525
224.09553	3127.025
228.37195	3553.725
232.64527	4012.025
236.91549	4471.125
241.18261	4795.825
245.44663	5073.325
249.70755	5238.025
253.96539	5348.125
258.22014	5465.325
262.4718	5518.925
266.72039	5580.425
270.96589	5549.925
275.20832	5460.925
279.44768	5348.625
283.68397	5242.825
287.91719	5205.825
292.14735	5246.425
296.37445	5400.725
300.59849	5697.925
304.81948	6058.825
309.03742	6425.825
313.25231	6663.325
317.46415	6607.825
321.67296	6236.525
325.87872	5835.825
330.08145	5624.725
334.28114	5599.125
338.47781	5638.525
342.67145	5767.425
346.86207	6006.225
351.04966	6354.925
355.23424	6728.825
359.4158	7015.325
363.59435	7032.925
367.76989	6971.425
371.94243	6831.425
376.11196	6723.725
380.27849	6663.225
384.44203	6583.725
388.60257	6530.525
392.76012	6544.325
396.91468	6666.325
401.06626	6817.525
405.21485	6859.025
409.36047	6678.125
413.50311	6355.325
417.64277	6051.125
421.77947	5845.525
425.9132	5785.625
430.04396	5779.425
434.17176	5817.925
438.2966	5890.225
442.41849	5985.425
446.53742	6094.925
450.6534	6207.825
454.76644	6273.425
458.87653	6270.625
462.98368	6224.825
467.08789	6157.625
471.18916	6060.625
475.2875	5939.825
479.38291	5834.825
483.4754	5740.925
487.56496	5700.625
491.6516	5654.525
495.73531	5678.225
499.81612	5703.125
503.89401	5805.325
507.96899	5846.525
512.04106	5919.025
516.11023	6037.025
520.1765	6106.925
524.23987	6148.825
528.30034	6121.525
532.35792	6042.925
536.41261	5986.925
540.46441	5890.425
544.51333	5838.925
548.55936	5879.925
552.60252	6007.025
556.64279	6118.825
560.6802	6225.025
564.71473	6359.825
568.7464	6554.025
572.7752	6542.725
576.80114	6235.325
580.82422	6023.525
584.84444	5932.225
588.86181	5905.725
592.87633	5927.525
596.888	6051.925
600.89682	6405.925
604.9028	7384.725
608.90594	9495.125
612.90624	11851.825
616.90371	10958.525
620.89834	7875.625
624.89015	6517.325
628.87913	6319.325
632.86528	6464.725
636.84862	6618.225
640.82913	6500.825
644.80683	6145.325
648.78172	5942.725
652.75379	5977.125
656.72306	6222.425
660.68952	6465.625
664.65319	6346.425
668.61405	6127.825
672.57211	6049.425
676.52738	6051.825
680.47986	5949.025
684.42955	5854.325
688.37646	5812.925
692.32058	5820.325
696.26192	5886.525
700.20048	5992.225
704.13626	6028.325
708.06928	5974.425
711.99952	5946.525
715.927	5920.625
719.85171	5977.125
723.77365	6020.625
727.69284	5978.025
731.60928	5952.125
735.52295	5937.725
739.43388	5959.325
743.34206	5976.125
747.24749	6000.825
751.15017	6020.125
755.05012	6112.525
758.94733	6487.625
762.8418	7361.925
766.73354	8717.225
770.62254	9775.525
774.50882	9850.025
778.39237	9295.825
782.27321	8343.925
786.15132	7280.025
790.02671	6574.925
793.89938	6193.925
797.76935	6068.325
801.6366	5988.125
805.50115	5938.925
809.36299	5923.625
813.22213	5918.025
817.07857	5898.325
820.93231	5915.625
824.78336	5928.925
828.63172	5957.525
832.47738	5953.325
836.32036	5955.025
840.16066	5900.725
843.99827	5905.925
847.8332	5885.025
851.66546	5909.925
855.49504	5915.825
859.32195	5935.025
863.1462	5923.325
866.96777	5916.725
870.78668	5885.125
874.60293	5919.425
878.41652	5958.425
882.22745	6023.125
886.03573	6060.625
889.84136	6026.125
893.64433	6038.825
897.44466	6027.125
901.24235	6029.625
905.0374	6026.125
908.8298	5965.825
912.61957	5940.225
916.40671	5886.625
920.19121	5956.625
923.97308	6050.525
927.75233	6083.925
931.52895	6179.525
935.30295	6129.025
939.07433	5961.925
942.84309	5843.325
946.60924	5810.825
950.37278	5786.325
954.13371	5785.225
957.89203	5763.525
961.64774	5775.925
965.40086	5779.225
969.15137	5760.225
972.89929	5774.825
976.64461	5747.525
980.38733	5794.725
984.12747	5805.025
987.86502	5815.325
991.59999	5834.725
995.33237	5912.125
999.06217	5946.325
1002.78939	6037.925
1006.51404	6155.425
1010.23611	6263.225
1013.95561	6325.025
1017.67255	6310.425
1021.38692	6292.025
1025.09872	6235.225
1028.80796	6164.325
1032.51465	6161.325
1036.21877	6131.725
1039.92035	6183.625
1043.61937	6236.925
1047.31584	6277.725
1051.00976	6325.325
1054.70114	6322.825
1058.38998	6330.625
1062.07627	6320.425
1065.76003	6352.625
1069.44126	6451.425
1073.11995	6523.325
1076.79611	6647.325
1080.46974	6790.225
1084.14085	6976.125
1087.80943	7089.025
1091.47549	7140.925
1095.13903	7046.025
1098.80005	6907.525
1102.45857	6815.125
1106.11456	6790.725
1109.76805	6719.025
1113.41903	6858.625
1117.06751	7009.325
1120.71348	7285.925
1124.35696	7679.725
1127.99793	7960.025
1131.63641	7794.025
1135.2724	7395.725
1138.90589	7094.125
1142.5369	6890.025
1146.16542	6764.925
1149.79145	6653.525
1153.415	6627.125
1157.03607	6637.425
1160.65467	6741.525
1164.27079	6958.425
1167.88443	7216.725
1171.49561	7654.825
1175.10432	8297.925
1178.71056	9222.225
1182.31434	10050.325
1185.91565	10319.025
1189.51451	10169.525
1193.11091	9884.825
1196.70485	9623.925
1200.29634	9348.925
1203.88538	9076.325
1207.47197	8586.425
1211.05612	8136.525
1214.63782	7684.425
1218.21708	7427.225
1221.79391	7278.825
1225.36829	7201.425
1228.94024	7194.025
1232.50976	7226.025
1236.07685	7261.625
1239.6415	7264.925
1243.20374	7286.525
1246.76355	7321.725
1250.32093	7376.525
1253.8759	7457.825
1257.42845	7644.725
1260.97859	7851.625
1264.52631	8072.825
1268.07163	8237.725
1271.61453	8402.525
1275.15503	8432.425
1278.69312	8429.725
1282.22882	8500.725
1285.76211	8703.725
1289.29301	8943.525
1292.82151	9227.525
1296.34761	9454.325
1299.87133	9833.025
1303.39266	10594.525
1306.9116	11738.525
1310.42815	12991.125
1313.94233	13446.425
1317.45412	12642.125
1320.96354	11493.325
1324.47058	10452.225
1327.97525	9690.925
1331.47754	9274.125
1334.97747	9177.325
1338.47502	9256.325
1341.97022	9640.825
1345.46305	10361.825
1348.95352	11519.125
1352.44163	12894.925
1355.92738	14308.325
1359.41078	15998.825
1362.89183	17589.025
1366.37053	16960.225
1369.84688	14071.125
1373.32088	11268.125
1376.79254	9785.225
1380.26186	9070.425
1383.72883	8624.425
1387.19347	8223.925
1390.65578	7842.025
1394.11575	7596.325
1397.57339	7423.325
1401.0287	7314.925
1404.48168	7260.925
1407.93234	7284.625
1411.38068	7296.725
1414.82669	7356.825
1418.27039	7452.825
1421.71177	7452.025
1425.15083	7345.525
1428.58758	7273.725
1432.02203	7300.425
1435.45416	7360.625
1438.88399	7374.325
1442.31151	7328.725
1445.73673	7423.725
1449.15965	7465.125
1452.58027	7482.725
1455.9986	7473.125
1459.41463	7494.725
1462.82837	7587.025
1466.23982	7782.125
1469.64898	8001.125
1473.05586	8158.025
1476.46045	8240.025
1479.86276	8337.325
1483.26279	8448.125
1486.66054	8666.725
1490.05602	8969.825
1493.44922	9519.225
1496.84016	10420.325
1500.22882	11858.225
1503.61521	13675.325
1506.99934	15525.025
1510.38121	16738.625
1513.76081	16553.525
1517.13816	14945.725
1520.51324	12768.825
1523.88607	11010.125
1527.25665	10001.025
1530.62498	9477.525
1533.99105	9276.625
1537.35488	9169.525
1540.71647	9042.525
1544.07581	8913.125
1547.4329	8759.225
1550.78776	8622.725
1554.14038	8512.825
1557.49077	8495.525
1560.83892	8596.725
1564.18484	8812.125
1567.52853	9178.125
1570.86999	9532.825
1574.20922	9673.425
1577.54624	9538.325
1580.88103	9023.425
1584.2136	8312.525
1587.54395	7923.725
1590.87208	7823.125
1594.19801	7984.425
1597.52172	8348.425
1600.84321	8523.225
1604.16251	8352.425
1607.47959	8158.225
1610.79447	7942.425
1614.10715	7672.325
1617.41763	7363.725
1620.7259	7101.225
1624.03199	6950.425
1627.33587	6876.325
1630.63757	6923.125
1633.93707	7159.325
1637.23439	7572.025
1640.52951	8260.025
1643.82246	9261.325
1647.11321	10452.325
1650.40179	11234.425
1653.68819	10879.325
1656.97241	9620.025
1660.25446	8205.625
1663.53433	7163.025
1666.81203	6546.125
1670.08756	6187.725
1673.36092	6012.025
1676.63211	5870.025
1679.90115	5786.925
1683.16801	5692.025
1686.43272	5613.625
1689.69527	5562.125
1692.95567	5507.625
1696.2139	5491.225
1699.46999	5440.825
1702.72392	5439.425
1705.97571	5453.425
1709.22535	5420.625
1712.47284	5450.225
1715.71819	5474.625
1718.96139	5463.825
1722.20246	5453.425
1725.44139	5410.325
1728.67818	5395.625
1731.91284	5353.225
1735.14537	5306.125
1738.37576	5273.925
1741.60403	5253.625
1744.83017	5223.225
1748.05418	5226.825
1751.27607	5234.325
1754.49584	5190.825
1757.71349	5160.425
1760.92903	5158.425
1764.14244	5106.125
1767.35375	5133.425
1770.56294	5110.625
1773.77002	5093.325
1776.97499	5107.225
1780.17785	5076.425
1783.37861	5060.525
1786.57727	5079.325
1789.77382	5016.025
1792.96828	5045.025
1796.16064	5055.425
1799.3509	5022.525
1802.53907	5050.425
1805.72514	5011.425
1808.90913	4975.725
1812.09102	4981.625
1815.27083	4981.325
1818.44856	4959.125
1821.6242	4933.225
1824.79776	4936.425
1827.96924	4927.425
1831.13864	4913.125
1834.30597	4912.325
1837.47122	4890.825
1840.6344	4875.625
1843.7955	4866.625
1846.95454	4858.525
1850.11151	4872.225
1853.26642	4840.825
1856.41926	4839.925
1859.57004	4858.025
1862.71876	4845.825
1865.86542	4840.225
1869.01003	4823.825
1872.15258	4804.425
1875.29308	4827.425
1878.43152	4831.525
1881.56792	4785.325
1884.70227	4774.925
1887.83457	4780.025
1890.96482	4746.125
1894.09304	4758.925
1897.21921	4745.625
1900.34335	4748.425
1903.46544	4736.925
1906.58551	4753.325
1909.70353	4739.525
1912.81953	4729.125
1915.93349	4727.325
1919.04543	4712.825
1922.15534	4696.025
1925.26322	4703.325
1928.36908	4666.325
1931.47292	4672.925
1934.57473	4680.725
1937.67453	4647.225
1940.77232	4638.125
1943.86808	4622.525
1946.96184	4612.125
1950.05358	4592.925
1953.14331	4578.425
1956.23103	4580.525
1959.31675	4544.025
1962.40046	4499.925
1965.48217	4530.625
1968.56188	4512.825
1971.63959	4489.825
1974.7153	4490.625
1977.78901	4484.225
1980.86073	4460.225
1983.93046	4437.325
1986.99819	4360.225
1990.06394	4383.825
1993.1277	4394.525
1996.18947	4380.525
1999.24925	4349.125
2002.30706	4336.625
2005.36288	4324.625
2008.41672	4319.525
2011.46859	4280.725
2014.51848	4287.725
2017.56639	4251.625
2020.61233	4241.525
2023.6563	4246.625
2026.6983	4198.425
2029.73833	4204.825
2032.7764	4202.325
2035.8125	4165.225
2038.84664	4179.025
2041.87881	4157.225
2044.90903	4164.725
2047.93729	4167.025
2050.96359	4137.525
2053.98794	4131.325
2057.01034	4140.625
2060.03078	4111.125
2063.04927	4114.425
2066.06582	4128.525
2069.08042	4105.725
2072.09307	4100.725
2075.10378	4105.325
2078.11255	4089.525
2081.11938	4092.025
2084.12426	4090.325
2087.12722	4072.725
2090.12824	4075.525
2093.12732	4067.225
2096.12447	4083.725
2099.11969	4070.825
2102.11299	4071.425
2105.10435	4084.625
2108.09379	4079.125
2111.08131	4077.025
2114.0669	4085.825
2117.05057	4075.925
2120.03233	4059.925
2123.01216	4089.025
2125.99008	4092.725
2128.96609	4093.525
2131.94018	4108.025
2134.91236	4092.725
2137.88263	4093.425
2140.851	4083.725
2143.81746	4109.625
2146.78201	4081.225
2149.74466	4070.725
2152.7054	4099.625
2155.66425	4080.725
2158.6212	4068.925
2161.57625	4038.225
2164.52941	4027.525
2167.48067	4042.425
2170.43004	4050.525
2173.37752	4059.225
2176.32311	4052.925
2179.26681	4041.525
2182.20863	4045.025
2185.14856	4063.725
2188.08661	4042.625
2191.02278	4051.225
2193.95707	4039.125
2196.88948	4016.325
2199.82001	4019.525
2202.74867	4009.525
2205.67545	4015.625
2208.60037	4032.225
2211.52341	4008.325
2214.44458	3985.925
2217.36388	3966.925
2220.28132	3978.025
2223.1969	3959.225
2226.11061	3952.225
2229.02246	3921.025
2231.93245	3948.525
2234.84058	3920.125
2237.74686	3918.925
2240.65128	3905.725
2243.55385	3913.925
2246.45456	3880.825
2249.35343	3891.625
2252.25044	3877.625
2255.14561	3882.125
2258.03893	3880.325
2260.93041	3863.725
2263.82004	3864.725
2266.70783	3862.625
2269.59378	3847.225
2272.4779	3825.825
2275.36017	3823.525
2278.24061	3816.125
2281.11922	3781.125
2283.996	3793.625
2286.87094	3793.925
2289.74405	3790.225
2292.61534	3770.225
2295.4848	3768.525
2298.35243	3756.925
2301.21824	3760.225
2304.08223	3751.725
2306.94439	3752.525
2309.80474	3756.325
2312.66327	3753.325
2315.51999	3730.225
2318.37489	3726.725
2321.22797	3705.525
2324.07925	3705.825
2326.92871	3689.925
2329.77637	3689.725
2332.62222	3680.925
2335.46626	3660.325
2338.3085	3659.625
2341.14893	3675.625
2343.98756	3680.425
2346.8244	3656.125
2349.65943	3637.425
2352.49267	3647.125
2355.32411	3658.825
2358.15376	3650.125
2360.98161	3644.725
2363.80768	3638.325
2366.63195	3631.125
2369.45444	3655.625
2372.27514	3637.725
2375.09405	3658.825
2377.91118	3616.925
2380.72652	3603.925
2383.54009	3599.725
2386.35187	3603.725
2389.16188	3584.725
2391.97011	3579.725
2394.77657	3563.625
2397.58125	3558.725
2400.38416	3551.625
2403.18529	3533.425
2405.98466	3532.025
2408.78226	3529.825
2411.57809	3516.925
2414.37216	3503.125
2417.16446	3514.725
2419.955	3491.625
2422.74378	3510.725
2425.5308	3477.725
2428.31606	3494.625
2431.09956	3492.025
2433.88131	3467.825
2436.6613	3487.225
2439.43954	3469.325
2442.21603	3477.625
2444.99077	3455.225
2447.76377	3465.725
2450.53501	3445.425
2453.30451	3445.625
2456.07226	3452.525
2458.83827	3454.225
2461.60254	3409.425
2464.36507	3438.325
2467.12586	3431.125
2469.88492	3422.825
2472.64224	3424.225
2475.39782	3418.425
2478.15167	3412.025
2480.90379	3416.425
2483.65417	3430.125
2486.40283	3415.625
2489.14976	3430.725
2491.89497	3414.925
2494.63845	3429.625
2497.3802	3415.725
2500.12024	3413.225
2502.85855	3406.425
2505.59514	3420.725
2508.33002	3398.025
2511.06318	3362.625
2513.79462	3376.925
2516.52435	3339.125
2519.25237	3309.925
2521.97867	3318.525
2524.70327	3329.625
2527.42616	3321.425
2530.14734	3318.125
2532.86681	3309.225
2535.58458	3308.325
2538.30065	3277.125
2541.01501	3307.725
2543.72768	3289.425
2546.43864	3292.825
2549.14791	3282.325
2551.85548	3266.725
2554.56136	3257.025
2557.26554	3263.125
2559.96803	3249.025
2562.66883	3247.725
2565.36794	3236.325
2568.06536	3205.625
2570.7611	3237.525
2573.45514	3214.225
2576.14751	3218.625
2578.83819	3194.625
2581.52719	3178.325
2584.21451	3196.025
2586.90015	3167.725
2589.58411	3151.225
2592.2664	3160.225
2594.94701	3155.525
2597.62594	3169.525
2600.30321	3101.525
2602.9788	3126.725
2605.65273	3111.225
2608.32498	3120.525
2610.99557	3129.025
2613.66449	3099.625
2616.33175	3110.125
2618.99734	3113.125
2621.66128	3104.225
2624.32355	3099.425
2626.98416	3085.825
2629.64311	3077.025
2632.30041	3081.625
2634.95605	3051.225
2637.61004	3039.125
2640.26238	3024.225
2642.91306	3026.525
2645.56209	3044.325
2648.20948	3047.225
2650.85521	3030.725
2653.4993	3039.525
2656.14175	3027.425
2658.78255	3031.425
2661.42171	2992.725
2664.05923	3040.025
2666.6951	3037.925
2669.32934	3034.225
2671.96194	3052.125
2674.59291	3048.725
2677.22224	3032.725
2679.84993	3037.825
2682.476	3033.425
2685.10043	3022.125
2687.72324	3009.525
2690.34441	3006.425
2692.96396	3006.125
2695.58188	3023.125
2698.19818	3014.725
2700.81285	2999.025
2703.4259	3004.425
2706.03733	2987.225
2708.64714	2971.725
2711.25533	2988.625
2713.86191	3008.025
2716.46687	2999.125
2719.07021	3000.825
2721.67194	2994.725
2724.27206	3011.425
2726.87057	2999.825
2729.46747	2985.325
2732.06276	2990.325
2734.65644	2982.125
2737.24852	2976.625
2739.83899	2951.025
2742.42786	2967.925
2745.01513	2976.225
2747.60079	2959.725
2750.18486	2926.125
2752.76733	2938.125
2755.3482	2932.725
2757.92747	2947.625
2760.50515	2928.725
2763.08123	2920.125
2765.65573	2916.625
2768.22863	2916.025
2770.79994	2894.525
2773.36967	2892.425
2775.9378	2886.125
2778.50435	2883.325
2781.06932	2863.725
2783.6327	2867.925
2786.1945	2892.725
2788.75471	2871.225
2791.31335	2850.625
2793.87041	2869.525
2796.42589	2839.625
2798.97979	2824.525
2801.53212	2838.725
2804.08288	2860.825
2806.63206	2834.425
2809.17967	2816.725
2811.72571	2818.925
2814.27018	2810.925
2816.81308	2816.325
2819.35442	2787.325
2821.89419	2798.725
2824.43239	2784.425
2826.96904	2806.225
2829.50412	2782.125
2832.03763	2791.125
2834.56959	2790.125
2837.1	2766.525
2839.62884	2774.925
2842.15613	2769.325
2844.68186	2769.125
2847.20604	2744.525
2849.72867	2751.325
2852.24974	2745.025
2854.76927	2723.425
2857.28724	2687.825
2859.80367	2753.025
2862.31855	2759.525
2864.83189	2726.025
2867.34368	2737.525
2869.85393	2758.725
2872.36264	2716.925
2874.8698	2718.525
2877.37543	2732.625
2879.87952	2720.925
2882.38207	2699.425
2884.88308	2704.625
2887.38256	2720.325
2889.88051	2700.925
2892.37692	2690.125
2894.8718	2683.525
2897.36515	2709.425
2899.85698	2696.825
2902.34727	2707.925
2904.83604	2705.325
2907.32328	2713.925
2909.809	2707.425
2912.29319	2718.025
2914.77587	2715.525
2917.25702	2739.125
2919.73665	2736.525
2922.21476	2732.425
2924.69136	2728.025
2927.16644	2719.225
2929.64	2709.925
2932.11205	2692.225
2934.58258	2702.425
2937.05161	2684.925
2939.51912	2682.525
2941.98513	2687.225
2944.44962	2684.425
2946.91261	2645.725
2949.37409	2664.225
2951.83407	2657.725
2954.29254	2638.425
2956.74951	2659.625
2959.20498	2635.825
2961.65895	2641.425
2964.11142	2625.725
2966.56239	2630.625
2969.01186	2632.625
2971.45984	2626.525
2973.90632	2609.625
2976.35131	2619.725
2978.7948	2613.525
2981.23681	2598.325
2983.67732	2602.525
2986.11635	2600.525
2988.55388	2561.925
2990.98993	2567.425
2993.4245	2565.025
2995.85758	2556.625
2998.28917	2561.825
3000.71928	2534.725
3003.14791	2543.525
3005.57506	2523.725
3008.00073	2511.725
3010.42493	2455.325
3012.84764	2513.325
3015.26888	2509.325
3017.68865	2496.325
3020.10694	2467.025
3022.52376	2464.725
3024.9391	2481.425
3027.35298	2459.925
3029.76539	2439.625
3032.17632	2453.425
3034.5858	2442.125
3036.9938	2444.825
3039.40034	2459.225
3041.80542	2426.625
3044.20903	2418.125
3046.61118	2417.825
3049.01187	2428.825
3051.4111	2414.925
3053.80888	2383.425
3056.20519	2398.325
3058.60005	2373.525
3060.99345	2402.625
3063.3854	2373.525
3065.7759	2358.125
3068.16494	2366.625
3070.55254	2343.625
3072.93868	2358.725
3075.32338	2345.425
3077.70662	2333.525
3080.08842	2317.125
3082.46878	2310.025
3084.84769	2342.525
3087.22515	2317.025
3089.60118	2324.425
3091.97576	2306.825
3094.3489	2312.925
3096.72061	2311.825
3099.09087	2298.525
3101.4597	2311.025
3103.82709	2296.325
3106.19305	2282.525
3108.55757	2297.025
3110.92066	2278.225
3113.28232	2278.825
3115.64255	2279.925
3118.00134	2289.925
3120.35871	2260.225
3122.71466	2239.025
3125.06917	2258.325
3127.42226	2242.425
3129.77393	2231.425
3132.12417	2228.225
3134.47299	2242.025
3136.82039	2229.025
3139.16636	2205.225
3141.51092	2231.225
3143.85406	2221.925
3146.19579	2199.325
3148.53609	2208.225
3150.87499	2209.625
3153.21246	2203.925
3155.54853	2205.825
3157.88318	2203.425
3160.21642	2214.125
3162.54826	2210.525
3164.87868	2205.125
3167.2077	2175.925
3169.5353	2191.825
3171.86151	2197.825
3174.18631	2179.225
3176.5097	2172.625
3178.83169	2186.825
3181.15228	2177.125
3183.47147	2154.425
3185.78926	2132.225
3188.10565	2152.025
3190.42065	2128.425
3192.73424	2144.425
3195.04645	2132.625
3197.35725	2119.425
3199.66667	2134.125
3201.97469	2118.925
3204.28132	2113.725
3206.58656	2129.325
3208.8904	2123.725
3211.19287	2122.625
3213.49394	2109.825
3215.79363	2103.725
3218.09193	2130.725
3220.38884	2121.825
3222.68438	2120.825
3224.97853	2088.625
3227.2713	2117.825
3229.56269	2097.925
3231.8527	2102.825
3234.14133	2083.425
