Data from AgNPs_UA_20uM_CRN_500uM_SU_RamanShift__80__13-49-50-306.txt Node

Date: Thu Aug 04 13:49:50 BST 2022
User: TCL
Spectrometer: QEP01345
Trigger mode: 4
Integration Time (sec): 1.000000E0
Scans to average: 10
Electric dark correction enabled: true
Nonlinearity correction enabled: false
Boxcar width: 0
XAxis mode: Raman Shifts
Number of Pixels in Spectrum: 1044
>>>>>Begin Spectral Data<<<<<
46.04893	-1.8875
50.45542	-0.2875
54.85868	0.9125
59.25871	-0.1875
63.6555	13.6125
68.04907	11.5125
72.43941	16.0125
76.82654	13.1125
81.21044	14.7125
85.59113	16.3125
89.96862	15.9125
94.34289	14.4125
98.71396	17.1125
103.08183	18.1125
107.4465	16.8125
111.80798	20.2125
116.16626	19.8125
120.52136	22.5125
124.87327	21.2125
129.222	23.0125
133.56755	22.9125
137.90993	25.0125
142.24913	26.9125
146.58517	31.1125
150.91804	36.1125
155.24774	44.2125
159.57429	55.0125
163.89768	68.8125
168.21792	93.4125
172.53501	129.4125
176.84895	176.0125
181.15975	251.2125
185.46741	351.8125
189.77193	489.5125
194.07331	664.0125
198.37157	851.0125
202.6667	1062.0125
206.9587	1260.2125
211.24758	1471.0125
215.53334	1673.0125
219.81599	1893.7125
224.09553	2162.3125
228.37195	2433.9125
232.64527	2724.4125
236.91549	3017.6125
241.18261	3286.2125
245.44663	3475.6125
249.70755	3628.8125
253.96539	3776.0125
258.22014	3871.6125
262.4718	3979.4125
266.72039	4074.3125
270.96589	4111.5125
275.20832	4080.7125
279.44768	4020.5125
283.68397	3937.5125
287.91719	3907.4125
292.14735	3919.1125
296.37445	3987.6125
300.59849	4127.6125
304.81948	4307.8125
309.03742	4494.8125
313.25231	4559.6125
317.46415	4504.7125
321.67296	4320.5125
325.87872	4104.9125
330.08145	3995.3125
334.28114	4001.0125
338.47781	4059.3125
342.67145	4151.9125
346.86207	4269.4125
351.04966	4456.5125
355.23424	4649.6125
359.4158	4765.6125
363.59435	4828.6125
367.76989	4822.7125
371.94243	4834.7125
376.11196	4816.8125
380.27849	4803.5125
384.44203	4786.6125
388.60257	4789.1125
392.76012	4833.7125
396.91468	4884.4125
401.06626	4988.7125
405.21485	5002.9125
409.36047	4909.8125
413.50311	4741.0125
417.64277	4551.2125
421.77947	4454.6125
425.9132	4403.4125
430.04396	4437.1125
434.17176	4476.9125
438.2966	4556.8125
442.41849	4687.2125
446.53742	4835.2125
450.6534	4967.0125
454.76644	5029.6125
458.87653	5016.5125
462.98368	4966.6125
467.08789	4894.7125
471.18916	4809.1125
475.2875	4670.6125
479.38291	4582.0125
483.4754	4512.4125
487.56496	4459.6125
491.6516	4427.1125
495.73531	4418.5125
499.81612	4418.0125
503.89401	4445.3125
507.96899	4493.6125
512.04106	4539.3125
516.11023	4591.0125
520.1765	4623.0125
524.23987	4650.2125
528.30034	4645.9125
532.35792	4633.6125
536.41261	4583.4125
540.46441	4491.0125
544.51333	4468.7125
548.55936	4499.6125
552.60252	4584.9125
556.64279	4657.9125
560.6802	4717.1125
564.71473	4757.5125
568.7464	4857.8125
572.7752	4865.9125
576.80114	4756.0125
580.82422	4646.4125
584.84444	4637.9125
588.86181	4700.0125
592.87633	4805.5125
596.888	4912.6125
600.89682	5105.1125
604.9028	5716.2125
608.90594	7082.0125
612.90624	8393.8125
616.90371	7678.7125
620.89834	5771.0125
624.89015	5026.3125
628.87913	4938.1125
632.86528	4961.2125
636.84862	4940.4125
640.82913	4806.5125
644.80683	4602.2125
648.78172	4510.8125
652.75379	4536.1125
656.72306	4713.5125
660.68952	4891.1125
664.65319	4819.0125
668.61405	4685.8125
672.57211	4632.8125
676.52738	4629.1125
680.47986	4580.7125
684.42955	4517.5125
688.37646	4499.9125
692.32058	4547.6125
696.26192	4618.1125
700.20048	4698.1125
704.13626	4708.6125
708.06928	4655.9125
711.99952	4597.9125
715.927	4620.1125
719.85171	4638.3125
723.77365	4629.1125
727.69284	4606.4125
731.60928	4558.6125
735.52295	4560.9125
739.43388	4595.1125
743.34206	4626.4125
747.24749	4641.9125
751.15017	4656.8125
755.05012	4726.8125
758.94733	4936.1125
762.8418	5417.2125
766.73354	6192.3125
770.62254	6805.1125
774.50882	6970.6125
778.39237	6544.7125
782.27321	5886.9125
786.15132	5273.7125
790.02671	4897.5125
793.89938	4728.5125
797.76935	4684.2125
801.6366	4639.1125
805.50115	4621.5125
809.36299	4594.1125
813.22213	4574.9125
817.07857	4558.8125
820.93231	4576.5125
824.78336	4596.0125
828.63172	4603.6125
832.47738	4619.6125
836.32036	4626.1125
840.16066	4627.3125
843.99827	4644.8125
847.8332	4639.9125
851.66546	4613.6125
855.49504	4615.2125
859.32195	4632.0125
863.1462	4619.7125
866.96777	4602.1125
870.78668	4583.4125
874.60293	4602.3125
878.41652	4611.2125
882.22745	4645.1125
886.03573	4659.8125
889.84136	4654.7125
893.64433	4633.8125
897.44466	4638.0125
901.24235	4618.8125
905.0374	4599.7125
908.8298	4592.8125
912.61957	4593.2125
916.40671	4587.2125
920.19121	4650.9125
923.97308	4708.2125
927.75233	4791.3125
931.52895	4803.7125
935.30295	4761.9125
939.07433	4648.4125
942.84309	4572.7125
946.60924	4559.5125
950.37278	4523.7125
954.13371	4515.3125
957.89203	4498.0125
961.64774	4482.1125
965.40086	4451.9125
969.15137	4456.0125
972.89929	4452.5125
976.64461	4440.7125
980.38733	4483.6125
984.12747	4502.1125
987.86502	4529.0125
991.59999	4606.2125
995.33237	4702.1125
999.06217	4827.2125
1002.78939	4947.8125
1006.51404	5046.4125
1010.23611	5079.4125
1013.95561	5132.3125
1017.67255	5162.9125
1021.38692	5147.6125
1025.09872	5106.5125
1028.80796	5141.1125
1032.51465	5257.8125
1036.21877	5355.7125
1039.92035	5340.0125
1043.61937	5284.2125
1047.31584	5172.4125
1051.00976	5091.9125
1054.70114	5026.2125
1058.38998	5026.5125
1062.07627	5046.1125
1065.76003	5072.1125
1069.44126	5135.9125
1073.11995	5193.6125
1076.79611	5242.6125
1080.46974	5297.4125
1084.14085	5381.3125
1087.80943	5467.3125
1091.47549	5487.5125
1095.13903	5415.3125
1098.80005	5280.0125
1102.45857	5185.7125
1106.11456	5174.4125
1109.76805	5201.7125
1113.41903	5275.6125
1117.06751	5388.4125
1120.71348	5538.2125
1124.35696	5712.6125
1127.99793	5826.4125
1131.63641	5736.7125
1135.2724	5549.3125
1138.90589	5366.7125
1142.5369	5265.4125
1146.16542	5196.9125
1149.79145	5140.8125
1153.415	5120.5125
1157.03607	5142.8125
1160.65467	5199.9125
1164.27079	5331.3125
1167.88443	5529.4125
1171.49561	5865.5125
1175.10432	6352.4125
1178.71056	7017.6125
1182.31434	7604.5125
1185.91565	7816.1125
1189.51451	7738.0125
1193.11091	7446.9125
1196.70485	7056.0125
1200.29634	6742.6125
1203.88538	6460.3125
1207.47197	6166.0125
1211.05612	5900.6125
1214.63782	5752.6125
1218.21708	5693.7125
1221.79391	5697.5125
1225.36829	5722.0125
1228.94024	5714.1125
1232.50976	5667.3125
1236.07685	5613.5125
1239.6415	5634.0125
1243.20374	5632.6125
1246.76355	5684.6125
1250.32093	5765.1125
1253.8759	5895.2125
1257.42845	6074.9125
1260.97859	6242.9125
1264.52631	6407.2125
1268.07163	6552.1125
1271.61453	6673.7125
1275.15503	6766.1125
1278.69312	6868.7125
1282.22882	6956.4125
1285.76211	7117.0125
1289.29301	7291.6125
1292.82151	7479.3125
1296.34761	7694.9125
1299.87133	8049.1125
1303.39266	8642.2125
1306.9116	9448.7125
1310.42815	10207.8125
1313.94233	10482.1125
1317.45412	10103.0125
1320.96354	9421.0125
1324.47058	8748.2125
1327.97525	8164.7125
1331.47754	7867.8125
1334.97747	7784.6125
1338.47502	7930.1125
1341.97022	8152.5125
1345.46305	8472.3125
1348.95352	8963.9125
1352.44163	9553.3125
1355.92738	10381.0125
1359.41078	11467.6125
1362.89183	12229.9125
1366.37053	11604.7125
1369.84688	9881.5125
1373.32088	8341.0125
1376.79254	7451.6125
1380.26186	7042.8125
1383.72883	6856.9125
1387.19347	6681.7125
1390.65578	6454.6125
1394.11575	6272.1125
1397.57339	6149.2125
1401.0287	6097.4125
1404.48168	6086.3125
1407.93234	6133.5125
1411.38068	6211.3125
1414.82669	6303.2125
1418.27039	6322.6125
1421.71177	6265.3125
1425.15083	6223.0125
1428.58758	6249.0125
1432.02203	6364.6125
1435.45416	6428.7125
1438.88399	6466.6125
1442.31151	6428.5125
1445.73673	6388.9125
1449.15965	6354.7125
1452.58027	6301.3125
1455.9986	6223.8125
1459.41463	6210.5125
1462.82837	6245.1125
1466.23982	6367.9125
1469.64898	6453.6125
1473.05586	6578.6125
1476.46045	6625.9125
1479.86276	6689.8125
1483.26279	6775.7125
1486.66054	6895.9125
1490.05602	7100.2125
1493.44922	7447.5125
1496.84016	7960.5125
1500.22882	8723.8125
1503.61521	9672.3125
1506.99934	10632.8125
1510.38121	11173.4125
1513.76081	11008.0125
1517.13816	10098.5125
1520.51324	8955.9125
1523.88607	8081.1125
1527.25665	7541.1125
1530.62498	7298.5125
1533.99105	7149.9125
1537.35488	7073.8125
1540.71647	7031.4125
1544.07581	6938.4125
1547.4329	6891.6125
1550.78776	6808.0125
1554.14038	6739.4125
1557.49077	6730.5125
1560.83892	6776.2125
1564.18484	6920.0125
1567.52853	7080.2125
1570.86999	7216.3125
1574.20922	7234.2125
1577.54624	7104.0125
1580.88103	6789.2125
1584.2136	6447.2125
1587.54395	6326.8125
1590.87208	6445.4125
1594.19801	6834.0125
1597.52172	7322.5125
1600.84321	7572.9125
1604.16251	7498.2125
1607.47959	7226.4125
1610.79447	6827.5125
1614.10715	6358.9125
1617.41763	5961.6125
1620.7259	5691.0125
1624.03199	5577.4125
1627.33587	5580.1125
1630.63757	5704.7125
1633.93707	5995.3125
1637.23439	6443.6125
1640.52951	7131.4125
1643.82246	7955.9125
1647.11321	8697.4125
1650.40179	8884.7125
1653.68819	8266.1125
1656.97241	7152.1125
1660.25446	6143.9125
1663.53433	5453.8125
1666.81203	5079.5125
1670.08756	4853.5125
1673.36092	4714.8125
1676.63211	4614.3125
1679.90115	4541.1125
1683.16801	4482.0125
1686.43272	4439.5125
1689.69527	4431.1125
1692.95567	4419.0125
1696.2139	4396.1125
1699.46999	4396.2125
1702.72392	4392.1125
1705.97571	4387.0125
1709.22535	4375.7125
1712.47284	4378.9125
1715.71819	4370.6125
1718.96139	4367.6125
1722.20246	4366.5125
1725.44139	4338.5125
1728.67818	4305.4125
1731.91284	4291.4125
1735.14537	4279.1125
1738.37576	4251.3125
1741.60403	4246.3125
1744.83017	4239.5125
1748.05418	4232.2125
1751.27607	4220.2125
1754.49584	4200.1125
1757.71349	4189.6125
1760.92903	4193.8125
1764.14244	4176.8125
1767.35375	4182.6125
1770.56294	4166.8125
1773.77002	4156.9125
1776.97499	4150.5125
1780.17785	4153.3125
1783.37861	4155.5125
1786.57727	4130.2125
1789.77382	4118.7125
1792.96828	4120.9125
1796.16064	4111.5125
1799.3509	4114.8125
1802.53907	4110.0125
1805.72514	4102.4125
1808.90913	4079.4125
1812.09102	4082.7125
1815.27083	4082.4125
1818.44856	4075.4125
1821.6242	4040.7125
1824.79776	4034.6125
1827.96924	4055.0125
1831.13864	4036.5125
1834.30597	4033.6125
1837.47122	4023.7125
1840.6344	4011.9125
1843.7955	4019.4125
1846.95454	4016.5125
1850.11151	4020.8125
1853.26642	4031.5125
1856.41926	4018.2125
1859.57004	4002.5125
1862.71876	4000.0125
1865.86542	4001.3125
1869.01003	4008.3125
1872.15258	4001.9125
1875.29308	3997.1125
1878.43152	4004.7125
1881.56792	3994.4125
1884.70227	3982.1125
1887.83457	3982.2125
1890.96482	3989.4125
1894.09304	3969.1125
1897.21921	3963.2125
1900.34335	3965.1125
1903.46544	3957.6125
1906.58551	3967.6125
1909.70353	3960.9125
1912.81953	3941.5125
1915.93349	3959.9125
1919.04543	3935.4125
1922.15534	3955.1125
1925.26322	3942.0125
1928.36908	3927.6125
1931.47292	3914.1125
1934.57473	3916.7125
1937.67453	3919.0125
1940.77232	3908.8125
1943.86808	3905.1125
1946.96184	3883.9125
1950.05358	3880.6125
1953.14331	3870.1125
1956.23103	3851.4125
1959.31675	3829.7125
1962.40046	3819.0125
1965.48217	3809.1125
1968.56188	3807.7125
1971.63959	3794.1125
1974.7153	3802.9125
1977.78901	3779.7125
1980.86073	3769.8125
1983.93046	3754.3125
1986.99819	3750.4125
1990.06394	3737.0125
1993.1277	3733.1125
1996.18947	3728.2125
1999.24925	3709.9125
2002.30706	3702.2125
2005.36288	3681.7125
2008.41672	3675.4125
2011.46859	3653.0125
2014.51848	3649.6125
2017.56639	3640.4125
2020.61233	3634.0125
2023.6563	3627.5125
2026.6983	3628.4125
2029.73833	3614.4125
2032.7764	3608.4125
2035.8125	3610.0125
2038.84664	3590.6125
2041.87881	3600.0125
2044.90903	3588.8125
2047.93729	3572.4125
2050.96359	3561.9125
2053.98794	3561.4125
2057.01034	3568.5125
2060.03078	3556.6125
2063.04927	3563.3125
2066.06582	3564.1125
2069.08042	3545.5125
2072.09307	3553.2125
2075.10378	3545.3125
2078.11255	3546.8125
2081.11938	3544.5125
2084.12426	3537.1125
2087.12722	3534.9125
2090.12824	3544.5125
2093.12732	3542.6125
2096.12447	3542.8125
2099.11969	3537.1125
2102.11299	3526.7125
2105.10435	3550.4125
2108.09379	3543.4125
2111.08131	3547.8125
2114.0669	3546.4125
2117.05057	3545.2125
2120.03233	3546.5125
2123.01216	3545.5125
2125.99008	3561.0125
2128.96609	3562.3125
2131.94018	3574.4125
2134.91236	3571.7125
2137.88263	3558.1125
2140.851	3562.3125
2143.81746	3567.3125
2146.78201	3569.3125
2149.74466	3554.5125
2152.7054	3553.5125
2155.66425	3570.1125
2158.6212	3577.1125
2161.57625	3569.2125
2164.52941	3559.9125
2167.48067	3560.0125
2170.43004	3563.6125
2173.37752	3554.6125
2176.32311	3555.3125
2179.26681	3559.2125
2182.20863	3550.3125
2185.14856	3561.0125
2188.08661	3563.5125
2191.02278	3568.7125
2193.95707	3550.2125
2196.88948	3563.9125
2199.82001	3552.5125
2202.74867	3564.0125
2205.67545	3560.2125
2208.60037	3566.6125
2211.52341	3554.0125
2214.44458	3540.5125
2217.36388	3544.9125
2220.28132	3525.8125
2223.1969	3512.0125
2226.11061	3518.5125
2229.02246	3500.8125
2231.93245	3503.9125
2234.84058	3484.9125
2237.74686	3485.4125
2240.65128	3481.8125
2243.55385	3487.2125
2246.45456	3483.5125
2249.35343	3476.7125
2252.25044	3469.5125
2255.14561	3473.3125
2258.03893	3470.5125
2260.93041	3474.4125
2263.82004	3462.2125
2266.70783	3457.6125
2269.59378	3437.1125
2272.4779	3438.5125
2275.36017	3421.5125
2278.24061	3420.7125
2281.11922	3408.1125
2283.996	3403.3125
2286.87094	3397.0125
2289.74405	3382.1125
2292.61534	3397.6125
2295.4848	3388.3125
2298.35243	3395.4125
2301.21824	3397.8125
2304.08223	3399.1125
2306.94439	3394.2125
2309.80474	3395.1125
2312.66327	3399.9125
2315.51999	3381.3125
2318.37489	3390.4125
2321.22797	3389.8125
2324.07925	3395.1125
2326.92871	3374.3125
2329.77637	3368.5125
2332.62222	3390.7125
2335.46626	3375.4125
2338.3085	3364.5125
2341.14893	3362.9125
2343.98756	3366.8125
2346.8244	3365.0125
2349.65943	3355.8125
2352.49267	3363.2125
2355.32411	3372.8125
2358.15376	3369.4125
2360.98161	3370.6125
2363.80768	3369.1125
2366.63195	3353.3125
2369.45444	3359.4125
2372.27514	3357.9125
2375.09405	3347.6125
2377.91118	3338.1125
2380.72652	3334.0125
2383.54009	3313.2125
2386.35187	3323.0125
2389.16188	3324.3125
2391.97011	3316.8125
2394.77657	3301.5125
2397.58125	3281.9125
2400.38416	3298.1125
2403.18529	3284.9125
2405.98466	3284.3125
2408.78226	3269.3125
2411.57809	3267.9125
2414.37216	3252.7125
2417.16446	3264.3125
2419.955	3256.1125
2422.74378	3255.8125
2425.5308	3248.4125
2428.31606	3236.7125
2431.09956	3246.7125
2433.88131	3233.9125
2436.6613	3235.4125
2439.43954	3245.7125
2442.21603	3237.8125
2444.99077	3236.9125
2447.76377	3236.1125
2450.53501	3230.8125
2453.30451	3224.3125
2456.07226	3224.2125
2458.83827	3221.0125
2461.60254	3211.0125
2464.36507	3208.6125
2467.12586	3214.3125
2469.88492	3215.2125
2472.64224	3218.3125
2475.39782	3218.1125
2478.15167	3224.1125
2480.90379	3219.7125
2483.65417	3210.0125
2486.40283	3227.5125
2489.14976	3212.5125
2491.89497	3233.3125
2494.63845	3230.8125
2497.3802	3234.4125
2500.12024	3222.3125
2502.85855	3202.7125
2505.59514	3200.9125
2508.33002	3193.7125
2511.06318	3189.0125
2513.79462	3170.9125
2516.52435	3188.0125
2519.25237	3171.3125
2521.97867	3182.4125
2524.70327	3171.0125
2527.42616	3174.7125
2530.14734	3165.1125
2532.86681	3173.1125
2535.58458	3160.6125
2538.30065	3143.7125
2541.01501	3164.0125
2543.72768	3148.7125
2546.43864	3160.1125
2549.14791	3154.0125
2551.85548	3167.4125
2554.56136	3157.3125
2557.26554	3145.6125
2559.96803	3138.6125
2562.66883	3137.2125
2565.36794	3130.1125
2568.06536	3123.9125
2570.7611	3118.0125
2573.45514	3123.8125
2576.14751	3115.9125
2578.83819	3101.0125
2581.52719	3108.7125
2584.21451	3087.1125
2586.90015	3097.1125
2589.58411	3090.9125
2592.2664	3088.8125
2594.94701	3075.5125
2597.62594	3080.7125
2600.30321	3081.4125
2602.9788	3089.7125
2605.65273	3083.5125
2608.32498	3078.2125
2610.99557	3069.0125
2613.66449	3076.7125
2616.33175	3075.9125
2618.99734	3075.8125
2621.66128	3065.1125
2624.32355	3079.5125
2626.98416	3076.5125
2629.64311	3075.1125
2632.30041	3075.0125
2634.95605	3058.6125
2637.61004	3054.2125
2640.26238	3061.2125
2642.91306	3052.6125
2645.56209	3050.4125
2648.20948	3053.3125
2650.85521	3048.6125
2653.4993	3056.4125
2656.14175	3048.0125
2658.78255	3041.1125
2661.42171	3050.3125
2664.05923	3053.1125
2666.6951	3050.1125
2669.32934	3050.9125
2671.96194	3055.3125
2674.59291	3060.0125
2677.22224	3046.9125
2679.84993	3051.9125
2682.476	3045.0125
2685.10043	3045.8125
2687.72324	3030.6125
2690.34441	3041.4125
2692.96396	3034.4125
2695.58188	3042.7125
2698.19818	3036.3125
2700.81285	3040.4125
2703.4259	3034.2125
2706.03733	3035.8125
2708.64714	3023.8125
2711.25533	3029.9125
2713.86191	3016.9125
2716.46687	3038.9125
2719.07021	3033.3125
2721.67194	3046.6125
2724.27206	3044.9125
2726.87057	3032.6125
2729.46747	3040.2125
2732.06276	3040.7125
2734.65644	3021.3125
2737.24852	3034.6125
2739.83899	3035.6125
2742.42786	3017.9125
2745.01513	3024.9125
2747.60079	3025.7125
2750.18486	3014.2125
2752.76733	3023.1125
2755.3482	3013.3125
2757.92747	3008.8125
2760.50515	3007.1125
2763.08123	3000.5125
2765.65573	2990.9125
2768.22863	2996.8125
2770.79994	2991.2125
2773.36967	2999.1125
2775.9378	2987.4125
2778.50435	2993.8125
2781.06932	2982.5125
2783.6327	2998.2125
2786.1945	2985.0125
2788.75471	2982.2125
2791.31335	2968.9125
2793.87041	2967.6125
2796.42589	2965.1125
2798.97979	2961.3125
2801.53212	2958.1125
2804.08288	2953.0125
2806.63206	2953.9125
2809.17967	2936.9125
2811.72571	2941.6125
2814.27018	2944.2125
2816.81308	2918.7125
2819.35442	2925.4125
2821.89419	2914.3125
2824.43239	2916.4125
2826.96904	2905.2125
2829.50412	2911.9125
2832.03763	2905.3125
2834.56959	2897.8125
2837.1	2898.0125
2839.62884	2886.7125
2842.15613	2906.7125
2844.68186	2901.9125
2847.20604	2898.3125
2849.72867	2893.1125
2852.24974	2880.8125
2854.76927	2880.1125
2857.28724	2875.5125
2859.80367	2866.6125
2862.31855	2864.8125
2864.83189	2875.9125
2867.34368	2860.5125
2869.85393	2861.8125
2872.36264	2863.6125
2874.8698	2853.6125
2877.37543	2856.0125
2879.87952	2845.0125
2882.38207	2846.7125
2884.88308	2849.3125
2887.38256	2848.2125
2889.88051	2841.6125
2892.37692	2841.5125
2894.8718	2832.7125
2897.36515	2855.3125
2899.85698	2846.5125
2902.34727	2841.9125
2904.83604	2841.2125
2907.32328	2866.2125
2909.809	2861.6125
2912.29319	2867.2125
2914.77587	2849.5125
2917.25702	2862.0125
2919.73665	2857.6125
2922.21476	2874.1125
2924.69136	2857.7125
2927.16644	2855.7125
2929.64	2850.5125
2932.11205	2852.8125
2934.58258	2821.5125
2937.05161	2829.5125
2939.51912	2831.4125
2941.98513	2832.5125
2944.44962	2831.7125
2946.91261	2827.7125
2949.37409	2835.9125
2951.83407	2821.2125
2954.29254	2825.3125
2956.74951	2819.1125
2959.20498	2819.5125
2961.65895	2807.4125
2964.11142	2804.8125
2966.56239	2801.2125
2969.01186	2808.9125
2971.45984	2806.8125
2973.90632	2799.6125
2976.35131	2810.0125
2978.7948	2793.5125
2981.23681	2791.6125
2983.67732	2781.1125
2986.11635	2779.0125
2988.55388	2773.5125
2990.98993	2776.2125
2993.4245	2771.7125
2995.85758	2763.0125
2998.28917	2750.3125
3000.71928	2742.4125
3003.14791	2734.0125
3005.57506	2738.4125
3008.00073	2726.5125
3010.42493	2718.0125
3012.84764	2714.6125
3015.26888	2696.9125
3017.68865	2690.0125
3020.10694	2700.6125
3022.52376	2697.8125
3024.9391	2689.3125
3027.35298	2687.7125
3029.76539	2678.0125
3032.17632	2664.6125
3034.5858	2671.5125
3036.9938	2661.6125
3039.40034	2660.3125
3041.80542	2660.0125
3044.20903	2652.2125
3046.61118	2637.3125
3049.01187	2638.6125
3051.4111	2631.1125
3053.80888	2637.0125
3056.20519	2625.9125
3058.60005	2618.8125
3060.99345	2614.2125
3063.3854	2610.1125
3065.7759	2618.5125
3068.16494	2603.1125
3070.55254	2591.2125
3072.93868	2600.5125
3075.32338	2591.5125
3077.70662	2577.9125
3080.08842	2563.3125
3082.46878	2549.0125
3084.84769	2548.5125
3087.22515	2556.6125
3089.60118	2547.4125
3091.97576	2547.1125
3094.3489	2541.8125
3096.72061	2543.3125
3099.09087	2551.3125
3101.4597	2544.2125
3103.82709	2545.6125
3106.19305	2532.5125
3108.55757	2538.7125
3110.92066	2543.4125
3113.28232	2542.4125
3115.64255	2525.7125
3118.00134	2507.6125
3120.35871	2510.0125
3122.71466	2496.0125
3125.06917	2516.4125
3127.42226	2500.0125
