Data from AgNPs_UA_10uM_CRN_500uM_SU_RamanShift__34__13-11-00-260.txt Node

Date: Thu Aug 04 13:11:00 BST 2022
User: TCL
Spectrometer: QEP01345
Trigger mode: 4
Integration Time (sec): 1.000000E0
Scans to average: 10
Electric dark correction enabled: true
Nonlinearity correction enabled: false
Boxcar width: 0
XAxis mode: Raman Shifts
Number of Pixels in Spectrum: 1044
>>>>>Begin Spectral Data<<<<<
46.04893	0.0875
50.45542	-0.2125
54.85868	-0.1125
59.25871	0.7875
63.6555	18.7875
68.04907	15.8875
72.43941	19.2875
76.82654	18.7875
81.21044	18.4875
85.59113	21.7875
89.96862	22.6875
94.34289	21.8875
98.71396	22.8875
103.08183	24.4875
107.4465	23.5875
111.80798	24.2875
116.16626	24.9875
120.52136	27.6875
124.87327	28.1875
129.222	28.5875
133.56755	29.6875
137.90993	32.7875
142.24913	38.4875
146.58517	43.3875
150.91804	49.2875
155.24774	59.4875
159.57429	74.3875
163.89768	98.4875
168.21792	123.9875
172.53501	174.0875
176.84895	239.9875
181.15975	343.7875
185.46741	485.5875
189.77193	678.4875
194.07331	903.9875
198.37157	1170.7875
202.6667	1442.6875
206.9587	1716.7875
211.24758	2001.8875
215.53334	2280.8875
219.81599	2573.1875
224.09553	2892.7875
228.37195	3244.8875
232.64527	3629.1875
236.91549	4018.6875
241.18261	4398.5875
245.44663	4741.0875
249.70755	5049.8875
253.96539	5291.2875
258.22014	5507.2875
262.4718	5694.3875
266.72039	5784.9875
270.96589	5827.1875
275.20832	5810.8875
279.44768	5724.4875
283.68397	5655.2875
287.91719	5598.2875
292.14735	5571.8875
296.37445	5597.0875
300.59849	5669.4875
304.81948	5783.2875
309.03742	5889.8875
313.25231	5946.0875
317.46415	5907.3875
321.67296	5805.7875
325.87872	5690.6875
330.08145	5629.3875
334.28114	5633.8875
338.47781	5695.6875
342.67145	5786.0875
346.86207	5911.7875
351.04966	6086.3875
355.23424	6281.8875
359.4158	6386.4875
363.59435	6471.2875
367.76989	6490.6875
371.94243	6518.1875
376.11196	6545.5875
380.27849	6570.9875
384.44203	6605.7875
388.60257	6656.1875
392.76012	6705.0875
396.91468	6804.4875
401.06626	6899.1875
405.21485	6948.7875
409.36047	6915.5875
413.50311	6811.6875
417.64277	6726.5875
421.77947	6650.0875
425.9132	6632.4875
430.04396	6661.2875
434.17176	6674.8875
438.2966	6724.9875
442.41849	6823.5875
446.53742	6923.7875
450.6534	7044.7875
454.76644	7144.7875
458.87653	7182.0875
462.98368	7204.5875
467.08789	7192.9875
471.18916	7147.1875
475.2875	7052.2875
479.38291	6978.4875
483.4754	6912.0875
487.56496	6897.6875
491.6516	6873.8875
495.73531	6901.9875
499.81612	6936.8875
503.89401	6989.4875
507.96899	7022.0875
512.04106	7050.0875
516.11023	7089.4875
520.1765	7122.3875
524.23987	7136.1875
528.30034	7146.2875
532.35792	7139.3875
536.41261	7123.8875
540.46441	7063.6875
544.51333	7076.9875
548.55936	7116.7875
552.60252	7178.4875
556.64279	7276.2875
560.6802	7327.9875
564.71473	7383.4875
568.7464	7412.0875
572.7752	7419.6875
576.80114	7314.1875
580.82422	7249.3875
584.84444	7241.2875
588.86181	7252.8875
592.87633	7290.4875
596.888	7413.3875
600.89682	7624.1875
604.9028	8123.1875
608.90594	9097.9875
612.90624	10040.1875
616.90371	9527.0875
620.89834	8202.5875
624.89015	7643.8875
628.87913	7616.0875
632.86528	7702.1875
636.84862	7772.0875
640.82913	7717.5875
644.80683	7555.7875
648.78172	7480.4875
652.75379	7475.5875
656.72306	7617.2875
660.68952	7729.4875
664.65319	7727.7875
668.61405	7698.4875
672.57211	7737.2875
676.52738	7779.8875
680.47986	7669.0875
684.42955	7575.2875
688.37646	7586.4875
692.32058	7620.9875
696.26192	7712.5875
700.20048	7801.1875
704.13626	7852.0875
708.06928	7807.3875
711.99952	7743.2875
715.927	7745.6875
719.85171	7775.5875
723.77365	7800.8875
727.69284	7791.4875
731.60928	7762.4875
735.52295	7759.1875
739.43388	7791.6875
743.34206	7808.5875
747.24749	7820.5875
751.15017	7824.4875
755.05012	7888.2875
758.94733	8034.5875
762.8418	8382.9875
766.73354	8938.2875
770.62254	9429.7875
774.50882	9534.2875
778.39237	9349.7875
782.27321	9019.7875
786.15132	8593.3875
790.02671	8256.9875
793.89938	8081.0875
797.76935	7986.8875
801.6366	7958.5875
805.50115	7900.6875
809.36299	7888.5875
813.22213	7912.8875
817.07857	7919.8875
820.93231	7927.9875
824.78336	7931.2875
828.63172	7948.1875
832.47738	7937.9875
836.32036	7947.3875
840.16066	7949.2875
843.99827	7938.5875
847.8332	7959.3875
851.66546	7972.3875
855.49504	8000.6875
859.32195	8015.3875
863.1462	8033.7875
866.96777	8032.9875
870.78668	8038.2875
874.60293	8065.7875
878.41652	8100.1875
882.22745	8154.9875
886.03573	8176.5875
889.84136	8205.3875
893.64433	8169.2875
897.44466	8155.7875
901.24235	8176.0875
905.0374	8142.0875
908.8298	8145.7875
912.61957	8140.4875
916.40671	8138.8875
920.19121	8147.8875
923.97308	8157.9875
927.75233	8173.0875
931.52895	8244.9875
935.30295	8223.1875
939.07433	8129.1875
942.84309	8103.8875
946.60924	8091.2875
950.37278	8069.9875
954.13371	8091.3875
957.89203	8101.9875
961.64774	8075.6875
965.40086	8082.2875
969.15137	8066.5875
972.89929	8085.4875
976.64461	8080.4875
980.38733	8087.5875
984.12747	8090.9875
987.86502	8112.7875
991.59999	8125.9875
995.33237	8160.9875
999.06217	8221.7875
1002.78939	8273.7875
1006.51404	8391.7875
1010.23611	8456.7875
1013.95561	8537.9875
1017.67255	8539.9875
1021.38692	8550.9875
1025.09872	8501.1875
1028.80796	8454.6875
1032.51465	8437.0875
1036.21877	8443.1875
1039.92035	8434.1875
1043.61937	8464.0875
1047.31584	8469.7875
1051.00976	8512.4875
1054.70114	8545.9875
1058.38998	8555.7875
1062.07627	8598.1875
1065.76003	8641.9875
1069.44126	8697.2875
1073.11995	8809.1875
1076.79611	8950.3875
1080.46974	9005.4875
1084.14085	9049.9875
1087.80943	9074.2875
1091.47549	9109.5875
1095.13903	9122.5875
1098.80005	9163.8875
1102.45857	9216.6875
1106.11456	9220.5875
1109.76805	9116.7875
1113.41903	9056.7875
1117.06751	9070.2875
1120.71348	9190.4875
1124.35696	9241.1875
1127.99793	9313.5875
1131.63641	9240.4875
1135.2724	9072.5875
1138.90589	8956.8875
1142.5369	8914.7875
1146.16542	8864.3875
1149.79145	8852.3875
1153.415	8792.2875
1157.03607	8761.6875
1160.65467	8815.7875
1164.27079	8890.4875
1167.88443	9077.7875
1171.49561	9301.7875
1175.10432	9654.4875
1178.71056	10087.7875
1182.31434	10495.2875
1185.91565	10676.0875
1189.51451	10690.1875
1193.11091	10664.5875
1196.70485	10584.7875
1200.29634	10462.0875
1203.88538	10291.1875
1207.47197	10086.1875
1211.05612	9822.1875
1214.63782	9595.1875
1218.21708	9424.1875
1221.79391	9317.4875
1225.36829	9282.9875
1228.94024	9271.0875
1232.50976	9267.9875
1236.07685	9316.8875
1239.6415	9345.4875
1243.20374	9378.7875
1246.76355	9411.3875
1250.32093	9454.3875
1253.8759	9548.7875
1257.42845	9695.8875
1260.97859	9844.0875
1264.52631	9982.0875
1268.07163	10096.3875
1271.61453	10179.0875
1275.15503	10172.2875
1278.69312	10145.1875
1282.22882	10158.4875
1285.76211	10189.6875
1289.29301	10284.2875
1292.82151	10399.5875
1296.34761	10525.6875
1299.87133	10687.2875
1303.39266	11024.4875
1306.9116	11473.4875
1310.42815	11973.1875
1313.94233	12153.8875
1317.45412	11956.3875
1320.96354	11609.4875
1324.47058	11266.7875
1327.97525	10962.2875
1331.47754	10778.6875
1334.97747	10727.5875
1338.47502	10792.4875
1341.97022	11036.1875
1345.46305	11454.9875
1348.95352	12024.5875
1352.44163	12639.9875
1355.92738	13159.5875
1359.41078	13696.2875
1362.89183	14088.7875
1366.37053	13628.6875
1369.84688	12416.9875
1373.32088	11240.5875
1376.79254	10579.1875
1380.26186	10264.6875
1383.72883	10072.9875
1387.19347	9836.8875
1390.65578	9622.3875
1394.11575	9464.1875
1397.57339	9327.5875
1401.0287	9269.3875
1404.48168	9268.8875
1407.93234	9333.1875
1411.38068	9369.4875
1414.82669	9450.7875
1418.27039	9439.4875
1421.71177	9430.4875
1425.15083	9359.1875
1428.58758	9306.9875
1432.02203	9289.3875
1435.45416	9328.1875
1438.88399	9307.4875
1442.31151	9324.5875
1445.73673	9342.4875
1449.15965	9353.7875
1452.58027	9337.0875
1455.9986	9359.2875
1459.41463	9376.4875
1462.82837	9428.6875
1466.23982	9542.0875
1469.64898	9673.8875
1473.05586	9770.7875
1476.46045	9855.3875
1479.86276	9954.2875
1483.26279	10024.7875
1486.66054	10101.3875
1490.05602	10253.8875
1493.44922	10513.9875
1496.84016	10903.5875
1500.22882	11434.2875
1503.61521	12072.2875
1506.99934	12715.4875
1510.38121	13050.8875
1513.76081	12862.2875
1517.13816	12249.8875
1520.51324	11461.2875
1523.88607	10841.4875
1527.25665	10474.9875
1530.62498	10329.5875
1533.99105	10239.7875
1537.35488	10196.7875
1540.71647	10146.1875
1544.07581	10104.0875
1547.4329	10048.2875
1550.78776	9995.7875
1554.14038	9905.9875
1557.49077	9842.8875
1560.83892	9933.6875
1564.18484	10026.6875
1567.52853	10172.0875
1570.86999	10269.6875
1574.20922	10318.4875
1577.54624	10237.5875
1580.88103	10015.2875
1584.2136	9752.5875
1587.54395	9605.0875
1590.87208	9638.1875
1594.19801	9786.9875
1597.52172	9985.1875
1600.84321	10070.4875
1604.16251	10049.9875
1607.47959	9986.3875
1610.79447	9794.0875
1614.10715	9546.6875
1617.41763	9278.9875
1620.7259	9095.1875
1624.03199	8942.1875
1627.33587	8898.3875
1630.63757	8940.7875
1633.93707	9086.8875
1637.23439	9346.3875
1640.52951	9793.2875
1643.82246	10343.3875
1647.11321	10884.5875
1650.40179	11130.4875
1653.68819	10825.4875
1656.97241	10102.1875
1660.25446	9410.1875
1663.53433	8921.0875
1666.81203	8584.1875
1670.08756	8411.8875
1673.36092	8302.0875
1676.63211	8219.8875
1679.90115	8163.2875
1683.16801	8082.6875
1686.43272	8052.2875
1689.69527	8029.0875
1692.95567	7993.7875
1696.2139	7958.9875
1699.46999	7946.8875
1702.72392	7932.7875
1705.97571	7925.0875
1709.22535	7930.4875
1712.47284	7945.3875
1715.71819	7933.5875
1718.96139	7931.8875
1722.20246	7948.3875
1725.44139	7945.0875
1728.67818	7896.9875
1731.91284	7859.9875
1735.14537	7826.9875
1738.37576	7827.3875
1741.60403	7793.1875
1744.83017	7775.6875
1748.05418	7777.3875
1751.27607	7772.6875
1754.49584	7757.6875
1757.71349	7760.9875
1760.92903	7760.7875
1764.14244	7732.2875
1767.35375	7712.1875
1770.56294	7718.3875
1773.77002	7713.7875
1776.97499	7681.4875
1780.17785	7660.4875
1783.37861	7631.0875
1786.57727	7641.2875
1789.77382	7652.2875
1792.96828	7634.7875
1796.16064	7615.2875
1799.3509	7577.5875
1802.53907	7614.0875
1805.72514	7578.7875
1808.90913	7556.3875
1812.09102	7555.0875
1815.27083	7540.5875
1818.44856	7509.9875
1821.6242	7509.1875
1824.79776	7504.0875
1827.96924	7490.6875
1831.13864	7472.6875
1834.30597	7471.9875
1837.47122	7446.9875
1840.6344	7432.8875
1843.7955	7456.7875
1846.95454	7445.9875
1850.11151	7437.4875
1853.26642	7449.4875
1856.41926	7450.9875
1859.57004	7468.6875
1862.71876	7469.7875
1865.86542	7429.4875
1869.01003	7414.0875
1872.15258	7396.7875
1875.29308	7389.5875
1878.43152	7396.4875
1881.56792	7371.3875
1884.70227	7373.1875
1887.83457	7328.8875
1890.96482	7326.3875
1894.09304	7325.3875
1897.21921	7313.3875
1900.34335	7303.9875
1903.46544	7304.2875
1906.58551	7312.7875
1909.70353	7279.8875
1912.81953	7300.6875
1915.93349	7273.5875
1919.04543	7249.0875
1922.15534	7243.8875
1925.26322	7263.0875
1928.36908	7210.0875
1931.47292	7212.2875
1934.57473	7217.2875
1937.67453	7184.5875
1940.77232	7156.3875
1943.86808	7129.3875
1946.96184	7109.6875
1950.05358	7121.6875
1953.14331	7106.6875
1956.23103	7070.0875
1959.31675	7050.9875
1962.40046	7037.1875
1965.48217	6999.9875
1968.56188	6967.4875
1971.63959	6952.1875
1974.7153	6965.0875
1977.78901	6950.1875
1980.86073	6921.8875
1983.93046	6887.8875
1986.99819	6866.1875
1990.06394	6866.3875
1993.1277	6823.6875
1996.18947	6817.7875
1999.24925	6782.5875
2002.30706	6761.6875
2005.36288	6734.7875
2008.41672	6730.9875
2011.46859	6700.8875
2014.51848	6692.6875
2017.56639	6666.6875
2020.61233	6627.4875
2023.6563	6616.8875
2026.6983	6610.2875
2029.73833	6583.1875
2032.7764	6578.4875
2035.8125	6559.6875
2038.84664	6539.3875
2041.87881	6520.6875
2044.90903	6509.0875
2047.93729	6504.3875
2050.96359	6490.8875
2053.98794	6477.3875
2057.01034	6474.8875
2060.03078	6479.1875
2063.04927	6475.9875
2066.06582	6481.9875
2069.08042	6451.0875
2072.09307	6457.7875
2075.10378	6445.5875
2078.11255	6453.2875
2081.11938	6440.8875
2084.12426	6400.0875
2087.12722	6422.5875
2090.12824	6444.7875
2093.12732	6428.7875
2096.12447	6419.0875
2099.11969	6405.0875
2102.11299	6450.3875
2105.10435	6423.4875
2108.09379	6425.8875
2111.08131	6430.5875
2114.0669	6441.4875
2117.05057	6451.2875
2120.03233	6452.6875
2123.01216	6438.3875
2125.99008	6444.5875
2128.96609	6451.5875
2131.94018	6455.3875
2134.91236	6465.5875
2137.88263	6451.0875
2140.851	6467.7875
2143.81746	6456.4875
2146.78201	6467.9875
2149.74466	6460.6875
2152.7054	6456.0875
2155.66425	6467.3875
2158.6212	6443.8875
2161.57625	6440.0875
2164.52941	6425.2875
2167.48067	6432.4875
2170.43004	6429.3875
2173.37752	6414.4875
2176.32311	6436.9875
2179.26681	6430.5875
2182.20863	6445.8875
2185.14856	6447.1875
2188.08661	6437.7875
2191.02278	6441.2875
2193.95707	6437.0875
2196.88948	6429.0875
2199.82001	6424.5875
2202.74867	6410.3875
2205.67545	6415.7875
2208.60037	6415.6875
2211.52341	6390.7875
2214.44458	6355.7875
2217.36388	6348.3875
2220.28132	6329.0875
2223.1969	6307.9875
2226.11061	6293.8875
2229.02246	6290.7875
2231.93245	6280.2875
2234.84058	6290.3875
2237.74686	6269.1875
2240.65128	6247.8875
2243.55385	6247.0875
2246.45456	6235.2875
2249.35343	6225.7875
2252.25044	6220.1875
2255.14561	6199.5875
2258.03893	6193.0875
2260.93041	6184.4875
2263.82004	6174.8875
2266.70783	6152.4875
2269.59378	6153.6875
2272.4779	6127.9875
2275.36017	6115.2875
2278.24061	6107.8875
2281.11922	6064.1875
2283.996	6072.5875
2286.87094	6042.0875
2289.74405	6057.9875
2292.61534	6065.9875
2295.4848	6026.5875
2298.35243	6021.0875
2301.21824	6016.6875
2304.08223	5999.2875
2306.94439	6008.2875
2309.80474	5990.7875
2312.66327	5999.9875
2315.51999	6001.9875
2318.37489	5987.8875
2321.22797	5974.2875
2324.07925	5940.8875
2326.92871	5947.7875
2329.77637	5948.0875
2332.62222	5929.4875
2335.46626	5899.6875
2338.3085	5897.5875
2341.14893	5890.4875
2343.98756	5912.9875
2346.8244	5885.5875
2349.65943	5877.0875
2352.49267	5851.7875
2355.32411	5856.0875
2358.15376	5846.1875
2360.98161	5847.9875
2363.80768	5856.9875
2366.63195	5840.4875
2369.45444	5834.9875
2372.27514	5834.8875
2375.09405	5828.3875
2377.91118	5819.2875
2380.72652	5811.1875
2383.54009	5786.6875
2386.35187	5780.5875
2389.16188	5762.5875
2391.97011	5747.1875
2394.77657	5733.4875
2397.58125	5695.5875
2400.38416	5723.1875
2403.18529	5716.2875
2405.98466	5699.5875
2408.78226	5684.3875
2411.57809	5690.1875
2414.37216	5653.2875
2417.16446	5668.1875
2419.955	5656.9875
2422.74378	5654.7875
2425.5308	5644.4875
2428.31606	5648.7875
2431.09956	5637.0875
2433.88131	5616.7875
2436.6613	5622.8875
2439.43954	5600.3875
2442.21603	5612.1875
2444.99077	5605.8875
2447.76377	5607.3875
2450.53501	5593.9875
2453.30451	5585.4875
2456.07226	5577.4875
2458.83827	5554.8875
2461.60254	5558.3875
2464.36507	5529.4875
2467.12586	5522.3875
2469.88492	5525.0875
2472.64224	5527.4875
2475.39782	5510.7875
2478.15167	5532.1875
2480.90379	5510.3875
2483.65417	5484.3875
2486.40283	5489.9875
2489.14976	5484.9875
2491.89497	5504.7875
2494.63845	5484.3875
2497.3802	5470.6875
2500.12024	5461.9875
2502.85855	5446.5875
2505.59514	5462.3875
2508.33002	5444.4875
2511.06318	5431.4875
2513.79462	5426.5875
2516.52435	5414.5875
2519.25237	5420.8875
2521.97867	5405.7875
2524.70327	5377.7875
2527.42616	5378.8875
2530.14734	5374.2875
2532.86681	5347.1875
2535.58458	5372.7875
2538.30065	5363.4875
2541.01501	5361.8875
2543.72768	5342.3875
2546.43864	5330.5875
2549.14791	5306.6875
2551.85548	5310.1875
2554.56136	5307.8875
2557.26554	5303.0875
2559.96803	5288.1875
2562.66883	5267.6875
2565.36794	5260.5875
2568.06536	5234.6875
2570.7611	5221.7875
2573.45514	5213.0875
2576.14751	5207.8875
2578.83819	5186.7875
2581.52719	5195.4875
2584.21451	5171.7875
2586.90015	5177.8875
2589.58411	5153.6875
2592.2664	5146.4875
2594.94701	5141.0875
2597.62594	5141.2875
2600.30321	5099.8875
2602.9788	5096.9875
2605.65273	5096.6875
2608.32498	5113.1875
2610.99557	5063.7875
2613.66449	5072.1875
2616.33175	5059.5875
2618.99734	5071.4875
2621.66128	5055.8875
2624.32355	5031.2875
2626.98416	5038.9875
2629.64311	5018.3875
2632.30041	5011.8875
2634.95605	4990.7875
2637.61004	4977.5875
2640.26238	4968.7875
2642.91306	4950.4875
2645.56209	4963.1875
2648.20948	4955.0875
2650.85521	4953.7875
2653.4993	4952.3875
2656.14175	4952.5875
2658.78255	4952.2875
2661.42171	4935.5875
2664.05923	4956.6875
2666.6951	4944.0875
2669.32934	4965.1875
2671.96194	4933.9875
2674.59291	4945.0875
2677.22224	4947.9875
2679.84993	4953.1875
2682.476	4938.9875
2685.10043	4927.6875
2687.72324	4942.6875
2690.34441	4924.1875
2692.96396	4921.9875
2695.58188	4925.3875
2698.19818	4913.7875
2700.81285	4915.0875
2703.4259	4904.6875
2706.03733	4909.1875
2708.64714	4908.0875
2711.25533	4909.7875
2713.86191	4900.6875
2716.46687	4890.6875
2719.07021	4896.1875
2721.67194	4910.5875
2724.27206	4908.4875
2726.87057	4888.4875
2729.46747	4899.6875
2732.06276	4895.9875
2734.65644	4876.9875
2737.24852	4870.7875
2739.83899	4865.6875
2742.42786	4852.1875
2745.01513	4855.8875
2747.60079	4830.7875
2750.18486	4835.3875
2752.76733	4836.8875
2755.3482	4811.3875
2757.92747	4808.5875
2760.50515	4803.6875
2763.08123	4793.7875
2765.65573	4790.5875
2768.22863	4766.5875
2770.79994	4747.2875
2773.36967	4769.0875
2775.9378	4748.8875
2778.50435	4740.6875
2781.06932	4743.5875
2783.6327	4748.2875
2786.1945	4734.7875
2788.75471	4715.7875
2791.31335	4691.6875
2793.87041	4696.3875
2796.42589	4687.2875
2798.97979	4670.7875
2801.53212	4664.8875
2804.08288	4653.4875
2806.63206	4631.6875
2809.17967	4624.8875
2811.72571	4623.7875
2814.27018	4598.7875
2816.81308	4593.5875
2819.35442	4595.6875
2821.89419	4567.4875
2824.43239	4559.0875
2826.96904	4564.5875
2829.50412	4556.8875
2832.03763	4535.6875
2834.56959	4536.3875
2837.1	4494.6875
2839.62884	4506.7875
2842.15613	4503.5875
2844.68186	4513.2875
2847.20604	4493.5875
2849.72867	4492.1875
2852.24974	4480.6875
2854.76927	4458.9875
2857.28724	4449.4875
2859.80367	4454.2875
2862.31855	4447.5875
2864.83189	4433.7875
2867.34368	4442.7875
2869.85393	4436.1875
2872.36264	4420.1875
2874.8698	4407.1875
2877.37543	4400.6875
2879.87952	4408.0875
2882.38207	4390.9875
2884.88308	4394.9875
2887.38256	4406.3875
2889.88051	4395.8875
2892.37692	4392.5875
2894.8718	4391.2875
2897.36515	4391.2875
2899.85698	4381.0875
2902.34727	4378.0875
2904.83604	4383.0875
2907.32328	4389.1875
2909.809	4370.8875
2912.29319	4400.1875
2914.77587	4404.8875
2917.25702	4379.6875
2919.73665	4388.5875
2922.21476	4393.1875
2924.69136	4375.6875
2927.16644	4387.8875
2929.64	4372.8875
2932.11205	4360.3875
2934.58258	4334.3875
2937.05161	4352.3875
2939.51912	4343.1875
2941.98513	4343.5875
2944.44962	4325.7875
2946.91261	4322.6875
2949.37409	4319.5875
2951.83407	4328.0875
2954.29254	4319.2875
2956.74951	4302.5875
2959.20498	4318.6875
2961.65895	4310.3875
2964.11142	4316.9875
2966.56239	4293.9875
2969.01186	4300.5875
2971.45984	4292.9875
2973.90632	4291.3875
2976.35131	4273.9875
2978.7948	4283.9875
2981.23681	4269.8875
2983.67732	4266.3875
2986.11635	4244.2875
2988.55388	4234.6875
2990.98993	4215.1875
2993.4245	4226.0875
2995.85758	4207.8875
2998.28917	4207.0875
3000.71928	4184.0875
3003.14791	4177.6875
3005.57506	4186.3875
3008.00073	4143.0875
3010.42493	4147.8875
3012.84764	4130.6875
3015.26888	4153.0875
3017.68865	4119.2875
3020.10694	4134.9875
3022.52376	4107.3875
3024.9391	4098.3875
3027.35298	4081.8875
3029.76539	4071.7875
3032.17632	4068.6875
3034.5858	4070.6875
3036.9938	4057.7875
3039.40034	4044.5875
3041.80542	4042.1875
3044.20903	4027.7875
3046.61118	4038.5875
3049.01187	4012.0875
3051.4111	4012.9875
3053.80888	4010.5875
3056.20519	3993.5875
3058.60005	3967.1875
3060.99345	3972.9875
3063.3854	3973.6875
3065.7759	3963.5875
3068.16494	3944.8875
3070.55254	3938.3875
3072.93868	3920.5875
3075.32338	3911.1875
3077.70662	3907.2875
3080.08842	3900.4875
3082.46878	3914.7875
3084.84769	3871.5875
3087.22515	3873.0875
3089.60118	3876.6875
3091.97576	3864.0875
3094.3489	3879.8875
3096.72061	3867.9875
3099.09087	3863.1875
3101.4597	3854.4875
3103.82709	3848.9875
3106.19305	3857.1875
3108.55757	3858.3875
3110.92066	3842.4875
3113.28232	3837.6875
3115.64255	3819.2875
3118.00134	3804.2875
3120.35871	3817.6875
