Data from AgNPs_UA_5uM_CRN_500uM_SU_RamanShift__0__11-29-23-148.txt Node

Date: Thu Aug 04 11:29:23 BST 2022
User: TCL
Spectrometer: QEP01345
Trigger mode: 4
Integration Time (sec): 1.000000E0
Scans to average: 10
Electric dark correction enabled: true
Nonlinearity correction enabled: false
Boxcar width: 0
XAxis mode: Raman Shifts
Number of Pixels in Spectrum: 1044
>>>>>Begin Spectral Data<<<<<
46.04893	0.025
50.45542	0.725
54.85868	0.425
59.25871	-1.075
63.6555	-54.975
68.04907	-37.875
72.43941	-70.675
76.82654	-53.075
81.21044	-52.675
85.59113	-47.575
89.96862	-72.975
94.34289	-52.275
98.71396	-73.975
103.08183	-54.775
107.4465	-45.975
111.80798	-53.275
116.16626	-39.275
120.52136	-67.475
124.87327	-41.575
129.222	-53.775
133.56755	-41.875
137.90993	-50.575
142.24913	-37.275
146.58517	-25.675
150.91804	-19.475
155.24774	-2.275
159.57429	25.825
163.89768	45.825
168.21792	111.825
172.53501	160.225
176.84895	288.425
181.15975	486.425
185.46741	730.625
189.77193	1028.625
194.07331	1457.925
198.37157	1931.225
202.6667	2393.425
206.9587	2944.125
211.24758	3501.825
215.53334	4133.425
219.81599	4869.525
224.09553	5698.125
228.37195	6572.525
232.64527	7401.925
236.91549	8055.525
241.18261	8381.225
245.44663	8485.525
249.70755	8406.025
253.96539	8399.325
258.22014	8436.425
262.4718	8479.225
266.72039	8469.525
270.96589	8257.125
275.20832	7924.525
279.44768	7549.225
283.68397	7304.325
287.91719	7230.725
292.14735	7412.925
296.37445	7966.925
300.59849	8962.925
304.81948	10355.225
309.03742	11966.225
313.25231	13158.225
317.46415	12983.125
321.67296	11358.225
325.87872	9475.125
330.08145	8393.525
334.28114	8138.425
338.47781	8439.225
342.67145	9018.325
346.86207	10048.025
351.04966	11569.225
355.23424	13061.325
359.4158	13690.625
363.59435	13138.725
367.76989	12226.525
371.94243	11291.125
376.11196	10532.125
380.27849	10014.225
384.44203	9577.725
388.60257	9352.025
392.76012	9354.425
396.91468	9710.425
401.06626	10102.625
405.21485	10113.625
409.36047	9473.425
413.50311	8313.325
417.64277	7268.525
421.77947	6579.725
425.9132	6287.425
430.04396	6142.725
434.17176	6113.825
438.2966	6252.925
442.41849	6451.725
446.53742	6684.925
450.6534	6801.725
454.76644	6770.225
458.87653	6662.925
462.98368	6510.025
467.08789	6366.825
471.18916	6142.525
475.2875	5837.925
479.38291	5583.525
483.4754	5439.325
487.56496	5344.525
491.6516	5305.325
495.73531	5292.125
499.81612	5357.025
503.89401	5545.825
507.96899	5762.125
512.04106	6045.925
516.11023	6335.425
520.1765	6580.625
524.23987	6667.025
528.30034	6608.025
532.35792	6445.925
536.41261	6272.825
540.46441	6040.225
544.51333	5854.325
548.55936	5840.025
552.60252	5994.325
556.64279	6226.525
560.6802	6700.025
564.71473	7708.325
568.7464	9048.925
572.7752	8949.825
576.80114	7261.825
580.82422	5879.925
584.84444	5304.825
588.86181	5140.825
592.87633	5135.725
596.888	5371.425
600.89682	6172.325
604.9028	8938.925
608.90594	16013.825
612.90624	24605.525
616.90371	22305.325
620.89834	11652.425
624.89015	6984.025
628.87913	6459.625
632.86528	7128.425
636.84862	7414.425
640.82913	6606.825
644.80683	5484.725
648.78172	4971.225
652.75379	5156.825
656.72306	5967.525
660.68952	6776.125
664.65319	6322.325
668.61405	5256.825
672.57211	4789.225
676.52738	4802.425
680.47986	4742.725
684.42955	4572.325
688.37646	4493.025
692.32058	4490.225
696.26192	4570.525
700.20048	4714.025
704.13626	4755.525
708.06928	4668.725
711.99952	4629.425
715.927	4683.825
719.85171	4904.925
723.77365	5075.125
727.69284	4925.225
731.60928	4767.025
735.52295	4704.525
739.43388	4773.025
743.34206	4815.925
747.24749	4811.125
751.15017	4859.125
755.05012	5203.125
758.94733	6597.625
762.8418	9724.225
766.73354	13797.025
770.62254	15837.625
774.50882	14988.525
778.39237	13419.925
782.27321	11127.925
786.15132	8080.225
790.02671	6046.025
793.89938	5093.825
797.76935	4799.725
801.6366	4644.225
805.50115	4553.825
809.36299	4498.425
813.22213	4485.025
817.07857	4480.625
820.93231	4508.525
824.78336	4630.325
828.63172	4749.825
832.47738	4808.325
836.32036	4699.625
840.16066	4486.625
843.99827	4341.025
847.8332	4288.925
851.66546	4295.525
855.49504	4276.825
859.32195	4266.025
863.1462	4205.425
866.96777	4198.625
870.78668	4204.525
874.60293	4227.125
878.41652	4297.425
882.22745	4460.825
886.03573	4556.425
889.84136	4509.925
893.64433	4486.525
897.44466	4508.225
901.24235	4513.825
905.0374	4419.425
908.8298	4232.225
912.61957	4100.025
916.40671	4007.225
920.19121	4073.225
923.97308	4288.725
927.75233	4711.525
931.52895	5158.125
935.30295	4922.125
939.07433	4283.025
942.84309	3869.425
946.60924	3733.625
950.37278	3654.525
954.13371	3642.725
957.89203	3639.525
961.64774	3633.925
965.40086	3627.025
969.15137	3594.825
972.89929	3615.325
976.64461	3587.325
980.38733	3586.625
984.12747	3558.825
987.86502	3563.825
991.59999	3615.125
995.33237	3694.025
999.06217	3782.425
1002.78939	3987.825
1006.51404	4302.825
1010.23611	4440.625
1013.95561	4295.625
1017.67255	4082.625
1021.38692	3913.925
1025.09872	3774.725
1028.80796	3670.525
1032.51465	3738.925
1036.21877	3772.225
1039.92035	3849.125
1043.61937	3928.925
1047.31584	3995.725
1051.00976	4010.625
1054.70114	3934.825
1058.38998	3869.325
1062.07627	3842.225
1065.76003	3835.725
1069.44126	3895.725
1073.11995	4002.725
1076.79611	4287.925
1080.46974	4805.325
1084.14085	5577.925
1087.80943	6211.025
1091.47549	6190.325
1095.13903	5537.425
1098.80005	4859.125
1102.45857	4480.025
1106.11456	4455.025
1109.76805	4568.925
1113.41903	4995.825
1117.06751	5667.625
1120.71348	6767.825
1124.35696	8429.025
1127.99793	9607.025
1131.63641	8780.425
1135.2724	7032.525
1138.90589	5853.725
1142.5369	5207.625
1146.16542	4789.525
1149.79145	4507.025
1153.415	4437.325
1157.03607	4510.525
1160.65467	4721.425
1164.27079	5142.325
1167.88443	5737.025
1171.49561	6790.925
1175.10432	8576.625
1178.71056	11102.725
1182.31434	12899.225
1185.91565	12626.325
1189.51451	10975.925
1193.11091	9264.125
1196.70485	8157.125
1200.29634	7721.525
1203.88538	7201.725
1207.47197	6153.325
1211.05612	5194.025
1214.63782	4578.125
1218.21708	4316.725
1221.79391	4199.525
1225.36829	4187.825
1228.94024	4199.825
1232.50976	4201.925
1236.07685	4195.125
1239.6415	4246.025
1243.20374	4377.525
1246.76355	4522.925
1250.32093	4739.225
1253.8759	5029.325
1257.42845	5548.025
1260.97859	6211.825
1264.52631	6865.525
1268.07163	7197.725
1271.61453	7228.925
1275.15503	7017.825
1278.69312	6750.425
1282.22882	6955.925
1285.76211	7918.625
1289.29301	9204.925
1292.82151	10057.625
1296.34761	10426.225
1299.87133	11264.525
1303.39266	13445.225
1306.9116	17524.025
1310.42815	22515.725
1313.94233	24291.025
1317.45412	20442.025
1320.96354	14857.525
1324.47058	10700.925
1327.97525	8176.725
1331.47754	6931.325
1334.97747	6514.225
1338.47502	6700.925
1341.97022	7689.625
1345.46305	9847.125
1348.95352	12954.825
1352.44163	16088.925
1355.92738	19973.825
1359.41078	26922.325
1362.89183	34558.825
1366.37053	33045.925
1369.84688	22565.525
1373.32088	13917.625
1376.79254	10218.925
1380.26186	8558.325
1383.72883	7310.125
1387.19347	6137.625
1390.65578	5271.225
1394.11575	4791.125
1397.57339	4572.825
1401.0287	4426.925
1404.48168	4244.325
1407.93234	4168.925
1411.38068	4260.925
1414.82669	4628.725
1418.27039	5056.725
1421.71177	5157.925
1425.15083	4947.025
1428.58758	4961.825
1432.02203	5468.625
1435.45416	5852.425
1438.88399	5591.325
1442.31151	5224.925
1445.73673	5169.625
1449.15965	5128.425
1452.58027	5006.625
1455.9986	4830.625
1459.41463	4664.025
1462.82837	4685.425
1466.23982	4948.825
1469.64898	5297.125
1473.05586	5423.825
1476.46045	5376.925
1479.86276	5392.125
1483.26279	5638.825
1486.66054	6257.725
1490.05602	7253.225
1493.44922	8838.325
1496.84016	11392.125
1500.22882	15362.825
1503.61521	20906.925
1506.99934	28129.825
1510.38121	35309.125
1513.76081	38195.125
1517.13816	33790.825
1520.51324	25076.925
1523.88607	17176.325
1527.25665	12123.725
1530.62498	9312.825
1533.99105	7663.925
1537.35488	6626.225
1540.71647	6007.325
1544.07581	5771.125
1547.4329	5769.925
1550.78776	5973.825
1554.14038	6288.825
1557.49077	6822.425
1560.83892	7742.725
1564.18484	9216.025
1567.52853	10855.225
1570.86999	11907.625
1574.20922	12071.525
1577.54624	11438.325
1580.88103	9495.125
1584.2136	7159.925
1587.54395	5796.025
1590.87208	5445.125
1594.19801	5835.925
1597.52172	6550.525
1600.84321	6557.925
1604.16251	5768.925
1607.47959	5011.725
1610.79447	4550.225
1614.10715	4210.925
1617.41763	3979.125
1620.7259	3855.125
1624.03199	3917.125
1627.33587	4088.725
1630.63757	4476.825
1633.93707	5130.525
1637.23439	6322.425
1640.52951	8539.325
1643.82246	12313.425
1647.11321	17555.625
1650.40179	21768.125
1653.68819	21596.725
1656.97241	16850.325
1660.25446	11260.325
1663.53433	7422.525
1666.81203	5333.825
1670.08756	4250.325
1673.36092	3670.925
1676.63211	3303.425
1679.90115	3097.125
1683.16801	2937.825
1686.43272	2802.225
1689.69527	2746.025
1692.95567	2663.825
1696.2139	2621.725
1699.46999	2562.825
1702.72392	2553.625
1705.97571	2559.525
1709.22535	2534.925
1712.47284	2586.525
1715.71819	2624.425
1718.96139	2620.225
1722.20246	2598.025
1725.44139	2532.325
1728.67818	2476.025
1731.91284	2397.125
1735.14537	2335.625
1738.37576	2302.125
1741.60403	2283.725
1744.83017	2255.025
1748.05418	2244.225
1751.27607	2236.525
1754.49584	2166.325
1757.71349	2112.725
1760.92903	2095.725
1764.14244	2031.525
1767.35375	1999.025
1770.56294	1966.425
1773.77002	1923.125
1776.97499	1913.425
1780.17785	1854.025
1783.37861	1847.525
1786.57727	1856.825
1789.77382	1767.825
1792.96828	1822.325
1796.16064	1828.725
1799.3509	1802.425
1802.53907	1819.825
1805.72514	1782.925
1808.90913	1759.925
1812.09102	1764.525
1815.27083	1750.525
1818.44856	1737.925
1821.6242	1736.225
1824.79776	1717.725
1827.96924	1695.825
1831.13864	1678.525
1834.30597	1672.525
1837.47122	1633.525
1840.6344	1604.825
1843.7955	1584.525
1846.95454	1568.525
1850.11151	1577.125
1853.26642	1539.325
1856.41926	1550.125
1859.57004	1553.625
1862.71876	1564.125
1865.86542	1571.725
1869.01003	1568.225
1872.15258	1549.225
1875.29308	1570.125
1878.43152	1581.425
1881.56792	1560.425
1884.70227	1546.525
1887.83457	1542.225
1890.96482	1520.725
1894.09304	1506.325
1897.21921	1513.425
1900.34335	1508.525
1903.46544	1493.825
1906.58551	1508.425
1909.70353	1503.325
1912.81953	1500.925
1915.93349	1495.025
1919.04543	1492.725
1922.15534	1464.225
1925.26322	1470.825
1928.36908	1429.425
1931.47292	1416.925
1934.57473	1409.525
1937.67453	1366.125
1940.77232	1326.625
1943.86808	1326.925
1946.96184	1325.125
1950.05358	1305.925
1953.14331	1306.325
1956.23103	1316.025
1959.31675	1308.925
1962.40046	1276.025
1965.48217	1326.225
1968.56188	1346.825
1971.63959	1350.625
1974.7153	1360.425
1977.78901	1353.825
1980.86073	1312.225
1983.93046	1272.325
1986.99819	1186.825
1990.06394	1191.925
1993.1277	1220.925
1996.18947	1201.825
1999.24925	1174.225
2002.30706	1179.625
2005.36288	1181.225
2008.41672	1163.425
2011.46859	1148.225
2014.51848	1136.625
2017.56639	1121.825
2020.61233	1125.425
2023.6563	1119.625
2026.6983	1088.925
2029.73833	1106.125
2032.7764	1105.925
2035.8125	1066.325
2038.84664	1078.925
2041.87881	1072.325
2044.90903	1090.525
2047.93729	1076.525
2050.96359	1052.925
2053.98794	1064.625
2057.01034	1056.725
2060.03078	1029.825
2063.04927	1024.425
2066.06582	1017.325
2069.08042	995.525
2072.09307	1008.825
2075.10378	995.125
2078.11255	1000.925
2081.11938	1005.025
2084.12426	987.325
2087.12722	994.125
2090.12824	990.225
2093.12732	1001.625
2096.12447	1005.025
2099.11969	996.625
2102.11299	983.525
2105.10435	1013.625
2108.09379	997.225
2111.08131	992.525
2114.0669	1005.025
2117.05057	1008.325
2120.03233	1006.925
2123.01216	1043.625
2125.99008	1055.925
2128.96609	1053.425
2131.94018	1067.925
2134.91236	1042.025
2137.88263	1020.025
2140.851	1013.425
2143.81746	1011.525
2146.78201	981.425
2149.74466	955.625
2152.7054	955.725
2155.66425	947.025
2158.6212	923.525
2161.57625	910.725
2164.52941	885.725
2167.48067	914.525
2170.43004	916.325
2173.37752	930.525
2176.32311	922.725
2179.26681	933.325
2182.20863	943.825
2185.14856	939.325
2188.08661	932.625
2191.02278	928.725
2193.95707	909.025
2196.88948	889.025
2199.82001	896.425
2202.74867	875.425
2205.67545	881.625
2208.60037	893.525
2211.52341	888.625
2214.44458	870.025
2217.36388	880.925
2220.28132	864.825
2223.1969	859.225
2226.11061	859.225
2229.02246	841.825
2231.93245	847.325
2234.84058	833.925
2237.74686	830.625
2240.65128	831.225
2243.55385	857.125
2246.45456	825.625
2249.35343	862.525
2252.25044	863.525
2255.14561	878.525
2258.03893	911.225
2260.93041	922.725
2263.82004	937.525
2266.70783	942.825
2269.59378	923.425
2272.4779	920.725
2275.36017	936.825
2278.24061	929.225
2281.11922	887.325
2283.996	895.825
2286.87094	871.525
2289.74405	876.725
2292.61534	860.625
2295.4848	844.125
2298.35243	836.525
2301.21824	818.225
2304.08223	811.125
2306.94439	826.625
2309.80474	828.225
2312.66327	821.425
2315.51999	810.725
2318.37489	812.825
2321.22797	797.725
2324.07925	791.325
2326.92871	797.325
2329.77637	785.925
2332.62222	787.725
2335.46626	781.925
2338.3085	778.225
2341.14893	803.725
2343.98756	810.225
2346.8244	804.625
2349.65943	798.125
2352.49267	820.325
2355.32411	839.825
2358.15376	839.925
2360.98161	867.125
2363.80768	865.225
2366.63195	890.925
2369.45444	907.225
2372.27514	914.225
2375.09405	928.825
2377.91118	892.325
2380.72652	885.725
2383.54009	875.725
2386.35187	868.825
2389.16188	841.525
2391.97011	832.025
2394.77657	813.525
2397.58125	807.925
2400.38416	798.025
2403.18529	780.325
2405.98466	765.825
2408.78226	770.325
2411.57809	767.125
2414.37216	758.325
2417.16446	762.325
2419.955	748.025
2422.74378	763.625
2425.5308	753.125
2428.31606	771.425
2431.09956	782.725
2433.88131	769.325
2436.6613	792.225
2439.43954	790.925
2442.21603	790.325
2444.99077	792.925
2447.76377	813.925
2450.53501	805.725
2453.30451	813.025
2456.07226	830.025
2458.83827	822.625
2461.60254	780.125
2464.36507	820.125
2467.12586	798.825
2469.88492	820.525
2472.64224	814.725
2475.39782	801.725
2478.15167	827.025
2480.90379	849.325
2483.65417	879.025
2486.40283	895.925
2489.14976	923.025
2491.89497	916.425
2494.63845	914.325
2497.3802	896.925
2500.12024	890.925
2502.85855	883.225
2505.59514	872.525
2508.33002	842.325
2511.06318	796.325
2513.79462	783.325
2516.52435	726.325
2519.25237	693.625
2521.97867	683.125
2524.70327	684.125
2527.42616	676.425
2530.14734	682.525
2532.86681	664.925
2535.58458	669.325
2538.30065	665.725
2541.01501	682.425
2543.72768	677.125
2546.43864	685.425
2549.14791	692.125
2551.85548	693.525
2554.56136	696.825
2557.26554	717.525
2559.96803	717.125
2562.66883	719.725
2565.36794	715.925
2568.06536	696.725
2570.7611	729.025
2573.45514	715.125
2576.14751	713.925
2578.83819	700.125
2581.52719	692.125
2584.21451	698.125
2586.90015	670.625
2589.58411	659.725
2592.2664	671.425
2594.94701	677.925
2597.62594	675.425
2600.30321	627.625
2602.9788	646.425
2605.65273	651.825
2608.32498	658.625
2610.99557	684.625
2613.66449	653.225
2616.33175	675.325
2618.99734	680.525
2621.66128	685.525
2624.32355	670.225
2626.98416	657.725
2629.64311	648.425
2632.30041	641.025
2634.95605	621.125
2637.61004	603.925
2640.26238	586.025
2642.91306	583.025
2645.56209	607.025
2648.20948	595.225
2650.85521	583.725
2653.4993	614.525
2656.14175	614.025
2658.78255	604.225
2661.42171	585.925
2664.05923	624.325
2666.6951	639.025
2669.32934	641.425
2671.96194	662.825
2674.59291	647.625
2677.22224	656.825
2679.84993	653.025
2682.476	645.025
2685.10043	635.525
2687.72324	622.425
2690.34441	620.725
2692.96396	613.525
2695.58188	627.225
2698.19818	612.525
2700.81285	600.725
2703.4259	595.625
2706.03733	570.325
2708.64714	581.625
2711.25533	619.225
2713.86191	624.325
2716.46687	614.225
2719.07021	616.425
2721.67194	615.625
2724.27206	629.425
2726.87057	608.525
2729.46747	595.825
2732.06276	589.325
2734.65644	582.325
2737.24852	580.925
2739.83899	554.225
2742.42786	564.125
2745.01513	575.925
2747.60079	546.925
2750.18486	527.925
2752.76733	536.925
2755.3482	524.025
2757.92747	523.225
2760.50515	509.225
2763.08123	499.225
2765.65573	508.725
2768.22863	494.325
2770.79994	498.425
2773.36967	491.025
2775.9378	486.025
2778.50435	494.825
2781.06932	497.225
2783.6327	487.125
2786.1945	518.125
2788.75471	505.025
2791.31335	514.225
2793.87041	520.925
2796.42589	507.425
2798.97979	510.925
2801.53212	522.125
2804.08288	551.825
2806.63206	546.625
2809.17967	541.425
2811.72571	573.625
2814.27018	592.525
2816.81308	600.125
2819.35442	582.625
2821.89419	618.425
2824.43239	616.725
2826.96904	651.825
2829.50412	628.025
2832.03763	626.825
2834.56959	615.725
2837.1	604.725
2839.62884	595.025
2842.15613	586.925
2844.68186	601.225
2847.20604	578.325
2849.72867	583.225
2852.24974	600.025
2854.76927	589.725
2857.28724	568.425
2859.80367	639.525
2862.31855	663.125
2864.83189	668.825
2867.34368	689.325
2869.85393	714.225
2872.36264	699.525
2874.8698	704.525
2877.37543	712.625
2879.87952	697.025
2882.38207	664.625
2884.88308	655.825
2887.38256	651.625
2889.88051	635.625
2892.37692	628.925
2894.8718	607.225
2897.36515	627.025
2899.85698	622.125
2902.34727	628.325
2904.83604	639.925
2907.32328	671.725
2909.809	693.125
2912.29319	703.525
2914.77587	712.025
2917.25702	721.225
2919.73665	713.525
2922.21476	693.925
2924.69136	686.925
2927.16644	647.125
2929.64	631.925
2932.11205	609.225
2934.58258	616.225
2937.05161	604.625
2939.51912	600.125
2941.98513	614.325
2944.44962	601.025
2946.91261	578.725
2949.37409	593.625
2951.83407	592.825
2954.29254	601.225
2956.74951	600.825
2959.20498	591.425
2961.65895	590.225
2964.11142	582.525
2966.56239	585.525
2969.01186	582.225
2971.45984	565.225
2973.90632	571.525
2976.35131	587.125
2978.7948	584.725
2981.23681	575.725
2983.67732	589.225
2986.11635	591.725
2988.55388	566.925
2990.98993	586.625
2993.4245	581.625
2995.85758	574.025
2998.28917	580.925
3000.71928	583.925
3003.14791	590.925
3005.57506	579.425
3008.00073	572.825
3010.42493	518.425
3012.84764	578.625
3015.26888	577.025
3017.68865	569.125
3020.10694	527.325
3022.52376	550.925
3024.9391	538.825
3027.35298	524.825
3029.76539	503.025
3032.17632	507.925
3034.5858	488.125
3036.9938	487.625
3039.40034	470.725
3041.80542	449.225
3044.20903	434.425
3046.61118	428.525
3049.01187	445.725
3051.4111	423.725
3053.80888	420.325
3056.20519	422.625
3058.60005	409.925
3060.99345	438.725
3063.3854	415.125
3065.7759	405.425
3068.16494	403.225
3070.55254	394.225
3072.93868	407.525
3075.32338	400.425
3077.70662	395.725
3080.08842	391.125
3082.46878	379.725
3084.84769	403.325
3087.22515	375.325
3089.60118	388.725
3091.97576	372.525
3094.3489	384.725
3096.72061	374.725
3099.09087	363.225
3101.4597	374.525
3103.82709	369.425
3106.19305	355.225
3108.55757	365.625
3110.92066	355.925
3113.28232	377.625
3115.64255	375.525
3118.00134	379.925
3120.35871	362.325
3122.71466	352.025
3125.06917	365.325
3127.42226	361.925
3129.77393	347.125
3132.12417	363.225
3134.47299	376.125
3136.82039	358.425
3139.16636	337.425
3141.51092	365.725
3143.85406	370.525
3146.19579	356.625
3148.53609	353.725
3150.87499	370.225
3153.21246	361.125
3155.54853	372.625
3157.88318	374.425
3160.21642	375.325
3162.54826	369.825
3164.87868	370.525
3167.2077	336.625
3169.5353	354.325
3171.86151	364.225
3174.18631	337.825
3176.5097	335.925
3178.83169	329.625
3181.15228	331.425
3183.47147	315.425
3185.78926	296.925
3188.10565	310.425
3190.42065	289.225
3192.73424	306.025
3195.04645	298.525
3197.35725	289.325
3199.66667	310.425
3201.97469	302.625
3204.28132	294.625
3206.58656	311.325
3208.8904	322.125
3211.19287	316.925
3213.49394	310.825
3215.79363	306.025
3218.09193	325.425
3220.38884	313.725
3222.68438	313.025
3224.97853	299.725
3227.2713	320.125
3229.56269	303.725
3231.8527	304.125
3234.14133	295.325
3236.42858	298.525
3238.71446	277.725
3240.99896	297.625
3243.28209	280.925
3245.56384	291.325
3247.84423	284.825
3250.12324	292.225
3252.40088	291.125
3254.67715	278.625
3256.95205	274.125
3259.22558	288.425
3261.49775	288.125
3263.76855	281.125
3266.03799	289.725
3268.30606	287.625
3270.57277	297.525
3272.83812	278.925
3275.10211	290.325
3277.36474	312.725
3279.62601	310.025
3281.88593	303.725
