Data from AgNPs_UA_5uM_CRN_500uM_SU_RamanShift__8__11-30-43-139.txt Node

Date: Thu Aug 04 11:30:43 BST 2022
User: TCL
Spectrometer: QEP01345
Trigger mode: 4
Integration Time (sec): 1.000000E0
Scans to average: 10
Electric dark correction enabled: true
Nonlinearity correction enabled: false
Boxcar width: 0
XAxis mode: Raman Shifts
Number of Pixels in Spectrum: 1044
>>>>>Begin Spectral Data<<<<<
46.04893	0.5125
50.45542	-0.1875
54.85868	-0.2875
59.25871	-1.5875
63.6555	-54.4875
68.04907	-38.0875
72.43941	-69.8875
76.82654	-54.1875
81.21044	-53.4875
85.59113	-46.0875
89.96862	-71.9875
94.34289	-53.9875
98.71396	-75.5875
103.08183	-54.2875
107.4465	-46.4875
111.80798	-52.8875
116.16626	-39.5875
120.52136	-68.2875
124.87327	-44.1875
129.222	-56.0875
133.56755	-42.5875
137.90993	-54.3875
142.24913	-39.2875
146.58517	-29.7875
150.91804	-22.9875
155.24774	-4.0875
159.57429	23.5125
163.89768	38.2125
168.21792	101.1125
172.53501	154.7125
176.84895	278.0125
181.15975	467.6125
185.46741	705.5125
189.77193	986.2125
194.07331	1428.8125
198.37157	1864.0125
202.6667	2324.2125
206.9587	2848.6125
211.24758	3384.8125
215.53334	4009.8125
219.81599	4695.3125
224.09553	5529.5125
228.37195	6376.8125
232.64527	7150.6125
236.91549	7820.4125
241.18261	8151.8125
245.44663	8224.5125
249.70755	8155.3125
253.96539	8113.7125
258.22014	8183.2125
262.4718	8234.7125
266.72039	8226.7125
270.96589	8019.3125
275.20832	7666.6125
279.44768	7346.1125
283.68397	7064.7125
287.91719	6999.7125
292.14735	7177.5125
296.37445	7721.9125
300.59849	8715.5125
304.81948	10067.5125
309.03742	11612.1125
313.25231	12790.3125
317.46415	12637.6125
321.67296	11043.3125
325.87872	9206.8125
330.08145	8147.5125
334.28114	7881.4125
338.47781	8185.8125
342.67145	8771.2125
346.86207	9720.3125
351.04966	11196.3125
355.23424	12676.3125
359.4158	13249.8125
363.59435	12751.2125
367.76989	11838.1125
371.94243	10986.2125
376.11196	10236.0125
380.27849	9705.9125
384.44203	9278.5125
388.60257	9071.2125
392.76012	9084.5125
396.91468	9388.8125
401.06626	9793.2125
405.21485	9831.3125
409.36047	9182.5125
413.50311	8068.7125
417.64277	7020.6125
421.77947	6392.3125
425.9132	6110.8125
430.04396	5965.1125
434.17176	5947.6125
438.2966	6048.2125
442.41849	6273.4125
446.53742	6456.5125
450.6534	6590.2125
454.76644	6585.3125
458.87653	6464.9125
462.98368	6323.4125
467.08789	6183.8125
471.18916	5959.4125
475.2875	5674.6125
479.38291	5437.3125
483.4754	5247.8125
487.56496	5194.3125
491.6516	5139.9125
495.73531	5118.8125
499.81612	5204.1125
503.89401	5398.1125
507.96899	5587.2125
512.04106	5863.2125
516.11023	6132.0125
520.1765	6377.9125
524.23987	6470.6125
528.30034	6413.5125
532.35792	6256.6125
536.41261	6098.5125
540.46441	5870.7125
544.51333	5689.8125
548.55936	5667.1125
552.60252	5823.8125
556.64279	6056.0125
560.6802	6483.3125
564.71473	7491.1125
568.7464	8762.0125
572.7752	8692.7125
576.80114	7065.6125
580.82422	5730.0125
584.84444	5158.5125
588.86181	4990.9125
592.87633	4997.4125
596.888	5206.9125
600.89682	6006.2125
604.9028	8686.9125
608.90594	15498.6125
612.90624	23899.3125
616.90371	21625.8125
620.89834	11307.6125
624.89015	6784.2125
628.87913	6239.8125
632.86528	6928.1125
636.84862	7201.9125
640.82913	6424.9125
644.80683	5331.8125
648.78172	4836.0125
652.75379	5014.5125
656.72306	5799.0125
660.68952	6583.4125
664.65319	6138.8125
668.61405	5099.5125
672.57211	4664.7125
676.52738	4660.9125
680.47986	4593.0125
684.42955	4457.9125
688.37646	4360.7125
692.32058	4366.4125
696.26192	4460.2125
700.20048	4579.0125
704.13626	4610.6125
708.06928	4534.1125
711.99952	4496.0125
715.927	4556.5125
719.85171	4772.2125
723.77365	4917.7125
727.69284	4781.0125
731.60928	4637.2125
735.52295	4566.3125
739.43388	4646.8125
743.34206	4673.0125
747.24749	4681.4125
751.15017	4716.3125
755.05012	5039.8125
758.94733	6400.9125
762.8418	9439.4125
766.73354	13365.6125
770.62254	15381.7125
774.50882	14522.8125
778.39237	13055.5125
782.27321	10766.5125
786.15132	7817.3125
790.02671	5871.4125
793.89938	4951.3125
797.76935	4651.1125
801.6366	4494.9125
805.50115	4412.1125
809.36299	4356.2125
813.22213	4332.7125
817.07857	4346.3125
820.93231	4394.6125
824.78336	4491.4125
828.63172	4614.7125
832.47738	4671.6125
836.32036	4564.5125
840.16066	4331.0125
843.99827	4208.9125
847.8332	4180.6125
851.66546	4151.5125
855.49504	4148.3125
859.32195	4141.4125
863.1462	4089.2125
866.96777	4079.3125
870.78668	4051.0125
874.60293	4103.8125
878.41652	4177.0125
882.22745	4325.5125
886.03573	4405.9125
889.84136	4405.5125
893.64433	4358.9125
897.44466	4365.0125
901.24235	4367.7125
905.0374	4291.9125
908.8298	4104.5125
912.61957	3976.9125
916.40671	3892.6125
920.19121	3962.0125
923.97308	4150.7125
927.75233	4576.4125
931.52895	4990.4125
935.30295	4758.4125
939.07433	4145.8125
942.84309	3751.6125
946.60924	3610.8125
950.37278	3542.0125
954.13371	3547.2125
957.89203	3521.0125
961.64774	3529.8125
965.40086	3517.5125
969.15137	3476.3125
972.89929	3508.7125
976.64461	3473.7125
980.38733	3470.9125
984.12747	3452.5125
987.86502	3484.4125
991.59999	3498.7125
995.33237	3574.3125
999.06217	3683.7125
1002.78939	3873.5125
1006.51404	4169.3125
1010.23611	4326.0125
1013.95561	4175.6125
1017.67255	3963.9125
1021.38692	3792.5125
1025.09872	3655.9125
1028.80796	3573.9125
1032.51465	3615.3125
1036.21877	3652.6125
1039.92035	3730.5125
1043.61937	3807.6125
1047.31584	3876.0125
1051.00976	3885.1125
1054.70114	3803.8125
1058.38998	3749.4125
1062.07627	3728.4125
1065.76003	3725.7125
1069.44126	3773.9125
1073.11995	3872.1125
1076.79611	4164.6125
1080.46974	4679.1125
1084.14085	5405.5125
1087.80943	6058.8125
1091.47549	6014.4125
1095.13903	5375.0125
1098.80005	4714.7125
1102.45857	4361.8125
1106.11456	4320.8125
1109.76805	4428.7125
1113.41903	4855.8125
1117.06751	5505.8125
1120.71348	6547.3125
1124.35696	8183.7125
1127.99793	9340.3125
1131.63641	8503.3125
1135.2724	6820.0125
1138.90589	5692.7125
1142.5369	5047.6125
1146.16542	4648.3125
1149.79145	4396.1125
1153.415	4317.3125
1157.03607	4367.7125
1160.65467	4582.7125
1164.27079	4995.6125
1167.88443	5577.5125
1171.49561	6575.3125
1175.10432	8324.2125
1178.71056	10774.0125
1182.31434	12548.1125
1185.91565	12260.4125
1189.51451	10657.6125
1193.11091	8975.5125
1196.70485	7909.6125
1200.29634	7502.2125
1203.88538	6999.8125
1207.47197	5985.3125
1211.05612	5030.5125
1214.63782	4441.1125
1218.21708	4190.3125
1221.79391	4098.1125
1225.36829	4087.0125
1228.94024	4082.1125
1232.50976	4072.0125
1236.07685	4078.7125
1239.6415	4123.6125
1243.20374	4235.1125
1246.76355	4397.8125
1250.32093	4603.0125
1253.8759	4890.8125
1257.42845	5367.2125
1260.97859	6025.7125
1264.52631	6678.8125
1268.07163	7010.5125
1271.61453	7029.1125
1275.15503	6814.4125
1278.69312	6579.0125
1282.22882	6754.8125
1285.76211	7661.2125
1289.29301	8917.4125
1292.82151	9788.3125
1296.34761	10128.8125
1299.87133	10912.8125
1303.39266	13028.6125
1306.9116	16983.1125
1310.42815	21857.1125
1313.94233	23575.6125
1317.45412	19844.2125
1320.96354	14465.7125
1324.47058	10392.9125
1327.97525	7951.9125
1331.47754	6709.9125
1334.97747	6343.3125
1338.47502	6517.4125
1341.97022	7455.7125
1345.46305	9579.5125
1348.95352	12578.0125
1352.44163	15627.1125
1355.92738	19392.2125
1359.41078	26122.1125
1362.89183	33449.6125
1366.37053	32039.6125
1369.84688	21916.9125
1373.32088	13497.5125
1376.79254	9913.3125
1380.26186	8332.5125
1383.72883	7107.7125
1387.19347	5965.6125
1390.65578	5124.5125
1394.11575	4657.9125
1397.57339	4431.6125
1401.0287	4274.0125
1404.48168	4137.9125
1407.93234	4049.7125
1411.38068	4114.9125
1414.82669	4482.6125
1418.27039	4919.9125
1421.71177	5007.8125
1425.15083	4792.3125
1428.58758	4823.7125
1432.02203	5274.7125
1435.45416	5662.7125
1438.88399	5428.4125
1442.31151	5068.0125
1445.73673	5000.5125
1449.15965	4976.1125
1452.58027	4862.3125
1455.9986	4685.3125
1459.41463	4530.8125
1462.82837	4564.7125
1466.23982	4805.3125
1469.64898	5140.9125
1473.05586	5269.5125
1476.46045	5211.0125
1479.86276	5235.2125
1483.26279	5471.4125
1486.66054	6090.3125
1490.05602	7043.7125
1493.44922	8579.9125
1496.84016	11048.9125
1500.22882	14906.2125
1503.61521	20309.5125
1506.99934	27266.2125
1510.38121	34229.5125
1513.76081	37029.9125
1517.13816	32785.4125
1520.51324	24391.5125
1523.88607	16675.6125
1527.25665	11788.7125
1530.62498	9048.2125
1533.99105	7447.3125
1537.35488	6428.2125
1540.71647	5844.2125
1544.07581	5608.8125
1547.4329	5609.6125
1550.78776	5799.4125
1554.14038	6090.3125
1557.49077	6621.2125
1560.83892	7516.7125
1564.18484	8911.9125
1567.52853	10533.9125
1570.86999	11556.7125
1574.20922	11714.4125
1577.54624	11091.2125
1580.88103	9236.6125
1584.2136	6954.6125
1587.54395	5625.7125
1590.87208	5275.7125
1594.19801	5671.1125
1597.52172	6366.6125
1600.84321	6368.7125
1604.16251	5601.0125
1607.47959	4866.5125
1610.79447	4433.8125
1614.10715	4096.4125
1617.41763	3867.5125
1620.7259	3750.4125
1624.03199	3810.4125
1627.33587	3977.7125
1630.63757	4333.0125
1633.93707	4977.9125
1637.23439	6151.3125
1640.52951	8274.8125
1643.82246	11939.5125
1647.11321	17034.2125
1650.40179	21139.5125
1653.68819	20960.1125
1656.97241	16387.8125
1660.25446	10969.9125
1663.53433	7211.3125
1666.81203	5158.4125
1670.08756	4119.3125
1673.36092	3564.7125
1676.63211	3215.0125
1679.90115	3008.7125
1683.16801	2852.9125
1686.43272	2731.9125
1689.69527	2658.2125
1692.95567	2591.3125
1696.2139	2542.6125
1699.46999	2490.5125
1702.72392	2485.5125
1705.97571	2482.9125
1709.22535	2471.6125
1712.47284	2524.2125
1715.71819	2545.9125
1718.96139	2549.0125
1722.20246	2525.6125
1725.44139	2455.7125
1728.67818	2403.4125
1731.91284	2333.3125
1735.14537	2276.1125
1738.37576	2240.6125
1741.60403	2226.8125
1744.83017	2185.5125
1748.05418	2173.6125
1751.27607	2164.1125
1754.49584	2105.3125
1757.71349	2048.8125
1760.92903	2027.7125
1764.14244	1962.5125
1767.35375	1944.7125
1770.56294	1899.9125
1773.77002	1863.5125
1776.97499	1850.6125
1780.17785	1814.2125
1783.37861	1781.2125
1786.57727	1793.1125
1789.77382	1725.5125
1792.96828	1765.5125
1796.16064	1768.5125
1799.3509	1753.4125
1802.53907	1765.4125
1805.72514	1731.8125
1808.90913	1708.9125
1812.09102	1703.1125
1815.27083	1706.1125
1818.44856	1691.3125
1821.6242	1694.2125
1824.79776	1666.2125
1827.96924	1642.9125
1831.13864	1618.1125
1834.30597	1618.1125
1837.47122	1592.2125
1840.6344	1568.1125
1843.7955	1533.4125
1846.95454	1515.1125
1850.11151	1537.9125
1853.26642	1489.3125
1856.41926	1497.7125
1859.57004	1501.9125
1862.71876	1513.2125
1865.86542	1520.1125
1869.01003	1519.6125
1872.15258	1503.7125
1875.29308	1529.1125
1878.43152	1532.5125
1881.56792	1526.0125
1884.70227	1497.4125
1887.83457	1495.3125
1890.96482	1471.0125
1894.09304	1466.4125
1897.21921	1467.2125
1900.34335	1473.4125
1903.46544	1454.7125
1906.58551	1474.9125
1909.70353	1462.3125
1912.81953	1463.4125
1915.93349	1440.9125
1919.04543	1444.5125
1922.15534	1423.1125
1925.26322	1420.1125
1928.36908	1398.0125
1931.47292	1383.0125
1934.57473	1359.9125
1937.67453	1324.7125
1940.77232	1297.3125
1943.86808	1292.6125
1946.96184	1285.0125
1950.05358	1268.8125
1953.14331	1260.9125
1956.23103	1286.1125
1959.31675	1264.3125
1962.40046	1236.8125
1965.48217	1288.2125
1968.56188	1293.7125
1971.63959	1309.3125
1974.7153	1322.4125
1977.78901	1312.1125
1980.86073	1278.3125
1983.93046	1235.4125
1986.99819	1152.5125
1990.06394	1161.7125
1993.1277	1185.5125
1996.18947	1171.5125
1999.24925	1135.9125
2002.30706	1147.5125
2005.36288	1142.8125
2008.41672	1134.3125
2011.46859	1101.5125
2014.51848	1104.7125
2017.56639	1086.2125
2020.61233	1081.5125
2023.6563	1097.2125
2026.6983	1055.6125
2029.73833	1065.8125
2032.7764	1079.2125
2035.8125	1034.9125
2038.84664	1047.7125
2041.87881	1041.2125
2044.90903	1052.7125
2047.93729	1047.3125
2050.96359	1019.7125
2053.98794	1034.4125
2057.01034	1030.3125
2060.03078	1008.2125
2063.04927	988.0125
2066.06582	986.1125
2069.08042	970.1125
2072.09307	972.9125
2075.10378	978.4125
2078.11255	970.0125
2081.11938	975.2125
2084.12426	969.1125
2087.12722	963.1125
2090.12824	963.3125
2093.12732	961.5125
2096.12447	959.3125
2099.11969	969.6125
2102.11299	954.0125
2105.10435	983.3125
2108.09379	969.3125
2111.08131	965.6125
2114.0669	981.4125
2117.05057	981.3125
2120.03233	971.2125
2123.01216	1012.3125
2125.99008	1021.0125
2128.96609	1023.6125
2131.94018	1038.7125
2134.91236	1009.1125
2137.88263	994.3125
2140.851	978.9125
2143.81746	981.9125
2146.78201	951.5125
2149.74466	937.7125
2152.7054	938.0125
2155.66425	912.8125
2158.6212	904.6125
2161.57625	878.4125
2164.52941	854.6125
2167.48067	875.7125
2170.43004	883.4125
2173.37752	905.7125
2176.32311	902.6125
2179.26681	907.2125
2182.20863	918.9125
2185.14856	910.2125
2188.08661	907.2125
2191.02278	906.8125
2193.95707	872.2125
2196.88948	859.5125
2199.82001	867.2125
2202.74867	852.9125
2205.67545	862.7125
2208.60037	866.9125
2211.52341	854.6125
2214.44458	844.0125
2217.36388	851.1125
2220.28132	837.9125
2223.1969	830.1125
2226.11061	830.8125
2229.02246	823.0125
2231.93245	826.2125
2234.84058	809.5125
2237.74686	808.9125
2240.65128	807.3125
2243.55385	822.2125
2246.45456	797.8125
2249.35343	834.6125
2252.25044	834.6125
2255.14561	863.8125
2258.03893	885.2125
2260.93041	900.2125
2263.82004	917.7125
2266.70783	915.9125
2269.59378	905.9125
2272.4779	897.2125
2275.36017	909.9125
2278.24061	900.3125
2281.11922	865.0125
2283.996	882.5125
2286.87094	857.0125
2289.74405	850.1125
2292.61534	838.3125
2295.4848	820.2125
2298.35243	808.3125
2301.21824	786.1125
2304.08223	788.0125
2306.94439	798.8125
2309.80474	801.1125
2312.66327	796.4125
2315.51999	787.2125
2318.37489	788.2125
2321.22797	770.4125
2324.07925	769.9125
2326.92871	771.9125
2329.77637	767.4125
2332.62222	772.7125
2335.46626	750.6125
2338.3085	761.2125
2341.14893	779.4125
2343.98756	791.0125
2346.8244	782.2125
2349.65943	780.7125
2352.49267	798.8125
2355.32411	814.1125
2358.15376	818.2125
2360.98161	838.5125
2363.80768	842.0125
2366.63195	871.7125
2369.45444	875.8125
2372.27514	887.6125
2375.09405	894.3125
2377.91118	868.1125
2380.72652	858.0125
2383.54009	850.8125
2386.35187	844.2125
2389.16188	817.4125
2391.97011	812.8125
2394.77657	790.9125
2397.58125	792.2125
2400.38416	773.2125
2403.18529	755.6125
2405.98466	741.2125
2408.78226	749.3125
2411.57809	742.5125
2414.37216	738.2125
2417.16446	736.7125
2419.955	718.3125
2422.74378	752.0125
2425.5308	728.8125
2428.31606	746.2125
2431.09956	759.4125
2433.88131	748.4125
2436.6613	766.1125
2439.43954	761.1125
2442.21603	765.9125
2444.99077	771.9125
2447.76377	788.4125
2450.53501	786.2125
2453.30451	792.2125
2456.07226	807.1125
2458.83827	794.8125
2461.60254	758.5125
2464.36507	793.4125
2467.12586	780.1125
2469.88492	788.2125
2472.64224	793.7125
2475.39782	783.1125
2478.15167	808.0125
2480.90379	822.3125
2483.65417	847.6125
2486.40283	872.8125
2489.14976	891.3125
2491.89497	878.9125
2494.63845	889.9125
2497.3802	870.5125
2500.12024	873.0125
2502.85855	851.9125
2505.59514	843.6125
2508.33002	824.9125
2511.06318	776.8125
2513.79462	763.2125
2516.52435	709.1125
2519.25237	673.7125
2521.97867	671.3125
2524.70327	667.0125
2527.42616	661.3125
2530.14734	665.9125
2532.86681	644.3125
2535.58458	651.9125
2538.30065	651.6125
2541.01501	662.7125
2543.72768	662.3125
2546.43864	671.9125
2549.14791	677.9125
2551.85548	677.1125
2554.56136	674.9125
2557.26554	690.8125
2559.96803	699.5125
2562.66883	698.9125
2565.36794	695.5125
2568.06536	673.5125
2570.7611	709.6125
2573.45514	694.6125
2576.14751	693.6125
2578.83819	685.0125
2581.52719	672.0125
2584.21451	674.5125
2586.90015	649.3125
2589.58411	639.7125
2592.2664	648.9125
2594.94701	658.0125
2597.62594	666.4125
2600.30321	606.3125
2602.9788	634.8125
2605.65273	635.0125
2608.32498	640.9125
2610.99557	670.4125
2613.66449	639.2125
2616.33175	655.9125
2618.99734	661.3125
2621.66128	659.8125
2624.32355	653.0125
2626.98416	637.1125
2629.64311	621.6125
2632.30041	621.3125
2634.95605	599.6125
2637.61004	588.7125
2640.26238	576.7125
2642.91306	566.7125
2645.56209	590.3125
2648.20948	583.5125
2650.85521	570.9125
2653.4993	593.9125
2656.14175	589.2125
2658.78255	587.9125
2661.42171	565.1125
2664.05923	601.8125
2666.6951	618.9125
2669.32934	626.1125
2671.96194	646.1125
2674.59291	636.5125
2677.22224	635.2125
2679.84993	632.0125
2682.476	615.7125
2685.10043	618.5125
2687.72324	602.7125
2690.34441	603.3125
2692.96396	599.2125
2695.58188	606.5125
2698.19818	600.6125
2700.81285	582.2125
2703.4259	580.9125
2706.03733	561.8125
2708.64714	566.5125
2711.25533	599.7125
2713.86191	606.7125
2716.46687	601.5125
2719.07021	600.6125
2721.67194	598.0125
2724.27206	617.5125
2726.87057	593.4125
2729.46747	580.0125
2732.06276	585.3125
2734.65644	567.1125
2737.24852	559.9125
2739.83899	540.2125
2742.42786	553.8125
2745.01513	558.0125
2747.60079	531.2125
2750.18486	519.3125
2752.76733	517.0125
2755.3482	509.9125
2757.92747	507.9125
2760.50515	492.2125
2763.08123	489.8125
2765.65573	492.3125
2768.22863	486.6125
2770.79994	476.7125
2773.36967	484.4125
2775.9378	479.8125
2778.50435	479.1125
2781.06932	478.6125
2783.6327	473.3125
2786.1945	505.0125
2788.75471	490.1125
2791.31335	496.6125
2793.87041	508.0125
2796.42589	499.4125
2798.97979	498.6125
2801.53212	516.9125
2804.08288	541.0125
2806.63206	536.6125
2809.17967	528.8125
2811.72571	563.6125
2814.27018	574.2125
2816.81308	575.5125
2819.35442	564.7125
2821.89419	591.4125
2824.43239	598.1125
2826.96904	629.0125
2829.50412	611.2125
2832.03763	610.7125
2834.56959	604.2125
2837.1	587.9125
2839.62884	581.5125
2842.15613	574.1125
2844.68186	578.8125
2847.20604	563.3125
2849.72867	571.8125
2852.24974	589.1125
2854.76927	570.0125
2857.28724	541.1125
2859.80367	616.3125
2862.31855	646.5125
2864.83189	641.6125
2867.34368	664.9125
2869.85393	697.1125
2872.36264	674.3125
2874.8698	684.4125
2877.37543	691.6125
2879.87952	675.6125
2882.38207	645.5125
2884.88308	643.2125
2887.38256	633.8125
2889.88051	619.9125
2892.37692	609.8125
2894.8718	593.0125
2897.36515	612.6125
2899.85698	612.7125
2902.34727	614.9125
2904.83604	629.7125
2907.32328	649.5125
2909.809	661.2125
2912.29319	679.4125
2914.77587	692.6125
2917.25702	697.3125
2919.73665	695.2125
2922.21476	674.8125
2924.69136	665.3125
2927.16644	625.5125
2929.64	615.2125
2932.11205	594.1125
2934.58258	595.6125
2937.05161	585.9125
2939.51912	582.5125
2941.98513	600.6125
2944.44962	586.3125
2946.91261	563.4125
2949.37409	576.9125
2951.83407	578.5125
2954.29254	582.6125
2956.74951	588.4125
2959.20498	569.8125
2961.65895	582.1125
2964.11142	565.3125
2966.56239	573.3125
2969.01186	566.1125
2971.45984	562.1125
2973.90632	551.1125
2976.35131	573.6125
2978.7948	572.5125
2981.23681	561.1125
2983.67732	571.9125
2986.11635	576.7125
2988.55388	556.4125
2990.98993	571.5125
2993.4245	570.7125
2995.85758	557.1125
2998.28917	567.5125
3000.71928	564.9125
3003.14791	567.2125
3005.57506	564.4125
3008.00073	556.8125
3010.42493	498.9125
3012.84764	564.5125
3015.26888	553.8125
3017.68865	546.9125
3020.10694	511.6125
3022.52376	530.1125
3024.9391	528.4125
3027.35298	518.2125
3029.76539	492.3125
3032.17632	491.0125
3034.5858	476.5125
3036.9938	475.5125
3039.40034	459.4125
3041.80542	436.5125
3044.20903	427.6125
3046.61118	413.0125
3049.01187	427.2125
3051.4111	415.7125
3053.80888	418.3125
3056.20519	409.6125
3058.60005	397.6125
3060.99345	430.8125
3063.3854	403.7125
3065.7759	398.0125
3068.16494	389.5125
3070.55254	382.9125
3072.93868	395.4125
3075.32338	394.3125
3077.70662	385.3125
3080.08842	378.5125
3082.46878	361.1125
3084.84769	390.1125
3087.22515	362.5125
3089.60118	377.7125
3091.97576	363.4125
3094.3489	375.5125
3096.72061	367.0125
3099.09087	348.0125
3101.4597	358.8125
3103.82709	355.9125
3106.19305	344.4125
3108.55757	353.3125
3110.92066	345.5125
3113.28232	361.1125
3115.64255	367.6125
3118.00134	371.8125
3120.35871	351.8125
3122.71466	342.1125
3125.06917	354.1125
3127.42226	357.4125
3129.77393	340.8125
3132.12417	361.2125
3134.47299	370.0125
3136.82039	350.8125
3139.16636	329.2125
3141.51092	353.8125
3143.85406	358.9125
3146.19579	346.2125
3148.53609	346.9125
3150.87499	352.8125
3153.21246	351.5125
3155.54853	362.6125
3157.88318	366.4125
3160.21642	364.4125
3162.54826	361.4125
3164.87868	363.9125
