Data from AgNPs_UA_20uM_CRN_500uM_SU_RamanShift__20__13-39-50-295.txt Node

Date: Thu Aug 04 13:39:50 BST 2022
User: TCL
Spectrometer: QEP01345
Trigger mode: 4
Integration Time (sec): 1.000000E0
Scans to average: 10
Electric dark correction enabled: true
Nonlinearity correction enabled: false
Boxcar width: 0
XAxis mode: Raman Shifts
Number of Pixels in Spectrum: 1044
>>>>>Begin Spectral Data<<<<<
46.04893	-1.425
50.45542	-1.025
54.85868	0.575
59.25871	0.875
63.6555	17.875
68.04907	14.775
72.43941	19.475
76.82654	16.575
81.21044	19.375
85.59113	20.275
89.96862	19.475
94.34289	19.775
98.71396	22.375
103.08183	23.875
107.4465	22.175
111.80798	25.075
116.16626	27.075
120.52136	26.375
124.87327	25.975
129.222	31.675
133.56755	30.175
137.90993	33.575
142.24913	37.675
146.58517	43.975
150.91804	51.275
155.24774	61.575
159.57429	78.775
163.89768	102.575
168.21792	135.575
172.53501	190.475
176.84895	261.575
181.15975	373.575
185.46741	531.275
189.77193	739.375
194.07331	993.075
198.37157	1292.975
202.6667	1598.775
206.9587	1919.275
211.24758	2226.275
215.53334	2543.875
219.81599	2912.675
224.09553	3321.575
228.37195	3757.275
232.64527	4236.575
236.91549	4682.575
241.18261	5107.175
245.44663	5394.675
249.70755	5594.475
253.96539	5770.875
258.22014	5923.075
262.4718	6045.875
266.72039	6133.175
270.96589	6160.575
275.20832	6083.375
279.44768	5994.875
283.68397	5888.375
287.91719	5823.575
292.14735	5849.775
296.37445	6004.175
300.59849	6276.675
304.81948	6595.875
309.03742	6913.175
313.25231	7119.775
317.46415	7034.075
321.67296	6696.875
325.87872	6336.375
330.08145	6128.175
334.28114	6095.475
338.47781	6166.075
342.67145	6321.975
346.86207	6522.675
351.04966	6833.775
355.23424	7161.875
359.4158	7379.075
363.59435	7448.475
367.76989	7412.875
371.94243	7359.975
376.11196	7259.675
380.27849	7212.975
384.44203	7154.775
388.60257	7154.075
392.76012	7213.575
396.91468	7328.675
401.06626	7434.675
405.21485	7489.675
409.36047	7324.875
413.50311	7004.575
417.64277	6727.275
421.77947	6550.075
425.9132	6489.475
430.04396	6472.775
434.17176	6537.375
438.2966	6602.575
442.41849	6736.775
446.53742	6888.675
450.6534	7024.275
454.76644	7068.275
458.87653	7058.075
462.98368	7052.575
467.08789	6976.875
471.18916	6890.775
475.2875	6738.275
479.38291	6592.475
483.4754	6522.475
487.56496	6451.175
491.6516	6437.775
495.73531	6423.775
499.81612	6452.075
503.89401	6512.175
507.96899	6586.175
512.04106	6659.675
516.11023	6763.075
520.1765	6816.975
524.23987	6817.275
528.30034	6807.175
532.35792	6776.675
536.41261	6711.375
540.46441	6594.975
544.51333	6553.975
548.55936	6609.575
552.60252	6729.675
556.64279	6836.275
560.6802	6930.775
564.71473	7032.075
568.7464	7206.475
572.7752	7186.275
576.80114	6928.775
580.82422	6737.375
584.84444	6639.575
588.86181	6634.575
592.87633	6653.675
596.888	6791.975
600.89682	7163.675
604.9028	8140.675
608.90594	10277.775
612.90624	12495.975
616.90371	11487.675
620.89834	8425.775
624.89015	7117.575
628.87913	6950.975
632.86528	7142.175
636.84862	7277.975
640.82913	7130.375
644.80683	6863.675
648.78172	6673.575
652.75379	6672.375
656.72306	6890.675
660.68952	7139.775
664.65319	7031.475
668.61405	6800.675
672.57211	6756.675
676.52738	6758.675
680.47986	6676.875
684.42955	6562.975
688.37646	6513.275
692.32058	6552.975
696.26192	6648.775
700.20048	6773.075
704.13626	6819.175
708.06928	6768.475
711.99952	6719.775
715.927	6689.575
719.85171	6739.075
723.77365	6771.075
727.69284	6723.675
731.60928	6644.775
735.52295	6653.975
739.43388	6667.875
743.34206	6698.975
747.24749	6715.475
751.15017	6708.875
755.05012	6819.875
758.94733	7142.775
762.8418	7988.075
766.73354	9270.975
770.62254	10226.175
774.50882	10370.875
778.39237	9782.675
782.27321	8839.975
786.15132	7843.075
790.02671	7191.775
793.89938	6858.575
797.76935	6744.175
801.6366	6653.275
805.50115	6622.575
809.36299	6590.375
813.22213	6586.875
817.07857	6576.275
820.93231	6578.475
824.78336	6612.775
828.63172	6619.275
832.47738	6649.675
836.32036	6600.275
840.16066	6558.675
843.99827	6557.875
847.8332	6549.275
851.66546	6587.175
855.49504	6610.075
859.32195	6598.475
863.1462	6628.075
866.96777	6589.975
870.78668	6589.675
874.60293	6613.875
878.41652	6665.175
882.22745	6707.375
886.03573	6752.875
889.84136	6748.975
893.64433	6713.975
897.44466	6696.675
901.24235	6693.775
905.0374	6674.275
908.8298	6623.775
912.61957	6594.275
916.40671	6605.175
920.19121	6641.075
923.97308	6701.875
927.75233	6800.675
931.52895	6855.375
935.30295	6783.575
939.07433	6624.075
942.84309	6505.475
946.60924	6465.275
950.37278	6439.375
954.13371	6451.275
957.89203	6459.075
961.64774	6453.775
965.40086	6421.075
969.15137	6413.775
972.89929	6416.575
976.64461	6432.675
980.38733	6442.575
984.12747	6449.175
987.86502	6486.075
991.59999	6535.775
995.33237	6587.075
999.06217	6662.075
1002.78939	6774.275
1006.51404	6963.875
1010.23611	7107.175
1013.95561	7137.375
1017.67255	7173.275
1021.38692	7095.775
1025.09872	6973.875
1028.80796	6878.075
1032.51465	6838.075
1036.21877	6873.475
1039.92035	6889.475
1043.61937	6967.675
1047.31584	6968.975
1051.00976	6988.575
1054.70114	6991.175
1058.38998	6990.875
1062.07627	6991.575
1065.76003	7089.775
1069.44126	7199.175
1073.11995	7350.675
1076.79611	7548.275
1080.46974	7682.875
1084.14085	7819.375
1087.80943	7945.975
1091.47549	8028.075
1095.13903	7999.675
1098.80005	7906.475
1102.45857	7736.175
1106.11456	7617.875
1109.76805	7524.575
1113.41903	7556.375
1117.06751	7692.575
1120.71348	7937.675
1124.35696	8260.875
1127.99793	8486.175
1131.63641	8325.375
1135.2724	7963.475
1138.90589	7730.075
1142.5369	7608.875
1146.16542	7553.075
1149.79145	7536.075
1153.415	7392.175
1157.03607	7331.275
1160.65467	7356.275
1164.27079	7532.475
1167.88443	7800.475
1171.49561	8173.375
1175.10432	8857.475
1178.71056	9786.575
1182.31434	10561.275
1185.91565	10795.675
1189.51451	10608.475
1193.11091	10331.475
1196.70485	10032.175
1200.29634	9809.275
1203.88538	9520.675
1207.47197	9148.975
1211.05612	8788.775
1214.63782	8501.375
1218.21708	8264.475
1221.79391	8037.975
1225.36829	7939.175
1228.94024	7871.375
1232.50976	7844.575
1236.07685	7865.975
1239.6415	7868.675
1243.20374	7907.375
1246.76355	7982.475
1250.32093	8101.075
1253.8759	8291.175
1257.42845	8551.875
1260.97859	8850.675
1264.52631	9080.575
1268.07163	9237.375
1271.61453	9328.175
1275.15503	9378.675
1278.69312	9365.675
1282.22882	9371.275
1285.76211	9478.475
1289.29301	9713.475
1292.82151	9944.075
1296.34761	10211.575
1299.87133	10602.275
1303.39266	11273.175
1306.9116	12317.675
1310.42815	13392.675
1313.94233	13707.775
1317.45412	13036.175
1320.96354	12059.775
1324.47058	11153.175
1327.97525	10400.875
1331.47754	9997.075
1334.97747	9914.375
1338.47502	10073.475
1341.97022	10491.575
1345.46305	11231.375
1348.95352	12300.775
1352.44163	13500.575
1355.92738	14744.975
1359.41078	16323.175
1362.89183	17661.875
1366.37053	16906.675
1369.84688	14205.275
1373.32088	11691.675
1376.79254	10303.775
1380.26186	9663.575
1383.72883	9290.575
1387.19347	8932.475
1390.65578	8637.375
1394.11575	8365.275
1397.57339	8177.075
1401.0287	8041.775
1404.48168	7972.875
1407.93234	7946.775
1411.38068	8029.575
1414.82669	8094.375
1418.27039	8127.375
1421.71177	8101.175
1425.15083	8031.375
1428.58758	7972.175
1432.02203	8019.075
1435.45416	8115.975
1438.88399	8178.375
1442.31151	8243.675
1445.73673	8296.275
1449.15965	8356.675
1452.58027	8327.275
1455.9986	8257.575
1459.41463	8247.375
1462.82837	8338.775
1466.23982	8502.175
1469.64898	8719.175
1473.05586	8868.875
1476.46045	8951.775
1479.86276	9009.275
1483.26279	9140.175
1486.66054	9366.375
1490.05602	9684.075
1493.44922	10193.475
1496.84016	11051.775
1500.22882	12338.675
1503.61521	14027.475
1506.99934	15630.375
1510.38121	16575.075
1513.76081	16261.975
1517.13816	14809.275
1520.51324	12892.975
1523.88607	11356.775
1527.25665	10493.975
1530.62498	10044.875
1533.99105	9837.175
1537.35488	9718.175
1540.71647	9649.075
1544.07581	9554.475
1547.4329	9450.475
1550.78776	9346.075
1554.14038	9204.975
1557.49077	9137.675
1560.83892	9204.975
1564.18484	9451.175
1567.52853	9802.775
1570.86999	10100.975
1574.20922	10232.775
1577.54624	10047.075
1580.88103	9523.675
1584.2136	8887.175
1587.54395	8529.075
1590.87208	8483.975
1594.19801	8728.675
1597.52172	9117.375
1600.84321	9319.475
1604.16251	9274.575
1607.47959	9126.575
1610.79447	8830.775
1614.10715	8382.575
1617.41763	7951.675
1620.7259	7620.975
1624.03199	7437.475
1627.33587	7394.075
1630.63757	7453.475
1633.93707	7682.475
1637.23439	8136.075
1640.52951	8858.075
1643.82246	9915.075
1647.11321	11111.075
1650.40179	11820.675
1653.68819	11418.175
1656.97241	10118.775
1660.25446	8674.175
1663.53433	7685.375
1666.81203	7083.275
1670.08756	6759.575
1673.36092	6547.075
1676.63211	6432.975
1679.90115	6305.975
1683.16801	6242.975
1686.43272	6184.875
1689.69527	6145.175
1692.95567	6111.775
1696.2139	6097.175
1699.46999	6050.375
1702.72392	6059.575
1705.97571	6055.675
1709.22535	6042.975
1712.47284	6059.775
1715.71819	6035.275
1718.96139	6024.975
1722.20246	6012.475
1725.44139	5995.775
1728.67818	5947.975
1731.91284	5903.575
1735.14537	5907.375
1738.37576	5847.475
1741.60403	5830.775
1744.83017	5850.675
1748.05418	5819.775
1751.27607	5796.775
1754.49584	5793.975
1757.71349	5778.475
1760.92903	5754.175
1764.14244	5743.875
1767.35375	5737.175
1770.56294	5732.175
1773.77002	5714.975
1776.97499	5713.675
1780.17785	5668.675
1783.37861	5663.775
1786.57727	5643.375
1789.77382	5628.575
1792.96828	5619.175
1796.16064	5614.275
1799.3509	5576.775
1802.53907	5582.275
1805.72514	5588.175
1808.90913	5566.675
1812.09102	5560.275
1815.27083	5533.675
1818.44856	5519.775
1821.6242	5500.275
1824.79776	5487.075
1827.96924	5495.975
1831.13864	5480.275
1834.30597	5469.575
1837.47122	5471.875
1840.6344	5442.975
1843.7955	5432.275
1846.95454	5448.475
1850.11151	5432.375
1853.26642	5442.975
1856.41926	5411.975
1859.57004	5433.675
1862.71876	5428.075
1865.86542	5423.675
1869.01003	5389.675
1872.15258	5388.975
1875.29308	5389.975
1878.43152	5387.575
1881.56792	5369.375
1884.70227	5361.475
1887.83457	5348.575
1890.96482	5348.275
1894.09304	5343.775
1897.21921	5318.675
1900.34335	5309.775
1903.46544	5322.575
1906.58551	5333.875
1909.70353	5322.075
1912.81953	5307.375
1915.93349	5291.575
1919.04543	5273.275
1922.15534	5272.475
1925.26322	5269.475
1928.36908	5244.175
1931.47292	5234.675
1934.57473	5229.375
1937.67453	5215.175
1940.77232	5215.375
1943.86808	5199.575
1946.96184	5170.375
1950.05358	5149.975
1953.14331	5140.175
1956.23103	5112.175
1959.31675	5092.575
1962.40046	5085.875
1965.48217	5070.175
1968.56188	5055.975
1971.63959	5062.375
1974.7153	5043.875
1977.78901	5017.275
1980.86073	5012.375
1983.93046	4993.375
1986.99819	4972.975
1990.06394	4976.175
1993.1277	4942.475
1996.18947	4928.675
1999.24925	4924.375
2002.30706	4879.075
2005.36288	4893.075
2008.41672	4859.375
2011.46859	4833.375
2014.51848	4831.875
2017.56639	4806.375
2020.61233	4803.875
2023.6563	4785.875
2026.6983	4779.975
2029.73833	4767.375
2032.7764	4746.775
2035.8125	4715.575
2038.84664	4728.775
2041.87881	4724.075
2044.90903	4703.475
2047.93729	4700.875
2050.96359	4697.675
2053.98794	4690.675
2057.01034	4681.075
2060.03078	4669.975
2063.04927	4653.375
2066.06582	4648.275
2069.08042	4657.675
2072.09307	4653.675
2075.10378	4638.375
2078.11255	4646.075
2081.11938	4636.575
2084.12426	4623.275
2087.12722	4625.875
2090.12824	4643.875
2093.12732	4646.675
2096.12447	4641.575
2099.11969	4627.875
2102.11299	4645.475
2105.10435	4630.475
2108.09379	4624.075
2111.08131	4631.375
2114.0669	4623.175
2117.05057	4647.775
2120.03233	4643.075
2123.01216	4639.075
2125.99008	4639.575
2128.96609	4656.375
2131.94018	4659.375
2134.91236	4658.675
2137.88263	4658.975
2140.851	4648.475
2143.81746	4662.375
2146.78201	4637.075
2149.74466	4655.075
2152.7054	4645.675
2155.66425	4639.275
2158.6212	4643.675
2161.57625	4655.175
2164.52941	4646.875
2167.48067	4637.775
2170.43004	4620.675
2173.37752	4636.275
2176.32311	4624.275
2179.26681	4612.875
2182.20863	4619.875
2185.14856	4603.375
2188.08661	4635.775
2191.02278	4613.775
2193.95707	4597.775
2196.88948	4605.775
2199.82001	4612.975
2202.74867	4593.875
2205.67545	4594.975
2208.60037	4584.375
2211.52341	4577.375
2214.44458	4563.975
2217.36388	4553.975
2220.28132	4527.275
2223.1969	4519.075
2226.11061	4520.075
2229.02246	4505.375
2231.93245	4502.975
2234.84058	4498.575
2237.74686	4487.575
2240.65128	4490.075
2243.55385	4494.575
2246.45456	4481.475
2249.35343	4463.375
2252.25044	4455.975
2255.14561	4462.275
2258.03893	4460.175
2260.93041	4457.275
2263.82004	4443.875
2266.70783	4446.175
2269.59378	4406.975
2272.4779	4416.975
2275.36017	4406.175
2278.24061	4390.075
2281.11922	4395.875
2283.996	4368.375
2286.87094	4375.175
2289.74405	4356.575
2292.61534	4348.375
2295.4848	4352.675
2298.35243	4349.975
2301.21824	4334.075
2304.08223	4332.075
2306.94439	4333.175
2309.80474	4335.475
2312.66327	4330.175
2315.51999	4298.675
2318.37489	4309.475
2321.22797	4297.675
2324.07925	4306.875
2326.92871	4270.375
2329.77637	4283.675
2332.62222	4275.975
2335.46626	4259.275
2338.3085	4250.775
2341.14893	4256.075
2343.98756	4254.175
2346.8244	4249.275
2349.65943	4244.375
2352.49267	4252.175
2355.32411	4253.975
2358.15376	4252.275
2360.98161	4253.275
2363.80768	4254.275
2366.63195	4261.775
2369.45444	4253.975
2372.27514	4244.675
2375.09405	4239.975
2377.91118	4237.875
2380.72652	4232.975
2383.54009	4208.775
2386.35187	4210.675
2389.16188	4186.475
2391.97011	4158.575
2394.77657	4153.675
2397.58125	4148.175
2400.38416	4140.475
2403.18529	4146.575
2405.98466	4131.675
2408.78226	4126.975
2411.57809	4106.075
2414.37216	4098.275
2417.16446	4100.875
2419.955	4106.575
2422.74378	4113.775
2425.5308	4083.775
2428.31606	4104.675
2431.09956	4099.175
2433.88131	4084.475
2436.6613	4087.875
2439.43954	4087.475
2442.21603	4082.375
2444.99077	4079.675
2447.76377	4079.175
2450.53501	4076.575
2453.30451	4069.075
2456.07226	4057.075
2458.83827	4068.675
2461.60254	4061.575
2464.36507	4052.175
2467.12586	4040.375
2469.88492	4037.775
2472.64224	4054.775
2475.39782	4046.375
2478.15167	4051.775
2480.90379	4024.875
2483.65417	4045.375
2486.40283	4051.975
2489.14976	4067.575
2491.89497	4049.375
2494.63845	4048.975
2497.3802	4055.875
2500.12024	4033.675
2502.85855	4026.875
2505.59514	4020.875
2508.33002	4005.675
2511.06318	3979.975
2513.79462	3972.475
2516.52435	3968.875
2519.25237	3964.475
2521.97867	3954.575
2524.70327	3960.275
2527.42616	3948.175
2530.14734	3929.775
2532.86681	3938.275
2535.58458	3940.375
2538.30065	3923.475
2541.01501	3927.975
2543.72768	3914.775
2546.43864	3932.475
2549.14791	3924.375
2551.85548	3929.675
2554.56136	3932.975
2557.26554	3920.775
2559.96803	3907.875
2562.66883	3885.075
2565.36794	3894.075
2568.06536	3872.375
2570.7611	3863.975
2573.45514	3857.075
2576.14751	3862.175
2578.83819	3851.275
2581.52719	3830.875
2584.21451	3810.375
2586.90015	3796.675
2589.58411	3790.675
2592.2664	3800.675
2594.94701	3787.275
2597.62594	3798.275
2600.30321	3787.275
2602.9788	3765.575
2605.65273	3778.075
2608.32498	3765.775
2610.99557	3770.775
2613.66449	3754.975
2616.33175	3745.175
2618.99734	3735.475
2621.66128	3743.075
2624.32355	3745.875
2626.98416	3741.375
2629.64311	3723.875
2632.30041	3703.275
2634.95605	3704.175
2637.61004	3699.675
2640.26238	3687.175
2642.91306	3686.475
2645.56209	3668.375
2648.20948	3685.275
2650.85521	3671.075
2653.4993	3663.675
2656.14175	3677.475
2658.78255	3682.875
2661.42171	3674.975
2664.05923	3684.375
2666.6951	3694.475
2669.32934	3709.675
2671.96194	3684.975
2674.59291	3691.975
2677.22224	3676.275
2679.84993	3690.975
2682.476	3680.075
2685.10043	3674.775
2687.72324	3668.475
2690.34441	3672.875
2692.96396	3681.075
2695.58188	3660.675
2698.19818	3660.475
2700.81285	3677.875
2703.4259	3660.875
2706.03733	3661.275
2708.64714	3649.975
2711.25533	3640.775
2713.86191	3641.075
2716.46687	3659.275
2719.07021	3653.675
2721.67194	3662.975
2724.27206	3652.675
2726.87057	3656.375
2729.46747	3647.375
2732.06276	3647.975
2734.65644	3642.875
2737.24852	3640.675
2739.83899	3640.775
2742.42786	3641.175
2745.01513	3622.575
2747.60079	3622.675
2750.18486	3620.975
2752.76733	3615.475
2755.3482	3608.975
2757.92747	3596.575
2760.50515	3578.675
2763.08123	3582.875
2765.65573	3575.475
2768.22863	3559.175
2770.79994	3556.875
2773.36967	3556.675
2775.9378	3547.575
2778.50435	3550.275
2781.06932	3537.975
2783.6327	3530.175
2786.1945	3514.975
2788.75471	3504.675
2791.31335	3504.675
2793.87041	3521.775
2796.42589	3510.775
2798.97979	3513.775
2801.53212	3480.775
2804.08288	3500.175
2806.63206	3473.375
2809.17967	3479.375
2811.72571	3476.975
2814.27018	3486.375
2816.81308	3461.575
2819.35442	3457.775
2821.89419	3447.275
2824.43239	3440.375
2826.96904	3443.275
2829.50412	3432.575
2832.03763	3416.675
2834.56959	3404.475
2837.1	3405.475
2839.62884	3401.275
2842.15613	3402.275
2844.68186	3401.275
2847.20604	3381.475
2849.72867	3394.175
2852.24974	3368.275
2854.76927	3355.775
2857.28724	3359.175
2859.80367	3356.675
2862.31855	3352.375
2864.83189	3355.775
2867.34368	3350.775
2869.85393	3346.375
2872.36264	3360.775
2874.8698	3339.375
2877.37543	3342.375
2879.87952	3328.375
2882.38207	3337.175
2884.88308	3331.875
2887.38256	3317.575
2889.88051	3314.875
2892.37692	3306.675
2894.8718	3297.675
2897.36515	3312.775
2899.85698	3306.375
2902.34727	3316.875
2904.83604	3291.975
2907.32328	3315.875
2909.809	3314.775
2912.29319	3325.975
2914.77587	3326.375
2917.25702	3320.275
2919.73665	3322.275
2922.21476	3337.475
2924.69136	3312.375
2927.16644	3313.275
2929.64	3301.975
2932.11205	3280.775
2934.58258	3276.775
2937.05161	3274.375
2939.51912	3270.075
2941.98513	3272.575
2944.44962	3268.975
2946.91261	3261.975
2949.37409	3256.475
2951.83407	3256.775
2954.29254	3248.575
2956.74951	3245.275
2959.20498	3240.575
2961.65895	3243.975
2964.11142	3238.875
2966.56239	3230.075
2969.01186	3229.575
2971.45984	3234.275
2973.90632	3233.075
2976.35131	3213.575
2978.7948	3214.975
2981.23681	3200.275
2983.67732	3195.875
2986.11635	3192.375
2988.55388	3191.975
2990.98993	3178.975
2993.4245	3183.875
2995.85758	3189.575
2998.28917	3166.175
3000.71928	3144.475
3003.14791	3141.575
3005.57506	3135.175
3008.00073	3133.475
3010.42493	3120.775
3012.84764	3110.975
3015.26888	3109.675
3017.68865	3096.575
3020.10694	3098.875
3022.52376	3084.675
3024.9391	3082.475
3027.35298	3058.675
3029.76539	3056.675
3032.17632	3052.075
3034.5858	3045.375
3036.9938	3045.675
3039.40034	3045.175
3041.80542	3028.275
3044.20903	3020.975
3046.61118	3021.175
3049.01187	3003.675
3051.4111	2994.375
3053.80888	3005.775
3056.20519	2988.275
3058.60005	2981.975
3060.99345	2976.775
3063.3854	2962.375
3065.7759	2969.975
3068.16494	2968.475
3070.55254	2959.075
3072.93868	2952.675
3075.32338	2918.575
3077.70662	2923.175
3080.08842	2908.875
3082.46878	2908.975
3084.84769	2891.075
3087.22515	2896.875
3089.60118	2889.875
3091.97576	2891.675
3094.3489	2899.375
3096.72061	2879.975
3099.09087	2891.175
3101.4597	2887.475
3103.82709	2878.375
3106.19305	2867.175
3108.55757	2864.875
3110.92066	2869.475
3113.28232	2861.975
3115.64255	2840.575
3118.00134	2830.375
3120.35871	2833.375
3122.71466	2826.775
3125.06917	2833.475
3127.42226	2821.475
3129.77393	2802.275
3132.12417	2808.575
3134.47299	2798.675
3136.82039	2791.775
3139.16636	2801.175
3141.51092	2789.175
3143.85406	2801.575
3146.19579	2791.375
3148.53609	2792.275
3150.87499	2785.775
3153.21246	2780.675
3155.54853	2792.275
3157.88318	2782.475
3160.21642	2782.075
3162.54826	2786.775
3164.87868	2779.075
3167.2077	2778.675
3169.5353	2770.775
3171.86151	2767.075
3174.18631	2763.075
3176.5097	2765.375
3178.83169	2732.375
3181.15228	2740.975
3183.47147	2727.575
3185.78926	2730.675
3188.10565	2717.575
3190.42065	2715.975
3192.73424	2717.775
3195.04645	2696.875
3197.35725	2699.075
3199.66667	2686.875
3201.97469	2694.375
3204.28132	2681.675
3206.58656	2690.275
3208.8904	2692.275
3211.19287	2696.075
3213.49394	2701.875
3215.79363	2700.175
3218.09193	2704.475
3220.38884	2691.575
3222.68438	2686.575
3224.97853	2688.475
3227.2713	2691.575
3229.56269	2679.775
3231.8527	2682.275
3234.14133	2668.375
