Data from AgNPs_UA_5uM_CRN_500uM_SU_RamanShift__61__11-39-33-151.txt Node

Date: Thu Aug 04 11:39:33 BST 2022
User: TCL
Spectrometer: QEP01345
Trigger mode: 4
Integration Time (sec): 1.000000E0
Scans to average: 10
Electric dark correction enabled: true
Nonlinearity correction enabled: false
Boxcar width: 0
XAxis mode: Raman Shifts
Number of Pixels in Spectrum: 1044
>>>>>Begin Spectral Data<<<<<
46.04893	-0.125
50.45542	0.675
54.85868	-0.025
59.25871	-0.225
63.6555	-57.525
68.04907	-37.225
72.43941	-69.625
76.82654	-52.525
81.21044	-56.925
85.59113	-47.825
89.96862	-72.925
94.34289	-53.425
98.71396	-74.525
103.08183	-53.425
107.4465	-47.625
111.80798	-50.525
116.16626	-38.425
120.52136	-69.125
124.87327	-45.125
129.222	-57.425
133.56755	-43.825
137.90993	-55.725
142.24913	-42.425
146.58517	-31.825
150.91804	-26.625
155.24774	-13.525
159.57429	9.775
163.89768	25.275
168.21792	81.275
172.53501	119.175
176.84895	227.075
181.15975	396.975
185.46741	601.675
189.77193	850.675
194.07331	1222.875
198.37157	1615.775
202.6667	2012.675
206.9587	2461.675
211.24758	2932.875
215.53334	3433.175
219.81599	4001.175
224.09553	4669.375
228.37195	5342.475
232.64527	6027.875
236.91549	6581.775
241.18261	6925.975
245.44663	7088.775
249.70755	7150.675
253.96539	7216.975
258.22014	7308.275
262.4718	7418.675
266.72039	7454.775
270.96589	7339.075
275.20832	7114.775
279.44768	6845.675
283.68397	6638.775
287.91719	6584.375
292.14735	6692.575
296.37445	7069.075
300.59849	7763.575
304.81948	8686.175
309.03742	9755.875
313.25231	10533.575
317.46415	10421.775
321.67296	9286.575
325.87872	8036.675
330.08145	7310.575
334.28114	7172.675
338.47781	7364.575
342.67145	7783.575
346.86207	8469.975
351.04966	9490.275
355.23424	10535.275
359.4158	11009.075
363.59435	10690.775
367.76989	10096.875
371.94243	9531.875
376.11196	9061.575
380.27849	8734.575
384.44203	8472.875
388.60257	8339.475
392.76012	8348.175
396.91468	8614.675
401.06626	8919.075
405.21485	8955.475
409.36047	8509.475
413.50311	7741.275
417.64277	7023.475
421.77947	6540.675
425.9132	6345.175
430.04396	6223.275
434.17176	6223.575
438.2966	6298.775
442.41849	6497.975
446.53742	6671.375
450.6534	6783.375
454.76644	6825.375
458.87653	6767.875
462.98368	6683.775
467.08789	6563.975
471.18916	6420.175
475.2875	6188.875
479.38291	6017.475
483.4754	5890.075
487.56496	5847.675
491.6516	5799.775
495.73531	5797.675
499.81612	5836.875
503.89401	6001.375
507.96899	6128.375
512.04106	6320.275
516.11023	6507.375
520.1765	6678.675
524.23987	6738.075
528.30034	6714.975
532.35792	6584.775
536.41261	6482.175
540.46441	6291.475
544.51333	6198.575
548.55936	6186.175
552.60252	6324.475
556.64279	6504.375
560.6802	6827.775
564.71473	7489.975
568.7464	8347.175
572.7752	8290.875
576.80114	7158.675
580.82422	6240.275
584.84444	5861.875
588.86181	5723.675
592.87633	5740.275
596.888	5918.375
600.89682	6538.675
604.9028	8522.875
608.90594	13468.675
612.90624	19415.475
616.90371	17715.975
620.89834	10306.975
624.89015	7091.975
628.87913	6742.875
632.86528	7216.275
636.84862	7449.075
640.82913	6900.875
644.80683	6106.275
648.78172	5744.975
652.75379	5847.275
656.72306	6424.775
660.68952	7000.675
664.65319	6744.475
668.61405	6050.475
672.57211	5782.575
676.52738	5801.175
680.47986	5696.475
684.42955	5561.475
688.37646	5477.775
692.32058	5493.475
696.26192	5595.375
700.20048	5734.475
704.13626	5761.575
708.06928	5669.675
711.99952	5631.075
715.927	5665.175
719.85171	5808.175
723.77365	5923.675
727.69284	5811.875
731.60928	5689.775
735.52295	5639.975
739.43388	5694.475
743.34206	5744.175
747.24749	5764.975
751.15017	5777.575
755.05012	6004.475
758.94733	6934.275
762.8418	9067.375
766.73354	11899.975
770.62254	13357.075
774.50882	12873.875
778.39237	11856.875
782.27321	10283.575
786.15132	8182.375
790.02671	6718.475
793.89938	6027.475
797.76935	5783.375
801.6366	5650.875
805.50115	5602.075
809.36299	5576.575
813.22213	5543.775
817.07857	5563.475
820.93231	5580.575
824.78336	5651.475
828.63172	5746.175
832.47738	5765.275
836.32036	5719.975
840.16066	5562.675
843.99827	5478.875
847.8332	5451.175
851.66546	5445.475
855.49504	5451.875
859.32195	5432.575
863.1462	5395.075
866.96777	5376.775
870.78668	5382.075
874.60293	5429.175
878.41652	5483.175
882.22745	5604.275
886.03573	5655.375
889.84136	5645.575
893.64433	5604.175
897.44466	5622.675
901.24235	5628.575
905.0374	5571.275
908.8298	5422.775
912.61957	5359.375
916.40671	5260.575
920.19121	5316.275
923.97308	5452.275
927.75233	5738.475
931.52895	6024.575
935.30295	5907.575
939.07433	5462.075
942.84309	5187.875
946.60924	5076.975
950.37278	5032.875
954.13371	5015.075
957.89203	5011.875
961.64774	5024.975
965.40086	5002.575
969.15137	4955.375
972.89929	5007.075
976.64461	4973.575
980.38733	4980.675
984.12747	4960.675
987.86502	5002.575
991.59999	5029.875
995.33237	5064.175
999.06217	5151.475
1002.78939	5303.775
1006.51404	5529.975
1010.23611	5641.675
1013.95561	5564.175
1017.67255	5438.375
1021.38692	5336.375
1025.09872	5229.775
1028.80796	5151.375
1032.51465	5184.775
1036.21877	5193.475
1039.92035	5262.775
1043.61937	5323.175
1047.31584	5398.975
1051.00976	5420.575
1054.70114	5373.375
1058.38998	5330.875
1062.07627	5321.475
1065.76003	5352.975
1069.44126	5403.975
1073.11995	5513.975
1076.79611	5761.475
1080.46974	6106.975
1084.14085	6636.875
1087.80943	7060.675
1091.47549	7057.475
1095.13903	6669.375
1098.80005	6271.575
1102.45857	6102.775
1106.11456	6100.975
1109.76805	6091.675
1113.41903	6340.775
1117.06751	6795.875
1120.71348	7493.275
1124.35696	8575.575
1127.99793	9310.775
1131.63641	8754.875
1135.2724	7554.975
1138.90589	6767.075
1142.5369	6311.975
1146.16542	6027.875
1149.79145	5821.175
1153.415	5757.475
1157.03607	5784.675
1160.65467	5933.575
1164.27079	6233.575
1167.88443	6673.075
1171.49561	7411.875
1175.10432	8719.475
1178.71056	10518.675
1182.31434	11820.075
1185.91565	11676.175
1189.51451	10573.575
1193.11091	9421.975
1196.70485	8655.075
1200.29634	8318.675
1203.88538	7912.175
1207.47197	7184.675
1211.05612	6498.275
1214.63782	6014.575
1218.21708	5789.775
1221.79391	5673.675
1225.36829	5656.075
1228.94024	5665.075
1232.50976	5664.575
1236.07685	5684.775
1239.6415	5744.775
1243.20374	5814.375
1246.76355	5920.975
1250.32093	6063.975
1253.8759	6276.375
1257.42845	6690.375
1260.97859	7172.875
1264.52631	7665.875
1268.07163	7922.075
1271.61453	7964.275
1275.15503	7837.875
1278.69312	7645.975
1282.22882	7777.375
1285.76211	8379.275
1289.29301	9242.975
1292.82151	9851.675
1296.34761	10093.575
1299.87133	10686.175
1303.39266	12182.175
1306.9116	15049.375
1310.42815	18452.775
1313.94233	19619.875
1317.45412	17011.775
1320.96354	13320.775
1324.47058	10518.475
1327.97525	8812.275
1331.47754	7884.575
1334.97747	7578.275
1338.47502	7702.475
1341.97022	8429.375
1345.46305	9989.175
1348.95352	12221.875
1352.44163	14487.375
1355.92738	17150.875
1359.41078	21785.275
1362.89183	26747.375
1366.37053	25663.375
1369.84688	18575.075
1373.32088	12544.475
1376.79254	9959.275
1380.26186	8776.275
1383.72883	7916.875
1387.19347	7048.375
1390.65578	6417.875
1394.11575	6051.175
1397.57339	5840.875
1401.0287	5723.975
1404.48168	5627.275
1407.93234	5601.175
1411.38068	5686.375
1414.82669	5970.775
1418.27039	6300.175
1421.71177	6376.675
1425.15083	6214.975
1428.58758	6181.775
1432.02203	6476.175
1435.45416	6716.875
1438.88399	6510.675
1442.31151	6276.975
1445.73673	6215.575
1449.15965	6169.875
1452.58027	6125.275
1455.9986	5990.975
1459.41463	5883.475
1462.82837	5921.775
1466.23982	6100.075
1469.64898	6350.875
1473.05586	6447.175
1476.46045	6462.175
1479.86276	6519.775
1483.26279	6739.875
1486.66054	7199.875
1490.05602	7896.175
1493.44922	9071.075
1496.84016	10914.775
1500.22882	13745.475
1503.61521	17663.875
1506.99934	22546.875
1510.38121	27280.775
1513.76081	28868.475
1517.13816	25664.575
1520.51324	19623.575
1523.88607	14344.475
1527.25665	10977.075
1530.62498	9090.775
1533.99105	7999.875
1537.35488	7319.375
1540.71647	6894.775
1544.07581	6756.575
1547.4329	6754.575
1550.78776	6855.775
1554.14038	7090.775
1557.49077	7438.875
1560.83892	8092.575
1564.18484	9076.775
1567.52853	10222.975
1570.86999	10909.275
1574.20922	11029.175
1577.54624	10599.875
1580.88103	9302.675
1584.2136	7676.475
1587.54395	6732.275
1590.87208	6489.675
1594.19801	6784.775
1597.52172	7291.075
1600.84321	7346.375
1604.16251	6785.275
1607.47959	6243.975
1610.79447	5938.375
1614.10715	5626.975
1617.41763	5414.475
1620.7259	5290.875
1624.03199	5295.875
1627.33587	5391.875
1630.63757	5641.375
1633.93707	6124.075
1637.23439	6981.875
1640.52951	8583.075
1643.82246	11258.675
1647.11321	14857.475
1650.40179	17675.575
1653.68819	17379.875
1656.97241	14042.475
1660.25446	10215.575
1663.53433	7562.175
1666.81203	6112.675
1670.08756	5392.075
1673.36092	4985.575
1676.63211	4735.475
1679.90115	4578.175
1683.16801	4466.975
1686.43272	4355.875
1689.69527	4304.275
1692.95567	4233.275
1696.2139	4215.475
1699.46999	4146.075
1702.72392	4144.175
1705.97571	4145.075
1709.22535	4133.175
1712.47284	4179.975
1715.71819	4223.175
1718.96139	4214.375
1722.20246	4178.575
1725.44139	4139.675
1728.67818	4109.875
1731.91284	4028.375
1735.14537	4000.675
1738.37576	3972.375
1741.60403	3948.675
1744.83017	3918.075
1748.05418	3918.475
1751.27607	3903.775
1754.49584	3850.575
1757.71349	3791.575
1760.92903	3788.375
1764.14244	3712.775
1767.35375	3722.375
1770.56294	3697.775
1773.77002	3659.675
1776.97499	3649.675
1780.17785	3616.775
1783.37861	3602.275
1786.57727	3603.775
1789.77382	3540.575
1792.96828	3583.475
1796.16064	3582.875
1799.3509	3580.075
1802.53907	3578.375
1805.72514	3532.375
1808.90913	3521.175
1812.09102	3522.775
1815.27083	3500.275
1818.44856	3490.675
1821.6242	3482.675
1824.79776	3475.175
1827.96924	3451.075
1831.13864	3430.675
1834.30597	3423.175
1837.47122	3412.675
1840.6344	3384.075
1843.7955	3365.375
1846.95454	3345.375
1850.11151	3362.575
1853.26642	3310.375
1856.41926	3341.175
1859.57004	3332.175
1862.71876	3331.075
1865.86542	3342.075
1869.01003	3340.275
1872.15258	3316.375
1875.29308	3344.875
1878.43152	3351.475
1881.56792	3312.375
1884.70227	3306.075
1887.83457	3295.575
1890.96482	3281.675
1894.09304	3279.475
1897.21921	3268.675
1900.34335	3267.675
1903.46544	3244.475
1906.58551	3265.375
1909.70353	3258.275
1912.81953	3252.175
1915.93349	3229.475
1919.04543	3226.275
1922.15534	3210.775
1925.26322	3198.375
1928.36908	3177.875
1931.47292	3156.175
1934.57473	3158.575
1937.67453	3130.675
1940.77232	3101.575
1943.86808	3095.475
1946.96184	3091.375
1950.05358	3054.175
1953.14331	3050.075
1956.23103	3060.675
1959.31675	3041.475
1962.40046	2995.475
1965.48217	3042.175
1968.56188	3037.675
1971.63959	3035.875
1974.7153	3041.975
1977.78901	3041.075
1980.86073	3009.975
1983.93046	2960.275
1986.99819	2882.275
1990.06394	2900.075
1993.1277	2915.175
1996.18947	2887.875
1999.24925	2865.075
2002.30706	2866.775
2005.36288	2859.275
2008.41672	2831.975
2011.46859	2805.175
2014.51848	2796.575
2017.56639	2790.675
2020.61233	2781.275
2023.6563	2780.575
2026.6983	2735.575
2029.73833	2743.875
2032.7764	2765.875
2035.8125	2712.275
2038.84664	2717.575
2041.87881	2704.975
2044.90903	2720.975
2047.93729	2706.875
2050.96359	2689.175
2053.98794	2696.675
2057.01034	2683.675
2060.03078	2660.375
2063.04927	2654.775
2066.06582	2666.075
2069.08042	2643.175
2072.09307	2643.375
2075.10378	2637.675
2078.11255	2630.475
2081.11938	2625.875
2084.12426	2626.275
2087.12722	2617.275
2090.12824	2622.575
2093.12732	2625.875
2096.12447	2639.675
2099.11969	2622.875
2102.11299	2614.275
2105.10435	2635.475
2108.09379	2628.875
2111.08131	2615.575
2114.0669	2630.375
2117.05057	2627.475
2120.03233	2635.275
2123.01216	2662.675
2125.99008	2661.675
2128.96609	2667.775
2131.94018	2677.175
2134.91236	2656.375
2137.88263	2649.975
2140.851	2643.675
2143.81746	2643.375
2146.78201	2629.575
2149.74466	2601.775
2152.7054	2603.675
2155.66425	2587.475
2158.6212	2583.375
2161.57625	2551.875
2164.52941	2538.975
2167.48067	2548.075
2170.43004	2555.875
2173.37752	2574.575
2176.32311	2568.275
2179.26681	2578.275
2182.20863	2585.075
2185.14856	2578.675
2188.08661	2572.375
2191.02278	2585.375
2193.95707	2550.575
2196.88948	2523.275
2199.82001	2526.975
2202.74867	2521.675
2205.67545	2533.475
2208.60037	2547.175
2211.52341	2527.175
2214.44458	2522.775
2217.36388	2508.175
2220.28132	2488.475
2223.1969	2473.075
2226.11061	2477.175
2229.02246	2468.675
2231.93245	2474.375
2234.84058	2453.075
2237.74686	2432.675
2240.65128	2427.775
2243.55385	2450.475
2246.45456	2426.775
2249.35343	2454.875
2252.25044	2448.275
2255.14561	2454.975
2258.03893	2486.975
2260.93041	2482.375
2263.82004	2490.875
2266.70783	2487.175
2269.59378	2472.975
2272.4779	2450.475
2275.36017	2477.375
2278.24061	2453.775
2281.11922	2418.275
2283.996	2439.375
2286.87094	2400.775
2289.74405	2407.375
2292.61534	2396.775
2295.4848	2388.775
2298.35243	2374.175
2301.21824	2356.475
2304.08223	2358.975
2306.94439	2354.775
2309.80474	2369.375
2312.66327	2351.175
2315.51999	2345.375
2318.37489	2330.475
2321.22797	2318.475
2324.07925	2313.175
2326.92871	2313.875
2329.77637	2302.975
2332.62222	2300.775
2335.46626	2281.675
2338.3085	2288.575
2341.14893	2303.675
2343.98756	2316.175
2346.8244	2283.875
2349.65943	2295.175
2352.49267	2289.875
2355.32411	2317.675
2358.15376	2318.875
2360.98161	2333.175
2363.80768	2324.275
2366.63195	2334.475
2369.45444	2345.775
2372.27514	2347.475
2375.09405	2358.575
2377.91118	2329.075
2380.72652	2331.175
2383.54009	2311.275
2386.35187	2313.775
2389.16188	2290.675
2391.97011	2267.175
2394.77657	2256.875
2397.58125	2260.375
2400.38416	2243.475
2403.18529	2227.875
2405.98466	2201.675
2408.78226	2218.375
2411.57809	2209.875
2414.37216	2191.475
2417.16446	2202.575
2419.955	2170.175
2422.74378	2194.975
2425.5308	2191.875
2428.31606	2196.875
2431.09956	2205.275
2433.88131	2181.375
2436.6613	2197.775
2439.43954	2199.375
2442.21603	2190.275
2444.99077	2195.775
2447.76377	2215.375
2450.53501	2206.975
2453.30451	2196.975
2456.07226	2218.175
2458.83827	2188.475
2461.60254	2156.975
2464.36507	2192.975
2467.12586	2165.475
2469.88492	2187.075
2472.64224	2182.375
2475.39782	2164.475
2478.15167	2188.875
2480.90379	2196.875
2483.65417	2228.275
2486.40283	2225.875
2489.14976	2244.275
2491.89497	2228.775
2494.63845	2226.975
2497.3802	2220.375
2500.12024	2207.675
2502.85855	2196.675
2505.59514	2197.675
2508.33002	2170.675
2511.06318	2138.275
2513.79462	2124.375
2516.52435	2076.175
2519.25237	2059.375
2521.97867	2057.475
2524.70327	2053.075
2527.42616	2036.175
2530.14734	2049.575
2532.86681	2012.575
2535.58458	2023.875
2538.30065	2025.275
2541.01501	2045.575
2543.72768	2024.275
2546.43864	2029.675
2549.14791	2032.575
2551.85548	2013.275
2554.56136	2022.975
2557.26554	2040.775
2559.96803	2030.475
2562.66883	2027.075
2565.36794	2022.975
2568.06536	1991.675
2570.7611	2027.675
2573.45514	2013.675
2576.14751	2016.175
2578.83819	1979.275
2581.52719	1982.875
2584.21451	1986.675
2586.90015	1968.575
2589.58411	1955.275
2592.2664	1959.675
2594.94701	1964.075
2597.62594	1960.275
2600.30321	1911.475
2602.9788	1930.775
2605.65273	1924.075
2608.32498	1938.475
2610.99557	1942.175
2613.66449	1919.175
2616.33175	1926.075
2618.99734	1935.675
2621.66128	1937.875
2624.32355	1918.475
2626.98416	1907.375
2629.64311	1905.975
2632.30041	1894.475
2634.95605	1869.575
2637.61004	1854.375
2640.26238	1844.575
2642.91306	1840.575
2645.56209	1853.575
2648.20948	1847.775
2650.85521	1836.775
2653.4993	1857.075
2656.14175	1848.575
2658.78255	1838.375
2661.42171	1824.075
2664.05923	1854.775
2666.6951	1865.875
2669.32934	1880.575
2671.96194	1889.975
2674.59291	1866.575
2677.22224	1874.675
2679.84993	1871.875
2682.476	1866.475
2685.10043	1854.575
2687.72324	1840.475
2690.34441	1839.975
2692.96396	1845.075
2695.58188	1847.175
2698.19818	1844.675
2700.81285	1824.075
2703.4259	1817.875
2706.03733	1798.575
2708.64714	1800.975
2711.25533	1830.975
2713.86191	1840.075
2716.46687	1842.875
2719.07021	1834.375
2721.67194	1820.875
2724.27206	1849.375
2726.87057	1822.575
2729.46747	1816.475
2732.06276	1809.875
2734.65644	1795.875
2737.24852	1795.275
2739.83899	1782.575
2742.42786	1781.575
2745.01513	1784.375
2747.60079	1765.775
2750.18486	1753.275
2752.76733	1748.475
2755.3482	1741.075
2757.92747	1750.175
2760.50515	1728.475
2763.08123	1715.875
2765.65573	1726.375
2768.22863	1718.875
2770.79994	1699.775
2773.36967	1713.275
2775.9378	1709.675
2778.50435	1689.375
2781.06932	1689.075
2783.6327	1684.975
2786.1945	1712.775
2788.75471	1696.775
2791.31335	1692.475
2793.87041	1696.875
2796.42589	1685.275
2798.97979	1675.075
2801.53212	1700.775
2804.08288	1707.575
2806.63206	1697.675
2809.17967	1687.375
2811.72571	1701.875
2814.27018	1711.075
2816.81308	1717.475
2819.35442	1689.975
2821.89419	1717.475
2824.43239	1712.075
2826.96904	1736.475
2829.50412	1721.675
2832.03763	1725.375
2834.56959	1709.675
2837.1	1692.675
2839.62884	1694.075
2842.15613	1693.675
2844.68186	1692.275
2847.20604	1668.075
2849.72867	1677.575
2852.24974	1689.675
2854.76927	1660.275
2857.28724	1625.575
2859.80367	1705.175
2862.31855	1722.375
2864.83189	1717.875
2867.34368	1714.575
2869.85393	1745.075
2872.36264	1714.375
2874.8698	1726.675
2877.37543	1737.175
2879.87952	1721.175
2882.38207	1683.375
2884.88308	1686.775
2887.38256	1684.275
2889.88051	1672.675
2892.37692	1671.275
2894.8718	1640.075
2897.36515	1667.075
2899.85698	1661.475
2902.34727	1655.575
2904.83604	1675.675
2907.32328	1692.075
2909.809	1695.275
2912.29319	1699.575
2914.77587	1710.575
2917.25702	1719.475
2919.73665	1723.675
2922.21476	1713.075
2924.69136	1699.175
2927.16644	1659.475
2929.64	1662.775
2932.11205	1638.075
2934.58258	1641.875
2937.05161	1618.675
2939.51912	1630.275
2941.98513	1635.175
2944.44962	1622.075
2946.91261	1608.575
2949.37409	1610.875
2951.83407	1616.975
2954.29254	1622.275
2956.74951	1614.575
2959.20498	1605.375
2961.65895	1609.375
2964.11142	1602.275
2966.56239	1596.075
2969.01186	1600.875
2971.45984	1595.975
2973.90632	1591.175
2976.35131	1606.775
2978.7948	1593.175
2981.23681	1590.175
2983.67732	1592.575
2986.11635	1602.475
2988.55388	1580.875
2990.98993	1585.075
2993.4245	1575.775
2995.85758	1565.875
2998.28917	1575.675
3000.71928	1567.875
3003.14791	1566.975
3005.57506	1556.375
3008.00073	1546.875
3010.42493	1492.575
3012.84764	1545.175
3015.26888	1549.375
3017.68865	1546.675
3020.10694	1491.475
3022.52376	1517.975
3024.9391	1507.375
3027.35298	1498.275
3029.76539	1475.975
3032.17632	1478.675
3034.5858	1461.275
3036.9938	1462.175
3039.40034	1450.175
3041.80542	1445.475
3044.20903	1418.575
3046.61118	1408.375
3049.01187	1419.875
3051.4111	1417.375
3053.80888	1398.275
3056.20519	1397.275
3058.60005	1387.575
3060.99345	1407.775
3063.3854	1385.775
3065.7759	1374.875
3068.16494	1370.075
3070.55254	1367.075
3072.93868	1374.575
3075.32338	1372.275
3077.70662	1357.175
3080.08842	1346.775
3082.46878	1338.875
3084.84769	1359.575
3087.22515	1334.275
3089.60118	1352.575
3091.97576	1332.275
3094.3489	1344.375
3096.72061	1332.675
3099.09087	1316.675
3101.4597	1334.375
3103.82709	1329.375
3106.19305	1311.275
3108.55757	1315.775
3110.92066	1311.975
3113.28232	1329.575
3115.64255	1321.975
3118.00134	1330.175
3120.35871	1312.875
3122.71466	1289.075
3125.06917	1312.675
3127.42226	1292.075
3129.77393	1287.975
3132.12417	1298.375
3134.47299	1306.175
3136.82039	1288.375
3139.16636	1265.575
3141.51092	1287.075
3143.85406	1288.575
3146.19579	1276.275
3148.53609	1276.875
3150.87499	1287.275
3153.21246	1277.575
3155.54853	1294.975
3157.88318	1289.675
3160.21642	1296.775
3162.54826	1285.775
3164.87868	1283.775
3167.2077	1251.575
3169.5353	1270.775
3171.86151	1284.075
3174.18631	1257.475
3176.5097	1252.375
3178.83169	1250.275
3181.15228	1251.575
3183.47147	1223.475
3185.78926	1216.875
3188.10565	1224.175
3190.42065	1205.275
3192.73424	1224.875
3195.04645	1207.275
3197.35725	1194.375
3199.66667	1221.175
3201.97469	1210.175
3204.28132	1207.875
3206.58656	1227.275
3208.8904	1220.875
3211.19287	1215.275
3213.49394	1207.175
3215.79363	1206.375
3218.09193	1225.075
3220.38884	1216.375
3222.68438	1208.675
3224.97853	1197.075
3227.2713	1206.675
3229.56269	1202.375
3231.8527	1205.975
