Data from AgNPs_UA_10uM_CRN_500uM_SU_RamanShift__14__13-07-40-256.txt Node

Date: Thu Aug 04 13:07:40 BST 2022
User: TCL
Spectrometer: QEP01345
Trigger mode: 4
Integration Time (sec): 1.000000E0
Scans to average: 10
Electric dark correction enabled: true
Nonlinearity correction enabled: false
Boxcar width: 0
XAxis mode: Raman Shifts
Number of Pixels in Spectrum: 1044
>>>>>Begin Spectral Data<<<<<
46.04893	-0.225
50.45542	-0.925
54.85868	0.075
59.25871	1.375
63.6555	16.375
68.04907	17.275
72.43941	16.775
76.82654	19.775
81.21044	18.775
85.59113	20.975
89.96862	21.675
94.34289	21.175
98.71396	22.075
103.08183	22.575
107.4465	24.475
111.80798	24.575
116.16626	26.775
120.52136	25.975
124.87327	30.075
129.222	31.775
133.56755	32.075
137.90993	35.475
142.24913	39.775
146.58517	45.475
150.91804	51.375
155.24774	65.875
159.57429	80.775
163.89768	105.375
168.21792	144.475
172.53501	194.775
176.84895	274.775
181.15975	390.275
185.46741	553.975
189.77193	777.675
194.07331	1040.375
198.37157	1349.275
202.6667	1673.175
206.9587	1987.775
211.24758	2316.175
215.53334	2647.175
219.81599	3005.375
224.09553	3405.275
228.37195	3845.475
232.64527	4288.775
236.91549	4752.975
241.18261	5181.375
245.44663	5487.675
249.70755	5732.075
253.96539	5950.875
258.22014	6129.275
262.4718	6281.675
266.72039	6372.475
270.96589	6416.975
275.20832	6338.475
279.44768	6256.075
283.68397	6133.275
287.91719	6081.375
292.14735	6094.875
296.37445	6236.375
300.59849	6418.075
304.81948	6699.575
309.03742	6947.675
313.25231	7089.375
317.46415	7041.675
321.67296	6754.675
325.87872	6486.775
330.08145	6294.275
334.28114	6299.475
338.47781	6340.875
342.67145	6467.475
346.86207	6675.675
351.04966	6973.775
355.23424	7269.175
359.4158	7465.475
363.59435	7526.275
367.76989	7505.675
371.94243	7470.575
376.11196	7441.075
380.27849	7402.475
384.44203	7425.075
388.60257	7426.475
392.76012	7496.775
396.91468	7599.275
401.06626	7732.175
405.21485	7780.075
409.36047	7670.975
413.50311	7403.775
417.64277	7194.275
421.77947	7033.175
425.9132	6974.275
430.04396	6930.575
434.17176	6971.875
438.2966	7023.675
442.41849	7148.075
446.53742	7296.375
450.6534	7424.675
454.76644	7540.075
458.87653	7569.575
462.98368	7581.575
467.08789	7547.475
471.18916	7441.175
475.2875	7289.275
479.38291	7142.975
483.4754	7046.675
487.56496	6992.575
491.6516	6954.575
495.73531	6968.275
499.81612	7007.975
503.89401	7081.275
507.96899	7133.375
512.04106	7179.275
516.11023	7225.775
520.1765	7264.075
524.23987	7275.375
528.30034	7269.275
532.35792	7260.775
536.41261	7182.175
540.46441	7114.475
544.51333	7096.375
548.55936	7140.375
552.60252	7247.575
556.64279	7330.975
560.6802	7449.375
564.71473	7580.275
568.7464	7674.375
572.7752	7629.475
576.80114	7373.675
580.82422	7197.075
584.84444	7135.375
588.86181	7115.775
592.87633	7146.475
596.888	7248.175
600.89682	7608.275
604.9028	8542.475
608.90594	10420.675
612.90624	12313.575
616.90371	11356.875
620.89834	8784.375
624.89015	7709.975
628.87913	7605.675
632.86528	7770.375
636.84862	7885.875
640.82913	7685.775
644.80683	7377.075
648.78172	7209.375
652.75379	7244.475
656.72306	7453.775
660.68952	7678.975
664.65319	7620.775
668.61405	7508.075
672.57211	7525.575
676.52738	7558.275
680.47986	7378.075
684.42955	7214.175
688.37646	7170.775
692.32058	7213.075
696.26192	7348.575
700.20048	7484.575
704.13626	7488.375
708.06928	7442.675
711.99952	7363.775
715.927	7330.975
719.85171	7358.575
723.77365	7404.475
727.69284	7353.075
731.60928	7301.075
735.52295	7294.875
739.43388	7335.575
743.34206	7343.275
747.24749	7344.875
751.15017	7335.075
755.05012	7408.675
758.94733	7715.675
762.8418	8419.375
766.73354	9514.875
770.62254	10290.875
774.50882	10460.375
778.39237	10088.875
782.27321	9408.975
786.15132	8564.575
790.02671	7940.875
793.89938	7606.275
797.76935	7459.775
801.6366	7366.375
805.50115	7322.375
809.36299	7275.775
813.22213	7272.375
817.07857	7282.575
820.93231	7288.475
824.78336	7287.175
828.63172	7321.075
832.47738	7336.675
836.32036	7311.275
840.16066	7275.075
843.99827	7238.675
847.8332	7273.875
851.66546	7267.275
855.49504	7286.975
859.32195	7306.575
863.1462	7287.075
866.96777	7290.075
870.78668	7288.275
874.60293	7334.275
878.41652	7351.375
882.22745	7417.675
886.03573	7448.475
889.84136	7457.175
893.64433	7423.375
897.44466	7419.275
901.24235	7403.175
905.0374	7383.475
908.8298	7345.775
912.61957	7353.775
916.40671	7342.975
920.19121	7352.875
923.97308	7379.375
927.75233	7472.175
931.52895	7524.475
935.30295	7462.275
939.07433	7342.475
942.84309	7275.175
946.60924	7244.675
950.37278	7216.375
954.13371	7201.575
957.89203	7241.275
961.64774	7224.175
965.40086	7201.875
969.15137	7194.175
972.89929	7202.775
976.64461	7192.675
980.38733	7193.375
984.12747	7216.175
987.86502	7240.475
991.59999	7266.975
995.33237	7318.675
999.06217	7365.175
1002.78939	7468.875
1006.51404	7616.175
1010.23611	7731.775
1013.95561	7811.575
1017.67255	7813.875
1021.38692	7797.175
1025.09872	7752.975
1028.80796	7658.975
1032.51465	7638.775
1036.21877	7639.275
1039.92035	7673.675
1043.61937	7715.575
1047.31584	7750.575
1051.00976	7759.175
1054.70114	7803.575
1058.38998	7805.275
1062.07627	7861.475
1065.76003	7907.975
1069.44126	7997.075
1073.11995	8150.375
1076.79611	8314.475
1080.46974	8448.175
1084.14085	8552.075
1087.80943	8611.775
1091.47549	8664.475
1095.13903	8655.375
1098.80005	8711.075
1102.45857	8768.375
1106.11456	8763.475
1109.76805	8609.375
1113.41903	8555.675
1117.06751	8675.575
1120.71348	8848.675
1124.35696	9047.275
1127.99793	9180.075
1131.63641	9016.275
1135.2724	8712.375
1138.90589	8474.575
1142.5369	8349.575
1146.16542	8277.175
1149.79145	8183.075
1153.415	8109.475
1157.03607	8078.975
1160.65467	8172.475
1164.27079	8338.675
1167.88443	8613.175
1171.49561	8987.175
1175.10432	9567.875
1178.71056	10324.075
1182.31434	10991.875
1185.91565	11248.375
1189.51451	11241.475
1193.11091	11127.775
1196.70485	10943.675
1200.29634	10740.775
1203.88538	10443.875
1207.47197	10073.875
1211.05612	9648.075
1214.63782	9220.075
1218.21708	8920.575
1221.79391	8751.075
1225.36829	8678.375
1228.94024	8680.175
1232.50976	8673.775
1236.07685	8722.475
1239.6415	8766.575
1243.20374	8821.075
1246.76355	8869.975
1250.32093	8931.575
1253.8759	9047.575
1257.42845	9274.475
1260.97859	9507.375
1264.52631	9770.075
1268.07163	9968.275
1271.61453	10029.975
1275.15503	10050.475
1278.69312	9993.875
1282.22882	10005.175
1285.76211	10120.075
1289.29301	10295.175
1292.82151	10508.475
1296.34761	10665.575
1299.87133	11019.575
1303.39266	11609.875
1306.9116	12496.575
1310.42815	13491.875
1313.94233	13821.175
1317.45412	13357.075
1320.96354	12553.875
1324.47058	11848.475
1327.97525	11203.475
1331.47754	10847.875
1334.97747	10741.575
1338.47502	10834.475
1341.97022	11243.875
1345.46305	11972.075
1348.95352	13044.975
1352.44163	14251.975
1355.92738	15413.375
1359.41078	16658.675
1362.89183	17503.675
1366.37053	16599.775
1369.84688	14206.775
1373.32088	12088.875
1376.79254	10887.475
1380.26186	10329.975
1383.72883	9955.375
1387.19347	9584.175
1390.65578	9266.375
1394.11575	8994.075
1397.57339	8809.475
1401.0287	8718.875
1404.48168	8733.075
1407.93234	8764.075
1411.38068	8917.675
1414.82669	9039.075
1418.27039	9077.475
1421.71177	9073.275
1425.15083	8999.175
1428.58758	8878.775
1432.02203	8880.275
1435.45416	8853.175
1438.88399	8866.975
1442.31151	8821.475
1445.73673	8879.875
1449.15965	8909.375
1452.58027	8886.975
1455.9986	8876.875
1459.41463	8886.375
1462.82837	8972.375
1466.23982	9159.775
1469.64898	9346.775
1473.05586	9495.475
1476.46045	9625.075
1479.86276	9721.175
1483.26279	9844.275
1486.66054	10049.575
1490.05602	10395.275
1493.44922	10864.675
1496.84016	11649.075
1500.22882	12786.075
1503.61521	14104.375
1506.99934	15415.075
1510.38121	16241.875
1513.76081	16029.775
1517.13816	14814.775
1520.51324	13192.875
1523.88607	11851.375
1527.25665	11021.675
1530.62498	10639.675
1533.99105	10413.575
1537.35488	10303.175
1540.71647	10208.275
1544.07581	10112.975
1547.4329	9961.675
1550.78776	9840.475
1554.14038	9741.375
1557.49077	9699.775
1560.83892	9812.975
1564.18484	10051.575
1567.52853	10331.975
1570.86999	10513.475
1574.20922	10605.975
1577.54624	10478.775
1580.88103	10036.775
1584.2136	9522.075
1587.54395	9211.175
1590.87208	9166.475
1594.19801	9419.575
1597.52172	9737.875
1600.84321	9869.075
1604.16251	9777.375
1607.47959	9654.375
1610.79447	9429.175
1614.10715	9084.775
1617.41763	8720.575
1620.7259	8427.275
1624.03199	8259.675
1627.33587	8187.975
1630.63757	8255.975
1633.93707	8485.975
1637.23439	8953.875
1640.52951	9693.175
1643.82246	10721.975
1647.11321	11805.375
1650.40179	12375.775
1653.68819	11863.975
1656.97241	10591.975
1660.25446	9258.975
1663.53433	8366.575
1666.81203	7821.675
1670.08756	7495.075
1673.36092	7329.075
1676.63211	7184.275
1679.90115	7085.975
1683.16801	7009.575
1686.43272	6937.975
1689.69527	6892.075
1692.95567	6865.575
1696.2139	6818.675
1699.46999	6816.675
1702.72392	6800.375
1705.97571	6791.975
1709.22535	6787.975
1712.47284	6796.975
1715.71819	6798.575
1718.96139	6781.875
1722.20246	6786.175
1725.44139	6740.475
1728.67818	6721.575
1731.91284	6686.075
1735.14537	6637.875
1738.37576	6604.375
1741.60403	6574.675
1744.83017	6540.275
1748.05418	6561.275
1751.27607	6539.775
1754.49584	6534.675
1757.71349	6513.375
1760.92903	6487.075
1764.14244	6476.475
1767.35375	6464.575
1770.56294	6452.275
1773.77002	6433.775
1776.97499	6412.275
1780.17785	6374.375
1783.37861	6374.575
1786.57727	6357.775
1789.77382	6363.075
1792.96828	6341.375
1796.16064	6319.975
1799.3509	6318.275
1802.53907	6306.375
1805.72514	6320.875
1808.90913	6292.675
1812.09102	6260.775
1815.27083	6245.175
1818.44856	6230.275
1821.6242	6197.975
1824.79776	6197.575
1827.96924	6186.075
1831.13864	6197.575
1834.30597	6176.575
1837.47122	6152.975
1840.6344	6136.575
1843.7955	6139.575
1846.95454	6140.875
1850.11151	6125.475
1853.26642	6138.675
1856.41926	6123.575
1859.57004	6133.175
1862.71876	6137.275
1865.86542	6115.875
1869.01003	6102.575
1872.15258	6085.675
1875.29308	6068.775
1878.43152	6077.175
1881.56792	6068.075
1884.70227	6044.875
1887.83457	6040.175
1890.96482	6017.175
1894.09304	6012.775
1897.21921	5998.075
1900.34335	6007.375
1903.46544	5983.075
1906.58551	5980.775
1909.70353	5971.475
1912.81953	5960.475
1915.93349	5969.975
1919.04543	5943.075
1922.15534	5920.875
1925.26322	5924.875
1928.36908	5891.075
1931.47292	5876.275
1934.57473	5870.775
1937.67453	5859.675
1940.77232	5826.575
1943.86808	5817.875
1946.96184	5811.475
1950.05358	5786.175
1953.14331	5779.075
1956.23103	5750.775
1959.31675	5720.875
1962.40046	5719.175
1965.48217	5696.575
1968.56188	5685.875
1971.63959	5658.775
1974.7153	5638.275
1977.78901	5645.775
1980.86073	5633.675
1983.93046	5587.675
1986.99819	5588.475
1990.06394	5580.075
1993.1277	5538.175
1996.18947	5503.275
1999.24925	5490.675
2002.30706	5472.275
2005.36288	5448.675
2008.41672	5429.375
2011.46859	5414.975
2014.51848	5406.275
2017.56639	5374.875
2020.61233	5359.875
2023.6563	5350.675
2026.6983	5341.675
2029.73833	5320.975
2032.7764	5305.575
2035.8125	5287.375
2038.84664	5283.175
2041.87881	5264.375
2044.90903	5245.075
2047.93729	5226.375
2050.96359	5234.375
2053.98794	5232.875
2057.01034	5211.175
2060.03078	5214.275
2063.04927	5213.875
2066.06582	5207.975
2069.08042	5191.175
2072.09307	5174.975
2075.10378	5174.475
2078.11255	5171.575
2081.11938	5156.575
2084.12426	5148.175
2087.12722	5137.775
2090.12824	5158.075
2093.12732	5144.875
2096.12447	5157.775
2099.11969	5163.975
2102.11299	5161.675
2105.10435	5152.675
2108.09379	5156.575
2111.08131	5145.775
2114.0669	5168.675
2117.05057	5157.575
2120.03233	5168.175
2123.01216	5151.075
2125.99008	5153.875
2128.96609	5167.475
2131.94018	5185.175
2134.91236	5158.775
2137.88263	5135.275
2140.851	5141.975
2143.81746	5161.775
2146.78201	5152.375
2149.74466	5141.375
2152.7054	5145.475
2155.66425	5141.575
2158.6212	5129.575
2161.57625	5133.875
2164.52941	5121.375
2167.48067	5124.575
2170.43004	5119.775
2173.37752	5111.075
2176.32311	5112.775
2179.26681	5117.175
2182.20863	5125.675
2185.14856	5109.875
2188.08661	5125.975
2191.02278	5125.775
2193.95707	5114.075
2196.88948	5106.475
2199.82001	5089.275
2202.74867	5097.875
2205.67545	5085.675
2208.60037	5090.975
2211.52341	5065.075
2214.44458	5045.775
2217.36388	5020.375
2220.28132	5012.875
2223.1969	4994.275
2226.11061	4983.775
2229.02246	4980.875
2231.93245	4947.375
2234.84058	4943.575
2237.74686	4949.575
2240.65128	4925.475
2243.55385	4924.475
2246.45456	4922.675
2249.35343	4908.675
2252.25044	4898.875
2255.14561	4899.575
2258.03893	4895.875
2260.93041	4896.575
2263.82004	4880.475
2266.70783	4854.575
2269.59378	4856.475
2272.4779	4850.575
2275.36017	4821.275
2278.24061	4824.175
2281.11922	4807.175
2283.996	4780.575
2286.87094	4782.375
2289.74405	4775.975
2292.61534	4773.375
2295.4848	4745.675
2298.35243	4744.275
2301.21824	4743.075
2304.08223	4715.475
2306.94439	4726.575
2309.80474	4729.475
2312.66327	4715.975
2315.51999	4701.675
2318.37489	4703.375
2321.22797	4687.175
2324.07925	4678.975
2326.92871	4673.475
2329.77637	4660.175
2332.62222	4651.275
2335.46626	4651.275
2338.3085	4636.075
2341.14893	4631.575
2343.98756	4631.475
2346.8244	4626.075
2349.65943	4616.875
2352.49267	4605.475
2355.32411	4597.375
2358.15376	4602.175
2360.98161	4604.075
2363.80768	4597.275
2366.63195	4596.475
2369.45444	4590.175
2372.27514	4602.875
2375.09405	4587.475
2377.91118	4573.575
2380.72652	4558.575
2383.54009	4555.875
2386.35187	4545.275
2389.16188	4525.775
2391.97011	4510.675
2394.77657	4498.175
2397.58125	4484.675
2400.38416	4483.875
2403.18529	4480.675
2405.98466	4482.475
2408.78226	4452.175
2411.57809	4445.475
2414.37216	4427.575
2417.16446	4432.375
2419.955	4421.075
2422.74378	4422.775
2425.5308	4416.775
2428.31606	4424.675
2431.09956	4414.275
2433.88131	4399.675
2436.6613	4391.275
2439.43954	4407.075
2442.21603	4380.975
2444.99077	4379.775
2447.76377	4380.475
2450.53501	4385.075
2453.30451	4371.675
2456.07226	4372.575
2458.83827	4358.275
2461.60254	4352.975
2464.36507	4346.775
2467.12586	4332.175
2469.88492	4326.075
2472.64224	4323.275
2475.39782	4337.775
2478.15167	4318.475
2480.90379	4315.875
2483.65417	4315.075
2486.40283	4309.475
2489.14976	4307.875
2491.89497	4319.975
2494.63845	4307.475
2497.3802	4285.975
2500.12024	4282.475
2502.85855	4269.475
2505.59514	4280.675
2508.33002	4276.375
2511.06318	4253.375
2513.79462	4245.775
2516.52435	4238.475
2519.25237	4210.675
2521.97867	4214.875
2524.70327	4205.175
2527.42616	4202.275
2530.14734	4186.175
2532.86681	4182.775
2535.58458	4176.375
2538.30065	4192.875
2541.01501	4183.875
2543.72768	4176.475
2546.43864	4164.375
2549.14791	4153.475
2551.85548	4146.275
2554.56136	4153.075
2557.26554	4153.975
2559.96803	4125.375
2562.66883	4113.475
2565.36794	4103.375
2568.06536	4083.275
2570.7611	4086.875
2573.45514	4059.175
2576.14751	4056.675
2578.83819	4042.075
2581.52719	4039.175
2584.21451	4041.375
2586.90015	4038.175
2589.58411	4020.775
2592.2664	4009.375
2594.94701	4006.175
2597.62594	4010.775
2600.30321	3992.075
2602.9788	4001.675
2605.65273	3981.375
2608.32498	3971.975
2610.99557	3956.175
2613.66449	3971.575
2616.33175	3948.475
2618.99734	3938.275
2621.66128	3942.275
2624.32355	3908.275
2626.98416	3915.175
2629.64311	3915.275
2632.30041	3915.875
2634.95605	3904.275
2637.61004	3897.875
2640.26238	3888.575
2642.91306	3877.875
2645.56209	3868.475
2648.20948	3872.275
2650.85521	3851.375
2653.4993	3863.775
2656.14175	3865.875
2658.78255	3847.875
2661.42171	3843.475
2664.05923	3846.375
2666.6951	3855.875
2669.32934	3860.675
2671.96194	3862.575
2674.59291	3856.175
2677.22224	3854.075
2679.84993	3867.575
2682.476	3852.675
2685.10043	3855.575
2687.72324	3844.775
2690.34441	3849.175
2692.96396	3842.375
2695.58188	3831.275
2698.19818	3838.775
2700.81285	3839.775
2703.4259	3822.775
2706.03733	3832.675
2708.64714	3814.175
2711.25533	3821.275
2713.86191	3816.675
2716.46687	3828.175
2719.07021	3814.575
2721.67194	3807.975
2724.27206	3830.975
2726.87057	3815.975
2729.46747	3810.075
2732.06276	3812.675
2734.65644	3784.675
2737.24852	3804.675
2739.83899	3785.575
2742.42786	3779.875
2745.01513	3770.075
2747.60079	3770.875
2750.18486	3760.175
2752.76733	3761.275
2755.3482	3750.175
2757.92747	3737.275
2760.50515	3726.375
2763.08123	3719.475
2765.65573	3716.775
2768.22863	3699.775
2770.79994	3687.875
2773.36967	3684.875
2775.9378	3681.075
2778.50435	3680.675
2781.06932	3668.875
2783.6327	3684.875
2786.1945	3661.875
2788.75471	3651.375
2791.31335	3656.175
2793.87041	3642.775
2796.42589	3631.175
2798.97979	3642.075
2801.53212	3615.975
2804.08288	3602.675
2806.63206	3597.875
2809.17967	3597.075
2811.72571	3605.375
2814.27018	3578.075
2816.81308	3576.675
2819.35442	3580.275
2821.89419	3571.875
2824.43239	3567.675
2826.96904	3540.375
2829.50412	3548.475
2832.03763	3525.275
2834.56959	3520.875
2837.1	3515.875
2839.62884	3503.275
2842.15613	3517.875
2844.68186	3508.175
2847.20604	3495.075
2849.72867	3493.175
2852.24974	3480.875
2854.76927	3476.575
2857.28724	3475.075
2859.80367	3466.875
2862.31855	3457.175
2864.83189	3463.875
2867.34368	3473.175
2869.85393	3458.175
2872.36264	3449.775
2874.8698	3447.175
2877.37543	3440.675
2879.87952	3442.875
2882.38207	3432.675
2884.88308	3435.375
2887.38256	3421.775
2889.88051	3408.775
2892.37692	3418.575
2894.8718	3410.375
2897.36515	3407.375
2899.85698	3398.975
2902.34727	3406.875
2904.83604	3417.975
2907.32328	3402.575
2909.809	3403.375
2912.29319	3421.275
2914.77587	3414.775
2917.25702	3426.375
2919.73665	3438.175
2922.21476	3428.875
2924.69136	3413.375
2927.16644	3408.775
2929.64	3394.475
2932.11205	3387.675
2934.58258	3372.875
2937.05161	3383.475
2939.51912	3385.475
2941.98513	3373.175
2944.44962	3359.975
2946.91261	3354.675
2949.37409	3343.775
2951.83407	3345.475
2954.29254	3345.475
2956.74951	3339.875
2959.20498	3354.775
2961.65895	3344.375
2964.11142	3340.475
2966.56239	3330.475
2969.01186	3325.875
2971.45984	3335.475
2973.90632	3317.375
2976.35131	3309.075
2978.7948	3315.975
2981.23681	3293.975
2983.67732	3296.075
2986.11635	3278.875
2988.55388	3281.875
2990.98993	3272.075
2993.4245	3265.575
2995.85758	3244.375
2998.28917	3234.275
3000.71928	3237.975
3003.14791	3220.775
3005.57506	3212.675
3008.00073	3206.675
3010.42493	3205.475
3012.84764	3186.475
3015.26888	3198.175
3017.68865	3187.175
3020.10694	3171.375
3022.52376	3161.975
3024.9391	3155.675
3027.35298	3133.875
3029.76539	3132.975
3032.17632	3124.775
3034.5858	3118.575
3036.9938	3097.175
3039.40034	3097.675
3041.80542	3094.275
3044.20903	3080.575
3046.61118	3086.475
3049.01187	3073.275
3051.4111	3070.475
3053.80888	3061.575
3056.20519	3052.975
3058.60005	3041.375
3060.99345	3031.075
3063.3854	3034.475
3065.7759	3022.775
3068.16494	3025.675
3070.55254	3024.775
3072.93868	2998.975
3075.32338	2998.075
3077.70662	2970.875
3080.08842	2972.575
3082.46878	2959.475
3084.84769	2949.875
3087.22515	2943.875
3089.60118	2953.075
3091.97576	2956.575
3094.3489	2949.075
3096.72061	2934.475
3099.09087	2941.575
3101.4597	2931.175
3103.82709	2928.975
3106.19305	2927.175
3108.55757	2928.475
3110.92066	2914.875
3113.28232	2917.775
3115.64255	2914.275
3118.00134	2886.475
3120.35871	2877.875
3122.71466	2877.075
3125.06917	2891.675
3127.42226	2876.775
3129.77393	2869.875
3132.12417	2850.675
3134.47299	2840.675
3136.82039	2852.575
3139.16636	2852.775
3141.51092	2846.275
3143.85406	2844.175
3146.19579	2844.175
3148.53609	2838.975
3150.87499	2840.375
3153.21246	2829.475
3155.54853	2839.975
3157.88318	2835.575
3160.21642	2820.775
3162.54826	2827.475
3164.87868	2820.075
3167.2077	2810.475
3169.5353	2794.875
3171.86151	2806.475
3174.18631	2796.675
3176.5097	2789.575
3178.83169	2777.275
3181.15228	2769.675
3183.47147	2771.975
3185.78926	2765.175
3188.10565	2760.475
3190.42065	2740.775
3192.73424	2728.475
3195.04645	2750.375
3197.35725	2724.175
3199.66667	2732.775
3201.97469	2728.375
3204.28132	2721.775
3206.58656	2738.975
3208.8904	2737.675
3211.19287	2745.675
3213.49394	2740.775
3215.79363	2722.575
3218.09193	2726.375
3220.38884	2733.975
3222.68438	2732.875
3224.97853	2722.975
3227.2713	2727.575
3229.56269	2701.975
3231.8527	2709.375
