Data from AgNPs_UA_50uM_CRN_500uM_SU_RamanShift__41__14-02-40-322.txt Node

Date: Thu Aug 04 14:02:40 BST 2022
User: TCL
Spectrometer: QEP01345
Trigger mode: 4
Integration Time (sec): 1.000000E0
Scans to average: 10
Electric dark correction enabled: true
Nonlinearity correction enabled: false
Boxcar width: 0
XAxis mode: Raman Shifts
Number of Pixels in Spectrum: 1044
>>>>>Begin Spectral Data<<<<<
46.04893	1.775
50.45542	-1.125
54.85868	0.075
59.25871	-1.125
63.6555	16.375
68.04907	13.275
72.43941	17.975
76.82654	18.375
81.21044	16.975
85.59113	18.875
89.96862	20.275
94.34289	21.275
98.71396	20.675
103.08183	21.175
107.4465	19.975
111.80798	20.375
116.16626	23.575
120.52136	24.875
124.87327	25.075
129.222	27.875
133.56755	30.475
137.90993	32.175
142.24913	35.275
146.58517	40.375
150.91804	48.175
155.24774	59.075
159.57429	72.875
163.89768	94.875
168.21792	129.175
172.53501	173.775
176.84895	251.075
181.15975	353.875
185.46741	500.275
189.77193	699.275
194.07331	937.575
198.37157	1208.675
202.6667	1489.975
206.9587	1797.875
211.24758	2092.575
215.53334	2389.975
219.81599	2695.275
224.09553	3056.275
228.37195	3473.775
232.64527	3901.175
236.91549	4312.075
241.18261	4688.175
245.44663	4976.975
249.70755	5211.875
253.96539	5395.075
258.22014	5568.675
262.4718	5701.775
266.72039	5800.475
270.96589	5822.075
275.20832	5809.475
279.44768	5702.575
283.68397	5603.575
287.91719	5561.775
292.14735	5546.575
296.37445	5654.175
300.59849	5842.175
304.81948	6090.175
309.03742	6345.375
313.25231	6492.475
317.46415	6388.775
321.67296	6132.175
325.87872	5823.775
330.08145	5661.875
334.28114	5648.475
338.47781	5732.175
342.67145	5857.375
346.86207	6058.475
351.04966	6322.975
355.23424	6577.875
359.4158	6768.775
363.59435	6852.375
367.76989	6865.175
371.94243	6807.175
376.11196	6761.875
380.27849	6723.375
384.44203	6713.575
388.60257	6710.175
392.76012	6759.175
396.91468	6858.875
401.06626	6952.075
405.21485	6985.275
409.36047	6860.675
413.50311	6603.975
417.64277	6359.475
421.77947	6236.875
425.9132	6151.775
430.04396	6149.675
434.17176	6195.375
438.2966	6238.775
442.41849	6351.775
446.53742	6491.675
450.6534	6610.375
454.76644	6667.975
458.87653	6710.675
462.98368	6707.875
467.08789	6667.475
471.18916	6563.875
475.2875	6442.975
479.38291	6331.175
483.4754	6252.675
487.56496	6184.775
491.6516	6171.875
495.73531	6166.275
499.81612	6177.775
503.89401	6247.175
507.96899	6258.775
512.04106	6343.075
516.11023	6403.675
520.1765	6457.775
524.23987	6479.775
528.30034	6460.275
532.35792	6433.375
536.41261	6391.375
540.46441	6287.575
544.51333	6249.775
548.55936	6290.375
552.60252	6394.275
556.64279	6503.575
560.6802	6592.075
564.71473	6701.175
568.7464	6806.475
572.7752	6771.875
576.80114	6551.375
580.82422	6375.475
584.84444	6291.275
588.86181	6280.275
592.87633	6330.875
596.888	6459.875
600.89682	6769.075
604.9028	7586.875
608.90594	9388.675
612.90624	11266.875
616.90371	10361.875
620.89834	7797.475
624.89015	6759.375
628.87913	6629.275
632.86528	6792.275
636.84862	6883.875
640.82913	6744.675
644.80683	6495.175
648.78172	6316.375
652.75379	6343.575
656.72306	6540.075
660.68952	6767.575
664.65319	6693.975
668.61405	6546.075
672.57211	6577.675
676.52738	6566.275
680.47986	6452.675
684.42955	6311.275
688.37646	6276.575
692.32058	6327.375
696.26192	6431.075
700.20048	6566.775
704.13626	6579.475
708.06928	6495.175
711.99952	6438.575
715.927	6437.175
719.85171	6481.575
723.77365	6481.675
727.69284	6442.575
731.60928	6381.175
735.52295	6368.475
739.43388	6359.675
743.34206	6411.375
747.24749	6420.075
751.15017	6420.875
755.05012	6484.975
758.94733	6761.675
762.8418	7432.475
766.73354	8407.875
770.62254	9162.675
774.50882	9318.275
778.39237	8921.475
782.27321	8232.875
786.15132	7431.475
790.02671	6865.175
793.89938	6593.875
797.76935	6445.275
801.6366	6384.175
805.50115	6354.875
809.36299	6309.575
813.22213	6301.975
817.07857	6311.775
820.93231	6312.875
824.78336	6326.575
828.63172	6336.975
832.47738	6341.675
836.32036	6343.675
840.16066	6302.975
843.99827	6291.775
847.8332	6296.075
851.66546	6278.075
855.49504	6297.875
859.32195	6314.675
863.1462	6304.875
866.96777	6304.275
870.78668	6327.675
874.60293	6326.875
878.41652	6358.975
882.22745	6406.675
886.03573	6417.875
889.84136	6429.875
893.64433	6406.075
897.44466	6371.175
901.24235	6377.875
905.0374	6365.775
908.8298	6327.575
912.61957	6303.775
916.40671	6310.075
920.19121	6327.075
923.97308	6374.275
927.75233	6429.675
931.52895	6503.875
935.30295	6433.675
939.07433	6320.775
942.84309	6228.475
946.60924	6197.575
950.37278	6168.175
954.13371	6186.675
957.89203	6183.675
961.64774	6155.375
965.40086	6162.975
969.15137	6137.475
972.89929	6150.275
976.64461	6139.275
980.38733	6144.275
984.12747	6164.175
987.86502	6167.575
991.59999	6232.575
995.33237	6279.475
999.06217	6333.775
1002.78939	6433.475
1006.51404	6572.175
1010.23611	6690.575
1013.95561	6726.475
1017.67255	6760.675
1021.38692	6696.575
1025.09872	6623.775
1028.80796	6517.975
1032.51465	6499.275
1036.21877	6519.775
1039.92035	6546.875
1043.61937	6572.275
1047.31584	6595.175
1051.00976	6602.475
1054.70114	6608.175
1058.38998	6590.575
1062.07627	6630.175
1065.76003	6684.875
1069.44126	6745.975
1073.11995	6912.175
1076.79611	7066.575
1080.46974	7224.375
1084.14085	7305.875
1087.80943	7384.975
1091.47549	7433.475
1095.13903	7463.575
1098.80005	7412.475
1102.45857	7364.075
1106.11456	7285.675
1109.76805	7163.875
1113.41903	7170.375
1117.06751	7285.175
1120.71348	7436.475
1124.35696	7664.975
1127.99793	7815.675
1131.63641	7675.275
1135.2724	7404.375
1138.90589	7198.075
1142.5369	7070.575
1146.16542	7045.775
1149.79145	7001.075
1153.415	6910.375
1157.03607	6814.275
1160.65467	6863.975
1164.27079	6982.275
1167.88443	7208.175
1171.49561	7498.375
1175.10432	8037.575
1178.71056	8788.975
1182.31434	9386.175
1185.91565	9553.275
1189.51451	9396.475
1193.11091	9160.975
1196.70485	8911.175
1200.29634	8711.475
1203.88538	8507.075
1207.47197	8182.775
1211.05612	7919.675
1214.63782	7710.775
1218.21708	7507.875
1221.79391	7341.975
1225.36829	7240.975
1228.94024	7190.775
1232.50976	7162.975
1236.07685	7185.375
1239.6415	7208.975
1243.20374	7238.975
1246.76355	7292.775
1250.32093	7372.475
1253.8759	7521.175
1257.42845	7759.975
1260.97859	8014.075
1264.52631	8226.775
1268.07163	8353.375
1271.61453	8444.475
1275.15503	8445.275
1278.69312	8453.675
1282.22882	8424.475
1285.76211	8510.075
1289.29301	8655.075
1292.82151	8824.075
1296.34761	8992.375
1299.87133	9302.475
1303.39266	9832.375
1306.9116	10694.475
1310.42815	11556.875
1313.94233	11841.575
1317.45412	11325.675
1320.96354	10555.475
1324.47058	9881.575
1327.97525	9295.975
1331.47754	8897.175
1334.97747	8824.775
1338.47502	8917.575
1341.97022	9292.575
1345.46305	9909.675
1348.95352	10734.575
1352.44163	11678.375
1355.92738	12592.075
1359.41078	13764.875
1362.89183	14687.775
1366.37053	13979.075
1369.84688	11921.875
1373.32088	10050.375
1376.79254	9006.175
1380.26186	8517.375
1383.72883	8208.675
1387.19347	7911.575
1390.65578	7633.275
1394.11575	7433.775
1397.57339	7284.575
1401.0287	7175.175
1404.48168	7134.575
1407.93234	7181.675
1411.38068	7296.775
1414.82669	7391.875
1418.27039	7446.375
1421.71177	7410.175
1425.15083	7347.875
1428.58758	7287.975
1432.02203	7322.275
1435.45416	7369.075
1438.88399	7387.075
1442.31151	7420.475
1445.73673	7450.575
1449.15965	7464.975
1452.58027	7417.675
1455.9986	7372.675
1459.41463	7340.675
1462.82837	7413.975
1466.23982	7534.475
1469.64898	7682.175
1473.05586	7788.575
1476.46045	7851.275
1479.86276	7909.075
1483.26279	8036.375
1486.66054	8193.475
1490.05602	8488.775
1493.44922	8916.675
1496.84016	9566.775
1500.22882	10547.575
1503.61521	11786.575
1506.99934	12994.075
1510.38121	13742.575
1513.76081	13575.775
1517.13816	12418.775
1520.51324	10968.275
1523.88607	9744.875
1527.25665	8966.075
1530.62498	8572.875
1533.99105	8356.675
1537.35488	8234.375
1540.71647	8165.175
1544.07581	8108.075
1547.4329	8055.475
1550.78776	8000.575
1554.14038	7931.675
1557.49077	7916.575
1560.83892	8049.975
1564.18484	8274.375
1567.52853	8521.975
1570.86999	8721.875
1574.20922	8786.375
1577.54624	8628.875
1580.88103	8214.075
1584.2136	7757.575
1587.54395	7489.075
1590.87208	7469.475
1594.19801	7686.475
1597.52172	7986.375
1600.84321	8119.875
1604.16251	8074.375
1607.47959	7913.875
1610.79447	7680.975
1614.10715	7317.875
1617.41763	6974.375
1620.7259	6732.475
1624.03199	6606.375
1627.33587	6576.275
1630.63757	6647.975
1633.93707	6850.875
1637.23439	7228.075
1640.52951	7866.375
1643.82246	8780.275
1647.11321	9819.175
1650.40179	10329.875
1653.68819	9926.375
1656.97241	8808.575
1660.25446	7661.675
1663.53433	6871.375
1666.81203	6390.375
1670.08756	6126.475
1673.36092	5965.475
1676.63211	5845.975
1679.90115	5764.775
1683.16801	5706.575
1686.43272	5654.275
1689.69527	5619.275
1692.95567	5599.775
1696.2139	5551.275
1699.46999	5562.875
1702.72392	5575.075
1705.97571	5558.075
1709.22535	5538.975
1712.47284	5553.275
1715.71819	5558.575
1718.96139	5544.275
1722.20246	5526.875
1725.44139	5505.075
1728.67818	5468.275
1731.91284	5438.275
1735.14537	5418.275
1738.37576	5382.075
1741.60403	5385.475
1744.83017	5364.375
1748.05418	5349.775
1751.27607	5350.875
1754.49584	5316.475
1757.71349	5302.875
1760.92903	5305.275
1764.14244	5310.075
1767.35375	5299.975
1770.56294	5278.475
1773.77002	5257.475
1776.97499	5256.575
1780.17785	5229.075
1783.37861	5207.675
1786.57727	5206.975
1789.77382	5200.175
1792.96828	5167.675
1796.16064	5161.275
1799.3509	5157.775
1802.53907	5146.775
1805.72514	5124.075
1808.90913	5135.775
1812.09102	5111.475
1815.27083	5094.575
1818.44856	5083.475
1821.6242	5078.175
1824.79776	5065.275
1827.96924	5037.975
1831.13864	5021.575
1834.30597	5021.375
1837.47122	5019.375
1840.6344	5007.575
1843.7955	5004.675
1846.95454	4994.375
1850.11151	5002.275
1853.26642	4999.575
1856.41926	5000.775
1859.57004	4991.175
1862.71876	4988.775
1865.86542	4973.875
1869.01003	4970.475
1872.15258	4971.775
1875.29308	4948.175
1878.43152	4958.375
1881.56792	4933.975
1884.70227	4947.575
1887.83457	4932.675
1890.96482	4925.775
1894.09304	4904.075
1897.21921	4917.175
1900.34335	4894.875
1903.46544	4877.675
1906.58551	4883.575
1909.70353	4864.875
1912.81953	4851.275
1915.93349	4858.275
1919.04543	4852.275
1922.15534	4823.175
1925.26322	4822.075
1928.36908	4815.475
1931.47292	4805.175
1934.57473	4788.875
1937.67453	4776.975
1940.77232	4750.875
1943.86808	4720.875
1946.96184	4735.375
1950.05358	4694.875
1953.14331	4691.875
1956.23103	4680.975
1959.31675	4659.275
1962.40046	4653.975
1965.48217	4644.975
1968.56188	4636.275
1971.63959	4619.275
1974.7153	4612.275
1977.78901	4599.375
1980.86073	4586.575
1983.93046	4565.675
1986.99819	4539.075
1990.06394	4523.275
1993.1277	4530.075
1996.18947	4497.075
1999.24925	4477.975
2002.30706	4471.075
2005.36288	4450.175
2008.41672	4431.775
2011.46859	4415.775
2014.51848	4402.775
2017.56639	4390.075
2020.61233	4388.475
2023.6563	4360.475
2026.6983	4336.675
2029.73833	4331.075
2032.7764	4312.775
2035.8125	4307.175
2038.84664	4316.875
2041.87881	4290.775
2044.90903	4275.775
2047.93729	4273.075
2050.96359	4274.575
2053.98794	4274.975
2057.01034	4243.475
2060.03078	4245.975
2063.04927	4246.775
2066.06582	4248.875
2069.08042	4242.875
2072.09307	4220.475
2075.10378	4207.375
2078.11255	4215.875
2081.11938	4214.575
2084.12426	4212.975
2087.12722	4212.175
2090.12824	4208.175
2093.12732	4214.975
2096.12447	4209.075
2099.11969	4214.275
2102.11299	4213.875
2105.10435	4215.975
2108.09379	4212.575
2111.08131	4213.475
2114.0669	4196.175
2117.05057	4209.875
2120.03233	4202.575
2123.01216	4215.275
2125.99008	4218.975
2128.96609	4205.375
2131.94018	4235.175
2134.91236	4220.875
2137.88263	4218.975
2140.851	4213.475
2143.81746	4212.475
2146.78201	4220.475
2149.74466	4220.175
2152.7054	4221.775
2155.66425	4197.575
2158.6212	4220.675
2161.57625	4183.175
2164.52941	4189.475
2167.48067	4195.275
2170.43004	4196.575
2173.37752	4204.475
2176.32311	4187.775
2179.26681	4190.375
2182.20863	4184.575
2185.14856	4191.575
2188.08661	4189.375
2191.02278	4169.275
2193.95707	4167.775
2196.88948	4176.575
2199.82001	4148.875
2202.74867	4138.175
2205.67545	4148.475
2208.60037	4152.275
2211.52341	4150.675
2214.44458	4127.775
2217.36388	4117.875
2220.28132	4109.575
2223.1969	4088.775
2226.11061	4083.875
2229.02246	4078.275
2231.93245	4064.375
2234.84058	4062.175
2237.74686	4058.375
2240.65128	4058.275
2243.55385	4035.875
2246.45456	4027.675
2249.35343	4028.675
2252.25044	4034.475
2255.14561	4026.575
2258.03893	4021.075
2260.93041	4018.675
2263.82004	4013.775
2266.70783	4002.675
2269.59378	3971.975
2272.4779	3981.575
2275.36017	3953.875
2278.24061	3942.375
2281.11922	3950.175
2283.996	3915.775
2286.87094	3917.575
2289.74405	3930.075
2292.61534	3914.775
2295.4848	3924.075
2298.35243	3921.475
2301.21824	3918.375
2304.08223	3889.475
2306.94439	3897.975
2309.80474	3905.175
2312.66327	3896.175
2315.51999	3882.275
2318.37489	3884.775
2321.22797	3873.475
2324.07925	3863.975
2326.92871	3836.575
2329.77637	3840.275
2332.62222	3836.575
2335.46626	3821.275
2338.3085	3819.075
2341.14893	3813.275
2343.98756	3838.675
2346.8244	3830.575
2349.65943	3811.875
2352.49267	3803.075
2355.32411	3811.275
2358.15376	3806.975
2360.98161	3804.475
2363.80768	3810.475
2366.63195	3804.275
2369.45444	3806.875
2372.27514	3799.275
2375.09405	3790.475
2377.91118	3779.775
2380.72652	3769.375
2383.54009	3745.275
2386.35187	3755.875
2389.16188	3741.175
2391.97011	3733.675
2394.77657	3721.475
2397.58125	3699.775
2400.38416	3689.375
2403.18529	3693.575
2405.98466	3693.875
2408.78226	3688.475
2411.57809	3671.675
2414.37216	3656.375
2417.16446	3644.975
2419.955	3675.375
2422.74378	3664.075
2425.5308	3660.375
2428.31606	3662.875
2431.09956	3654.675
2433.88131	3649.875
2436.6613	3648.975
2439.43954	3638.175
2442.21603	3642.575
2444.99077	3640.275
2447.76377	3624.775
2450.53501	3625.475
2453.30451	3637.075
2456.07226	3624.675
2458.83827	3616.675
2461.60254	3622.475
2464.36507	3613.775
2467.12586	3597.675
2469.88492	3607.375
2472.64224	3605.875
2475.39782	3595.875
2478.15167	3592.175
2480.90379	3597.075
2483.65417	3590.075
2486.40283	3591.175
2489.14976	3601.175
2491.89497	3596.875
2494.63845	3589.675
2497.3802	3580.575
2500.12024	3571.775
2502.85855	3562.375
2505.59514	3568.175
2508.33002	3552.775
2511.06318	3534.675
2513.79462	3530.275
2516.52435	3510.775
2519.25237	3524.075
2521.97867	3504.075
2524.70327	3498.675
2527.42616	3495.675
2530.14734	3500.675
2532.86681	3498.275
2535.58458	3499.575
2538.30065	3496.275
2541.01501	3485.075
2543.72768	3489.275
2546.43864	3473.575
2549.14791	3470.075
2551.85548	3469.275
2554.56136	3479.475
2557.26554	3459.975
2559.96803	3449.175
2562.66883	3424.475
2565.36794	3433.575
2568.06536	3435.875
2570.7611	3419.075
2573.45514	3404.675
2576.14751	3411.275
2578.83819	3387.275
2581.52719	3370.975
2584.21451	3366.975
2586.90015	3363.275
2589.58411	3355.275
2592.2664	3349.975
2594.94701	3346.875
2597.62594	3355.675
2600.30321	3351.375
2602.9788	3338.475
2605.65273	3330.275
2608.32498	3332.275
2610.99557	3327.275
2613.66449	3326.675
2616.33175	3314.375
2618.99734	3304.575
2621.66128	3311.875
2624.32355	3297.875
2626.98416	3280.075
2629.64311	3265.675
2632.30041	3267.875
2634.95605	3248.075
2637.61004	3250.775
2640.26238	3221.475
2642.91306	3238.475
2645.56209	3234.175
2648.20948	3241.375
2650.85521	3237.575
2653.4993	3242.975
2656.14175	3238.375
2658.78255	3250.475
2661.42171	3249.775
2664.05923	3238.875
2666.6951	3228.175
2669.32934	3230.175
2671.96194	3235.975
2674.59291	3226.075
2677.22224	3225.875
2679.84993	3236.575
2682.476	3226.375
2685.10043	3231.075
2687.72324	3219.475
2690.34441	3220.175
2692.96396	3208.575
2695.58188	3208.375
2698.19818	3190.175
2700.81285	3212.875
2703.4259	3215.275
2706.03733	3223.375
2708.64714	3213.375
2711.25533	3206.375
2713.86191	3199.575
2716.46687	3184.575
2719.07021	3192.375
2721.67194	3191.575
2724.27206	3187.275
2726.87057	3189.175
2729.46747	3191.475
2732.06276	3198.075
2734.65644	3189.575
2737.24852	3177.675
2739.83899	3185.175
2742.42786	3178.575
2745.01513	3166.975
2747.60079	3165.375
2750.18486	3184.675
2752.76733	3149.975
2755.3482	3151.275
2757.92747	3128.675
2760.50515	3128.975
2763.08123	3131.075
2765.65573	3110.975
2768.22863	3115.475
2770.79994	3103.575
2773.36967	3095.075
2775.9378	3097.875
2778.50435	3101.575
2781.06932	3098.875
2783.6327	3087.475
2786.1945	3090.075
2788.75471	3076.875
2791.31335	3064.275
2793.87041	3065.775
2796.42589	3062.075
2798.97979	3061.075
2801.53212	3057.175
2804.08288	3055.175
2806.63206	3047.375
2809.17967	3029.675
2811.72571	3028.875
2814.27018	3018.675
2816.81308	3003.775
2819.35442	3013.275
2821.89419	3002.075
2824.43239	2994.975
2826.96904	2998.875
2829.50412	2983.875
2832.03763	2966.675
2834.56959	2973.275
2837.1	2959.675
2839.62884	2953.275
2842.15613	2949.375
2844.68186	2935.775
2847.20604	2938.475
2849.72867	2945.475
2852.24974	2933.475
2854.76927	2921.775
2857.28724	2925.875
2859.80367	2920.675
2862.31855	2919.675
2864.83189	2914.375
2867.34368	2916.675
2869.85393	2919.475
2872.36264	2914.475
2874.8698	2908.875
2877.37543	2907.175
2879.87952	2899.275
2882.38207	2887.175
2884.88308	2889.075
2887.38256	2879.975
2889.88051	2864.175
2892.37692	2870.275
2894.8718	2867.275
2897.36515	2849.275
2899.85698	2861.275
2902.34727	2867.375
2904.83604	2863.075
2907.32328	2861.075
2909.809	2859.975
2912.29319	2877.875
2914.77587	2878.575
2917.25702	2890.375
2919.73665	2879.575
2922.21476	2866.075
2924.69136	2863.775
2927.16644	2864.675
2929.64	2851.775
2932.11205	2845.275
2934.58258	2834.875
2937.05161	2843.775
2939.51912	2832.275
2941.98513	2831.575
2944.44962	2826.075
2946.91261	2810.375
2949.37409	2816.375
2951.83407	2814.375
2954.29254	2810.275
2956.74951	2815.375
2959.20498	2808.575
2961.65895	2798.775
2964.11142	2805.775
2966.56239	2796.575
2969.01186	2793.475
2971.45984	2780.475
2973.90632	2797.975
2976.35131	2787.875
2978.7948	2778.675
2981.23681	2784.275
2983.67732	2777.275
2986.11635	2762.975
2988.55388	2748.275
2990.98993	2768.575
2993.4245	2741.675
2995.85758	2753.375
2998.28917	2750.475
3000.71928	2740.175
3003.14791	2723.675
3005.57506	2725.475
3008.00073	2704.975
3010.42493	2708.375
3012.84764	2715.475
3015.26888	2691.875
3017.68865	2676.775
3020.10694	2681.475
3022.52376	2673.275
3024.9391	2657.975
3027.35298	2650.075
3029.76539	2651.275
3032.17632	2646.875
3034.5858	2640.675
3036.9938	2622.475
3039.40034	2621.075
3041.80542	2618.975
3044.20903	2604.275
3046.61118	2614.075
3049.01187	2589.675
3051.4111	2604.075
3053.80888	2586.175
3056.20519	2583.075
3058.60005	2587.675
3060.99345	2571.775
3063.3854	2582.975
3065.7759	2570.075
3068.16494	2547.275
3070.55254	2551.275
3072.93868	2541.375
3075.32338	2533.775
3077.70662	2537.275
3080.08842	2512.875
3082.46878	2515.775
3084.84769	2502.875
3087.22515	2498.375
3089.60118	2500.775
3091.97576	2487.775
3094.3489	2497.675
3096.72061	2497.875
3099.09087	2490.675
3101.4597	2502.575
3103.82709	2483.975
3106.19305	2473.675
3108.55757	2489.875
3110.92066	2476.275
3113.28232	2473.375
3115.64255	2462.575
3118.00134	2462.675
3120.35871	2449.475
3122.71466	2449.575
3125.06917	2431.775
3127.42226	2433.775
3129.77393	2430.275
3132.12417	2430.375
3134.47299	2437.075
3136.82039	2431.275
3139.16636	2416.675
3141.51092	2419.275
3143.85406	2407.675
3146.19579	2415.175
3148.53609	2416.575
3150.87499	2407.375
3153.21246	2412.275
3155.54853	2415.975
3157.88318	2416.775
3160.21642	2405.875
3162.54826	2407.875
3164.87868	2406.275
3167.2077	2401.975
3169.5353	2404.975
3171.86151	2395.075
3174.18631	2393.275
3176.5097	2389.675
3178.83169	2389.175
3181.15228	2390.275
3183.47147	2372.475
3185.78926	2373.975
3188.10565	2355.175
3190.42065	2347.475
3192.73424	2339.075
3195.04645	2349.375
3197.35725	2341.875
3199.66667	2345.175
3201.97469	2340.875
3204.28132	2337.075
3206.58656	2355.475
3208.8904	2352.875
3211.19287	2353.075
3213.49394	2341.175
3215.79363	2348.675
3218.09193	2351.175
3220.38884	2336.175
3222.68438	2339.975
3224.97853	2336.475
3227.2713	2323.675
3229.56269	2324.575
3231.8527	2320.175
3234.14133	2309.375
3236.42858	2305.175
