Data from AgNPs_UA_5uM_CRN_500uM_SU_RamanShift__92__11-44-43-157.txt Node

Date: Thu Aug 04 11:44:43 BST 2022
User: TCL
Spectrometer: QEP01345
Trigger mode: 4
Integration Time (sec): 1.000000E0
Scans to average: 10
Electric dark correction enabled: true
Nonlinearity correction enabled: false
Boxcar width: 0
XAxis mode: Raman Shifts
Number of Pixels in Spectrum: 1044
>>>>>Begin Spectral Data<<<<<
46.04893	-0.5625
50.45542	0.8375
54.85868	1.0375
59.25871	-1.6625
63.6555	-65.0625
68.04907	-46.1625
72.43941	-79.5625
76.82654	-64.9625
81.21044	-65.5625
85.59113	-56.8625
89.96862	-82.7625
94.34289	-63.4625
98.71396	-85.3625
103.08183	-66.3625
107.4465	-59.7625
111.80798	-67.3625
116.16626	-55.7625
120.52136	-84.2625
124.87327	-62.8625
129.222	-76.7625
133.56755	-63.8625
137.90993	-81.3625
142.24913	-70.6625
146.58517	-64.7625
150.91804	-66.7625
155.24774	-62.0625
159.57429	-51.9625
163.89768	-62.7625
168.21792	-40.0625
172.53501	-49.6625
176.84895	-13.2625
181.15975	51.2375
185.46741	106.0375
189.77193	157.9375
194.07331	290.3375
198.37157	393.2375
202.6667	487.6375
206.9587	620.5375
211.24758	728.7375
215.53334	840.0375
219.81599	955.0375
224.09553	1104.6375
228.37195	1242.3375
232.64527	1392.8375
236.91549	1576.3375
241.18261	1711.6375
245.44663	1874.6375
249.70755	1995.2375
253.96539	2117.7375
258.22014	2232.4375
262.4718	2306.9375
266.72039	2360.0375
270.96589	2372.0375
275.20832	2358.7375
279.44768	2343.0375
283.68397	2286.6375
287.91719	2256.2375
292.14735	2248.8375
296.37445	2247.9375
300.59849	2293.1375
304.81948	2309.8375
309.03742	2360.2375
313.25231	2390.3375
317.46415	2424.3375
321.67296	2345.8375
325.87872	2278.2375
330.08145	2275.8375
334.28114	2280.1375
338.47781	2301.6375
342.67145	2348.9375
346.86207	2395.6375
351.04966	2479.4375
355.23424	2557.5375
359.4158	2645.1375
363.59435	2632.2375
367.76989	2635.6375
371.94243	2643.7375
376.11196	2632.7375
380.27849	2666.2375
384.44203	2663.3375
388.60257	2682.7375
392.76012	2694.0375
396.91468	2755.9375
401.06626	2795.7375
405.21485	2800.8375
409.36047	2800.9375
413.50311	2778.1375
417.64277	2764.6375
421.77947	2727.3375
425.9132	2745.7375
430.04396	2735.8375
434.17176	2774.6375
438.2966	2829.5375
442.41849	2832.3375
446.53742	2863.0375
450.6534	2892.7375
454.76644	2925.6375
458.87653	2964.6375
462.98368	2952.3375
467.08789	2940.4375
471.18916	2947.3375
475.2875	2968.9375
479.38291	2987.4375
483.4754	2957.8375
487.56496	2993.0375
491.6516	2973.4375
495.73531	2996.1375
499.81612	2995.7375
503.89401	3048.5375
507.96899	3033.7375
512.04106	3068.5375
516.11023	3096.1375
520.1765	3111.8375
524.23987	3124.7375
528.30034	3135.4375
532.35792	3111.5375
536.41261	3135.9375
540.46441	3142.5375
544.51333	3129.3375
548.55936	3163.1375
552.60252	3202.9375
556.64279	3210.5375
560.6802	3248.6375
564.71473	3297.2375
568.7464	3326.4375
572.7752	3334.8375
576.80114	3280.5375
580.82422	3260.8375
584.84444	3241.9375
588.86181	3259.2375
592.87633	3273.4375
596.888	3311.4375
600.89682	3352.8375
604.9028	3504.5375
608.90594	3795.4375
612.90624	4138.6375
616.90371	4025.3375
620.89834	3618.0375
624.89015	3469.4375
628.87913	3438.9375
632.86528	3469.4375
636.84862	3514.4375
640.82913	3515.2375
644.80683	3459.4375
648.78172	3457.2375
652.75379	3464.9375
656.72306	3519.2375
660.68952	3567.5375
664.65319	3558.8375
668.61405	3527.7375
672.57211	3542.4375
676.52738	3579.0375
680.47986	3556.1375
684.42955	3556.9375
688.37646	3576.1375
692.32058	3566.3375
696.26192	3611.2375
700.20048	3638.3375
704.13626	3631.3375
708.06928	3628.8375
711.99952	3664.7375
715.927	3649.3375
719.85171	3669.9375
723.77365	3696.0375
727.69284	3684.9375
731.60928	3710.6375
735.52295	3691.7375
739.43388	3727.7375
743.34206	3729.9375
747.24749	3764.4375
751.15017	3779.8375
755.05012	3773.6375
758.94733	3845.4375
762.8418	3954.0375
766.73354	4142.9375
770.62254	4246.3375
774.50882	4227.3375
778.39237	4182.6375
782.27321	4089.9375
786.15132	3977.3375
790.02671	3921.8375
793.89938	3827.7375
797.76935	3860.2375
801.6366	3843.4375
805.50115	3845.9375
809.36299	3872.9375
813.22213	3867.6375
817.07857	3887.5375
820.93231	3888.9375
824.78336	3895.8375
828.63172	3907.7375
832.47738	3917.0375
836.32036	3949.3375
840.16066	3939.0375
843.99827	3948.9375
847.8332	3940.7375
851.66546	3956.0375
855.49504	3952.9375
859.32195	3986.3375
863.1462	3973.0375
866.96777	4009.0375
870.78668	4010.4375
874.60293	4004.4375
878.41652	4020.9375
882.22745	4075.7375
886.03573	4051.1375
889.84136	4038.3375
893.64433	4065.7375
897.44466	4074.4375
901.24235	4084.8375
905.0374	4122.1375
908.8298	4070.8375
912.61957	4080.8375
916.40671	4046.0375
920.19121	4075.9375
923.97308	4099.6375
927.75233	4085.9375
931.52895	4085.1375
935.30295	4134.5375
939.07433	4117.1375
942.84309	4070.1375
946.60924	4099.8375
950.37278	4087.5375
954.13371	4078.1375
957.89203	4090.7375
961.64774	4105.4375
965.40086	4085.3375
969.15137	4063.3375
972.89929	4099.6375
976.64461	4089.7375
980.38733	4122.3375
984.12747	4099.4375
987.86502	4108.9375
991.59999	4116.9375
995.33237	4135.6375
999.06217	4169.6375
1002.78939	4175.0375
1006.51404	4192.4375
1010.23611	4201.7375
1013.95561	4228.6375
1017.67255	4237.7375
1021.38692	4252.6375
1025.09872	4233.8375
1028.80796	4207.8375
1032.51465	4230.0375
1036.21877	4219.0375
1039.92035	4247.6375
1043.61937	4251.2375
1047.31584	4274.5375
1051.00976	4308.6375
1054.70114	4315.4375
1058.38998	4328.5375
1062.07627	4321.4375
1065.76003	4313.3375
1069.44126	4348.9375
1073.11995	4365.5375
1076.79611	4402.6375
1080.46974	4434.7375
1084.14085	4448.4375
1087.80943	4470.8375
1091.47549	4485.4375
1095.13903	4474.1375
1098.80005	4451.7375
1102.45857	4465.5375
1106.11456	4440.9375
1109.76805	4410.3375
1113.41903	4443.7375
1117.06751	4451.6375
1120.71348	4484.6375
1124.35696	4569.3375
1127.99793	4575.3375
1131.63641	4596.0375
1135.2724	4515.0375
1138.90589	4481.5375
1142.5369	4438.7375
1146.16542	4426.3375
1149.79145	4406.4375
1153.415	4403.1375
1157.03607	4392.9375
1160.65467	4407.9375
1164.27079	4447.5375
1167.88443	4466.5375
1171.49561	4542.4375
1175.10432	4625.5375
1178.71056	4748.2375
1182.31434	4851.5375
1185.91565	4894.5375
1189.51451	4851.3375
1193.11091	4827.7375
1196.70485	4800.9375
1200.29634	4758.8375
1203.88538	4733.5375
1207.47197	4673.7375
1211.05612	4604.5375
1214.63782	4560.8375
1218.21708	4571.2375
1221.79391	4552.3375
1225.36829	4522.4375
1228.94024	4544.1375
1232.50976	4540.5375
1236.07685	4557.5375
1239.6415	4570.4375
1243.20374	4585.2375
1246.76355	4596.8375
1250.32093	4623.8375
1253.8759	4627.5375
1257.42845	4676.5375
1260.97859	4707.9375
1264.52631	4771.2375
1268.07163	4772.3375
1271.61453	4784.9375
1275.15503	4770.1375
1278.69312	4757.4375
1282.22882	4782.3375
1285.76211	4821.7375
1289.29301	4829.1375
1292.82151	4868.9375
1296.34761	4899.4375
1299.87133	4950.2375
1303.39266	5033.7375
1306.9116	5189.6375
1310.42815	5354.0375
1313.94233	5446.6375
1317.45412	5338.0375
1320.96354	5185.7375
1324.47058	5033.3375
1327.97525	4939.5375
1331.47754	4858.6375
1334.97747	4829.1375
1338.47502	4824.8375
1341.97022	4873.9375
1345.46305	4988.6375
1348.95352	5127.5375
1352.44163	5259.5375
1355.92738	5362.6375
1359.41078	5565.0375
1362.89183	5803.4375
1366.37053	5722.7375
1369.84688	5375.3375
1373.32088	5035.7375
1376.79254	4866.2375
1380.26186	4766.7375
1383.72883	4686.8375
1387.19347	4607.2375
1390.65578	4531.8375
1394.11575	4525.4375
1397.57339	4498.6375
1401.0287	4481.3375
1404.48168	4474.0375
1407.93234	4487.0375
1411.38068	4483.7375
1414.82669	4493.4375
1418.27039	4512.4375
1421.71177	4543.5375
1425.15083	4482.1375
1428.58758	4487.9375
1432.02203	4496.7375
1435.45416	4523.5375
1438.88399	4480.9375
1442.31151	4451.7375
1445.73673	4453.8375
1449.15965	4461.7375
1452.58027	4449.3375
1455.9986	4439.9375
1459.41463	4440.9375
1462.82837	4470.5375
1466.23982	4500.5375
1469.64898	4536.7375
1473.05586	4519.1375
1476.46045	4541.6375
1479.86276	4551.1375
1483.26279	4571.1375
1486.66054	4633.1375
1490.05602	4649.0375
1493.44922	4738.4375
1496.84016	4844.3375
1500.22882	5028.3375
1503.61521	5242.3375
1506.99934	5468.5375
1510.38121	5679.5375
1513.76081	5752.0375
1517.13816	5600.3375
1520.51324	5301.5375
1523.88607	5031.0375
1527.25665	4899.2375
1530.62498	4803.7375
1533.99105	4767.0375
1537.35488	4757.3375
1540.71647	4740.0375
1544.07581	4751.1375
1547.4329	4738.8375
1550.78776	4751.4375
1554.14038	4753.8375
1557.49077	4749.8375
1560.83892	4793.0375
1564.18484	4840.9375
1567.52853	4881.2375
1570.86999	4942.0375
1574.20922	4939.8375
1577.54624	4913.3375
1580.88103	4859.6375
1584.2136	4746.3375
1587.54395	4738.0375
1590.87208	4735.1375
1594.19801	4722.8375
1597.52172	4803.9375
1600.84321	4807.4375
1604.16251	4786.2375
1607.47959	4751.7375
1610.79447	4729.4375
1614.10715	4682.2375
1617.41763	4664.8375
1620.7259	4605.5375
1624.03199	4615.4375
1627.33587	4597.5375
1630.63757	4579.4375
1633.93707	4629.7375
1637.23439	4660.2375
1640.52951	4790.5375
1643.82246	4912.4375
1647.11321	5093.3375
1650.40179	5184.6375
1653.68819	5142.0375
1656.97241	4972.9375
1660.25446	4770.1375
1663.53433	4636.1375
1666.81203	4536.3375
1670.08756	4500.3375
1673.36092	4517.5375
1676.63211	4473.9375
1679.90115	4466.5375
1683.16801	4437.2375
1686.43272	4412.8375
1689.69527	4436.0375
1692.95567	4389.0375
1696.2139	4385.2375
1699.46999	4366.3375
1702.72392	4376.8375
1705.97571	4405.8375
1709.22535	4390.1375
1712.47284	4432.7375
1715.71819	4439.6375
1718.96139	4440.1375
1722.20246	4439.3375
1725.44139	4442.5375
1728.67818	4447.7375
1731.91284	4440.1375
1735.14537	4428.3375
1738.37576	4416.5375
1741.60403	4406.7375
1744.83017	4403.1375
1748.05418	4389.4375
1751.27607	4412.0375
1754.49584	4382.4375
1757.71349	4375.9375
1760.92903	4383.1375
1764.14244	4333.3375
1767.35375	4349.7375
1770.56294	4362.6375
1773.77002	4361.6375
1776.97499	4374.6375
1780.17785	4371.3375
1783.37861	4381.1375
1786.57727	4400.7375
1789.77382	4343.2375
1792.96828	4385.0375
1796.16064	4391.2375
1799.3509	4376.9375
1802.53907	4395.2375
1805.72514	4351.8375
1808.90913	4357.8375
1812.09102	4342.4375
1815.27083	4354.3375
1818.44856	4333.5375
1821.6242	4353.4375
1824.79776	4338.2375
1827.96924	4322.0375
1831.13864	4313.5375
1834.30597	4341.6375
1837.47122	4313.5375
1840.6344	4313.2375
1843.7955	4304.9375
1846.95454	4292.7375
1850.11151	4319.0375
1853.26642	4299.7375
1856.41926	4308.7375
1859.57004	4304.1375
1862.71876	4291.3375
1865.86542	4314.5375
1869.01003	4286.0375
1872.15258	4272.0375
1875.29308	4297.1375
1878.43152	4310.5375
1881.56792	4287.2375
1884.70227	4268.1375
1887.83457	4266.8375
1890.96482	4247.2375
1894.09304	4257.5375
1897.21921	4257.9375
1900.34335	4280.9375
1903.46544	4243.1375
1906.58551	4266.2375
1909.70353	4242.5375
1912.81953	4252.9375
1915.93349	4251.2375
1919.04543	4246.8375
1922.15534	4220.9375
1925.26322	4222.8375
1928.36908	4195.0375
1931.47292	4219.1375
1934.57473	4233.1375
1937.67453	4198.4375
1940.77232	4176.5375
1943.86808	4175.9375
1946.96184	4172.1375
1950.05358	4150.4375
1953.14331	4149.2375
1956.23103	4154.8375
1959.31675	4125.6375
1962.40046	4077.1375
1965.48217	4099.3375
1968.56188	4093.5375
1971.63959	4085.2375
1974.7153	4088.4375
1977.78901	4071.3375
1980.86073	4050.5375
1983.93046	4029.4375
1986.99819	3972.2375
1990.06394	3995.8375
1993.1277	4016.1375
1996.18947	3990.5375
1999.24925	3967.2375
2002.30706	3987.1375
2005.36288	3976.5375
2008.41672	3980.2375
2011.46859	3954.0375
2014.51848	3937.4375
2017.56639	3915.2375
2020.61233	3911.7375
2023.6563	3919.2375
2026.6983	3867.0375
2029.73833	3878.1375
2032.7764	3894.3375
2035.8125	3862.0375
2038.84664	3864.2375
2041.87881	3848.8375
2044.90903	3853.3375
2047.93729	3851.8375
2050.96359	3814.0375
2053.98794	3831.0375
2057.01034	3841.8375
2060.03078	3827.6375
2063.04927	3815.7375
2066.06582	3838.9375
2069.08042	3819.9375
2072.09307	3817.9375
2075.10378	3820.2375
2078.11255	3814.2375
2081.11938	3816.8375
2084.12426	3818.0375
2087.12722	3805.5375
2090.12824	3813.2375
2093.12732	3825.7375
2096.12447	3818.5375
2099.11969	3809.6375
2102.11299	3806.1375
2105.10435	3840.3375
2108.09379	3829.7375
2111.08131	3815.1375
2114.0669	3833.0375
2117.05057	3817.4375
2120.03233	3794.7375
2123.01216	3845.8375
2125.99008	3816.8375
2128.96609	3826.1375
2131.94018	3862.7375
2134.91236	3860.6375
2137.88263	3842.8375
2140.851	3847.7375
2143.81746	3878.3375
2146.78201	3856.2375
2149.74466	3846.1375
2152.7054	3869.0375
2155.66425	3857.1375
2158.6212	3850.9375
2161.57625	3843.3375
2164.52941	3811.9375
2167.48067	3845.8375
2170.43004	3834.1375
2173.37752	3853.6375
2176.32311	3829.7375
2179.26681	3843.1375
2182.20863	3851.8375
2185.14856	3842.8375
2188.08661	3846.1375
2191.02278	3866.3375
2193.95707	3835.9375
2196.88948	3833.8375
2199.82001	3841.7375
2202.74867	3825.5375
2205.67545	3833.0375
2208.60037	3839.1375
2211.52341	3824.2375
2214.44458	3817.4375
2217.36388	3823.9375
2220.28132	3801.6375
2223.1969	3777.0375
2226.11061	3783.4375
2229.02246	3769.0375
2231.93245	3779.5375
2234.84058	3755.9375
2237.74686	3767.3375
2240.65128	3750.7375
2243.55385	3761.0375
2246.45456	3742.1375
2249.35343	3759.1375
2252.25044	3731.2375
2255.14561	3740.7375
2258.03893	3724.3375
2260.93041	3708.7375
2263.82004	3691.8375
2266.70783	3707.8375
2269.59378	3682.8375
2272.4779	3669.9375
2275.36017	3687.6375
2278.24061	3662.8375
2281.11922	3638.7375
2283.996	3654.5375
2286.87094	3639.1375
2289.74405	3660.4375
2292.61534	3645.4375
2295.4848	3637.8375
2298.35243	3627.7375
2301.21824	3629.7375
2304.08223	3634.2375
2306.94439	3635.6375
2309.80474	3636.2375
2312.66327	3627.1375
2315.51999	3618.6375
2318.37489	3608.6375
2321.22797	3596.9375
2324.07925	3596.9375
2326.92871	3586.9375
2329.77637	3564.4375
2332.62222	3579.7375
2335.46626	3547.8375
2338.3085	3539.1375
2341.14893	3558.7375
2343.98756	3556.1375
2346.8244	3541.7375
2349.65943	3526.6375
2352.49267	3531.0375
2355.32411	3545.4375
2358.15376	3523.0375
2360.98161	3518.3375
2363.80768	3501.7375
2366.63195	3510.6375
2369.45444	3520.6375
2372.27514	3499.6375
2375.09405	3504.2375
2377.91118	3478.7375
2380.72652	3489.1375
2383.54009	3484.0375
2386.35187	3490.9375
2389.16188	3473.8375
2391.97011	3474.1375
2394.77657	3462.1375
2397.58125	3461.7375
2400.38416	3460.6375
2403.18529	3446.1375
2405.98466	3422.4375
2408.78226	3442.5375
2411.57809	3426.0375
2414.37216	3412.9375
2417.16446	3425.6375
2419.955	3404.1375
2422.74378	3418.1375
2425.5308	3389.5375
2428.31606	3408.4375
2431.09956	3399.2375
2433.88131	3381.6375
2436.6613	3404.6375
2439.43954	3380.6375
2442.21603	3364.0375
2444.99077	3364.4375
2447.76377	3379.6375
2450.53501	3359.5375
2453.30451	3368.8375
2456.07226	3363.0375
2458.83827	3344.2375
2461.60254	3306.9375
2464.36507	3336.2375
2467.12586	3325.6375
2469.88492	3337.4375
2472.64224	3326.1375
2475.39782	3298.9375
2478.15167	3325.3375
2480.90379	3305.4375
2483.65417	3317.4375
2486.40283	3316.6375
2489.14976	3311.4375
2491.89497	3293.1375
2494.63845	3292.8375
2497.3802	3281.1375
2500.12024	3268.5375
2502.85855	3271.8375
2505.59514	3279.5375
2508.33002	3268.2375
2511.06318	3251.9375
2513.79462	3267.4375
2516.52435	3225.1375
2519.25237	3228.6375
2521.97867	3228.9375
2524.70327	3221.8375
2527.42616	3226.8375
2530.14734	3236.9375
2532.86681	3221.1375
2535.58458	3223.5375
2538.30065	3209.7375
2541.01501	3234.2375
2543.72768	3205.4375
2546.43864	3198.6375
2549.14791	3188.2375
2551.85548	3177.0375
2554.56136	3174.5375
2557.26554	3185.8375
2559.96803	3167.1375
2562.66883	3151.7375
2565.36794	3154.4375
2568.06536	3120.8375
2570.7611	3139.5375
2573.45514	3124.7375
2576.14751	3115.3375
2578.83819	3121.8375
2581.52719	3100.9375
2584.21451	3103.6375
2586.90015	3090.4375
2589.58411	3081.9375
2592.2664	3084.9375
2594.94701	3083.1375
2597.62594	3077.4375
2600.30321	3026.3375
2602.9788	3033.1375
2605.65273	3026.4375
2608.32498	3039.1375
2610.99557	3045.0375
2613.66449	3015.7375
2616.33175	3032.8375
2618.99734	3028.7375
2621.66128	3034.1375
2624.32355	3004.4375
2626.98416	2989.6375
2629.64311	2995.7375
2632.30041	3003.3375
2634.95605	2970.8375
2637.61004	2963.4375
2640.26238	2957.2375
2642.91306	2947.6375
2645.56209	2970.6375
2648.20948	2972.2375
2650.85521	2948.2375
2653.4993	2969.5375
2656.14175	2953.8375
2658.78255	2932.7375
2661.42171	2919.5375
2664.05923	2942.5375
2666.6951	2954.3375
2669.32934	2952.0375
2671.96194	2944.0375
2674.59291	2949.7375
2677.22224	2944.1375
2679.84993	2951.7375
2682.476	2921.2375
2685.10043	2920.6375
2687.72324	2921.4375
2690.34441	2911.4375
2692.96396	2916.9375
2695.58188	2926.2375
2698.19818	2935.0375
2700.81285	2912.5375
2703.4259	2902.8375
2706.03733	2874.3375
2708.64714	2876.4375
2711.25533	2899.0375
2713.86191	2899.6375
2716.46687	2910.2375
2719.07021	2897.7375
2721.67194	2886.9375
2724.27206	2909.7375
2726.87057	2894.9375
2729.46747	2894.5375
2732.06276	2901.9375
2734.65644	2877.8375
2737.24852	2884.6375
2739.83899	2865.4375
2742.42786	2873.7375
2745.01513	2885.8375
2747.60079	2865.5375
2750.18486	2849.3375
2752.76733	2850.6375
2755.3482	2855.0375
2757.92747	2858.9375
2760.50515	2838.9375
2763.08123	2835.3375
2765.65573	2830.9375
2768.22863	2833.0375
2770.79994	2823.3375
2773.36967	2825.5375
2775.9378	2806.7375
2778.50435	2788.9375
2781.06932	2795.2375
2783.6327	2789.0375
2786.1945	2803.0375
2788.75471	2780.0375
2791.31335	2763.3375
2793.87041	2784.7375
2796.42589	2749.5375
2798.97979	2749.4375
2801.53212	2745.2375
2804.08288	2764.6375
2806.63206	2732.6375
2809.17967	2719.4375
2811.72571	2726.9375
2814.27018	2714.3375
2816.81308	2693.7375
2819.35442	2664.2375
2821.89419	2687.9375
2824.43239	2667.2375
2826.96904	2700.8375
2829.50412	2671.6375
2832.03763	2679.4375
2834.56959	2671.8375
2837.1	2672.8375
2839.62884	2670.5375
2842.15613	2663.7375
2844.68186	2678.0375
2847.20604	2640.0375
2849.72867	2633.7375
2852.24974	2645.6375
2854.76927	2610.7375
2857.28724	2573.5375
2859.80367	2619.6375
2862.31855	2628.9375
2864.83189	2611.6375
2867.34368	2613.0375
2869.85393	2618.9375
2872.36264	2585.9375
2874.8698	2590.5375
2877.37543	2605.7375
2879.87952	2583.4375
2882.38207	2575.9375
2884.88308	2571.8375
2887.38256	2589.0375
2889.88051	2578.9375
2892.37692	2592.8375
2894.8718	2572.3375
2897.36515	2586.8375
2899.85698	2571.5375
2902.34727	2557.8375
2904.83604	2568.2375
2907.32328	2561.0375
2909.809	2567.7375
2912.29319	2554.7375
2914.77587	2568.2375
2917.25702	2565.6375
2919.73665	2570.8375
2922.21476	2577.6375
2924.69136	2572.5375
2927.16644	2558.4375
2929.64	2554.2375
2932.11205	2548.4375
2934.58258	2553.2375
2937.05161	2531.2375
2939.51912	2550.0375
2941.98513	2570.2375
2944.44962	2556.5375
2946.91261	2515.1375
2949.37409	2534.6375
2951.83407	2528.8375
2954.29254	2546.6375
2956.74951	2538.9375
2959.20498	2531.9375
2961.65895	2533.8375
2964.11142	2527.4375
2966.56239	2522.9375
2969.01186	2525.0375
2971.45984	2521.1375
2973.90632	2509.3375
2976.35131	2532.3375
2978.7948	2525.2375
2981.23681	2505.2375
2983.67732	2501.3375
2986.11635	2508.1375
2988.55388	2487.2375
2990.98993	2491.1375
2993.4245	2471.8375
2995.85758	2466.5375
2998.28917	2469.4375
3000.71928	2458.0375
3003.14791	2455.3375
3005.57506	2438.2375
3008.00073	2439.9375
3010.42493	2384.3375
3012.84764	2435.4375
3015.26888	2442.0375
3017.68865	2422.8375
3020.10694	2399.1375
3022.52376	2405.0375
3024.9391	2406.0375
3027.35298	2401.5375
3029.76539	2402.5375
3032.17632	2404.4375
3034.5858	2391.6375
3036.9938	2405.5375
3039.40034	2398.5375
3041.80542	2376.7375
3044.20903	2379.4375
3046.61118	2371.2375
3049.01187	2382.2375
3051.4111	2368.0375
3053.80888	2363.0375
3056.20519	2353.1375
3058.60005	2336.6375
3060.99345	2361.7375
3063.3854	2330.1375
3065.7759	2318.8375
3068.16494	2311.0375
3070.55254	2302.5375
3072.93868	2325.3375
3075.32338	2314.8375
3077.70662	2302.2375
3080.08842	2292.6375
3082.46878	2298.2375
3084.84769	2297.8375
3087.22515	2296.3375
3089.60118	2299.1375
3091.97576	2298.4375
3094.3489	2299.6375
3096.72061	2298.3375
3099.09087	2286.5375
3101.4597	2296.2375
3103.82709	2294.8375
3106.19305	2274.6375
3108.55757	2274.8375
3110.92066	2268.5375
3113.28232	2281.3375
3115.64255	2278.2375
3118.00134	2279.4375
3120.35871	2249.8375
3122.71466	2236.8375
3125.06917	2250.1375
3127.42226	2241.1375
