Data from AgNPs_UA_50uM_CRN_500uM_SU_RamanShift__76__14-08-30-328.txt Node

Date: Thu Aug 04 14:08:30 BST 2022
User: TCL
Spectrometer: QEP01345
Trigger mode: 4
Integration Time (sec): 1.000000E0
Scans to average: 10
Electric dark correction enabled: true
Nonlinearity correction enabled: false
Boxcar width: 0
XAxis mode: Raman Shifts
Number of Pixels in Spectrum: 1044
>>>>>Begin Spectral Data<<<<<
46.04893	0.7125
50.45542	-0.2875
54.85868	-1.5875
59.25871	-0.5875
63.6555	17.2125
68.04907	15.3125
72.43941	20.1125
76.82654	19.4125
81.21044	19.8125
85.59113	20.9125
89.96862	22.2125
94.34289	20.8125
98.71396	22.8125
103.08183	24.2125
107.4465	20.7125
111.80798	25.0125
116.16626	24.1125
120.52136	26.1125
124.87327	28.2125
129.222	29.3125
133.56755	33.8125
137.90993	34.3125
142.24913	35.5125
146.58517	43.3125
150.91804	50.8125
155.24774	60.5125
159.57429	78.7125
163.89768	99.6125
168.21792	131.5125
172.53501	184.4125
176.84895	261.4125
181.15975	373.2125
185.46741	518.7125
189.77193	721.8125
194.07331	962.9125
198.37157	1247.0125
202.6667	1534.8125
206.9587	1831.2125
211.24758	2109.9125
215.53334	2414.4125
219.81599	2727.6125
224.09553	3089.5125
228.37195	3460.8125
232.64527	3887.3125
236.91549	4312.4125
241.18261	4693.3125
245.44663	4996.9125
249.70755	5246.7125
253.96539	5468.8125
258.22014	5647.1125
262.4718	5841.7125
266.72039	5967.8125
270.96589	6028.3125
275.20832	6003.0125
279.44768	5905.2125
283.68397	5815.2125
287.91719	5740.6125
292.14735	5741.8125
296.37445	5834.8125
300.59849	6015.9125
304.81948	6217.4125
309.03742	6389.0125
313.25231	6490.3125
317.46415	6375.5125
321.67296	6134.7125
325.87872	5883.1125
330.08145	5776.8125
334.28114	5790.6125
338.47781	5883.2125
342.67145	6003.5125
346.86207	6190.2125
351.04966	6440.3125
355.23424	6689.4125
359.4158	6885.7125
363.59435	7008.7125
367.76989	7052.6125
371.94243	7076.3125
376.11196	7077.4125
380.27849	7078.5125
384.44203	7086.0125
388.60257	7077.6125
392.76012	7130.9125
396.91468	7206.9125
401.06626	7332.9125
405.21485	7409.7125
409.36047	7295.4125
413.50311	7051.3125
417.64277	6838.9125
421.77947	6675.2125
425.9132	6649.3125
430.04396	6667.4125
434.17176	6745.4125
438.2966	6882.3125
442.41849	7107.6125
446.53742	7357.7125
450.6534	7598.9125
454.76644	7751.1125
458.87653	7772.4125
462.98368	7681.4125
467.08789	7524.8125
471.18916	7312.8125
475.2875	7057.5125
479.38291	6881.6125
483.4754	6752.1125
487.56496	6668.8125
491.6516	6616.4125
495.73531	6565.0125
499.81612	6567.5125
503.89401	6619.0125
507.96899	6657.8125
512.04106	6711.5125
516.11023	6807.6125
520.1765	6895.6125
524.23987	6910.3125
528.30034	6908.8125
532.35792	6867.7125
536.41261	6781.4125
540.46441	6647.8125
544.51333	6635.6125
548.55936	6679.7125
552.60252	6800.3125
556.64279	6911.8125
560.6802	6955.7125
564.71473	6995.5125
568.7464	7099.3125
572.7752	7089.4125
576.80114	6976.2125
580.82422	6880.9125
584.84444	6907.7125
588.86181	7075.1125
592.87633	7306.6125
596.888	7509.2125
600.89682	7773.1125
604.9028	8623.2125
608.90594	10434.2125
612.90624	12081.6125
616.90371	10980.5125
620.89834	8558.7125
624.89015	7713.0125
628.87913	7643.6125
632.86528	7567.0125
636.84862	7392.5125
640.82913	7119.1125
644.80683	6804.2125
648.78172	6665.5125
652.75379	6727.2125
656.72306	6956.7125
660.68952	7225.8125
664.65319	7161.1125
668.61405	6976.9125
672.57211	6960.9125
676.52738	6919.8125
680.47986	6817.8125
684.42955	6742.7125
688.37646	6741.3125
692.32058	6833.8125
696.26192	6923.8125
700.20048	7032.8125
704.13626	7028.4125
708.06928	6924.8125
711.99952	6872.1125
715.927	6876.9125
719.85171	6911.5125
723.77365	6889.8125
727.69284	6830.8125
731.60928	6781.1125
735.52295	6786.9125
739.43388	6846.3125
743.34206	6898.8125
747.24749	6931.2125
751.15017	6957.4125
755.05012	7062.0125
758.94733	7320.6125
762.8418	7968.5125
766.73354	8935.8125
770.62254	9732.0125
774.50882	9962.3125
778.39237	9477.7125
782.27321	8621.7125
786.15132	7797.3125
790.02671	7297.5125
793.89938	7061.0125
797.76935	6989.3125
801.6366	6933.5125
805.50115	6886.2125
809.36299	6825.0125
813.22213	6791.1125
817.07857	6802.0125
820.93231	6798.7125
824.78336	6807.8125
828.63172	6831.0125
832.47738	6857.5125
836.32036	6853.8125
840.16066	6919.3125
843.99827	6942.0125
847.8332	6896.4125
851.66546	6875.9125
855.49504	6869.3125
859.32195	6867.8125
863.1462	6833.9125
866.96777	6795.8125
870.78668	6785.3125
874.60293	6776.2125
878.41652	6811.4125
882.22745	6863.0125
886.03573	6892.6125
889.84136	6863.5125
893.64433	6836.8125
897.44466	6816.5125
901.24235	6817.1125
905.0374	6803.3125
908.8298	6765.3125
912.61957	6756.9125
916.40671	6818.7125
920.19121	6902.5125
923.97308	7040.4125
927.75233	7161.8125
931.52895	7197.3125
935.30295	7116.0125
939.07433	6948.7125
942.84309	6815.2125
946.60924	6781.6125
950.37278	6749.8125
954.13371	6704.5125
957.89203	6635.8125
961.64774	6587.0125
965.40086	6563.7125
969.15137	6568.4125
972.89929	6575.7125
976.64461	6557.3125
980.38733	6571.1125
984.12747	6605.1125
987.86502	6672.1125
991.59999	6792.1125
995.33237	7001.2125
999.06217	7324.7125
1002.78939	7659.0125
1006.51404	7756.0125
1010.23611	7763.8125
1013.95561	7867.1125
1017.67255	7959.7125
1021.38692	7952.7125
1025.09872	7969.0125
1028.80796	8184.1125
1032.51465	8489.1125
1036.21877	8723.0125
1039.92035	8673.7125
1043.61937	8437.4125
1047.31584	8092.9125
1051.00976	7762.7125
1054.70114	7627.2125
1058.38998	7575.2125
1062.07627	7549.9125
1065.76003	7523.5125
1069.44126	7546.0125
1073.11995	7611.6125
1076.79611	7677.0125
1080.46974	7802.0125
1084.14085	7916.9125
1087.80943	8017.6125
1091.47549	8022.7125
1095.13903	7853.1125
1098.80005	7678.9125
1102.45857	7628.1125
1106.11456	7631.1125
1109.76805	7667.1125
1113.41903	7780.6125
1117.06751	7920.2125
1120.71348	8111.0125
1124.35696	8331.8125
1127.99793	8436.6125
1131.63641	8333.1125
1135.2724	8073.0125
1138.90589	7876.4125
1142.5369	7684.2125
1146.16542	7592.7125
1149.79145	7535.4125
1153.415	7522.2125
1157.03607	7559.4125
1160.65467	7691.7125
1164.27079	7881.5125
1167.88443	8238.7125
1171.49561	8766.5125
1175.10432	9579.1125
1178.71056	10624.8125
1182.31434	11586.0125
1185.91565	12019.1125
1189.51451	11887.9125
1193.11091	11305.5125
1196.70485	10567.7125
1200.29634	10026.2125
1203.88538	9519.5125
1207.47197	9049.9125
1211.05612	8715.6125
1214.63782	8515.7125
1218.21708	8529.6125
1221.79391	8614.5125
1225.36829	8703.1125
1228.94024	8702.3125
1232.50976	8544.5125
1236.07685	8420.3125
1239.6415	8407.5125
1243.20374	8461.6125
1246.76355	8518.5125
1250.32093	8632.0125
1253.8759	8883.3125
1257.42845	9169.9125
1260.97859	9485.2125
1264.52631	9748.7125
1268.07163	9959.7125
1271.61453	10158.8125
1275.15503	10396.1125
1278.69312	10647.7125
1282.22882	10915.1125
1285.76211	11081.7125
1289.29301	11270.8125
1292.82151	11450.4125
1296.34761	11727.6125
1299.87133	12289.4125
1303.39266	13179.1125
1306.9116	14480.7125
1310.42815	15803.3125
1313.94233	16395.8125
1317.45412	15915.0125
1320.96354	14810.1125
1324.47058	13741.5125
1327.97525	12927.7125
1331.47754	12524.9125
1334.97747	12478.6125
1338.47502	12654.1125
1341.97022	12963.5125
1345.46305	13412.9125
1348.95352	14005.1125
1352.44163	14777.4125
1355.92738	15806.9125
1359.41078	17305.4125
1362.89183	18172.3125
1366.37053	17168.4125
1369.84688	14797.1125
1373.32088	12667.1125
1376.79254	11420.8125
1380.26186	10821.1125
1383.72883	10547.1125
1387.19347	10252.2125
1390.65578	9860.5125
1394.11575	9590.7125
1397.57339	9455.9125
1401.0287	9492.9125
1404.48168	9583.9125
1407.93234	9738.9125
1411.38068	9926.0125
1414.82669	10066.3125
1418.27039	10013.7125
1421.71177	9825.7125
1425.15083	9700.9125
1428.58758	9726.1125
1432.02203	9905.9125
1435.45416	10059.6125
1438.88399	10078.9125
1442.31151	10029.6125
1445.73673	10009.8125
1449.15965	9958.3125
1452.58027	9819.5125
1455.9986	9656.4125
1459.41463	9601.5125
1462.82837	9689.2125
1466.23982	9887.2125
1469.64898	10096.1125
1473.05586	10287.6125
1476.46045	10444.4125
1479.86276	10570.0125
1483.26279	10697.1125
1486.66054	10804.7125
1490.05602	11032.6125
1493.44922	11381.8125
1496.84016	11961.4125
1500.22882	12687.3125
1503.61521	13756.7125
1506.99934	14785.0125
1510.38121	15447.0125
1513.76081	15259.0125
1517.13816	14222.2125
1520.51324	12934.9125
1523.88607	11899.0125
1527.25665	11284.0125
1530.62498	10952.0125
1533.99105	10807.2125
1537.35488	10684.7125
1540.71647	10617.9125
1544.07581	10509.4125
1547.4329	10371.7125
1550.78776	10169.7125
1554.14038	10059.3125
1557.49077	10011.2125
1560.83892	10010.7125
1564.18484	10140.8125
1567.52853	10289.1125
1570.86999	10411.0125
1574.20922	10369.7125
1577.54624	10218.1125
1580.88103	9843.0125
1584.2136	9517.2125
1587.54395	9493.8125
1590.87208	9906.5125
1594.19801	10740.5125
1597.52172	11706.9125
1600.84321	12285.8125
1604.16251	12051.9125
1607.47959	11292.5125
1610.79447	10370.1125
1614.10715	9511.1125
1617.41763	8827.8125
1620.7259	8410.6125
1624.03199	8230.8125
1627.33587	8281.7125
1630.63757	8541.5125
1633.93707	9074.3125
1637.23439	9823.9125
1640.52951	10828.4125
1643.82246	11924.1125
1647.11321	12781.3125
1650.40179	12787.6125
1653.68819	11754.5125
1656.97241	10206.6125
1660.25446	8855.9125
1663.53433	7961.2125
1666.81203	7412.4125
1670.08756	7088.5125
1673.36092	6893.7125
1676.63211	6739.5125
1679.90115	6629.5125
1683.16801	6573.8125
1686.43272	6505.6125
1689.69527	6454.5125
1692.95567	6425.4125
1696.2139	6391.9125
1699.46999	6389.9125
1702.72392	6370.4125
1705.97571	6395.0125
1709.22535	6381.2125
1712.47284	6379.1125
1715.71819	6387.4125
1718.96139	6385.3125
1722.20246	6352.6125
1725.44139	6335.0125
1728.67818	6291.2125
1731.91284	6254.9125
1735.14537	6223.8125
1738.37576	6209.6125
1741.60403	6188.5125
1744.83017	6153.5125
1748.05418	6153.2125
1751.27607	6127.0125
1754.49584	6104.1125
1757.71349	6093.6125
1760.92903	6108.5125
1764.14244	6088.5125
1767.35375	6071.1125
1770.56294	6081.6125
1773.77002	6068.2125
1776.97499	6060.6125
1780.17785	6029.3125
1783.37861	6031.4125
1786.57727	6006.1125
1789.77382	6020.3125
1792.96828	6007.7125
1796.16064	5996.4125
1799.3509	6009.0125
1802.53907	5994.1125
1805.72514	5975.3125
1808.90913	5956.7125
1812.09102	5956.8125
1815.27083	5933.2125
1818.44856	5931.3125
1821.6242	5890.4125
1824.79776	5907.8125
1827.96924	5864.9125
1831.13864	5849.0125
1834.30597	5864.6125
1837.47122	5844.1125
1840.6344	5853.7125
1843.7955	5839.2125
1846.95454	5863.9125
1850.11151	5855.9125
1853.26642	5866.2125
1856.41926	5846.7125
1859.57004	5846.8125
1862.71876	5859.8125
1865.86542	5824.6125
1869.01003	5830.1125
1872.15258	5815.0125
1875.29308	5837.6125
1878.43152	5822.3125
1881.56792	5822.2125
1884.70227	5812.3125
1887.83457	5798.2125
1890.96482	5804.8125
1894.09304	5805.4125
1897.21921	5798.3125
1900.34335	5776.3125
1903.46544	5764.0125
1906.58551	5758.9125
1909.70353	5742.7125
1912.81953	5748.0125
1915.93349	5750.1125
1919.04543	5729.8125
1922.15534	5740.8125
1925.26322	5736.6125
1928.36908	5731.2125
1931.47292	5718.6125
1934.57473	5727.2125
1937.67453	5701.7125
1940.77232	5685.7125
1943.86808	5668.4125
1946.96184	5635.2125
1950.05358	5635.6125
1953.14331	5614.6125
1956.23103	5586.4125
1959.31675	5579.4125
1962.40046	5566.9125
1965.48217	5559.5125
1968.56188	5537.7125
1971.63959	5525.7125
1974.7153	5520.4125
1977.78901	5495.6125
1980.86073	5475.8125
1983.93046	5467.0125
1986.99819	5441.6125
1990.06394	5436.8125
1993.1277	5413.6125
1996.18947	5390.2125
1999.24925	5374.3125
2002.30706	5349.4125
2005.36288	5346.5125
2008.41672	5315.0125
2011.46859	5316.9125
2014.51848	5303.0125
2017.56639	5306.7125
2020.61233	5274.5125
2023.6563	5261.8125
2026.6983	5219.3125
2029.73833	5222.0125
2032.7764	5201.7125
2035.8125	5223.3125
2038.84664	5207.4125
2041.87881	5188.4125
2044.90903	5175.2125
2047.93729	5180.6125
2050.96359	5188.5125
2053.98794	5159.5125
2057.01034	5169.1125
2060.03078	5172.1125
2063.04927	5152.2125
2066.06582	5152.2125
2069.08042	5152.5125
2072.09307	5122.0125
2075.10378	5106.5125
2078.11255	5120.7125
2081.11938	5140.8125
2084.12426	5128.1125
2087.12722	5129.9125
2090.12824	5103.2125
2093.12732	5093.9125
2096.12447	5108.4125
2099.11969	5107.2125
2102.11299	5111.8125
2105.10435	5109.1125
2108.09379	5108.4125
2111.08131	5113.6125
2114.0669	5113.8125
2117.05057	5117.6125
2120.03233	5106.4125
2123.01216	5108.6125
2125.99008	5124.1125
2128.96609	5118.4125
2131.94018	5128.2125
2134.91236	5108.5125
2137.88263	5133.9125
2140.851	5117.7125
2143.81746	5133.2125
2146.78201	5138.2125
2149.74466	5119.6125
2152.7054	5137.4125
2155.66425	5117.3125
2158.6212	5122.3125
2161.57625	5108.0125
2164.52941	5106.3125
2167.48067	5121.4125
2170.43004	5119.3125
2173.37752	5127.5125
2176.32311	5108.0125
2179.26681	5132.0125
2182.20863	5119.1125
2185.14856	5119.8125
2188.08661	5109.1125
2191.02278	5135.8125
2193.95707	5105.0125
2196.88948	5106.7125
2199.82001	5110.0125
2202.74867	5103.1125
2205.67545	5103.3125
2208.60037	5124.5125
2211.52341	5144.9125
2214.44458	5123.7125
2217.36388	5094.5125
2220.28132	5113.7125
2223.1969	5082.9125
2226.11061	5068.2125
2229.02246	5063.8125
2231.93245	5070.8125
2234.84058	5039.3125
2237.74686	5036.0125
2240.65128	5027.4125
2243.55385	5001.8125
2246.45456	5003.7125
2249.35343	4990.4125
2252.25044	4994.1125
2255.14561	4987.6125
2258.03893	4991.5125
2260.93041	4970.3125
2263.82004	4967.6125
2266.70783	4972.0125
2269.59378	4938.0125
2272.4779	4928.0125
2275.36017	4913.5125
2278.24061	4894.3125
2281.11922	4886.4125
2283.996	4876.3125
2286.87094	4881.2125
2289.74405	4884.0125
2292.61534	4865.9125
2295.4848	4874.4125
2298.35243	4881.4125
2301.21824	4867.8125
2304.08223	4867.0125
2306.94439	4892.6125
2309.80474	4882.8125
2312.66327	4898.0125
2315.51999	4897.5125
2318.37489	4885.9125
2321.22797	4884.6125
2324.07925	4883.9125
2326.92871	4867.0125
2329.77637	4871.5125
2332.62222	4868.6125
2335.46626	4850.1125
2338.3085	4869.0125
2341.14893	4869.0125
2343.98756	4876.0125
2346.8244	4888.5125
2349.65943	4893.3125
2352.49267	4883.0125
2355.32411	4885.7125
2358.15376	4873.9125
2360.98161	4877.0125
2363.80768	4863.4125
2366.63195	4861.0125
2369.45444	4833.7125
2372.27514	4839.9125
2375.09405	4824.8125
2377.91118	4810.1125
2380.72652	4809.3125
2383.54009	4771.4125
2386.35187	4777.1125
2389.16188	4751.2125
2391.97011	4754.0125
2394.77657	4759.1125
2397.58125	4739.8125
2400.38416	4710.5125
2403.18529	4716.3125
2405.98466	4705.6125
2408.78226	4690.8125
2411.57809	4668.0125
2414.37216	4665.3125
2417.16446	4654.5125
2419.955	4625.7125
2422.74378	4635.6125
2425.5308	4637.2125
2428.31606	4625.6125
2431.09956	4643.2125
2433.88131	4626.1125
2436.6613	4635.3125
2439.43954	4649.3125
2442.21603	4641.0125
2444.99077	4625.1125
2447.76377	4618.9125
2450.53501	4595.9125
2453.30451	4615.8125
2456.07226	4620.9125
2458.83827	4617.9125
2461.60254	4613.9125
2464.36507	4612.9125
2467.12586	4597.3125
2469.88492	4597.0125
2472.64224	4588.7125
2475.39782	4605.1125
2478.15167	4601.0125
2480.90379	4587.5125
2483.65417	4623.1125
2486.40283	4603.1125
2489.14976	4632.7125
2491.89497	4628.4125
2494.63845	4623.1125
2497.3802	4632.7125
2500.12024	4617.5125
2502.85855	4593.1125
2505.59514	4616.1125
2508.33002	4600.3125
2511.06318	4590.2125
2513.79462	4573.3125
2516.52435	4562.0125
2519.25237	4561.1125
2521.97867	4545.3125
2524.70327	4542.0125
2527.42616	4559.0125
2530.14734	4557.3125
2532.86681	4557.2125
2535.58458	4563.3125
2538.30065	4558.6125
2541.01501	4556.0125
2543.72768	4557.1125
2546.43864	4543.7125
2549.14791	4526.3125
2551.85548	4538.5125
2554.56136	4520.4125
2557.26554	4517.3125
2559.96803	4521.2125
2562.66883	4497.7125
2565.36794	4494.4125
2568.06536	4495.7125
2570.7611	4486.6125
2573.45514	4483.8125
2576.14751	4481.8125
2578.83819	4470.6125
2581.52719	4452.8125
2584.21451	4469.8125
2586.90015	4471.4125
2589.58411	4474.6125
2592.2664	4473.0125
2594.94701	4461.6125
2597.62594	4466.6125
2600.30321	4475.4125
2602.9788	4466.3125
2605.65273	4439.0125
2608.32498	4454.3125
2610.99557	4444.4125
2613.66449	4448.3125
2616.33175	4456.4125
2618.99734	4460.0125
2621.66128	4461.6125
2624.32355	4481.0125
2626.98416	4464.5125
2629.64311	4454.5125
2632.30041	4469.0125
2634.95605	4457.5125
2637.61004	4436.6125
2640.26238	4428.6125
2642.91306	4436.0125
2645.56209	4441.0125
2648.20948	4414.1125
2650.85521	4410.8125
2653.4993	4399.2125
2656.14175	4392.1125
2658.78255	4404.5125
2661.42171	4405.4125
2664.05923	4404.5125
2666.6951	4399.3125
2669.32934	4414.0125
2671.96194	4407.2125
2674.59291	4420.2125
2677.22224	4406.5125
2679.84993	4399.1125
2682.476	4408.9125
2685.10043	4393.2125
2687.72324	4387.4125
2690.34441	4380.6125
2692.96396	4372.0125
2695.58188	4354.2125
2698.19818	4360.9125
2700.81285	4375.5125
2703.4259	4365.9125
2706.03733	4368.2125
2708.64714	4363.6125
2711.25533	4347.1125
2713.86191	4353.4125
2716.46687	4355.6125
2719.07021	4380.3125
2721.67194	4358.0125
2724.27206	4362.4125
2726.87057	4366.7125
2729.46747	4355.1125
2732.06276	4357.7125
2734.65644	4351.5125
2737.24852	4335.6125
2739.83899	4348.8125
2742.42786	4346.7125
2745.01513	4322.4125
2747.60079	4337.6125
2750.18486	4328.7125
2752.76733	4325.4125
2755.3482	4327.3125
2757.92747	4313.8125
2760.50515	4307.5125
2763.08123	4313.5125
2765.65573	4312.4125
2768.22863	4302.3125
2770.79994	4294.8125
2773.36967	4300.1125
2775.9378	4300.1125
2778.50435	4299.5125
2781.06932	4306.6125
2783.6327	4305.4125
2786.1945	4299.5125
2788.75471	4291.1125
2791.31335	4282.6125
2793.87041	4285.1125
2796.42589	4268.5125
2798.97979	4253.6125
2801.53212	4256.4125
2804.08288	4253.3125
2806.63206	4223.4125
2809.17967	4227.8125
2811.72571	4204.5125
2814.27018	4199.3125
2816.81308	4206.0125
2819.35442	4205.7125
2821.89419	4198.0125
2824.43239	4186.0125
2826.96904	4180.0125
2829.50412	4181.6125
2832.03763	4166.2125
2834.56959	4175.3125
2837.1	4175.3125
2839.62884	4168.1125
2842.15613	4145.4125
2844.68186	4168.5125
2847.20604	4148.5125
2849.72867	4137.9125
2852.24974	4148.2125
2854.76927	4139.7125
2857.28724	4120.8125
2859.80367	4110.0125
2862.31855	4116.8125
2864.83189	4115.8125
2867.34368	4114.3125
2869.85393	4107.7125
2872.36264	4115.6125
2874.8698	4107.5125
2877.37543	4104.3125
2879.87952	4111.8125
2882.38207	4083.9125
2884.88308	4088.6125
2887.38256	4077.3125
2889.88051	4091.1125
2892.37692	4086.9125
2894.8718	4071.4125
2897.36515	4075.7125
2899.85698	4077.7125
2902.34727	4082.3125
2904.83604	4091.9125
2907.32328	4092.3125
2909.809	4097.8125
2912.29319	4112.9125
2914.77587	4100.1125
2917.25702	4109.8125
2919.73665	4104.5125
2922.21476	4098.0125
2924.69136	4089.6125
2927.16644	4083.6125
2929.64	4077.5125
2932.11205	4070.7125
2934.58258	4044.0125
2937.05161	4053.8125
2939.51912	4068.2125
2941.98513	4035.2125
2944.44962	4027.9125
2946.91261	4031.5125
2949.37409	4038.5125
2951.83407	4038.3125
2954.29254	4065.4125
2956.74951	4040.5125
2959.20498	4027.3125
2961.65895	4002.3125
2964.11142	4016.5125
2966.56239	4010.7125
2969.01186	4002.7125
2971.45984	4003.7125
2973.90632	4004.0125
2976.35131	3984.6125
2978.7948	3980.6125
2981.23681	3975.7125
2983.67732	3968.5125
2986.11635	3936.7125
2988.55388	3929.0125
2990.98993	3929.7125
2993.4245	3898.1125
2995.85758	3905.0125
2998.28917	3902.4125
3000.71928	3906.7125
3003.14791	3896.8125
3005.57506	3874.1125
3008.00073	3852.8125
3010.42493	3869.2125
3012.84764	3840.4125
3015.26888	3840.6125
3017.68865	3827.3125
3020.10694	3819.3125
3022.52376	3809.4125
3024.9391	3795.1125
3027.35298	3774.9125
3029.76539	3785.2125
3032.17632	3776.2125
3034.5858	3773.3125
3036.9938	3774.4125
3039.40034	3763.1125
3041.80542	3755.4125
3044.20903	3755.2125
3046.61118	3743.9125
3049.01187	3734.7125
3051.4111	3727.4125
3053.80888	3716.5125
3056.20519	3718.2125
3058.60005	3717.7125
3060.99345	3704.6125
3063.3854	3696.1125
3065.7759	3674.4125
3068.16494	3664.8125
3070.55254	3646.8125
3072.93868	3650.8125
3075.32338	3630.2125
3077.70662	3630.4125
3080.08842	3606.2125
3082.46878	3608.0125
3084.84769	3605.6125
3087.22515	3594.1125
3089.60118	3583.0125
3091.97576	3570.3125
3094.3489	3581.2125
3096.72061	3583.2125
3099.09087	3589.6125
3101.4597	3572.7125
3103.82709	3582.0125
3106.19305	3571.3125
3108.55757	3565.9125
3110.92066	3546.7125
3113.28232	3551.4125
3115.64255	3546.5125
3118.00134	3535.3125
