Data from AgNPs_UA_50uM_CRN_500uM_SU_RamanShift__59__14-05-40-325.txt Node

Date: Thu Aug 04 14:05:40 BST 2022
User: TCL
Spectrometer: QEP01345
Trigger mode: 4
Integration Time (sec): 1.000000E0
Scans to average: 10
Electric dark correction enabled: true
Nonlinearity correction enabled: false
Boxcar width: 0
XAxis mode: Raman Shifts
Number of Pixels in Spectrum: 1044
>>>>>Begin Spectral Data<<<<<
46.04893	2.3125
50.45542	-1.5875
54.85868	-1.7875
59.25871	-1.1875
63.6555	20.4125
68.04907	16.3125
72.43941	19.7125
76.82654	19.8125
81.21044	20.2125
85.59113	23.3125
89.96862	24.0125
94.34289	24.0125
98.71396	25.6125
103.08183	24.9125
107.4465	22.8125
111.80798	23.2125
116.16626	24.9125
120.52136	29.6125
124.87327	29.6125
129.222	33.8125
133.56755	35.6125
137.90993	39.2125
142.24913	40.3125
146.58517	48.7125
150.91804	56.1125
155.24774	68.0125
159.57429	86.1125
163.89768	117.4125
168.21792	153.3125
172.53501	214.3125
176.84895	302.9125
181.15975	429.6125
185.46741	606.2125
189.77193	839.0125
194.07331	1139.1125
198.37157	1467.2125
202.6667	1826.6125
206.9587	2180.0125
211.24758	2531.4125
215.53334	2889.1125
219.81599	3277.9125
224.09553	3701.9125
228.37195	4192.6125
232.64527	4700.1125
236.91549	5193.0125
241.18261	5603.0125
245.44663	5958.1125
249.70755	6203.1125
253.96539	6446.2125
258.22014	6651.9125
262.4718	6840.9125
266.72039	6967.0125
270.96589	7013.5125
275.20832	6977.6125
279.44768	6854.5125
283.68397	6774.3125
287.91719	6680.9125
292.14735	6687.4125
296.37445	6801.2125
300.59849	7045.1125
304.81948	7385.4125
309.03742	7645.9125
313.25231	7815.3125
317.46415	7706.2125
321.67296	7349.3125
325.87872	6975.8125
330.08145	6794.6125
334.28114	6786.0125
338.47781	6871.6125
342.67145	7034.6125
346.86207	7275.0125
351.04966	7606.9125
355.23424	7917.8125
359.4158	8158.0125
363.59435	8254.2125
367.76989	8267.5125
371.94243	8227.9125
376.11196	8192.2125
380.27849	8144.1125
384.44203	8125.2125
388.60257	8141.0125
392.76012	8177.1125
396.91468	8299.4125
401.06626	8425.0125
405.21485	8480.8125
409.36047	8316.6125
413.50311	7982.1125
417.64277	7692.1125
421.77947	7493.4125
425.9132	7419.8125
430.04396	7379.7125
434.17176	7456.8125
438.2966	7576.6125
442.41849	7736.2125
446.53742	7896.6125
450.6534	8089.4125
454.76644	8207.3125
458.87653	8235.2125
462.98368	8212.4125
467.08789	8131.6125
471.18916	7978.3125
475.2875	7766.1125
479.38291	7600.2125
483.4754	7476.4125
487.56496	7401.6125
491.6516	7360.5125
495.73531	7343.3125
499.81612	7352.8125
503.89401	7428.4125
507.96899	7478.1125
512.04106	7546.0125
516.11023	7635.3125
520.1765	7708.0125
524.23987	7720.8125
528.30034	7699.3125
532.35792	7640.5125
536.41261	7571.3125
540.46441	7457.0125
544.51333	7413.0125
548.55936	7479.3125
552.60252	7601.5125
556.64279	7761.7125
560.6802	7846.1125
564.71473	7951.3125
568.7464	8113.5125
572.7752	8102.8125
576.80114	7852.7125
580.82422	7634.1125
584.84444	7527.8125
588.86181	7582.8125
592.87633	7678.8125
596.888	7873.1125
600.89682	8267.6125
604.9028	9316.9125
608.90594	11677.3125
612.90624	13943.1125
616.90371	12699.4125
620.89834	9506.6125
624.89015	8228.2125
628.87913	8113.0125
632.86528	8237.2125
636.84862	8225.9125
640.82913	7984.3125
644.80683	7588.2125
648.78172	7410.1125
652.75379	7450.0125
656.72306	7727.6125
660.68952	8042.7125
664.65319	7958.7125
668.61405	7776.1125
672.57211	7773.1125
676.52738	7758.8125
680.47986	7587.2125
684.42955	7441.6125
688.37646	7406.6125
692.32058	7488.2125
696.26192	7632.9125
700.20048	7785.4125
704.13626	7793.2125
708.06928	7668.4125
711.99952	7593.5125
715.927	7598.2125
719.85171	7646.1125
723.77365	7638.9125
727.69284	7581.2125
731.60928	7500.1125
735.52295	7471.4125
739.43388	7498.5125
743.34206	7557.1125
747.24749	7583.0125
751.15017	7604.8125
755.05012	7699.0125
758.94733	8053.6125
762.8418	8888.3125
766.73354	10158.7125
770.62254	11125.7125
774.50882	11265.2125
778.39237	10723.2125
782.27321	9765.3125
786.15132	8794.9125
790.02671	8100.3125
793.89938	7801.0125
797.76935	7645.7125
801.6366	7557.7125
805.50115	7513.3125
809.36299	7465.7125
813.22213	7435.8125
817.07857	7430.0125
820.93231	7447.2125
824.78336	7464.1125
828.63172	7471.4125
832.47738	7513.2125
836.32036	7488.1125
840.16066	7473.0125
843.99827	7474.0125
847.8332	7431.9125
851.66546	7435.6125
855.49504	7456.2125
859.32195	7469.9125
863.1462	7426.6125
866.96777	7422.4125
870.78668	7411.2125
874.60293	7419.4125
878.41652	7460.6125
882.22745	7502.5125
886.03573	7541.8125
889.84136	7550.9125
893.64433	7515.9125
897.44466	7474.8125
901.24235	7476.8125
905.0374	7434.7125
908.8298	7390.1125
912.61957	7383.7125
916.40671	7389.4125
920.19121	7431.0125
923.97308	7552.4125
927.75233	7651.4125
931.52895	7699.5125
935.30295	7646.1125
939.07433	7467.2125
942.84309	7355.8125
946.60924	7283.6125
950.37278	7276.9125
954.13371	7257.7125
957.89203	7227.6125
961.64774	7199.3125
965.40086	7183.2125
969.15137	7172.7125
972.89929	7167.7125
976.64461	7156.7125
980.38733	7175.8125
984.12747	7192.6125
987.86502	7248.1125
991.59999	7296.9125
995.33237	7411.6125
999.06217	7594.8125
1002.78939	7780.9125
1006.51404	7882.0125
1010.23611	7988.2125
1013.95561	8070.3125
1017.67255	8122.4125
1021.38692	8067.6125
1025.09872	8041.7125
1028.80796	8076.7125
1032.51465	8184.3125
1036.21877	8306.5125
1039.92035	8299.1125
1043.61937	8227.1125
1047.31584	8124.3125
1051.00976	7994.3125
1054.70114	7928.8125
1058.38998	7923.9125
1062.07627	7958.8125
1065.76003	7969.1125
1069.44126	8069.8125
1073.11995	8182.4125
1076.79611	8320.9125
1080.46974	8470.1125
1084.14085	8613.9125
1087.80943	8733.2125
1091.47549	8746.2125
1095.13903	8643.4125
1098.80005	8520.7125
1102.45857	8511.8125
1106.11456	8466.9125
1109.76805	8450.9125
1113.41903	8508.9125
1117.06751	8667.0125
1120.71348	8876.3125
1124.35696	9143.8125
1127.99793	9316.4125
1131.63641	9121.0125
1135.2724	8796.7125
1138.90589	8492.9125
1142.5369	8319.4125
1146.16542	8195.3125
1149.79145	8127.4125
1153.415	8086.3125
1157.03607	8061.1125
1160.65467	8155.8125
1164.27079	8364.8125
1167.88443	8690.7125
1171.49561	9216.0125
1175.10432	9986.9125
1178.71056	10994.3125
1182.31434	11802.0125
1185.91565	12115.7125
1189.51451	11903.1125
1193.11091	11498.2125
1196.70485	10935.6125
1200.29634	10527.4125
1203.88538	10098.3125
1207.47197	9653.0125
1211.05612	9214.5125
1214.63782	8933.6125
1218.21708	8777.1125
1221.79391	8722.9125
1225.36829	8721.3125
1228.94024	8737.5125
1232.50976	8673.3125
1236.07685	8638.7125
1239.6415	8632.6125
1243.20374	8675.3125
1246.76355	8735.5125
1250.32093	8849.0125
1253.8759	9021.6125
1257.42845	9296.6125
1260.97859	9635.6125
1264.52631	9893.1125
1268.07163	10122.3125
1271.61453	10268.1125
1275.15503	10360.8125
1278.69312	10438.7125
1282.22882	10542.1125
1285.76211	10721.8125
1289.29301	10932.5125
1292.82151	11129.0125
1296.34761	11420.1125
1299.87133	11902.1125
1303.39266	12734.8125
1306.9116	13976.4125
1310.42815	15293.9125
1313.94233	15787.2125
1317.45412	15148.0125
1320.96354	14047.8125
1324.47058	12988.3125
1327.97525	12124.3125
1331.47754	11601.3125
1334.97747	11452.3125
1338.47502	11609.2125
1341.97022	12043.9125
1345.46305	12705.3125
1348.95352	13659.5125
1352.44163	14754.5125
1355.92738	16040.7125
1359.41078	17695.8125
1362.89183	18853.0125
1366.37053	17836.3125
1369.84688	15115.0125
1373.32088	12722.5125
1376.79254	11349.5125
1380.26186	10678.6125
1383.72883	10333.5125
1387.19347	9992.8125
1390.65578	9600.7125
1394.11575	9317.3125
1397.57339	9115.1125
1401.0287	9028.4125
1404.48168	8995.7125
1407.93234	9120.3125
1411.38068	9280.8125
1414.82669	9420.8125
1418.27039	9488.9125
1421.71177	9428.8125
1425.15083	9354.3125
1428.58758	9337.2125
1432.02203	9431.0125
1435.45416	9544.5125
1438.88399	9538.6125
1442.31151	9455.0125
1445.73673	9438.8125
1449.15965	9429.9125
1452.58027	9337.2125
1455.9986	9233.0125
1459.41463	9165.1125
1462.82837	9250.3125
1466.23982	9416.9125
1469.64898	9600.0125
1473.05586	9767.8125
1476.46045	9895.9125
1479.86276	10013.5125
1483.26279	10155.5125
1486.66054	10397.8125
1490.05602	10754.4125
1493.44922	11290.3125
1496.84016	12082.3125
1500.22882	13228.6125
1503.61521	14751.9125
1506.99934	16234.8125
1510.38121	17216.2125
1513.76081	17037.6125
1517.13816	15645.4125
1520.51324	13839.2125
1523.88607	12261.6125
1527.25665	11285.9125
1530.62498	10769.5125
1533.99105	10483.1125
1537.35488	10320.4125
1540.71647	10174.6125
1544.07581	10045.5125
1547.4329	9919.4125
1550.78776	9828.1125
1554.14038	9829.3125
1557.49077	9883.8125
1560.83892	10041.6125
1564.18484	10309.7125
1567.52853	10619.7125
1570.86999	10842.4125
1574.20922	10838.1125
1577.54624	10625.4125
1580.88103	10104.5125
1584.2136	9578.4125
1587.54395	9329.9125
1590.87208	9491.7125
1594.19801	9988.6125
1597.52172	10575.0125
1600.84321	10793.0125
1604.16251	10627.4125
1607.47959	10210.9125
1610.79447	9734.2125
1614.10715	9148.7125
1617.41763	8630.5125
1620.7259	8287.6125
1624.03199	8141.9125
1627.33587	8144.1125
1630.63757	8317.2125
1633.93707	8738.8125
1637.23439	9410.9125
1640.52951	10382.1125
1643.82246	11674.3125
1647.11321	12944.5125
1650.40179	13423.1125
1653.68819	12605.3125
1656.97241	10952.4125
1660.25446	9374.2125
1663.53433	8324.3125
1666.81203	7680.3125
1670.08756	7356.4125
1673.36092	7129.6125
1676.63211	6961.8125
1679.90115	6869.1125
1683.16801	6775.2125
1686.43272	6727.9125
1689.69527	6688.1125
1692.95567	6653.6125
1696.2139	6598.0125
1699.46999	6596.0125
1702.72392	6591.6125
1705.97571	6607.9125
1709.22535	6583.5125
1712.47284	6586.4125
1715.71819	6597.1125
1718.96139	6570.1125
1722.20246	6556.5125
1725.44139	6541.3125
1728.67818	6483.0125
1731.91284	6441.1125
1735.14537	6400.6125
1738.37576	6388.0125
1741.60403	6365.5125
1744.83017	6341.2125
1748.05418	6338.5125
1751.27607	6303.9125
1754.49584	6300.3125
1757.71349	6289.4125
1760.92903	6262.9125
1764.14244	6265.8125
1767.35375	6247.4125
1770.56294	6243.0125
1773.77002	6226.6125
1776.97499	6191.5125
1780.17785	6185.3125
1783.37861	6164.6125
1786.57727	6136.5125
1789.77382	6120.9125
1792.96828	6125.2125
1796.16064	6109.0125
1799.3509	6104.5125
1802.53907	6104.6125
1805.72514	6085.6125
1808.90913	6044.9125
1812.09102	6060.7125
1815.27083	6030.2125
1818.44856	6010.0125
1821.6242	6017.5125
1824.79776	5981.7125
1827.96924	5974.0125
1831.13864	5955.1125
1834.30597	5946.8125
1837.47122	5931.8125
1840.6344	5924.5125
1843.7955	5936.0125
1846.95454	5924.3125
1850.11151	5932.7125
1853.26642	5935.9125
1856.41926	5909.2125
1859.57004	5927.0125
1862.71876	5904.8125
1865.86542	5885.0125
1869.01003	5877.4125
1872.15258	5888.9125
1875.29308	5895.0125
1878.43152	5877.7125
1881.56792	5865.2125
1884.70227	5860.2125
1887.83457	5854.9125
1890.96482	5847.9125
1894.09304	5824.9125
1897.21921	5813.5125
1900.34335	5804.5125
1903.46544	5803.5125
1906.58551	5797.0125
1909.70353	5760.8125
1912.81953	5760.8125
1915.93349	5770.6125
1919.04543	5755.6125
1922.15534	5734.6125
1925.26322	5739.6125
1928.36908	5721.6125
1931.47292	5699.2125
1934.57473	5712.0125
1937.67453	5658.9125
1940.77232	5648.8125
1943.86808	5651.5125
1946.96184	5633.1125
1950.05358	5624.5125
1953.14331	5596.9125
1956.23103	5578.6125
1959.31675	5570.9125
1962.40046	5526.9125
1965.48217	5532.6125
1968.56188	5518.3125
1971.63959	5501.2125
1974.7153	5500.2125
1977.78901	5480.2125
1980.86073	5447.7125
1983.93046	5450.2125
1986.99819	5426.0125
1990.06394	5401.9125
1993.1277	5370.4125
1996.18947	5353.0125
1999.24925	5344.8125
2002.30706	5337.5125
2005.36288	5300.4125
2008.41672	5283.7125
2011.46859	5277.8125
2014.51848	5252.1125
2017.56639	5244.3125
2020.61233	5235.7125
2023.6563	5203.0125
2026.6983	5184.0125
2029.73833	5154.0125
2032.7764	5146.5125
2035.8125	5144.5125
2038.84664	5144.7125
2041.87881	5146.5125
2044.90903	5123.4125
2047.93729	5120.3125
2050.96359	5101.5125
2053.98794	5082.0125
2057.01034	5094.0125
2060.03078	5082.4125
2063.04927	5080.3125
2066.06582	5081.6125
2069.08042	5069.7125
2072.09307	5047.1125
2075.10378	5029.8125
2078.11255	5035.7125
2081.11938	5045.4125
2084.12426	5041.4125
2087.12722	5039.2125
2090.12824	5046.5125
2093.12732	5015.4125
2096.12447	5039.3125
2099.11969	5036.0125
2102.11299	5018.7125
2105.10435	5026.6125
2108.09379	5033.1125
2111.08131	5038.6125
2114.0669	5019.5125
2117.05057	5044.9125
2120.03233	5050.1125
2123.01216	5042.6125
2125.99008	5045.7125
2128.96609	5051.4125
2131.94018	5057.4125
2134.91236	5043.5125
2137.88263	5039.3125
2140.851	5047.0125
2143.81746	5059.2125
2146.78201	5033.8125
2149.74466	5054.2125
2152.7054	5036.8125
2155.66425	5039.1125
2158.6212	5022.7125
2161.57625	5012.9125
2164.52941	5024.0125
2167.48067	5037.3125
2170.43004	5022.3125
2173.37752	5014.8125
2176.32311	5024.2125
2179.26681	5008.5125
2182.20863	5014.4125
2185.14856	5031.4125
2188.08661	5020.4125
2191.02278	5002.9125
2193.95707	4990.4125
2196.88948	4973.2125
2199.82001	4985.3125
2202.74867	4980.2125
2205.67545	4982.6125
2208.60037	4975.2125
2211.52341	4987.3125
2214.44458	4967.6125
2217.36388	4966.9125
2220.28132	4945.0125
2223.1969	4931.4125
2226.11061	4929.1125
2229.02246	4910.7125
2231.93245	4895.9125
2234.84058	4892.1125
2237.74686	4878.9125
2240.65128	4875.6125
2243.55385	4858.4125
2246.45456	4850.8125
2249.35343	4859.9125
2252.25044	4855.2125
2255.14561	4845.0125
2258.03893	4832.7125
2260.93041	4841.6125
2263.82004	4841.7125
2266.70783	4818.3125
2269.59378	4797.5125
2272.4779	4775.9125
2275.36017	4780.2125
2278.24061	4742.8125
2281.11922	4749.8125
2283.996	4736.9125
2286.87094	4740.9125
2289.74405	4733.8125
2292.61534	4722.2125
2295.4848	4720.5125
2298.35243	4720.6125
2301.21824	4709.0125
2304.08223	4706.7125
2306.94439	4717.0125
2309.80474	4712.2125
2312.66327	4702.2125
2315.51999	4697.7125
2318.37489	4709.6125
2321.22797	4696.8125
2324.07925	4680.2125
2326.92871	4645.9125
2329.77637	4676.8125
2332.62222	4658.2125
2335.46626	4645.3125
2338.3085	4641.5125
2341.14893	4651.6125
2343.98756	4655.1125
2346.8244	4655.1125
2349.65943	4639.8125
2352.49267	4636.6125
2355.32411	4646.2125
2358.15376	4638.7125
2360.98161	4634.6125
2363.80768	4648.0125
2366.63195	4625.6125
2369.45444	4617.1125
2372.27514	4614.1125
2375.09405	4594.3125
2377.91118	4591.5125
2380.72652	4571.6125
2383.54009	4540.4125
2386.35187	4559.1125
2389.16188	4534.1125
2391.97011	4545.6125
2394.77657	4517.9125
2397.58125	4510.7125
2400.38416	4496.7125
2403.18529	4490.3125
2405.98466	4487.3125
2408.78226	4475.5125
2411.57809	4461.5125
2414.37216	4472.5125
2417.16446	4436.5125
2419.955	4451.1125
2422.74378	4438.1125
2425.5308	4443.6125
2428.31606	4429.5125
2431.09956	4431.9125
2433.88131	4422.2125
2436.6613	4420.2125
2439.43954	4422.4125
2442.21603	4437.9125
2444.99077	4416.5125
2447.76377	4417.7125
2450.53501	4409.5125
2453.30451	4414.2125
2456.07226	4410.6125
2458.83827	4398.4125
2461.60254	4405.1125
2464.36507	4385.2125
2467.12586	4392.3125
2469.88492	4390.9125
2472.64224	4378.6125
2475.39782	4374.1125
2478.15167	4383.9125
2480.90379	4370.9125
2483.65417	4372.9125
2486.40283	4379.0125
2489.14976	4395.1125
2491.89497	4386.2125
2494.63845	4383.2125
2497.3802	4372.1125
2500.12024	4361.4125
2502.85855	4361.4125
2505.59514	4355.9125
2508.33002	4348.4125
2511.06318	4323.1125
2513.79462	4329.3125
2516.52435	4321.8125
2519.25237	4303.4125
2521.97867	4296.6125
2524.70327	4290.5125
2527.42616	4273.5125
2530.14734	4275.9125
2532.86681	4273.7125
2535.58458	4288.8125
2538.30065	4279.3125
2541.01501	4283.8125
2543.72768	4274.4125
2546.43864	4257.7125
2549.14791	4259.5125
2551.85548	4245.8125
2554.56136	4242.5125
2557.26554	4236.5125
2559.96803	4230.1125
2562.66883	4222.7125
2565.36794	4215.9125
2568.06536	4207.2125
2570.7611	4196.2125
2573.45514	4192.4125
2576.14751	4188.6125
2578.83819	4182.4125
2581.52719	4169.6125
2584.21451	4149.6125
2586.90015	4161.4125
2589.58411	4162.2125
2592.2664	4164.4125
2594.94701	4140.9125
2597.62594	4139.5125
2600.30321	4133.6125
2602.9788	4145.6125
2605.65273	4131.9125
2608.32498	4133.0125
2610.99557	4140.0125
2613.66449	4125.5125
2616.33175	4118.6125
2618.99734	4122.2125
2621.66128	4122.6125
2624.32355	4111.1125
2626.98416	4107.8125
2629.64311	4099.8125
2632.30041	4098.3125
2634.95605	4086.4125
2637.61004	4074.3125
2640.26238	4055.2125
2642.91306	4044.6125
2645.56209	4062.6125
2648.20948	4067.7125
2650.85521	4057.2125
2653.4993	4047.2125
2656.14175	4049.5125
2658.78255	4044.0125
2661.42171	4052.8125
2664.05923	4046.9125
2666.6951	4052.0125
2669.32934	4036.1125
2671.96194	4049.3125
2674.59291	4041.1125
2677.22224	4042.7125
2679.84993	4041.6125
2682.476	4016.6125
2685.10043	4016.9125
2687.72324	4030.1125
2690.34441	4015.3125
2692.96396	4008.5125
2695.58188	4016.0125
2698.19818	4012.3125
2700.81285	4014.3125
2703.4259	4003.0125
2706.03733	4022.4125
2708.64714	4005.1125
2711.25533	4005.3125
2713.86191	3997.1125
2716.46687	3993.6125
2719.07021	4012.5125
2721.67194	4019.7125
2724.27206	4005.8125
2726.87057	3996.9125
2729.46747	3990.5125
2732.06276	3994.0125
2734.65644	3988.7125
2737.24852	3994.8125
2739.83899	3986.5125
2742.42786	3978.4125
2745.01513	3979.3125
2747.60079	3972.9125
2750.18486	3958.9125
2752.76733	3954.1125
2755.3482	3951.2125
2757.92747	3941.1125
2760.50515	3940.2125
2763.08123	3930.0125
2765.65573	3916.6125
2768.22863	3900.2125
2770.79994	3905.3125
2773.36967	3907.8125
2775.9378	3912.8125
2778.50435	3912.3125
2781.06932	3901.4125
2783.6327	3914.2125
2786.1945	3898.9125
2788.75471	3889.9125
2791.31335	3885.2125
2793.87041	3876.2125
2796.42589	3857.6125
2798.97979	3863.3125
2801.53212	3853.1125
2804.08288	3850.9125
2806.63206	3837.2125
2809.17967	3831.1125
2811.72571	3818.9125
2814.27018	3822.6125
2816.81308	3815.5125
2819.35442	3819.7125
2821.89419	3799.9125
2824.43239	3783.5125
2826.96904	3773.1125
2829.50412	3789.7125
2832.03763	3772.4125
2834.56959	3768.2125
2837.1	3759.4125
2839.62884	3765.2125
2842.15613	3753.6125
2844.68186	3754.9125
2847.20604	3745.0125
2849.72867	3738.5125
2852.24974	3723.1125
2854.76927	3729.4125
2857.28724	3723.0125
2859.80367	3721.8125
2862.31855	3715.3125
2864.83189	3712.6125
2867.34368	3705.7125
2869.85393	3705.4125
2872.36264	3701.3125
2874.8698	3703.7125
2877.37543	3703.5125
2879.87952	3698.5125
2882.38207	3699.7125
2884.88308	3683.9125
2887.38256	3667.2125
2889.88051	3674.4125
2892.37692	3671.8125
2894.8718	3664.7125
2897.36515	3659.7125
2899.85698	3653.6125
2902.34727	3673.8125
2904.83604	3676.7125
2907.32328	3674.6125
2909.809	3678.4125
2912.29319	3697.9125
2914.77587	3688.6125
2917.25702	3698.4125
2919.73665	3687.8125
2922.21476	3693.3125
2924.69136	3670.2125
2927.16644	3664.4125
2929.64	3665.8125
2932.11205	3642.8125
2934.58258	3636.3125
2937.05161	3648.2125
2939.51912	3644.1125
2941.98513	3636.4125
2944.44962	3616.9125
2946.91261	3602.1125
2949.37409	3627.6125
2951.83407	3620.7125
2954.29254	3625.5125
2956.74951	3626.7125
2959.20498	3616.2125
2961.65895	3595.0125
2964.11142	3594.8125
2966.56239	3587.0125
2969.01186	3588.1125
2971.45984	3598.9125
2973.90632	3581.6125
2976.35131	3569.8125
2978.7948	3567.0125
2981.23681	3565.6125
2983.67732	3561.1125
2986.11635	3541.4125
2988.55388	3547.9125
2990.98993	3524.7125
2993.4245	3520.7125
2995.85758	3513.2125
2998.28917	3510.5125
3000.71928	3497.6125
3003.14791	3497.5125
3005.57506	3488.8125
3008.00073	3476.2125
3010.42493	3469.8125
3012.84764	3443.7125
3015.26888	3448.6125
3017.68865	3453.5125
3020.10694	3444.7125
3022.52376	3443.0125
3024.9391	3405.9125
3027.35298	3403.0125
3029.76539	3382.3125
3032.17632	3403.1125
3034.5858	3384.2125
3036.9938	3374.4125
3039.40034	3375.7125
3041.80542	3372.7125
3044.20903	3360.2125
3046.61118	3350.8125
3049.01187	3348.3125
3051.4111	3336.3125
3053.80888	3329.3125
3056.20519	3338.9125
3058.60005	3314.1125
3060.99345	3316.3125
3063.3854	3305.2125
3065.7759	3289.1125
3068.16494	3298.0125
3070.55254	3264.1125
3072.93868	3266.1125
3075.32338	3248.7125
3077.70662	3240.4125
3080.08842	3236.3125
3082.46878	3236.6125
3084.84769	3221.2125
3087.22515	3213.3125
3089.60118	3222.8125
3091.97576	3209.2125
3094.3489	3211.6125
3096.72061	3212.3125
3099.09087	3204.6125
3101.4597	3209.5125
3103.82709	3202.6125
3106.19305	3199.9125
3108.55757	3208.0125
3110.92066	3192.3125
3113.28232	3173.2125
3115.64255	3180.0125
3118.00134	3165.7125
