Data from AgNPs_UA_20uM_CRN_500uM_SU_RamanShift__17__13-39-20-294.txt Node

Date: Thu Aug 04 13:39:20 BST 2022
User: TCL
Spectrometer: QEP01345
Trigger mode: 4
Integration Time (sec): 1.000000E0
Scans to average: 10
Electric dark correction enabled: true
Nonlinearity correction enabled: false
Boxcar width: 0
XAxis mode: Raman Shifts
Number of Pixels in Spectrum: 1044
>>>>>Begin Spectral Data<<<<<
46.04893	-2.175
50.45542	0.025
54.85868	1.425
59.25871	0.025
63.6555	17.325
68.04907	15.325
72.43941	19.925
76.82654	20.225
81.21044	19.825
85.59113	19.925
89.96862	20.625
94.34289	22.425
98.71396	21.325
103.08183	25.925
107.4465	22.625
111.80798	25.525
116.16626	27.825
120.52136	27.925
124.87327	27.025
129.222	30.325
133.56755	33.025
137.90993	36.025
142.24913	38.125
146.58517	45.625
150.91804	53.125
155.24774	66.725
159.57429	82.225
163.89768	104.925
168.21792	141.725
172.53501	195.325
176.84895	271.225
181.15975	387.825
185.46741	541.625
189.77193	762.625
194.07331	1022.725
198.37157	1329.825
202.6667	1649.225
206.9587	1960.725
211.24758	2304.725
215.53334	2615.525
219.81599	2987.825
224.09553	3389.625
228.37195	3869.825
232.64527	4329.625
236.91549	4804.225
241.18261	5221.225
245.44663	5539.725
249.70755	5744.825
253.96539	5923.325
258.22014	6077.625
262.4718	6212.625
266.72039	6293.825
270.96589	6317.225
275.20832	6250.325
279.44768	6152.825
283.68397	6033.125
287.91719	5990.525
292.14735	6001.425
296.37445	6160.625
300.59849	6425.625
304.81948	6777.825
309.03742	7101.525
313.25231	7296.425
317.46415	7216.725
321.67296	6871.325
325.87872	6494.825
330.08145	6266.125
334.28114	6257.325
338.47781	6332.925
342.67145	6473.825
346.86207	6704.025
351.04966	6988.325
355.23424	7338.725
359.4158	7544.625
363.59435	7622.125
367.76989	7590.725
371.94243	7531.125
376.11196	7457.525
380.27849	7418.325
384.44203	7369.425
388.60257	7355.125
392.76012	7385.225
396.91468	7522.525
401.06626	7629.625
405.21485	7684.025
409.36047	7519.225
413.50311	7190.025
417.64277	6887.325
421.77947	6725.325
425.9132	6652.725
430.04396	6662.125
434.17176	6691.025
438.2966	6770.725
442.41849	6908.925
446.53742	7065.425
450.6534	7212.725
454.76644	7251.825
458.87653	7243.925
462.98368	7196.525
467.08789	7146.425
471.18916	7043.825
475.2875	6906.425
479.38291	6779.225
483.4754	6669.925
487.56496	6621.325
491.6516	6585.825
495.73531	6589.525
499.81612	6601.625
503.89401	6675.825
507.96899	6729.325
512.04106	6815.225
516.11023	6917.825
520.1765	6979.325
524.23987	6984.425
528.30034	6971.625
532.35792	6939.625
536.41261	6884.525
540.46441	6770.125
544.51333	6724.725
548.55936	6770.925
552.60252	6875.025
556.64279	7010.725
560.6802	7083.125
564.71473	7220.425
568.7464	7356.925
572.7752	7347.525
576.80114	7104.025
580.82422	6889.925
584.84444	6815.025
588.86181	6788.225
592.87633	6822.525
596.888	6939.625
600.89682	7342.325
604.9028	8353.725
608.90594	10535.325
612.90624	12828.725
616.90371	11798.225
620.89834	8644.525
624.89015	7286.525
628.87913	7139.225
632.86528	7306.325
636.84862	7447.025
640.82913	7309.525
644.80683	7025.225
648.78172	6833.525
652.75379	6833.325
656.72306	7074.325
660.68952	7307.525
664.65319	7210.125
668.61405	6954.225
672.57211	6901.525
676.52738	6924.025
680.47986	6822.125
684.42955	6712.925
688.37646	6666.925
692.32058	6687.525
696.26192	6806.625
700.20048	6927.425
704.13626	6950.125
708.06928	6917.325
711.99952	6861.125
715.927	6855.825
719.85171	6879.625
723.77365	6908.525
727.69284	6853.725
731.60928	6803.725
735.52295	6787.525
739.43388	6808.525
743.34206	6850.825
747.24749	6866.725
751.15017	6862.025
755.05012	6987.625
758.94733	7317.625
762.8418	8176.425
766.73354	9489.925
770.62254	10528.725
774.50882	10659.825
778.39237	10034.825
782.27321	9070.925
786.15132	8008.425
790.02671	7330.925
793.89938	7030.025
797.76935	6887.925
801.6366	6800.525
805.50115	6753.525
809.36299	6731.825
813.22213	6711.525
817.07857	6731.825
820.93231	6735.425
824.78336	6767.125
828.63172	6773.125
832.47738	6786.825
836.32036	6763.825
840.16066	6710.525
843.99827	6707.025
847.8332	6709.925
851.66546	6730.125
855.49504	6745.425
859.32195	6768.125
863.1462	6748.725
866.96777	6750.625
870.78668	6742.325
874.60293	6761.525
878.41652	6812.625
882.22745	6859.425
886.03573	6889.625
889.84136	6897.625
893.64433	6873.125
897.44466	6855.125
901.24235	6839.525
905.0374	6824.125
908.8298	6763.225
912.61957	6752.725
916.40671	6736.525
920.19121	6792.825
923.97308	6865.225
927.75233	6945.025
931.52895	6987.525
935.30295	6933.525
939.07433	6758.325
942.84309	6659.225
946.60924	6620.325
950.37278	6586.125
954.13371	6580.425
957.89203	6606.025
961.64774	6597.025
965.40086	6579.725
969.15137	6569.725
972.89929	6560.025
976.64461	6574.425
980.38733	6576.625
984.12747	6614.025
987.86502	6629.625
991.59999	6691.525
995.33237	6727.325
999.06217	6831.725
1002.78939	6956.225
1006.51404	7143.625
1010.23611	7285.825
1013.95561	7339.725
1017.67255	7353.525
1021.38692	7266.225
1025.09872	7168.625
1028.80796	7050.625
1032.51465	7007.425
1036.21877	7018.825
1039.92035	7073.325
1043.61937	7104.625
1047.31584	7173.925
1051.00976	7168.125
1054.70114	7160.025
1058.38998	7159.225
1062.07627	7178.325
1065.76003	7250.225
1069.44126	7363.725
1073.11995	7530.125
1076.79611	7739.825
1080.46974	7897.125
1084.14085	8015.325
1087.80943	8158.425
1091.47549	8243.725
1095.13903	8239.425
1098.80005	8111.425
1102.45857	7949.725
1106.11456	7786.125
1109.76805	7703.425
1113.41903	7746.925
1117.06751	7889.925
1120.71348	8116.425
1124.35696	8461.925
1127.99793	8693.825
1131.63641	8542.125
1135.2724	8175.925
1138.90589	7914.925
1142.5369	7775.225
1146.16542	7779.325
1149.79145	7723.525
1153.415	7581.125
1157.03607	7501.725
1160.65467	7558.225
1164.27079	7710.925
1167.88443	7972.225
1171.49561	8393.625
1175.10432	9066.825
1178.71056	10030.925
1182.31434	10849.625
1185.91565	11087.525
1189.51451	10892.125
1193.11091	10609.025
1196.70485	10312.525
1200.29634	10077.625
1203.88538	9785.225
1207.47197	9410.725
1211.05612	9025.025
1214.63782	8775.325
1218.21708	8512.725
1221.79391	8286.925
1225.36829	8156.625
1228.94024	8070.825
1232.50976	8053.225
1236.07685	8069.025
1239.6415	8073.625
1243.20374	8117.425
1246.76355	8193.425
1250.32093	8318.625
1253.8759	8540.625
1257.42845	8819.425
1260.97859	9125.525
1264.52631	9371.325
1268.07163	9538.725
1271.61453	9633.425
1275.15503	9664.925
1278.69312	9676.125
1282.22882	9668.525
1285.76211	9759.825
1289.29301	10014.125
1292.82151	10268.225
1296.34761	10506.925
1299.87133	10948.925
1303.39266	11658.625
1306.9116	12719.725
1310.42815	13803.725
1313.94233	14116.325
1317.45412	13443.025
1320.96354	12445.325
1324.47058	11511.125
1327.97525	10734.625
1331.47754	10299.125
1334.97747	10219.325
1338.47502	10378.825
1341.97022	10849.625
1345.46305	11616.025
1348.95352	12709.725
1352.44163	13986.225
1355.92738	15217.425
1359.41078	16858.025
1362.89183	18209.125
1366.37053	17423.625
1369.84688	14621.025
1373.32088	12023.425
1376.79254	10598.625
1380.26186	9926.025
1383.72883	9556.725
1387.19347	9180.925
1390.65578	8891.925
1394.11575	8627.025
1397.57339	8410.425
1401.0287	8274.225
1404.48168	8172.525
1407.93234	8166.925
1411.38068	8288.425
1414.82669	8354.025
1418.27039	8370.125
1421.71177	8321.725
1425.15083	8238.925
1428.58758	8176.325
1432.02203	8242.025
1435.45416	8351.325
1438.88399	8428.425
1442.31151	8494.925
1445.73673	8565.125
1449.15965	8621.625
1452.58027	8573.825
1455.9986	8528.825
1459.41463	8519.125
1462.82837	8615.025
1466.23982	8776.625
1469.64898	8984.925
1473.05586	9163.025
1476.46045	9195.325
1479.86276	9275.125
1483.26279	9422.725
1486.66054	9659.525
1490.05602	9979.325
1493.44922	10510.425
1496.84016	11368.625
1500.22882	12739.425
1503.61521	14457.425
1506.99934	16078.325
1510.38121	17083.825
1513.76081	16760.925
1517.13816	15226.725
1520.51324	13249.525
1523.88607	11729.125
1527.25665	10790.525
1530.62498	10340.225
1533.99105	10150.425
1537.35488	10013.525
1540.71647	9956.825
1544.07581	9860.325
1547.4329	9780.625
1550.78776	9624.225
1554.14038	9505.125
1557.49077	9429.125
1560.83892	9470.125
1564.18484	9734.425
1567.52853	10093.225
1570.86999	10404.525
1574.20922	10536.625
1577.54624	10358.325
1580.88103	9804.825
1584.2136	9140.125
1587.54395	8762.325
1590.87208	8731.325
1594.19801	8986.825
1597.52172	9424.725
1600.84321	9623.025
1604.16251	9603.125
1607.47959	9422.425
1610.79447	9099.425
1614.10715	8630.525
1617.41763	8191.525
1620.7259	7831.925
1624.03199	7623.225
1627.33587	7589.825
1630.63757	7668.425
1633.93707	7919.125
1637.23439	8374.425
1640.52951	9144.425
1643.82246	10231.325
1647.11321	11462.425
1650.40179	12180.425
1653.68819	11738.325
1656.97241	10351.625
1660.25446	8902.125
1663.53433	7865.225
1666.81203	7253.825
1670.08756	6918.825
1673.36092	6712.725
1676.63211	6588.425
1679.90115	6468.325
1683.16801	6397.925
1686.43272	6332.625
1689.69527	6295.625
1692.95567	6268.525
1696.2139	6229.225
1699.46999	6213.325
1702.72392	6205.525
1705.97571	6210.925
1709.22535	6192.425
1712.47284	6192.425
1715.71819	6196.425
1718.96139	6167.525
1722.20246	6163.425
1725.44139	6138.125
1728.67818	6103.725
1731.91284	6055.325
1735.14537	6035.625
1738.37576	6009.525
1741.60403	5983.025
1744.83017	5973.325
1748.05418	5943.725
1751.27607	5926.325
1754.49584	5931.125
1757.71349	5925.325
1760.92903	5905.825
1764.14244	5891.325
1767.35375	5861.425
1770.56294	5865.525
1773.77002	5859.725
1776.97499	5838.025
1780.17785	5798.025
1783.37861	5783.025
1786.57727	5782.525
1789.77382	5772.525
1792.96828	5761.225
1796.16064	5745.125
1799.3509	5742.125
1802.53907	5722.825
1805.72514	5710.425
1808.90913	5705.725
1812.09102	5698.025
1815.27083	5679.925
1818.44856	5648.025
1821.6242	5644.925
1824.79776	5640.425
1827.96924	5642.025
1831.13864	5624.625
1834.30597	5600.525
1837.47122	5591.825
1840.6344	5567.025
1843.7955	5582.425
1846.95454	5563.125
1850.11151	5545.725
1853.26642	5564.825
1856.41926	5572.425
1859.57004	5579.025
1862.71876	5556.725
1865.86542	5534.325
1869.01003	5541.425
1872.15258	5516.625
1875.29308	5531.525
1878.43152	5522.025
1881.56792	5518.725
1884.70227	5487.725
1887.83457	5481.125
1890.96482	5488.225
1894.09304	5467.425
1897.21921	5461.025
1900.34335	5460.825
1903.46544	5436.625
1906.58551	5461.925
1909.70353	5456.725
1912.81953	5434.225
1915.93349	5444.025
1919.04543	5424.725
1922.15534	5407.925
1925.26322	5402.525
1928.36908	5371.725
1931.47292	5373.525
1934.57473	5345.025
1937.67453	5338.325
1940.77232	5328.525
1943.86808	5318.725
1946.96184	5291.025
1950.05358	5279.225
1953.14331	5263.225
1956.23103	5240.725
1959.31675	5221.925
1962.40046	5207.525
1965.48217	5212.125
1968.56188	5182.725
1971.63959	5167.325
1974.7153	5174.025
1977.78901	5171.125
1980.86073	5137.125
1983.93046	5105.325
1986.99819	5096.125
1990.06394	5067.025
1993.1277	5063.325
1996.18947	5055.125
1999.24925	5032.525
2002.30706	5026.125
2005.36288	5004.925
2008.41672	4988.625
2011.46859	4950.425
2014.51848	4937.325
2017.56639	4940.925
2020.61233	4926.425
2023.6563	4923.125
2026.6983	4894.725
2029.73833	4874.725
2032.7764	4864.825
2035.8125	4865.725
2038.84664	4847.025
2041.87881	4837.125
2044.90903	4836.325
2047.93729	4820.325
2050.96359	4816.225
2053.98794	4812.425
2057.01034	4792.325
2060.03078	4779.625
2063.04927	4782.725
2066.06582	4769.525
2069.08042	4762.125
2072.09307	4773.125
2075.10378	4757.225
2078.11255	4750.725
2081.11938	4759.425
2084.12426	4742.625
2087.12722	4747.125
2090.12824	4747.525
2093.12732	4753.925
2096.12447	4768.225
2099.11969	4752.525
2102.11299	4749.425
2105.10435	4747.425
2108.09379	4756.125
2111.08131	4758.325
2114.0669	4748.525
2117.05057	4772.225
2120.03233	4747.425
2123.01216	4755.225
2125.99008	4767.525
2128.96609	4767.325
2131.94018	4785.725
2134.91236	4785.125
2137.88263	4748.225
2140.851	4767.725
2143.81746	4766.425
2146.78201	4773.625
2149.74466	4763.325
2152.7054	4759.525
2155.66425	4760.525
2158.6212	4750.225
2161.57625	4762.425
2164.52941	4756.125
2167.48067	4739.325
2170.43004	4750.725
2173.37752	4734.125
2176.32311	4749.225
2179.26681	4738.725
2182.20863	4750.625
2185.14856	4743.825
2188.08661	4739.125
2191.02278	4747.825
2193.95707	4733.225
2196.88948	4733.525
2199.82001	4719.325
2202.74867	4715.325
2205.67545	4721.925
2208.60037	4703.825
2211.52341	4703.825
2214.44458	4675.825
2217.36388	4680.625
2220.28132	4667.925
2223.1969	4636.025
2226.11061	4661.225
2229.02246	4620.025
2231.93245	4616.825
2234.84058	4601.925
2237.74686	4601.625
2240.65128	4598.525
2243.55385	4607.125
2246.45456	4614.725
2249.35343	4587.325
2252.25044	4574.525
2255.14561	4588.025
2258.03893	4573.025
2260.93041	4574.425
2263.82004	4559.725
2266.70783	4543.225
2269.59378	4540.525
2272.4779	4535.425
2275.36017	4513.925
2278.24061	4510.225
2281.11922	4486.225
2283.996	4495.425
2286.87094	4479.825
2289.74405	4472.825
2292.61534	4469.125
2295.4848	4458.425
2298.35243	4470.025
2301.21824	4443.625
2304.08223	4450.425
2306.94439	4445.325
2309.80474	4450.225
2312.66327	4423.425
2315.51999	4407.725
2318.37489	4423.625
2321.22797	4410.425
2324.07925	4404.425
2326.92871	4369.425
2329.77637	4379.025
2332.62222	4385.725
2335.46626	4375.225
2338.3085	4376.825
2341.14893	4356.125
2343.98756	4369.725
2346.8244	4355.625
2349.65943	4367.025
2352.49267	4372.625
2355.32411	4365.725
2358.15376	4359.525
2360.98161	4366.725
2363.80768	4370.625
2366.63195	4387.925
2369.45444	4364.125
2372.27514	4358.625
2375.09405	4352.125
2377.91118	4350.025
2380.72652	4345.025
2383.54009	4320.925
2386.35187	4313.425
2389.16188	4281.625
2391.97011	4274.725
2394.77657	4282.525
2397.58125	4243.925
2400.38416	4262.625
2403.18529	4250.125
2405.98466	4253.425
2408.78226	4246.525
2411.57809	4227.925
2414.37216	4223.725
2417.16446	4232.725
2419.955	4213.125
2422.74378	4220.025
2425.5308	4219.425
2428.31606	4200.125
2431.09956	4198.425
2433.88131	4184.425
2436.6613	4211.425
2439.43954	4195.425
2442.21603	4188.225
2444.99077	4180.225
2447.76377	4194.425
2450.53501	4175.725
2453.30451	4192.325
2456.07226	4177.925
2458.83827	4173.925
2461.60254	4175.525
2464.36507	4167.725
2467.12586	4167.325
2469.88492	4184.725
2472.64224	4184.525
2475.39782	4175.825
2478.15167	4167.125
2480.90379	4146.625
2483.65417	4160.025
2486.40283	4178.825
2489.14976	4177.725
2491.89497	4160.225
2494.63845	4163.925
2497.3802	4159.725
2500.12024	4170.925
2502.85855	4125.225
2505.59514	4114.525
2508.33002	4106.025
2511.06318	4101.525
2513.79462	4096.225
2516.52435	4084.025
2519.25237	4087.925
2521.97867	4070.325
2524.70327	4069.525
2527.42616	4049.925
2530.14734	4057.125
2532.86681	4040.525
2535.58458	4052.925
2538.30065	4046.425
2541.01501	4038.725
2543.72768	4054.725
2546.43864	4054.125
2549.14791	4037.025
2551.85548	4054.925
2554.56136	4036.725
2557.26554	4053.125
2559.96803	4016.425
2562.66883	4014.725
2565.36794	4009.325
2568.06536	4003.825
2570.7611	3956.125
2573.45514	3970.225
2576.14751	3955.025
2578.83819	3953.625
2581.52719	3937.225
2584.21451	3929.625
2586.90015	3926.025
2589.58411	3911.525
2592.2664	3906.025
2594.94701	3912.725
2597.62594	3899.725
2600.30321	3886.525
2602.9788	3899.225
2605.65273	3882.625
2608.32498	3888.825
2610.99557	3878.425
2613.66449	3881.825
2616.33175	3866.925
2618.99734	3868.525
2621.66128	3869.325
2624.32355	3840.625
2626.98416	3848.425
2629.64311	3848.125
2632.30041	3822.225
2634.95605	3815.025
2637.61004	3806.425
2640.26238	3796.425
2642.91306	3786.825
2645.56209	3785.925
2648.20948	3780.625
2650.85521	3790.225
2653.4993	3794.625
2656.14175	3801.525
2658.78255	3808.625
2661.42171	3786.625
2664.05923	3799.325
2666.6951	3819.125
2669.32934	3810.825
2671.96194	3796.225
2674.59291	3805.725
2677.22224	3799.925
2679.84993	3795.425
2682.476	3786.125
2685.10043	3792.925
2687.72324	3782.225
2690.34441	3771.225
2692.96396	3780.125
2695.58188	3772.625
2698.19818	3785.325
2700.81285	3781.325
2703.4259	3777.025
2706.03733	3777.725
2708.64714	3770.225
2711.25533	3760.825
2713.86191	3762.525
2716.46687	3759.125
2719.07021	3775.425
2721.67194	3769.025
2724.27206	3769.125
2726.87057	3768.625
2729.46747	3755.125
2732.06276	3774.925
2734.65644	3768.125
2737.24852	3755.825
2739.83899	3749.125
2742.42786	3746.225
2745.01513	3741.325
2747.60079	3733.825
2750.18486	3732.625
2752.76733	3731.325
2755.3482	3724.825
2757.92747	3702.525
2760.50515	3694.825
2763.08123	3698.725
2765.65573	3670.425
2768.22863	3678.525
2770.79994	3670.625
2773.36967	3659.425
2775.9378	3661.125
2778.50435	3661.225
2781.06932	3637.725
2783.6327	3635.425
2786.1945	3643.025
2788.75471	3616.925
2791.31335	3616.525
2793.87041	3614.925
2796.42589	3603.825
2798.97979	3615.125
2801.53212	3601.625
2804.08288	3606.925
2806.63206	3604.125
2809.17967	3592.125
2811.72571	3572.325
2814.27018	3607.925
2816.81308	3593.225
2819.35442	3564.625
2821.89419	3549.425
2824.43239	3556.325
2826.96904	3543.525
2829.50412	3545.925
2832.03763	3533.325
2834.56959	3525.025
2837.1	3518.425
2839.62884	3498.525
2842.15613	3507.025
2844.68186	3505.025
2847.20604	3492.225
2849.72867	3488.725
2852.24974	3490.225
2854.76927	3459.425
2857.28724	3470.125
2859.80367	3460.625
2862.31855	3461.925
2864.83189	3457.925
2867.34368	3454.225
2869.85393	3461.425
2872.36264	3452.425
2874.8698	3438.825
2877.37543	3441.325
2879.87952	3443.025
2882.38207	3433.225
2884.88308	3428.925
2887.38256	3424.025
2889.88051	3422.725
2892.37692	3411.925
2894.8718	3403.925
2897.36515	3419.725
2899.85698	3402.325
2902.34727	3417.325
2904.83604	3411.725
2907.32328	3420.125
2909.809	3424.725
2912.29319	3430.325
2914.77587	3431.025
2917.25702	3418.825
2919.73665	3427.325
2922.21476	3420.625
2924.69136	3421.825
2927.16644	3418.925
2929.64	3408.825
2932.11205	3397.325
2934.58258	3378.125
2937.05161	3374.825
2939.51912	3370.325
2941.98513	3355.525
2944.44962	3364.725
2946.91261	3367.525
2949.37409	3364.425
2951.83407	3356.325
2954.29254	3349.825
2956.74951	3337.225
2959.20498	3347.925
2961.65895	3347.325
2964.11142	3325.525
2966.56239	3328.725
2969.01186	3337.325
2971.45984	3335.125
2973.90632	3327.125
2976.35131	3314.125
2978.7948	3315.725
2981.23681	3298.825
2983.67732	3298.925
2986.11635	3289.425
2988.55388	3301.025
2990.98993	3272.625
2993.4245	3280.125
2995.85758	3281.225
2998.28917	3274.625
3000.71928	3251.425
3003.14791	3243.925
3005.57506	3229.225
3008.00073	3228.225
3010.42493	3215.925
3012.84764	3212.225
3015.26888	3196.125
3017.68865	3192.325
3020.10694	3191.825
3022.52376	3178.325
3024.9391	3172.525
3027.35298	3162.925
3029.76539	3143.125
3032.17632	3153.725
3034.5858	3134.225
3036.9938	3143.325
3039.40034	3120.225
3041.80542	3117.925
3044.20903	3111.125
3046.61118	3110.425
3049.01187	3092.625
3051.4111	3096.025
3053.80888	3088.825
3056.20519	3085.625
3058.60005	3064.425
3060.99345	3076.125
3063.3854	3072.425
3065.7759	3070.325
3068.16494	3057.525
3070.55254	3063.825
3072.93868	3035.425
3075.32338	3030.225
3077.70662	3012.725
3080.08842	2992.925
3082.46878	2986.525
3084.84769	2979.025
3087.22515	2974.625
3089.60118	2988.425
3091.97576	2993.525
3094.3489	2977.925
3096.72061	2974.825
3099.09087	2978.225
3101.4597	2964.525
3103.82709	2961.325
3106.19305	2956.825
3108.55757	2951.125
3110.92066	2944.825
3113.28232	2951.825
3115.64255	2936.425
3118.00134	2929.825
3120.35871	2925.125
3122.71466	2924.125
3125.06917	2916.625
3127.42226	2903.025
3129.77393	2887.125
3132.12417	2890.525
3134.47299	2885.325
3136.82039	2880.125
3139.16636	2875.525
3141.51092	2879.425
3143.85406	2881.925
3146.19579	2876.225
3148.53609	2881.525
3150.87499	2873.925
3153.21246	2862.725
3155.54853	2879.625
3157.88318	2849.325
3160.21642	2873.525
3162.54826	2863.525
3164.87868	2850.925
3167.2077	2860.325
3169.5353	2849.225
3171.86151	2849.925
3174.18631	2840.325
3176.5097	2851.825
3178.83169	2823.625
3181.15228	2821.225
3183.47147	2814.225
3185.78926	2805.525
3188.10565	2807.725
3190.42065	2795.125
3192.73424	2788.625
3195.04645	2788.425
3197.35725	2778.525
3199.66667	2769.925
3201.97469	2774.325
3204.28132	2770.925
3206.58656	2767.825
3208.8904	2780.225
3211.19287	2774.525
3213.49394	2793.725
3215.79363	2780.325
3218.09193	2778.325
3220.38884	2775.225
3222.68438	2780.725
3224.97853	2768.025
3227.2713	2768.425
3229.56269	2769.725
3231.8527	2759.525
