Data from AgNPs_UA_10uM_CRN_500uM_SU_RamanShift__40__13-12-00-261.txt Node

Date: Thu Aug 04 13:12:00 BST 2022
User: TCL
Spectrometer: QEP01345
Trigger mode: 4
Integration Time (sec): 1.000000E0
Scans to average: 10
Electric dark correction enabled: true
Nonlinearity correction enabled: false
Boxcar width: 0
XAxis mode: Raman Shifts
Number of Pixels in Spectrum: 1044
>>>>>Begin Spectral Data<<<<<
46.04893	0
50.45542	-1.1
54.85868	1
59.25871	0.7
63.6555	17.4
68.04907	17
72.43941	19
76.82654	18.8
81.21044	19.4
85.59113	21.1
89.96862	21
94.34289	21.4
98.71396	22.4
103.08183	23.7
107.4465	23.1
111.80798	24.7
116.16626	25.1
120.52136	28.3
124.87327	27.9
129.222	30.6
133.56755	29.2
137.90993	32.5
142.24913	37.1
146.58517	42.1
150.91804	46.8
155.24774	59.9
159.57429	69.5
163.89768	93.5
168.21792	122.3
172.53501	165.8
176.84895	232.4
181.15975	327.7
185.46741	463.5
189.77193	642.6
194.07331	860.7
198.37157	1116
202.6667	1372
206.9587	1636.5
211.24758	1896.7
215.53334	2162
219.81599	2433.6
224.09553	2721.6
228.37195	3048.8
232.64527	3419.4
236.91549	3792.2
241.18261	4180.8
245.44663	4501.3
249.70755	4809.8
253.96539	5084.9
258.22014	5318.6
262.4718	5477.8
266.72039	5588.7
270.96589	5621.1
275.20832	5637.3
279.44768	5575.6
283.68397	5486.8
287.91719	5429.3
292.14735	5393.9
296.37445	5402.1
300.59849	5421.4
304.81948	5487.7
309.03742	5536.3
313.25231	5568.2
317.46415	5545.8
321.67296	5484
325.87872	5414.9
330.08145	5404.4
334.28114	5413.4
338.47781	5475.3
342.67145	5553.9
346.86207	5647.4
351.04966	5779.1
355.23424	5937.7
359.4158	6052.9
363.59435	6122
367.76989	6200.4
371.94243	6238.9
376.11196	6268.4
380.27849	6294
384.44203	6361.7
388.60257	6410.6
392.76012	6482.5
396.91468	6566
401.06626	6635.7
405.21485	6676.5
409.36047	6678.9
413.50311	6637
417.64277	6584.2
421.77947	6552.8
425.9132	6535.2
430.04396	6573.7
434.17176	6593.8
438.2966	6622.8
442.41849	6695
446.53742	6813
450.6534	6912.8
454.76644	6981.9
458.87653	7067.5
462.98368	7092.4
467.08789	7090.1
471.18916	7060.6
475.2875	6988.2
479.38291	6954.2
483.4754	6909.6
487.56496	6900.2
491.6516	6900.7
495.73531	6914.6
499.81612	6958
503.89401	6977.9
507.96899	7029
512.04106	7039.8
516.11023	7077.7
520.1765	7098.9
524.23987	7097.9
528.30034	7116.4
532.35792	7135.4
536.41261	7114.5
540.46441	7092
544.51333	7096.2
548.55936	7151
552.60252	7167.7
556.64279	7252.3
560.6802	7323.3
564.71473	7359
568.7464	7374.5
572.7752	7377.6
576.80114	7324.1
580.82422	7283.4
584.84444	7291.4
588.86181	7300.9
592.87633	7348.4
596.888	7416.5
600.89682	7627.3
604.9028	7986.3
608.90594	8705.4
612.90624	9361.6
616.90371	9012.6
620.89834	8078.3
624.89015	7677.8
628.87913	7662.7
632.86528	7742.5
636.84862	7792.4
640.82913	7751.6
644.80683	7646.8
648.78172	7587.2
652.75379	7615.5
656.72306	7697.8
660.68952	7808.9
664.65319	7830.7
668.61405	7815.6
672.57211	7885.3
676.52738	7905.1
680.47986	7871.3
684.42955	7774.4
688.37646	7778.6
692.32058	7800.6
696.26192	7899.3
700.20048	7980.7
704.13626	8018.3
708.06928	7977.2
711.99952	7963.8
715.927	7955.6
719.85171	7991.1
723.77365	7988.6
727.69284	7990.5
731.60928	7985.7
735.52295	7989.5
739.43388	8017.2
743.34206	8038.2
747.24749	8058.6
751.15017	8038.8
755.05012	8091.7
758.94733	8177.8
762.8418	8451.7
766.73354	8851.8
770.62254	9162.6
774.50882	9276.5
778.39237	9233.1
782.27321	9024.9
786.15132	8697.1
790.02671	8447.4
793.89938	8320.9
797.76935	8229.6
801.6366	8196.5
805.50115	8169.5
809.36299	8174
813.22213	8189
817.07857	8193.9
820.93231	8185.4
824.78336	8184.8
828.63172	8237.4
832.47738	8242.5
836.32036	8240.1
840.16066	8252.7
843.99827	8249.2
847.8332	8294.7
851.66546	8303
855.49504	8319.4
859.32195	8347.1
863.1462	8335.9
866.96777	8346.9
870.78668	8367.9
874.60293	8393.5
878.41652	8428.6
882.22745	8473.1
886.03573	8528
889.84136	8526.1
893.64433	8509.5
897.44466	8500.9
901.24235	8496.1
905.0374	8519.7
908.8298	8494.2
912.61957	8506.4
916.40671	8508.3
920.19121	8522.2
923.97308	8485.3
927.75233	8534
931.52895	8550.5
935.30295	8547.4
939.07433	8505.3
942.84309	8473.9
946.60924	8496.8
950.37278	8476.3
954.13371	8462.5
957.89203	8477
961.64774	8478.7
965.40086	8470.3
969.15137	8464.4
972.89929	8465.6
976.64461	8447.6
980.38733	8467.4
984.12747	8477.9
987.86502	8510.8
991.59999	8535.7
995.33237	8561.9
999.06217	8601.2
1002.78939	8653.5
1006.51404	8726.3
1010.23611	8812.6
1013.95561	8849.8
1017.67255	8862.6
1021.38692	8883.5
1025.09872	8859.5
1028.80796	8828.9
1032.51465	8786.1
1036.21877	8785
1039.92035	8816.6
1043.61937	8813.4
1047.31584	8865
1051.00976	8874.6
1054.70114	8923.4
1058.38998	8942.4
1062.07627	8957.3
1065.76003	8977.3
1069.44126	9049
1073.11995	9185
1076.79611	9280
1080.46974	9329.8
1084.14085	9340.8
1087.80943	9362.6
1091.47549	9399.6
1095.13903	9414.8
1098.80005	9463.6
1102.45857	9563.1
1106.11456	9549.1
1109.76805	9444.7
1113.41903	9408.2
1117.06751	9394.3
1120.71348	9442.7
1124.35696	9491.7
1127.99793	9547.2
1131.63641	9467.1
1135.2724	9352.1
1138.90589	9284.8
1142.5369	9226.4
1146.16542	9198.3
1149.79145	9161.8
1153.415	9125.8
1157.03607	9078.7
1160.65467	9120.4
1164.27079	9188.4
1167.88443	9343.2
1171.49561	9530.9
1175.10432	9781
1178.71056	10123
1182.31434	10423.3
1185.91565	10563
1189.51451	10632.5
1193.11091	10614.2
1196.70485	10578.6
1200.29634	10484.2
1203.88538	10353.2
1207.47197	10176.4
1211.05612	10009.6
1214.63782	9832.3
1218.21708	9694.1
1221.79391	9607.5
1225.36829	9587.5
1228.94024	9535.3
1232.50976	9571.2
1236.07685	9583.8
1239.6415	9632.7
1243.20374	9664.7
1246.76355	9724.5
1250.32093	9734.4
1253.8759	9823.7
1257.42845	9926.5
1260.97859	10025.1
1264.52631	10157.6
1268.07163	10231
1271.61453	10289.2
1275.15503	10266.1
1278.69312	10257.3
1282.22882	10268.4
1285.76211	10274.2
1289.29301	10326.8
1292.82151	10423.1
1296.34761	10508.7
1299.87133	10625.2
1303.39266	10837.4
1306.9116	11205.4
1310.42815	11532.3
1313.94233	11681.4
1317.45412	11544.2
1320.96354	11324.3
1324.47058	11122.1
1327.97525	10877.3
1331.47754	10720.8
1334.97747	10696.6
1338.47502	10733.6
1341.97022	10930.9
1345.46305	11258.9
1348.95352	11735.1
1352.44163	12137.8
1355.92738	12486.1
1359.41078	12811.5
1362.89183	12988.6
1366.37053	12641.5
1369.84688	11780.6
1373.32088	10938.9
1376.79254	10486.5
1380.26186	10244.9
1383.72883	10090.4
1387.19347	9938.7
1390.65578	9770.2
1394.11575	9620.3
1397.57339	9533.3
1401.0287	9466.1
1404.48168	9476
1407.93234	9508.2
1411.38068	9570.6
1414.82669	9640.7
1418.27039	9640.1
1421.71177	9622.7
1425.15083	9563.6
1428.58758	9521.7
1432.02203	9512.9
1435.45416	9488.8
1438.88399	9487.2
1442.31151	9480.8
1445.73673	9476.5
1449.15965	9467.4
1452.58027	9475.9
1455.9986	9495
1459.41463	9506.6
1462.82837	9550.8
1466.23982	9645.2
1469.64898	9736.2
1473.05586	9813.4
1476.46045	9894.5
1479.86276	9976.5
1483.26279	10023.5
1486.66054	10086.2
1490.05602	10208.5
1493.44922	10445.3
1496.84016	10729.2
1500.22882	11136
1503.61521	11551.7
1506.99934	11913.9
1510.38121	12134.3
1513.76081	12000.4
1517.13816	11577.2
1520.51324	11041.1
1523.88607	10648.4
1527.25665	10363.8
1530.62498	10246
1533.99105	10179.5
1537.35488	10184.9
1540.71647	10147.5
1544.07581	10134.3
1547.4329	10102.5
1550.78776	10050.3
1554.14038	10010.4
1557.49077	9949
1560.83892	10006.7
1564.18484	10083.9
1567.52853	10184
1570.86999	10257.8
1574.20922	10293.5
1577.54624	10248.2
1580.88103	10096.3
1584.2136	9925.8
1587.54395	9797.4
1590.87208	9828.7
1594.19801	9943.9
1597.52172	10095
1600.84321	10155.8
1604.16251	10159.1
1607.47959	10104
1610.79447	9947
1614.10715	9759.6
1617.41763	9567.3
1620.7259	9376.2
1624.03199	9262.6
1627.33587	9239.4
1630.63757	9228
1633.93707	9315.5
1637.23439	9550.8
1640.52951	9877.9
1643.82246	10268.1
1647.11321	10676.5
1650.40179	10802.9
1653.68819	10591.7
1656.97241	10085.5
1660.25446	9559.7
1663.53433	9220.2
1666.81203	8959.8
1670.08756	8827.6
1673.36092	8774.5
1676.63211	8719.8
1679.90115	8639.8
1683.16801	8618.3
1686.43272	8563.8
1689.69527	8521.7
1692.95567	8509
1696.2139	8487.1
1699.46999	8457
1702.72392	8462.9
1705.97571	8447.8
1709.22535	8463.6
1712.47284	8459
1715.71819	8463.3
1718.96139	8450.8
1722.20246	8459.1
1725.44139	8444.6
1728.67818	8446.5
1731.91284	8380
1735.14537	8351.1
1738.37576	8356.5
1741.60403	8324.9
1744.83017	8316.9
1748.05418	8323.7
1751.27607	8315
1754.49584	8297.5
1757.71349	8305.3
1760.92903	8298.1
1764.14244	8277
1767.35375	8258.2
1770.56294	8261.2
1773.77002	8261.3
1776.97499	8240.5
1780.17785	8216.9
1783.37861	8216.3
1786.57727	8204.3
1789.77382	8206.5
1792.96828	8197.8
1796.16064	8179.2
1799.3509	8165.1
1802.53907	8150.8
1805.72514	8151.4
1808.90913	8131.1
1812.09102	8126.4
1815.27083	8092.7
1818.44856	8072.2
1821.6242	8057.5
1824.79776	8054.4
1827.96924	8050
1831.13864	8052.9
1834.30597	8045.8
1837.47122	8029.4
1840.6344	8013.3
1843.7955	8020.2
1846.95454	8034.5
1850.11151	8041.3
1853.26642	8011.2
1856.41926	8014.4
1859.57004	8021.3
1862.71876	8025.8
1865.86542	8008
1869.01003	8001
1872.15258	7969
1875.29308	7965.9
1878.43152	7952.5
1881.56792	7958.1
1884.70227	7922.4
1887.83457	7903.3
1890.96482	7926.1
1894.09304	7903.9
1897.21921	7892.4
1900.34335	7882.5
1903.46544	7889.1
1906.58551	7875.5
1909.70353	7863
1912.81953	7853.1
1915.93349	7849.4
1919.04543	7823.4
1922.15534	7808.9
1925.26322	7819.3
1928.36908	7790.7
1931.47292	7792.4
1934.57473	7748.9
1937.67453	7735.1
1940.77232	7722.1
1943.86808	7712.6
1946.96184	7677
1950.05358	7704.3
1953.14331	7658.7
1956.23103	7621.6
1959.31675	7609.8
1962.40046	7582.6
1965.48217	7559.2
1968.56188	7559.5
1971.63959	7519.9
1974.7153	7504.7
1977.78901	7507.3
1980.86073	7468.4
1983.93046	7430.4
1986.99819	7430.3
1990.06394	7422.3
1993.1277	7381.3
1996.18947	7364
1999.24925	7341.9
2002.30706	7311.8
2005.36288	7279.5
2008.41672	7275.1
2011.46859	7264.9
2014.51848	7236.6
2017.56639	7208.3
2020.61233	7180.8
2023.6563	7188.4
2026.6983	7164.1
2029.73833	7146.2
2032.7764	7091.2
2035.8125	7086.3
2038.84664	7106.8
2041.87881	7075.7
2044.90903	7062.8
2047.93729	7042.2
2050.96359	7034
2053.98794	7032.5
2057.01034	7014.7
2060.03078	7024.9
2063.04927	7016
2066.06582	7016.1
2069.08042	7003.5
2072.09307	6983.6
2075.10378	6978.6
2078.11255	6968.7
2081.11938	6983.6
2084.12426	6955.8
2087.12722	6959.5
2090.12824	6951.3
2093.12732	6947.1
2096.12447	6959.2
2099.11969	6975.8
2102.11299	6989.7
2105.10435	6960.4
2108.09379	6983.6
2111.08131	6954.9
2114.0669	6981.4
2117.05057	6984.3
2120.03233	6992.2
2123.01216	6984.4
2125.99008	6984.5
2128.96609	6994.5
2131.94018	7006.3
2134.91236	7001.9
2137.88263	7002.8
2140.851	7000.8
2143.81746	6999.3
2146.78201	6998.3
2149.74466	6991.2
2152.7054	7025.3
2155.66425	6986
2158.6212	7003.5
2161.57625	6982.1
2164.52941	6991.1
2167.48067	6999
2170.43004	6984.9
2173.37752	6965
2176.32311	6975.7
2179.26681	6986.3
2182.20863	6980
2185.14856	6991.7
2188.08661	7001.3
2191.02278	6976.1
2193.95707	6975.9
2196.88948	6975.7
2199.82001	6949.5
2202.74867	6961.8
2205.67545	6953.3
2208.60037	6954.1
2211.52341	6934.9
2214.44458	6917.4
2217.36388	6899.5
2220.28132	6871.6
2223.1969	6862.1
2226.11061	6858.6
2229.02246	6834.3
2231.93245	6826
2234.84058	6811.9
2237.74686	6833.2
2240.65128	6799.6
2243.55385	6775.1
2246.45456	6777.1
2249.35343	6754.2
2252.25044	6739.6
2255.14561	6754.2
2258.03893	6736.6
2260.93041	6723
2263.82004	6717
2266.70783	6696.3
2269.59378	6667.6
2272.4779	6653.9
2275.36017	6650.5
2278.24061	6632.2
2281.11922	6615.3
2283.996	6584.2
2286.87094	6601.2
2289.74405	6584.6
2292.61534	6574.5
2295.4848	6542.2
2298.35243	6549.3
2301.21824	6545.2
2304.08223	6536.8
2306.94439	6545.5
2309.80474	6540.3
2312.66327	6503.4
2315.51999	6505.5
2318.37489	6506.8
2321.22797	6492.2
2324.07925	6470.5
2326.92871	6484.6
2329.77637	6453
2332.62222	6421
2335.46626	6441.6
2338.3085	6410.1
2341.14893	6411.9
2343.98756	6426.2
2346.8244	6399.8
2349.65943	6386.9
2352.49267	6370.1
2355.32411	6361
2358.15376	6344.1
2360.98161	6360.1
2363.80768	6347.1
2366.63195	6323.7
2369.45444	6349.4
2372.27514	6342.7
2375.09405	6315.4
2377.91118	6302.7
2380.72652	6299.1
2383.54009	6283.9
2386.35187	6291.5
2389.16188	6271.6
2391.97011	6256.2
2394.77657	6212.5
2397.58125	6211
2400.38416	6197
2403.18529	6197.5
2405.98466	6201.1
2408.78226	6189.5
2411.57809	6170.3
2414.37216	6153.3
2417.16446	6163.2
2419.955	6159.1
2422.74378	6139.5
2425.5308	6138.6
2428.31606	6143.6
2431.09956	6121.2
2433.88131	6105.5
2436.6613	6100.5
2439.43954	6086.5
2442.21603	6078.2
2444.99077	6093.1
2447.76377	6083.1
2450.53501	6060.5
2453.30451	6070.3
2456.07226	6064.3
2458.83827	6050.5
2461.60254	6026.9
2464.36507	6017.9
2467.12586	6014.7
2469.88492	5999.8
2472.64224	6005.3
2475.39782	6019.1
2478.15167	5991.7
2480.90379	5986
2483.65417	5969.4
2486.40283	5950.5
2489.14976	5967
2491.89497	5983.1
2494.63845	5947.9
2497.3802	5931.7
2500.12024	5915.6
2502.85855	5926.9
2505.59514	5923.4
2508.33002	5913.4
2511.06318	5892
2513.79462	5881.7
2516.52435	5881.8
2519.25237	5876.6
2521.97867	5877.3
2524.70327	5862.2
2527.42616	5832.7
2530.14734	5835.1
2532.86681	5800.6
2535.58458	5837.3
2538.30065	5821.2
2541.01501	5823.7
2543.72768	5793.8
2546.43864	5804.9
2549.14791	5784.3
2551.85548	5752.2
2554.56136	5750.3
2557.26554	5744.8
2559.96803	5737.1
2562.66883	5703.4
2565.36794	5700.1
2568.06536	5693.9
2570.7611	5643
2573.45514	5653.9
2576.14751	5660.3
2578.83819	5624.3
2581.52719	5624
2584.21451	5619.5
2586.90015	5624.7
2589.58411	5595.4
2592.2664	5580.1
2594.94701	5558.6
2597.62594	5548.9
2600.30321	5549
2602.9788	5532.4
2605.65273	5555.9
2608.32498	5543.5
2610.99557	5516.3
2613.66449	5508.3
2616.33175	5497.1
2618.99734	5517.3
2621.66128	5479.8
2624.32355	5454.9
2626.98416	5454.4
2629.64311	5432.9
2632.30041	5435.2
2634.95605	5430.2
2637.61004	5393.5
2640.26238	5390.1
2642.91306	5403.3
2645.56209	5396.9
2648.20948	5388.2
2650.85521	5381.8
2653.4993	5384.6
2656.14175	5364.7
2658.78255	5353.1
2661.42171	5355.5
2664.05923	5378.8
2666.6951	5362.9
2669.32934	5377.6
2671.96194	5371.6
2674.59291	5368.3
2677.22224	5358.4
2679.84993	5364
2682.476	5352.6
2685.10043	5344.3
2687.72324	5349.6
2690.34441	5342
2692.96396	5340.8
2695.58188	5328.8
2698.19818	5330.3
2700.81285	5320.1
2703.4259	5311.4
2706.03733	5309.8
2708.64714	5305.9
2711.25533	5304.1
2713.86191	5310.8
2716.46687	5316.9
2719.07021	5313.7
2721.67194	5318.4
2724.27206	5305.8
2726.87057	5305.8
2729.46747	5304
2732.06276	5293
2734.65644	5294.4
2737.24852	5282
2739.83899	5261.2
2742.42786	5272.3
2745.01513	5255.3
2747.60079	5238.4
2750.18486	5246.3
2752.76733	5233.8
2755.3482	5209.4
2757.92747	5214
2760.50515	5194.8
2763.08123	5197
2765.65573	5168.4
2768.22863	5168.7
2770.79994	5163.6
2773.36967	5154.1
2775.9378	5150.1
2778.50435	5126.1
2781.06932	5133.4
2783.6327	5116.5
2786.1945	5126.2
2788.75471	5099.4
2791.31335	5084.3
2793.87041	5079.6
2796.42589	5051.8
2798.97979	5070.2
2801.53212	5057.4
2804.08288	5034.5
2806.63206	5026.1
2809.17967	5029.6
2811.72571	5012.2
2814.27018	4994.6
2816.81308	4965.6
2819.35442	4973.3
2821.89419	4947
2824.43239	4942.3
2826.96904	4924.2
2829.50412	4929.1
2832.03763	4900.6
2834.56959	4893.3
2837.1	4887.1
2839.62884	4875.1
2842.15613	4863.8
2844.68186	4880.3
2847.20604	4859.8
2849.72867	4861.4
2852.24974	4844.4
2854.76927	4827
2857.28724	4823
2859.80367	4812.1
2862.31855	4817.4
2864.83189	4798.5
2867.34368	4789.3
2869.85393	4802.8
2872.36264	4779.7
2874.8698	4787.6
2877.37543	4784.5
2879.87952	4783.7
2882.38207	4767.8
2884.88308	4751.4
2887.38256	4755.8
2889.88051	4756.2
2892.37692	4739.3
2894.8718	4727.7
2897.36515	4747.1
2899.85698	4742.5
2902.34727	4742.7
2904.83604	4749.2
2907.32328	4749.7
2909.809	4727.6
2912.29319	4733.7
2914.77587	4729.5
2917.25702	4749.8
2919.73665	4732
2922.21476	4734.1
2924.69136	4728
2927.16644	4722.1
2929.64	4712.1
2932.11205	4711.2
2934.58258	4693.1
2937.05161	4703.3
2939.51912	4706.9
2941.98513	4699.1
2944.44962	4675.2
2946.91261	4673.6
2949.37409	4678.5
2951.83407	4667.5
2954.29254	4664.9
2956.74951	4667.7
2959.20498	4678.2
2961.65895	4675
2964.11142	4673
2966.56239	4654.5
2969.01186	4675.6
2971.45984	4664.8
2973.90632	4646.5
2976.35131	4644.8
2978.7948	4636.3
2981.23681	4622.9
2983.67732	4613.5
2986.11635	4599.7
2988.55388	4593.2
2990.98993	4578.7
2993.4245	4559.1
2995.85758	4567
2998.28917	4544.9
3000.71928	4535.1
3003.14791	4521.4
3005.57506	4522
3008.00073	4508.4
3010.42493	4500.7
3012.84764	4483.4
3015.26888	4476.7
3017.68865	4484.9
3020.10694	4480.2
3022.52376	4458.9
3024.9391	4457.4
3027.35298	4429.6
3029.76539	4434.7
3032.17632	4432.9
3034.5858	4406.9
3036.9938	4417.7
3039.40034	4404.1
3041.80542	4385.8
3044.20903	4366.3
3046.61118	4371.6
3049.01187	4370.7
3051.4111	4343.7
3053.80888	4336.1
3056.20519	4329
3058.60005	4310.8
3060.99345	4305.4
3063.3854	4289.7
3065.7759	4295.8
3068.16494	4289.6
3070.55254	4282.7
3072.93868	4253
3075.32338	4251.6
3077.70662	4225.8
3080.08842	4228.3
3082.46878	4238.6
3084.84769	4202.7
3087.22515	4217.9
3089.60118	4213.3
3091.97576	4214.7
3094.3489	4194.5
3096.72061	4187.9
3099.09087	4189.8
3101.4597	4200.7
3103.82709	4180.6
3106.19305	4187.3
3108.55757	4192.1
3110.92066	4182
3113.28232	4161.1
3115.64255	4151.7
3118.00134	4127.8
3120.35871	4134.9
3122.71466	4135
3125.06917	4132.3
3127.42226	4106.1
3129.77393	4101.7
3132.12417	4095.8
3134.47299	4095.9
3136.82039	4077.9
3139.16636	4087.7
3141.51092	4075.5
3143.85406	4072.2
3146.19579	4075.4
3148.53609	4068
3150.87499	4062.4
3153.21246	4070.7
3155.54853	4074.1
3157.88318	4066
3160.21642	4059.3
3162.54826	4047.3
3164.87868	4057
3167.2077	4051.1
3169.5353	4048.5
3171.86151	4034.9
3174.18631	4031.6
3176.5097	4015.5
3178.83169	4027.9
3181.15228	4022.3
3183.47147	3984.4
3185.78926	3999.1
3188.10565	3982
3190.42065	3978.2
3192.73424	3972.1
3195.04645	3965.1
3197.35725	3954.4
3199.66667	3939.4
3201.97469	3952.2
3204.28132	3954.2
3206.58656	3960.7
3208.8904	3943.9
3211.19287	3958.2
3213.49394	3952.6
3215.79363	3946.6
3218.09193	3951.2
3220.38884	3944.7
3222.68438	3952
3224.97853	3934.5
3227.2713	3942
3229.56269	3909
3231.8527	3921
3234.14133	3890.2
3236.42858	3909.8
3238.71446	3897.9
3240.99896	3876
3243.28209	3873.4
3245.56384	3872.6
3247.84423	3834.1
3250.12324	3842.6
3252.40088	3841.6
3254.67715	3836.6
3256.95205	3837.7
3259.22558	3843.6
3261.49775	3830.4
3263.76855	3838.6
3266.03799	3832.8
3268.30606	3832.5
3270.57277	3824.6
3272.83812	3813.4
3275.10211	3813.4
3277.36474	3790
3279.62601	3772.1
3281.88593	3769.1
3284.14448	3761.7
3286.40168	3767.9
3288.65753	3758.2
3290.91202	3746.4
3293.16516	3759.1
3295.41695	3729.3
3297.66738	3717.6
3299.91647	3709
3302.16421	3677.5
3304.4106	3655.8
3306.65564	3631.6
3308.89933	3589.2
3311.14169	3568
3313.38269	3541.3
3315.62236	3516.1
3317.86068	3491.8
3320.09766	3468.7
3322.3333	3434.2
3324.5676	3414.4
3326.80056	3360.7
3329.03219	3320.7
3331.26248	0.7
3333.49143	-0.5
3335.71905	0.2
