Data from AgNPs_UA_5uM_CRN_500uM_SU_RamanShift__5__11-30-13-139.txt Node

Date: Thu Aug 04 11:30:13 BST 2022
User: TCL
Spectrometer: QEP01345
Trigger mode: 4
Integration Time (sec): 1.000000E0
Scans to average: 10
Electric dark correction enabled: true
Nonlinearity correction enabled: false
Boxcar width: 0
XAxis mode: Raman Shifts
Number of Pixels in Spectrum: 1044
>>>>>Begin Spectral Data<<<<<
46.04893	-0.7
50.45542	0.2
54.85868	0.4
59.25871	-0.1
63.6555	-56.4
68.04907	-38.3
72.43941	-70.6
76.82654	-54
81.21044	-53.5
85.59113	-45.5
89.96862	-71
94.34289	-52.5
98.71396	-72.8
103.08183	-53.8
107.4465	-45.2
111.80798	-51.8
116.16626	-39.7
120.52136	-67.7
124.87327	-43.2
129.222	-55.3
133.56755	-43.1
137.90993	-50.7
142.24913	-36.5
146.58517	-28.3
150.91804	-21.4
155.24774	-3.8
159.57429	26.3
163.89768	43.9
168.21792	110.3
172.53501	158.7
176.84895	283.7
181.15975	484
185.46741	716.2
189.77193	1014.3
194.07331	1454.2
198.37157	1915.3
202.6667	2378
206.9587	2908.4
211.24758	3469
215.53334	4098
219.81599	4825.9
224.09553	5640.9
228.37195	6511.5
232.64527	7327.4
236.91549	7996.4
241.18261	8318.3
245.44663	8402.3
249.70755	8341.8
253.96539	8307.1
258.22014	8377.8
262.4718	8438
266.72039	8393.7
270.96589	8188.6
275.20832	7860.3
279.44768	7496.8
283.68397	7219
287.91719	7148.6
292.14735	7345.3
296.37445	7916.5
300.59849	8911
304.81948	10283.2
309.03742	11898
313.25231	13055.9
317.46415	12899.6
321.67296	11315.8
325.87872	9415.3
330.08145	8326.1
334.28114	8065.8
338.47781	8383.2
342.67145	8959.8
346.86207	9949
351.04966	11469.5
355.23424	12965.6
359.4158	13547.8
363.59435	13062.6
367.76989	12112.6
371.94243	11193.8
376.11196	10468.5
380.27849	9930.9
384.44203	9496.1
388.60257	9278.9
392.76012	9296.9
396.91468	9622
401.06626	10026.2
405.21485	10051.7
409.36047	9398.1
413.50311	8234.7
417.64277	7213.1
421.77947	6564.7
425.9132	6237.8
430.04396	6099.2
434.17176	6062.9
438.2966	6189.6
442.41849	6414.3
446.53742	6607.3
450.6534	6751.4
454.76644	6734.3
458.87653	6621.9
462.98368	6459.9
467.08789	6324.9
471.18916	6089.9
475.2875	5776.2
479.38291	5534.3
483.4754	5381
487.56496	5333.5
491.6516	5264
495.73531	5250.1
499.81612	5319.4
503.89401	5499.7
507.96899	5703.7
512.04106	6022
516.11023	6274.8
520.1765	6546.7
524.23987	6617.5
528.30034	6566.8
532.35792	6407.4
536.41261	6227.4
540.46441	5995.6
544.51333	5801.5
548.55936	5814.6
552.60252	5969.3
556.64279	6187.2
560.6802	6624
564.71473	7643.3
568.7464	8975.3
572.7752	8898.6
576.80114	7224
580.82422	5845.6
584.84444	5280.5
588.86181	5102.9
592.87633	5109.4
596.888	5335
600.89682	6132.4
604.9028	8866.1
608.90594	15871.6
612.90624	24405.6
616.90371	22111
620.89834	11554
624.89015	6922.1
628.87913	6403.6
632.86528	7061.6
636.84862	7374.3
640.82913	6570.9
644.80683	5456
648.78172	4964.5
652.75379	5120.1
656.72306	5936.4
660.68952	6708.2
664.65319	6268.9
668.61405	5226.2
672.57211	4772.1
676.52738	4753.2
680.47986	4711.7
684.42955	4563.2
688.37646	4462.3
692.32058	4463.9
696.26192	4559.3
700.20048	4686.4
704.13626	4721.8
708.06928	4623.1
711.99952	4590.8
715.927	4649.8
719.85171	4887.4
723.77365	5020.7
727.69284	4895.1
731.60928	4733.1
735.52295	4669.4
739.43388	4740.2
743.34206	4770.3
747.24749	4792.9
751.15017	4813
755.05012	5161.5
758.94733	6553
762.8418	9676.6
766.73354	13671.6
770.62254	15727.8
774.50882	14864.9
778.39237	13317.8
782.27321	11040.7
786.15132	8003.8
790.02671	5996
793.89938	5070
797.76935	4742.4
801.6366	4581
805.50115	4533.9
809.36299	4477.1
813.22213	4459.9
817.07857	4448.5
820.93231	4489.4
824.78336	4577.6
828.63172	4708.9
832.47738	4787.1
836.32036	4676
840.16066	4446.8
843.99827	4296.2
847.8332	4260.3
851.66546	4248.9
855.49504	4243.2
859.32195	4239.5
863.1462	4177.7
866.96777	4155
870.78668	4147.9
874.60293	4196.9
878.41652	4264.1
882.22745	4436.3
886.03573	4508.8
889.84136	4495.8
893.64433	4461.5
897.44466	4465.3
901.24235	4480
905.0374	4381.5
908.8298	4177.2
912.61957	4073.6
916.40671	3982.5
920.19121	4033.6
923.97308	4258.4
927.75233	4675.8
931.52895	5115.5
935.30295	4891
939.07433	4236.9
942.84309	3832.6
946.60924	3700
950.37278	3617.6
954.13371	3612.9
957.89203	3614.5
961.64774	3604.6
965.40086	3578.6
969.15137	3573.5
972.89929	3593.1
976.64461	3544
980.38733	3559
984.12747	3538.3
987.86502	3554.5
991.59999	3583
995.33237	3657
999.06217	3757.3
1002.78939	3949.4
1006.51404	4277.7
1010.23611	4435.5
1013.95561	4263.6
1017.67255	4059
1021.38692	3877.2
1025.09872	3732.4
1028.80796	3647.7
1032.51465	3701.6
1036.21877	3741.5
1039.92035	3823.8
1043.61937	3895.3
1047.31584	3975.8
1051.00976	3979.3
1054.70114	3890.7
1058.38998	3839.9
1062.07627	3803.3
1065.76003	3818.4
1069.44126	3859.7
1073.11995	3961.7
1076.79611	4242.5
1080.46974	4782.5
1084.14085	5551.7
1087.80943	6177.1
1091.47549	6132.3
1095.13903	5495
1098.80005	4831
1102.45857	4474.7
1106.11456	4420.6
1109.76805	4535.7
1113.41903	4946.1
1117.06751	5629
1120.71348	6717.7
1124.35696	8365.8
1127.99793	9534.6
1131.63641	8708.6
1135.2724	6978.8
1138.90589	5799.7
1142.5369	5160.7
1146.16542	4757
1149.79145	4493.9
1153.415	4403.2
1157.03607	4472.9
1160.65467	4681
1164.27079	5113.6
1167.88443	5685.8
1171.49561	6729.7
1175.10432	8495.8
1178.71056	11007.1
1182.31434	12816.5
1185.91565	12558.9
1189.51451	10879.2
1193.11091	9177.7
1196.70485	8095.4
1200.29634	7664.1
1203.88538	7135.1
1207.47197	6113.2
1211.05612	5141.5
1214.63782	4560
1218.21708	4276.2
1221.79391	4189.6
1225.36829	4164.5
1228.94024	4164.9
1232.50976	4160.5
1236.07685	4155.3
1239.6415	4231.9
1243.20374	4337.8
1246.76355	4506.3
1250.32093	4710.1
1253.8759	4993.5
1257.42845	5497.5
1260.97859	6181
1264.52631	6825.4
1268.07163	7141.4
1271.61453	7199.9
1275.15503	6961
1278.69312	6714.4
1282.22882	6894.5
1285.76211	7844.9
1289.29301	9153.5
1292.82151	9987.2
1296.34761	10346.7
1299.87133	11158
1303.39266	13303.3
1306.9116	17355.3
1310.42815	22357.6
1313.94233	24092.1
1317.45412	20273.4
1320.96354	14767.1
1324.47058	10619.5
1327.97525	8109.5
1331.47754	6887.3
1334.97747	6492.9
1338.47502	6672.3
1341.97022	7603.4
1345.46305	9774.4
1348.95352	12848.6
1352.44163	15998.5
1355.92738	19809.5
1359.41078	26653
1362.89183	34171.9
1366.37053	32780
1369.84688	22399.7
1373.32088	13804.8
1376.79254	10152.8
1380.26186	8523.7
1383.72883	7262.6
1387.19347	6123.4
1390.65578	5229
1394.11575	4761.8
1397.57339	4537.3
1401.0287	4386.7
1404.48168	4220.5
1407.93234	4129.8
1411.38068	4222.8
1414.82669	4598.6
1418.27039	5017.7
1421.71177	5103.8
1425.15083	4902.7
1428.58758	4927.2
1432.02203	5423
1435.45416	5813.9
1438.88399	5546.9
1442.31151	5174.5
1445.73673	5118.3
1449.15965	5083.7
1452.58027	4965.3
1455.9986	4794.9
1459.41463	4628.1
1462.82837	4654.2
1466.23982	4891.9
1469.64898	5263.2
1473.05586	5388
1476.46045	5320.6
1479.86276	5356.6
1483.26279	5613.4
1486.66054	6231.4
1490.05602	7180.7
1493.44922	8782.5
1496.84016	11302.8
1500.22882	15228.9
1503.61521	20779.2
1506.99934	27904.4
1510.38121	35028
1513.76081	37888.3
1517.13816	33491.6
1520.51324	24902.5
1523.88607	17062.6
1527.25665	12022.1
1530.62498	9240.1
1533.99105	7604.4
1537.35488	6553.8
1540.71647	5976.7
1544.07581	5734.4
1547.4329	5735.2
1550.78776	5919.7
1554.14038	6242
1557.49077	6767.1
1560.83892	7671.7
1564.18484	9125.3
1567.52853	10776.9
1570.86999	11811
1574.20922	11959.6
1577.54624	11376.3
1580.88103	9425.1
1584.2136	7117.2
1587.54395	5758.3
1590.87208	5394.7
1594.19801	5807.4
1597.52172	6506.4
1600.84321	6507.9
1604.16251	5737.9
1607.47959	4956.2
1610.79447	4522.2
1614.10715	4176.9
1617.41763	3951.9
1620.7259	3841
1624.03199	3881.1
1627.33587	4067.2
1630.63757	4428.8
1633.93707	5088.9
1637.23439	6269.9
1640.52951	8466.3
1643.82246	12226.5
1647.11321	17398.4
1650.40179	21639.1
1653.68819	21422.4
1656.97241	16742.2
1660.25446	11204.2
1663.53433	7388.8
1666.81203	5286.1
1670.08756	4223.5
1673.36092	3656.6
1676.63211	3292
1679.90115	3077.8
1683.16801	2914.7
1686.43272	2793.1
1689.69527	2725
1692.95567	2651.3
1696.2139	2614.6
1699.46999	2533
1702.72392	2539.3
1705.97571	2537.8
1709.22535	2527.8
1712.47284	2574.4
1715.71819	2598.6
1718.96139	2602.1
1722.20246	2584.8
1725.44139	2521.3
1728.67818	2462.8
1731.91284	2379.1
1735.14537	2330.4
1738.37576	2290.4
1741.60403	2270.8
1744.83017	2236
1748.05418	2229.3
1751.27607	2212.5
1754.49584	2159
1757.71349	2104.8
1760.92903	2080
1764.14244	2019.5
1767.35375	1979.7
1770.56294	1951.3
1773.77002	1913.1
1776.97499	1889.1
1780.17785	1851.8
1783.37861	1825.2
1786.57727	1832.1
1789.77382	1766.3
1792.96828	1800.5
1796.16064	1813.5
1799.3509	1802.3
1802.53907	1802.8
1805.72514	1770.4
1808.90913	1751
1812.09102	1742.5
1815.27083	1739.6
1818.44856	1726.6
1821.6242	1718.4
1824.79776	1705.3
1827.96924	1690.6
1831.13864	1655.9
1834.30597	1668.1
1837.47122	1628.7
1840.6344	1612.5
1843.7955	1581.8
1846.95454	1564
1850.11151	1572.4
1853.26642	1530.6
1856.41926	1542.5
1859.57004	1540.5
1862.71876	1539.4
1865.86542	1561.4
1869.01003	1554.7
1872.15258	1535
1875.29308	1560.1
1878.43152	1573.9
1881.56792	1561.5
1884.70227	1534.1
1887.83457	1549.8
1890.96482	1505.3
1894.09304	1504.3
1897.21921	1499.8
1900.34335	1509.6
1903.46544	1487.8
1906.58551	1510.3
1909.70353	1500.1
1912.81953	1502
1915.93349	1485.9
1919.04543	1476.5
1922.15534	1457.3
1925.26322	1452
1928.36908	1419.6
1931.47292	1409
1934.57473	1402.5
1937.67453	1363.4
1940.77232	1326.3
1943.86808	1315.3
1946.96184	1319.9
1950.05358	1300.3
1953.14331	1290.2
1956.23103	1301.4
1959.31675	1294.6
1962.40046	1268.7
1965.48217	1310.4
1968.56188	1328.9
1971.63959	1334.9
1974.7153	1350.2
1977.78901	1350.8
1980.86073	1309.4
1983.93046	1258.8
1986.99819	1178.9
1990.06394	1195.1
1993.1277	1204.6
1996.18947	1208.1
1999.24925	1169.8
2002.30706	1174.3
2005.36288	1173.3
2008.41672	1157.9
2011.46859	1129.2
2014.51848	1132.3
2017.56639	1121.6
2020.61233	1109.5
2023.6563	1111.4
2026.6983	1079.1
2029.73833	1094.8
2032.7764	1105.2
2035.8125	1063.2
2038.84664	1077.6
2041.87881	1075.1
2044.90903	1083
2047.93729	1078.1
2050.96359	1044.3
2053.98794	1056.8
2057.01034	1051
2060.03078	1033.9
2063.04927	1016.9
2066.06582	1019.1
2069.08042	988.9
2072.09307	999.6
2075.10378	1000.9
2078.11255	993.1
2081.11938	1002.7
2084.12426	993
2087.12722	981.6
2090.12824	985.8
2093.12732	982
2096.12447	999.6
2099.11969	988.8
2102.11299	977.9
2105.10435	1003.3
2108.09379	995.2
2111.08131	990.6
2114.0669	1003.2
2117.05057	1006.8
2120.03233	994.8
2123.01216	1041.8
2125.99008	1044.8
2128.96609	1059.9
2131.94018	1060.7
2134.91236	1038.3
2137.88263	1017.8
2140.851	1009.5
2143.81746	1007.5
2146.78201	979.7
2149.74466	953.4
2152.7054	962.9
2155.66425	936.3
2158.6212	923.4
2161.57625	903.5
2164.52941	883.2
2167.48067	902.5
2170.43004	907
2173.37752	921.3
2176.32311	927.6
2179.26681	936.1
2182.20863	943.2
2185.14856	935
2188.08661	932.6
2191.02278	932
2193.95707	896.5
2196.88948	877.9
2199.82001	887.5
2202.74867	869.8
2205.67545	878.1
2208.60037	892.6
2211.52341	878.8
2214.44458	872.3
2217.36388	875.3
2220.28132	857.9
2223.1969	842.5
2226.11061	855
2229.02246	843.9
2231.93245	843.4
2234.84058	830.9
2237.74686	826.1
2240.65128	825
2243.55385	841.1
2246.45456	825.8
2249.35343	858.8
2252.25044	857.2
2255.14561	883.1
2258.03893	906.3
2260.93041	926.3
2263.82004	942
2266.70783	950.5
2269.59378	928.8
2272.4779	921.2
2275.36017	930.4
2278.24061	920.6
2281.11922	885.6
2283.996	899.9
2286.87094	868.1
2289.74405	873.8
2292.61534	860
2295.4848	846.7
2298.35243	824.8
2301.21824	812.7
2304.08223	807.2
2306.94439	817.5
2309.80474	823.2
2312.66327	813.9
2315.51999	810.1
2318.37489	812.4
2321.22797	793
2324.07925	790.6
2326.92871	795.5
2329.77637	778.5
2332.62222	789.3
2335.46626	775.5
2338.3085	768.3
2341.14893	792.9
2343.98756	805.1
2346.8244	798.3
2349.65943	806
2352.49267	820.2
2355.32411	833.2
2358.15376	844
2360.98161	857.7
2363.80768	857
2366.63195	887.3
2369.45444	898.2
2372.27514	903
2375.09405	933.7
2377.91118	885.4
2380.72652	875.7
2383.54009	873.9
2386.35187	862.5
2389.16188	835.5
2391.97011	825.6
2394.77657	808.6
2397.58125	807.6
2400.38416	800.1
2403.18529	778.2
2405.98466	757.5
2408.78226	766.4
2411.57809	762.9
2414.37216	755.8
2417.16446	756.6
2419.955	740.3
2422.74378	764.7
2425.5308	744
2428.31606	762.3
2431.09956	780.1
2433.88131	771.3
2436.6613	783.4
2439.43954	784.6
2442.21603	785.7
2444.99077	787.4
2447.76377	810.2
2450.53501	809
2453.30451	808.6
2456.07226	819.8
2458.83827	815.4
2461.60254	778.4
2464.36507	809.1
2467.12586	795.6
2469.88492	808.2
2472.64224	809.5
2475.39782	801.6
2478.15167	829.9
2480.90379	841.2
2483.65417	871.8
2486.40283	898.3
2489.14976	908.2
2491.89497	902.3
2494.63845	909
2497.3802	890.4
2500.12024	888.3
2502.85855	875
2505.59514	861.2
2508.33002	841.7
2511.06318	794.5
2513.79462	782.1
2516.52435	726.9
2519.25237	689.6
2521.97867	688.1
2524.70327	680.1
2527.42616	676.6
2530.14734	685.7
2532.86681	657.4
2535.58458	662
2538.30065	660.9
2541.01501	680.6
2543.72768	671.2
2546.43864	693.9
2549.14791	695
2551.85548	693.1
2554.56136	695.7
2557.26554	709.9
2559.96803	710.7
2562.66883	719.6
2565.36794	713.9
2568.06536	698.1
2570.7611	727.4
2573.45514	712.2
2576.14751	713.3
2578.83819	692.5
2581.52719	684.3
2584.21451	688.2
2586.90015	662.5
2589.58411	657.3
2592.2664	666.2
2594.94701	672.8
2597.62594	682.2
2600.30321	621.8
2602.9788	654.8
2605.65273	646.5
2608.32498	656
2610.99557	678.8
2613.66449	647
2616.33175	679.3
2618.99734	675.6
2621.66128	681.9
2624.32355	668.9
2626.98416	650.1
2629.64311	638.2
2632.30041	633
2634.95605	616.2
2637.61004	605.7
2640.26238	580.4
2642.91306	583.3
2645.56209	606.5
2648.20948	594.5
2650.85521	581.3
2653.4993	608.2
2656.14175	606.8
2658.78255	604.6
2661.42171	579.8
2664.05923	624.5
2666.6951	636.3
2669.32934	643.4
2671.96194	664.9
2674.59291	650.6
2677.22224	657.3
2679.84993	647.4
2682.476	632.6
2685.10043	629.6
2687.72324	622
2690.34441	619.9
2692.96396	614.9
2695.58188	620.9
2698.19818	614.6
2700.81285	596
2703.4259	592.4
2706.03733	572.9
2708.64714	581.3
2711.25533	613.7
2713.86191	615.3
2716.46687	614.4
2719.07021	617.1
2721.67194	621.5
2724.27206	629.6
2726.87057	602.5
2729.46747	590.4
2732.06276	592.3
2734.65644	576.2
2737.24852	577.6
2739.83899	550.9
2742.42786	559.3
2745.01513	568.2
2747.60079	545.7
2750.18486	529.9
2752.76733	530.9
2755.3482	521.8
2757.92747	521.4
2760.50515	507
2763.08123	503.3
2765.65573	505.1
2768.22863	493.3
2770.79994	485.2
2773.36967	492.6
2775.9378	494.9
2778.50435	495.3
2781.06932	494.9
2783.6327	484.4
2786.1945	512.5
2788.75471	500.6
2791.31335	508.7
2793.87041	518.4
2796.42589	506.4
2798.97979	505.3
2801.53212	526.6
2804.08288	544.8
2806.63206	541.9
2809.17967	540.1
2811.72571	576
2814.27018	588
2816.81308	588.3
2819.35442	580.4
2821.89419	613.6
2824.43239	610.6
2826.96904	645.2
2829.50412	623.7
2832.03763	623.8
2834.56959	611.4
2837.1	600.4
2839.62884	591.6
2842.15613	585.7
2844.68186	596.2
2847.20604	576.1
2849.72867	580.8
2852.24974	602.9
2854.76927	586
2857.28724	556.3
2859.80367	631.6
2862.31855	655.6
2864.83189	663.8
2867.34368	682
2869.85393	707.2
2872.36264	695.1
2874.8698	702.4
2877.37543	706
2879.87952	690.6
2882.38207	657.8
2884.88308	661.4
2887.38256	650.4
2889.88051	630.6
2892.37692	626.4
2894.8718	607
2897.36515	627.4
2899.85698	614.3
2902.34727	625.1
2904.83604	642.2
2907.32328	664.3
2909.809	685.1
2912.29319	693.1
2914.77587	713.7
2917.25702	716.3
2919.73665	711.6
2922.21476	695.5
2924.69136	681.4
2927.16644	643
2929.64	627
2932.11205	609.4
2934.58258	614.8
2937.05161	595.1
2939.51912	594
2941.98513	605.4
2944.44962	601.4
2946.91261	572.6
2949.37409	584.6
2951.83407	584.2
2954.29254	590.7
2956.74951	606.1
2959.20498	591.5
2961.65895	589.1
2964.11142	583.8
2966.56239	583.6
2969.01186	577.5
2971.45984	571.5
2973.90632	565.6
2976.35131	587.8
2978.7948	582.1
2981.23681	573.9
2983.67732	584.7
2986.11635	592.4
2988.55388	566.2
2990.98993	582.7
2993.4245	579.9
2995.85758	575.9
2998.28917	584.6
3000.71928	582
3003.14791	586.3
3005.57506	578
3008.00073	572.5
3010.42493	508.6
3012.84764	567.3
3015.26888	570.4
3017.68865	564.9
3020.10694	522.1
3022.52376	541.7
3024.9391	533.5
3027.35298	526.1
3029.76539	500.6
3032.17632	504.9
3034.5858	482.6
3036.9938	489
3039.40034	465.6
3041.80542	447.2
3044.20903	430.6
3046.61118	422
3049.01187	438.2
3051.4111	427.4
3053.80888	423
3056.20519	415.7
3058.60005	410
3060.99345	436.5
3063.3854	413.7
3065.7759	403.9
3068.16494	400.2
3070.55254	388.9
3072.93868	411
3075.32338	395.3
3077.70662	400
3080.08842	386
3082.46878	379.2
3084.84769	396.5
3087.22515	375.8
3089.60118	389.3
3091.97576	370.5
3094.3489	379.4
3096.72061	373.6
3099.09087	358.2
3101.4597	376.2
3103.82709	358.7
3106.19305	354.3
3108.55757	361.5
3110.92066	355.4
3113.28232	372
3115.64255	377.5
3118.00134	379.4
3120.35871	362.8
3122.71466	355
3125.06917	367.3
3127.42226	361.6
3129.77393	347
3132.12417	373
3134.47299	373.1
3136.82039	358.4
3139.16636	341.6
3141.51092	361.6
3143.85406	366.9
3146.19579	354.5
3148.53609	354.5
3150.87499	370.3
3153.21246	365.1
3155.54853	371.5
3157.88318	373.6
3160.21642	374.2
3162.54826	363.9
3164.87868	371.4
3167.2077	329.9
3169.5353	357.5
3171.86151	363.8
3174.18631	343.5
3176.5097	332.5
3178.83169	333.8
3181.15228	329.2
3183.47147	310
3185.78926	295.6
3188.10565	307
3190.42065	286.7
3192.73424	307.1
3195.04645	297
3197.35725	288.4
3199.66667	303.4
3201.97469	300.1
3204.28132	292.8
3206.58656	308.9
3208.8904	320.8
3211.19287	313.4
3213.49394	307.6
3215.79363	309.4
3218.09193	323.8
3220.38884	316.5
3222.68438	312.5
3224.97853	293.2
3227.2713	315.7
3229.56269	303.2
3231.8527	304.1
3234.14133	294.6
3236.42858	294.5
3238.71446	277.6
3240.99896	299.7
3243.28209	282.3
3245.56384	297.3
3247.84423	285.9
3250.12324	292.6
3252.40088	290.9
3254.67715	279.6
3256.95205	273.3
3259.22558	285.2
3261.49775	291.6
3263.76855	283.6
3266.03799	290.8
3268.30606	290.7
3270.57277	297
3272.83812	280.3
3275.10211	291.5
3277.36474	311.4
3279.62601	311.2
3281.88593	298.3
3284.14448	287.3
3286.40168	317.1
3288.65753	317.1
3290.91202	327
3293.16516	323.7
3295.41695	355.9
3297.66738	365.1
3299.91647	358.3
3302.16421	371.2
3304.4106	337.3
3306.65564	371.2
3308.89933	355.1
3311.14169	358.4
3313.38269	367.8
3315.62236	365.1
3317.86068	366.6
3320.09766	373.8
3322.3333	357.3
3324.5676	375.2
3326.80056	371.2
3329.03219	384.5
3331.26248	-0.3
3333.49143	-1
3335.71905	1
