Data from AgNPs_UA_5uM_CRN_500uM_SU_RamanShift__157__11-55-33-171.txt Node

Date: Thu Aug 04 11:55:33 BST 2022
User: TCL
Spectrometer: QEP01345
Trigger mode: 4
Integration Time (sec): 1.000000E0
Scans to average: 10
Electric dark correction enabled: true
Nonlinearity correction enabled: false
Boxcar width: 0
XAxis mode: Raman Shifts
Number of Pixels in Spectrum: 1044
>>>>>Begin Spectral Data<<<<<
46.04893	0.7125
50.45542	-0.6875
54.85868	0.8125
59.25871	0.1125
63.6555	-58.5875
68.04907	-39.7875
72.43941	-71.8875
76.82654	-57.1875
81.21044	-55.5875
85.59113	-48.7875
89.96862	-76.0875
94.34289	-55.1875
98.71396	-78.6875
103.08183	-57.5875
107.4465	-49.9875
111.80798	-56.5875
116.16626	-43.5875
120.52136	-74.1875
124.87327	-48.5875
129.222	-63.2875
133.56755	-51.8875
137.90993	-62.5875
142.24913	-51.2875
146.58517	-41.9875
150.91804	-39.5875
155.24774	-31.4875
159.57429	-7.4875
163.89768	-4.6875
168.21792	38.2125
172.53501	61.8125
176.84895	140.8125
181.15975	269.9125
185.46741	422.1125
189.77193	607.1125
194.07331	898.7125
198.37157	1185.7125
202.6667	1479.9125
206.9587	1789.3125
211.24758	2101.3125
215.53334	2424.7125
219.81599	2774.7125
224.09553	3177.1125
228.37195	3626.3125
232.64527	4087.3125
236.91549	4547.8125
241.18261	4933.4125
245.44663	5213.2125
249.70755	5387.5125
253.96539	5518.1125
258.22014	5637.2125
262.4718	5684.6125
266.72039	5736.2125
270.96589	5700.0125
275.20832	5596.7125
279.44768	5499.7125
283.68397	5358.6125
287.91719	5319.7125
292.14735	5336.1125
296.37445	5479.8125
300.59849	5769.2125
304.81948	6097.7125
309.03742	6446.8125
313.25231	6692.3125
317.46415	6631.9125
321.67296	6242.4125
325.87872	5863.6125
330.08145	5668.3125
334.28114	5627.3125
338.47781	5692.0125
342.67145	5851.5125
346.86207	6075.7125
351.04966	6433.5125
355.23424	6848.3125
359.4158	7096.7125
363.59435	7147.1125
367.76989	7062.8125
371.94243	6959.4125
376.11196	6822.3125
380.27849	6770.3125
384.44203	6690.1125
388.60257	6663.4125
392.76012	6652.6125
396.91468	6782.6125
401.06626	6938.7125
405.21485	6969.5125
409.36047	6825.3125
413.50311	6523.2125
417.64277	6222.9125
421.77947	6044.2125
425.9132	5973.0125
430.04396	5957.0125
434.17176	6002.6125
438.2966	6091.3125
442.41849	6177.4125
446.53742	6300.7125
450.6534	6401.2125
454.76644	6477.0125
458.87653	6487.4125
462.98368	6451.4125
467.08789	6410.2125
471.18916	6321.9125
475.2875	6215.5125
479.38291	6116.4125
483.4754	6009.0125
487.56496	5979.1125
491.6516	5944.4125
495.73531	5938.7125
499.81612	5961.2125
503.89401	6055.5125
507.96899	6101.5125
512.04106	6179.2125
516.11023	6295.1125
520.1765	6361.8125
524.23987	6407.1125
528.30034	6394.7125
532.35792	6339.0125
536.41261	6282.0125
540.46441	6182.7125
544.51333	6136.1125
548.55936	6179.1125
552.60252	6280.5125
556.64279	6390.2125
560.6802	6519.8125
564.71473	6659.1125
568.7464	6836.0125
572.7752	6802.4125
576.80114	6502.6125
580.82422	6255.7125
584.84444	6161.3125
588.86181	6157.1125
592.87633	6165.4125
596.888	6306.3125
600.89682	6659.1125
604.9028	7596.9125
608.90594	9621.3125
612.90624	11887.5125
616.90371	11043.3125
620.89834	8081.2125
624.89015	6832.8125
628.87913	6624.2125
632.86528	6768.3125
636.84862	6925.5125
640.82913	6802.9125
644.80683	6479.2125
648.78172	6300.3125
652.75379	6331.5125
656.72306	6565.6125
660.68952	6804.4125
664.65319	6714.2125
668.61405	6476.0125
672.57211	6416.1125
676.52738	6432.9125
680.47986	6339.2125
684.42955	6233.7125
688.37646	6205.5125
692.32058	6200.2125
696.26192	6282.8125
700.20048	6372.5125
704.13626	6403.8125
708.06928	6369.1125
711.99952	6332.9125
715.927	6312.5125
719.85171	6338.1125
723.77365	6411.8125
727.69284	6370.4125
731.60928	6362.6125
735.52295	6340.3125
739.43388	6377.2125
743.34206	6390.3125
747.24749	6406.4125
751.15017	6424.5125
755.05012	6508.8125
758.94733	6856.9125
762.8418	7674.8125
766.73354	8928.2125
770.62254	9874.0125
774.50882	9974.3125
778.39237	9467.9125
782.27321	8598.2125
786.15132	7607.6125
790.02671	6946.7125
793.89938	6560.9125
797.76935	6468.3125
801.6366	6384.0125
805.50115	6348.8125
809.36299	6355.7125
813.22213	6343.0125
817.07857	6339.6125
820.93231	6336.3125
824.78336	6354.0125
828.63172	6365.7125
832.47738	6387.5125
836.32036	6390.9125
840.16066	6373.1125
843.99827	6339.6125
847.8332	6342.9125
851.66546	6361.9125
855.49504	6352.6125
859.32195	6399.5125
863.1462	6384.7125
866.96777	6381.5125
870.78668	6370.2125
874.60293	6378.3125
878.41652	6414.4125
882.22745	6515.0125
886.03573	6515.5125
889.84136	6504.7125
893.64433	6516.2125
897.44466	6501.9125
901.24235	6500.5125
905.0374	6502.7125
908.8298	6430.9125
912.61957	6410.0125
916.40671	6351.9125
920.19121	6417.1125
923.97308	6479.1125
927.75233	6563.7125
931.52895	6614.4125
935.30295	6592.3125
939.07433	6449.2125
942.84309	6350.1125
946.60924	6327.2125
950.37278	6275.2125
954.13371	6272.7125
957.89203	6264.5125
961.64774	6287.5125
965.40086	6261.0125
969.15137	6235.2125
972.89929	6274.2125
976.64461	6263.6125
980.38733	6286.2125
984.12747	6295.7125
987.86502	6301.6125
991.59999	6320.6125
995.33237	6420.2125
999.06217	6477.9125
1002.78939	6562.1125
1006.51404	6708.5125
1010.23611	6809.7125
1013.95561	6863.1125
1017.67255	6852.9125
1021.38692	6842.0125
1025.09872	6766.4125
1028.80796	6674.6125
1032.51465	6703.0125
1036.21877	6682.9125
1039.92035	6728.3125
1043.61937	6754.5125
1047.31584	6795.8125
1051.00976	6827.3125
1054.70114	6830.0125
1058.38998	6830.2125
1062.07627	6854.2125
1065.76003	6867.0125
1069.44126	6942.5125
1073.11995	7038.4125
1076.79611	7178.4125
1080.46974	7314.2125
1084.14085	7459.6125
1087.80943	7587.2125
1091.47549	7636.8125
1095.13903	7554.7125
1098.80005	7442.5125
1102.45857	7335.8125
1106.11456	7299.5125
1109.76805	7251.7125
1113.41903	7361.0125
1117.06751	7512.4125
1120.71348	7760.9125
1124.35696	8119.4125
1127.99793	8372.8125
1131.63641	8222.3125
1135.2724	7857.5125
1138.90589	7557.5125
1142.5369	7364.8125
1146.16542	7277.4125
1149.79145	7186.3125
1153.415	7145.2125
1157.03607	7117.9125
1160.65467	7205.9125
1164.27079	7400.6125
1167.88443	7607.6125
1171.49561	8037.7125
1175.10432	8585.9125
1178.71056	9437.2125
1182.31434	10169.9125
1185.91565	10422.3125
1189.51451	10270.2125
1193.11091	10030.3125
1196.70485	9815.7125
1200.29634	9646.1125
1203.88538	9380.7125
1207.47197	8963.5125
1211.05612	8525.8125
1214.63782	8159.4125
1218.21708	7928.7125
1221.79391	7763.4125
1225.36829	7685.6125
1228.94024	7667.8125
1232.50976	7675.1125
1236.07685	7726.5125
1239.6415	7726.3125
1243.20374	7754.0125
1246.76355	7811.5125
1250.32093	7894.2125
1253.8759	7972.7125
1257.42845	8120.3125
1260.97859	8340.4125
1264.52631	8553.6125
1268.07163	8708.4125
1271.61453	8818.5125
1275.15503	8834.0125
1278.69312	8867.1125
1282.22882	8934.0125
1285.76211	9129.3125
1289.29301	9354.5125
1292.82151	9618.1125
1296.34761	9809.7125
1299.87133	10203.9125
1303.39266	10889.7125
1306.9116	11955.6125
1310.42815	13156.6125
1313.94233	13539.9125
1317.45412	12782.0125
1320.96354	11686.1125
1324.47058	10728.3125
1327.97525	10022.7125
1331.47754	9641.8125
1334.97747	9580.4125
1338.47502	9667.9125
1341.97022	10029.6125
1345.46305	10735.9125
1348.95352	11718.8125
1352.44163	12919.9125
1355.92738	14179.7125
1359.41078	15695.6125
1362.89183	17095.7125
1366.37053	16458.8125
1369.84688	13783.7125
1373.32088	11258.0125
1376.79254	9980.3125
1380.26186	9364.3125
1383.72883	8987.9125
1387.19347	8629.2125
1390.65578	8278.8125
1394.11575	8059.0125
1397.57339	7919.4125
1401.0287	7813.7125
1404.48168	7772.5125
1407.93234	7805.1125
1411.38068	7827.2125
1414.82669	7900.8125
1418.27039	7971.3125
1421.71177	7986.4125
1425.15083	7845.2125
1428.58758	7801.7125
1432.02203	7817.2125
1435.45416	7908.6125
1438.88399	7911.2125
1442.31151	7917.6125
1445.73673	7964.0125
1449.15965	8034.4125
1452.58027	8057.5125
1455.9986	8031.0125
1459.41463	8037.0125
1462.82837	8142.2125
1466.23982	8304.9125
1469.64898	8512.6125
1473.05586	8661.0125
1476.46045	8729.2125
1479.86276	8800.1125
1483.26279	8899.3125
1486.66054	9068.0125
1490.05602	9294.5125
1493.44922	9835.5125
1496.84016	10621.5125
1500.22882	11910.8125
1503.61521	13533.6125
1506.99934	15202.7125
1510.38121	16334.7125
1513.76081	16230.6125
1517.13816	14732.8125
1520.51324	12741.7125
1523.88607	11131.7125
1527.25665	10192.2125
1530.62498	9700.4125
1533.99105	9507.2125
1537.35488	9390.3125
1540.71647	9328.6125
1544.07581	9218.4125
1547.4329	9117.8125
1550.78776	8985.1125
1554.14038	8918.7125
1557.49077	8873.2125
1560.83892	8959.8125
1564.18484	9178.4125
1567.52853	9472.3125
1570.86999	9759.3125
1574.20922	9907.6125
1577.54624	9805.4125
1580.88103	9313.0125
1584.2136	8684.3125
1587.54395	8371.7125
1590.87208	8302.3125
1594.19801	8456.9125
1597.52172	8788.6125
1600.84321	8954.3125
1604.16251	8830.6125
1607.47959	8647.5125
1610.79447	8471.3125
1614.10715	8197.6125
1617.41763	7894.6125
1620.7259	7623.2125
1624.03199	7477.0125
1627.33587	7404.0125
1630.63757	7466.5125
1633.93707	7699.3125
1637.23439	8095.1125
1640.52951	8723.9125
1643.82246	9698.8125
1647.11321	10769.7125
1650.40179	11428.2125
1653.68819	11086.7125
1656.97241	9893.2125
1660.25446	8586.2125
1663.53433	7637.2125
1666.81203	7074.0125
1670.08756	6764.3125
1673.36092	6575.7125
1676.63211	6441.1125
1679.90115	6356.3125
1683.16801	6285.9125
1686.43272	6205.3125
1689.69527	6147.4125
1692.95567	6077.1125
1696.2139	6077.3125
1699.46999	6013.4125
1702.72392	5984.2125
1705.97571	6005.9125
1709.22535	6005.3125
1712.47284	6037.6125
1715.71819	6048.7125
1718.96139	6029.2125
1722.20246	6034.8125
1725.44139	5977.6125
1728.67818	5985.7125
1731.91284	5927.7125
1735.14537	5903.3125
1738.37576	5875.6125
1741.60403	5851.1125
1744.83017	5831.8125
1748.05418	5819.7125
1751.27607	5808.0125
1754.49584	5801.5125
1757.71349	5752.7125
1760.92903	5764.5125
1764.14244	5710.0125
1767.35375	5719.2125
1770.56294	5712.1125
1773.77002	5676.4125
1776.97499	5705.5125
1780.17785	5676.1125
1783.37861	5678.0125
1786.57727	5679.0125
1789.77382	5609.3125
1792.96828	5661.6125
1796.16064	5652.1125
1799.3509	5626.8125
1802.53907	5644.4125
1805.72514	5604.8125
1808.90913	5583.9125
1812.09102	5586.5125
1815.27083	5578.9125
1818.44856	5550.4125
1821.6242	5549.5125
1824.79776	5523.0125
1827.96924	5522.1125
1831.13864	5507.4125
1834.30597	5511.4125
1837.47122	5514.5125
1840.6344	5469.5125
1843.7955	5464.0125
1846.95454	5455.0125
1850.11151	5489.9125
1853.26642	5439.3125
1856.41926	5451.0125
1859.57004	5446.7125
1862.71876	5436.9125
1865.86542	5442.6125
1869.01003	5442.5125
1872.15258	5407.9125
1875.29308	5416.1125
1878.43152	5425.3125
1881.56792	5402.0125
1884.70227	5385.6125
1887.83457	5379.1125
1890.96482	5353.0125
1894.09304	5343.1125
1897.21921	5360.7125
1900.34335	5357.3125
1903.46544	5339.2125
1906.58551	5331.2125
1909.70353	5340.8125
1912.81953	5321.7125
1915.93349	5339.8125
1919.04543	5307.9125
1922.15534	5279.1125
1925.26322	5294.1125
1928.36908	5270.0125
1931.47292	5262.0125
1934.57473	5282.2125
1937.67453	5239.6125
1940.77232	5205.2125
1943.86808	5210.1125
1946.96184	5205.5125
1950.05358	5178.6125
1953.14331	5152.6125
1956.23103	5158.9125
1959.31675	5142.6125
1962.40046	5069.9125
1965.48217	5101.6125
1968.56188	5097.7125
1971.63959	5079.4125
1974.7153	5089.8125
1977.78901	5062.1125
1980.86073	5043.9125
1983.93046	4995.6125
1986.99819	4940.6125
1990.06394	4945.2125
1993.1277	4966.0125
1996.18947	4952.2125
1999.24925	4902.4125
2002.30706	4912.0125
2005.36288	4907.0125
2008.41672	4881.4125
2011.46859	4859.6125
2014.51848	4843.3125
2017.56639	4822.8125
2020.61233	4818.7125
2023.6563	4806.2125
2026.6983	4783.0125
2029.73833	4770.7125
2032.7764	4780.4125
2035.8125	4718.8125
2038.84664	4740.9125
2041.87881	4713.3125
2044.90903	4723.6125
2047.93729	4723.1125
2050.96359	4693.0125
2053.98794	4695.2125
2057.01034	4705.8125
2060.03078	4676.9125
2063.04927	4665.5125
2066.06582	4659.0125
2069.08042	4644.6125
2072.09307	4655.2125
2075.10378	4659.7125
2078.11255	4663.5125
2081.11938	4640.6125
2084.12426	4641.8125
2087.12722	4628.2125
2090.12824	4626.3125
2093.12732	4631.3125
2096.12447	4627.5125
2099.11969	4625.0125
2102.11299	4615.2125
2105.10435	4644.2125
2108.09379	4639.4125
2111.08131	4622.0125
2114.0669	4622.8125
2117.05057	4626.6125
2120.03233	4613.7125
2123.01216	4648.7125
2125.99008	4639.5125
2128.96609	4647.9125
2131.94018	4660.2125
2134.91236	4636.1125
2137.88263	4651.0125
2140.851	4649.2125
2143.81746	4656.2125
2146.78201	4644.4125
2149.74466	4633.5125
2152.7054	4654.9125
2155.66425	4642.0125
2158.6212	4635.8125
2161.57625	4613.2125
2164.52941	4579.5125
2167.48067	4598.7125
2170.43004	4591.9125
2173.37752	4620.6125
2176.32311	4612.5125
2179.26681	4598.2125
2182.20863	4614.5125
2185.14856	4599.2125
2188.08661	4600.4125
2191.02278	4595.0125
2193.95707	4577.5125
2196.88948	4570.9125
2199.82001	4579.0125
2202.74867	4560.8125
2205.67545	4572.9125
2208.60037	4588.9125
2211.52341	4549.9125
2214.44458	4538.5125
2217.36388	4539.0125
2220.28132	4518.5125
2223.1969	4498.3125
2226.11061	4496.0125
2229.02246	4483.0125
2231.93245	4484.2125
2234.84058	4468.4125
2237.74686	4460.1125
2240.65128	4457.4125
2243.55385	4449.1125
2246.45456	4434.3125
2249.35343	4448.5125
2252.25044	4431.7125
2255.14561	4431.0125
2258.03893	4417.0125
2260.93041	4416.3125
2263.82004	4408.2125
2266.70783	4404.4125
2269.59378	4389.4125
2272.4779	4361.6125
2275.36017	4362.2125
2278.24061	4339.3125
2281.11922	4321.2125
2283.996	4333.9125
2286.87094	4309.4125
2289.74405	4322.3125
2292.61534	4306.6125
2295.4848	4296.0125
2298.35243	4298.4125
2301.21824	4282.7125
2304.08223	4257.7125
2306.94439	4294.3125
2309.80474	4276.2125
2312.66327	4270.9125
2315.51999	4247.9125
2318.37489	4243.4125
2321.22797	4231.5125
2324.07925	4231.8125
2326.92871	4234.2125
2329.77637	4209.7125
2332.62222	4210.2125
2335.46626	4176.3125
2338.3085	4175.2125
2341.14893	4190.8125
2343.98756	4186.0125
2346.8244	4158.9125
2349.65943	4160.6125
2352.49267	4160.9125
2355.32411	4174.0125
2358.15376	4164.2125
2360.98161	4146.6125
2363.80768	4146.3125
2366.63195	4157.7125
2369.45444	4160.9125
2372.27514	4162.4125
2375.09405	4151.6125
2377.91118	4129.1125
2380.72652	4128.2125
2383.54009	4123.1125
2386.35187	4123.7125
2389.16188	4093.3125
2391.97011	4098.6125
2394.77657	4081.5125
2397.58125	4081.5125
2400.38416	4066.3125
2403.18529	4043.2125
2405.98466	4038.6125
2408.78226	4048.5125
2411.57809	4019.3125
2414.37216	4013.0125
2417.16446	4015.5125
2419.955	3996.9125
2422.74378	4012.3125
2425.5308	3990.5125
2428.31606	3994.0125
2431.09956	3989.7125
2433.88131	3964.9125
2436.6613	3984.5125
2439.43954	3963.6125
2442.21603	3966.8125
2444.99077	3950.3125
2447.76377	3964.0125
2450.53501	3954.8125
2453.30451	3958.6125
2456.07226	3943.9125
2458.83827	3933.0125
2461.60254	3897.7125
2464.36507	3930.9125
2467.12586	3896.6125
2469.88492	3914.9125
2472.64224	3914.3125
2475.39782	3894.1125
2478.15167	3908.4125
2480.90379	3891.4125
2483.65417	3921.0125
2486.40283	3916.8125
2489.14976	3923.5125
2491.89497	3898.2125
2494.63845	3904.9125
2497.3802	3886.4125
2500.12024	3909.6125
2502.85855	3884.6125
2505.59514	3887.5125
2508.33002	3867.3125
2511.06318	3850.8125
2513.79462	3847.4125
2516.52435	3809.8125
2519.25237	3786.9125
2521.97867	3794.5125
2524.70327	3807.2125
2527.42616	3803.7125
2530.14734	3799.6125
2532.86681	3778.5125
2535.58458	3780.1125
2538.30065	3771.9125
2541.01501	3799.2125
2543.72768	3766.7125
2546.43864	3771.2125
2549.14791	3756.5125
2551.85548	3747.4125
2554.56136	3736.9125
2557.26554	3749.5125
2559.96803	3744.4125
2562.66883	3722.9125
2565.36794	3712.5125
2568.06536	3681.6125
2570.7611	3693.4125
2573.45514	3683.9125
2576.14751	3678.8125
2578.83819	3667.6125
2581.52719	3632.9125
2584.21451	3635.4125
2586.90015	3631.2125
2589.58411	3609.9125
2592.2664	3626.8125
2594.94701	3640.7125
2597.62594	3626.2125
2600.30321	3555.0125
2602.9788	3577.0125
2605.65273	3561.3125
2608.32498	3578.1125
2610.99557	3594.5125
2613.66449	3543.7125
2616.33175	3575.3125
2618.99734	3564.5125
2621.66128	3559.3125
2624.32355	3540.9125
2626.98416	3542.4125
2629.64311	3517.9125
2632.30041	3517.4125
2634.95605	3506.5125
2637.61004	3496.4125
2640.26238	3492.8125
2642.91306	3476.2125
2645.56209	3502.8125
2648.20948	3490.7125
2650.85521	3475.3125
2653.4993	3507.9125
2656.14175	3483.1125
2658.78255	3479.8125
2661.42171	3445.0125
2664.05923	3472.5125
2666.6951	3490.0125
2669.32934	3486.8125
2671.96194	3505.2125
2674.59291	3484.7125
2677.22224	3480.6125
2679.84993	3479.0125
2682.476	3468.7125
2685.10043	3470.8125
2687.72324	3455.1125
2690.34441	3455.5125
2692.96396	3462.1125
2695.58188	3470.6125
2698.19818	3454.8125
2700.81285	3451.7125
2703.4259	3441.7125
2706.03733	3424.9125
2708.64714	3417.0125
2711.25533	3441.3125
2713.86191	3441.0125
2716.46687	3442.7125
2719.07021	3445.0125
2721.67194	3430.7125
2724.27206	3444.2125
2726.87057	3431.0125
2729.46747	3413.6125
2732.06276	3429.2125
2734.65644	3408.4125
2737.24852	3407.4125
2739.83899	3379.7125
2742.42786	3399.8125
2745.01513	3403.9125
2747.60079	3394.2125
2750.18486	3373.5125
2752.76733	3375.8125
2755.3482	3370.8125
2757.92747	3374.2125
2760.50515	3348.8125
2763.08123	3349.4125
2765.65573	3343.4125
2768.22863	3329.1125
2770.79994	3331.7125
2773.36967	3321.4125
2775.9378	3314.8125
2778.50435	3310.6125
2781.06932	3304.4125
2783.6327	3302.3125
2786.1945	3306.3125
2788.75471	3301.0125
2791.31335	3292.1125
2793.87041	3299.9125
2796.42589	3266.4125
2798.97979	3256.0125
2801.53212	3260.8125
2804.08288	3277.3125
2806.63206	3252.1125
2809.17967	3227.8125
2811.72571	3240.5125
2814.27018	3242.2125
2816.81308	3216.9125
2819.35442	3185.4125
2821.89419	3206.6125
2824.43239	3187.1125
2826.96904	3207.6125
2829.50412	3198.3125
2832.03763	3190.2125
2834.56959	3194.9125
2837.1	3182.8125
2839.62884	3175.5125
2842.15613	3178.8125
2844.68186	3179.8125
2847.20604	3157.8125
2849.72867	3150.2125
2852.24974	3143.4125
2854.76927	3115.8125
2857.28724	3074.3125
2859.80367	3128.2125
2862.31855	3143.1125
2864.83189	3122.4125
2867.34368	3139.8125
2869.85393	3139.6125
2872.36264	3118.7125
2874.8698	3103.8125
2877.37543	3133.9125
2879.87952	3113.4125
2882.38207	3083.5125
2884.88308	3106.0125
2887.38256	3094.1125
2889.88051	3092.5125
2892.37692	3092.5125
2894.8718	3075.7125
2897.36515	3096.2125
2899.85698	3071.6125
2902.34727	3089.2125
2904.83604	3083.2125
2907.32328	3099.4125
2909.809	3103.3125
2912.29319	3082.1125
2914.77587	3089.7125
2917.25702	3104.4125
2919.73665	3112.4125
2922.21476	3096.7125
2924.69136	3106.5125
2927.16644	3085.1125
2929.64	3082.8125
2932.11205	3073.6125
2934.58258	3066.6125
2937.05161	3065.0125
2939.51912	3053.3125
2941.98513	3070.0125
2944.44962	3063.6125
2946.91261	3016.5125
2949.37409	3027.0125
2951.83407	3034.7125
2954.29254	3030.7125
2956.74951	3038.7125
2959.20498	3017.5125
2961.65895	3015.3125
2964.11142	3001.4125
2966.56239	3007.5125
2969.01186	3009.5125
2971.45984	3012.0125
2973.90632	2990.2125
2976.35131	3006.4125
2978.7948	2985.0125
2981.23681	2990.7125
2983.67732	2975.0125
2986.11635	2969.8125
2988.55388	2935.5125
2990.98993	2949.0125
2993.4245	2945.4125
2995.85758	2930.7125
2998.28917	2917.7125
3000.71928	2904.7125
3003.14791	2902.6125
3005.57506	2904.3125
3008.00073	2881.1125
3010.42493	2828.1125
3012.84764	2883.4125
3015.26888	2877.8125
3017.68865	2860.6125
3020.10694	2796.6125
3022.52376	2839.6125
3024.9391	2825.9125
3027.35298	2815.3125
3029.76539	2810.8125
3032.17632	2815.3125
3034.5858	2791.4125
3036.9938	2802.3125
3039.40034	2806.9125
3041.80542	2794.4125
3044.20903	2765.5125
3046.61118	2757.9125
3049.01187	2774.6125
3051.4111	2766.2125
3053.80888	2742.2125
3056.20519	2738.4125
3058.60005	2715.5125
3060.99345	2745.8125
3063.3854	2709.3125
3065.7759	2708.7125
3068.16494	2707.7125
3070.55254	2686.0125
3072.93868	2695.1125
3075.32338	2685.7125
3077.70662	2681.9125
3080.08842	2672.4125
3082.46878	2654.1125
3084.84769	2670.5125
3087.22515	2656.7125
3089.60118	2661.1125
3091.97576	2646.8125
3094.3489	2646.6125
3096.72061	2641.1125
3099.09087	2638.1125
3101.4597	2644.8125
3103.82709	2643.9125
3106.19305	2630.2125
3108.55757	2630.5125
3110.92066	2613.1125
3113.28232	2617.5125
3115.64255	2608.2125
3118.00134	2610.4125
3120.35871	2597.8125
3122.71466	2581.6125
