Data from AgNPs_UA_5uM_CRN_500uM_SU_RamanShift__294__12-18-23-199.txt Node

Date: Thu Aug 04 12:18:23 BST 2022
User: TCL
Spectrometer: QEP01345
Trigger mode: 4
Integration Time (sec): 1.000000E0
Scans to average: 10
Electric dark correction enabled: true
Nonlinearity correction enabled: false
Boxcar width: 0
XAxis mode: Raman Shifts
Number of Pixels in Spectrum: 1044
>>>>>Begin Spectral Data<<<<<
46.04893	-0.3875
50.45542	-0.2875
54.85868	0.8125
59.25871	-0.5875
63.6555	-57.7875
68.04907	-41.9875
72.43941	-70.8875
76.82654	-57.9875
81.21044	-56.8875
85.59113	-51.3875
89.96862	-75.6875
94.34289	-56.3875
98.71396	-79.0875
103.08183	-58.0875
107.4465	-50.6875
111.80798	-58.8875
116.16626	-46.1875
120.52136	-75.3875
124.87327	-51.5875
129.222	-62.9875
133.56755	-51.1875
137.90993	-64.7875
142.24913	-51.9875
146.58517	-44.9875
150.91804	-43.2875
155.24774	-30.2875
159.57429	-13.3875
163.89768	-9.0875
168.21792	35.2125
172.53501	52.5125
176.84895	134.7125
181.15975	262.0125
185.46741	409.2125
189.77193	577.7125
194.07331	870.5125
198.37157	1143.4125
202.6667	1421.8125
206.9587	1733.4125
211.24758	2032.3125
215.53334	2343.2125
219.81599	2691.1125
224.09553	3069.1125
228.37195	3508.3125
232.64527	3956.3125
236.91549	4407.4125
241.18261	4755.9125
245.44663	5015.1125
249.70755	5187.2125
253.96539	5303.1125
258.22014	5401.1125
262.4718	5483.4125
266.72039	5516.4125
270.96589	5479.8125
275.20832	5395.6125
279.44768	5282.3125
283.68397	5187.9125
287.91719	5138.4125
292.14735	5183.2125
296.37445	5332.5125
300.59849	5636.1125
304.81948	5980.2125
309.03742	6355.8125
313.25231	6583.6125
317.46415	6549.5125
321.67296	6171.5125
325.87872	5763.6125
330.08145	5565.7125
334.28114	5523.3125
338.47781	5557.9125
342.67145	5707.4125
346.86207	5916.1125
351.04966	6281.9125
355.23424	6651.2125
359.4158	6904.3125
363.59435	6922.3125
367.76989	6872.6125
371.94243	6748.6125
376.11196	6619.1125
380.27849	6555.3125
384.44203	6481.6125
388.60257	6458.2125
392.76012	6457.3125
396.91468	6587.9125
401.06626	6749.4125
405.21485	6758.3125
409.36047	6590.9125
413.50311	6280.9125
417.64277	5981.3125
421.77947	5789.2125
425.9132	5714.4125
430.04396	5702.1125
434.17176	5741.8125
438.2966	5823.6125
442.41849	5905.7125
446.53742	5983.3125
450.6534	6114.3125
454.76644	6183.5125
458.87653	6203.7125
462.98368	6139.0125
467.08789	6078.8125
471.18916	5993.7125
475.2875	5857.2125
479.38291	5760.8125
483.4754	5662.7125
487.56496	5612.4125
491.6516	5578.4125
495.73531	5583.1125
499.81612	5630.4125
503.89401	5723.4125
507.96899	5751.6125
512.04106	5856.4125
516.11023	5935.6125
520.1765	6006.0125
524.23987	6045.4125
528.30034	6042.8125
532.35792	5966.3125
536.41261	5905.0125
540.46441	5807.7125
544.51333	5772.4125
548.55936	5800.1125
552.60252	5932.9125
556.64279	6033.5125
560.6802	6151.2125
564.71473	6264.0125
568.7464	6450.3125
572.7752	6445.5125
576.80114	6146.3125
580.82422	5940.7125
584.84444	5853.8125
588.86181	5830.0125
592.87633	5853.0125
596.888	5962.3125
600.89682	6327.2125
604.9028	7279.2125
608.90594	9346.4125
612.90624	11691.6125
616.90371	10832.5125
620.89834	7751.2125
624.89015	6429.4125
628.87913	6211.7125
632.86528	6352.5125
636.84862	6526.2125
640.82913	6417.5125
644.80683	6040.6125
648.78172	5862.2125
652.75379	5890.5125
656.72306	6128.5125
660.68952	6359.8125
664.65319	6262.5125
668.61405	6029.8125
672.57211	5953.2125
676.52738	5964.2125
680.47986	5858.3125
684.42955	5766.5125
688.37646	5708.5125
692.32058	5712.1125
696.26192	5797.1125
700.20048	5906.1125
704.13626	5938.9125
708.06928	5881.1125
711.99952	5862.9125
715.927	5849.3125
719.85171	5857.4125
723.77365	5907.5125
727.69284	5883.4125
731.60928	5858.3125
735.52295	5843.0125
739.43388	5890.8125
743.34206	5896.7125
747.24749	5923.3125
751.15017	5941.2125
755.05012	6027.8125
758.94733	6407.0125
762.8418	7236.7125
766.73354	8614.6125
770.62254	9656.9125
774.50882	9747.3125
778.39237	9185.5125
782.27321	8252.3125
786.15132	7170.1125
790.02671	6501.6125
793.89938	6112.9125
797.76935	6002.3125
801.6366	5905.4125
805.50115	5849.4125
809.36299	5835.7125
813.22213	5815.7125
817.07857	5830.7125
820.93231	5823.4125
824.78336	5839.9125
828.63172	5881.3125
832.47738	5857.1125
836.32036	5867.4125
840.16066	5814.2125
843.99827	5805.7125
847.8332	5790.5125
851.66546	5833.4125
855.49504	5807.3125
859.32195	5850.3125
863.1462	5826.4125
866.96777	5833.6125
870.78668	5819.8125
874.60293	5846.1125
878.41652	5867.3125
882.22745	5935.9125
886.03573	5980.0125
889.84136	5959.8125
893.64433	5968.6125
897.44466	5949.8125
901.24235	5941.7125
905.0374	5929.3125
908.8298	5897.0125
912.61957	5877.4125
916.40671	5818.0125
920.19121	5864.7125
923.97308	5949.9125
927.75233	6034.6125
931.52895	6068.8125
935.30295	6023.5125
939.07433	5877.4125
942.84309	5768.3125
946.60924	5736.4125
950.37278	5703.2125
954.13371	5697.4125
957.89203	5691.1125
961.64774	5694.4125
965.40086	5678.8125
969.15137	5674.6125
972.89929	5694.4125
976.64461	5705.9125
980.38733	5714.2125
984.12747	5704.2125
987.86502	5714.5125
991.59999	5751.5125
995.33237	5811.1125
999.06217	5877.5125
1002.78939	5948.1125
1006.51404	6078.3125
1010.23611	6188.8125
1013.95561	6212.8125
1017.67255	6242.5125
1021.38692	6200.8125
1025.09872	6149.8125
1028.80796	6052.2125
1032.51465	6072.5125
1036.21877	6064.0125
1039.92035	6109.3125
1043.61937	6138.0125
1047.31584	6191.1125
1051.00976	6211.7125
1054.70114	6221.1125
1058.38998	6216.5125
1062.07627	6222.2125
1065.76003	6263.3125
1069.44126	6334.8125
1073.11995	6409.0125
1076.79611	6549.2125
1080.46974	6696.5125
1084.14085	6869.8125
1087.80943	6997.1125
1091.47549	7015.6125
1095.13903	6933.9125
1098.80005	6802.2125
1102.45857	6724.7125
1106.11456	6677.9125
1109.76805	6633.1125
1113.41903	6751.6125
1117.06751	6925.5125
1120.71348	7188.4125
1124.35696	7567.6125
1127.99793	7847.6125
1131.63641	7691.3125
1135.2724	7285.3125
1138.90589	6972.3125
1142.5369	6781.8125
1146.16542	6657.5125
1149.79145	6570.3125
1153.415	6540.4125
1157.03607	6523.9125
1160.65467	6634.2125
1164.27079	6853.1125
1167.88443	7135.6125
1171.49561	7574.2125
1175.10432	8178.7125
1178.71056	9108.2125
1182.31434	9925.0125
1185.91565	10186.8125
1189.51451	10057.5125
1193.11091	9798.7125
1196.70485	9525.2125
1200.29634	9259.9125
1203.88538	8955.2125
1207.47197	8500.4125
1211.05612	8008.2125
1214.63782	7579.8125
1218.21708	7318.5125
1221.79391	7168.3125
1225.36829	7103.3125
1228.94024	7104.8125
1232.50976	7123.4125
1236.07685	7153.8125
1239.6415	7159.6125
1243.20374	7191.6125
1246.76355	7216.9125
1250.32093	7300.7125
1253.8759	7345.0125
1257.42845	7533.1125
1260.97859	7747.8125
1264.52631	8000.5125
1268.07163	8150.3125
1271.61453	8265.7125
1275.15503	8328.2125
1278.69312	8324.3125
1282.22882	8399.3125
1285.76211	8606.7125
1289.29301	8850.3125
1292.82151	9115.5125
1296.34761	9325.4125
1299.87133	9739.2125
1303.39266	10465.5125
1306.9116	11598.5125
1310.42815	12837.2125
1313.94233	13289.6125
1317.45412	12497.7125
1320.96354	11368.4125
1324.47058	10334.4125
1327.97525	9580.0125
1331.47754	9129.7125
1334.97747	9045.3125
1338.47502	9146.9125
1341.97022	9502.1125
1345.46305	10266.1125
1348.95352	11368.7125
1352.44163	12716.3125
1355.92738	14166.9125
1359.41078	15856.0125
1362.89183	17408.2125
1366.37053	16803.6125
1369.84688	13935.4125
1373.32088	11169.4125
1376.79254	9666.0125
1380.26186	8956.7125
1383.72883	8527.0125
1387.19347	8117.5125
1390.65578	7765.7125
1394.11575	7516.4125
1397.57339	7341.1125
1401.0287	7203.9125
1404.48168	7189.9125
1407.93234	7182.0125
1411.38068	7186.9125
1414.82669	7283.9125
1418.27039	7342.5125
1421.71177	7338.0125
1425.15083	7242.0125
1428.58758	7148.6125
1432.02203	7190.0125
1435.45416	7277.6125
1438.88399	7271.4125
1442.31151	7264.1125
1445.73673	7317.2125
1449.15965	7358.5125
1452.58027	7372.7125
1455.9986	7380.9125
1459.41463	7397.6125
1462.82837	7495.2125
1466.23982	7686.6125
1469.64898	7926.4125
1473.05586	8039.0125
1476.46045	8144.0125
1479.86276	8239.2125
1483.26279	8340.9125
1486.66054	8535.1125
1490.05602	8856.1125
1493.44922	9410.5125
1496.84016	10315.2125
1500.22882	11711.5125
1503.61521	13504.9125
1506.99934	15353.8125
1510.38121	16540.8125
1513.76081	16385.9125
1517.13816	14743.3125
1520.51324	12578.4125
1523.88607	10856.5125
1527.25665	9872.7125
1530.62498	9383.6125
1533.99105	9172.3125
1537.35488	9027.7125
1540.71647	8949.6125
1544.07581	8806.5125
1547.4329	8654.4125
1550.78776	8514.7125
1554.14038	8402.4125
1557.49077	8395.2125
1560.83892	8472.1125
1564.18484	8727.1125
1567.52853	9082.6125
1570.86999	9389.6125
1574.20922	9566.4125
1577.54624	9433.3125
1580.88103	8887.4125
1584.2136	8211.5125
1587.54395	7812.9125
1590.87208	7708.6125
1594.19801	7861.7125
1597.52172	8246.2125
1600.84321	8398.9125
1604.16251	8243.0125
1607.47959	8023.8125
1610.79447	7865.7125
1614.10715	7564.4125
1617.41763	7270.1125
1620.7259	7001.1125
1624.03199	6869.1125
1627.33587	6781.7125
1630.63757	6827.5125
1633.93707	7064.6125
1637.23439	7461.4125
1640.52951	8142.8125
1643.82246	9125.3125
1647.11321	10321.3125
1650.40179	11090.7125
1653.68819	10740.2125
1656.97241	9495.6125
1660.25446	8078.2125
1663.53433	7076.9125
1666.81203	6460.2125
1670.08756	6108.3125
1673.36092	5932.7125
1676.63211	5783.7125
1679.90115	5691.1125
1683.16801	5591.9125
1686.43272	5519.5125
1689.69527	5477.5125
1692.95567	5435.4125
1696.2139	5407.3125
1699.46999	5348.0125
1702.72392	5358.4125
1705.97571	5361.8125
1709.22535	5345.3125
1712.47284	5383.0125
1715.71819	5390.9125
1718.96139	5378.3125
1722.20246	5354.2125
1725.44139	5340.8125
1728.67818	5303.3125
1731.91284	5267.1125
1735.14537	5217.1125
1738.37576	5198.0125
1741.60403	5180.3125
1744.83017	5150.5125
1748.05418	5145.6125
1751.27607	5150.2125
1754.49584	5117.5125
1757.71349	5076.5125
1760.92903	5082.3125
1764.14244	5043.7125
1767.35375	5045.6125
1770.56294	5037.6125
1773.77002	5003.1125
1776.97499	5016.9125
1780.17785	4999.8125
1783.37861	4981.9125
1786.57727	5007.9125
1789.77382	4928.9125
1792.96828	4971.3125
1796.16064	4981.2125
1799.3509	4956.2125
1802.53907	4965.2125
1805.72514	4933.1125
1808.90913	4900.0125
1812.09102	4901.6125
1815.27083	4893.2125
1818.44856	4877.9125
1821.6242	4890.6125
1824.79776	4869.3125
1827.96924	4844.6125
1831.13864	4817.5125
1834.30597	4834.8125
1837.47122	4809.6125
1840.6344	4789.3125
1843.7955	4768.2125
1846.95454	4779.6125
1850.11151	4806.8125
1853.26642	4763.9125
1856.41926	4770.8125
1859.57004	4761.7125
1862.71876	4778.7125
1865.86542	4767.0125
1869.01003	4757.3125
1872.15258	4717.4125
1875.29308	4748.8125
1878.43152	4746.5125
1881.56792	4719.3125
1884.70227	4700.6125
1887.83457	4713.9125
1890.96482	4688.8125
1894.09304	4678.3125
1897.21921	4671.0125
1900.34335	4680.1125
1903.46544	4675.6125
1906.58551	4671.0125
1909.70353	4661.7125
1912.81953	4665.4125
1915.93349	4639.1125
1919.04543	4642.5125
1922.15534	4619.3125
1925.26322	4625.5125
1928.36908	4593.1125
1931.47292	4605.0125
1934.57473	4606.9125
1937.67453	4578.6125
1940.77232	4550.7125
1943.86808	4544.4125
1946.96184	4541.4125
1950.05358	4512.2125
1953.14331	4508.0125
1956.23103	4516.3125
1959.31675	4487.7125
1962.40046	4411.3125
1965.48217	4441.7125
1968.56188	4447.4125
1971.63959	4416.7125
1974.7153	4432.0125
1977.78901	4424.6125
1980.86073	4387.8125
1983.93046	4346.5125
1986.99819	4290.1125
1990.06394	4304.2125
1993.1277	4317.3125
1996.18947	4306.8125
1999.24925	4265.1125
2002.30706	4267.2125
2005.36288	4263.4125
2008.41672	4245.4125
2011.46859	4231.5125
2014.51848	4190.3125
2017.56639	4191.4125
2020.61233	4175.5125
2023.6563	4178.4125
2026.6983	4143.5125
2029.73833	4133.4125
2032.7764	4149.0125
2035.8125	4104.8125
2038.84664	4107.8125
2041.87881	4092.7125
2044.90903	4106.9125
2047.93729	4079.5125
2050.96359	4061.7125
2053.98794	4072.9125
2057.01034	4059.9125
2060.03078	4057.4125
2063.04927	4037.3125
2066.06582	4031.9125
2069.08042	4031.9125
2072.09307	4045.0125
2075.10378	4030.9125
2078.11255	4018.5125
2081.11938	4025.2125
2084.12426	4017.9125
2087.12722	4010.4125
2090.12824	4009.9125
2093.12732	4007.5125
2096.12447	4016.0125
2099.11969	4008.9125
2102.11299	4015.0125
2105.10435	4017.6125
2108.09379	4015.5125
2111.08131	3998.5125
2114.0669	4003.1125
2117.05057	4004.5125
2120.03233	3989.8125
2123.01216	4029.2125
2125.99008	4031.8125
2128.96609	4022.7125
2131.94018	4041.4125
2134.91236	4009.8125
2137.88263	4034.1125
2140.851	4030.2125
2143.81746	4044.1125
2146.78201	4028.2125
2149.74466	4020.5125
2152.7054	4026.7125
2155.66425	4005.5125
2158.6212	4004.8125
2161.57625	3976.2125
2164.52941	3956.2125
2167.48067	3991.6125
2170.43004	3977.5125
2173.37752	3988.2125
2176.32311	3957.5125
2179.26681	3978.2125
2182.20863	3987.5125
2185.14856	3968.3125
2188.08661	3979.3125
2191.02278	3991.9125
2193.95707	3970.0125
2196.88948	3954.3125
2199.82001	3967.2125
2202.74867	3940.1125
2205.67545	3951.8125
2208.60037	3962.4125
2211.52341	3952.4125
2214.44458	3926.5125
2217.36388	3929.3125
2220.28132	3912.1125
2223.1969	3874.8125
2226.11061	3893.1125
2229.02246	3871.2125
2231.93245	3869.6125
2234.84058	3860.0125
2237.74686	3849.1125
2240.65128	3844.5125
2243.55385	3837.4125
2246.45456	3831.6125
2249.35343	3819.8125
2252.25044	3812.2125
2255.14561	3829.9125
2258.03893	3816.2125
2260.93041	3806.7125
2263.82004	3786.1125
2266.70783	3795.2125
2269.59378	3788.3125
2272.4779	3755.8125
2275.36017	3767.1125
2278.24061	3753.0125
2281.11922	3718.4125
2283.996	3744.1125
2286.87094	3717.1125
2289.74405	3723.4125
2292.61534	3713.1125
2295.4848	3713.2125
2298.35243	3695.1125
2301.21824	3690.6125
2304.08223	3697.8125
2306.94439	3695.9125
2309.80474	3685.0125
2312.66327	3690.2125
2315.51999	3670.3125
2318.37489	3658.4125
2321.22797	3651.3125
2324.07925	3652.5125
2326.92871	3642.1125
2329.77637	3619.4125
2332.62222	3603.5125
2335.46626	3588.5125
2338.3085	3592.8125
2341.14893	3601.9125
2343.98756	3610.7125
2346.8244	3587.8125
2349.65943	3586.7125
2352.49267	3577.6125
2355.32411	3591.8125
2358.15376	3577.0125
2360.98161	3590.0125
2363.80768	3579.5125
2366.63195	3573.7125
2369.45444	3586.8125
2372.27514	3600.0125
2375.09405	3586.1125
2377.91118	3557.6125
2380.72652	3534.4125
2383.54009	3544.4125
2386.35187	3550.5125
2389.16188	3525.3125
2391.97011	3520.9125
2394.77657	3493.7125
2397.58125	3506.3125
2400.38416	3501.7125
2403.18529	3471.0125
2405.98466	3465.2125
2408.78226	3464.4125
2411.57809	3469.7125
2414.37216	3458.1125
2417.16446	3451.1125
2419.955	3425.0125
2422.74378	3442.2125
2425.5308	3414.0125
2428.31606	3431.1125
2431.09956	3446.7125
2433.88131	3400.2125
2436.6613	3425.2125
2439.43954	3407.0125
2442.21603	3403.6125
2444.99077	3389.5125
2447.76377	3413.4125
2450.53501	3402.2125
2453.30451	3395.9125
2456.07226	3413.6125
2458.83827	3397.0125
2461.60254	3360.2125
2464.36507	3393.6125
2467.12586	3351.7125
2469.88492	3382.2125
2472.64224	3357.2125
2475.39782	3350.9125
2478.15167	3387.9125
2480.90379	3364.5125
2483.65417	3382.2125
2486.40283	3375.8125
2489.14976	3387.4125
2491.89497	3370.3125
2494.63845	3364.2125
2497.3802	3363.0125
2500.12024	3341.8125
2502.85855	3351.6125
2505.59514	3350.7125
2508.33002	3324.3125
2511.06318	3310.3125
2513.79462	3318.1125
2516.52435	3282.8125
2519.25237	3252.4125
2521.97867	3259.6125
2524.70327	3274.9125
2527.42616	3251.1125
2530.14734	3268.0125
2532.86681	3242.3125
2535.58458	3251.5125
2538.30065	3240.5125
2541.01501	3248.0125
2543.72768	3227.1125
2546.43864	3233.0125
2549.14791	3232.3125
2551.85548	3213.0125
2554.56136	3208.2125
2557.26554	3212.0125
2559.96803	3203.4125
2562.66883	3200.2125
2565.36794	3177.2125
2568.06536	3160.0125
2570.7611	3180.1125
2573.45514	3167.1125
2576.14751	3152.2125
2578.83819	3138.6125
2581.52719	3132.3125
2584.21451	3130.0125
2586.90015	3116.5125
2589.58411	3102.0125
2592.2664	3109.4125
2594.94701	3097.2125
2597.62594	3107.5125
2600.30321	3053.5125
2602.9788	3071.6125
2605.65273	3065.8125
2608.32498	3055.6125
2610.99557	3071.7125
2613.66449	3050.4125
2616.33175	3067.4125
2618.99734	3057.0125
2621.66128	3063.9125
2624.32355	3039.8125
2626.98416	3030.7125
2629.64311	3022.0125
2632.30041	3021.0125
2634.95605	3002.4125
2637.61004	2994.1125
2640.26238	2983.7125
2642.91306	2979.3125
2645.56209	2996.8125
2648.20948	2989.8125
2650.85521	2973.5125
2653.4993	3007.5125
2656.14175	2985.6125
2658.78255	2963.5125
2661.42171	2948.6125
2664.05923	2983.3125
2666.6951	2986.6125
2669.32934	2988.7125
2671.96194	2990.5125
2674.59291	2982.6125
2677.22224	2986.7125
2679.84993	2991.8125
2682.476	2974.0125
2685.10043	2974.8125
2687.72324	2958.1125
2690.34441	2962.2125
2692.96396	2961.6125
2695.58188	2968.8125
2698.19818	2957.7125
2700.81285	2950.6125
2703.4259	2938.5125
2706.03733	2924.0125
2708.64714	2925.9125
2711.25533	2952.8125
2713.86191	2962.8125
2716.46687	2950.2125
2719.07021	2948.9125
2721.67194	2962.7125
2724.27206	2972.3125
2726.87057	2938.6125
2729.46747	2931.8125
2732.06276	2951.2125
2734.65644	2924.1125
2737.24852	2926.2125
2739.83899	2905.9125
2742.42786	2909.7125
2745.01513	2911.5125
2747.60079	2906.8125
2750.18486	2897.0125
2752.76733	2891.8125
2755.3482	2894.5125
2757.92747	2882.7125
2760.50515	2874.2125
2763.08123	2853.8125
2765.65573	2863.7125
2768.22863	2857.6125
2770.79994	2854.6125
2773.36967	2848.5125
2775.9378	2825.5125
2778.50435	2838.7125
2781.06932	2836.5125
2783.6327	2808.6125
2786.1945	2841.1125
2788.75471	2815.3125
2791.31335	2815.5125
2793.87041	2822.2125
2796.42589	2794.3125
2798.97979	2786.1125
2801.53212	2795.6125
2804.08288	2803.6125
2806.63206	2779.3125
2809.17967	2762.1125
2811.72571	2787.4125
2814.27018	2782.3125
2816.81308	2761.8125
2819.35442	2739.0125
2821.89419	2750.5125
2824.43239	2729.9125
2826.96904	2761.1125
2829.50412	2735.0125
2832.03763	2731.0125
2834.56959	2730.2125
2837.1	2724.1125
2839.62884	2734.3125
2842.15613	2733.2125
2844.68186	2739.8125
2847.20604	2706.4125
2849.72867	2705.7125
2852.24974	2701.6125
2854.76927	2679.3125
2857.28724	2644.6125
2859.80367	2707.3125
2862.31855	2703.3125
2864.83189	2689.8125
2867.34368	2698.3125
2869.85393	2709.0125
2872.36264	2663.9125
2874.8698	2684.7125
2877.37543	2698.9125
2879.87952	2683.3125
2882.38207	2656.7125
2884.88308	2669.7125
2887.38256	2661.4125
2889.88051	2648.3125
2892.37692	2662.7125
2894.8718	2636.2125
2897.36515	2660.1125
2899.85698	2654.0125
2902.34727	2656.8125
2904.83604	2664.8125
2907.32328	2666.4125
2909.809	2670.2125
2912.29319	2661.3125
2914.77587	2674.2125
2917.25702	2691.2125
2919.73665	2684.5125
2922.21476	2682.0125
2924.69136	2674.6125
2927.16644	2666.9125
2929.64	2666.3125
2932.11205	2667.1125
2934.58258	2654.6125
2937.05161	2645.6125
2939.51912	2647.1125
2941.98513	2654.3125
2944.44962	2633.2125
2946.91261	2616.8125
2949.37409	2615.9125
2951.83407	2608.6125
2954.29254	2605.7125
2956.74951	2603.5125
2959.20498	2588.7125
2961.65895	2584.5125
2964.11142	2578.0125
2966.56239	2583.9125
2969.01186	2585.0125
2971.45984	2583.5125
2973.90632	2570.0125
2976.35131	2580.7125
2978.7948	2585.7125
2981.23681	2561.5125
2983.67732	2566.5125
2986.11635	2565.0125
2988.55388	2521.2125
2990.98993	2534.6125
2993.4245	2515.7125
2995.85758	2513.7125
2998.28917	2514.5125
3000.71928	2500.5125
3003.14791	2498.0125
3005.57506	2483.1125
3008.00073	2483.5125
3010.42493	2430.1125
3012.84764	2468.9125
3015.26888	2480.6125
3017.68865	2455.3125
3020.10694	2417.7125
3022.52376	2430.9125
3024.9391	2428.0125
3027.35298	2420.5125
3029.76539	2409.1125
3032.17632	2407.2125
3034.5858	2399.2125
3036.9938	2408.0125
3039.40034	2404.1125
3041.80542	2384.5125
3044.20903	2374.9125
3046.61118	2377.1125
3049.01187	2386.1125
3051.4111	2364.4125
3053.80888	2360.7125
3056.20519	2351.0125
3058.60005	2336.7125
3060.99345	2354.9125
3063.3854	2337.4125
3065.7759	2322.6125
3068.16494	2309.8125
3070.55254	2307.7125
3072.93868	2321.1125
3075.32338	2314.8125
3077.70662	2296.3125
3080.08842	2294.9125
3082.46878	2278.5125
3084.84769	2293.2125
3087.22515	2270.2125
3089.60118	2281.8125
3091.97576	2270.1125
3094.3489	2277.5125
3096.72061	2268.9125
3099.09087	2262.1125
3101.4597	2278.5125
3103.82709	2261.0125
3106.19305	2244.0125
3108.55757	2253.4125
3110.92066	2238.3125
3113.28232	2252.6125
3115.64255	2237.1125
3118.00134	2244.3125
3120.35871	2226.9125
3122.71466	2213.2125
