Data from AgNPs_UA_5uM_CRN_500uM_SU_RamanShift__126__11-50-23-164.txt Node

Date: Thu Aug 04 11:50:23 BST 2022
User: TCL
Spectrometer: QEP01345
Trigger mode: 4
Integration Time (sec): 1.000000E0
Scans to average: 10
Electric dark correction enabled: true
Nonlinearity correction enabled: false
Boxcar width: 0
XAxis mode: Raman Shifts
Number of Pixels in Spectrum: 1044
>>>>>Begin Spectral Data<<<<<
46.04893	-0.65
50.45542	-0.25
54.85868	0.65
59.25871	-0.15
63.6555	-58.45
68.04907	-37.55
72.43941	-71.35
76.82654	-55.45
81.21044	-56.25
85.59113	-48.85
89.96862	-73.85
94.34289	-56.35
98.71396	-77.35
103.08183	-57.55
107.4465	-49.85
111.80798	-57.25
116.16626	-46.35
120.52136	-74.45
124.87327	-51.75
129.222	-62.45
133.56755	-49.75
137.90993	-62.95
142.24913	-51.05
146.58517	-44.35
150.91804	-39.75
155.24774	-31.45
159.57429	-12.75
163.89768	-10.75
168.21792	36.55
172.53501	50.15
176.84895	129.55
181.15975	256.55
185.46741	402.25
189.77193	574.55
194.07331	849.35
198.37157	1127.05
202.6667	1391.35
206.9587	1709.55
211.24758	2006.65
215.53334	2313.25
219.81599	2656.25
224.09553	3020.85
228.37195	3452.35
232.64527	3892.85
236.91549	4361.55
241.18261	4736.35
245.44663	5043.85
249.70755	5241.45
253.96539	5386.65
258.22014	5480.75
262.4718	5542.65
266.72039	5562.15
270.96589	5520.85
275.20832	5429.95
279.44768	5324.25
283.68397	5197.75
287.91719	5125.95
292.14735	5141.55
296.37445	5255.15
300.59849	5468.35
304.81948	5711.85
309.03742	5997.85
313.25231	6176.25
317.46415	6120.95
321.67296	5835.45
325.87872	5511.75
330.08145	5360.55
334.28114	5356.75
338.47781	5420.85
342.67145	5543.95
346.86207	5748.15
351.04966	6045.05
355.23424	6344.75
359.4158	6570.65
363.59435	6620.05
367.76989	6590.85
371.94243	6507.75
376.11196	6426.15
380.27849	6376.75
384.44203	6362.15
388.60257	6333.05
392.76012	6334.45
396.91468	6443.85
401.06626	6589.05
405.21485	6621.65
409.36047	6497.05
413.50311	6271.45
417.64277	6054.65
421.77947	5885.85
425.9132	5838.95
430.04396	5841.65
434.17176	5894.75
438.2966	5980.25
442.41849	6086.45
446.53742	6162.45
450.6534	6279.65
454.76644	6352.05
458.87653	6359.95
462.98368	6362.35
467.08789	6316.55
471.18916	6280.75
475.2875	6186.65
479.38291	6112.15
483.4754	6001.35
487.56496	5951.85
491.6516	5916.65
495.73531	5929.65
499.81612	5947.35
503.89401	6019.05
507.96899	6040.85
512.04106	6138.85
516.11023	6208.55
520.1765	6278.35
524.23987	6307.85
528.30034	6339.85
532.35792	6289.15
536.41261	6230.75
540.46441	6170.05
544.51333	6131.75
548.55936	6174.15
552.60252	6283.75
556.64279	6367.15
560.6802	6467.65
564.71473	6577.15
568.7464	6704.35
572.7752	6666.45
576.80114	6437.35
580.82422	6236.75
584.84444	6177.95
588.86181	6173.45
592.87633	6186.45
596.888	6300.15
600.89682	6604.65
604.9028	7348.65
608.90594	8985.85
612.90624	10818.95
616.90371	10104.95
620.89834	7749.95
624.89015	6748.35
628.87913	6604.65
632.86528	6718.65
636.84862	6861.95
640.82913	6765.25
644.80683	6496.65
648.78172	6364.85
652.75379	6388.25
656.72306	6587.95
660.68952	6745.95
664.65319	6682.25
668.61405	6513.55
672.57211	6491.35
676.52738	6514.45
680.47986	6433.75
684.42955	6353.95
688.37646	6321.35
692.32058	6317.25
696.26192	6380.25
700.20048	6456.95
704.13626	6518.45
708.06928	6456.25
711.99952	6426.35
715.927	6386.25
719.85171	6432.55
723.77365	6482.15
727.69284	6459.55
731.60928	6445.15
735.52295	6461.15
739.43388	6478.15
743.34206	6489.15
747.24749	6517.55
751.15017	6543.25
755.05012	6572.25
758.94733	6857.95
762.8418	7494.75
766.73354	8495.75
770.62254	9250.05
774.50882	9317.05
778.39237	8959.15
782.27321	8234.25
786.15132	7455.95
790.02671	6938.45
793.89938	6624.75
797.76935	6563.35
801.6366	6493.15
805.50115	6463.85
809.36299	6450.25
813.22213	6475.05
817.07857	6473.35
820.93231	6451.45
824.78336	6484.05
828.63172	6488.05
832.47738	6494.35
836.32036	6519.25
840.16066	6497.95
843.99827	6479.55
847.8332	6487.45
851.66546	6504.55
855.49504	6506.05
859.32195	6531.05
863.1462	6531.55
866.96777	6539.95
870.78668	6521.05
874.60293	6552.65
878.41652	6573.15
882.22745	6640.45
886.03573	6660.95
889.84136	6656.65
893.64433	6665.65
897.44466	6638.55
901.24235	6638.15
905.0374	6636.55
908.8298	6576.85
912.61957	6569.05
916.40671	6521.65
920.19121	6572.45
923.97308	6647.45
927.75233	6700.35
931.52895	6730.95
935.30295	6723.95
939.07433	6620.05
942.84309	6514.25
946.60924	6509.65
950.37278	6462.35
954.13371	6472.85
957.89203	6465.85
961.64774	6491.55
965.40086	6480.55
969.15137	6435.45
972.89929	6476.65
976.64461	6452.25
980.38733	6468.45
984.12747	6499.55
987.86502	6504.95
991.59999	6553.55
995.33237	6623.75
999.06217	6702.15
1002.78939	6788.25
1006.51404	6911.85
1010.23611	7038.75
1013.95561	7107.85
1017.67255	7099.65
1021.38692	7106.75
1025.09872	7019.25
1028.80796	6920.85
1032.51465	6921.95
1036.21877	6909.15
1039.92035	6973.55
1043.61937	6982.95
1047.31584	7045.65
1051.00976	7062.25
1054.70114	7067.05
1058.38998	7048.15
1062.07627	7061.05
1065.76003	7106.45
1069.44126	7169.05
1073.11995	7285.15
1076.79611	7399.35
1080.46974	7534.75
1084.14085	7621.15
1087.80943	7737.05
1091.47549	7763.95
1095.13903	7740.05
1098.80005	7684.15
1102.45857	7568.95
1106.11456	7520.85
1109.76805	7426.35
1113.41903	7477.45
1117.06751	7622.35
1120.71348	7794.85
1124.35696	8053.75
1127.99793	8288.75
1131.63641	8168.85
1135.2724	7882.75
1138.90589	7667.85
1142.5369	7531.05
1146.16542	7481.65
1149.79145	7422.55
1153.415	7357.45
1157.03607	7326.75
1160.65467	7351.35
1164.27079	7506.65
1167.88443	7690.35
1171.49561	8011.25
1175.10432	8454.65
1178.71056	9140.05
1182.31434	9719.55
1185.91565	9958.35
1189.51451	9877.75
1193.11091	9736.95
1196.70485	9595.55
1200.29634	9470.55
1203.88538	9304.25
1207.47197	9000.15
1211.05612	8651.45
1214.63782	8384.05
1218.21708	8188.15
1221.79391	8039.55
1225.36829	7909.05
1228.94024	7875.45
1232.50976	7875.85
1236.07685	7918.35
1239.6415	7939.35
1243.20374	7970.65
1246.76355	8008.45
1250.32093	8096.15
1253.8759	8195.65
1257.42845	8381.25
1260.97859	8566.45
1264.52631	8751.85
1268.07163	8847.75
1271.61453	8933.45
1275.15503	8956.85
1278.69312	8964.85
1282.22882	9019.65
1285.76211	9158.55
1289.29301	9356.45
1292.82151	9568.95
1296.34761	9732.95
1299.87133	10066.05
1303.39266	10620.45
1306.9116	11453.85
1310.42815	12341.35
1313.94233	12649.05
1317.45412	12123.85
1320.96354	11284.45
1324.47058	10550.05
1327.97525	9975.95
1331.47754	9670.95
1334.97747	9623.95
1338.47502	9778.75
1341.97022	10074.45
1345.46305	10668.15
1348.95352	11496.45
1352.44163	12435.05
1355.92738	13349.85
1359.41078	14503.35
1362.89183	15486.45
1366.37053	14885.05
1369.84688	12727.25
1373.32088	10794.05
1376.79254	9774.15
1380.26186	9282.95
1383.72883	9003.05
1387.19347	8695.95
1390.65578	8414.85
1394.11575	8251.75
1397.57339	8128.35
1401.0287	8016.05
1404.48168	8005.65
1407.93234	8043.15
1411.38068	8056.95
1414.82669	8127.05
1418.27039	8185.65
1421.71177	8154.05
1425.15083	8072.45
1428.58758	8010.45
1432.02203	8051.05
1435.45416	8131.55
1438.88399	8134.85
1442.31151	8176.45
1445.73673	8238.65
1449.15965	8279.15
1452.58027	8319.15
1455.9986	8298.15
1459.41463	8296.05
1462.82837	8352.55
1466.23982	8553.75
1469.64898	8734.15
1473.05586	8866.75
1476.46045	8925.35
1479.86276	8938.05
1483.26279	8987.65
1486.66054	9093.25
1490.05602	9299.05
1493.44922	9695.35
1496.84016	10356.05
1500.22882	11357.75
1503.61521	12610.25
1506.99934	13862.15
1510.38121	14669.75
1513.76081	14553.75
1517.13816	13393.45
1520.51324	11899.55
1523.88607	10663.55
1527.25665	9949.95
1530.62498	9560.55
1533.99105	9452.35
1537.35488	9368.15
1540.71647	9346.35
1544.07581	9314.05
1547.4329	9226.45
1550.78776	9114.95
1554.14038	8998.05
1557.49077	8933.55
1560.83892	8961.95
1564.18484	9071.15
1567.52853	9317.05
1570.86999	9536.65
1574.20922	9619.95
1577.54624	9532.25
1580.88103	9175.25
1584.2136	8684.35
1587.54395	8455.65
1590.87208	8441.35
1594.19801	8587.65
1597.52172	8902.95
1600.84321	9076.15
1604.16251	9017.65
1607.47959	8881.45
1610.79447	8712.15
1614.10715	8414.75
1617.41763	8120.05
1620.7259	7849.85
1624.03199	7687.75
1627.33587	7630.75
1630.63757	7662.35
1633.93707	7869.05
1637.23439	8209.85
1640.52951	8793.05
1643.82246	9551.15
1647.11321	10401.45
1650.40179	10843.45
1653.68819	10569.25
1656.97241	9575.55
1660.25446	8500.35
1663.53433	7741.35
1666.81203	7267.25
1670.08756	7005.05
1673.36092	6856.35
1676.63211	6740.25
1679.90115	6660.95
1683.16801	6585.45
1686.43272	6507.75
1689.69527	6448.15
1692.95567	6399.15
1696.2139	6363.15
1699.46999	6320.75
1702.72392	6306.45
1705.97571	6312.35
1709.22535	6294.75
1712.47284	6348.65
1715.71819	6339.15
1718.96139	6336.85
1722.20246	6320.25
1725.44139	6310.65
1728.67818	6283.95
1731.91284	6245.35
1735.14537	6220.85
1738.37576	6200.45
1741.60403	6172.05
1744.83017	6153.65
1748.05418	6151.35
1751.27607	6152.45
1754.49584	6124.05
1757.71349	6099.55
1760.92903	6130.95
1764.14244	6061.55
1767.35375	6073.05
1770.56294	6043.15
1773.77002	6044.45
1776.97499	6059.65
1780.17785	6028.35
1783.37861	6026.85
1786.57727	6025.15
1789.77382	5964.35
1792.96828	5999.65
1796.16064	6000.05
1799.3509	5995.85
1802.53907	5993.35
1805.72514	5965.55
1808.90913	5930.85
1812.09102	5916.45
1815.27083	5927.15
1818.44856	5911.15
1821.6242	5893.15
1824.79776	5897.05
1827.96924	5890.95
1831.13864	5854.65
1834.30597	5870.75
1837.47122	5861.45
1840.6344	5847.85
1843.7955	5826.35
1846.95454	5816.35
1850.11151	5819.35
1853.26642	5791.15
1856.41926	5810.25
1859.57004	5789.35
1862.71876	5782.25
1865.86542	5804.85
1869.01003	5789.35
1872.15258	5760.55
1875.29308	5786.15
1878.43152	5778.35
1881.56792	5762.65
1884.70227	5752.25
1887.83457	5744.35
1890.96482	5704.25
1894.09304	5701.25
1897.21921	5701.15
1900.34335	5717.85
1903.46544	5699.55
1906.58551	5706.35
1909.70353	5698.85
1912.81953	5686.45
1915.93349	5673.55
1919.04543	5665.45
1922.15534	5663.25
1925.26322	5656.75
1928.36908	5624.85
1931.47292	5632.05
1934.57473	5641.55
1937.67453	5608.35
1940.77232	5579.25
1943.86808	5564.65
1946.96184	5565.45
1950.05358	5540.35
1953.14331	5530.55
1956.23103	5522.25
1959.31675	5492.65
1962.40046	5450.25
1965.48217	5468.65
1968.56188	5443.45
1971.63959	5434.65
1974.7153	5438.35
1977.78901	5405.45
1980.86073	5374.15
1983.93046	5345.15
1986.99819	5276.15
1990.06394	5296.05
1993.1277	5302.75
1996.18947	5294.15
1999.24925	5251.05
2002.30706	5267.35
2005.36288	5250.15
2008.41672	5226.95
2011.46859	5189.65
2014.51848	5189.65
2017.56639	5168.55
2020.61233	5151.35
2023.6563	5148.05
2026.6983	5109.95
2029.73833	5109.25
2032.7764	5133.65
2035.8125	5080.85
2038.84664	5064.95
2041.87881	5054.45
2044.90903	5073.75
2047.93729	5054.05
2050.96359	5024.65
2053.98794	5029.85
2057.01034	5049.55
2060.03078	5003.25
2063.04927	5012.85
2066.06582	4999.95
2069.08042	5005.05
2072.09307	4991.25
2075.10378	4982.85
2078.11255	4990.15
2081.11938	4978.15
2084.12426	4974.15
2087.12722	4971.35
2090.12824	4978.25
2093.12732	4973.85
2096.12447	5005.05
2099.11969	4975.95
2102.11299	4957.25
2105.10435	4994.15
2108.09379	4968.95
2111.08131	4982.15
2114.0669	4977.85
2117.05057	4970.55
2120.03233	4953.75
2123.01216	4986.15
2125.99008	4988.15
2128.96609	4986.05
2131.94018	5021.25
2134.91236	4992.45
2137.88263	4975.85
2140.851	4980.95
2143.81746	5015.85
2146.78201	5009.05
2149.74466	4989.85
2152.7054	5016.45
2155.66425	4993.55
2158.6212	4969.95
2161.57625	4973.15
2164.52941	4927.85
2167.48067	4959.75
2170.43004	4939.55
2173.37752	4962.25
2176.32311	4957.85
2179.26681	4965.55
2182.20863	4969.55
2185.14856	4963.65
2188.08661	4957.85
2191.02278	4950.75
2193.95707	4916.35
2196.88948	4925.85
2199.82001	4952.35
2202.74867	4914.35
2205.67545	4915.95
2208.60037	4922.15
2211.52341	4901.15
2214.44458	4890.85
2217.36388	4897.85
2220.28132	4860.75
2223.1969	4852.25
2226.11061	4842.95
2229.02246	4828.45
2231.93245	4840.65
2234.84058	4821.75
2237.74686	4808.55
2240.65128	4799.25
2243.55385	4793.75
2246.45456	4788.85
2249.35343	4791.55
2252.25044	4791.15
2255.14561	4757.15
2258.03893	4768.55
2260.93041	4747.35
2263.82004	4749.85
2266.70783	4742.95
2269.59378	4714.55
2272.4779	4682.35
2275.36017	4715.85
2278.24061	4683.35
2281.11922	4670.55
2283.996	4656.55
2286.87094	4653.15
2289.74405	4659.85
2292.61534	4633.05
2295.4848	4639.25
2298.35243	4633.95
2301.21824	4622.65
2304.08223	4606.85
2306.94439	4625.15
2309.80474	4645.05
2312.66327	4619.75
2315.51999	4592.45
2318.37489	4604.65
2321.22797	4569.85
2324.07925	4571.25
2326.92871	4567.25
2329.77637	4533.65
2332.62222	4554.35
2335.46626	4505.55
2338.3085	4497.85
2341.14893	4522.45
2343.98756	4528.15
2346.8244	4499.45
2349.65943	4489.65
2352.49267	4495.45
2355.32411	4501.85
2358.15376	4499.85
2360.98161	4494.15
2363.80768	4485.15
2366.63195	4495.35
2369.45444	4494.45
2372.27514	4482.55
2375.09405	4495.45
2377.91118	4446.25
2380.72652	4434.05
2383.54009	4455.75
2386.35187	4453.85
2389.16188	4428.05
2391.97011	4417.75
2394.77657	4406.25
2397.58125	4393.95
2400.38416	4400.65
2403.18529	4369.55
2405.98466	4366.95
2408.78226	4370.15
2411.57809	4344.15
2414.37216	4330.65
2417.16446	4339.85
2419.955	4310.25
2422.74378	4329.75
2425.5308	4316.05
2428.31606	4320.95
2431.09956	4316.05
2433.88131	4308.85
2436.6613	4319.25
2439.43954	4288.65
2442.21603	4287.15
2444.99077	4277.55
2447.76377	4293.65
2450.53501	4281.85
2453.30451	4267.25
2456.07226	4282.55
2458.83827	4258.55
2461.60254	4219.85
2464.36507	4250.85
2467.12586	4218.75
2469.88492	4244.25
2472.64224	4232.55
2475.39782	4219.85
2478.15167	4231.85
2480.90379	4217.35
2483.65417	4230.45
2486.40283	4223.85
2489.14976	4233.25
2491.89497	4214.15
2494.63845	4207.05
2497.3802	4202.15
2500.12024	4203.05
2502.85855	4213.35
2505.59514	4189.25
2508.33002	4189.65
2511.06318	4150.05
2513.79462	4175.95
2516.52435	4140.45
2519.25237	4118.15
2521.97867	4109.75
2524.70327	4125.85
2527.42616	4129.95
2530.14734	4141.65
2532.86681	4103.55
2535.58458	4110.25
2538.30065	4104.15
2541.01501	4105.05
2543.72768	4073.75
2546.43864	4081.25
2549.14791	4071.05
2551.85548	4054.55
2554.56136	4054.15
2557.26554	4076.45
2559.96803	4055.65
2562.66883	4042.35
2565.36794	4020.25
2568.06536	3985.45
2570.7611	4014.05
2573.45514	3995.25
2576.14751	3992.75
2578.83819	3961.35
2581.52719	3963.45
2584.21451	3950.15
2586.90015	3943.35
2589.58411	3934.55
2592.2664	3949.75
2594.94701	3935.15
2597.62594	3935.05
2600.30321	3876.05
2602.9788	3886.75
2605.65273	3874.85
2608.32498	3879.95
2610.99557	3898.75
2613.66449	3870.85
2616.33175	3887.35
2618.99734	3876.15
2621.66128	3871.15
2624.32355	3852.95
2626.98416	3853.95
2629.64311	3832.65
2632.30041	3836.25
2634.95605	3810.85
2637.61004	3792.15
2640.26238	3791.25
2642.91306	3786.25
2645.56209	3808.15
2648.20948	3795.85
2650.85521	3767.75
2653.4993	3805.25
2656.14175	3785.65
2658.78255	3776.45
2661.42171	3749.55
2664.05923	3785.45
2666.6951	3787.55
2669.32934	3786.05
2671.96194	3809.95
2674.59291	3790.15
2677.22224	3797.55
2679.84993	3777.95
2682.476	3775.55
2685.10043	3781.25
2687.72324	3762.35
2690.34441	3765.35
2692.96396	3757.15
2695.58188	3776.55
2698.19818	3754.95
2700.81285	3750.85
2703.4259	3734.95
2706.03733	3703.65
2708.64714	3717.55
2711.25533	3742.45
2713.86191	3749.45
2716.46687	3749.35
2719.07021	3746.35
2721.67194	3749.05
2724.27206	3749.85
2726.87057	3727.75
2729.46747	3739.15
2732.06276	3738.75
2734.65644	3708.05
2737.24852	3725.25
2739.83899	3697.05
2742.42786	3697.35
2745.01513	3707.45
2747.60079	3680.25
2750.18486	3670.15
2752.76733	3679.05
2755.3482	3680.15
2757.92747	3675.35
2760.50515	3649.75
2763.08123	3649.35
2765.65573	3647.25
2768.22863	3657.65
2770.79994	3619.55
2773.36967	3629.05
2775.9378	3615.65
2778.50435	3610.45
2781.06932	3618.25
2783.6327	3578.25
2786.1945	3601.85
2788.75471	3603.85
2791.31335	3579.55
2793.87041	3582.35
2796.42589	3561.45
2798.97979	3563.35
2801.53212	3547.75
2804.08288	3551.05
2806.63206	3541.55
2809.17967	3525.95
2811.72571	3542.55
2814.27018	3503.85
2816.81308	3513.65
2819.35442	3477.25
2821.89419	3492.35
2824.43239	3455.55
2826.96904	3504.05
2829.50412	3459.05
2832.03763	3480.05
2834.56959	3470.45
2837.1	3459.05
2839.62884	3464.85
2842.15613	3454.65
2844.68186	3463.15
2847.20604	3424.75
2849.72867	3428.95
2852.24974	3428.95
2854.76927	3395.45
2857.28724	3348.25
2859.80367	3416.15
2862.31855	3407.65
2864.83189	3394.95
2867.34368	3395.05
2869.85393	3407.45
2872.36264	3378.55
2874.8698	3372.65
2877.37543	3375.95
2879.87952	3375.45
2882.38207	3361.45
2884.88308	3361.95
2887.38256	3375.45
2889.88051	3355.65
2892.37692	3344.75
2894.8718	3335.65
2897.36515	3358.65
2899.85698	3339.45
2902.34727	3336.15
2904.83604	3336.25
2907.32328	3366.05
2909.809	3350.25
2912.29319	3349.15
2914.77587	3351.05
2917.25702	3355.55
2919.73665	3362.25
2922.21476	3357.15
2924.69136	3363.05
2927.16644	3338.05
2929.64	3355.15
2932.11205	3331.05
2934.58258	3331.25
2937.05161	3332.45
2939.51912	3334.85
2941.98513	3337.75
2944.44962	3317.65
2946.91261	3294.85
2949.37409	3300.85
2951.83407	3300.75
2954.29254	3294.05
2956.74951	3302.05
2959.20498	3283.85
2961.65895	3275.35
2964.11142	3268.05
2966.56239	3259.85
2969.01186	3263.75
2971.45984	3260.25
2973.90632	3240.45
2976.35131	3258.65
2978.7948	3245.75
2981.23681	3234.45
2983.67732	3243.45
2986.11635	3220.05
2988.55388	3200.35
2990.98993	3214.55
2993.4245	3194.15
2995.85758	3176.75
2998.28917	3179.25
3000.71928	3170.65
3003.14791	3162.25
3005.57506	3143.45
3008.00073	3120.55
3010.42493	3077.25
3012.84764	3131.15
3015.26888	3120.95
3017.68865	3123.85
3020.10694	3060.65
3022.52376	3084.15
3024.9391	3077.85
3027.35298	3063.45
3029.76539	3045.65
3032.17632	3060.95
3034.5858	3046.25
3036.9938	3057.05
3039.40034	3049.15
3041.80542	3037.85
3044.20903	3028.65
3046.61118	3010.85
3049.01187	3029.95
3051.4111	3004.25
3053.80888	2989.45
3056.20519	2986.45
3058.60005	2962.35
3060.99345	2980.35
3063.3854	2963.85
3065.7759	2948.85
3068.16494	2944.35
3070.55254	2926.25
3072.93868	2940.35
3075.32338	2935.55
3077.70662	2928.35
3080.08842	2914.75
3082.46878	2893.75
3084.84769	2918.95
3087.22515	2885.65
3089.60118	2897.05
3091.97576	2886.35
3094.3489	2885.25
3096.72061	2883.85
3099.09087	2867.85
3101.4597	2880.35
3103.82709	2878.25
3106.19305	2872.65
3108.55757	2869.55
3110.92066	2853.25
3113.28232	2859.25
3115.64255	2860.15
3118.00134	2838.35
3120.35871	2827.15
3122.71466	2803.15
3125.06917	2812.05
3127.42226	2790.85
3129.77393	2786.75
3132.12417	2800.45
3134.47299	2805.85
3136.82039	2775.95
3139.16636	2743.45
3141.51092	2774.05
3143.85406	2781.05
3146.19579	2763.25
3148.53609	2754.35
3150.87499	2756.65
3153.21246	2754.75
3155.54853	2756.25
3157.88318	2760.85
3160.21642	2769.65
3162.54826	2758.05
3164.87868	2764.55
3167.2077	2722.75
3169.5353	2735.85
3171.86151	2754.05
3174.18631	2724.25
3176.5097	2738.55
3178.83169	2728.85
3181.15228	2732.55
3183.47147	2700.15
3185.78926	2682.15
3188.10565	2690.05
3190.42065	2671.55
3192.73424	2692.75
3195.04645	2674.75
3197.35725	2662.15
3199.66667	2669.75
3201.97469	2655.45
3204.28132	2641.85
3206.58656	2659.35
3208.8904	2676.75
3211.19287	2662.85
3213.49394	2657.75
3215.79363	2645.35
3218.09193	2655.85
3220.38884	2653.65
3222.68438	2643.55
3224.97853	2622.25
3227.2713	2634.95
3229.56269	2636.85
3231.8527	2630.75
3234.14133	2612.35
3236.42858	2610.85
3238.71446	2575.95
3240.99896	2607.75
3243.28209	2587.25
3245.56384	2586.25
3247.84423	2586.45
3250.12324	2585.75
3252.40088	2575.55
3254.67715	2562.35
3256.95205	2552.25
3259.22558	2579.25
3261.49775	2569.05
3263.76855	2556.45
3266.03799	2562.75
3268.30606	2571.55
3270.57277	2556.15
3272.83812	2538.65
3275.10211	2535.35
3277.36474	2549.45
3279.62601	2528.25
3281.88593	2510.65
3284.14448	2492.35
3286.40168	2512.25
3288.65753	2504.45
3290.91202	2503.75
3293.16516	2485.25
3295.41695	2500.55
3297.66738	2489.45
3299.91647	2469.85
3302.16421	2460.15
3304.4106	2416.75
3306.65564	2436.45
3308.89933	2397.25
3311.14169	2393.55
3313.38269	2372.45
3315.62236	2362.85
3317.86068	2341.45
3320.09766	2336.25
3322.3333	2281.45
3324.5676	2281.65
3326.80056	2250.05
3329.03219	2230.35
3331.26248	1.45
3333.49143	-0.95
3335.71905	-0.05
