Data from AgNPs_UA_10uM_CRN_500uM_SU_RamanShift__149__13-30-10-283.txt Node

Date: Thu Aug 04 13:30:10 BST 2022
User: TCL
Spectrometer: QEP01345
Trigger mode: 4
Integration Time (sec): 1.000000E0
Scans to average: 10
Electric dark correction enabled: true
Nonlinearity correction enabled: false
Boxcar width: 0
XAxis mode: Raman Shifts
Number of Pixels in Spectrum: 1044
>>>>>Begin Spectral Data<<<<<
46.04893	-0.1125
50.45542	0.0875
54.85868	1.8875
59.25871	-0.3125
63.6555	17.0875
68.04907	16.4875
72.43941	19.1875
76.82654	18.5875
81.21044	19.6875
85.59113	20.0875
89.96862	20.4875
94.34289	22.6875
98.71396	21.2875
103.08183	21.7875
107.4465	23.3875
111.80798	22.7875
116.16626	23.7875
120.52136	25.0875
124.87327	25.0875
129.222	29.5875
133.56755	27.1875
137.90993	32.7875
142.24913	37.1875
146.58517	39.9875
150.91804	44.5875
155.24774	60.1875
159.57429	71.4875
163.89768	91.7875
168.21792	123.8875
172.53501	170.5875
176.84895	236.0875
181.15975	334.3875
185.46741	466.1875
189.77193	648.6875
194.07331	864.0875
198.37157	1114.0875
202.6667	1366.2875
206.9587	1625.5875
211.24758	1883.1875
215.53334	2127.2875
219.81599	2417.7875
224.09553	2709.4875
228.37195	3050.2875
232.64527	3427.8875
236.91549	3792.5875
241.18261	4162.5875
245.44663	4473.4875
249.70755	4738.5875
253.96539	4970.0875
258.22014	5187.6875
262.4718	5339.9875
266.72039	5474.6875
270.96589	5540.0875
275.20832	5517.8875
279.44768	5454.6875
283.68397	5378.1875
287.91719	5308.2875
292.14735	5311.1875
296.37445	5349.2875
300.59849	5462.3875
304.81948	5587.9875
309.03742	5685.5875
313.25231	5729.1875
317.46415	5659.3875
321.67296	5505.8875
325.87872	5361.2875
330.08145	5323.2875
334.28114	5347.7875
338.47781	5419.2875
342.67145	5524.2875
346.86207	5660.7875
351.04966	5829.6875
355.23424	6021.1875
359.4158	6176.3875
363.59435	6292.9875
367.76989	6360.2875
371.94243	6408.9875
376.11196	6443.7875
380.27849	6483.2875
384.44203	6516.2875
388.60257	6547.4875
392.76012	6586.8875
396.91468	6687.1875
401.06626	6821.9875
405.21485	6888.9875
409.36047	6857.7875
413.50311	6709.7875
417.64277	6558.1875
421.77947	6473.5875
425.9132	6487.7875
430.04396	6531.7875
434.17176	6633.3875
438.2966	6831.5875
442.41849	7071.8875
446.53742	7356.9875
450.6534	7653.5875
454.76644	7794.5875
458.87653	7800.9875
462.98368	7635.2875
467.08789	7422.6875
471.18916	7186.3875
475.2875	6963.3875
479.38291	6756.6875
483.4754	6630.7875
487.56496	6524.9875
491.6516	6490.8875
495.73531	6445.1875
499.81612	6466.9875
503.89401	6514.2875
507.96899	6535.8875
512.04106	6566.4875
516.11023	6607.2875
520.1765	6669.3875
524.23987	6702.5875
528.30034	6730.9875
532.35792	6694.9875
536.41261	6601.4875
540.46441	6538.9875
544.51333	6523.2875
548.55936	6561.1875
552.60252	6650.8875
556.64279	6766.1875
560.6802	6787.6875
564.71473	6765.0875
568.7464	6801.9875
572.7752	6805.1875
576.80114	6748.7875
580.82422	6758.6875
584.84444	6875.0875
588.86181	7071.5875
592.87633	7340.9875
596.888	7548.5875
600.89682	7730.9875
604.9028	8403.4875
608.90594	9717.5875
612.90624	10771.5875
616.90371	9855.9875
620.89834	8089.2875
624.89015	7448.0875
628.87913	7408.2875
632.86528	7295.3875
636.84862	7145.7875
640.82913	6945.2875
644.80683	6724.3875
648.78172	6606.0875
652.75379	6673.8875
656.72306	6879.7875
660.68952	7062.7875
664.65319	7027.4875
668.61405	6931.7875
672.57211	6945.4875
676.52738	6924.8875
680.47986	6827.6875
684.42955	6753.4875
688.37646	6756.0875
692.32058	6832.5875
696.26192	6925.4875
700.20048	7024.1875
704.13626	7051.6875
708.06928	6936.5875
711.99952	6854.6875
715.927	6866.7875
719.85171	6907.5875
723.77365	6894.8875
727.69284	6816.6875
731.60928	6789.0875
735.52295	6821.9875
739.43388	6902.2875
743.34206	6952.9875
747.24749	6979.0875
751.15017	7012.7875
755.05012	7110.4875
758.94733	7322.2875
762.8418	7793.6875
766.73354	8471.7875
770.62254	9110.9875
774.50882	9323.0875
778.39237	9016.0875
782.27321	8332.9875
786.15132	7668.3875
790.02671	7279.2875
793.89938	7072.2875
797.76935	7017.0875
801.6366	6991.8875
805.50115	6933.1875
809.36299	6872.2875
813.22213	6891.4875
817.07857	6881.5875
820.93231	6849.0875
824.78336	6858.9875
828.63172	6882.6875
832.47738	6920.9875
836.32036	6957.9875
840.16066	6972.9875
843.99827	7003.3875
847.8332	6968.2875
851.66546	6930.5875
855.49504	6928.8875
859.32195	6945.4875
863.1462	6906.5875
866.96777	6893.6875
870.78668	6896.7875
874.60293	6919.4875
878.41652	6940.7875
882.22745	6994.0875
886.03573	7029.4875
889.84136	7002.7875
893.64433	6980.9875
897.44466	6954.7875
901.24235	6944.3875
905.0374	6909.0875
908.8298	6915.1875
912.61957	6911.2875
916.40671	6960.9875
920.19121	7012.8875
923.97308	7118.3875
927.75233	7208.8875
931.52895	7227.1875
935.30295	7168.0875
939.07433	7039.3875
942.84309	6958.0875
946.60924	6942.1875
950.37278	6910.3875
954.13371	6878.4875
957.89203	6797.7875
961.64774	6791.9875
965.40086	6776.0875
969.15137	6762.1875
972.89929	6751.1875
976.64461	6767.4875
980.38733	6794.9875
984.12747	6840.3875
987.86502	6895.7875
991.59999	6992.9875
995.33237	7182.2875
999.06217	7463.6875
1002.78939	7740.9875
1006.51404	7844.7875
1010.23611	7936.2875
1013.95561	8044.0875
1017.67255	8139.8875
1021.38692	8100.5875
1025.09872	8062.0875
1028.80796	8151.5875
1032.51465	8378.1875
1036.21877	8512.9875
1039.92035	8495.6875
1043.61937	8346.6875
1047.31584	8097.3875
1051.00976	7886.3875
1054.70114	7784.0875
1058.38998	7770.6875
1062.07627	7776.9875
1065.76003	7790.5875
1069.44126	7841.8875
1073.11995	7920.1875
1076.79611	7985.7875
1080.46974	8071.2875
1084.14085	8137.7875
1087.80943	8211.5875
1091.47549	8177.8875
1095.13903	8084.3875
1098.80005	7958.4875
1102.45857	7891.5875
1106.11456	7867.6875
1109.76805	7899.9875
1113.41903	7987.0875
1117.06751	8101.3875
1120.71348	8253.4875
1124.35696	8409.5875
1127.99793	8484.3875
1131.63641	8383.3875
1135.2724	8235.4875
1138.90589	8087.4875
1142.5369	7934.2875
1146.16542	7818.9875
1149.79145	7797.4875
1153.415	7805.4875
1157.03607	7842.5875
1160.65467	7960.6875
1164.27079	8177.1875
1167.88443	8490.7875
1171.49561	8961.7875
1175.10432	9661.8875
1178.71056	10597.1875
1182.31434	11466.7875
1185.91565	12033.9875
1189.51451	12117.9875
1193.11091	11722.6875
1196.70485	11113.0875
1200.29634	10488.6875
1203.88538	9944.4875
1207.47197	9525.4875
1211.05612	9193.1875
1214.63782	8994.4875
1218.21708	8994.7875
1221.79391	9064.0875
1225.36829	9129.7875
1228.94024	9087.4875
1232.50976	9021.6875
1236.07685	8983.3875
1239.6415	9047.7875
1243.20374	9086.2875
1246.76355	9111.0875
1250.32093	9238.2875
1253.8759	9447.8875
1257.42845	9736.0875
1260.97859	10032.3875
1264.52631	10280.8875
1268.07163	10486.5875
1271.61453	10653.4875
1275.15503	10810.8875
1278.69312	11040.1875
1282.22882	11266.0875
1285.76211	11500.0875
1289.29301	11740.2875
1292.82151	12003.5875
1296.34761	12319.8875
1299.87133	12725.3875
1303.39266	13449.1875
1306.9116	14414.4875
1310.42815	15355.5875
1313.94233	15779.4875
1317.45412	15517.1875
1320.96354	14846.0875
1324.47058	14113.8875
1327.97525	13679.3875
1331.47754	13609.4875
1334.97747	13778.8875
1338.47502	14082.1875
1341.97022	14359.7875
1345.46305	14659.1875
1348.95352	15025.2875
1352.44163	15565.5875
1355.92738	16296.7875
1359.41078	17185.2875
1362.89183	17500.9875
1366.37053	16534.4875
1369.84688	14772.8875
1373.32088	13137.6875
1376.79254	12139.0875
1380.26186	11663.4875
1383.72883	11393.4875
1387.19347	11086.2875
1390.65578	10723.1875
1394.11575	10422.2875
1397.57339	10281.8875
1401.0287	10325.5875
1404.48168	10538.9875
1407.93234	10837.9875
1411.38068	11132.9875
1414.82669	11182.4875
1418.27039	11044.6875
1421.71177	10856.5875
1425.15083	10790.1875
1428.58758	10918.4875
1432.02203	11149.1875
1435.45416	11342.6875
1438.88399	11301.2875
1442.31151	11213.1875
1445.73673	11135.1875
1449.15965	11058.3875
1452.58027	10920.4875
1455.9986	10746.5875
1459.41463	10674.1875
1462.82837	10775.3875
1466.23982	11037.4875
1469.64898	11272.4875
1473.05586	11458.3875
1476.46045	11634.8875
1479.86276	11760.1875
1483.26279	11844.3875
1486.66054	11920.1875
1490.05602	12078.8875
1493.44922	12376.2875
1496.84016	12742.1875
1500.22882	13282.5875
1503.61521	13978.6875
1506.99934	14585.2875
1510.38121	14864.2875
1513.76081	14523.3875
1517.13816	13667.2875
1520.51324	12743.8875
1523.88607	12133.1875
1527.25665	11864.9875
1530.62498	11760.4875
1533.99105	11760.1875
1537.35488	11788.9875
1540.71647	11780.1875
1544.07581	11686.6875
1547.4329	11570.4875
1550.78776	11287.9875
1554.14038	11027.3875
1557.49077	10837.8875
1560.83892	10761.0875
1564.18484	10787.0875
1567.52853	10844.2875
1570.86999	10917.4875
1574.20922	10896.8875
1577.54624	10758.3875
1580.88103	10487.0875
1584.2136	10235.4875
1587.54395	10340.1875
1590.87208	10780.7875
1594.19801	11695.1875
1597.52172	12771.1875
1600.84321	13469.6875
1604.16251	13361.2875
1607.47959	12657.7875
1610.79447	11619.8875
1614.10715	10606.2875
1617.41763	9780.2875
1620.7259	9273.3875
1624.03199	9049.6875
1627.33587	9065.6875
1630.63757	9306.4875
1633.93707	9858.5875
1637.23439	10623.3875
1640.52951	11683.5875
1643.82246	12718.6875
1647.11321	13406.2875
1650.40179	13146.7875
1653.68819	11977.0875
1656.97241	10473.2875
1660.25446	9249.2875
1663.53433	8456.7875
1666.81203	7968.6875
1670.08756	7688.4875
1673.36092	7468.9875
1676.63211	7349.8875
1679.90115	7227.5875
1683.16801	7156.8875
1686.43272	7104.3875
1689.69527	7039.0875
1692.95567	7018.9875
1696.2139	6989.8875
1699.46999	6969.6875
1702.72392	6961.4875
1705.97571	6966.9875
1709.22535	6941.2875
1712.47284	6967.9875
1715.71819	6946.6875
1718.96139	6940.5875
1722.20246	6936.5875
1725.44139	6909.7875
1728.67818	6873.7875
1731.91284	6836.1875
1735.14537	6796.5875
1738.37576	6767.8875
1741.60403	6759.6875
1744.83017	6723.1875
1748.05418	6720.4875
1751.27607	6694.3875
1754.49584	6710.4875
1757.71349	6696.6875
1760.92903	6687.6875
1764.14244	6668.3875
1767.35375	6678.4875
1770.56294	6662.3875
1773.77002	6662.0875
1776.97499	6632.0875
1780.17785	6618.5875
1783.37861	6619.0875
1786.57727	6606.0875
1789.77382	6629.7875
1792.96828	6617.1875
1796.16064	6584.7875
1799.3509	6600.8875
1802.53907	6594.2875
1805.72514	6566.7875
1808.90913	6553.8875
1812.09102	6563.9875
1815.27083	6516.4875
1818.44856	6506.7875
1821.6242	6497.9875
1824.79776	6499.7875
1827.96924	6476.0875
1831.13864	6476.9875
1834.30597	6463.7875
1837.47122	6455.1875
1840.6344	6450.0875
1843.7955	6453.3875
1846.95454	6465.4875
1850.11151	6444.3875
1853.26642	6447.4875
1856.41926	6459.8875
1859.57004	6453.4875
1862.71876	6466.4875
1865.86542	6463.1875
1869.01003	6455.9875
1872.15258	6436.2875
1875.29308	6438.9875
1878.43152	6435.9875
1881.56792	6439.0875
1884.70227	6419.5875
1887.83457	6421.9875
1890.96482	6409.1875
1894.09304	6393.8875
1897.21921	6405.5875
1900.34335	6397.1875
1903.46544	6379.0875
1906.58551	6392.0875
1909.70353	6375.5875
1912.81953	6394.7875
1915.93349	6374.7875
1919.04543	6385.2875
1922.15534	6365.3875
1925.26322	6366.6875
1928.36908	6348.0875
1931.47292	6344.8875
1934.57473	6320.2875
1937.67453	6317.5875
1940.77232	6310.5875
1943.86808	6295.8875
1946.96184	6274.5875
1950.05358	6264.5875
1953.14331	6261.8875
1956.23103	6238.4875
1959.31675	6193.2875
1962.40046	6198.4875
1965.48217	6154.1875
1968.56188	6135.5875
1971.63959	6131.1875
1974.7153	6116.7875
1977.78901	6114.7875
1980.86073	6104.3875
1983.93046	6056.1875
1986.99819	6051.2875
1990.06394	6039.8875
1993.1277	6017.5875
1996.18947	5979.7875
1999.24925	5973.8875
2002.30706	5948.4875
2005.36288	5942.5875
2008.41672	5928.9875
2011.46859	5903.8875
2014.51848	5890.0875
2017.56639	5880.2875
2020.61233	5859.2875
2023.6563	5867.0875
2026.6983	5846.6875
2029.73833	5819.7875
2032.7764	5800.3875
2035.8125	5801.9875
2038.84664	5794.9875
2041.87881	5783.2875
2044.90903	5780.6875
2047.93729	5759.8875
2050.96359	5767.8875
2053.98794	5741.5875
2057.01034	5742.8875
2060.03078	5761.8875
2063.04927	5748.9875
2066.06582	5749.6875
2069.08042	5729.1875
2072.09307	5734.9875
2075.10378	5715.7875
2078.11255	5713.2875
2081.11938	5687.5875
2084.12426	5687.5875
2087.12722	5699.8875
2090.12824	5671.2875
2093.12732	5688.9875
2096.12447	5698.9875
2099.11969	5701.0875
2102.11299	5721.2875
2105.10435	5715.3875
2108.09379	5699.2875
2111.08131	5700.1875
2114.0669	5705.2875
2117.05057	5713.5875
2120.03233	5738.6875
2123.01216	5708.5875
2125.99008	5699.8875
2128.96609	5721.4875
2131.94018	5726.8875
2134.91236	5717.4875
2137.88263	5705.2875
2140.851	5720.6875
2143.81746	5723.9875
2146.78201	5734.5875
2149.74466	5704.5875
2152.7054	5749.4875
2155.66425	5723.6875
2158.6212	5714.5875
2161.57625	5724.3875
2164.52941	5711.0875
2167.48067	5708.9875
2170.43004	5697.6875
2173.37752	5688.1875
2176.32311	5700.4875
2179.26681	5723.4875
2182.20863	5725.9875
2185.14856	5712.2875
2188.08661	5719.5875
2191.02278	5716.9875
2193.95707	5713.0875
2196.88948	5709.6875
2199.82001	5708.0875
2202.74867	5711.7875
2205.67545	5714.5875
2208.60037	5710.4875
2211.52341	5701.8875
2214.44458	5685.1875
2217.36388	5681.9875
2220.28132	5684.4875
2223.1969	5654.0875
2226.11061	5628.2875
2229.02246	5641.0875
2231.93245	5643.7875
2234.84058	5626.4875
2237.74686	5627.5875
2240.65128	5599.4875
2243.55385	5582.8875
2246.45456	5594.2875
2249.35343	5569.8875
2252.25044	5561.7875
2255.14561	5569.3875
2258.03893	5557.5875
2260.93041	5552.7875
2263.82004	5548.7875
2266.70783	5530.6875
2269.59378	5507.2875
2272.4779	5496.0875
2275.36017	5475.1875
2278.24061	5475.1875
2281.11922	5441.4875
2283.996	5450.2875
2286.87094	5425.2875
2289.74405	5437.6875
2292.61534	5429.3875
2295.4848	5407.2875
2298.35243	5410.0875
2301.21824	5413.7875
2304.08223	5407.6875
2306.94439	5416.2875
2309.80474	5431.0875
2312.66327	5438.0875
2315.51999	5441.9875
2318.37489	5434.4875
2321.22797	5429.6875
2324.07925	5410.6875
2326.92871	5406.7875
2329.77637	5407.4875
2332.62222	5403.3875
2335.46626	5397.5875
2338.3085	5397.8875
2341.14893	5408.7875
2343.98756	5421.6875
2346.8244	5415.8875
2349.65943	5411.6875
2352.49267	5405.6875
2355.32411	5407.1875
2358.15376	5390.4875
2360.98161	5392.5875
2363.80768	5391.0875
2366.63195	5368.4875
2369.45444	5369.1875
2372.27514	5352.6875
2375.09405	5344.0875
2377.91118	5331.9875
2380.72652	5315.6875
2383.54009	5307.3875
2386.35187	5299.4875
2389.16188	5293.0875
2391.97011	5292.1875
2394.77657	5272.1875
2397.58125	5251.4875
2400.38416	5254.0875
2403.18529	5252.8875
2405.98466	5238.9875
2408.78226	5208.7875
2411.57809	5216.1875
2414.37216	5195.4875
2417.16446	5198.8875
2419.955	5194.4875
2422.74378	5186.5875
2425.5308	5184.3875
2428.31606	5181.2875
2431.09956	5171.2875
2433.88131	5162.3875
2436.6613	5166.3875
2439.43954	5142.5875
2442.21603	5146.5875
2444.99077	5153.6875
2447.76377	5163.6875
2450.53501	5148.0875
2453.30451	5150.9875
2456.07226	5149.8875
2458.83827	5130.5875
2461.60254	5126.0875
2464.36507	5108.7875
2467.12586	5121.8875
2469.88492	5128.8875
2472.64224	5122.6875
2475.39782	5123.8875
2478.15167	5123.9875
2480.90379	5101.8875
2483.65417	5121.3875
2486.40283	5123.5875
2489.14976	5136.5875
2491.89497	5132.0875
2494.63845	5151.4875
2497.3802	5151.5875
2500.12024	5137.9875
2502.85855	5109.1875
2505.59514	5122.0875
2508.33002	5104.1875
2511.06318	5113.1875
2513.79462	5096.8875
2516.52435	5090.9875
2519.25237	5077.4875
2521.97867	5069.8875
2524.70327	5071.5875
2527.42616	5064.5875
2530.14734	5055.4875
2532.86681	5056.0875
2535.58458	5059.7875
2538.30065	5085.7875
2541.01501	5068.4875
2543.72768	5055.8875
2546.43864	5059.4875
2549.14791	5050.2875
2551.85548	5032.6875
2554.56136	5031.0875
2557.26554	5022.3875
2559.96803	5032.0875
2562.66883	5022.2875
2565.36794	5008.9875
2568.06536	4991.5875
2570.7611	4981.3875
2573.45514	4971.4875
2576.14751	4979.9875
2578.83819	4992.3875
2581.52719	4972.0875
2584.21451	4972.5875
2586.90015	4996.1875
2589.58411	4970.9875
2592.2664	4963.2875
2594.94701	4962.5875
2597.62594	4963.9875
2600.30321	4965.2875
2602.9788	4962.9875
2605.65273	4959.7875
2608.32498	4958.4875
2610.99557	4933.9875
2613.66449	4953.8875
2616.33175	4958.6875
2618.99734	4957.1875
2621.66128	4961.1875
2624.32355	4954.3875
2626.98416	4943.9875
2629.64311	4939.3875
2632.30041	4963.4875
2634.95605	4957.9875
2637.61004	4934.0875
2640.26238	4935.7875
2642.91306	4930.2875
2645.56209	4931.9875
2648.20948	4925.9875
2650.85521	4922.7875
2653.4993	4910.7875
2656.14175	4903.9875
2658.78255	4891.9875
2661.42171	4903.2875
2664.05923	4912.9875
2666.6951	4920.5875
2669.32934	4927.4875
2671.96194	4935.0875
2674.59291	4930.8875
2677.22224	4932.3875
2679.84993	4923.7875
2682.476	4928.4875
2685.10043	4932.8875
2687.72324	4939.5875
2690.34441	4926.1875
2692.96396	4917.0875
2695.58188	4915.8875
2698.19818	4903.4875
2700.81285	4890.0875
2703.4259	4885.9875
2706.03733	4874.4875
2708.64714	4880.2875
2711.25533	4872.3875
2713.86191	4875.8875
2716.46687	4896.1875
2719.07021	4910.7875
2721.67194	4894.6875
2724.27206	4893.8875
2726.87057	4913.1875
2729.46747	4918.7875
2732.06276	4919.0875
2734.65644	4908.7875
2737.24852	4894.1875
2739.83899	4893.8875
2742.42786	4894.8875
2745.01513	4874.7875
2747.60079	4867.9875
2750.18486	4859.1875
2752.76733	4860.9875
2755.3482	4869.2875
2757.92747	4868.1875
2760.50515	4836.4875
2763.08123	4853.8875
2765.65573	4846.8875
2768.22863	4830.7875
2770.79994	4830.0875
2773.36967	4842.3875
2775.9378	4851.6875
2778.50435	4836.2875
2781.06932	4842.9875
2783.6327	4846.9875
2786.1945	4842.1875
2788.75471	4839.7875
2791.31335	4810.0875
2793.87041	4819.7875
2796.42589	4807.0875
2798.97979	4787.2875
2801.53212	4770.3875
2804.08288	4770.0875
2806.63206	4760.1875
2809.17967	4767.0875
2811.72571	4766.1875
2814.27018	4754.2875
2816.81308	4742.1875
2819.35442	4729.9875
2821.89419	4721.2875
2824.43239	4729.6875
2826.96904	4714.5875
2829.50412	4718.3875
2832.03763	4710.6875
2834.56959	4699.2875
2837.1	4672.6875
2839.62884	4682.4875
2842.15613	4688.5875
2844.68186	4691.3875
2847.20604	4686.3875
2849.72867	4673.8875
2852.24974	4665.8875
2854.76927	4653.7875
2857.28724	4648.1875
2859.80367	4639.3875
2862.31855	4631.6875
2864.83189	4628.3875
2867.34368	4626.1875
2869.85393	4631.1875
2872.36264	4615.5875
2874.8698	4624.1875
2877.37543	4624.3875
2879.87952	4604.4875
2882.38207	4608.6875
2884.88308	4597.7875
2887.38256	4605.9875
2889.88051	4588.2875
2892.37692	4603.1875
2894.8718	4599.4875
2897.36515	4591.8875
2899.85698	4605.5875
2902.34727	4604.6875
2904.83604	4606.3875
2907.32328	4615.6875
2909.809	4615.2875
2912.29319	4616.7875
2914.77587	4615.4875
2917.25702	4625.4875
2919.73665	4611.6875
2922.21476	4597.3875
2924.69136	4602.2875
2927.16644	4590.2875
2929.64	4594.4875
2932.11205	4582.2875
2934.58258	4562.5875
2937.05161	4560.6875
2939.51912	4579.7875
2941.98513	4575.6875
2944.44962	4540.0875
2946.91261	4556.9875
2949.37409	4563.8875
2951.83407	4534.9875
2954.29254	4534.0875
2956.74951	4534.7875
2959.20498	4543.0875
2961.65895	4539.8875
2964.11142	4520.8875
2966.56239	4522.7875
2969.01186	4528.1875
2971.45984	4511.8875
2973.90632	4516.3875
2976.35131	4490.0875
2978.7948	4495.0875
2981.23681	4478.7875
2983.67732	4460.7875
2986.11635	4460.9875
2988.55388	4444.4875
2990.98993	4430.9875
2993.4245	4411.0875
2995.85758	4401.3875
2998.28917	4384.9875
3000.71928	4371.5875
3003.14791	4363.6875
3005.57506	4370.2875
3008.00073	4343.3875
3010.42493	4324.9875
3012.84764	4321.6875
3015.26888	4328.5875
3017.68865	4313.4875
3020.10694	4306.9875
3022.52376	4292.4875
3024.9391	4266.4875
3027.35298	4261.7875
3029.76539	4264.0875
3032.17632	4245.4875
3034.5858	4246.2875
3036.9938	4253.4875
3039.40034	4243.1875
3041.80542	4223.4875
3044.20903	4221.3875
3046.61118	4218.2875
3049.01187	4197.9875
3051.4111	4199.4875
3053.80888	4172.9875
3056.20519	4183.3875
3058.60005	4164.1875
3060.99345	4171.6875
3063.3854	4133.0875
3065.7759	4121.1875
3068.16494	4106.2875
3070.55254	4094.1875
3072.93868	4085.6875
3075.32338	4082.4875
3077.70662	4051.4875
3080.08842	4050.5875
3082.46878	4054.8875
3084.84769	4029.5875
3087.22515	4034.2875
3089.60118	4022.2875
3091.97576	4011.5875
3094.3489	4032.8875
3096.72061	4008.3875
3099.09087	4012.5875
3101.4597	4010.5875
3103.82709	4006.5875
3106.19305	4011.6875
3108.55757	4016.5875
3110.92066	3971.9875
3113.28232	3963.8875
3115.64255	3968.8875
