Data from AgNPs_UA_50uM_CRN_500uM_SU_RamanShift__37__14-02-00-321.txt Node

Date: Thu Aug 04 14:02:00 BST 2022
User: TCL
Spectrometer: QEP01345
Trigger mode: 4
Integration Time (sec): 1.000000E0
Scans to average: 10
Electric dark correction enabled: true
Nonlinearity correction enabled: false
Boxcar width: 0
XAxis mode: Raman Shifts
Number of Pixels in Spectrum: 1044
>>>>>Begin Spectral Data<<<<<
46.04893	1.8375
50.45542	-0.8625
54.85868	0.6375
59.25871	-1.4625
63.6555	15.7375
68.04907	13.8375
72.43941	15.7375
76.82654	16.6375
81.21044	18.1375
85.59113	18.9375
89.96862	19.0375
94.34289	18.4375
98.71396	19.3375
103.08183	19.4375
107.4465	19.2375
111.80798	20.7375
116.16626	21.0375
120.52136	21.9375
124.87327	23.9375
129.222	25.4375
133.56755	29.0375
137.90993	29.5375
142.24913	31.7375
146.58517	37.0375
150.91804	45.0375
155.24774	55.3375
159.57429	67.9375
163.89768	85.5375
168.21792	115.9375
172.53501	161.1375
176.84895	223.6375
181.15975	314.4375
185.46741	449.1375
189.77193	618.2375
194.07331	836.0375
198.37157	1082.0375
202.6667	1340.0375
206.9587	1600.2375
211.24758	1861.6375
215.53334	2128.2375
219.81599	2432.5375
224.09553	2750.7375
228.37195	3120.0375
232.64527	3489.7375
236.91549	3852.1375
241.18261	4192.4375
245.44663	4456.9375
249.70755	4661.9375
253.96539	4823.9375
258.22014	4985.1375
262.4718	5117.6375
266.72039	5199.7375
270.96589	5229.4375
275.20832	5187.4375
279.44768	5114.1375
283.68397	5042.4375
287.91719	4981.2375
292.14735	4973.4375
296.37445	5069.1375
300.59849	5239.1375
304.81948	5454.6375
309.03742	5664.9375
313.25231	5770.5375
317.46415	5706.5375
321.67296	5459.7375
325.87872	5201.8375
330.08145	5075.9375
334.28114	5067.7375
338.47781	5142.8375
342.67145	5254.5375
346.86207	5416.5375
351.04966	5645.8375
355.23424	5877.2375
359.4158	6051.6375
363.59435	6139.1375
367.76989	6130.2375
371.94243	6083.4375
376.11196	6044.0375
380.27849	6013.7375
384.44203	6011.5375
388.60257	6030.4375
392.76012	6052.8375
396.91468	6128.5375
401.06626	6215.0375
405.21485	6261.9375
409.36047	6145.9375
413.50311	5934.5375
417.64277	5740.4375
421.77947	5610.9375
425.9132	5571.7375
430.04396	5561.6375
434.17176	5598.3375
438.2966	5641.9375
442.41849	5728.9375
446.53742	5846.3375
450.6534	5949.7375
454.76644	6023.7375
458.87653	6039.1375
462.98368	6032.6375
467.08789	6016.3375
471.18916	5930.8375
475.2875	5806.1375
479.38291	5713.7375
483.4754	5661.5375
487.56496	5627.8375
491.6516	5613.1375
495.73531	5602.8375
499.81612	5631.8375
503.89401	5664.0375
507.96899	5715.9375
512.04106	5770.6375
516.11023	5821.7375
520.1765	5866.0375
524.23987	5871.2375
528.30034	5865.0375
532.35792	5815.3375
536.41261	5790.8375
540.46441	5704.7375
544.51333	5682.6375
548.55936	5730.4375
552.60252	5798.3375
556.64279	5899.4375
560.6802	5977.1375
564.71473	6054.3375
568.7464	6157.0375
572.7752	6141.3375
576.80114	5968.4375
580.82422	5798.1375
584.84444	5751.3375
588.86181	5721.4375
592.87633	5758.6375
596.888	5880.9375
600.89682	6158.9375
604.9028	6869.4375
608.90594	8397.9375
612.90624	9938.8375
616.90371	9194.4375
620.89834	7054.6375
624.89015	6126.7375
628.87913	6040.1375
632.86528	6168.3375
636.84862	6290.5375
640.82913	6169.3375
644.80683	5916.5375
648.78172	5781.5375
652.75379	5806.2375
656.72306	5993.4375
660.68952	6177.4375
664.65319	6131.1375
668.61405	5991.7375
672.57211	6000.5375
676.52738	5989.2375
680.47986	5913.7375
684.42955	5805.7375
688.37646	5786.7375
692.32058	5817.3375
696.26192	5901.2375
700.20048	6007.0375
704.13626	6037.6375
708.06928	5981.6375
711.99952	5939.9375
715.927	5918.8375
719.85171	5947.3375
723.77365	5960.6375
727.69284	5943.4375
731.60928	5897.8375
735.52295	5890.6375
739.43388	5879.5375
743.34206	5909.6375
747.24749	5912.4375
751.15017	5925.5375
755.05012	5975.9375
758.94733	6215.7375
762.8418	6770.5375
766.73354	7643.3375
770.62254	8274.6375
774.50882	8402.6375
778.39237	8094.3375
782.27321	7463.5375
786.15132	6804.3375
790.02671	6321.2375
793.89938	6078.7375
797.76935	5973.1375
801.6366	5912.2375
805.50115	5877.3375
809.36299	5869.0375
813.22213	5869.1375
817.07857	5856.4375
820.93231	5870.8375
824.78336	5877.9375
828.63172	5890.0375
832.47738	5917.3375
836.32036	5908.2375
840.16066	5842.1375
843.99827	5861.9375
847.8332	5841.3375
851.66546	5867.4375
855.49504	5887.3375
859.32195	5890.5375
863.1462	5880.0375
866.96777	5876.4375
870.78668	5892.5375
874.60293	5910.4375
878.41652	5945.3375
882.22745	5972.4375
886.03573	5986.2375
889.84136	5973.2375
893.64433	5976.6375
897.44466	5954.1375
901.24235	5937.0375
905.0374	5934.1375
908.8298	5898.4375
912.61957	5895.0375
916.40671	5895.1375
920.19121	5924.6375
923.97308	5963.5375
927.75233	5992.1375
931.52895	6050.2375
935.30295	6007.9375
939.07433	5904.2375
942.84309	5830.7375
946.60924	5796.4375
950.37278	5792.6375
954.13371	5800.0375
957.89203	5788.3375
961.64774	5771.6375
965.40086	5778.8375
969.15137	5767.5375
972.89929	5753.7375
976.64461	5753.0375
980.38733	5757.0375
984.12747	5765.1375
987.86502	5787.1375
991.59999	5802.1375
995.33237	5855.3375
999.06217	5880.4375
1002.78939	5976.3375
1006.51404	6068.1375
1010.23611	6164.7375
1013.95561	6204.2375
1017.67255	6210.2375
1021.38692	6183.6375
1025.09872	6103.6375
1028.80796	6048.1375
1032.51465	6015.0375
1036.21877	6021.8375
1039.92035	6043.5375
1043.61937	6087.2375
1047.31584	6094.5375
1051.00976	6134.4375
1054.70114	6147.3375
1058.38998	6140.2375
1062.07627	6142.6375
1065.76003	6218.4375
1069.44126	6277.1375
1073.11995	6383.1375
1076.79611	6496.7375
1080.46974	6605.4375
1084.14085	6694.6375
1087.80943	6767.0375
1091.47549	6817.9375
1095.13903	6768.5375
1098.80005	6737.1375
1102.45857	6740.9375
1106.11456	6689.5375
1109.76805	6630.2375
1113.41903	6652.8375
1117.06751	6721.3375
1120.71348	6864.8375
1124.35696	7036.5375
1127.99793	7175.2375
1131.63641	7055.5375
1135.2724	6823.8375
1138.90589	6636.4375
1142.5369	6521.1375
1146.16542	6478.1375
1149.79145	6443.2375
1153.415	6369.2375
1157.03607	6334.1375
1160.65467	6370.5375
1164.27079	6500.5375
1167.88443	6656.7375
1171.49561	6951.5375
1175.10432	7393.2375
1178.71056	8009.3375
1182.31434	8554.3375
1185.91565	8673.0375
1189.51451	8552.9375
1193.11091	8362.3375
1196.70485	8105.1375
1200.29634	7940.0375
1203.88538	7747.5375
1207.47197	7441.2375
1211.05612	7196.2375
1214.63782	6974.8375
1218.21708	6829.1375
1221.79391	6723.7375
1225.36829	6649.7375
1228.94024	6623.0375
1232.50976	6636.4375
1236.07685	6656.6375
1239.6415	6687.4375
1243.20374	6710.2375
1246.76355	6732.2375
1250.32093	6790.9375
1253.8759	6909.9375
1257.42845	7064.9375
1260.97859	7245.5375
1264.52631	7418.8375
1268.07163	7550.2375
1271.61453	7615.9375
1275.15503	7608.8375
1278.69312	7632.7375
1282.22882	7605.4375
1285.76211	7696.2375
1289.29301	7836.8375
1292.82151	7968.8375
1296.34761	8124.8375
1299.87133	8397.3375
1303.39266	8832.2375
1306.9116	9539.6375
1310.42815	10308.5375
1313.94233	10505.1375
1317.45412	10078.6375
1320.96354	9387.7375
1324.47058	8830.2375
1327.97525	8322.8375
1331.47754	8011.7375
1334.97747	7948.9375
1338.47502	8015.6375
1341.97022	8316.1375
1345.46305	8816.0375
1348.95352	9534.4375
1352.44163	10310.0375
1355.92738	11126.8375
1359.41078	12154.1375
1362.89183	13008.0375
1366.37053	12475.4375
1369.84688	10718.9375
1373.32088	9111.9375
1376.79254	8190.5375
1380.26186	7747.3375
1383.72883	7499.2375
1387.19347	7273.1375
1390.65578	7006.7375
1394.11575	6825.7375
1397.57339	6695.0375
1401.0287	6599.6375
1404.48168	6589.7375
1407.93234	6598.4375
1411.38068	6694.7375
1414.82669	6783.4375
1418.27039	6800.8375
1421.71177	6782.0375
1425.15083	6743.1375
1428.58758	6660.4375
1432.02203	6682.4375
1435.45416	6709.5375
1438.88399	6727.0375
1442.31151	6726.1375
1445.73673	6756.9375
1449.15965	6781.9375
1452.58027	6743.6375
1455.9986	6688.8375
1459.41463	6690.2375
1462.82837	6722.7375
1466.23982	6832.1375
1469.64898	6971.5375
1473.05586	7073.5375
1476.46045	7146.8375
1479.86276	7215.2375
1483.26279	7301.6375
1486.66054	7467.5375
1490.05602	7691.0375
1493.44922	8046.5375
1496.84016	8630.8375
1500.22882	9488.9375
1503.61521	10563.8375
1506.99934	11630.6375
1510.38121	12217.6375
1513.76081	12037.6375
1517.13816	11071.8375
1520.51324	9790.2375
1523.88607	8759.9375
1527.25665	8125.3375
1530.62498	7778.9375
1533.99105	7616.8375
1537.35488	7537.1375
1540.71647	7463.7375
1544.07581	7402.4375
1547.4329	7343.9375
1550.78776	7272.1375
1554.14038	7248.2375
1557.49077	7279.5375
1560.83892	7363.5375
1564.18484	7546.9375
1567.52853	7797.9375
1570.86999	7977.1375
1574.20922	8041.2375
1577.54624	7926.1375
1580.88103	7570.3375
1584.2136	7168.2375
1587.54395	6934.5375
1590.87208	6884.9375
1594.19801	7074.1375
1597.52172	7288.6375
1600.84321	7360.3375
1604.16251	7278.2375
1607.47959	7187.1375
1610.79447	6981.1375
1614.10715	6747.8375
1617.41763	6461.4375
1620.7259	6278.3375
1624.03199	6183.6375
1627.33587	6146.4375
1630.63757	6178.4375
1633.93707	6372.3375
1637.23439	6659.5375
1640.52951	7165.1375
1643.82246	7908.7375
1647.11321	8725.7375
1650.40179	9203.1375
1653.68819	8919.0375
1656.97241	8026.8375
1660.25446	7050.4375
1663.53433	6411.3375
1666.81203	6011.1375
1670.08756	5798.1375
1673.36092	5635.6375
1676.63211	5545.8375
1679.90115	5497.2375
1683.16801	5444.7375
1686.43272	5400.0375
1689.69527	5367.7375
1692.95567	5330.3375
1696.2139	5322.5375
1699.46999	5315.7375
1702.72392	5301.6375
1705.97571	5297.8375
1709.22535	5291.1375
1712.47284	5298.5375
1715.71819	5301.3375
1718.96139	5297.3375
1722.20246	5283.8375
1725.44139	5264.0375
1728.67818	5239.7375
1731.91284	5203.5375
1735.14537	5180.3375
1738.37576	5170.8375
1741.60403	5132.1375
1744.83017	5129.9375
1748.05418	5111.1375
1751.27607	5115.9375
1754.49584	5100.3375
1757.71349	5077.8375
1760.92903	5088.1375
1764.14244	5075.8375
1767.35375	5068.7375
1770.56294	5062.3375
1773.77002	5050.4375
1776.97499	5030.1375
1780.17785	5020.0375
1783.37861	4995.1375
1786.57727	4977.1375
1789.77382	4975.9375
1792.96828	4973.6375
1796.16064	4953.8375
1799.3509	4962.8375
1802.53907	4947.3375
1805.72514	4931.4375
1808.90913	4914.6375
1812.09102	4913.1375
1815.27083	4901.5375
1818.44856	4882.4375
1821.6242	4883.4375
1824.79776	4867.5375
1827.96924	4855.3375
1831.13864	4855.6375
1834.30597	4837.8375
1837.47122	4815.3375
1840.6344	4822.6375
1843.7955	4827.5375
1846.95454	4814.4375
1850.11151	4834.6375
1853.26642	4824.1375
1856.41926	4815.3375
1859.57004	4819.3375
1862.71876	4801.7375
1865.86542	4780.6375
1869.01003	4787.2375
1872.15258	4787.3375
1875.29308	4790.4375
1878.43152	4778.8375
1881.56792	4765.9375
1884.70227	4748.8375
1887.83457	4738.3375
1890.96482	4758.7375
1894.09304	4734.7375
1897.21921	4728.2375
1900.34335	4720.4375
1903.46544	4723.0375
1906.58551	4694.6375
1909.70353	4693.6375
1912.81953	4680.6375
1915.93349	4669.7375
1919.04543	4666.9375
1922.15534	4659.8375
1925.26322	4649.4375
1928.36908	4642.0375
1931.47292	4645.2375
1934.57473	4639.1375
1937.67453	4610.3375
1940.77232	4584.8375
1943.86808	4583.0375
1946.96184	4573.3375
1950.05358	4555.6375
1953.14331	4548.7375
1956.23103	4517.9375
1959.31675	4501.4375
1962.40046	4489.3375
1965.48217	4488.3375
1968.56188	4474.1375
1971.63959	4471.0375
1974.7153	4471.3375
1977.78901	4457.4375
1980.86073	4434.1375
1983.93046	4421.2375
1986.99819	4405.6375
1990.06394	4391.8375
1993.1277	4385.3375
1996.18947	4359.6375
1999.24925	4343.4375
2002.30706	4318.4375
2005.36288	4299.7375
2008.41672	4294.7375
2011.46859	4289.9375
2014.51848	4267.3375
2017.56639	4267.8375
2020.61233	4256.0375
2023.6563	4239.8375
2026.6983	4227.3375
2029.73833	4196.9375
2032.7764	4172.7375
2035.8125	4172.5375
2038.84664	4168.8375
2041.87881	4155.7375
2044.90903	4159.1375
2047.93729	4134.7375
2050.96359	4139.1375
2053.98794	4118.9375
2057.01034	4119.5375
2060.03078	4128.1375
2063.04927	4119.9375
2066.06582	4113.2375
2069.08042	4113.1375
2072.09307	4100.7375
2075.10378	4078.4375
2078.11255	4087.1375
2081.11938	4086.1375
2084.12426	4091.3375
2087.12722	4086.1375
2090.12824	4087.8375
2093.12732	4085.9375
2096.12447	4090.8375
2099.11969	4098.3375
2102.11299	4095.4375
2105.10435	4084.9375
2108.09379	4092.9375
2111.08131	4079.2375
2114.0669	4084.7375
2117.05057	4081.6375
2120.03233	4085.1375
2123.01216	4088.4375
2125.99008	4095.3375
2128.96609	4093.0375
2131.94018	4098.8375
2134.91236	4092.2375
2137.88263	4100.4375
2140.851	4100.6375
2143.81746	4089.8375
2146.78201	4087.0375
2149.74466	4101.0375
2152.7054	4091.3375
2155.66425	4078.0375
2158.6212	4096.3375
2161.57625	4082.9375
2164.52941	4073.9375
2167.48067	4092.0375
2170.43004	4085.3375
2173.37752	4079.2375
2176.32311	4067.1375
2179.26681	4061.0375
2182.20863	4066.8375
2185.14856	4076.5375
2188.08661	4079.8375
2191.02278	4069.5375
2193.95707	4051.6375
2196.88948	4044.5375
2199.82001	4048.3375
2202.74867	4030.7375
2205.67545	4039.8375
2208.60037	4032.7375
2211.52341	4025.6375
2214.44458	4020.8375
2217.36388	4013.9375
2220.28132	4007.7375
2223.1969	3972.1375
2226.11061	3964.1375
2229.02246	3965.9375
2231.93245	3965.4375
2234.84058	3964.5375
2237.74686	3941.4375
2240.65128	3948.5375
2243.55385	3940.7375
2246.45456	3914.7375
2249.35343	3924.3375
2252.25044	3926.4375
2255.14561	3915.0375
2258.03893	3926.0375
2260.93041	3906.6375
2263.82004	3914.3375
2266.70783	3904.0375
2269.59378	3885.7375
2272.4779	3865.8375
2275.36017	3857.5375
2278.24061	3834.7375
2281.11922	3828.3375
2283.996	3843.1375
2286.87094	3818.1375
2289.74405	3808.0375
2292.61534	3819.3375
2295.4848	3811.8375
2298.35243	3814.4375
2301.21824	3801.1375
2304.08223	3796.8375
2306.94439	3800.3375
2309.80474	3799.8375
2312.66327	3793.3375
2315.51999	3794.8375
2318.37489	3772.6375
2321.22797	3776.1375
2324.07925	3754.2375
2326.92871	3743.4375
2329.77637	3740.5375
2332.62222	3722.7375
2335.46626	3726.5375
2338.3085	3710.5375
2341.14893	3724.2375
2343.98756	3716.4375
2346.8244	3724.8375
2349.65943	3725.8375
2352.49267	3694.4375
2355.32411	3705.4375
2358.15376	3691.8375
2360.98161	3694.6375
2363.80768	3701.2375
2366.63195	3682.7375
2369.45444	3690.6375
2372.27514	3703.3375
2375.09405	3697.8375
2377.91118	3676.8375
2380.72652	3662.8375
2383.54009	3653.2375
2386.35187	3648.8375
2389.16188	3648.5375
2391.97011	3622.9375
2394.77657	3629.9375
2397.58125	3608.5375
2400.38416	3588.0375
2403.18529	3593.1375
2405.98466	3590.7375
2408.78226	3591.6375
2411.57809	3592.9375
2414.37216	3566.1375
2417.16446	3554.9375
2419.955	3565.7375
2422.74378	3564.2375
2425.5308	3560.0375
2428.31606	3545.7375
2431.09956	3562.3375
2433.88131	3541.9375
2436.6613	3541.1375
2439.43954	3550.9375
2442.21603	3540.1375
2444.99077	3544.5375
2447.76377	3537.1375
2450.53501	3527.3375
2453.30451	3522.5375
2456.07226	3525.5375
2458.83827	3519.7375
2461.60254	3522.9375
2464.36507	3512.3375
2467.12586	3512.7375
2469.88492	3499.5375
2472.64224	3500.0375
2475.39782	3509.3375
2478.15167	3492.6375
2480.90379	3486.0375
2483.65417	3486.2375
2486.40283	3488.3375
2489.14976	3497.9375
2491.89497	3489.5375
2494.63845	3487.5375
2497.3802	3475.7375
2500.12024	3490.5375
2502.85855	3469.7375
2505.59514	3462.4375
2508.33002	3460.2375
2511.06318	3457.3375
2513.79462	3434.7375
2516.52435	3417.9375
2519.25237	3409.9375
2521.97867	3413.4375
2524.70327	3402.2375
2527.42616	3394.1375
2530.14734	3393.5375
2532.86681	3400.7375
2535.58458	3396.4375
2538.30065	3386.0375
2541.01501	3387.4375
2543.72768	3376.6375
2546.43864	3377.5375
2549.14791	3355.3375
2551.85548	3359.0375
2554.56136	3367.1375
2557.26554	3357.8375
2559.96803	3338.9375
2562.66883	3335.6375
2565.36794	3326.8375
2568.06536	3325.0375
2570.7611	3304.9375
2573.45514	3309.4375
2576.14751	3297.0375
2578.83819	3281.3375
2581.52719	3281.8375
2584.21451	3280.9375
2586.90015	3262.9375
2589.58411	3269.5375
2592.2664	3259.1375
2594.94701	3245.8375
2597.62594	3245.8375
2600.30321	3238.8375
2602.9788	3226.9375
2605.65273	3234.7375
2608.32498	3227.1375
2610.99557	3226.2375
2613.66449	3226.6375
2616.33175	3220.9375
2618.99734	3206.2375
2621.66128	3200.5375
2624.32355	3191.9375
2626.98416	3174.6375
2629.64311	3172.5375
2632.30041	3171.4375
2634.95605	3164.2375
2637.61004	3151.0375
2640.26238	3152.7375
2642.91306	3140.6375
2645.56209	3147.8375
2648.20948	3132.8375
2650.85521	3132.0375
2653.4993	3138.1375
2656.14175	3134.2375
2658.78255	3128.0375
2661.42171	3130.7375
2664.05923	3136.5375
2666.6951	3146.7375
2669.32934	3127.8375
2671.96194	3131.1375
2674.59291	3129.3375
2677.22224	3109.1375
2679.84993	3122.3375
2682.476	3119.0375
2685.10043	3117.1375
2687.72324	3126.1375
2690.34441	3122.9375
2692.96396	3106.8375
2695.58188	3110.0375
2698.19818	3100.1375
2700.81285	3113.0375
2703.4259	3097.9375
2706.03733	3103.6375
2708.64714	3112.5375
2711.25533	3098.5375
2713.86191	3083.9375
2716.46687	3099.5375
2719.07021	3104.4375
2721.67194	3090.1375
2724.27206	3097.2375
2726.87057	3090.4375
2729.46747	3093.0375
2732.06276	3083.2375
2734.65644	3090.0375
2737.24852	3069.0375
2739.83899	3073.7375
2742.42786	3080.9375
2745.01513	3070.6375
2747.60079	3072.1375
2750.18486	3063.1375
2752.76733	3071.7375
2755.3482	3048.4375
2757.92747	3046.4375
2760.50515	3028.2375
2763.08123	3040.5375
2765.65573	3013.5375
2768.22863	3003.0375
2770.79994	3009.6375
2773.36967	3004.2375
2775.9378	3002.7375
2778.50435	2995.9375
2781.06932	2996.5375
2783.6327	3001.1375
2786.1945	2991.3375
2788.75471	2998.3375
2791.31335	2969.1375
2793.87041	2970.2375
2796.42589	2964.2375
2798.97979	2951.5375
2801.53212	2953.9375
2804.08288	2951.4375
2806.63206	2946.2375
2809.17967	2935.3375
2811.72571	2919.5375
2814.27018	2913.7375
2816.81308	2921.5375
2819.35442	2907.0375
2821.89419	2899.3375
2824.43239	2890.9375
2826.96904	2903.7375
2829.50412	2889.1375
2832.03763	2870.8375
2834.56959	2874.6375
2837.1	2862.6375
2839.62884	2869.2375
2842.15613	2860.0375
2844.68186	2856.7375
2847.20604	2863.5375
2849.72867	2850.4375
2852.24974	2852.3375
2854.76927	2844.0375
2857.28724	2825.4375
2859.80367	2821.8375
2862.31855	2820.4375
2864.83189	2822.0375
2867.34368	2824.0375
2869.85393	2817.7375
2872.36264	2809.3375
2874.8698	2818.4375
2877.37543	2815.8375
2879.87952	2805.0375
2882.38207	2794.9375
2884.88308	2807.4375
2887.38256	2792.9375
2889.88051	2783.4375
2892.37692	2781.2375
2894.8718	2775.7375
2897.36515	2773.8375
2899.85698	2767.1375
2902.34727	2785.5375
2904.83604	2779.0375
2907.32328	2784.3375
2909.809	2791.3375
2912.29319	2789.7375
2914.77587	2794.4375
2917.25702	2789.5375
2919.73665	2786.6375
2922.21476	2788.4375
2924.69136	2780.7375
2927.16644	2766.9375
2929.64	2759.4375
2932.11205	2761.0375
2934.58258	2748.1375
2937.05161	2752.7375
2939.51912	2752.0375
2941.98513	2750.2375
2944.44962	2741.6375
2946.91261	2738.3375
2949.37409	2737.7375
2951.83407	2734.5375
2954.29254	2741.8375
2956.74951	2730.5375
2959.20498	2728.8375
2961.65895	2730.1375
2964.11142	2724.4375
2966.56239	2714.4375
2969.01186	2715.0375
2971.45984	2706.4375
2973.90632	2711.2375
2976.35131	2700.7375
2978.7948	2708.9375
2981.23681	2707.0375
2983.67732	2701.6375
2986.11635	2682.4375
2988.55388	2688.2375
2990.98993	2678.0375
2993.4245	2678.1375
2995.85758	2667.9375
2998.28917	2670.2375
3000.71928	2652.5375
3003.14791	2653.3375
3005.57506	2639.4375
3008.00073	2625.9375
3010.42493	2624.1375
3012.84764	2620.6375
3015.26888	2621.8375
3017.68865	2605.7375
3020.10694	2610.8375
3022.52376	2602.0375
3024.9391	2585.6375
3027.35298	2579.9375
3029.76539	2581.0375
3032.17632	2571.3375
3034.5858	2570.3375
3036.9938	2556.2375
3039.40034	2567.2375
3041.80542	2548.9375
3044.20903	2558.6375
3046.61118	2543.7375
3049.01187	2540.5375
3051.4111	2542.8375
3053.80888	2518.8375
3056.20519	2518.1375
3058.60005	2519.1375
3060.99345	2515.6375
3063.3854	2508.8375
3065.7759	2499.9375
3068.16494	2485.4375
3070.55254	2485.5375
3072.93868	2482.2375
3075.32338	2476.5375
3077.70662	2475.1375
3080.08842	2467.2375
3082.46878	2459.5375
3084.84769	2447.0375
3087.22515	2452.6375
3089.60118	2453.2375
3091.97576	2445.5375
3094.3489	2438.9375
3096.72061	2444.3375
3099.09087	2446.4375
3101.4597	2441.0375
3103.82709	2425.9375
3106.19305	2425.3375
3108.55757	2438.0375
3110.92066	2425.1375
3113.28232	2415.3375
3115.64255	2410.6375
3118.00134	2409.2375
3120.35871	2406.6375
3122.71466	2393.2375
3125.06917	2382.6375
3127.42226	2375.7375
