Data from AgNPs_UA_10uM_CRN_500uM_SU_RamanShift__136__13-28-00-280.txt Node

Date: Thu Aug 04 13:28:00 BST 2022
User: TCL
Spectrometer: QEP01345
Trigger mode: 4
Integration Time (sec): 1.000000E0
Scans to average: 10
Electric dark correction enabled: true
Nonlinearity correction enabled: false
Boxcar width: 0
XAxis mode: Raman Shifts
Number of Pixels in Spectrum: 1044
>>>>>Begin Spectral Data<<<<<
46.04893	-0.0625
50.45542	-0.6625
54.85868	0.5375
59.25871	1.0375
63.6555	20.5375
68.04907	19.6375
72.43941	23.1375
76.82654	22.1375
81.21044	22.4375
85.59113	25.1375
89.96862	24.7375
94.34289	26.9375
98.71396	26.6375
103.08183	29.2375
107.4465	28.8375
111.80798	27.6375
116.16626	30.0375
120.52136	31.5375
124.87327	33.3375
129.222	36.7375
133.56755	38.0375
137.90993	41.5375
142.24913	47.2375
146.58517	52.4375
150.91804	61.7375
155.24774	77.7375
159.57429	95.8375
163.89768	123.9375
168.21792	169.9375
172.53501	230.1375
176.84895	327.4375
181.15975	459.7375
185.46741	656.3375
189.77193	901.5375
194.07331	1220.9375
198.37157	1573.6375
202.6667	1937.9375
206.9587	2309.2375
211.24758	2672.5375
215.53334	3048.7375
219.81599	3433.8375
224.09553	3888.2375
228.37195	4365.7375
232.64527	4880.7375
236.91549	5411.4375
241.18261	5895.1375
245.44663	6296.3375
249.70755	6617.3375
253.96539	6918.0375
258.22014	7152.1375
262.4718	7379.0375
266.72039	7528.9375
270.96589	7594.2375
275.20832	7567.0375
279.44768	7462.4375
283.68397	7340.0375
287.91719	7255.8375
292.14735	7255.0375
296.37445	7375.0375
300.59849	7562.4375
304.81948	7821.2375
309.03742	8036.2375
313.25231	8137.1375
317.46415	8008.0375
321.67296	7746.8375
325.87872	7469.8375
330.08145	7342.4375
334.28114	7331.5375
338.47781	7415.8375
342.67145	7554.1375
346.86207	7806.0375
351.04966	8085.2375
355.23424	8377.0375
359.4158	8632.2375
363.59435	8737.0375
367.76989	8819.1375
371.94243	8828.6375
376.11196	8811.2375
380.27849	8847.2375
384.44203	8858.4375
388.60257	8885.9375
392.76012	8936.4375
396.91468	9037.0375
401.06626	9208.7375
405.21485	9248.3375
409.36047	9157.1375
413.50311	8870.6375
417.64277	8602.2375
421.77947	8465.8375
425.9132	8409.1375
430.04396	8423.9375
434.17176	8476.4375
438.2966	8608.5375
442.41849	8824.1375
446.53742	9085.7375
450.6534	9296.2375
454.76644	9460.8375
458.87653	9481.5375
462.98368	9431.4375
467.08789	9276.8375
471.18916	9087.5375
475.2875	8847.9375
479.38291	8691.0375
483.4754	8565.5375
487.56496	8467.1375
491.6516	8446.0375
495.73531	8391.6375
499.81612	8453.9375
503.89401	8531.4375
507.96899	8567.7375
512.04106	8605.9375
516.11023	8667.4375
520.1765	8723.6375
524.23987	8781.8375
528.30034	8754.1375
532.35792	8713.9375
536.41261	8651.7375
540.46441	8516.2375
544.51333	8480.5375
548.55936	8533.2375
552.60252	8681.7375
556.64279	8809.1375
560.6802	8919.4375
564.71473	9002.5375
568.7464	9130.3375
572.7752	9104.0375
576.80114	8937.1375
580.82422	8814.4375
584.84444	8806.0375
588.86181	8947.2375
592.87633	9104.0375
596.888	9295.8375
600.89682	9653.4375
604.9028	10650.1375
608.90594	12803.0375
612.90624	14812.0375
616.90371	13545.7375
620.89834	10686.9375
624.89015	9599.3375
628.87913	9529.8375
632.86528	9549.3375
636.84862	9489.3375
640.82913	9198.5375
644.80683	8837.8375
648.78172	8648.3375
652.75379	8702.1375
656.72306	8960.3375
660.68952	9255.0375
664.65319	9190.9375
668.61405	9025.8375
672.57211	9059.7375
676.52738	9056.8375
680.47986	8881.1375
684.42955	8745.3375
688.37646	8733.5375
692.32058	8819.2375
696.26192	8981.3375
700.20048	9110.0375
704.13626	9127.9375
708.06928	9015.5375
711.99952	8911.4375
715.927	8904.6375
719.85171	9008.4375
723.77365	9003.0375
727.69284	8906.4375
731.60928	8839.6375
735.52295	8872.1375
739.43388	8904.5375
743.34206	8947.4375
747.24749	8999.9375
751.15017	9026.9375
755.05012	9122.7375
758.94733	9465.1375
762.8418	10244.3375
766.73354	11377.0375
770.62254	12370.9375
774.50882	12562.3375
778.39237	12032.7375
782.27321	11103.8375
786.15132	10178.7375
790.02671	9540.9375
793.89938	9262.4375
797.76935	9111.7375
801.6366	9031.8375
805.50115	9011.6375
809.36299	8947.3375
813.22213	8930.6375
817.07857	8915.5375
820.93231	8922.9375
824.78336	8914.4375
828.63172	8936.9375
832.47738	8961.4375
836.32036	8971.4375
840.16066	8994.0375
843.99827	9006.7375
847.8332	8981.9375
851.66546	8949.2375
855.49504	8959.5375
859.32195	8975.6375
863.1462	8952.0375
866.96777	8920.0375
870.78668	8929.1375
874.60293	8956.7375
878.41652	8994.5375
882.22745	9058.7375
886.03573	9101.7375
889.84136	9120.4375
893.64433	9058.1375
897.44466	9026.3375
901.24235	9005.4375
905.0374	9002.3375
908.8298	8972.5375
912.61957	8959.5375
916.40671	8994.4375
920.19121	9045.9375
923.97308	9162.6375
927.75233	9276.3375
931.52895	9366.6375
935.30295	9286.3375
939.07433	9096.0375
942.84309	8978.4375
946.60924	8941.7375
950.37278	8926.9375
954.13371	8881.3375
957.89203	8823.6375
961.64774	8809.5375
965.40086	8793.1375
969.15137	8761.9375
972.89929	8763.6375
976.64461	8795.9375
980.38733	8796.3375
984.12747	8861.1375
987.86502	8912.3375
991.59999	9005.6375
995.33237	9164.7375
999.06217	9469.9375
1002.78939	9745.0375
1006.51404	9885.7375
1010.23611	9961.6375
1013.95561	10063.0375
1017.67255	10149.1375
1021.38692	10146.2375
1025.09872	10167.1375
1028.80796	10277.5375
1032.51465	10530.2375
1036.21877	10704.1375
1039.92035	10685.4375
1043.61937	10497.0375
1047.31584	10266.9375
1051.00976	10046.3375
1054.70114	9952.1375
1058.38998	9884.8375
1062.07627	9927.0375
1065.76003	9922.0375
1069.44126	9952.8375
1073.11995	10083.2375
1076.79611	10231.2375
1080.46974	10369.6375
1084.14085	10495.7375
1087.80943	10581.9375
1091.47549	10601.9375
1095.13903	10470.4375
1098.80005	10382.3375
1102.45857	10377.6375
1106.11456	10370.9375
1109.76805	10332.3375
1113.41903	10401.0375
1117.06751	10557.1375
1120.71348	10752.5375
1124.35696	10964.4375
1127.99793	11090.6375
1131.63641	10950.4375
1135.2724	10626.5375
1138.90589	10383.3375
1142.5369	10206.8375
1146.16542	10092.0375
1149.79145	9991.4375
1153.415	9975.1375
1157.03607	10010.0375
1160.65467	10116.2375
1164.27079	10397.1375
1167.88443	10785.4375
1171.49561	11403.5375
1175.10432	12291.8375
1178.71056	13450.3375
1182.31434	14434.3375
1185.91565	14867.2375
1189.51451	14705.8375
1193.11091	14214.3375
1196.70485	13619.0375
1200.29634	13094.7375
1203.88538	12585.3375
1207.47197	12056.8375
1211.05612	11578.9375
1214.63782	11306.2375
1218.21708	11147.3375
1221.79391	11229.3375
1225.36829	11285.2375
1228.94024	11265.3375
1232.50976	11134.8375
1236.07685	11012.2375
1239.6415	10987.1375
1243.20374	11011.9375
1246.76355	11109.9375
1250.32093	11249.4375
1253.8759	11519.9375
1257.42845	11839.5375
1260.97859	12172.0375
1264.52631	12466.8375
1268.07163	12782.7375
1271.61453	13024.2375
1275.15503	13198.7375
1278.69312	13393.3375
1282.22882	13619.4375
1285.76211	13768.6375
1289.29301	13949.9375
1292.82151	14164.4375
1296.34761	14494.1375
1299.87133	15063.8375
1303.39266	16038.3375
1306.9116	17486.3375
1310.42815	18973.0375
1313.94233	19673.1375
1317.45412	19144.2375
1320.96354	18041.3375
1324.47058	16827.9375
1327.97525	15883.9375
1331.47754	15307.1375
1334.97747	15140.7375
1338.47502	15336.6375
1341.97022	15766.8375
1345.46305	16433.7375
1348.95352	17331.8375
1352.44163	18312.1375
1355.92738	19526.1375
1359.41078	21103.7375
1362.89183	22074.9375
1366.37053	20931.0375
1369.84688	18195.6375
1373.32088	15713.9375
1376.79254	14279.0375
1380.26186	13603.4375
1383.72883	13273.2375
1387.19347	12918.3375
1390.65578	12522.1375
1394.11575	12191.3375
1397.57339	12047.2375
1401.0287	12027.6375
1404.48168	12136.6375
1407.93234	12249.4375
1411.38068	12453.7375
1414.82669	12566.6375
1418.27039	12549.9375
1421.71177	12467.1375
1425.15083	12344.4375
1428.58758	12328.0375
1432.02203	12480.2375
1435.45416	12648.5375
1438.88399	12668.4375
1442.31151	12627.0375
1445.73673	12617.1375
1449.15965	12556.3375
1452.58027	12475.4375
1455.9986	12380.4375
1459.41463	12339.4375
1462.82837	12435.2375
1466.23982	12692.6375
1469.64898	12924.6375
1473.05586	13103.7375
1476.46045	13227.1375
1479.86276	13354.0375
1483.26279	13515.7375
1486.66054	13691.4375
1490.05602	13978.3375
1493.44922	14491.4375
1496.84016	15172.3375
1500.22882	16191.5375
1503.61521	17415.4375
1506.99934	18728.9375
1510.38121	19518.6375
1513.76081	19308.8375
1517.13816	18006.2375
1520.51324	16341.1375
1523.88607	15024.9375
1527.25665	14239.9375
1530.62498	13853.8375
1533.99105	13642.9375
1537.35488	13491.2375
1540.71647	13353.0375
1544.07581	13285.9375
1547.4329	13146.4375
1550.78776	13024.2375
1554.14038	12907.7375
1557.49077	12867.4375
1560.83892	12970.4375
1564.18484	13173.5375
1567.52853	13387.8375
1570.86999	13510.7375
1574.20922	13502.2375
1577.54624	13290.4375
1580.88103	12825.0375
1584.2136	12379.5375
1587.54395	12255.5375
1590.87208	12609.7375
1594.19801	13386.0375
1597.52172	14299.0375
1600.84321	14717.6375
1604.16251	14482.6375
1607.47959	13867.8375
1610.79447	13092.1375
1614.10715	12261.8375
1617.41763	11521.9375
1620.7259	11033.0375
1624.03199	10799.2375
1627.33587	10848.9375
1630.63757	11108.8375
1633.93707	11658.2375
1637.23439	12522.6375
1640.52951	13696.6375
1643.82246	14981.0375
1647.11321	16117.2375
1650.40179	16233.7375
1653.68819	15143.2375
1656.97241	13306.5375
1660.25446	11665.1375
1663.53433	10575.6375
1666.81203	9932.4375
1670.08756	9527.6375
1673.36092	9309.8375
1676.63211	9131.1375
1679.90115	8983.9375
1683.16801	8910.5375
1686.43272	8818.2375
1689.69527	8775.2375
1692.95567	8718.9375
1696.2139	8709.8375
1699.46999	8698.7375
1702.72392	8674.4375
1705.97571	8655.4375
1709.22535	8672.5375
1712.47284	8663.5375
1715.71819	8669.3375
1718.96139	8635.5375
1722.20246	8624.6375
1725.44139	8598.4375
1728.67818	8544.1375
1731.91284	8504.2375
1735.14537	8467.2375
1738.37576	8437.7375
1741.60403	8395.2375
1744.83017	8373.6375
1748.05418	8395.3375
1751.27607	8361.6375
1754.49584	8320.1375
1757.71349	8349.6375
1760.92903	8312.8375
1764.14244	8305.2375
1767.35375	8280.0375
1770.56294	8272.9375
1773.77002	8267.8375
1776.97499	8239.6375
1780.17785	8221.9375
1783.37861	8188.4375
1786.57727	8192.6375
1789.77382	8202.7375
1792.96828	8185.4375
1796.16064	8159.4375
1799.3509	8148.2375
1802.53907	8141.3375
1805.72514	8135.1375
1808.90913	8108.2375
1812.09102	8094.0375
1815.27083	8078.4375
1818.44856	8040.9375
1821.6242	8029.3375
1824.79776	8018.5375
1827.96924	8010.4375
1831.13864	7978.2375
1834.30597	8001.8375
1837.47122	7968.9375
1840.6344	7957.5375
1843.7955	7965.4375
1846.95454	7960.4375
1850.11151	7947.5375
1853.26642	7975.4375
1856.41926	7957.8375
1859.57004	7972.0375
1862.71876	7958.8375
1865.86542	7945.7375
1869.01003	7947.1375
1872.15258	7923.2375
1875.29308	7941.6375
1878.43152	7923.1375
1881.56792	7913.5375
1884.70227	7900.5375
1887.83457	7886.8375
1890.96482	7869.3375
1894.09304	7834.9375
1897.21921	7845.5375
1900.34335	7835.0375
1903.46544	7834.4375
1906.58551	7834.8375
1909.70353	7826.1375
1912.81953	7810.2375
1915.93349	7814.2375
1919.04543	7805.1375
1922.15534	7766.7375
1925.26322	7788.3375
1928.36908	7781.2375
1931.47292	7734.9375
1934.57473	7731.8375
1937.67453	7712.2375
1940.77232	7705.0375
1943.86808	7675.3375
1946.96184	7681.9375
1950.05358	7642.2375
1953.14331	7622.8375
1956.23103	7589.2375
1959.31675	7579.5375
1962.40046	7559.8375
1965.48217	7524.6375
1968.56188	7492.0375
1971.63959	7475.9375
1974.7153	7462.2375
1977.78901	7471.7375
1980.86073	7430.8375
1983.93046	7399.3375
1986.99819	7383.2375
1990.06394	7372.5375
1993.1277	7351.8375
1996.18947	7311.4375
1999.24925	7306.0375
2002.30706	7263.9375
2005.36288	7250.7375
2008.41672	7227.4375
2011.46859	7205.2375
2014.51848	7196.4375
2017.56639	7159.7375
2020.61233	7154.9375
2023.6563	7137.8375
2026.6983	7121.0375
2029.73833	7091.7375
2032.7764	7081.4375
2035.8125	7058.4375
2038.84664	7066.1375
2041.87881	7047.5375
2044.90903	7012.9375
2047.93729	7022.5375
2050.96359	7002.5375
2053.98794	6994.9375
2057.01034	6996.0375
2060.03078	6997.6375
2063.04927	6994.2375
2066.06582	6980.4375
2069.08042	6958.2375
2072.09307	6963.9375
2075.10378	6946.7375
2078.11255	6942.2375
2081.11938	6941.9375
2084.12426	6922.3375
2087.12722	6907.7375
2090.12824	6930.5375
2093.12732	6916.8375
2096.12447	6941.3375
2099.11969	6924.5375
2102.11299	6907.5375
2105.10435	6931.2375
2108.09379	6915.0375
2111.08131	6933.7375
2114.0669	6943.5375
2117.05057	6956.8375
2120.03233	6966.7375
2123.01216	6947.1375
2125.99008	6945.6375
2128.96609	6962.0375
2131.94018	6966.3375
2134.91236	6971.3375
2137.88263	6948.0375
2140.851	6958.9375
2143.81746	6978.9375
2146.78201	6952.2375
2149.74466	6961.7375
2152.7054	6963.5375
2155.66425	6950.4375
2158.6212	6956.2375
2161.57625	6930.3375
2164.52941	6945.9375
2167.48067	6943.2375
2170.43004	6922.1375
2173.37752	6920.4375
2176.32311	6937.7375
2179.26681	6944.1375
2182.20863	6940.7375
2185.14856	6958.8375
2188.08661	6954.1375
2191.02278	6939.0375
2193.95707	6946.6375
2196.88948	6925.6375
2199.82001	6939.5375
2202.74867	6917.2375
2205.67545	6959.3375
2208.60037	6937.2375
2211.52341	6926.0375
2214.44458	6907.9375
2217.36388	6878.5375
2220.28132	6885.0375
2223.1969	6858.8375
2226.11061	6854.3375
2229.02246	6844.2375
2231.93245	6830.1375
2234.84058	6815.4375
2237.74686	6810.4375
2240.65128	6795.5375
2243.55385	6789.5375
2246.45456	6788.8375
2249.35343	6752.6375
2252.25044	6742.2375
2255.14561	6749.5375
2258.03893	6750.3375
2260.93041	6750.2375
2263.82004	6737.3375
2266.70783	6722.2375
2269.59378	6692.5375
2272.4779	6667.1375
2275.36017	6639.2375
2278.24061	6635.7375
2281.11922	6650.0375
2283.996	6613.7375
2286.87094	6593.0375
2289.74405	6598.9375
2292.61534	6612.4375
2295.4848	6584.9375
2298.35243	6565.9375
2301.21824	6566.5375
2304.08223	6556.5375
2306.94439	6581.4375
2309.80474	6583.0375
2312.66327	6580.3375
2315.51999	6572.1375
2318.37489	6560.9375
2321.22797	6574.1375
2324.07925	6561.6375
2326.92871	6556.6375
2329.77637	6562.6375
2332.62222	6563.6375
2335.46626	6518.6375
2338.3085	6533.4375
2341.14893	6535.9375
2343.98756	6542.3375
2346.8244	6559.9375
2349.65943	6539.2375
2352.49267	6512.2375
2355.32411	6526.2375
2358.15376	6515.5375
2360.98161	6536.5375
2363.80768	6526.9375
2366.63195	6511.3375
2369.45444	6492.4375
2372.27514	6484.5375
2375.09405	6481.5375
2377.91118	6460.4375
2380.72652	6441.3375
2383.54009	6442.9375
2386.35187	6417.1375
2389.16188	6396.8375
2391.97011	6389.2375
2394.77657	6362.1375
2397.58125	6364.8375
2400.38416	6349.4375
2403.18529	6331.7375
2405.98466	6332.0375
2408.78226	6306.5375
2411.57809	6294.4375
2414.37216	6281.3375
2417.16446	6278.0375
2419.955	6262.9375
2422.74378	6260.2375
2425.5308	6252.4375
2428.31606	6253.4375
2431.09956	6242.5375
2433.88131	6252.2375
2436.6613	6221.2375
2439.43954	6226.3375
2442.21603	6239.3375
2444.99077	6236.7375
2447.76377	6246.8375
2450.53501	6227.7375
2453.30451	6238.8375
2456.07226	6210.0375
2458.83827	6194.6375
2461.60254	6180.2375
2464.36507	6189.2375
2467.12586	6174.5375
2469.88492	6181.3375
2472.64224	6199.5375
2475.39782	6188.2375
2478.15167	6181.6375
2480.90379	6165.6375
2483.65417	6182.3375
2486.40283	6168.7375
2489.14976	6197.8375
2491.89497	6190.0375
2494.63845	6196.2375
2497.3802	6191.0375
2500.12024	6174.1375
2502.85855	6173.9375
2505.59514	6157.8375
2508.33002	6150.4375
2511.06318	6127.1375
2513.79462	6121.7375
2516.52435	6110.0375
2519.25237	6113.4375
2521.97867	6092.4375
2524.70327	6097.0375
2527.42616	6084.2375
2530.14734	6077.0375
2532.86681	6085.8375
2535.58458	6080.5375
2538.30065	6086.1375
2541.01501	6089.1375
2543.72768	6069.0375
2546.43864	6075.4375
2549.14791	6050.5375
2551.85548	6058.2375
2554.56136	6044.0375
2557.26554	6033.6375
2559.96803	6023.2375
2562.66883	5998.9375
2565.36794	5999.2375
2568.06536	5985.5375
2570.7611	5972.2375
2573.45514	5952.7375
2576.14751	5976.8375
2578.83819	5964.7375
2581.52719	5950.0375
2584.21451	5964.0375
2586.90015	5953.3375
2589.58411	5946.9375
2592.2664	5935.5375
2594.94701	5917.0375
2597.62594	5911.1375
2600.30321	5923.2375
2602.9788	5924.5375
2605.65273	5907.1375
2608.32498	5899.7375
2610.99557	5899.0375
2613.66449	5903.5375
2616.33175	5904.5375
2618.99734	5902.1375
2621.66128	5888.0375
2624.32355	5894.3375
2626.98416	5888.6375
2629.64311	5887.1375
2632.30041	5899.4375
2634.95605	5867.6375
2637.61004	5873.7375
2640.26238	5853.4375
2642.91306	5833.9375
2645.56209	5836.5375
2648.20948	5840.1375
2650.85521	5828.2375
2653.4993	5836.5375
2656.14175	5824.6375
2658.78255	5836.2375
2661.42171	5811.1375
2664.05923	5819.0375
2666.6951	5838.4375
2669.32934	5840.8375
2671.96194	5833.4375
2674.59291	5833.6375
2677.22224	5834.1375
2679.84993	5832.5375
2682.476	5804.5375
2685.10043	5842.5375
2687.72324	5829.3375
2690.34441	5828.8375
2692.96396	5801.3375
2695.58188	5794.7375
2698.19818	5786.4375
2700.81285	5784.1375
2703.4259	5775.3375
2706.03733	5766.6375
2708.64714	5761.8375
2711.25533	5776.0375
2713.86191	5782.7375
2716.46687	5790.7375
2719.07021	5782.6375
2721.67194	5775.2375
2724.27206	5774.3375
2726.87057	5787.9375
2729.46747	5766.5375
2732.06276	5772.0375
2734.65644	5789.2375
2737.24852	5758.9375
2739.83899	5742.9375
2742.42786	5762.8375
2745.01513	5732.0375
2747.60079	5739.1375
2750.18486	5715.6375
2752.76733	5725.5375
2755.3482	5717.8375
2757.92747	5693.8375
2760.50515	5695.5375
2763.08123	5687.9375
2765.65573	5680.7375
2768.22863	5688.9375
2770.79994	5670.8375
2773.36967	5668.2375
2775.9378	5664.0375
2778.50435	5663.2375
2781.06932	5654.2375
2783.6327	5678.2375
2786.1945	5657.6375
2788.75471	5646.6375
2791.31335	5634.3375
2793.87041	5631.2375
2796.42589	5598.9375
2798.97979	5598.4375
2801.53212	5600.5375
2804.08288	5577.7375
2806.63206	5562.2375
2809.17967	5552.3375
2811.72571	5567.7375
2814.27018	5549.8375
2816.81308	5538.6375
2819.35442	5527.7375
2821.89419	5527.0375
2824.43239	5525.6375
2826.96904	5507.8375
2829.50412	5503.0375
2832.03763	5496.1375
2834.56959	5480.1375
2837.1	5460.5375
2839.62884	5466.0375
2842.15613	5471.9375
2844.68186	5464.6375
2847.20604	5441.5375
2849.72867	5451.8375
2852.24974	5406.3375
2854.76927	5412.9375
2857.28724	5416.7375
2859.80367	5400.3375
2862.31855	5398.8375
2864.83189	5395.5375
2867.34368	5407.9375
2869.85393	5395.5375
2872.36264	5400.2375
2874.8698	5387.7375
2877.37543	5373.0375
2879.87952	5363.2375
2882.38207	5379.9375
2884.88308	5376.9375
2887.38256	5385.6375
2889.88051	5367.3375
2892.37692	5353.5375
2894.8718	5350.6375
2897.36515	5357.7375
2899.85698	5358.3375
2902.34727	5368.7375
2904.83604	5374.0375
2907.32328	5379.0375
2909.809	5378.2375
2912.29319	5407.0375
2914.77587	5403.9375
2917.25702	5407.9375
2919.73665	5384.0375
2922.21476	5374.9375
2924.69136	5379.6375
2927.16644	5362.0375
2929.64	5361.0375
2932.11205	5341.9375
2934.58258	5303.2375
2937.05161	5321.3375
2939.51912	5326.7375
2941.98513	5320.0375
2944.44962	5307.8375
2946.91261	5302.7375
2949.37409	5322.5375
2951.83407	5286.7375
2954.29254	5310.9375
2956.74951	5284.9375
2959.20498	5293.4375
2961.65895	5282.8375
2964.11142	5287.8375
2966.56239	5275.0375
2969.01186	5294.2375
2971.45984	5282.5375
2973.90632	5257.6375
2976.35131	5239.1375
2978.7948	5232.1375
2981.23681	5241.9375
2983.67732	5217.6375
2986.11635	5190.3375
2988.55388	5180.1375
2990.98993	5169.6375
2993.4245	5160.7375
2995.85758	5158.6375
2998.28917	5129.0375
3000.71928	5129.6375
3003.14791	5112.8375
3005.57506	5100.1375
3008.00073	5082.0375
3010.42493	5079.7375
3012.84764	5067.7375
3015.26888	5062.7375
3017.68865	5061.3375
3020.10694	5044.4375
3022.52376	5028.1375
3024.9391	5016.0375
3027.35298	4993.6375
3029.76539	4993.4375
3032.17632	4973.4375
3034.5858	4981.6375
3036.9938	4983.5375
3039.40034	4966.7375
3041.80542	4946.5375
3044.20903	4935.5375
3046.61118	4935.5375
3049.01187	4915.0375
3051.4111	4917.1375
3053.80888	4890.9375
3056.20519	4877.3375
3058.60005	4884.5375
3060.99345	4871.2375
3063.3854	4850.3375
3065.7759	4843.5375
3068.16494	4846.0375
3070.55254	4804.1375
3072.93868	4794.3375
3075.32338	4780.9375
3077.70662	4773.3375
3080.08842	4784.5375
3082.46878	4756.1375
3084.84769	4743.2375
3087.22515	4742.5375
3089.60118	4740.9375
3091.97576	4738.4375
3094.3489	4730.8375
3096.72061	4720.9375
3099.09087	4726.6375
3101.4597	4720.4375
3103.82709	4716.3375
3106.19305	4721.8375
