Data from AgNPs_UA_50uM_CRN_500uM_SU_RamanShift__3__13-56-20-314.txt Node

Date: Thu Aug 04 13:56:20 BST 2022
User: TCL
Spectrometer: QEP01345
Trigger mode: 4
Integration Time (sec): 1.000000E0
Scans to average: 10
Electric dark correction enabled: true
Nonlinearity correction enabled: false
Boxcar width: 0
XAxis mode: Raman Shifts
Number of Pixels in Spectrum: 1044
>>>>>Begin Spectral Data<<<<<
46.04893	0.675
50.45542	-1.525
54.85868	-0.725
59.25871	-1.225
63.6555	13.975
68.04907	13.375
72.43941	16.275
76.82654	15.675
81.21044	16.375
85.59113	17.075
89.96862	19.575
94.34289	18.775
98.71396	19.775
103.08183	18.875
107.4465	19.675
111.80798	17.775
116.16626	18.575
120.52136	21.175
124.87327	23.875
129.222	24.975
133.56755	29.275
137.90993	30.375
142.24913	29.675
146.58517	34.275
150.91804	41.175
155.24774	51.375
159.57429	66.275
163.89768	83.375
168.21792	112.775
172.53501	158.275
176.84895	220.875
181.15975	315.375
185.46741	440.875
189.77193	617.675
194.07331	831.475
198.37157	1071.975
202.6667	1331.675
206.9587	1590.975
211.24758	1863.675
215.53334	2129.575
219.81599	2427.175
224.09553	2762.275
228.37195	3137.575
232.64527	3528.975
236.91549	3881.175
241.18261	4232.575
245.44663	4469.475
249.70755	4649.675
253.96539	4776.675
258.22014	4918.675
262.4718	5053.775
266.72039	5115.675
270.96589	5122.375
275.20832	5092.575
279.44768	4986.175
283.68397	4912.575
287.91719	4868.075
292.14735	4873.375
296.37445	4968.975
300.59849	5202.375
304.81948	5468.675
309.03742	5744.875
313.25231	5907.175
317.46415	5839.875
321.67296	5570.775
325.87872	5253.975
330.08145	5050.375
334.28114	5062.975
338.47781	5111.975
342.67145	5224.975
346.86207	5427.275
351.04966	5701.475
355.23424	5948.475
359.4158	6110.875
363.59435	6169.175
367.76989	6154.175
371.94243	6110.875
376.11196	6000.375
380.27849	5957.875
384.44203	5929.375
388.60257	5935.075
392.76012	5958.075
396.91468	6045.575
401.06626	6142.475
405.21485	6174.675
409.36047	6024.375
413.50311	5768.075
417.64277	5535.375
421.77947	5380.475
425.9132	5332.975
430.04396	5349.875
434.17176	5392.075
438.2966	5464.675
442.41849	5574.475
446.53742	5681.775
450.6534	5775.475
454.76644	5829.675
458.87653	5813.875
462.98368	5794.675
467.08789	5756.975
471.18916	5662.975
475.2875	5533.775
479.38291	5438.475
483.4754	5346.975
487.56496	5301.575
491.6516	5287.775
495.73531	5290.375
499.81612	5303.875
503.89401	5337.375
507.96899	5380.275
512.04106	5449.275
516.11023	5522.975
520.1765	5591.375
524.23987	5621.775
528.30034	5615.675
532.35792	5601.575
536.41261	5529.675
540.46441	5420.875
544.51333	5387.175
548.55936	5421.275
552.60252	5517.475
556.64279	5618.975
560.6802	5679.575
564.71473	5777.575
568.7464	5919.175
572.7752	5902.775
576.80114	5686.275
580.82422	5532.475
584.84444	5457.575
588.86181	5450.875
592.87633	5475.275
596.888	5574.775
600.89682	5891.475
604.9028	6685.275
608.90594	8428.975
612.90624	10266.975
616.90371	9438.075
620.89834	6921.975
624.89015	5851.575
628.87913	5690.575
632.86528	5836.375
636.84862	5926.775
640.82913	5819.375
644.80683	5581.975
648.78172	5440.275
652.75379	5450.675
656.72306	5630.275
660.68952	5826.575
664.65319	5749.175
668.61405	5539.275
672.57211	5499.675
676.52738	5481.175
680.47986	5427.375
684.42955	5345.775
688.37646	5302.075
692.32058	5363.175
696.26192	5426.075
700.20048	5516.775
704.13626	5541.575
708.06928	5485.275
711.99952	5440.175
715.927	5426.975
719.85171	5469.575
723.77365	5489.175
727.69284	5468.075
731.60928	5395.675
735.52295	5393.975
739.43388	5420.775
743.34206	5433.275
747.24749	5446.875
751.15017	5452.175
755.05012	5536.375
758.94733	5803.875
762.8418	6491.975
766.73354	7524.675
770.62254	8331.575
774.50882	8414.775
778.39237	7916.975
782.27321	7107.175
786.15132	6306.375
790.02671	5792.475
793.89938	5555.175
797.76935	5431.475
801.6366	5391.075
805.50115	5343.775
809.36299	5328.675
813.22213	5323.175
817.07857	5314.075
820.93231	5309.675
824.78336	5319.575
828.63172	5349.675
832.47738	5357.175
836.32036	5337.875
840.16066	5327.075
843.99827	5310.075
847.8332	5298.775
851.66546	5291.875
855.49504	5316.575
859.32195	5329.375
863.1462	5332.475
866.96777	5318.675
870.78668	5331.375
874.60293	5329.375
878.41652	5356.575
882.22745	5408.775
886.03573	5425.575
889.84136	5420.975
893.64433	5389.575
897.44466	5387.275
901.24235	5377.775
905.0374	5362.175
908.8298	5328.275
912.61957	5322.675
916.40671	5299.375
920.19121	5351.375
923.97308	5406.275
927.75233	5479.075
931.52895	5499.775
935.30295	5453.475
939.07433	5329.775
942.84309	5226.975
946.60924	5210.475
950.37278	5183.875
954.13371	5186.775
957.89203	5168.375
961.64774	5178.775
965.40086	5160.775
969.15137	5144.875
972.89929	5150.675
976.64461	5138.775
980.38733	5151.775
984.12747	5175.875
987.86502	5209.175
991.59999	5227.575
995.33237	5282.075
999.06217	5373.275
1002.78939	5485.875
1006.51404	5612.275
1010.23611	5724.375
1013.95561	5776.375
1017.67255	5757.175
1021.38692	5714.875
1025.09872	5615.275
1028.80796	5517.875
1032.51465	5508.575
1036.21877	5537.875
1039.92035	5568.075
1043.61937	5588.375
1047.31584	5622.475
1051.00976	5612.475
1054.70114	5587.975
1058.38998	5592.675
1062.07627	5586.275
1065.76003	5638.675
1069.44126	5756.275
1073.11995	5882.175
1076.79611	6001.275
1080.46974	6151.175
1084.14085	6266.075
1087.80943	6325.675
1091.47549	6397.875
1095.13903	6368.175
1098.80005	6271.475
1102.45857	6144.875
1106.11456	5988.675
1109.76805	5942.275
1113.41903	5982.675
1117.06751	6096.875
1120.71348	6283.675
1124.35696	6561.575
1127.99793	6762.675
1131.63641	6645.275
1135.2724	6365.275
1138.90589	6163.575
1142.5369	6060.375
1146.16542	6055.675
1149.79145	6021.375
1153.415	5926.775
1157.03607	5842.475
1160.65467	5867.175
1164.27079	5977.775
1167.88443	6170.075
1171.49561	6507.675
1175.10432	7031.075
1178.71056	7755.675
1182.31434	8373.075
1185.91565	8537.075
1189.51451	8396.975
1193.11091	8155.775
1196.70485	7880.175
1200.29634	7715.975
1203.88538	7485.575
1207.47197	7216.675
1211.05612	6960.975
1214.63782	6786.575
1218.21708	6583.975
1221.79391	6428.275
1225.36829	6313.175
1228.94024	6246.475
1232.50976	6233.975
1236.07685	6214.775
1239.6415	6260.975
1243.20374	6283.375
1246.76355	6327.375
1250.32093	6414.675
1253.8759	6583.275
1257.42845	6803.575
1260.97859	7061.175
1264.52631	7254.475
1268.07163	7374.075
1271.61453	7410.575
1275.15503	7449.475
1278.69312	7449.475
1282.22882	7465.675
1285.76211	7591.575
1289.29301	7756.275
1292.82151	7933.375
1296.34761	8136.975
1299.87133	8452.775
1303.39266	9023.675
1306.9116	9838.875
1310.42815	10722.075
1313.94233	10925.875
1317.45412	10396.475
1320.96354	9617.075
1324.47058	8888.475
1327.97525	8268.775
1331.47754	7936.275
1334.97747	7859.775
1338.47502	7996.475
1341.97022	8345.975
1345.46305	8902.675
1348.95352	9720.575
1352.44163	10608.575
1355.92738	11601.875
1359.41078	12849.575
1362.89183	13893.675
1366.37053	13256.175
1369.84688	11119.475
1373.32088	9168.375
1376.79254	8086.275
1380.26186	7561.375
1383.72883	7293.975
1387.19347	7029.075
1390.65578	6785.475
1394.11575	6586.775
1397.57339	6433.075
1401.0287	6333.275
1404.48168	6297.675
1407.93234	6302.875
1411.38068	6359.375
1414.82669	6423.375
1418.27039	6454.675
1421.71177	6442.375
1425.15083	6363.875
1428.58758	6324.575
1432.02203	6367.875
1435.45416	6454.075
1438.88399	6479.575
1442.31151	6546.575
1445.73673	6592.875
1449.15965	6659.375
1452.58027	6630.475
1455.9986	6546.775
1459.41463	6536.775
1462.82837	6600.875
1466.23982	6731.775
1469.64898	6901.575
1473.05586	7010.975
1476.46045	7049.275
1479.86276	7081.775
1483.26279	7190.375
1486.66054	7342.475
1490.05602	7582.275
1493.44922	7984.275
1496.84016	8651.075
1500.22882	9657.675
1503.61521	10971.675
1506.99934	12219.275
1510.38121	13047.175
1513.76081	12839.375
1517.13816	11680.775
1520.51324	10177.775
1523.88607	8983.475
1527.25665	8239.775
1530.62498	7880.875
1533.99105	7691.875
1537.35488	7585.575
1540.71647	7532.175
1544.07581	7503.775
1547.4329	7436.575
1550.78776	7351.475
1554.14038	7259.575
1557.49077	7216.075
1560.83892	7266.975
1564.18484	7471.575
1567.52853	7747.575
1570.86999	7992.475
1574.20922	8030.675
1577.54624	7893.775
1580.88103	7464.075
1584.2136	6996.175
1587.54395	6726.575
1590.87208	6698.275
1594.19801	6929.675
1597.52172	7235.275
1600.84321	7401.875
1604.16251	7376.375
1607.47959	7218.775
1610.79447	6974.575
1614.10715	6601.775
1617.41763	6241.275
1620.7259	5982.775
1624.03199	5854.575
1627.33587	5821.475
1630.63757	5887.275
1633.93707	6080.875
1637.23439	6444.775
1640.52951	7008.775
1643.82246	7888.875
1647.11321	8831.975
1650.40179	9387.275
1653.68819	9009.675
1656.97241	7954.175
1660.25446	6822.075
1663.53433	6033.175
1666.81203	5584.575
1670.08756	5300.775
1673.36092	5148.075
1676.63211	5038.275
1679.90115	4956.075
1683.16801	4883.175
1686.43272	4850.075
1689.69527	4808.275
1692.95567	4786.075
1696.2139	4781.775
1699.46999	4759.575
1702.72392	4755.075
1705.97571	4744.275
1709.22535	4744.475
1712.47284	4761.875
1715.71819	4757.375
1718.96139	4738.375
1722.20246	4727.975
1725.44139	4709.175
1728.67818	4690.175
1731.91284	4646.475
1735.14537	4641.575
1738.37576	4622.075
1741.60403	4594.175
1744.83017	4590.875
1748.05418	4560.175
1751.27607	4569.675
1754.49584	4545.175
1757.71349	4547.375
1760.92903	4527.275
1764.14244	4556.675
1767.35375	4510.975
1770.56294	4505.875
1773.77002	4503.175
1776.97499	4476.175
1780.17785	4456.875
1783.37861	4455.375
1786.57727	4429.175
1789.77382	4440.675
1792.96828	4423.875
1796.16064	4413.075
1799.3509	4420.475
1802.53907	4403.975
1805.72514	4389.775
1808.90913	4382.575
1812.09102	4374.775
1815.27083	4359.075
1818.44856	4349.075
1821.6242	4332.275
1824.79776	4339.475
1827.96924	4318.975
1831.13864	4303.675
1834.30597	4299.175
1837.47122	4293.375
1840.6344	4283.775
1843.7955	4291.075
1846.95454	4278.375
1850.11151	4286.775
1853.26642	4279.475
1856.41926	4287.275
1859.57004	4279.075
1862.71876	4268.175
1865.86542	4268.175
1869.01003	4267.175
1872.15258	4264.675
1875.29308	4264.575
1878.43152	4256.475
1881.56792	4233.175
1884.70227	4233.275
1887.83457	4241.175
1890.96482	4229.875
1894.09304	4202.075
1897.21921	4215.575
1900.34335	4194.275
1903.46544	4179.375
1906.58551	4192.475
1909.70353	4170.375
1912.81953	4177.675
1915.93349	4162.375
1919.04543	4173.875
1922.15534	4155.375
1925.26322	4138.675
1928.36908	4142.075
1931.47292	4135.375
1934.57473	4114.575
1937.67453	4109.175
1940.77232	4091.375
1943.86808	4076.075
1946.96184	4069.275
1950.05358	4057.275
1953.14331	4051.375
1956.23103	4038.775
1959.31675	4016.175
1962.40046	4019.675
1965.48217	4008.975
1968.56188	3987.175
1971.63959	3991.175
1974.7153	3990.675
1977.78901	3975.075
1980.86073	3957.675
1983.93046	3945.875
1986.99819	3920.975
1990.06394	3912.575
1993.1277	3906.875
1996.18947	3887.475
1999.24925	3866.375
2002.30706	3869.675
2005.36288	3843.475
2008.41672	3846.175
2011.46859	3831.975
2014.51848	3815.375
2017.56639	3817.675
2020.61233	3799.975
2023.6563	3787.075
2026.6983	3758.375
2029.73833	3743.975
2032.7764	3742.875
2035.8125	3735.675
2038.84664	3714.975
2041.87881	3730.575
2044.90903	3712.075
2047.93729	3704.375
2050.96359	3714.475
2053.98794	3692.775
2057.01034	3686.675
2060.03078	3676.475
2063.04927	3675.575
2066.06582	3676.975
2069.08042	3670.475
2072.09307	3650.775
2075.10378	3659.675
2078.11255	3659.775
2081.11938	3671.275
2084.12426	3667.475
2087.12722	3667.775
2090.12824	3675.475
2093.12732	3659.675
2096.12447	3664.575
2099.11969	3675.375
2102.11299	3667.375
2105.10435	3682.275
2108.09379	3672.075
2111.08131	3659.575
2114.0669	3666.775
2117.05057	3676.575
2120.03233	3679.575
2123.01216	3665.875
2125.99008	3684.475
2128.96609	3671.975
2131.94018	3694.075
2134.91236	3673.975
2137.88263	3680.875
2140.851	3682.475
2143.81746	3679.875
2146.78201	3678.075
2149.74466	3674.275
2152.7054	3679.175
2155.66425	3675.975
2158.6212	3679.275
2161.57625	3652.075
2164.52941	3660.575
2167.48067	3666.775
2170.43004	3671.275
2173.37752	3666.575
2176.32311	3649.775
2179.26681	3661.975
2182.20863	3671.475
2185.14856	3653.575
2188.08661	3648.675
2191.02278	3650.275
2193.95707	3642.775
2196.88948	3647.175
2199.82001	3635.775
2202.74867	3627.575
2205.67545	3622.575
2208.60037	3629.675
2211.52341	3627.475
2214.44458	3618.475
2217.36388	3615.175
2220.28132	3604.075
2223.1969	3593.875
2226.11061	3590.175
2229.02246	3584.675
2231.93245	3571.175
2234.84058	3578.475
2237.74686	3565.875
2240.65128	3565.275
2243.55385	3559.575
2246.45456	3548.475
2249.35343	3543.175
2252.25044	3551.375
2255.14561	3542.075
2258.03893	3547.875
2260.93041	3522.275
2263.82004	3526.875
2266.70783	3530.175
2269.59378	3518.375
2272.4779	3500.875
2275.36017	3492.175
2278.24061	3479.875
2281.11922	3475.275
2283.996	3465.575
2286.87094	3462.675
2289.74405	3467.875
2292.61534	3462.575
2295.4848	3449.375
2298.35243	3461.775
2301.21824	3458.775
2304.08223	3453.775
2306.94439	3455.775
2309.80474	3450.675
2312.66327	3434.175
2315.51999	3438.675
2318.37489	3424.275
2321.22797	3425.775
2324.07925	3408.975
2326.92871	3398.775
2329.77637	3405.475
2332.62222	3386.875
2335.46626	3394.875
2338.3085	3383.975
2341.14893	3389.675
2343.98756	3380.575
2346.8244	3392.975
2349.65943	3381.275
2352.49267	3367.275
2355.32411	3381.175
2358.15376	3378.875
2360.98161	3388.175
2363.80768	3384.975
2366.63195	3379.975
2369.45444	3384.975
2372.27514	3388.875
2375.09405	3377.775
2377.91118	3381.575
2380.72652	3360.575
2383.54009	3346.775
2386.35187	3340.975
2389.16188	3339.675
2391.97011	3317.375
2394.77657	3308.475
2397.58125	3309.475
2400.38416	3289.575
2403.18529	3291.675
2405.98466	3280.175
2408.78226	3284.375
2411.57809	3281.675
2414.37216	3260.475
2417.16446	3280.275
2419.955	3258.075
2422.74378	3266.275
2425.5308	3278.975
2428.31606	3257.375
2431.09956	3281.975
2433.88131	3270.575
2436.6613	3255.975
2439.43954	3268.175
2442.21603	3254.075
2444.99077	3253.275
2447.76377	3248.575
2450.53501	3251.375
2453.30451	3246.275
2456.07226	3254.075
2458.83827	3239.075
2461.60254	3239.875
2464.36507	3234.675
2467.12586	3239.875
2469.88492	3238.475
2472.64224	3232.675
2475.39782	3230.975
2478.15167	3229.675
2480.90379	3224.075
2483.65417	3233.675
2486.40283	3239.375
2489.14976	3237.275
2491.89497	3258.175
2494.63845	3239.375
2497.3802	3233.775
2500.12024	3213.775
2502.85855	3218.575
2505.59514	3216.475
2508.33002	3206.575
2511.06318	3206.275
2513.79462	3188.075
2516.52435	3187.575
2519.25237	3184.075
2521.97867	3160.975
2524.70327	3153.775
2527.42616	3154.975
2530.14734	3166.575
2532.86681	3155.975
2535.58458	3161.775
2538.30065	3152.175
2541.01501	3153.675
2543.72768	3164.475
2546.43864	3150.975
2549.14791	3144.875
2551.85548	3155.575
2554.56136	3155.775
2557.26554	3132.175
2559.96803	3134.275
2562.66883	3120.875
2565.36794	3128.275
2568.06536	3115.475
2570.7611	3102.575
2573.45514	3106.275
2576.14751	3091.175
2578.83819	3073.275
2581.52719	3069.675
2584.21451	3065.575
2586.90015	3073.575
2589.58411	3056.775
2592.2664	3054.275
2594.94701	3063.275
2597.62594	3045.875
2600.30321	3042.275
2602.9788	3036.975
2605.65273	3042.675
2608.32498	3043.875
2610.99557	3035.075
2613.66449	3032.575
2616.33175	3022.375
2618.99734	3027.475
2621.66128	3024.975
2624.32355	3017.475
2626.98416	2999.175
2629.64311	2986.375
2632.30041	2990.275
2634.95605	2981.875
2637.61004	2970.575
2640.26238	2959.875
2642.91306	2961.275
2645.56209	2963.575
2648.20948	2970.175
2650.85521	2958.875
2653.4993	2968.775
2656.14175	2958.375
2658.78255	2966.175
2661.42171	2969.775
2664.05923	2969.575
2666.6951	2968.075
2669.32934	2976.675
2671.96194	2959.975
2674.59291	2964.875
2677.22224	2962.975
2679.84993	2963.675
2682.476	2957.575
2685.10043	2960.375
2687.72324	2957.575
2690.34441	2966.475
2692.96396	2959.275
2695.58188	2953.375
2698.19818	2951.275
2700.81285	2960.675
2703.4259	2954.375
2706.03733	2959.875
2708.64714	2948.275
2711.25533	2956.975
2713.86191	2936.675
2716.46687	2944.575
2719.07021	2945.675
2721.67194	2936.375
2724.27206	2935.275
2726.87057	2935.475
2729.46747	2933.375
2732.06276	2947.075
2734.65644	2934.075
2737.24852	2940.175
2739.83899	2941.375
2742.42786	2929.175
2745.01513	2919.975
2747.60079	2931.075
2750.18486	2923.775
2752.76733	2920.375
2755.3482	2906.775
2757.92747	2900.175
2760.50515	2886.475
2763.08123	2897.875
2765.65573	2889.675
2768.22863	2866.575
2770.79994	2870.475
2773.36967	2868.275
2775.9378	2867.675
2778.50435	2866.975
2781.06932	2852.675
2783.6327	2859.875
2786.1945	2860.875
2788.75471	2859.075
2791.31335	2834.675
2793.87041	2836.775
2796.42589	2834.675
2798.97979	2841.875
2801.53212	2845.475
2804.08288	2824.875
2806.63206	2837.075
2809.17967	2818.775
2811.72571	2799.975
2814.27018	2807.275
2816.81308	2813.275
2819.35442	2812.275
2821.89419	2795.975
2824.43239	2783.475
2826.96904	2778.275
2829.50412	2778.775
2832.03763	2760.575
2834.56959	2764.175
2837.1	2749.275
2839.62884	2754.975
2842.15613	2739.475
2844.68186	2752.475
2847.20604	2744.275
2849.72867	2737.375
2852.24974	2749.475
2854.76927	2739.675
2857.28724	2732.575
2859.80367	2718.275
2862.31855	2720.175
2864.83189	2716.775
2867.34368	2725.475
2869.85393	2721.875
2872.36264	2725.675
2874.8698	2717.875
2877.37543	2722.475
2879.87952	2706.775
2882.38207	2708.675
2884.88308	2708.275
2887.38256	2703.675
2889.88051	2692.775
2892.37692	2696.475
2894.8718	2696.675
2897.36515	2691.475
2899.85698	2674.775
2902.34727	2684.575
2904.83604	2702.275
2907.32328	2683.075
2909.809	2694.575
2912.29319	2709.375
2914.77587	2703.375
2917.25702	2706.875
2919.73665	2701.975
2922.21476	2706.975
2924.69136	2703.675
2927.16644	2675.875
2929.64	2684.075
2932.11205	2681.375
2934.58258	2668.775
2937.05161	2668.975
2939.51912	2670.375
2941.98513	2666.575
2944.44962	2657.475
2946.91261	2649.775
2949.37409	2649.475
2951.83407	2658.775
2954.29254	2651.675
2956.74951	2660.475
2959.20498	2639.275
2961.65895	2647.575
2964.11142	2624.275
2966.56239	2633.175
2969.01186	2618.975
2971.45984	2634.475
2973.90632	2624.375
2976.35131	2622.075
2978.7948	2622.375
2981.23681	2604.975
2983.67732	2614.575
2986.11635	2614.175
2988.55388	2595.175
2990.98993	2596.075
2993.4245	2588.475
2995.85758	2571.575
2998.28917	2585.775
3000.71928	2577.075
3003.14791	2567.675
3005.57506	2577.075
3008.00073	2557.075
3010.42493	2560.475
3012.84764	2553.575
3015.26888	2546.575
3017.68865	2528.875
3020.10694	2526.375
3022.52376	2521.875
3024.9391	2514.275
3027.35298	2486.975
3029.76539	2493.775
3032.17632	2495.775
3034.5858	2482.475
3036.9938	2478.375
3039.40034	2477.175
3041.80542	2471.275
3044.20903	2478.675
3046.61118	2466.275
3049.01187	2460.775
3051.4111	2469.975
3053.80888	2451.975
3056.20519	2439.975
3058.60005	2443.675
3060.99345	2437.075
3063.3854	2433.375
3065.7759	2432.975
3068.16494	2419.375
3070.55254	2422.675
3072.93868	2411.275
3075.32338	2396.875
3077.70662	2403.575
3080.08842	2393.275
3082.46878	2391.475
3084.84769	2371.075
3087.22515	2376.675
3089.60118	2369.475
3091.97576	2374.975
3094.3489	2370.875
3096.72061	2377.075
3099.09087	2371.175
3101.4597	2361.275
3103.82709	2363.875
3106.19305	2356.475
3108.55757	2352.375
3110.92066	2346.875
3113.28232	2347.875
3115.64255	2344.975
3118.00134	2331.375
3120.35871	2336.875
3122.71466	2330.975
3125.06917	2310.775
3127.42226	2306.975
3129.77393	2309.675
3132.12417	2317.875
3134.47299	2316.375
3136.82039	2311.975
3139.16636	2300.275
3141.51092	2304.075
3143.85406	2300.175
3146.19579	2298.875
3148.53609	2295.875
3150.87499	2295.675
3153.21246	2308.875
3155.54853	2301.675
3157.88318	2300.475
3160.21642	2302.575
3162.54826	2302.475
3164.87868	2294.775
3167.2077	2291.075
3169.5353	2289.375
3171.86151	2279.475
3174.18631	2279.775
3176.5097	2275.575
3178.83169	2277.975
3181.15228	2269.875
3183.47147	2269.575
3185.78926	2256.875
3188.10565	2253.075
3190.42065	2235.875
3192.73424	2238.575
3195.04645	2238.775
3197.35725	2246.175
3199.66667	2229.675
3201.97469	2231.575
3204.28132	2242.875
3206.58656	2241.175
3208.8904	2247.075
3211.19287	2235.975
3213.49394	2242.675
3215.79363	2253.475
3218.09193	2234.675
3220.38884	2242.375
3222.68438	2241.375
3224.97853	2229.675
3227.2713	2235.675
3229.56269	2218.675
3231.8527	2223.575
3234.14133	2215.875
3236.42858	2199.775
3238.71446	2205.475
