Data from AgNPs_UA_10uM_CRN_500uM_SU_RamanShift__87__13-19-50-271.txt Node

Date: Thu Aug 04 13:19:50 BST 2022
User: TCL
Spectrometer: QEP01345
Trigger mode: 4
Integration Time (sec): 1.000000E0
Scans to average: 10
Electric dark correction enabled: true
Nonlinearity correction enabled: false
Boxcar width: 0
XAxis mode: Raman Shifts
Number of Pixels in Spectrum: 1044
>>>>>Begin Spectral Data<<<<<
46.04893	-0.6125
50.45542	-0.1125
54.85868	1.8875
59.25871	0.0875
63.6555	19.1875
68.04907	19.9875
72.43941	20.3875
76.82654	24.8875
81.21044	23.1875
85.59113	25.6875
89.96862	26.2875
94.34289	25.7875
98.71396	26.0875
103.08183	30.9875
107.4465	29.0875
111.80798	29.7875
116.16626	29.0875
120.52136	33.6875
124.87327	34.2875
129.222	35.8875
133.56755	38.3875
137.90993	42.8875
142.24913	48.3875
146.58517	52.1875
150.91804	62.1875
155.24774	74.8875
159.57429	95.7875
163.89768	128.1875
168.21792	167.6875
172.53501	232.3875
176.84895	326.1875
181.15975	459.4875
185.46741	648.9875
189.77193	905.5875
194.07331	1215.3875
198.37157	1570.1875
202.6667	1939.0875
206.9587	2321.0875
211.24758	2673.7875
215.53334	3057.0875
219.81599	3445.1875
224.09553	3884.5875
228.37195	4386.5875
232.64527	4903.3875
236.91549	5440.4875
241.18261	5924.4875
245.44663	6324.6875
249.70755	6648.5875
253.96539	6951.1875
258.22014	7208.1875
262.4718	7429.9875
266.72039	7556.4875
270.96589	7610.9875
275.20832	7567.1875
279.44768	7494.2875
283.68397	7344.0875
287.91719	7287.0875
292.14735	7298.1875
296.37445	7389.3875
300.59849	7567.0875
304.81948	7768.9875
309.03742	7992.7875
313.25231	8088.2875
317.46415	8047.2875
321.67296	7778.1875
325.87872	7542.7875
330.08145	7411.9875
334.28114	7428.3875
338.47781	7477.4875
342.67145	7615.2875
346.86207	7797.9875
351.04966	8101.4875
355.23424	8361.1875
359.4158	8580.1875
363.59435	8666.8875
367.76989	8717.7875
371.94243	8743.1875
376.11196	8756.9875
380.27849	8773.3875
384.44203	8784.3875
388.60257	8859.5875
392.76012	8930.6875
396.91468	9054.3875
401.06626	9169.0875
405.21485	9255.4875
409.36047	9154.5875
413.50311	8922.0875
417.64277	8716.2875
421.77947	8557.3875
425.9132	8505.5875
430.04396	8485.8875
434.17176	8536.3875
438.2966	8613.6875
442.41849	8797.3875
446.53742	9000.7875
450.6534	9204.6875
454.76644	9326.2875
458.87653	9394.1875
462.98368	9388.7875
467.08789	9316.1875
471.18916	9159.0875
475.2875	8993.8875
479.38291	8819.6875
483.4754	8727.1875
487.56496	8667.4875
491.6516	8625.3875
495.73531	8592.4875
499.81612	8668.2875
503.89401	8722.3875
507.96899	8757.0875
512.04106	8793.7875
516.11023	8836.2875
520.1765	8872.8875
524.23987	8897.6875
528.30034	8884.8875
532.35792	8896.6875
536.41261	8832.4875
540.46441	8703.0875
544.51333	8688.9875
548.55936	8758.6875
552.60252	8872.3875
556.64279	9015.0875
560.6802	9120.9875
564.71473	9212.3875
568.7464	9293.7875
572.7752	9234.4875
576.80114	9066.3875
580.82422	8949.9875
584.84444	8901.3875
588.86181	8958.2875
592.87633	9060.9875
596.888	9248.3875
600.89682	9592.4875
604.9028	10593.5875
608.90594	12520.5875
612.90624	14305.7875
616.90371	13248.7875
620.89834	10638.7875
624.89015	9623.5875
628.87913	9610.2875
632.86528	9664.7875
636.84862	9685.0875
640.82913	9423.8875
644.80683	9116.6875
648.78172	8928.9875
652.75379	8964.1875
656.72306	9202.2875
660.68952	9465.1875
664.65319	9424.9875
668.61405	9361.8875
672.57211	9427.4875
676.52738	9407.6875
680.47986	9201.4875
684.42955	9046.9875
688.37646	8997.4875
692.32058	9094.8875
696.26192	9252.3875
700.20048	9417.1875
704.13626	9449.3875
708.06928	9333.1875
711.99952	9201.8875
715.927	9206.9875
719.85171	9288.0875
723.77365	9268.3875
727.69284	9190.6875
731.60928	9111.1875
735.52295	9118.3875
739.43388	9176.9875
743.34206	9216.8875
747.24749	9234.2875
751.15017	9212.2875
755.05012	9343.3875
758.94733	9620.5875
762.8418	10301.3875
766.73354	11326.4875
770.62254	12185.7875
774.50882	12372.1875
778.39237	11976.4875
782.27321	11301.7875
786.15132	10472.5875
790.02671	9874.3875
793.89938	9550.6875
797.76935	9398.1875
801.6366	9310.3875
805.50115	9264.7875
809.36299	9226.1875
813.22213	9214.1875
817.07857	9199.7875
820.93231	9192.5875
824.78336	9196.7875
828.63172	9200.1875
832.47738	9232.1875
836.32036	9213.7875
840.16066	9227.8875
843.99827	9256.9875
847.8332	9250.1875
851.66546	9250.0875
855.49504	9242.4875
859.32195	9260.5875
863.1462	9255.5875
866.96777	9244.9875
870.78668	9245.9875
874.60293	9258.9875
878.41652	9305.8875
882.22745	9374.4875
886.03573	9419.2875
889.84136	9392.5875
893.64433	9380.1875
897.44466	9332.7875
901.24235	9317.8875
905.0374	9306.5875
908.8298	9244.5875
912.61957	9274.7875
916.40671	9295.4875
920.19121	9328.0875
923.97308	9400.4875
927.75233	9489.5875
931.52895	9586.6875
935.30295	9520.6875
939.07433	9370.3875
942.84309	9284.5875
946.60924	9249.9875
950.37278	9237.4875
954.13371	9205.8875
957.89203	9183.1875
961.64774	9167.3875
965.40086	9166.7875
969.15137	9136.2875
972.89929	9166.5875
976.64461	9168.1875
980.38733	9161.5875
984.12747	9197.6875
987.86502	9255.2875
991.59999	9332.8875
995.33237	9452.3875
999.06217	9642.2875
1002.78939	9819.6875
1006.51404	9966.4875
1010.23611	10075.3875
1013.95561	10193.1875
1017.67255	10258.6875
1021.38692	10232.8875
1025.09872	10214.9875
1028.80796	10255.1875
1032.51465	10365.0875
1036.21877	10481.3875
1039.92035	10456.9875
1043.61937	10389.2875
1047.31584	10284.7875
1051.00976	10173.5875
1054.70114	10139.3875
1058.38998	10150.1875
1062.07627	10182.7875
1065.76003	10246.0875
1069.44126	10313.9875
1073.11995	10504.2875
1076.79611	10672.1875
1080.46974	10782.7875
1084.14085	10872.7875
1087.80943	10977.1875
1091.47549	11005.0875
1095.13903	10986.7875
1098.80005	10989.7875
1102.45857	11042.0875
1106.11456	10988.7875
1109.76805	10890.6875
1113.41903	10847.2875
1117.06751	10965.0875
1120.71348	11109.6875
1124.35696	11268.0875
1127.99793	11376.1875
1131.63641	11218.9875
1135.2724	10963.4875
1138.90589	10743.2875
1142.5369	10592.4875
1146.16542	10475.9875
1149.79145	10415.0875
1153.415	10337.0875
1157.03607	10323.7875
1160.65467	10432.3875
1164.27079	10639.3875
1167.88443	10930.1875
1171.49561	11455.4875
1175.10432	12181.2875
1178.71056	13092.5875
1182.31434	13925.8875
1185.91565	14318.5875
1189.51451	14328.8875
1193.11091	14103.4875
1196.70485	13735.6875
1200.29634	13335.8875
1203.88538	12931.4875
1207.47197	12472.0875
1211.05612	12016.7875
1214.63782	11645.6875
1218.21708	11456.8875
1221.79391	11356.7875
1225.36829	11351.0875
1228.94024	11334.0875
1232.50976	11274.3875
1236.07685	11223.4875
1239.6415	11221.3875
1243.20374	11278.4875
1246.76355	11338.8875
1250.32093	11463.2875
1253.8759	11666.0875
1257.42845	11964.9875
1260.97859	12285.5875
1264.52631	12599.7875
1268.07163	12829.2875
1271.61453	13024.2875
1275.15503	13134.7875
1278.69312	13207.2875
1282.22882	13330.1875
1285.76211	13447.0875
1289.29301	13578.6875
1292.82151	13784.9875
1296.34761	14017.6875
1299.87133	14433.8875
1303.39266	15246.1875
1306.9116	16378.5875
1310.42815	17583.4875
1313.94233	18139.7875
1317.45412	17741.3875
1320.96354	16862.6875
1324.47058	15938.6875
1327.97525	15156.3875
1331.47754	14664.9875
1334.97747	14521.6875
1338.47502	14682.8875
1341.97022	15089.7875
1345.46305	15832.3875
1348.95352	16820.6875
1352.44163	17837.0875
1355.92738	18932.4875
1359.41078	20122.5875
1362.89183	20889.9875
1366.37053	19879.2875
1369.84688	17445.6875
1373.32088	15216.0875
1376.79254	13981.2875
1380.26186	13383.8875
1383.72883	13033.4875
1387.19347	12697.7875
1390.65578	12336.9875
1394.11575	12029.6875
1397.57339	11789.9875
1401.0287	11728.7875
1404.48168	11735.4875
1407.93234	11854.9875
1411.38068	12040.9875
1414.82669	12196.9875
1418.27039	12233.2875
1421.71177	12165.1875
1425.15083	12087.8875
1428.58758	12036.1875
1432.02203	12128.1875
1435.45416	12218.8875
1438.88399	12204.6875
1442.31151	12178.4875
1445.73673	12133.0875
1449.15965	12119.0875
1452.58027	12032.6875
1455.9986	12013.5875
1459.41463	12002.2875
1462.82837	12088.5875
1466.23982	12281.8875
1469.64898	12494.7875
1473.05586	12652.1875
1476.46045	12803.8875
1479.86276	12939.6875
1483.26279	13065.5875
1486.66054	13263.9875
1490.05602	13563.3875
1493.44922	14060.2875
1496.84016	14806.9875
1500.22882	15828.6875
1503.61521	17065.3875
1506.99934	18229.9875
1510.38121	18849.9875
1513.76081	18562.4875
1517.13816	17367.5875
1520.51324	15882.0875
1523.88607	14667.1875
1527.25665	13916.5875
1530.62498	13544.3875
1533.99105	13369.7875
1537.35488	13262.0875
1540.71647	13202.8875
1544.07581	13083.7875
1547.4329	12961.4875
1550.78776	12799.7875
1554.14038	12679.8875
1557.49077	12638.0875
1560.83892	12723.7875
1564.18484	12961.4875
1567.52853	13187.2875
1570.86999	13320.1875
1574.20922	13342.7875
1577.54624	13171.0875
1580.88103	12745.4875
1584.2136	12277.6875
1587.54395	12071.4875
1590.87208	12251.4875
1594.19801	12810.8875
1597.52172	13416.4875
1600.84321	13736.4875
1604.16251	13608.5875
1607.47959	13293.7875
1610.79447	12793.8875
1614.10715	12140.0875
1617.41763	11519.0875
1620.7259	11084.5875
1624.03199	10847.0875
1627.33587	10799.4875
1630.63757	10949.6875
1633.93707	11404.0875
1637.23439	12090.2875
1640.52951	13113.6875
1643.82246	14337.2875
1647.11321	15429.8875
1650.40179	15720.9875
1653.68819	14824.4875
1656.97241	13220.9875
1660.25446	11703.4875
1663.53433	10697.9875
1666.81203	10112.1875
1670.08756	9765.0875
1673.36092	9535.0875
1676.63211	9396.1875
1679.90115	9273.4875
1683.16801	9187.2875
1686.43272	9095.4875
1689.69527	9050.7875
1692.95567	8989.8875
1696.2139	8957.8875
1699.46999	8952.0875
1702.72392	8926.7875
1705.97571	8918.8875
1709.22535	8933.3875
1712.47284	8939.0875
1715.71819	8916.2875
1718.96139	8922.2875
1722.20246	8908.7875
1725.44139	8879.5875
1728.67818	8811.2875
1731.91284	8756.9875
1735.14537	8728.7875
1738.37576	8697.5875
1741.60403	8669.9875
1744.83017	8649.8875
1748.05418	8639.3875
1751.27607	8649.6875
1754.49584	8622.6875
1757.71349	8605.8875
1760.92903	8584.8875
1764.14244	8578.5875
1767.35375	8539.2875
1770.56294	8522.7875
1773.77002	8527.5875
1776.97499	8489.8875
1780.17785	8467.9875
1783.37861	8460.4875
1786.57727	8460.5875
1789.77382	8445.6875
1792.96828	8444.9875
1796.16064	8407.6875
1799.3509	8382.3875
1802.53907	8409.5875
1805.72514	8368.3875
1808.90913	8369.8875
1812.09102	8334.6875
1815.27083	8307.6875
1818.44856	8298.5875
1821.6242	8266.3875
1824.79776	8258.0875
1827.96924	8269.7875
1831.13864	8252.9875
1834.30597	8224.6875
1837.47122	8189.4875
1840.6344	8194.3875
1843.7955	8206.6875
1846.95454	8177.2875
1850.11151	8186.5875
1853.26642	8186.2875
1856.41926	8164.4875
1859.57004	8172.0875
1862.71876	8172.8875
1865.86542	8171.7875
1869.01003	8164.9875
1872.15258	8137.8875
1875.29308	8133.2875
1878.43152	8135.1875
1881.56792	8122.4875
1884.70227	8103.5875
1887.83457	8091.5875
1890.96482	8062.8875
1894.09304	8040.0875
1897.21921	8036.7875
1900.34335	8040.8875
1903.46544	8024.0875
1906.58551	8026.3875
1909.70353	8014.7875
1912.81953	8003.3875
1915.93349	8001.1875
1919.04543	7971.0875
1922.15534	7957.5875
1925.26322	7966.1875
1928.36908	7948.7875
1931.47292	7919.4875
1934.57473	7909.3875
1937.67453	7889.6875
1940.77232	7882.1875
1943.86808	7844.9875
1946.96184	7812.8875
1950.05358	7829.8875
1953.14331	7791.7875
1956.23103	7765.4875
1959.31675	7731.5875
1962.40046	7712.9875
1965.48217	7681.3875
1968.56188	7658.8875
1971.63959	7650.4875
1974.7153	7622.5875
1977.78901	7610.7875
1980.86073	7619.8875
1983.93046	7576.8875
1986.99819	7542.1875
1990.06394	7520.2875
1993.1277	7501.8875
1996.18947	7460.9875
1999.24925	7425.7875
2002.30706	7416.8875
2005.36288	7382.1875
2008.41672	7368.7875
2011.46859	7354.3875
2014.51848	7322.5875
2017.56639	7282.0875
2020.61233	7274.2875
2023.6563	7265.7875
2026.6983	7233.4875
2029.73833	7228.6875
2032.7764	7200.7875
2035.8125	7180.7875
2038.84664	7188.4875
2041.87881	7166.5875
2044.90903	7175.6875
2047.93729	7153.9875
2050.96359	7137.6875
2053.98794	7129.8875
2057.01034	7107.6875
2060.03078	7098.5875
2063.04927	7089.4875
2066.06582	7090.8875
2069.08042	7063.6875
2072.09307	7089.0875
2075.10378	7063.0875
2078.11255	7064.6875
2081.11938	7044.5875
2084.12426	7028.7875
2087.12722	7022.4875
2090.12824	7024.8875
2093.12732	7036.4875
2096.12447	7025.6875
2099.11969	7044.2875
2102.11299	7050.5875
2105.10435	7052.2875
2108.09379	7018.3875
2111.08131	7054.1875
2114.0669	7049.5875
2117.05057	7053.2875
2120.03233	7070.7875
2123.01216	7064.7875
2125.99008	7062.6875
2128.96609	7070.1875
2131.94018	7073.6875
2134.91236	7064.0875
2137.88263	7060.5875
2140.851	7056.5875
2143.81746	7064.0875
2146.78201	7065.7875
2149.74466	7064.2875
2152.7054	7059.7875
2155.66425	7063.3875
2158.6212	7051.1875
2161.57625	7046.7875
2164.52941	7052.2875
2167.48067	7030.7875
2170.43004	7023.0875
2173.37752	7035.1875
2176.32311	7031.6875
2179.26681	7046.6875
2182.20863	7040.2875
2185.14856	7038.0875
2188.08661	7058.0875
2191.02278	7035.2875
2193.95707	7028.2875
2196.88948	7030.5875
2199.82001	7005.7875
2202.74867	7006.1875
2205.67545	7020.8875
2208.60037	6992.2875
2211.52341	6976.4875
2214.44458	6970.9875
2217.36388	6948.9875
2220.28132	6948.5875
2223.1969	6909.7875
2226.11061	6913.0875
2229.02246	6883.3875
2231.93245	6908.7875
2234.84058	6869.5875
2237.74686	6859.6875
2240.65128	6849.2875
2243.55385	6833.8875
2246.45456	6832.2875
2249.35343	6805.3875
2252.25044	6774.1875
2255.14561	6792.0875
2258.03893	6800.1875
2260.93041	6770.1875
2263.82004	6777.4875
2266.70783	6751.3875
2269.59378	6733.2875
2272.4779	6705.4875
2275.36017	6693.2875
2278.24061	6693.2875
2281.11922	6663.4875
2283.996	6652.2875
2286.87094	6649.2875
2289.74405	6634.7875
2292.61534	6635.0875
2295.4848	6615.5875
2298.35243	6607.8875
2301.21824	6615.4875
2304.08223	6602.4875
2306.94439	6621.9875
2309.80474	6592.7875
2312.66327	6572.6875
2315.51999	6585.5875
2318.37489	6602.9875
2321.22797	6586.6875
2324.07925	6542.7875
2326.92871	6548.3875
2329.77637	6560.3875
2332.62222	6533.0875
2335.46626	6518.9875
2338.3085	6519.6875
2341.14893	6517.5875
2343.98756	6523.1875
2346.8244	6530.0875
2349.65943	6499.2875
2352.49267	6503.3875
2355.32411	6505.5875
2358.15376	6477.0875
2360.98161	6476.6875
2363.80768	6488.9875
2366.63195	6470.7875
2369.45444	6461.4875
2372.27514	6467.3875
2375.09405	6438.2875
2377.91118	6429.2875
2380.72652	6433.1875
2383.54009	6392.8875
2386.35187	6395.7875
2389.16188	6392.8875
2391.97011	6352.8875
2394.77657	6343.7875
2397.58125	6318.3875
2400.38416	6309.8875
2403.18529	6319.3875
2405.98466	6302.5875
2408.78226	6278.0875
2411.57809	6261.4875
2414.37216	6268.2875
2417.16446	6267.4875
2419.955	6247.0875
2422.74378	6245.6875
2425.5308	6226.2875
2428.31606	6235.5875
2431.09956	6234.2875
2433.88131	6227.3875
2436.6613	6206.8875
2439.43954	6204.8875
2442.21603	6202.0875
2444.99077	6200.9875
2447.76377	6220.3875
2450.53501	6203.9875
2453.30451	6196.4875
2456.07226	6185.6875
2458.83827	6170.0875
2461.60254	6164.3875
2464.36507	6157.4875
2467.12586	6137.1875
2469.88492	6127.7875
2472.64224	6143.7875
2475.39782	6150.7875
2478.15167	6130.3875
2480.90379	6122.1875
2483.65417	6108.4875
2486.40283	6112.3875
2489.14976	6143.4875
2491.89497	6120.4875
2494.63845	6132.6875
2497.3802	6127.7875
2500.12024	6097.1875
2502.85855	6107.4875
2505.59514	6104.3875
2508.33002	6086.3875
2511.06318	6080.9875
2513.79462	6051.3875
2516.52435	6053.0875
2519.25237	6057.3875
2521.97867	6020.2875
2524.70327	6022.9875
2527.42616	6011.0875
2530.14734	6002.0875
2532.86681	6001.0875
2535.58458	5997.8875
2538.30065	6014.1875
2541.01501	5990.6875
2543.72768	5979.3875
2546.43864	5977.2875
2549.14791	5960.8875
2551.85548	5940.9875
2554.56136	5944.1875
2557.26554	5947.4875
2559.96803	5941.5875
2562.66883	5900.1875
2565.36794	5908.3875
2568.06536	5881.0875
2570.7611	5872.3875
2573.45514	5862.2875
2576.14751	5866.1875
2578.83819	5853.3875
2581.52719	5854.5875
2584.21451	5842.0875
2586.90015	5854.1875
2589.58411	5818.2875
2592.2664	5820.0875
2594.94701	5800.1875
2597.62594	5796.7875
2600.30321	5785.5875
2602.9788	5796.8875
2605.65273	5786.9875
2608.32498	5788.2875
2610.99557	5747.8875
2613.66449	5766.4875
2616.33175	5759.5875
2618.99734	5747.5875
2621.66128	5737.6875
2624.32355	5736.0875
2626.98416	5733.1875
2629.64311	5716.4875
2632.30041	5742.2875
2634.95605	5700.7875
2637.61004	5700.8875
2640.26238	5675.8875
2642.91306	5698.3875
2645.56209	5680.6875
2648.20948	5670.8875
2650.85521	5658.8875
2653.4993	5654.7875
2656.14175	5657.2875
2658.78255	5641.0875
2661.42171	5647.0875
2664.05923	5652.4875
2666.6951	5650.7875
2669.32934	5676.4875
2671.96194	5657.3875
2674.59291	5666.7875
2677.22224	5665.5875
2679.84993	5669.9875
2682.476	5650.0875
2685.10043	5657.9875
2687.72324	5637.9875
2690.34441	5643.0875
2692.96396	5646.0875
2695.58188	5626.9875
2698.19818	5620.7875
2700.81285	5630.7875
2703.4259	5626.3875
2706.03733	5599.1875
2708.64714	5614.8875
2711.25533	5601.2875
2713.86191	5598.7875
2716.46687	5614.1875
2719.07021	5607.0875
2721.67194	5615.5875
2724.27206	5614.7875
2726.87057	5623.7875
2729.46747	5615.9875
2732.06276	5613.1875
2734.65644	5591.2875
2737.24852	5584.3875
2739.83899	5577.6875
2742.42786	5572.6875
2745.01513	5554.1875
2747.60079	5542.6875
2750.18486	5539.8875
2752.76733	5524.1875
2755.3482	5531.6875
2757.92747	5520.2875
2760.50515	5500.1875
2763.08123	5511.2875
2765.65573	5497.5875
2768.22863	5481.4875
2770.79994	5480.2875
2773.36967	5475.3875
2775.9378	5461.2875
2778.50435	5457.1875
2781.06932	5457.6875
2783.6327	5469.6875
2786.1945	5474.6875
2788.75471	5447.2875
2791.31335	5418.1875
2793.87041	5415.5875
2796.42589	5391.3875
2798.97979	5383.0875
2801.53212	5363.9875
2804.08288	5374.0875
2806.63206	5353.1875
2809.17967	5357.7875
2811.72571	5349.8875
2814.27018	5337.0875
2816.81308	5332.3875
2819.35442	5314.3875
2821.89419	5310.3875
2824.43239	5286.0875
2826.96904	5288.7875
2829.50412	5285.6875
2832.03763	5264.1875
2834.56959	5267.9875
2837.1	5231.9875
2839.62884	5230.6875
2842.15613	5244.1875
2844.68186	5237.3875
2847.20604	5242.5875
2849.72867	5233.6875
2852.24974	5215.1875
2854.76927	5189.0875
2857.28724	5181.3875
2859.80367	5180.4875
2862.31855	5168.9875
2864.83189	5183.0875
2867.34368	5169.7875
2869.85393	5163.7875
2872.36264	5154.6875
2874.8698	5152.4875
2877.37543	5149.5875
2879.87952	5142.9875
2882.38207	5137.1875
2884.88308	5132.8875
2887.38256	5143.7875
2889.88051	5111.3875
2892.37692	5106.1875
2894.8718	5122.5875
2897.36515	5123.1875
2899.85698	5105.5875
2902.34727	5125.4875
2904.83604	5121.7875
2907.32328	5140.1875
2909.809	5124.2875
2912.29319	5153.4875
2914.77587	5135.8875
2917.25702	5131.3875
2919.73665	5145.4875
2922.21476	5117.8875
2924.69136	5109.8875
2927.16644	5111.4875
2929.64	5094.5875
2932.11205	5085.6875
2934.58258	5076.5875
2937.05161	5076.7875
2939.51912	5075.1875
2941.98513	5070.2875
2944.44962	5068.0875
2946.91261	5029.4875
2949.37409	5062.3875
2951.83407	5045.6875
2954.29254	5041.9875
2956.74951	5034.4875
2959.20498	5042.8875
2961.65895	5032.6875
2964.11142	5035.9875
2966.56239	5039.3875
2969.01186	5042.3875
2971.45984	5025.7875
2973.90632	5023.2875
2976.35131	4998.9875
2978.7948	5003.4875
2981.23681	4976.9875
2983.67732	4963.3875
2986.11635	4957.7875
2988.55388	4943.3875
2990.98993	4925.2875
2993.4245	4920.0875
2995.85758	4912.1875
2998.28917	4871.3875
3000.71928	4888.1875
3003.14791	4874.4875
3005.57506	4853.4875
3008.00073	4831.6875
3010.42493	4828.0875
3012.84764	4803.1875
3015.26888	4815.5875
3017.68865	4805.7875
3020.10694	4805.1875
3022.52376	4780.2875
3024.9391	4781.0875
3027.35298	4746.2875
3029.76539	4734.6875
3032.17632	4731.8875
3034.5858	4747.9875
3036.9938	4733.7875
3039.40034	4697.2875
3041.80542	4710.9875
3044.20903	4683.5875
3046.61118	4688.0875
3049.01187	4654.1875
3051.4111	4666.5875
3053.80888	4665.6875
3056.20519	4642.0875
3058.60005	4634.2875
3060.99345	4620.6875
3063.3854	4609.5875
3065.7759	4585.6875
3068.16494	4595.7875
3070.55254	4568.0875
3072.93868	4547.9875
3075.32338	4538.8875
3077.70662	4534.9875
3080.08842	4533.6875
3082.46878	4520.4875
3084.84769	4511.1875
3087.22515	4501.8875
3089.60118	4483.9875
3091.97576	4498.1875
3094.3489	4479.1875
3096.72061	4491.3875
3099.09087	4478.2875
3101.4597	4478.5875
3103.82709	4468.7875
3106.19305	4465.6875
