Data from AgNPs_UA_5uM_CRN_500uM_SU_RamanShift__206__12-03-43-181.txt Node

Date: Thu Aug 04 12:03:43 BST 2022
User: TCL
Spectrometer: QEP01345
Trigger mode: 4
Integration Time (sec): 1.000000E0
Scans to average: 10
Electric dark correction enabled: true
Nonlinearity correction enabled: false
Boxcar width: 0
XAxis mode: Raman Shifts
Number of Pixels in Spectrum: 1044
>>>>>Begin Spectral Data<<<<<
46.04893	0.6375
50.45542	-0.6625
54.85868	-0.0625
59.25871	-1.3625
63.6555	-58.0625
68.04907	-39.9625
72.43941	-72.6625
76.82654	-55.9625
81.21044	-56.2625
85.59113	-48.8625
89.96862	-75.0625
94.34289	-54.7625
98.71396	-76.7625
103.08183	-58.6625
107.4465	-49.7625
111.80798	-55.5625
116.16626	-43.6625
120.52136	-74.0625
124.87327	-49.7625
129.222	-61.4625
133.56755	-50.1625
137.90993	-63.2625
142.24913	-49.1625
146.58517	-43.5625
150.91804	-39.3625
155.24774	-30.7625
159.57429	-9.2625
163.89768	-6.3625
168.21792	37.2375
172.53501	62.5375
176.84895	144.7375
181.15975	273.8375
185.46741	422.6375
189.77193	608.1375
194.07331	896.6375
198.37157	1191.6375
202.6667	1471.7375
206.9587	1796.6375
211.24758	2122.2375
215.53334	2434.9375
219.81599	2797.5375
224.09553	3199.2375
228.37195	3641.6375
232.64527	4118.1375
236.91549	4573.8375
241.18261	4942.0375
245.44663	5214.0375
249.70755	5387.3375
253.96539	5512.3375
258.22014	5621.8375
262.4718	5690.4375
266.72039	5741.3375
270.96589	5707.3375
275.20832	5612.1375
279.44768	5513.9375
283.68397	5387.2375
287.91719	5327.8375
292.14735	5379.6375
296.37445	5526.9375
300.59849	5824.4375
304.81948	6178.2375
309.03742	6558.3375
313.25231	6787.6375
317.46415	6757.3375
321.67296	6349.1375
325.87872	5934.9375
330.08145	5745.7375
334.28114	5713.6375
338.47781	5773.4375
342.67145	5912.1375
346.86207	6139.8375
351.04966	6502.4375
355.23424	6909.2375
359.4158	7184.2375
363.59435	7203.4375
367.76989	7153.9375
371.94243	7014.7375
376.11196	6874.7375
380.27849	6805.8375
384.44203	6737.8375
388.60257	6702.6375
392.76012	6705.8375
396.91468	6832.4375
401.06626	6990.9375
405.21485	7026.9375
409.36047	6857.4375
413.50311	6528.6375
417.64277	6238.7375
421.77947	6012.7375
425.9132	5960.0375
430.04396	5948.7375
434.17176	5990.8375
438.2966	6080.3375
442.41849	6173.1375
446.53742	6271.6375
450.6534	6376.6375
454.76644	6458.6375
458.87653	6471.5375
462.98368	6445.6375
467.08789	6369.5375
471.18916	6267.8375
475.2875	6148.6375
479.38291	6065.0375
483.4754	5955.4375
487.56496	5916.5375
491.6516	5876.6375
495.73531	5891.2375
499.81612	5919.7375
503.89401	6003.5375
507.96899	6054.5375
512.04106	6134.1375
516.11023	6245.0375
520.1765	6326.7375
524.23987	6350.4375
528.30034	6360.2375
532.35792	6268.1375
536.41261	6221.1375
540.46441	6122.7375
544.51333	6068.3375
548.55936	6121.3375
552.60252	6213.5375
556.64279	6350.2375
560.6802	6464.0375
564.71473	6611.6375
568.7464	6821.8375
572.7752	6785.0375
576.80114	6466.2375
580.82422	6236.7375
584.84444	6119.4375
588.86181	6118.2375
592.87633	6133.6375
596.888	6271.0375
600.89682	6630.9375
604.9028	7637.7375
608.90594	9739.6375
612.90624	12104.4375
616.90371	11208.2375
620.89834	8091.1375
624.89015	6760.2375
628.87913	6563.0375
632.86528	6714.9375
636.84862	6855.2375
640.82913	6738.6375
644.80683	6393.0375
648.78172	6198.5375
652.75379	6224.9375
656.72306	6482.2375
660.68952	6705.2375
664.65319	6613.2375
668.61405	6403.8375
672.57211	6330.8375
676.52738	6324.4375
680.47986	6225.0375
684.42955	6142.7375
688.37646	6067.7375
692.32058	6114.5375
696.26192	6162.1375
700.20048	6263.2375
704.13626	6302.7375
708.06928	6246.0375
711.99952	6222.9375
715.927	6183.6375
719.85171	6232.9375
723.77365	6299.5375
727.69284	6249.3375
731.60928	6243.3375
735.52295	6213.4375
739.43388	6268.0375
743.34206	6273.9375
747.24749	6281.2375
751.15017	6306.5375
755.05012	6387.7375
758.94733	6777.2375
762.8418	7647.3375
766.73354	8984.2375
770.62254	9994.7375
774.50882	10067.2375
778.39237	9537.3375
782.27321	8609.2375
786.15132	7563.0375
790.02671	6860.6375
793.89938	6485.1375
797.76935	6360.1375
801.6366	6262.7375
805.50115	6228.0375
809.36299	6215.5375
813.22213	6202.1375
817.07857	6206.5375
820.93231	6216.8375
824.78336	6229.3375
828.63172	6266.6375
832.47738	6266.2375
836.32036	6259.9375
840.16066	6220.4375
843.99827	6215.9375
847.8332	6199.6375
851.66546	6219.0375
855.49504	6211.1375
859.32195	6224.2375
863.1462	6214.5375
866.96777	6241.3375
870.78668	6224.1375
874.60293	6248.1375
878.41652	6260.7375
882.22745	6351.0375
886.03573	6365.3375
889.84136	6371.9375
893.64433	6370.7375
897.44466	6334.5375
901.24235	6357.8375
905.0374	6332.5375
908.8298	6279.2375
912.61957	6253.0375
916.40671	6206.9375
920.19121	6268.1375
923.97308	6351.8375
927.75233	6401.1375
931.52895	6481.5375
935.30295	6423.0375
939.07433	6292.1375
942.84309	6171.2375
946.60924	6143.6375
950.37278	6101.3375
954.13371	6114.1375
957.89203	6087.2375
961.64774	6104.2375
965.40086	6088.4375
969.15137	6078.0375
972.89929	6099.7375
976.64461	6105.0375
980.38733	6111.2375
984.12747	6118.7375
987.86502	6126.4375
991.59999	6141.7375
995.33237	6221.6375
999.06217	6305.6375
1002.78939	6366.3375
1006.51404	6498.2375
1010.23611	6623.4375
1013.95561	6662.1375
1017.67255	6662.3375
1021.38692	6641.1375
1025.09872	6581.2375
1028.80796	6494.2375
1032.51465	6495.9375
1036.21877	6471.6375
1039.92035	6538.5375
1043.61937	6577.4375
1047.31584	6610.2375
1051.00976	6667.6375
1054.70114	6666.6375
1058.38998	6666.7375
1062.07627	6664.9375
1065.76003	6702.1375
1069.44126	6771.2375
1073.11995	6823.2375
1076.79611	6984.7375
1080.46974	7150.7375
1084.14085	7311.6375
1087.80943	7424.9375
1091.47549	7471.3375
1095.13903	7392.2375
1098.80005	7261.2375
1102.45857	7166.6375
1106.11456	7142.6375
1109.76805	7060.9375
1113.41903	7182.7375
1117.06751	7371.8375
1120.71348	7621.4375
1124.35696	8010.2375
1127.99793	8298.8375
1131.63641	8111.5375
1135.2724	7744.1375
1138.90589	7417.5375
1142.5369	7214.3375
1146.16542	7110.0375
1149.79145	7015.7375
1153.415	6962.1375
1157.03607	6944.6375
1160.65467	7061.0375
1164.27079	7264.7375
1167.88443	7524.9375
1171.49561	7951.7375
1175.10432	8568.2375
1178.71056	9493.2375
1182.31434	10297.7375
1185.91565	10528.5375
1189.51451	10388.0375
1193.11091	10128.8375
1196.70485	9883.0375
1200.29634	9639.4375
1203.88538	9355.9375
1207.47197	8896.1375
1211.05612	8428.3375
1214.63782	8000.3375
1218.21708	7773.6375
1221.79391	7610.6375
1225.36829	7552.8375
1228.94024	7526.3375
1232.50976	7541.1375
1236.07685	7583.8375
1239.6415	7587.2375
1243.20374	7602.1375
1246.76355	7650.2375
1250.32093	7744.5375
1253.8759	7796.5375
1257.42845	7998.5375
1260.97859	8211.5375
1264.52631	8404.8375
1268.07163	8570.9375
1271.61453	8720.1375
1275.15503	8771.2375
1278.69312	8749.5375
1282.22882	8830.6375
1285.76211	9017.3375
1289.29301	9301.6375
1292.82151	9559.1375
1296.34761	9782.9375
1299.87133	10191.0375
1303.39266	10896.0375
1306.9116	12045.2375
1310.42815	13305.3375
1313.94233	13752.4375
1317.45412	12924.7375
1320.96354	11776.1375
1324.47058	10779.8375
1327.97525	10001.2375
1331.47754	9592.0375
1334.97747	9475.0375
1338.47502	9595.0375
1341.97022	9992.1375
1345.46305	10734.5375
1348.95352	11814.8375
1352.44163	13117.9375
1355.92738	14497.9375
1359.41078	16207.2375
1362.89183	17684.2375
1366.37053	17038.6375
1369.84688	14152.0375
1373.32088	11433.8375
1376.79254	10031.5375
1380.26186	9352.0375
1383.72883	8925.2375
1387.19347	8530.9375
1390.65578	8165.4375
1394.11575	7940.8375
1397.57339	7768.9375
1401.0287	7642.1375
1404.48168	7615.6375
1407.93234	7643.5375
1411.38068	7658.1375
1414.82669	7724.4375
1418.27039	7799.0375
1421.71177	7816.9375
1425.15083	7716.6375
1428.58758	7613.6375
1432.02203	7663.8375
1435.45416	7751.6375
1438.88399	7741.0375
1442.31151	7731.9375
1445.73673	7788.2375
1449.15965	7849.3375
1452.58027	7873.5375
1455.9986	7863.7375
1459.41463	7869.6375
1462.82837	7995.6375
1466.23982	8156.4375
1469.64898	8361.2375
1473.05586	8513.7375
1476.46045	8617.1375
1479.86276	8696.0375
1483.26279	8794.8375
1486.66054	8979.1375
1490.05602	9277.7375
1493.44922	9806.6375
1496.84016	10714.3375
1500.22882	12105.1375
1503.61521	13835.2375
1506.99934	15656.1375
1510.38121	16910.3375
1513.76081	16745.3375
1517.13816	15145.0375
1520.51324	12987.8375
1523.88607	11265.0375
1527.25665	10256.4375
1530.62498	9740.8375
1533.99105	9540.4375
1537.35488	9416.0375
1540.71647	9290.4375
1544.07581	9186.3375
1547.4329	9044.4375
1550.78776	8927.9375
1554.14038	8839.1375
1557.49077	8799.6375
1560.83892	8909.0375
1564.18484	9130.3375
1567.52853	9497.8375
1570.86999	9799.1375
1574.20922	9964.0375
1577.54624	9834.3375
1580.88103	9303.4375
1584.2136	8630.8375
1587.54395	8247.2375
1590.87208	8173.7375
1594.19801	8337.1375
1597.52172	8727.9375
1600.84321	8876.9375
1604.16251	8740.0375
1607.47959	8520.4375
1610.79447	8329.0375
1614.10715	8028.0375
1617.41763	7742.6375
1620.7259	7464.8375
1624.03199	7304.6375
1627.33587	7238.4375
1630.63757	7272.0375
1633.93707	7537.4375
1637.23439	7947.2375
1640.52951	8649.8375
1643.82246	9633.7375
1647.11321	10829.7375
1650.40179	11519.9375
1653.68819	11197.9375
1656.97241	9949.1375
1660.25446	8518.6375
1663.53433	7514.6375
1666.81203	6893.3375
1670.08756	6549.6375
1673.36092	6395.5375
1676.63211	6232.5375
1679.90115	6146.0375
1683.16801	6059.4375
1686.43272	5953.6375
1689.69527	5921.1375
1692.95567	5852.5375
1696.2139	5836.9375
1699.46999	5791.2375
1702.72392	5790.9375
1705.97571	5803.5375
1709.22535	5773.0375
1712.47284	5819.1375
1715.71819	5830.2375
1718.96139	5833.6375
1722.20246	5806.3375
1725.44139	5787.6375
1728.67818	5761.5375
1731.91284	5691.3375
1735.14537	5682.1375
1738.37576	5635.2375
1741.60403	5605.4375
1744.83017	5586.4375
1748.05418	5588.6375
1751.27607	5589.6375
1754.49584	5556.7375
1757.71349	5531.0375
1760.92903	5535.1375
1764.14244	5473.9375
1767.35375	5495.7375
1770.56294	5475.4375
1773.77002	5455.2375
1776.97499	5448.1375
1780.17785	5440.5375
1783.37861	5417.4375
1786.57727	5430.4375
1789.77382	5388.7375
1792.96828	5396.1375
1796.16064	5412.5375
1799.3509	5384.8375
1802.53907	5401.2375
1805.72514	5373.7375
1808.90913	5337.0375
1812.09102	5354.0375
1815.27083	5337.0375
1818.44856	5311.4375
1821.6242	5310.1375
1824.79776	5291.2375
1827.96924	5264.5375
1831.13864	5266.7375
1834.30597	5270.0375
1837.47122	5259.5375
1840.6344	5244.3375
1843.7955	5217.4375
1846.95454	5203.4375
1850.11151	5238.1375
1853.26642	5203.4375
1856.41926	5206.6375
1859.57004	5209.1375
1862.71876	5192.8375
1865.86542	5193.2375
1869.01003	5182.8375
1872.15258	5145.0375
1875.29308	5168.1375
1878.43152	5175.8375
1881.56792	5161.7375
1884.70227	5144.3375
1887.83457	5137.3375
1890.96482	5106.2375
1894.09304	5110.6375
1897.21921	5111.4375
1900.34335	5130.8375
1903.46544	5101.1375
1906.58551	5114.4375
1909.70353	5095.3375
1912.81953	5100.9375
1915.93349	5083.4375
1919.04543	5048.4375
1922.15534	5033.8375
1925.26322	5038.6375
1928.36908	5028.5375
1931.47292	5050.5375
1934.57473	5047.7375
1937.67453	4988.9375
1940.77232	4974.8375
1943.86808	4970.1375
1946.96184	4960.3375
1950.05358	4937.3375
1953.14331	4925.7375
1956.23103	4934.5375
1959.31675	4898.8375
1962.40046	4839.7375
1965.48217	4853.8375
1968.56188	4855.7375
1971.63959	4844.2375
1974.7153	4847.4375
1977.78901	4828.2375
1980.86073	4805.8375
1983.93046	4759.2375
1986.99819	4685.2375
1990.06394	4704.3375
1993.1277	4736.9375
1996.18947	4716.5375
1999.24925	4674.8375
2002.30706	4689.0375
2005.36288	4647.7375
2008.41672	4635.2375
2011.46859	4610.3375
2014.51848	4614.7375
2017.56639	4591.3375
2020.61233	4575.2375
2023.6563	4579.1375
2026.6983	4529.6375
2029.73833	4540.0375
2032.7764	4539.8375
2035.8125	4500.4375
2038.84664	4508.8375
2041.87881	4478.2375
2044.90903	4490.8375
2047.93729	4479.4375
2050.96359	4442.0375
2053.98794	4460.4375
2057.01034	4468.5375
2060.03078	4439.3375
2063.04927	4436.4375
2066.06582	4437.3375
2069.08042	4426.4375
2072.09307	4444.1375
2075.10378	4433.5375
2078.11255	4411.2375
2081.11938	4411.4375
2084.12426	4412.1375
2087.12722	4392.5375
2090.12824	4394.6375
2093.12732	4390.4375
2096.12447	4405.5375
2099.11969	4393.8375
2102.11299	4382.5375
2105.10435	4404.2375
2108.09379	4409.1375
2111.08131	4380.3375
2114.0669	4393.6375
2117.05057	4396.1375
2120.03233	4396.5375
2123.01216	4420.5375
2125.99008	4400.8375
2128.96609	4414.0375
2131.94018	4435.4375
2134.91236	4401.8375
2137.88263	4413.0375
2140.851	4412.9375
2143.81746	4433.5375
2146.78201	4415.6375
2149.74466	4409.4375
2152.7054	4411.8375
2155.66425	4413.2375
2158.6212	4393.5375
2161.57625	4360.1375
2164.52941	4354.1375
2167.48067	4359.8375
2170.43004	4350.5375
2173.37752	4385.8375
2176.32311	4365.9375
2179.26681	4366.2375
2182.20863	4376.4375
2185.14856	4375.9375
2188.08661	4345.0375
2191.02278	4387.7375
2193.95707	4346.7375
2196.88948	4334.9375
2199.82001	4349.1375
2202.74867	4327.5375
2205.67545	4327.6375
2208.60037	4333.5375
2211.52341	4338.0375
2214.44458	4303.2375
2217.36388	4304.7375
2220.28132	4275.0375
2223.1969	4254.3375
2226.11061	4251.0375
2229.02246	4253.2375
2231.93245	4258.9375
2234.84058	4229.8375
2237.74686	4226.4375
2240.65128	4211.4375
2243.55385	4215.3375
2246.45456	4199.6375
2249.35343	4204.5375
2252.25044	4196.3375
2255.14561	4207.3375
2258.03893	4189.1375
2260.93041	4185.7375
2263.82004	4173.1375
2266.70783	4171.9375
2269.59378	4144.3375
2272.4779	4123.0375
2275.36017	4146.0375
2278.24061	4118.0375
2281.11922	4090.8375
2283.996	4109.9375
2286.87094	4076.6375
2289.74405	4094.7375
2292.61534	4076.1375
2295.4848	4068.5375
2298.35243	4064.5375
2301.21824	4054.2375
2304.08223	4048.6375
2306.94439	4074.3375
2309.80474	4058.8375
2312.66327	4053.0375
2315.51999	4038.1375
2318.37489	4018.1375
2321.22797	4000.9375
2324.07925	4007.2375
2326.92871	4000.5375
2329.77637	3977.2375
2332.62222	3970.0375
2335.46626	3952.9375
2338.3085	3943.0375
2341.14893	3972.9375
2343.98756	3965.4375
2346.8244	3941.6375
2349.65943	3929.6375
2352.49267	3949.5375
2355.32411	3934.1375
2358.15376	3935.0375
2360.98161	3940.9375
2363.80768	3919.7375
2366.63195	3930.0375
2369.45444	3950.4375
2372.27514	3947.9375
2375.09405	3956.4375
2377.91118	3907.5375
2380.72652	3904.9375
2383.54009	3892.2375
2386.35187	3900.4375
2389.16188	3879.8375
2391.97011	3874.8375
2394.77657	3849.9375
2397.58125	3853.5375
2400.38416	3854.8375
2403.18529	3843.1375
2405.98466	3812.0375
2408.78226	3820.7375
2411.57809	3801.8375
2414.37216	3798.4375
2417.16446	3790.2375
2419.955	3761.8375
2422.74378	3802.4375
2425.5308	3761.4375
2428.31606	3774.5375
2431.09956	3767.3375
2433.88131	3755.8375
2436.6613	3768.0375
2439.43954	3757.2375
2442.21603	3745.3375
2444.99077	3741.3375
2447.76377	3748.5375
2450.53501	3729.7375
2453.30451	3716.9375
2456.07226	3727.3375
2458.83827	3722.8375
2461.60254	3684.2375
2464.36507	3717.5375
2467.12586	3689.6375
2469.88492	3699.7375
2472.64224	3699.6375
2475.39782	3689.9375
2478.15167	3710.2375
2480.90379	3692.2375
2483.65417	3710.8375
2486.40283	3710.1375
2489.14976	3723.0375
2491.89497	3691.9375
2494.63845	3693.8375
2497.3802	3679.0375
2500.12024	3689.3375
2502.85855	3675.6375
2505.59514	3670.4375
2508.33002	3666.6375
2511.06318	3645.7375
2513.79462	3650.1375
2516.52435	3597.8375
2519.25237	3595.6375
2521.97867	3597.3375
2524.70327	3609.2375
2527.42616	3592.2375
2530.14734	3600.2375
2532.86681	3559.1375
2535.58458	3577.6375
2538.30065	3558.9375
2541.01501	3580.6375
2543.72768	3559.5375
2546.43864	3556.5375
2549.14791	3552.4375
2551.85548	3534.1375
2554.56136	3522.4375
2557.26554	3522.0375
2559.96803	3528.3375
2562.66883	3531.4375
2565.36794	3510.5375
2568.06536	3475.2375
2570.7611	3494.5375
2573.45514	3486.4375
2576.14751	3471.5375
2578.83819	3454.4375
2581.52719	3450.4375
2584.21451	3451.6375
2586.90015	3414.6375
2589.58411	3415.7375
2592.2664	3437.2375
2594.94701	3413.2375
2597.62594	3419.1375
2600.30321	3360.7375
2602.9788	3374.9375
2605.65273	3374.1375
2608.32498	3376.9375
2610.99557	3396.7375
2613.66449	3365.8375
2616.33175	3367.8375
2618.99734	3376.1375
2621.66128	3368.4375
2624.32355	3340.1375
2626.98416	3328.5375
2629.64311	3327.0375
2632.30041	3309.8375
2634.95605	3311.6375
2637.61004	3296.6375
2640.26238	3278.0375
2642.91306	3279.5375
2645.56209	3304.9375
2648.20948	3286.5375
2650.85521	3276.7375
2653.4993	3301.7375
2656.14175	3294.9375
2658.78255	3268.3375
2661.42171	3246.3375
2664.05923	3294.9375
2666.6951	3287.8375
2669.32934	3295.5375
2671.96194	3299.9375
2674.59291	3280.8375
2677.22224	3292.6375
2679.84993	3288.7375
2682.476	3282.3375
2685.10043	3263.6375
2687.72324	3249.7375
2690.34441	3259.4375
2692.96396	3257.7375
2695.58188	3279.7375
2698.19818	3269.0375
2700.81285	3261.1375
2703.4259	3243.2375
2706.03733	3210.6375
2708.64714	3214.1375
2711.25533	3247.4375
2713.86191	3251.2375
2716.46687	3247.8375
2719.07021	3250.8375
2721.67194	3234.1375
2724.27206	3258.1375
2726.87057	3230.2375
2729.46747	3234.1375
2732.06276	3228.8375
2734.65644	3229.8375
2737.24852	3208.9375
2739.83899	3196.5375
2742.42786	3203.8375
2745.01513	3219.2375
2747.60079	3192.0375
2750.18486	3177.6375
2752.76733	3186.1375
2755.3482	3178.1375
2757.92747	3169.9375
2760.50515	3158.9375
2763.08123	3144.6375
2765.65573	3153.1375
2768.22863	3150.3375
2770.79994	3129.8375
2773.36967	3128.8375
2775.9378	3125.8375
2778.50435	3121.8375
2781.06932	3106.7375
2783.6327	3102.8375
2786.1945	3126.2375
2788.75471	3108.3375
2791.31335	3103.9375
2793.87041	3100.2375
2796.42589	3076.6375
2798.97979	3061.9375
2801.53212	3071.9375
2804.08288	3092.9375
2806.63206	3069.8375
2809.17967	3039.8375
2811.72571	3056.6375
2814.27018	3053.1375
2816.81308	3035.9375
2819.35442	3000.5375
2821.89419	3033.0375
2824.43239	3007.1375
2826.96904	3027.6375
2829.50412	3009.0375
2832.03763	3006.9375
2834.56959	3012.6375
2837.1	2991.9375
2839.62884	2994.1375
2842.15613	3001.5375
2844.68186	3004.6375
2847.20604	2975.7375
2849.72867	2968.1375
2852.24974	2974.4375
2854.76927	2945.1375
2857.28724	2913.3375
2859.80367	2966.4375
2862.31855	2971.6375
2864.83189	2946.7375
2867.34368	2959.9375
2869.85393	2968.7375
2872.36264	2929.9375
2874.8698	2934.6375
2877.37543	2950.9375
2879.87952	2930.8375
2882.38207	2920.8375
2884.88308	2929.4375
2887.38256	2926.2375
2889.88051	2917.9375
2892.37692	2919.1375
2894.8718	2891.7375
2897.36515	2910.5375
2899.85698	2905.8375
2902.34727	2909.3375
2904.83604	2919.4375
2907.32328	2917.2375
2909.809	2919.9375
2912.29319	2913.0375
2914.77587	2922.5375
2917.25702	2932.0375
2919.73665	2936.3375
2922.21476	2937.9375
2924.69136	2949.0375
2927.16644	2923.2375
2929.64	2930.2375
2932.11205	2896.1375
2934.58258	2909.3375
2937.05161	2884.3375
2939.51912	2892.3375
2941.98513	2908.7375
2944.44962	2887.2375
2946.91261	2852.3375
2949.37409	2866.0375
2951.83407	2864.8375
2954.29254	2859.7375
2956.74951	2862.9375
2959.20498	2840.6375
2961.65895	2840.5375
2964.11142	2831.0375
2966.56239	2831.2375
2969.01186	2834.1375
2971.45984	2831.1375
2973.90632	2816.7375
2976.35131	2828.5375
2978.7948	2815.8375
2981.23681	2806.7375
2983.67732	2808.3375
2986.11635	2805.2375
2988.55388	2769.7375
2990.98993	2789.5375
2993.4245	2760.7375
2995.85758	2762.7375
2998.28917	2757.1375
3000.71928	2741.3375
3003.14791	2744.4375
3005.57506	2730.4375
3008.00073	2716.5375
3010.42493	2661.4375
3012.84764	2718.2375
3015.26888	2707.6375
3017.68865	2705.9375
3020.10694	2657.4375
3022.52376	2660.8375
3024.9391	2670.1375
3027.35298	2653.2375
3029.76539	2640.9375
3032.17632	2647.3375
3034.5858	2632.7375
3036.9938	2642.7375
3039.40034	2629.3375
3041.80542	2622.3375
3044.20903	2605.1375
3046.61118	2618.8375
3049.01187	2609.4375
3051.4111	2603.6375
3053.80888	2581.2375
3056.20519	2582.4375
3058.60005	2570.1375
3060.99345	2598.6375
3063.3854	2559.6375
3065.7759	2550.0375
3068.16494	2542.9375
3070.55254	2526.5375
3072.93868	2551.4375
3075.32338	2527.8375
3077.70662	2521.2375
3080.08842	2511.9375
3082.46878	2501.8375
3084.84769	2521.0375
3087.22515	2496.3375
3089.60118	2515.7375
3091.97576	2495.9375
3094.3489	2499.8375
3096.72061	2497.1375
3099.09087	2479.9375
3101.4597	2498.0375
3103.82709	2481.6375
3106.19305	2468.6375
3108.55757	2474.5375
3110.92066	2463.3375
3113.28232	2472.1375
3115.64255	2468.9375
3118.00134	2462.3375
3120.35871	2435.7375
3122.71466	2426.0375
