Data from AgNPs_UA_10uM_CRN_500uM_SU_RamanShift__59__13-15-10-265.txt Node

Date: Thu Aug 04 13:15:10 BST 2022
User: TCL
Spectrometer: QEP01345
Trigger mode: 4
Integration Time (sec): 1.000000E0
Scans to average: 10
Electric dark correction enabled: true
Nonlinearity correction enabled: false
Boxcar width: 0
XAxis mode: Raman Shifts
Number of Pixels in Spectrum: 1044
>>>>>Begin Spectral Data<<<<<
46.04893	1.525
50.45542	0.325
54.85868	-0.275
59.25871	-0.275
63.6555	21.525
68.04907	21.525
72.43941	23.525
76.82654	25.825
81.21044	24.625
85.59113	25.425
89.96862	27.325
94.34289	29.125
98.71396	26.425
103.08183	31.025
107.4465	30.125
111.80798	30.525
116.16626	34.425
120.52136	37.125
124.87327	36.725
129.222	37.625
133.56755	41.025
137.90993	43.725
142.24913	51.225
146.58517	57.825
150.91804	66.425
155.24774	83.125
159.57429	103.825
163.89768	133.025
168.21792	179.525
172.53501	251.025
176.84895	346.925
181.15975	503.325
185.46741	708.225
189.77193	978.725
194.07331	1321.525
198.37157	1712.025
202.6667	2114.825
206.9587	2529.225
211.24758	2926.025
215.53334	3339.825
219.81599	3763.825
224.09553	4265.525
228.37195	4796.925
232.64527	5371.425
236.91549	5958.425
241.18261	6494.925
245.44663	6968.325
249.70755	7337.125
253.96539	7644.425
258.22014	7958.125
262.4718	8169.225
266.72039	8321.525
270.96589	8390.925
275.20832	8338.725
279.44768	8250.325
283.68397	8103.325
287.91719	8035.325
292.14735	8001.925
296.37445	8102.925
300.59849	8267.925
304.81948	8469.525
309.03742	8655.925
313.25231	8793.625
317.46415	8707.625
321.67296	8483.725
325.87872	8235.725
330.08145	8127.825
334.28114	8124.725
338.47781	8193.125
342.67145	8340.825
346.86207	8491.625
351.04966	8794.025
355.23424	9103.725
359.4158	9305.225
363.59435	9445.125
367.76989	9488.425
371.94243	9509.325
376.11196	9527.325
380.27849	9558.725
384.44203	9613.925
388.60257	9693.425
392.76012	9766.025
396.91468	9907.325
401.06626	10063.225
405.21485	10111.825
409.36047	10038.425
413.50311	9820.925
417.64277	9626.525
421.77947	9481.925
425.9132	9392.825
430.04396	9357.825
434.17176	9367.625
438.2966	9483.125
442.41849	9572.425
446.53742	9781.925
450.6534	9957.525
454.76644	10087.925
458.87653	10202.325
462.98368	10262.825
467.08789	10200.825
471.18916	10107.825
475.2875	9910.525
479.38291	9765.125
483.4754	9640.825
487.56496	9595.725
491.6516	9560.825
495.73531	9567.625
499.81612	9624.825
503.89401	9686.325
507.96899	9749.525
512.04106	9778.325
516.11023	9805.425
520.1765	9826.125
524.23987	9825.925
528.30034	9846.725
532.35792	9818.425
536.41261	9792.925
540.46441	9699.725
544.51333	9703.125
548.55936	9741.325
552.60252	9831.925
556.64279	9981.325
560.6802	10128.025
564.71473	10189.525
568.7464	10235.725
572.7752	10174.325
576.80114	9937.525
580.82422	9774.525
584.84444	9713.125
588.86181	9717.325
592.87633	9733.025
596.888	9914.925
600.89682	10346.825
604.9028	11368.925
608.90594	13297.925
612.90624	15162.325
616.90371	14071.225
620.89834	11487.725
624.89015	10411.125
628.87913	10355.725
632.86528	10531.025
636.84862	10646.725
640.82913	10485.725
644.80683	10155.025
648.78172	9980.725
652.75379	9981.225
656.72306	10217.425
660.68952	10484.825
664.65319	10485.625
668.61405	10435.125
672.57211	10597.125
676.52738	10606.025
680.47986	10322.325
684.42955	10064.125
688.37646	10022.525
692.32058	10119.625
696.26192	10324.325
700.20048	10504.925
704.13626	10540.525
708.06928	10427.625
711.99952	10297.025
715.927	10254.525
719.85171	10309.325
723.77365	10325.125
727.69284	10275.525
731.60928	10213.225
735.52295	10175.325
739.43388	10225.225
743.34206	10258.525
747.24749	10258.225
751.15017	10238.625
755.05012	10323.525
758.94733	10585.225
762.8418	11256.225
766.73354	12226.625
770.62254	13039.325
774.50882	13288.325
778.39237	13094.225
782.27321	12541.325
786.15132	11723.825
790.02671	11029.525
793.89938	10636.825
797.76935	10454.025
801.6366	10327.825
805.50115	10254.825
809.36299	10251.225
813.22213	10228.125
817.07857	10251.525
820.93231	10252.425
824.78336	10239.025
828.63172	10270.525
832.47738	10266.725
836.32036	10265.325
840.16066	10254.625
843.99827	10213.025
847.8332	10266.725
851.66546	10294.425
855.49504	10296.125
859.32195	10313.525
863.1462	10297.525
866.96777	10301.225
870.78668	10304.825
874.60293	10362.125
878.41652	10399.425
882.22745	10459.725
886.03573	10500.425
889.84136	10502.425
893.64433	10470.925
897.44466	10448.125
901.24235	10415.325
905.0374	10396.925
908.8298	10373.425
912.61957	10363.825
916.40671	10357.425
920.19121	10367.625
923.97308	10406.825
927.75233	10480.525
931.52895	10527.025
935.30295	10490.025
939.07433	10338.725
942.84309	10294.625
946.60924	10255.725
950.37278	10253.125
954.13371	10222.925
957.89203	10243.325
961.64774	10245.925
965.40086	10259.325
969.15137	10233.525
972.89929	10239.925
976.64461	10207.625
980.38733	10246.625
984.12747	10248.025
987.86502	10287.125
991.59999	10337.025
995.33237	10372.625
999.06217	10426.225
1002.78939	10529.225
1006.51404	10688.425
1010.23611	10861.125
1013.95561	10973.225
1017.67255	11005.125
1021.38692	10978.825
1025.09872	10914.225
1028.80796	10802.225
1032.51465	10753.725
1036.21877	10749.125
1039.92035	10807.725
1043.61937	10859.725
1047.31584	10904.425
1051.00976	10946.025
1054.70114	10992.025
1058.38998	11005.425
1062.07627	11049.525
1065.76003	11124.725
1069.44126	11241.025
1073.11995	11493.925
1076.79611	11762.125
1080.46974	11851.325
1084.14085	11919.725
1087.80943	11966.325
1091.47549	12052.125
1095.13903	12159.325
1098.80005	12292.225
1102.45857	12514.225
1106.11456	12485.825
1109.76805	12200.225
1113.41903	12089.625
1117.06751	12155.625
1120.71348	12259.825
1124.35696	12324.025
1127.99793	12386.925
1131.63641	12219.625
1135.2724	11941.725
1138.90589	11736.725
1142.5369	11574.525
1146.16542	11561.225
1149.79145	11471.625
1153.415	11309.025
1157.03607	11260.925
1160.65467	11317.825
1164.27079	11475.125
1167.88443	11759.525
1171.49561	12182.625
1175.10432	12796.725
1178.71056	13576.425
1182.31434	14269.925
1185.91565	14555.925
1189.51451	14636.125
1193.11091	14581.825
1196.70485	14442.225
1200.29634	14181.525
1203.88538	13840.125
1207.47197	13452.625
1211.05612	13032.725
1214.63782	12603.925
1218.21708	12285.125
1221.79391	12052.925
1225.36829	11950.225
1228.94024	11902.125
1232.50976	11929.225
1236.07685	12003.325
1239.6415	12042.125
1243.20374	12095.625
1246.76355	12145.925
1250.32093	12248.125
1253.8759	12376.225
1257.42845	12652.325
1260.97859	12971.025
1264.52631	13266.825
1268.07163	13447.325
1271.61453	13555.925
1275.15503	13553.525
1278.69312	13476.925
1282.22882	13473.625
1285.76211	13500.625
1289.29301	13580.925
1292.82151	13789.925
1296.34761	13955.325
1299.87133	14269.925
1303.39266	14851.825
1306.9116	15690.125
1310.42815	16563.325
1313.94233	16931.625
1317.45412	16547.625
1320.96354	15925.025
1324.47058	15295.825
1327.97525	14686.525
1331.47754	14275.325
1334.97747	14152.725
1338.47502	14270.325
1341.97022	14752.525
1345.46305	15534.325
1348.95352	16724.425
1352.44163	17953.125
1355.92738	18986.325
1359.41078	19934.925
1362.89183	20478.725
1366.37053	19521.925
1369.84688	17289.225
1373.32088	15295.125
1376.79254	14104.125
1380.26186	13556.425
1383.72883	13177.525
1387.19347	12808.625
1390.65578	12441.925
1394.11575	12113.525
1397.57339	11884.525
1401.0287	11790.925
1404.48168	11784.525
1407.93234	11888.925
1411.38068	12052.025
1414.82669	12254.525
1418.27039	12305.125
1421.71177	12289.125
1425.15083	12198.825
1428.58758	12080.325
1432.02203	11982.025
1435.45416	11983.225
1438.88399	11926.225
1442.31151	11891.325
1445.73673	11920.125
1449.15965	11971.625
1452.58027	11937.125
1455.9986	11915.425
1459.41463	11912.025
1462.82837	11983.025
1466.23982	12177.425
1469.64898	12380.825
1473.05586	12560.125
1476.46045	12709.925
1479.86276	12869.625
1483.26279	13012.025
1486.66054	13206.125
1490.05602	13575.025
1493.44922	14088.725
1496.84016	14902.325
1500.22882	16022.525
1503.61521	17246.025
1506.99934	18308.225
1510.38121	18820.825
1513.76081	18470.425
1517.13816	17280.725
1520.51324	15825.525
1523.88607	14664.725
1527.25665	13930.125
1530.62498	13549.325
1533.99105	13377.825
1537.35488	13293.425
1540.71647	13164.925
1544.07581	13077.225
1547.4329	13001.925
1550.78776	12839.525
1554.14038	12710.925
1557.49077	12663.325
1560.83892	12807.525
1564.18484	13025.825
1567.52853	13286.025
1570.86999	13469.325
1574.20922	13537.925
1577.54624	13452.225
1580.88103	13029.725
1584.2136	12529.025
1587.54395	12223.425
1590.87208	12204.725
1594.19801	12448.025
1597.52172	12774.425
1600.84321	12911.725
1604.16251	12864.025
1607.47959	12732.725
1610.79447	12469.125
1614.10715	12054.425
1617.41763	11615.625
1620.7259	11315.525
1624.03199	11080.725
1627.33587	10993.025
1630.63757	11072.125
1633.93707	11286.725
1637.23439	11780.925
1640.52951	12545.425
1643.82246	13595.625
1647.11321	14680.625
1650.40179	15137.925
1653.68819	14554.525
1656.97241	13247.125
1660.25446	12000.825
1663.53433	11113.525
1666.81203	10573.825
1670.08756	10274.725
1673.36092	10093.225
1676.63211	9965.025
1679.90115	9834.825
1683.16801	9787.425
1686.43272	9712.825
1689.69527	9652.825
1692.95567	9605.925
1696.2139	9561.725
1699.46999	9556.525
1702.72392	9528.325
1705.97571	9500.725
1709.22535	9508.525
1712.47284	9504.225
1715.71819	9524.725
1718.96139	9505.425
1722.20246	9510.525
1725.44139	9465.625
1728.67818	9424.225
1731.91284	9375.825
1735.14537	9321.025
1738.37576	9284.525
1741.60403	9263.025
1744.83017	9266.925
1748.05418	9205.825
1751.27607	9191.925
1754.49584	9178.725
1757.71349	9167.025
1760.92903	9162.225
1764.14244	9149.725
1767.35375	9106.025
1770.56294	9088.525
1773.77002	9079.225
1776.97499	9055.825
1780.17785	8999.325
1783.37861	9006.925
1786.57727	8990.225
1789.77382	8961.525
1792.96828	8973.925
1796.16064	8957.825
1799.3509	8933.525
1802.53907	8900.025
1805.72514	8915.225
1808.90913	8879.025
1812.09102	8855.825
1815.27083	8819.125
1818.44856	8792.825
1821.6242	8793.525
1824.79776	8769.925
1827.96924	8727.125
1831.13864	8734.825
1834.30597	8702.925
1837.47122	8692.225
1840.6344	8675.525
1843.7955	8674.625
1846.95454	8682.625
1850.11151	8662.725
1853.26642	8669.125
1856.41926	8659.125
1859.57004	8672.725
1862.71876	8664.125
1865.86542	8641.125
1869.01003	8641.125
1872.15258	8597.425
1875.29308	8572.925
1878.43152	8572.025
1881.56792	8549.925
1884.70227	8515.025
1887.83457	8542.025
1890.96482	8487.025
1894.09304	8478.025
1897.21921	8467.125
1900.34335	8448.525
1903.46544	8436.825
1906.58551	8430.825
1909.70353	8430.125
1912.81953	8422.525
1915.93349	8406.725
1919.04543	8377.025
1922.15534	8339.225
1925.26322	8366.525
1928.36908	8342.725
1931.47292	8290.525
1934.57473	8297.025
1937.67453	8268.625
1940.77232	8266.025
1943.86808	8216.525
1946.96184	8186.725
1950.05358	8161.325
1953.14331	8157.525
1956.23103	8141.325
1959.31675	8084.025
1962.40046	8073.925
1965.48217	8035.625
1968.56188	8010.125
1971.63959	7978.825
1974.7153	7963.925
1977.78901	7957.925
1980.86073	7923.125
1983.93046	7905.125
1986.99819	7860.325
1990.06394	7850.025
1993.1277	7824.025
1996.18947	7785.125
1999.24925	7769.325
2002.30706	7719.325
2005.36288	7682.925
2008.41672	7684.825
2011.46859	7642.425
2014.51848	7608.525
2017.56639	7590.125
2020.61233	7550.525
2023.6563	7540.125
2026.6983	7529.125
2029.73833	7505.125
2032.7764	7482.925
2035.8125	7447.125
2038.84664	7456.125
2041.87881	7404.625
2044.90903	7412.525
2047.93729	7386.525
2050.96359	7375.425
2053.98794	7341.125
2057.01034	7333.625
2060.03078	7342.925
2063.04927	7338.425
2066.06582	7334.325
2069.08042	7307.025
2072.09307	7290.725
2075.10378	7279.725
2078.11255	7263.025
2081.11938	7273.225
2084.12426	7270.725
2087.12722	7253.925
2090.12824	7256.125
2093.12732	7252.325
2096.12447	7244.925
2099.11969	7249.825
2102.11299	7265.525
2105.10435	7246.225
2108.09379	7273.025
2111.08131	7248.125
2114.0669	7226.825
2117.05057	7251.925
2120.03233	7265.125
2123.01216	7261.125
2125.99008	7253.825
2128.96609	7259.325
2131.94018	7277.525
2134.91236	7258.825
2137.88263	7256.225
2140.851	7257.625
2143.81746	7268.425
2146.78201	7243.825
2149.74466	7248.925
2152.7054	7257.025
2155.66425	7224.725
2158.6212	7242.225
2161.57625	7232.525
2164.52941	7217.025
2167.48067	7219.425
2170.43004	7191.525
2173.37752	7203.825
2176.32311	7201.725
2179.26681	7191.925
2182.20863	7201.725
2185.14856	7200.425
2188.08661	7189.125
2191.02278	7187.625
2193.95707	7194.925
2196.88948	7178.325
2199.82001	7147.325
2202.74867	7143.125
2205.67545	7152.325
2208.60037	7160.825
2211.52341	7108.925
2214.44458	7071.225
2217.36388	7079.725
2220.28132	7046.025
2223.1969	7030.725
2226.11061	7023.325
2229.02246	6990.425
2231.93245	6965.525
2234.84058	6976.625
2237.74686	6946.425
2240.65128	6937.925
2243.55385	6927.125
2246.45456	6929.625
2249.35343	6918.125
2252.25044	6887.125
2255.14561	6884.425
2258.03893	6892.425
2260.93041	6887.225
2263.82004	6863.825
2266.70783	6844.625
2269.59378	6818.625
2272.4779	6804.725
2275.36017	6757.225
2278.24061	6764.425
2281.11922	6743.325
2283.996	6703.125
2286.87094	6714.925
2289.74405	6701.425
2292.61534	6712.525
2295.4848	6675.725
2298.35243	6665.225
2301.21824	6662.625
2304.08223	6632.125
2306.94439	6630.125
2309.80474	6632.125
2312.66327	6611.925
2315.51999	6606.725
2318.37489	6606.625
2321.22797	6583.825
2324.07925	6567.225
2326.92871	6537.425
2329.77637	6537.225
2332.62222	6522.025
2335.46626	6510.525
2338.3085	6509.225
2341.14893	6489.125
2343.98756	6490.925
2346.8244	6477.625
2349.65943	6468.925
2352.49267	6448.925
2355.32411	6446.025
2358.15376	6433.025
2360.98161	6441.625
2363.80768	6443.025
2366.63195	6434.125
2369.45444	6419.825
2372.27514	6428.525
2375.09405	6408.725
2377.91118	6392.625
2380.72652	6383.125
2383.54009	6379.825
2386.35187	6348.625
2389.16188	6321.825
2391.97011	6316.225
2394.77657	6289.625
2397.58125	6261.925
2400.38416	6258.125
2403.18529	6250.525
2405.98466	6231.225
2408.78226	6226.325
2411.57809	6235.825
2414.37216	6221.025
2417.16446	6206.825
2419.955	6188.125
2422.74378	6192.325
2425.5308	6188.425
2428.31606	6187.225
2431.09956	6176.325
2433.88131	6143.925
2436.6613	6148.525
2439.43954	6141.425
2442.21603	6142.125
2444.99077	6141.425
2447.76377	6142.325
2450.53501	6125.325
2453.30451	6113.525
2456.07226	6094.025
2458.83827	6078.625
2461.60254	6082.025
2464.36507	6054.525
2467.12586	6058.225
2469.88492	6040.625
2472.64224	6063.925
2475.39782	6044.825
2478.15167	6041.025
2480.90379	6016.625
2483.65417	6000.825
2486.40283	6002.725
2489.14976	6011.725
2491.89497	6006.125
2494.63845	5990.525
2497.3802	6001.125
2500.12024	5959.025
2502.85855	5956.525
2505.59514	5947.225
2508.33002	5942.825
2511.06318	5919.325
2513.79462	5913.925
2516.52435	5912.025
2519.25237	5874.825
2521.97867	5862.125
2524.70327	5865.825
2527.42616	5858.125
2530.14734	5839.725
2532.86681	5838.725
2535.58458	5844.725
2538.30065	5839.825
2541.01501	5833.325
2543.72768	5807.125
2546.43864	5803.225
2549.14791	5776.625
2551.85548	5775.425
2554.56136	5790.225
2557.26554	5758.525
2559.96803	5758.925
2562.66883	5717.425
2565.36794	5700.525
2568.06536	5692.325
2570.7611	5684.025
2573.45514	5666.625
2576.14751	5650.725
2578.83819	5645.125
2581.52719	5642.525
2584.21451	5623.625
2586.90015	5619.225
2589.58411	5610.525
2592.2664	5579.125
2594.94701	5580.825
2597.62594	5573.525
2600.30321	5547.625
2602.9788	5541.825
2605.65273	5528.325
2608.32498	5532.425
2610.99557	5504.825
2613.66449	5492.125
2616.33175	5482.525
2618.99734	5495.525
2621.66128	5474.525
2624.32355	5456.025
2626.98416	5434.225
2629.64311	5413.925
2632.30041	5422.525
2634.95605	5391.725
2637.61004	5380.225
2640.26238	5381.225
2642.91306	5369.925
2645.56209	5371.225
2648.20948	5367.025
2650.85521	5352.325
2653.4993	5354.725
2656.14175	5356.325
2658.78255	5330.425
2661.42171	5322.425
2664.05923	5329.525
2666.6951	5332.525
2669.32934	5337.725
2671.96194	5354.925
2674.59291	5347.425
2677.22224	5349.625
2679.84993	5332.525
2682.476	5317.425
2685.10043	5332.525
2687.72324	5324.625
2690.34441	5328.325
2692.96396	5314.825
2695.58188	5335.125
2698.19818	5298.825
2700.81285	5318.525
2703.4259	5300.625
2706.03733	5290.525
2708.64714	5267.825
2711.25533	5257.725
2713.86191	5273.925
2716.46687	5284.925
2719.07021	5277.925
2721.67194	5282.525
2724.27206	5272.925
2726.87057	5269.625
2729.46747	5258.925
2732.06276	5252.425
2734.65644	5245.425
2737.24852	5227.925
2739.83899	5222.925
2742.42786	5219.925
2745.01513	5200.725
2747.60079	5191.525
2750.18486	5193.225
2752.76733	5202.125
2755.3482	5165.525
2757.92747	5156.725
2760.50515	5137.825
2763.08123	5139.925
2765.65573	5137.525
2768.22863	5110.725
2770.79994	5096.225
2773.36967	5095.625
2775.9378	5061.625
2778.50435	5065.825
2781.06932	5073.125
2783.6327	5065.325
2786.1945	5044.225
2788.75471	5047.825
2791.31335	5012.825
2793.87041	5005.425
2796.42589	4998.625
2798.97979	4984.125
2801.53212	4979.925
2804.08288	4955.625
2806.63206	4952.925
2809.17967	4945.125
2811.72571	4937.725
2814.27018	4928.225
2816.81308	4909.925
2819.35442	4906.825
2821.89419	4887.825
2824.43239	4881.725
2826.96904	4850.525
2829.50412	4861.625
2832.03763	4848.025
2834.56959	4838.325
2837.1	4815.325
2839.62884	4811.225
2842.15613	4794.425
2844.68186	4799.925
2847.20604	4795.625
2849.72867	4801.725
2852.24974	4789.725
2854.76927	4769.125
2857.28724	4766.425
2859.80367	4732.525
2862.31855	4753.525
2864.83189	4744.725
2867.34368	4739.725
2869.85393	4726.925
2872.36264	4726.825
2874.8698	4717.125
2877.37543	4713.425
2879.87952	4699.625
2882.38207	4680.725
2884.88308	4665.625
2887.38256	4684.425
2889.88051	4671.725
2892.37692	4663.225
2894.8718	4645.525
2897.36515	4663.825
2899.85698	4648.525
2902.34727	4649.125
2904.83604	4660.025
2907.32328	4657.025
2909.809	4645.725
2912.29319	4658.925
2914.77587	4661.725
2917.25702	4674.925
2919.73665	4657.125
2922.21476	4649.525
2924.69136	4641.125
2927.16644	4643.725
2929.64	4629.625
2932.11205	4609.525
2934.58258	4580.725
2937.05161	4596.225
2939.51912	4587.225
2941.98513	4603.725
2944.44962	4580.925
2946.91261	4566.325
2949.37409	4567.525
2951.83407	4558.625
2954.29254	4549.225
2956.74951	4543.325
2959.20498	4552.425
2961.65895	4553.025
2964.11142	4558.425
2966.56239	4540.825
2969.01186	4548.225
2971.45984	4530.625
2973.90632	4530.925
2976.35131	4507.725
2978.7948	4511.425
2981.23681	4503.925
2983.67732	4497.825
2986.11635	4463.125
2988.55388	4460.325
2990.98993	4452.225
2993.4245	4438.325
2995.85758	4437.125
2998.28917	4419.625
3000.71928	4405.825
3003.14791	4386.225
3005.57506	4398.625
3008.00073	4374.725
3010.42493	4362.625
3012.84764	4354.125
3015.26888	4352.625
3017.68865	4340.125
3020.10694	4325.025
3022.52376	4316.425
3024.9391	4306.825
3027.35298	4272.925
3029.76539	4267.625
3032.17632	4267.625
3034.5858	4252.425
3036.9938	4256.625
3039.40034	4235.725
3041.80542	4218.425
3044.20903	4206.625
3046.61118	4211.125
3049.01187	4191.625
3051.4111	4204.725
3053.80888	4170.125
3056.20519	4163.425
3058.60005	4152.025
3060.99345	4151.025
3063.3854	4141.225
3065.7759	4120.425
3068.16494	4119.525
3070.55254	4087.725
3072.93868	4084.025
3075.32338	4060.825
3077.70662	4058.725
3080.08842	4054.425
3082.46878	4049.925
3084.84769	4027.725
3087.22515	4014.825
3089.60118	4017.525
3091.97576	4025.325
3094.3489	4006.725
3096.72061	3989.825
3099.09087	4003.025
3101.4597	4003.425
3103.82709	3996.825
3106.19305	4001.025
3108.55757	4007.125
3110.92066	3975.425
3113.28232	3973.825
3115.64255	3954.425
3118.00134	3941.725
3120.35871	3943.925
3122.71466	3924.025
3125.06917	3923.525
3127.42226	3902.425
3129.77393	3894.725
3132.12417	3890.325
3134.47299	3893.325
3136.82039	3866.325
3139.16636	3887.425
3141.51092	3877.425
3143.85406	3878.725
3146.19579	3866.725
3148.53609	3865.825
3150.87499	3862.525
3153.21246	3861.825
3155.54853	3862.425
3157.88318	3860.425
3160.21642	3841.225
3162.54826	3830.225
3164.87868	3837.125
3167.2077	3830.425
3169.5353	3830.325
3171.86151	3825.425
3174.18631	3810.725
3176.5097	3793.125
3178.83169	3783.625
3181.15228	3798.925
3183.47147	3772.625
3185.78926	3763.625
3188.10565	3745.725
3190.42065	3741.125
3192.73424	3742.925
3195.04645	3744.525
3197.35725	3744.825
3199.66667	3720.525
3201.97469	3711.825
3204.28132	3704.125
