Data from AgNPs_UA_10uM_CRN_500uM_SU_RamanShift__138__13-28-20-281.txt Node

Date: Thu Aug 04 13:28:20 BST 2022
User: TCL
Spectrometer: QEP01345
Trigger mode: 4
Integration Time (sec): 1.000000E0
Scans to average: 10
Electric dark correction enabled: true
Nonlinearity correction enabled: false
Boxcar width: 0
XAxis mode: Raman Shifts
Number of Pixels in Spectrum: 1044
>>>>>Begin Spectral Data<<<<<
46.04893	0.125
50.45542	-1.175
54.85868	0.625
59.25871	0.325
63.6555	19.125
68.04907	20.825
72.43941	21.525
76.82654	23.625
81.21044	24.225
85.59113	26.525
89.96862	25.525
94.34289	25.425
98.71396	24.825
103.08183	29.425
107.4465	28.125
111.80798	28.725
116.16626	29.825
120.52136	30.725
124.87327	33.625
129.222	36.425
133.56755	36.325
137.90993	42.325
142.24913	44.125
146.58517	52.325
150.91804	61.125
155.24774	79.125
159.57429	92.625
163.89768	124.625
168.21792	161.625
172.53501	223.425
176.84895	315.925
181.15975	448.225
185.46741	632.125
189.77193	867.225
194.07331	1160.825
198.37157	1511.125
202.6667	1858.925
206.9587	2211.425
211.24758	2551.025
215.53334	2904.325
219.81599	3288.525
224.09553	3703.525
228.37195	4174.625
232.64527	4675.625
236.91549	5187.725
241.18261	5648.725
245.44663	6052.325
249.70755	6373.325
253.96539	6668.725
258.22014	6912.125
262.4718	7126.725
266.72039	7275.225
270.96589	7359.325
275.20832	7331.625
279.44768	7220.925
283.68397	7096.425
287.91719	7022.425
292.14735	7036.025
296.37445	7105.225
300.59849	7304.725
304.81948	7509.825
309.03742	7698.725
313.25231	7755.425
317.46415	7663.525
321.67296	7413.425
325.87872	7195.825
330.08145	7081.525
334.28114	7108.825
338.47781	7180.125
342.67145	7318.525
346.86207	7509.925
351.04966	7805.625
355.23424	8073.325
359.4158	8287.525
363.59435	8419.525
367.76989	8503.625
371.94243	8525.425
376.11196	8531.725
380.27849	8586.925
384.44203	8587.125
388.60257	8616.225
392.76012	8676.425
396.91468	8786.725
401.06626	8940.725
405.21485	8997.425
409.36047	8913.525
413.50311	8688.025
417.64277	8431.425
421.77947	8284.625
425.9132	8265.725
430.04396	8277.225
434.17176	8351.725
438.2966	8503.625
442.41849	8724.525
446.53742	9007.925
450.6534	9251.625
454.76644	9421.825
458.87653	9438.225
462.98368	9353.525
467.08789	9196.725
471.18916	8993.325
475.2875	8744.425
479.38291	8576.525
483.4754	8426.625
487.56496	8338.625
491.6516	8280.825
495.73531	8278.225
499.81612	8287.925
503.89401	8377.725
507.96899	8410.825
512.04106	8452.225
516.11023	8524.725
520.1765	8581.525
524.23987	8605.625
528.30034	8594.925
532.35792	8581.425
536.41261	8472.425
540.46441	8358.525
544.51333	8343.925
548.55936	8394.125
552.60252	8557.425
556.64279	8669.725
560.6802	8762.525
564.71473	8817.125
568.7464	8876.025
572.7752	8892.725
576.80114	8741.825
580.82422	8649.825
584.84444	8687.525
588.86181	8843.125
592.87633	9046.525
596.888	9260.625
600.89682	9572.125
604.9028	10507.225
608.90594	12447.325
612.90624	14260.125
616.90371	13069.625
620.89834	10443.925
624.89015	9452.125
628.87913	9410.125
632.86528	9420.925
636.84862	9296.225
640.82913	9031.025
644.80683	8694.325
648.78172	8508.325
652.75379	8569.025
656.72306	8809.225
660.68952	9073.025
664.65319	9036.125
668.61405	8906.025
672.57211	8921.525
676.52738	8889.125
680.47986	8774.625
684.42955	8626.825
688.37646	8625.125
692.32058	8705.925
696.26192	8872.825
700.20048	9016.425
704.13626	9027.225
708.06928	8889.825
711.99952	8782.225
715.927	8801.525
719.85171	8881.925
723.77365	8863.125
727.69284	8773.525
731.60928	8715.425
735.52295	8712.125
739.43388	8794.425
743.34206	8859.925
747.24749	8877.725
751.15017	8918.025
755.05012	9009.325
758.94733	9305.125
762.8418	10011.525
766.73354	11073.725
770.62254	11957.425
774.50882	12215.325
778.39237	11724.025
782.27321	10841.025
786.15132	9966.625
790.02671	9388.325
793.89938	9120.125
797.76935	9004.125
801.6366	8940.025
805.50115	8896.725
809.36299	8848.325
813.22213	8843.025
817.07857	8805.725
820.93231	8778.425
824.78336	8795.425
828.63172	8799.125
832.47738	8851.125
836.32036	8860.625
840.16066	8918.925
843.99827	8947.525
847.8332	8928.625
851.66546	8857.525
855.49504	8869.025
859.32195	8883.225
863.1462	8868.725
866.96777	8848.525
870.78668	8831.025
874.60293	8833.625
878.41652	8861.825
882.22745	8945.725
886.03573	8987.225
889.84136	8992.725
893.64433	8951.625
897.44466	8895.425
901.24235	8877.025
905.0374	8872.125
908.8298	8841.525
912.61957	8850.425
916.40671	8899.925
920.19121	8964.925
923.97308	9080.425
927.75233	9191.825
931.52895	9260.225
935.30295	9159.025
939.07433	9002.125
942.84309	8890.525
946.60924	8863.425
950.37278	8835.525
954.13371	8776.225
957.89203	8725.625
961.64774	8709.025
965.40086	8671.325
969.15137	8648.525
972.89929	8658.525
976.64461	8660.925
980.38733	8711.625
984.12747	8752.725
987.86502	8820.225
991.59999	8913.325
995.33237	9107.325
999.06217	9420.225
1002.78939	9723.225
1006.51404	9873.425
1010.23611	9942.425
1013.95561	10019.025
1017.67255	10105.125
1021.38692	10138.225
1025.09872	10159.625
1028.80796	10288.625
1032.51465	10583.325
1036.21877	10778.825
1039.92035	10746.325
1043.61937	10539.825
1047.31584	10263.425
1051.00976	9980.725
1054.70114	9860.225
1058.38998	9860.425
1062.07627	9840.925
1065.76003	9838.125
1069.44126	9870.925
1073.11995	9974.425
1076.79611	10105.425
1080.46974	10223.725
1084.14085	10362.225
1087.80943	10434.825
1091.47549	10439.825
1095.13903	10323.925
1098.80005	10222.125
1102.45857	10206.425
1106.11456	10200.725
1109.76805	10196.825
1113.41903	10275.225
1117.06751	10382.525
1120.71348	10591.925
1124.35696	10764.425
1127.99793	10851.625
1131.63641	10719.425
1135.2724	10478.925
1138.90589	10270.625
1142.5369	10088.425
1146.16542	9959.025
1149.79145	9904.825
1153.415	9882.725
1157.03607	9926.425
1160.65467	10043.825
1164.27079	10300.425
1167.88443	10666.725
1171.49561	11305.025
1175.10432	12178.425
1178.71056	13312.325
1182.31434	14346.525
1185.91565	14783.525
1189.51451	14686.725
1193.11091	14192.925
1196.70485	13540.925
1200.29634	12958.425
1203.88538	12453.425
1207.47197	11933.025
1211.05612	11515.025
1214.63782	11243.125
1218.21708	11160.825
1221.79391	11223.525
1225.36829	11297.025
1228.94024	11262.725
1232.50976	11110.125
1236.07685	10992.425
1239.6415	10991.925
1243.20374	11016.825
1246.76355	11112.425
1250.32093	11273.525
1253.8759	11482.425
1257.42845	11840.925
1260.97859	12158.025
1264.52631	12472.125
1268.07163	12735.925
1271.61453	12979.325
1275.15503	13220.025
1278.69312	13467.625
1282.22882	13682.925
1285.76211	13843.025
1289.29301	14009.025
1292.82151	14219.825
1296.34761	14562.825
1299.87133	15128.725
1303.39266	16064.925
1306.9116	17476.825
1310.42815	18937.625
1313.94233	19620.325
1317.45412	19169.225
1320.96354	18096.725
1324.47058	16974.225
1327.97525	16037.925
1331.47754	15534.825
1334.97747	15455.425
1338.47502	15649.925
1341.97022	16094.725
1345.46305	16706.025
1348.95352	17496.725
1352.44163	18360.225
1355.92738	19452.225
1359.41078	20818.325
1362.89183	21702.025
1366.37053	20552.225
1369.84688	18001.825
1373.32088	15669.325
1376.79254	14345.925
1380.26186	13686.525
1383.72883	13352.125
1387.19347	13007.225
1390.65578	12622.625
1394.11575	12308.525
1397.57339	12156.725
1401.0287	12229.225
1404.48168	12295.425
1407.93234	12485.925
1411.38068	12708.825
1414.82669	12826.225
1418.27039	12774.125
1421.71177	12606.525
1425.15083	12498.025
1428.58758	12501.025
1432.02203	12667.525
1435.45416	12851.425
1438.88399	12887.625
1442.31151	12835.525
1445.73673	12789.625
1449.15965	12727.625
1452.58027	12661.625
1455.9986	12548.225
1459.41463	12523.025
1462.82837	12621.925
1466.23982	12884.125
1469.64898	13091.425
1473.05586	13274.425
1476.46045	13448.025
1479.86276	13599.225
1483.26279	13732.325
1486.66054	13888.025
1490.05602	14136.625
1493.44922	14575.625
1496.84016	15168.025
1500.22882	16065.825
1503.61521	17154.225
1506.99934	18264.025
1510.38121	18901.925
1513.76081	18613.925
1517.13816	17453.325
1520.51324	16015.225
1523.88607	14845.825
1527.25665	14218.225
1530.62498	13867.425
1533.99105	13715.325
1537.35488	13617.525
1540.71647	13507.825
1544.07581	13455.625
1547.4329	13318.225
1550.78776	13147.225
1554.14038	12983.125
1557.49077	12910.725
1560.83892	12996.525
1564.18484	13117.125
1567.52853	13305.925
1570.86999	13402.625
1574.20922	13388.125
1577.54624	13166.825
1580.88103	12766.925
1584.2136	12383.425
1587.54395	12317.725
1590.87208	12758.425
1594.19801	13572.525
1597.52172	14588.925
1600.84321	15111.325
1604.16251	14871.725
1607.47959	14184.525
1610.79447	13314.525
1614.10715	12379.825
1617.41763	11624.125
1620.7259	11090.725
1624.03199	10883.925
1627.33587	10878.325
1630.63757	11150.625
1633.93707	11751.425
1637.23439	12656.625
1640.52951	13765.725
1643.82246	14989.525
1647.11321	15958.625
1650.40179	15956.325
1653.68819	14791.425
1656.97241	13021.925
1660.25446	11485.425
1663.53433	10485.525
1666.81203	9858.025
1670.08756	9479.225
1673.36092	9264.025
1676.63211	9101.125
1679.90115	8964.825
1683.16801	8869.025
1686.43272	8798.825
1689.69527	8752.025
1692.95567	8709.025
1696.2139	8668.425
1699.46999	8651.525
1702.72392	8636.325
1705.97571	8628.325
1709.22535	8627.925
1712.47284	8635.725
1715.71819	8624.625
1718.96139	8619.325
1722.20246	8591.825
1725.44139	8594.525
1728.67818	8516.925
1731.91284	8457.525
1735.14537	8429.025
1738.37576	8396.325
1741.60403	8369.825
1744.83017	8377.025
1748.05418	8346.625
1751.27607	8330.225
1754.49584	8290.025
1757.71349	8298.525
1760.92903	8325.625
1764.14244	8289.425
1767.35375	8280.325
1770.56294	8267.725
1773.77002	8264.725
1776.97499	8232.325
1780.17785	8202.125
1783.37861	8177.225
1786.57727	8189.125
1789.77382	8163.925
1792.96828	8182.825
1796.16064	8143.825
1799.3509	8149.425
1802.53907	8142.025
1805.72514	8139.425
1808.90913	8120.525
1812.09102	8110.025
1815.27083	8065.825
1818.44856	8056.825
1821.6242	8044.725
1824.79776	8030.025
1827.96924	7999.925
1831.13864	7989.825
1834.30597	7981.225
1837.47122	7964.625
1840.6344	7953.725
1843.7955	7991.625
1846.95454	7956.625
1850.11151	7958.425
1853.26642	7938.625
1856.41926	7959.325
1859.57004	7971.025
1862.71876	7978.925
1865.86542	7966.025
1869.01003	7955.525
1872.15258	7937.225
1875.29308	7905.725
1878.43152	7933.825
1881.56792	7933.325
1884.70227	7898.025
1887.83457	7893.025
1890.96482	7889.725
1894.09304	7853.325
1897.21921	7850.625
1900.34335	7858.825
1903.46544	7847.825
1906.58551	7837.325
1909.70353	7832.325
1912.81953	7847.825
1915.93349	7839.125
1919.04543	7811.225
1922.15534	7791.125
1925.26322	7791.125
1928.36908	7764.925
1931.47292	7763.825
1934.57473	7746.025
1937.67453	7747.125
1940.77232	7738.925
1943.86808	7697.225
1946.96184	7669.225
1950.05358	7647.925
1953.14331	7645.125
1956.23103	7641.225
1959.31675	7578.625
1962.40046	7563.425
1965.48217	7530.125
1968.56188	7505.625
1971.63959	7503.325
1974.7153	7480.225
1977.78901	7488.225
1980.86073	7463.325
1983.93046	7427.325
1986.99819	7407.825
1990.06394	7389.825
1993.1277	7357.625
1996.18947	7349.325
1999.24925	7316.925
2002.30706	7308.625
2005.36288	7267.325
2008.41672	7235.725
2011.46859	7212.725
2014.51848	7179.825
2017.56639	7181.125
2020.61233	7153.925
2023.6563	7148.525
2026.6983	7137.125
2029.73833	7118.025
2032.7764	7097.825
2035.8125	7089.125
2038.84664	7085.325
2041.87881	7065.525
2044.90903	7043.625
2047.93729	7044.225
2050.96359	7020.425
2053.98794	7035.125
2057.01034	7034.925
2060.03078	7019.225
2063.04927	7027.225
2066.06582	7008.025
2069.08042	7004.425
2072.09307	6981.725
2075.10378	6964.925
2078.11255	6965.825
2081.11938	6946.225
2084.12426	6951.925
2087.12722	6954.425
2090.12824	6940.425
2093.12732	6943.825
2096.12447	6955.625
2099.11969	6972.925
2102.11299	6963.225
2105.10435	6950.525
2108.09379	6965.225
2111.08131	6982.725
2114.0669	6954.525
2117.05057	6967.825
2120.03233	6983.925
2123.01216	6956.825
2125.99008	6974.625
2128.96609	6989.825
2131.94018	6991.325
2134.91236	6986.825
2137.88263	6979.625
2140.851	6973.125
2143.81746	6984.425
2146.78201	6976.625
2149.74466	6993.025
2152.7054	6995.525
2155.66425	6989.025
2158.6212	6983.625
2161.57625	6978.525
2164.52941	6967.525
2167.48067	6962.425
2170.43004	6951.825
2173.37752	6962.525
2176.32311	6968.125
2179.26681	6987.125
2182.20863	6971.225
2185.14856	6986.225
2188.08661	6980.925
2191.02278	6985.125
2193.95707	6973.125
2196.88948	7003.525
2199.82001	6972.525
2202.74867	6957.625
2205.67545	6996.625
2208.60037	6979.425
2211.52341	6948.125
2214.44458	6940.725
2217.36388	6936.625
2220.28132	6915.525
2223.1969	6895.525
2226.11061	6871.725
2229.02246	6880.425
2231.93245	6857.525
2234.84058	6852.825
2237.74686	6852.025
2240.65128	6812.725
2243.55385	6820.025
2246.45456	6812.725
2249.35343	6801.125
2252.25044	6801.225
2255.14561	6782.925
2258.03893	6791.825
2260.93041	6788.625
2263.82004	6767.225
2266.70783	6745.325
2269.59378	6711.725
2272.4779	6699.925
2275.36017	6682.225
2278.24061	6669.925
2281.11922	6673.425
2283.996	6627.925
2286.87094	6635.025
2289.74405	6632.625
2292.61534	6611.625
2295.4848	6626.225
2298.35243	6624.125
2301.21824	6594.825
2304.08223	6598.825
2306.94439	6605.025
2309.80474	6625.925
2312.66327	6604.625
2315.51999	6622.825
2318.37489	6618.225
2321.22797	6612.425
2324.07925	6600.325
2326.92871	6595.825
2329.77637	6600.425
2332.62222	6585.825
2335.46626	6582.925
2338.3085	6588.625
2341.14893	6583.925
2343.98756	6597.325
2346.8244	6615.425
2349.65943	6585.725
2352.49267	6573.425
2355.32411	6583.425
2358.15376	6586.025
2360.98161	6550.725
2363.80768	6558.025
2366.63195	6561.225
2369.45444	6529.625
2372.27514	6525.025
2375.09405	6530.025
2377.91118	6494.025
2380.72652	6493.625
2383.54009	6458.625
2386.35187	6458.325
2389.16188	6456.325
2391.97011	6442.325
2394.77657	6432.325
2397.58125	6385.825
2400.38416	6417.025
2403.18529	6389.525
2405.98466	6401.625
2408.78226	6349.525
2411.57809	6346.025
2414.37216	6325.125
2417.16446	6330.125
2419.955	6301.225
2422.74378	6299.425
2425.5308	6302.425
2428.31606	6315.725
2431.09956	6304.225
2433.88131	6281.025
2436.6613	6278.225
2439.43954	6281.925
2442.21603	6274.325
2444.99077	6282.025
2447.76377	6256.925
2450.53501	6269.125
2453.30451	6276.825
2456.07226	6264.725
2458.83827	6221.725
2461.60254	6223.825
2464.36507	6239.025
2467.12586	6227.825
2469.88492	6226.925
2472.64224	6242.725
2475.39782	6239.525
2478.15167	6223.325
2480.90379	6217.825
2483.65417	6214.225
2486.40283	6223.125
2489.14976	6226.125
2491.89497	6243.625
2494.63845	6223.225
2497.3802	6229.525
2500.12024	6233.225
2502.85855	6202.825
2505.59514	6223.525
2508.33002	6204.625
2511.06318	6186.125
2513.79462	6166.425
2516.52435	6165.725
2519.25237	6159.825
2521.97867	6151.525
2524.70327	6150.725
2527.42616	6140.225
2530.14734	6135.125
2532.86681	6128.625
2535.58458	6143.525
2538.30065	6137.225
2541.01501	6144.025
2543.72768	6103.525
2546.43864	6102.425
2549.14791	6106.225
2551.85548	6102.325
2554.56136	6090.125
2557.26554	6093.325
2559.96803	6083.725
2562.66883	6062.425
2565.36794	6056.325
2568.06536	6036.725
2570.7611	6032.325
2573.45514	6035.225
2576.14751	6034.225
2578.83819	6009.425
2581.52719	6011.725
2584.21451	6029.225
2586.90015	6027.625
2589.58411	6008.125
2592.2664	6008.425
2594.94701	5997.425
2597.62594	5989.725
2600.30321	5968.725
2602.9788	5992.425
2605.65273	5979.825
2608.32498	5986.125
2610.99557	5963.625
2613.66449	5966.925
2616.33175	5971.825
2618.99734	5965.525
2621.66128	5961.725
2624.32355	5959.225
2626.98416	5955.925
2629.64311	5955.125
2632.30041	5951.725
2634.95605	5959.425
2637.61004	5941.925
2640.26238	5917.125
2642.91306	5915.425
2645.56209	5919.225
2648.20948	5910.725
2650.85521	5897.525
2653.4993	5903.625
2656.14175	5904.225
2658.78255	5878.425
2661.42171	5877.225
2664.05923	5901.025
2666.6951	5903.925
2669.32934	5928.125
2671.96194	5892.125
2674.59291	5910.725
2677.22224	5905.225
2679.84993	5879.925
2682.476	5895.125
2685.10043	5892.425
2687.72324	5898.525
2690.34441	5875.725
2692.96396	5883.525
2695.58188	5857.625
2698.19818	5856.625
2700.81285	5862.025
2703.4259	5848.825
2706.03733	5849.625
2708.64714	5828.225
2711.25533	5845.225
2713.86191	5842.125
2716.46687	5849.225
2719.07021	5846.925
2721.67194	5865.325
2724.27206	5850.025
2726.87057	5846.725
2729.46747	5851.125
2732.06276	5842.225
2734.65644	5846.425
2737.24852	5838.725
2739.83899	5822.925
2742.42786	5835.325
2745.01513	5801.925
2747.60079	5800.725
2750.18486	5782.725
2752.76733	5797.525
2755.3482	5790.725
2757.92747	5767.825
2760.50515	5775.325
2763.08123	5781.325
2765.65573	5769.325
2768.22863	5756.125
2770.79994	5748.325
2773.36967	5742.125
2775.9378	5750.525
2778.50435	5754.425
2781.06932	5733.825
2783.6327	5734.225
2786.1945	5743.725
2788.75471	5732.625
2791.31335	5721.525
2793.87041	5710.425
2796.42589	5680.325
2798.97979	5685.425
2801.53212	5664.225
2804.08288	5665.925
2806.63206	5646.525
2809.17967	5639.025
2811.72571	5623.425
2814.27018	5643.025
2816.81308	5603.525
2819.35442	5616.225
2821.89419	5608.125
2824.43239	5603.225
2826.96904	5600.225
2829.50412	5591.025
2832.03763	5561.525
2834.56959	5579.725
2837.1	5538.925
2839.62884	5546.025
2842.15613	5528.825
2844.68186	5555.925
2847.20604	5538.625
2849.72867	5537.925
2852.24974	5517.525
2854.76927	5501.525
2857.28724	5483.825
2859.80367	5494.025
2862.31855	5480.025
2864.83189	5493.225
2867.34368	5469.325
2869.85393	5477.425
2872.36264	5480.225
2874.8698	5464.425
2877.37543	5472.025
2879.87952	5478.325
2882.38207	5460.625
2884.88308	5463.525
2887.38256	5450.525
2889.88051	5438.525
2892.37692	5443.225
2894.8718	5443.825
2897.36515	5453.225
2899.85698	5439.325
2902.34727	5450.125
2904.83604	5469.225
2907.32328	5470.825
2909.809	5455.225
2912.29319	5478.925
2914.77587	5482.825
2917.25702	5468.625
2919.73665	5477.025
2922.21476	5456.825
2924.69136	5448.425
2927.16644	5456.225
2929.64	5440.725
2932.11205	5419.025
2934.58258	5405.325
2937.05161	5408.025
2939.51912	5411.025
2941.98513	5398.325
2944.44962	5385.925
2946.91261	5371.025
2949.37409	5396.025
2951.83407	5378.325
2954.29254	5386.725
2956.74951	5366.425
2959.20498	5377.925
2961.65895	5373.925
2964.11142	5370.925
2966.56239	5354.725
2969.01186	5352.425
2971.45984	5355.925
2973.90632	5334.425
2976.35131	5325.325
2978.7948	5328.825
2981.23681	5315.025
2983.67732	5304.625
2986.11635	5290.325
2988.55388	5277.925
2990.98993	5245.825
2993.4245	5241.825
2995.85758	5224.425
2998.28917	5212.325
3000.71928	5187.225
3003.14791	5178.425
3005.57506	5185.025
3008.00073	5171.725
3010.42493	5153.825
3012.84764	5144.625
3015.26888	5138.725
3017.68865	5137.125
3020.10694	5115.525
3022.52376	5108.925
3024.9391	5090.325
3027.35298	5064.425
3029.76539	5071.025
3032.17632	5071.525
3034.5858	5058.025
3036.9938	5048.525
3039.40034	5032.325
3041.80542	5026.825
3044.20903	5014.525
3046.61118	5015.825
3049.01187	4997.225
3051.4111	4999.325
3053.80888	4964.125
3056.20519	4954.425
3058.60005	4951.325
3060.99345	4944.425
3063.3854	4944.725
3065.7759	4899.425
3068.16494	4896.325
3070.55254	4877.425
3072.93868	4860.125
3075.32338	4849.925
3077.70662	4859.825
3080.08842	4824.625
3082.46878	4831.825
3084.84769	4816.925
3087.22515	4791.625
3089.60118	4782.425
3091.97576	4794.225
3094.3489	4821.125
3096.72061	4798.125
3099.09087	4777.225
3101.4597	4787.325
3103.82709	4789.825
3106.19305	4769.425
3108.55757	4788.525
3110.92066	4755.825
3113.28232	4744.225
3115.64255	4748.425
3118.00134	4733.625
3120.35871	4730.625
3122.71466	4716.425
3125.06917	4721.725
3127.42226	4705.725
3129.77393	4693.225
3132.12417	4673.725
3134.47299	4671.425
3136.82039	4656.825
3139.16636	4660.825
3141.51092	4680.925
3143.85406	4669.825
3146.19579	4653.325
3148.53609	4639.325
3150.87499	4659.725
3153.21246	4637.425
3155.54853	4637.625
3157.88318	4655.325
3160.21642	4638.425
3162.54826	4634.225
3164.87868	4637.025
3167.2077	4645.225
3169.5353	4611.025
3171.86151	4605.125
3174.18631	4592.225
3176.5097	4590.425
3178.83169	4578.825
3181.15228	4577.425
3183.47147	4547.225
3185.78926	4559.925
3188.10565	4542.625
3190.42065	4539.025
3192.73424	4524.625
3195.04645	4530.525
3197.35725	4533.125
3199.66667	4520.525
3201.97469	4530.925
3204.28132	4523.525
3206.58656	4522.825
3208.8904	4523.925
3211.19287	4539.825
3213.49394	4528.025
3215.79363	4525.625
3218.09193	4525.425
