Data from AgNPs_UA_10uM_CRN_500uM_SU_RamanShift__97__13-21-30-272.txt Node

Date: Thu Aug 04 13:21:30 BST 2022
User: TCL
Spectrometer: QEP01345
Trigger mode: 4
Integration Time (sec): 1.000000E0
Scans to average: 10
Electric dark correction enabled: true
Nonlinearity correction enabled: false
Boxcar width: 0
XAxis mode: Raman Shifts
Number of Pixels in Spectrum: 1044
>>>>>Begin Spectral Data<<<<<
46.04893	0.2875
50.45542	-0.1125
54.85868	0.7875
59.25871	-0.2125
63.6555	20.8875
68.04907	21.1875
72.43941	22.2875
76.82654	22.7875
81.21044	23.7875
85.59113	24.5875
89.96862	25.1875
94.34289	27.1875
98.71396	27.2875
103.08183	30.9875
107.4465	28.9875
111.80798	29.0875
116.16626	30.8875
120.52136	31.3875
124.87327	34.6875
129.222	36.5875
133.56755	39.0875
137.90993	41.2875
142.24913	48.5875
146.58517	52.9875
150.91804	64.5875
155.24774	78.7875
159.57429	96.7875
163.89768	124.6875
168.21792	169.4875
172.53501	232.7875
176.84895	324.4875
181.15975	462.6875
185.46741	655.0875
189.77193	906.5875
194.07331	1216.3875
198.37157	1573.3875
202.6667	1948.0875
206.9587	2316.0875
211.24758	2678.1875
215.53334	3053.0875
219.81599	3434.0875
224.09553	3886.1875
228.37195	4371.0875
232.64527	4891.3875
236.91549	5427.7875
241.18261	5902.0875
245.44663	6310.4875
249.70755	6643.4875
253.96539	6944.9875
258.22014	7218.6875
262.4718	7450.1875
266.72039	7599.2875
270.96589	7663.2875
275.20832	7639.3875
279.44768	7550.0875
283.68397	7443.9875
287.91719	7346.8875
292.14735	7356.2875
296.37445	7426.8875
300.59849	7632.7875
304.81948	7824.5875
309.03742	7998.8875
313.25231	8101.5875
317.46415	8013.6875
321.67296	7790.7875
325.87872	7545.7875
330.08145	7449.9875
334.28114	7433.6875
338.47781	7523.7875
342.67145	7643.6875
346.86207	7842.2875
351.04966	8118.4875
355.23424	8384.8875
359.4158	8601.9875
363.59435	8749.3875
367.76989	8819.4875
371.94243	8801.1875
376.11196	8855.1875
380.27849	8857.5875
384.44203	8909.3875
388.60257	8948.0875
392.76012	9044.6875
396.91468	9145.4875
401.06626	9263.2875
405.21485	9359.1875
409.36047	9256.1875
413.50311	9030.7875
417.64277	8829.2875
421.77947	8665.7875
425.9132	8627.3875
430.04396	8613.8875
434.17176	8672.8875
438.2966	8779.1875
442.41849	8946.9875
446.53742	9180.6875
450.6534	9383.7875
454.76644	9554.0875
458.87653	9592.5875
462.98368	9607.9875
467.08789	9501.5875
471.18916	9332.3875
475.2875	9142.2875
479.38291	8956.4875
483.4754	8852.2875
487.56496	8763.3875
491.6516	8745.1875
495.73531	8743.7875
499.81612	8756.2875
503.89401	8853.1875
507.96899	8873.6875
512.04106	8901.1875
516.11023	8968.9875
520.1765	9016.1875
524.23987	9033.6875
528.30034	9031.3875
532.35792	9004.6875
536.41261	8926.0875
540.46441	8833.1875
544.51333	8791.5875
548.55936	8869.7875
552.60252	9002.5875
556.64279	9136.0875
560.6802	9251.5875
564.71473	9303.4875
568.7464	9379.3875
572.7752	9367.8875
576.80114	9195.0875
580.82422	9075.9875
584.84444	9056.6875
588.86181	9132.6875
592.87633	9245.6875
596.888	9452.3875
600.89682	9794.8875
604.9028	10778.0875
608.90594	12697.9875
612.90624	14475.7875
616.90371	13376.7875
620.89834	10811.9875
624.89015	9853.4875
628.87913	9804.5875
632.86528	9843.2875
636.84862	9796.4875
640.82913	9553.5875
644.80683	9250.8875
648.78172	9066.3875
652.75379	9088.6875
656.72306	9356.4875
660.68952	9627.9875
664.65319	9583.3875
668.61405	9502.4875
672.57211	9538.8875
676.52738	9537.5875
680.47986	9359.2875
684.42955	9207.7875
688.37646	9164.1875
692.32058	9266.6875
696.26192	9421.2875
700.20048	9603.8875
704.13626	9613.1875
708.06928	9469.6875
711.99952	9363.2875
715.927	9352.6875
719.85171	9439.1875
723.77365	9445.4875
727.69284	9367.3875
731.60928	9300.7875
735.52295	9297.2875
739.43388	9355.0875
743.34206	9411.2875
747.24749	9447.9875
751.15017	9431.4875
755.05012	9539.8875
758.94733	9838.9875
762.8418	10513.0875
766.73354	11536.8875
770.62254	12352.0875
774.50882	12594.3875
778.39237	12187.7875
782.27321	11431.4875
786.15132	10622.3875
790.02671	10024.9875
793.89938	9757.5875
797.76935	9590.6875
801.6366	9534.4875
805.50115	9479.2875
809.36299	9420.2875
813.22213	9407.8875
817.07857	9405.5875
820.93231	9394.9875
824.78336	9384.5875
828.63172	9405.3875
832.47738	9451.8875
836.32036	9447.4875
840.16066	9451.8875
843.99827	9472.8875
847.8332	9476.1875
851.66546	9447.8875
855.49504	9458.8875
859.32195	9487.4875
863.1462	9452.9875
866.96777	9432.3875
870.78668	9436.9875
874.60293	9476.7875
878.41652	9528.9875
882.22745	9584.2875
886.03573	9632.0875
889.84136	9638.3875
893.64433	9598.9875
897.44466	9564.0875
901.24235	9526.4875
905.0374	9502.8875
908.8298	9470.1875
912.61957	9483.3875
916.40671	9502.3875
920.19121	9558.3875
923.97308	9625.4875
927.75233	9740.4875
931.52895	9834.7875
935.30295	9739.9875
939.07433	9568.6875
942.84309	9495.5875
946.60924	9477.3875
950.37278	9456.9875
954.13371	9411.0875
957.89203	9375.5875
961.64774	9369.4875
965.40086	9359.2875
969.15137	9338.7875
972.89929	9361.0875
976.64461	9355.3875
980.38733	9366.2875
984.12747	9387.8875
987.86502	9460.1875
991.59999	9541.3875
995.33237	9686.0875
999.06217	9884.7875
1002.78939	10094.0875
1006.51404	10244.3875
1010.23611	10358.1875
1013.95561	10451.8875
1017.67255	10539.3875
1021.38692	10540.6875
1025.09872	10535.8875
1028.80796	10613.7875
1032.51465	10797.7875
1036.21877	10903.2875
1039.92035	10858.6875
1043.61937	10767.0875
1047.31584	10610.1875
1051.00976	10441.0875
1054.70114	10381.3875
1058.38998	10412.7875
1062.07627	10436.2875
1065.76003	10441.1875
1069.44126	10527.3875
1073.11995	10671.9875
1076.79611	10819.4875
1080.46974	10936.3875
1084.14085	11035.3875
1087.80943	11122.1875
1091.47549	11141.2875
1095.13903	11088.3875
1098.80005	11045.2875
1102.45857	11092.8875
1106.11456	11072.8875
1109.76805	10994.3875
1113.41903	11014.4875
1117.06751	11111.1875
1120.71348	11276.0875
1124.35696	11441.6875
1127.99793	11527.5875
1131.63641	11381.8875
1135.2724	11144.3875
1138.90589	10925.8875
1142.5369	10748.6875
1146.16542	10651.9875
1149.79145	10573.2875
1153.415	10524.8875
1157.03607	10502.6875
1160.65467	10625.5875
1164.27079	10845.0875
1167.88443	11196.0875
1171.49561	11703.9875
1175.10432	12489.1875
1178.71056	13449.8875
1182.31434	14320.8875
1185.91565	14697.3875
1189.51451	14708.9875
1193.11091	14394.8875
1196.70485	13977.6875
1200.29634	13511.9875
1203.88538	13050.4875
1207.47197	12568.7875
1211.05612	12137.3875
1214.63782	11804.3875
1218.21708	11615.8875
1221.79391	11580.1875
1225.36829	11643.8875
1228.94024	11616.8875
1232.50976	11534.0875
1236.07685	11502.3875
1239.6415	11466.0875
1243.20374	11520.7875
1246.76355	11580.7875
1250.32093	11731.0875
1253.8759	11935.1875
1257.42845	12233.0875
1260.97859	12531.3875
1264.52631	12848.1875
1268.07163	13080.9875
1271.61453	13290.9875
1275.15503	13418.1875
1278.69312	13555.5875
1282.22882	13700.9875
1285.76211	13824.0875
1289.29301	13967.8875
1292.82151	14146.1875
1296.34761	14409.2875
1299.87133	14869.5875
1303.39266	15686.8875
1306.9116	16873.2875
1310.42815	18129.0875
1313.94233	18725.4875
1317.45412	18333.2875
1320.96354	17402.0875
1324.47058	16474.4875
1327.97525	15649.1875
1331.47754	15180.1875
1334.97747	15087.7875
1338.47502	15268.2875
1341.97022	15724.3875
1345.46305	16414.0875
1348.95352	17283.3875
1352.44163	18228.7875
1355.92738	19249.3875
1359.41078	20503.4875
1362.89183	21225.1875
1366.37053	20215.7875
1369.84688	17808.7875
1373.32088	15628.5875
1376.79254	14311.1875
1380.26186	13717.9875
1383.72883	13371.4875
1387.19347	13061.0875
1390.65578	12725.9875
1394.11575	12384.4875
1397.57339	12199.7875
1401.0287	12162.5875
1404.48168	12196.3875
1407.93234	12340.7875
1411.38068	12511.6875
1414.82669	12707.8875
1418.27039	12723.7875
1421.71177	12640.7875
1425.15083	12514.7875
1428.58758	12504.8875
1432.02203	12611.7875
1435.45416	12725.7875
1438.88399	12725.7875
1442.31151	12675.2875
1445.73673	12630.9875
1449.15965	12616.3875
1452.58027	12553.9875
1455.9986	12485.6875
1459.41463	12467.5875
1462.82837	12536.4875
1466.23982	12746.1875
1469.64898	12941.2875
1473.05586	13121.9875
1476.46045	13258.4875
1479.86276	13388.5875
1483.26279	13558.0875
1486.66054	13767.4875
1490.05602	14049.0875
1493.44922	14542.5875
1496.84016	15228.3875
1500.22882	16211.7875
1503.61521	17383.0875
1506.99934	18483.6875
1510.38121	19100.8875
1513.76081	18839.4875
1517.13816	17659.5875
1520.51324	16219.8875
1523.88607	15005.4875
1527.25665	14322.4875
1530.62498	13953.8875
1533.99105	13766.2875
1537.35488	13631.7875
1540.71647	13519.7875
1544.07581	13473.1875
1547.4329	13328.4875
1550.78776	13188.2875
1554.14038	13058.3875
1557.49077	13039.8875
1560.83892	13129.3875
1564.18484	13309.6875
1567.52853	13489.9875
1570.86999	13645.2875
1574.20922	13640.0875
1577.54624	13451.9875
1580.88103	13064.3875
1584.2136	12636.9875
1587.54395	12492.7875
1590.87208	12741.0875
1594.19801	13369.2875
1597.52172	14108.3875
1600.84321	14456.2875
1604.16251	14332.6875
1607.47959	13861.2875
1610.79447	13237.3875
1614.10715	12534.0875
1617.41763	11875.2875
1620.7259	11416.1875
1624.03199	11176.2875
1627.33587	11148.5875
1630.63757	11378.4875
1633.93707	11839.5875
1637.23439	12613.3875
1640.52951	13623.5875
1643.82246	14830.5875
1647.11321	15762.2875
1650.40179	15995.7875
1653.68819	14998.3875
1656.97241	13356.5875
1660.25446	11918.0875
1663.53433	10931.4875
1666.81203	10343.8875
1670.08756	10009.1875
1673.36092	9764.9875
1676.63211	9648.6875
1679.90115	9536.8875
1683.16801	9427.7875
1686.43272	9354.0875
1689.69527	9285.4875
1692.95567	9261.8875
1696.2139	9214.4875
1699.46999	9206.5875
1702.72392	9194.6875
1705.97571	9161.9875
1709.22535	9167.0875
1712.47284	9165.8875
1715.71819	9181.6875
1718.96139	9166.6875
1722.20246	9159.8875
1725.44139	9133.7875
1728.67818	9066.1875
1731.91284	9042.6875
1735.14537	8984.8875
1738.37576	8947.4875
1741.60403	8932.1875
1744.83017	8892.7875
1748.05418	8899.8875
1751.27607	8891.5875
1754.49584	8850.3875
1757.71349	8853.3875
1760.92903	8864.0875
1764.14244	8828.8875
1767.35375	8809.1875
1770.56294	8803.6875
1773.77002	8807.7875
1776.97499	8763.5875
1780.17785	8720.6875
1783.37861	8717.8875
1786.57727	8722.2875
1789.77382	8705.7875
1792.96828	8685.1875
1796.16064	8677.6875
1799.3509	8669.1875
1802.53907	8660.6875
1805.72514	8641.3875
1808.90913	8620.1875
1812.09102	8637.4875
1815.27083	8584.7875
1818.44856	8568.9875
1821.6242	8533.7875
1824.79776	8528.3875
1827.96924	8515.4875
1831.13864	8512.4875
1834.30597	8511.3875
1837.47122	8481.9875
1840.6344	8451.2875
1843.7955	8484.1875
1846.95454	8466.5875
1850.11151	8448.4875
1853.26642	8449.6875
1856.41926	8467.0875
1859.57004	8462.7875
1862.71876	8447.2875
1865.86542	8436.3875
1869.01003	8453.4875
1872.15258	8405.7875
1875.29308	8417.2875
1878.43152	8401.6875
1881.56792	8401.6875
1884.70227	8369.9875
1887.83457	8358.8875
1890.96482	8352.4875
1894.09304	8342.2875
1897.21921	8323.7875
1900.34335	8298.1875
1903.46544	8301.7875
1906.58551	8313.2875
1909.70353	8297.4875
1912.81953	8282.0875
1915.93349	8307.2875
1919.04543	8260.8875
1922.15534	8256.0875
1925.26322	8260.0875
1928.36908	8231.2875
1931.47292	8207.8875
1934.57473	8207.6875
1937.67453	8169.2875
1940.77232	8163.7875
1943.86808	8127.3875
1946.96184	8112.2875
1950.05358	8091.0875
1953.14331	8079.1875
1956.23103	8066.4875
1959.31675	8019.1875
1962.40046	7986.2875
1965.48217	7973.3875
1968.56188	7945.0875
1971.63959	7931.0875
1974.7153	7918.3875
1977.78901	7917.4875
1980.86073	7887.2875
1983.93046	7832.6875
1986.99819	7818.3875
1990.06394	7796.9875
1993.1277	7762.5875
1996.18947	7738.5875
1999.24925	7715.6875
2002.30706	7687.3875
2005.36288	7644.2875
2008.41672	7631.4875
2011.46859	7616.2875
2014.51848	7590.7875
2017.56639	7579.4875
2020.61233	7553.5875
2023.6563	7541.4875
2026.6983	7519.8875
2029.73833	7486.9875
2032.7764	7473.3875
2035.8125	7471.5875
2038.84664	7461.2875
2041.87881	7433.3875
2044.90903	7421.4875
2047.93729	7425.6875
2050.96359	7392.3875
2053.98794	7373.8875
2057.01034	7369.2875
2060.03078	7369.7875
2063.04927	7368.2875
2066.06582	7340.8875
2069.08042	7366.7875
2072.09307	7333.5875
2075.10378	7336.2875
2078.11255	7319.1875
2081.11938	7308.5875
2084.12426	7312.1875
2087.12722	7313.3875
2090.12824	7271.4875
2093.12732	7317.8875
2096.12447	7312.1875
2099.11969	7313.2875
2102.11299	7318.9875
2105.10435	7316.3875
2108.09379	7317.1875
2111.08131	7324.6875
2114.0669	7307.3875
2117.05057	7333.4875
2120.03233	7354.2875
2123.01216	7330.7875
2125.99008	7342.0875
2128.96609	7326.2875
2131.94018	7342.8875
2134.91236	7343.7875
2137.88263	7335.8875
2140.851	7331.5875
2143.81746	7341.9875
2146.78201	7349.8875
2149.74466	7313.2875
2152.7054	7340.0875
2155.66425	7335.7875
2158.6212	7321.2875
2161.57625	7309.1875
2164.52941	7306.1875
2167.48067	7325.1875
2170.43004	7313.1875
2173.37752	7302.5875
2176.32311	7299.7875
2179.26681	7327.2875
2182.20863	7309.8875
2185.14856	7335.2875
2188.08661	7332.4875
2191.02278	7334.9875
2193.95707	7319.5875
2196.88948	7293.7875
2199.82001	7295.9875
2202.74867	7303.6875
2205.67545	7304.1875
2208.60037	7300.7875
2211.52341	7280.4875
2214.44458	7270.2875
2217.36388	7240.1875
2220.28132	7221.2875
2223.1969	7195.9875
2226.11061	7187.7875
2229.02246	7157.5875
2231.93245	7170.2875
2234.84058	7160.8875
2237.74686	7124.8875
2240.65128	7143.7875
2243.55385	7127.9875
2246.45456	7100.8875
2249.35343	7103.6875
2252.25044	7079.2875
2255.14561	7084.6875
2258.03893	7078.3875
2260.93041	7082.8875
2263.82004	7058.8875
2266.70783	7034.5875
2269.59378	7031.8875
2272.4779	6992.9875
2275.36017	6972.6875
2278.24061	6965.4875
2281.11922	6951.8875
2283.996	6925.0875
2286.87094	6923.6875
2289.74405	6919.0875
2292.61534	6923.5875
2295.4848	6899.6875
2298.35243	6895.4875
2301.21824	6878.1875
2304.08223	6896.3875
2306.94439	6891.8875
2309.80474	6878.4875
2312.66327	6869.0875
2315.51999	6875.4875
2318.37489	6873.7875
2321.22797	6871.2875
2324.07925	6848.8875
2326.92871	6840.7875
2329.77637	6830.3875
2332.62222	6821.4875
2335.46626	6807.4875
2338.3085	6819.6875
2341.14893	6812.5875
2343.98756	6836.4875
2346.8244	6811.8875
2349.65943	6820.2875
2352.49267	6798.1875
2355.32411	6817.6875
2358.15376	6782.0875
2360.98161	6798.6875
2363.80768	6769.8875
2366.63195	6762.5875
2369.45444	6762.1875
2372.27514	6742.3875
2375.09405	6720.4875
2377.91118	6719.4875
2380.72652	6698.0875
2383.54009	6688.2875
2386.35187	6669.8875
2389.16188	6667.8875
2391.97011	6646.4875
2394.77657	6616.9875
2397.58125	6619.3875
2400.38416	6608.6875
2403.18529	6591.4875
2405.98466	6588.2875
2408.78226	6549.1875
2411.57809	6556.1875
2414.37216	6538.9875
2417.16446	6528.6875
2419.955	6515.3875
2422.74378	6514.3875
2425.5308	6526.2875
2428.31606	6500.8875
2431.09956	6505.5875
2433.88131	6489.9875
2436.6613	6480.1875
2439.43954	6477.5875
2442.21603	6480.2875
2444.99077	6482.2875
2447.76377	6477.9875
2450.53501	6478.8875
2453.30451	6486.5875
2456.07226	6447.8875
2458.83827	6443.9875
2461.60254	6448.3875
2464.36507	6438.3875
2467.12586	6410.6875
2469.88492	6402.0875
2472.64224	6414.4875
2475.39782	6418.0875
2478.15167	6416.2875
2480.90379	6399.1875
2483.65417	6377.4875
2486.40283	6395.4875
2489.14976	6415.2875
2491.89497	6409.6875
2494.63845	6413.0875
2497.3802	6402.9875
2500.12024	6380.0875
2502.85855	6361.8875
2505.59514	6383.1875
2508.33002	6363.9875
2511.06318	6351.3875
2513.79462	6338.9875
2516.52435	6335.2875
2519.25237	6319.6875
2521.97867	6303.4875
2524.70327	6296.4875
2527.42616	6285.0875
2530.14734	6278.0875
2532.86681	6271.0875
2535.58458	6284.7875
2538.30065	6304.9875
2541.01501	6273.3875
2543.72768	6273.6875
2546.43864	6266.3875
2549.14791	6252.6875
2551.85548	6237.8875
2554.56136	6227.0875
2557.26554	6225.1875
2559.96803	6219.2875
2562.66883	6189.9875
2565.36794	6181.8875
2568.06536	6160.1875
2570.7611	6146.4875
2573.45514	6147.3875
2576.14751	6142.0875
2578.83819	6129.6875
2581.52719	6109.3875
2584.21451	6130.8875
2586.90015	6118.7875
2589.58411	6094.8875
2592.2664	6112.8875
2594.94701	6094.3875
2597.62594	6083.4875
2600.30321	6059.5875
2602.9788	6079.0875
2605.65273	6061.3875
2608.32498	6064.9875
2610.99557	6028.9875
2613.66449	6038.8875
2616.33175	6023.2875
2618.99734	6036.4875
2621.66128	6020.6875
2624.32355	6034.2875
2626.98416	6018.7875
2629.64311	6001.6875
2632.30041	6017.4875
2634.95605	6013.6875
2637.61004	5970.2875
2640.26238	5988.7875
2642.91306	5984.6875
2645.56209	5947.4875
2648.20948	5968.1875
2650.85521	5955.2875
2653.4993	5957.7875
2656.14175	5938.0875
2658.78255	5932.1875
2661.42171	5930.9875
2664.05923	5944.7875
2666.6951	5958.2875
2669.32934	5968.0875
2671.96194	5975.2875
2674.59291	5976.4875
2677.22224	5969.9875
2679.84993	5943.1875
2682.476	5949.3875
2685.10043	5959.9875
2687.72324	5933.6875
2690.34441	5948.4875
2692.96396	5937.2875
2695.58188	5920.8875
2698.19818	5921.4875
2700.81285	5915.1875
2703.4259	5908.3875
2706.03733	5917.1875
2708.64714	5892.0875
2711.25533	5893.3875
2713.86191	5898.9875
2716.46687	5901.4875
2719.07021	5913.1875
2721.67194	5890.5875
2724.27206	5896.5875
2726.87057	5894.0875
2729.46747	5899.7875
2732.06276	5897.0875
2734.65644	5885.4875
2737.24852	5899.7875
2739.83899	5879.1875
2742.42786	5854.1875
2745.01513	5849.6875
2747.60079	5841.3875
2750.18486	5837.2875
2752.76733	5837.9875
2755.3482	5828.7875
2757.92747	5816.2875
2760.50515	5788.3875
2763.08123	5796.2875
2765.65573	5775.9875
2768.22863	5777.0875
2770.79994	5779.4875
2773.36967	5787.1875
2775.9378	5766.3875
2778.50435	5758.3875
2781.06932	5769.7875
2783.6327	5771.7875
2786.1945	5763.7875
2788.75471	5743.5875
2791.31335	5726.8875
2793.87041	5726.6875
2796.42589	5698.1875
2798.97979	5680.7875
2801.53212	5682.6875
2804.08288	5676.0875
2806.63206	5655.5875
2809.17967	5650.9875
2811.72571	5627.5875
2814.27018	5647.6875
2816.81308	5612.1875
2819.35442	5606.1875
2821.89419	5599.5875
2824.43239	5604.8875
2826.96904	5568.8875
2829.50412	5591.8875
2832.03763	5559.5875
2834.56959	5580.2875
2837.1	5534.0875
2839.62884	5528.7875
2842.15613	5524.6875
2844.68186	5526.9875
2847.20604	5548.4875
2849.72867	5529.0875
2852.24974	5505.4875
2854.76927	5481.4875
2857.28724	5468.7875
2859.80367	5468.4875
2862.31855	5466.9875
2864.83189	5468.3875
2867.34368	5472.3875
2869.85393	5472.6875
2872.36264	5453.3875
2874.8698	5468.6875
2877.37543	5454.8875
2879.87952	5434.2875
2882.38207	5416.2875
2884.88308	5409.5875
2887.38256	5419.2875
2889.88051	5415.3875
2892.37692	5414.2875
2894.8718	5411.0875
2897.36515	5413.9875
2899.85698	5409.9875
2902.34727	5411.8875
2904.83604	5405.2875
2907.32328	5424.3875
2909.809	5430.4875
2912.29319	5413.2875
2914.77587	5425.5875
2917.25702	5444.4875
2919.73665	5446.9875
2922.21476	5413.9875
2924.69136	5397.1875
2927.16644	5415.1875
2929.64	5405.5875
2932.11205	5389.1875
2934.58258	5365.0875
2937.05161	5369.8875
2939.51912	5385.9875
2941.98513	5371.7875
2944.44962	5346.4875
2946.91261	5342.2875
2949.37409	5358.3875
2951.83407	5355.0875
2954.29254	5339.0875
2956.74951	5336.5875
2959.20498	5346.0875
2961.65895	5335.2875
2964.11142	5344.4875
2966.56239	5316.6875
2969.01186	5338.9875
2971.45984	5306.4875
2973.90632	5315.3875
2976.35131	5298.3875
2978.7948	5298.6875
2981.23681	5269.2875
2983.67732	5260.5875
2986.11635	5244.1875
2988.55388	5236.6875
2990.98993	5220.6875
2993.4245	5209.1875
2995.85758	5195.3875
2998.28917	5176.9875
3000.71928	5162.9875
3003.14791	5155.8875
3005.57506	5148.7875
3008.00073	5125.0875
3010.42493	5108.9875
3012.84764	5125.1875
3015.26888	5103.0875
3017.68865	5103.2875
3020.10694	5068.7875
3022.52376	5070.6875
3024.9391	5056.3875
3027.35298	5019.1875
3029.76539	5026.6875
3032.17632	5024.5875
3034.5858	5028.3875
3036.9938	5000.9875
3039.40034	5005.3875
3041.80542	4991.2875
3044.20903	4973.3875
3046.61118	4980.9875
3049.01187	4945.1875
3051.4111	4948.1875
3053.80888	4934.2875
3056.20519	4924.2875
3058.60005	4912.3875
3060.99345	4904.5875
3063.3854	4899.6875
3065.7759	4861.7875
3068.16494	4866.0875
3070.55254	4842.5875
3072.93868	4821.8875
3075.32338	4818.8875
3077.70662	4799.8875
3080.08842	4803.8875
3082.46878	4808.5875
3084.84769	4762.6875
3087.22515	4781.3875
3089.60118	4779.4875
3091.97576	4773.7875
3094.3489	4756.0875
3096.72061	4753.0875
3099.09087	4748.8875
3101.4597	4740.6875
3103.82709	4752.8875
3106.19305	4731.4875
