Data from AgNPs_UA_50uM_CRN_500uM_SU_RamanShift__30__14-00-50-319.txt Node

Date: Thu Aug 04 14:00:50 BST 2022
User: TCL
Spectrometer: QEP01345
Trigger mode: 4
Integration Time (sec): 1.000000E0
Scans to average: 10
Electric dark correction enabled: true
Nonlinearity correction enabled: false
Boxcar width: 0
XAxis mode: Raman Shifts
Number of Pixels in Spectrum: 1044
>>>>>Begin Spectral Data<<<<<
46.04893	0.825
50.45542	-0.675
54.85868	0.925
59.25871	-1.075
63.6555	13.225
68.04907	14.125
72.43941	14.125
76.82654	14.925
81.21044	15.925
85.59113	19.425
89.96862	17.625
94.34289	19.425
98.71396	19.425
103.08183	17.225
107.4465	17.125
111.80798	17.725
116.16626	19.325
120.52136	21.625
124.87327	23.125
129.222	24.225
133.56755	27.325
137.90993	28.125
142.24913	29.025
146.58517	33.625
150.91804	39.625
155.24774	46.625
159.57429	62.025
163.89768	80.525
168.21792	102.425
172.53501	143.025
176.84895	198.025
181.15975	286.625
185.46741	400.125
189.77193	559.225
194.07331	751.625
198.37157	971.325
202.6667	1201.725
206.9587	1442.625
211.24758	1675.525
215.53334	1923.625
219.81599	2175.225
224.09553	2474.725
228.37195	2799.325
232.64527	3155.125
236.91549	3505.725
241.18261	3789.125
245.44663	4031.725
249.70755	4214.925
253.96539	4360.425
258.22014	4495.925
262.4718	4602.625
266.72039	4672.125
270.96589	4701.825
275.20832	4663.925
279.44768	4575.725
283.68397	4520.025
287.91719	4455.925
292.14735	4461.125
296.37445	4551.125
300.59849	4698.225
304.81948	4901.025
309.03742	5117.025
313.25231	5225.625
317.46415	5204.025
321.67296	4972.525
325.87872	4711.525
330.08145	4578.525
334.28114	4583.025
338.47781	4624.925
342.67145	4745.925
346.86207	4896.425
351.04966	5110.025
355.23424	5313.325
359.4158	5464.925
363.59435	5544.625
367.76989	5524.125
371.94243	5479.325
376.11196	5434.425
380.27849	5406.125
384.44203	5383.225
388.60257	5392.225
392.76012	5428.325
396.91468	5495.025
401.06626	5588.525
405.21485	5628.925
409.36047	5516.025
413.50311	5300.625
417.64277	5125.925
421.77947	5020.525
425.9132	4974.925
430.04396	4983.625
434.17176	5008.625
438.2966	5075.725
442.41849	5142.825
446.53742	5245.725
450.6534	5342.625
454.76644	5382.225
458.87653	5403.825
462.98368	5377.425
467.08789	5368.725
471.18916	5283.025
475.2875	5171.225
479.38291	5119.725
483.4754	5038.025
487.56496	5000.425
491.6516	5007.425
495.73531	4994.725
499.81612	5027.525
503.89401	5057.325
507.96899	5088.025
512.04106	5144.225
516.11023	5211.625
520.1765	5246.825
524.23987	5269.125
528.30034	5257.925
532.35792	5236.625
536.41261	5172.225
540.46441	5110.425
544.51333	5093.525
548.55936	5130.425
552.60252	5197.925
556.64279	5284.225
560.6802	5320.625
564.71473	5408.925
568.7464	5521.725
572.7752	5496.525
576.80114	5356.225
580.82422	5224.125
584.84444	5164.025
588.86181	5153.625
592.87633	5173.725
596.888	5292.325
600.89682	5513.825
604.9028	6160.025
608.90594	7532.225
612.90624	8970.925
616.90371	8297.925
620.89834	6316.225
624.89015	5485.125
628.87913	5393.625
632.86528	5513.325
636.84862	5603.025
640.82913	5506.225
644.80683	5316.225
648.78172	5196.625
652.75379	5195.625
656.72306	5342.225
660.68952	5516.425
664.65319	5455.625
668.61405	5324.025
672.57211	5308.725
676.52738	5299.025
680.47986	5242.825
684.42955	5159.825
688.37646	5136.925
692.32058	5185.325
696.26192	5255.525
700.20048	5323.125
704.13626	5332.225
708.06928	5319.525
711.99952	5279.625
715.927	5253.225
719.85171	5299.825
723.77365	5318.725
727.69284	5307.125
731.60928	5261.425
735.52295	5239.025
739.43388	5234.025
743.34206	5253.525
747.24749	5269.325
751.15017	5291.525
755.05012	5348.125
758.94733	5562.125
762.8418	6092.725
766.73354	6894.525
770.62254	7501.725
774.50882	7620.925
778.39237	7275.725
782.27321	6652.525
786.15132	6012.325
790.02671	5616.825
793.89938	5419.825
797.76935	5301.025
801.6366	5229.625
805.50115	5241.825
809.36299	5215.625
813.22213	5198.425
817.07857	5216.725
820.93231	5205.425
824.78336	5212.625
828.63172	5237.525
832.47738	5236.425
836.32036	5230.225
840.16066	5213.925
843.99827	5195.225
847.8332	5198.225
851.66546	5203.925
855.49504	5222.625
859.32195	5230.425
863.1462	5219.625
866.96777	5234.625
870.78668	5243.625
874.60293	5240.325
878.41652	5263.225
882.22745	5310.725
886.03573	5326.325
889.84136	5336.725
893.64433	5306.225
897.44466	5289.425
901.24235	5291.825
905.0374	5277.225
908.8298	5243.825
912.61957	5234.225
916.40671	5235.325
920.19121	5260.225
923.97308	5301.025
927.75233	5336.425
931.52895	5383.225
935.30295	5332.325
939.07433	5252.725
942.84309	5167.625
946.60924	5142.225
950.37278	5142.025
954.13371	5145.225
957.89203	5117.725
961.64774	5127.925
965.40086	5116.625
969.15137	5122.025
972.89929	5107.725
976.64461	5119.125
980.38733	5105.025
984.12747	5111.825
987.86502	5122.325
991.59999	5157.025
995.33237	5196.625
999.06217	5258.625
1002.78939	5319.525
1006.51404	5403.025
1010.23611	5502.525
1013.95561	5535.525
1017.67255	5532.125
1021.38692	5514.725
1025.09872	5435.825
1028.80796	5372.625
1032.51465	5342.125
1036.21877	5356.525
1039.92035	5372.125
1043.61937	5413.525
1047.31584	5427.425
1051.00976	5432.225
1054.70114	5441.325
1058.38998	5451.625
1062.07627	5468.625
1065.76003	5498.325
1069.44126	5562.125
1073.11995	5671.725
1076.79611	5771.825
1080.46974	5875.525
1084.14085	5958.025
1087.80943	6012.825
1091.47549	6050.025
1095.13903	6028.525
1098.80005	5969.925
1102.45857	5908.825
1106.11456	5850.225
1109.76805	5808.025
1113.41903	5835.825
1117.06751	5926.325
1120.71348	6051.125
1124.35696	6252.025
1127.99793	6368.725
1131.63641	6260.625
1135.2724	6054.025
1138.90589	5880.825
1142.5369	5809.125
1146.16542	5776.025
1149.79145	5731.125
1153.415	5664.625
1157.03607	5634.425
1160.65467	5676.725
1164.27079	5779.625
1167.88443	5927.025
1171.49561	6198.325
1175.10432	6623.225
1178.71056	7193.625
1182.31434	7678.125
1185.91565	7793.925
1189.51451	7684.125
1193.11091	7478.725
1196.70485	7271.625
1200.29634	7127.625
1203.88538	6949.925
1207.47197	6677.625
1211.05612	6445.325
1214.63782	6269.225
1218.21708	6143.425
1221.79391	6020.925
1225.36829	5961.725
1228.94024	5941.625
1232.50976	5940.025
1236.07685	5953.125
1239.6415	5974.225
1243.20374	5986.225
1246.76355	6025.125
1250.32093	6075.225
1253.8759	6182.225
1257.42845	6345.925
1260.97859	6517.125
1264.52631	6635.125
1268.07163	6775.425
1271.61453	6834.125
1275.15503	6821.425
1278.69312	6850.625
1282.22882	6846.025
1285.76211	6937.125
1289.29301	7077.625
1292.82151	7210.925
1296.34761	7326.325
1299.87133	7583.725
1303.39266	8014.725
1306.9116	8671.425
1310.42815	9361.925
1313.94233	9530.725
1317.45412	9131.625
1320.96354	8503.025
1324.47058	7939.725
1327.97525	7482.925
1331.47754	7214.025
1334.97747	7155.425
1338.47502	7249.225
1341.97022	7481.925
1345.46305	7952.025
1348.95352	8570.825
1352.44163	9331.925
1355.92738	10099.325
1359.41078	11101.625
1362.89183	11884.425
1366.37053	11443.725
1369.84688	9805.025
1373.32088	8266.325
1376.79254	7415.625
1380.26186	7005.325
1383.72883	6761.625
1387.19347	6538.925
1390.65578	6322.625
1394.11575	6151.125
1397.57339	6025.625
1401.0287	5942.725
1404.48168	5927.125
1407.93234	5924.225
1411.38068	5994.725
1414.82669	6047.925
1418.27039	6070.725
1421.71177	6036.125
1425.15083	5993.825
1428.58758	5948.925
1432.02203	5968.425
1435.45416	6004.025
1438.88399	6030.425
1442.31151	6054.225
1445.73673	6093.425
1449.15965	6120.525
1452.58027	6101.525
1455.9986	6045.725
1459.41463	6035.825
1462.82837	6087.425
1466.23982	6203.025
1469.64898	6321.725
1473.05586	6426.225
1476.46045	6486.425
1479.86276	6519.325
1483.26279	6628.125
1486.66054	6772.025
1490.05602	6944.625
1493.44922	7284.725
1496.84016	7798.725
1500.22882	8590.725
1503.61521	9580.325
1506.99934	10576.325
1510.38121	11157.925
1513.76081	10993.325
1517.13816	10064.325
1520.51324	8898.025
1523.88607	7942.825
1527.25665	7384.825
1530.62498	7101.625
1533.99105	6965.325
1537.35488	6873.525
1540.71647	6829.525
1544.07581	6750.725
1547.4329	6711.725
1550.78776	6640.725
1554.14038	6601.425
1557.49077	6589.125
1560.83892	6651.025
1564.18484	6823.425
1567.52853	7070.125
1570.86999	7231.025
1574.20922	7297.125
1577.54624	7197.825
1580.88103	6864.325
1584.2136	6498.125
1587.54395	6252.225
1590.87208	6207.725
1594.19801	6373.225
1597.52172	6598.225
1600.84321	6685.625
1604.16251	6643.525
1607.47959	6507.225
1610.79447	6323.425
1614.10715	6091.925
1617.41763	5828.225
1620.7259	5653.125
1624.03199	5535.225
1627.33587	5513.825
1630.63757	5564.725
1633.93707	5726.325
1637.23439	5992.625
1640.52951	6438.825
1643.82246	7117.625
1647.11321	7845.425
1650.40179	8272.625
1653.68819	8019.525
1656.97241	7231.925
1660.25446	6343.325
1663.53433	5748.925
1666.81203	5374.225
1670.08756	5163.325
1673.36092	5027.925
1676.63211	4948.525
1679.90115	4903.225
1683.16801	4851.225
1686.43272	4811.725
1689.69527	4760.425
1692.95567	4738.225
1696.2139	4731.925
1699.46999	4719.725
1702.72392	4729.625
1705.97571	4727.025
1709.22535	4718.925
1712.47284	4706.425
1715.71819	4722.425
1718.96139	4725.225
1722.20246	4698.025
1725.44139	4686.325
1728.67818	4645.625
1731.91284	4629.425
1735.14537	4595.525
1738.37576	4617.325
1741.60403	4572.625
1744.83017	4561.825
1748.05418	4565.125
1751.27607	4546.925
1754.49584	4537.025
1757.71349	4528.525
1760.92903	4529.725
1764.14244	4527.425
1767.35375	4513.725
1770.56294	4502.925
1773.77002	4497.625
1776.97499	4481.925
1780.17785	4472.025
1783.37861	4453.925
1786.57727	4442.825
1789.77382	4434.425
1792.96828	4430.125
1796.16064	4416.525
1799.3509	4412.325
1802.53907	4394.125
1805.72514	4399.425
1808.90913	4387.925
1812.09102	4380.825
1815.27083	4365.725
1818.44856	4354.225
1821.6242	4360.225
1824.79776	4327.225
1827.96924	4330.225
1831.13864	4308.725
1834.30597	4305.725
1837.47122	4286.225
1840.6344	4294.025
1843.7955	4296.925
1846.95454	4300.225
1850.11151	4314.525
1853.26642	4290.425
1856.41926	4276.125
1859.57004	4294.925
1862.71876	4282.325
1865.86542	4274.025
1869.01003	4278.125
1872.15258	4270.325
1875.29308	4267.725
1878.43152	4267.625
1881.56792	4249.425
1884.70227	4249.525
1887.83457	4236.325
1890.96482	4225.925
1894.09304	4224.425
1897.21921	4215.225
1900.34335	4216.125
1903.46544	4201.925
1906.58551	4197.725
1909.70353	4167.225
1912.81953	4171.925
1915.93349	4170.125
1919.04543	4178.525
1922.15534	4154.925
1925.26322	4156.125
1928.36908	4146.725
1931.47292	4141.525
1934.57473	4134.525
1937.67453	4114.725
1940.77232	4106.025
1943.86808	4091.725
1946.96184	4082.425
1950.05358	4076.625
1953.14331	4054.225
1956.23103	4037.025
1959.31675	4017.825
1962.40046	4018.625
1965.48217	3998.125
1968.56188	4006.025
1971.63959	3990.325
1974.7153	3990.825
1977.78901	3980.325
1980.86073	3969.125
1983.93046	3957.025
1986.99819	3935.625
1990.06394	3925.825
1993.1277	3904.425
1996.18947	3877.525
1999.24925	3876.225
2002.30706	3855.525
2005.36288	3845.925
2008.41672	3837.025
2011.46859	3825.125
2014.51848	3818.025
2017.56639	3808.725
2020.61233	3795.725
2023.6563	3776.425
2026.6983	3770.825
2029.73833	3748.325
2032.7764	3755.025
2035.8125	3734.425
2038.84664	3718.425
2041.87881	3723.025
2044.90903	3704.925
2047.93729	3691.725
2050.96359	3689.025
2053.98794	3680.725
2057.01034	3697.125
2060.03078	3686.225
2063.04927	3688.325
2066.06582	3687.425
2069.08042	3670.725
2072.09307	3659.425
2075.10378	3659.225
2078.11255	3662.325
2081.11938	3674.725
2084.12426	3645.625
2087.12722	3673.225
2090.12824	3655.425
2093.12732	3665.925
2096.12447	3651.225
2099.11969	3666.225
2102.11299	3668.425
2105.10435	3667.825
2108.09379	3676.025
2111.08131	3659.725
2114.0669	3660.125
2117.05057	3667.925
2120.03233	3661.225
2123.01216	3677.425
2125.99008	3660.725
2128.96609	3674.325
2131.94018	3669.125
2134.91236	3681.325
2137.88263	3669.825
2140.851	3671.225
2143.81746	3672.325
2146.78201	3683.525
2149.74466	3668.925
2152.7054	3670.525
2155.66425	3665.125
2158.6212	3670.025
2161.57625	3663.025
2164.52941	3663.025
2167.48067	3661.625
2170.43004	3666.325
2173.37752	3651.825
2176.32311	3644.825
2179.26681	3662.925
2182.20863	3653.925
2185.14856	3657.125
2188.08661	3642.525
2191.02278	3647.825
2193.95707	3635.525
2196.88948	3637.325
2199.82001	3651.925
2202.74867	3634.725
2205.67545	3625.025
2208.60037	3626.425
2211.52341	3614.125
2214.44458	3617.325
2217.36388	3608.325
2220.28132	3592.125
2223.1969	3578.225
2226.11061	3562.525
2229.02246	3550.825
2231.93245	3548.725
2234.84058	3554.525
2237.74686	3550.825
2240.65128	3558.625
2243.55385	3527.625
2246.45456	3533.925
2249.35343	3530.525
2252.25044	3519.525
2255.14561	3519.825
2258.03893	3524.625
2260.93041	3510.325
2263.82004	3509.825
2266.70783	3504.725
2269.59378	3478.225
2272.4779	3489.925
2275.36017	3468.425
2278.24061	3458.325
2281.11922	3461.625
2283.996	3446.225
2286.87094	3444.025
2289.74405	3436.425
2292.61534	3437.825
2295.4848	3423.125
2298.35243	3443.825
2301.21824	3429.625
2304.08223	3420.825
2306.94439	3405.725
2309.80474	3423.825
2312.66327	3405.725
2315.51999	3404.325
2318.37489	3402.325
2321.22797	3380.725
2324.07925	3384.125
2326.92871	3365.925
2329.77637	3371.225
2332.62222	3365.125
2335.46626	3343.525
2338.3085	3347.725
2341.14893	3351.025
2343.98756	3346.125
2346.8244	3344.725
2349.65943	3345.025
2352.49267	3327.425
2355.32411	3350.925
2358.15376	3333.825
2360.98161	3335.825
2363.80768	3340.325
2366.63195	3327.225
2369.45444	3320.725
2372.27514	3323.325
2375.09405	3319.225
2377.91118	3314.725
2380.72652	3318.425
2383.54009	3296.225
2386.35187	3297.225
2389.16188	3273.425
2391.97011	3277.125
2394.77657	3258.325
2397.58125	3249.025
2400.38416	3248.225
2403.18529	3240.325
2405.98466	3250.725
2408.78226	3235.325
2411.57809	3236.525
2414.37216	3207.425
2417.16446	3227.225
2419.955	3217.325
2422.74378	3209.325
2425.5308	3216.425
2428.31606	3220.525
2431.09956	3209.225
2433.88131	3200.825
2436.6613	3193.825
2439.43954	3202.625
2442.21603	3203.025
2444.99077	3193.325
2447.76377	3197.825
2450.53501	3199.525
2453.30451	3184.525
2456.07226	3194.825
2458.83827	3183.125
2461.60254	3182.625
2464.36507	3181.825
2467.12586	3168.125
2469.88492	3173.525
2472.64224	3153.225
2475.39782	3159.425
2478.15167	3170.725
2480.90379	3142.725
2483.65417	3159.325
2486.40283	3157.825
2489.14976	3163.125
2491.89497	3152.025
2494.63845	3150.525
2497.3802	3147.325
2500.12024	3135.525
2502.85855	3131.025
2505.59514	3135.025
2508.33002	3142.425
2511.06318	3120.925
2513.79462	3114.425
2516.52435	3094.325
2519.25237	3096.225
2521.97867	3082.525
2524.70327	3080.725
2527.42616	3068.225
2530.14734	3075.725
2532.86681	3070.225
2535.58458	3067.825
2538.30065	3073.825
2541.01501	3058.925
2543.72768	3064.825
2546.43864	3056.125
2549.14791	3065.525
2551.85548	3050.425
2554.56136	3064.525
2557.26554	3039.025
2559.96803	3034.525
2562.66883	3022.925
2565.36794	3029.425
2568.06536	3010.925
2570.7611	3012.025
2573.45514	2993.825
2576.14751	2989.925
2578.83819	2980.225
2581.52719	2979.525
2584.21451	2969.925
2586.90015	2964.625
2589.58411	2961.125
2592.2664	2944.525
2594.94701	2942.525
2597.62594	2945.925
2600.30321	2942.925
2602.9788	2934.125
2605.65273	2932.425
2608.32498	2921.525
2610.99557	2930.625
2613.66449	2928.225
2616.33175	2918.125
2618.99734	2915.725
2621.66128	2903.025
2624.32355	2896.525
2626.98416	2890.725
2629.64311	2894.725
2632.30041	2874.625
2634.95605	2876.425
2637.61004	2867.825
2640.26238	2856.625
2642.91306	2863.225
2645.56209	2848.925
2648.20948	2850.525
2650.85521	2849.025
2653.4993	2851.125
2656.14175	2837.825
2658.78255	2858.525
2661.42171	2847.225
2664.05923	2866.325
2666.6951	2852.225
2669.32934	2849.125
2671.96194	2833.725
2674.59291	2839.825
2677.22224	2843.425
2679.84993	2852.525
2682.476	2830.825
2685.10043	2828.725
2687.72324	2835.525
2690.34441	2837.525
2692.96396	2824.325
2695.58188	2840.125
2698.19818	2829.825
2700.81285	2828.425
2703.4259	2828.825
2706.03733	2837.925
2708.64714	2829.225
2711.25533	2825.625
2713.86191	2798.725
2716.46687	2819.425
2719.07021	2821.625
2721.67194	2828.125
2724.27206	2836.425
2726.87057	2821.125
2729.46747	2804.025
2732.06276	2810.825
2734.65644	2808.525
2737.24852	2822.525
2739.83899	2801.925
2742.42786	2798.325
2745.01513	2802.525
2747.60079	2785.725
2750.18486	2791.225
2752.76733	2793.325
2755.3482	2779.825
2757.92747	2777.525
2760.50515	2769.925
2763.08123	2757.525
2765.65573	2761.725
2768.22863	2743.825
2770.79994	2743.925
2773.36967	2746.125
2775.9378	2741.225
2778.50435	2742.425
2781.06932	2727.425
2783.6327	2731.925
2786.1945	2712.825
2788.75471	2724.725
2791.31335	2715.725
2793.87041	2710.425
2796.42589	2702.425
2798.97979	2713.825
2801.53212	2695.825
2804.08288	2694.225
2806.63206	2689.325
2809.17967	2689.625
2811.72571	2666.625
2814.27018	2665.625
2816.81308	2656.225
2819.35442	2661.025
2821.89419	2656.725
2824.43239	2643.425
2826.96904	2636.425
2829.50412	2639.925
2832.03763	2623.725
2834.56959	2625.325
2837.1	2617.025
2839.62884	2619.325
2842.15613	2608.625
2844.68186	2612.025
2847.20604	2607.825
2849.72867	2599.525
2852.24974	2593.825
2854.76927	2588.425
2857.28724	2586.725
2859.80367	2590.025
2862.31855	2575.225
2864.83189	2584.425
2867.34368	2579.625
2869.85393	2578.825
2872.36264	2580.725
2874.8698	2566.125
2877.37543	2574.125
2879.87952	2562.025
2882.38207	2569.925
2884.88308	2559.925
2887.38256	2557.625
2889.88051	2555.125
2892.37692	2554.425
2894.8718	2532.025
2897.36515	2542.425
2899.85698	2552.925
2902.34727	2546.325
2904.83604	2545.525
2907.32328	2552.325
2909.809	2547.625
2912.29319	2555.925
2914.77587	2553.625
2917.25702	2573.925
2919.73665	2560.025
2922.21476	2550.225
2924.69136	2544.125
2927.16644	2537.925
2929.64	2536.825
2932.11205	2541.225
2934.58258	2522.025
2937.05161	2520.025
2939.51912	2523.525
2941.98513	2522.425
2944.44962	2526.625
2946.91261	2506.225
2949.37409	2510.325
2951.83407	2507.925
2954.29254	2506.825
2956.74951	2499.225
2959.20498	2488.325
2961.65895	2493.525
2964.11142	2490.025
2966.56239	2497.925
2969.01186	2491.725
2971.45984	2481.525
2973.90632	2487.225
2976.35131	2481.825
2978.7948	2477.525
2981.23681	2472.625
2983.67732	2470.725
2986.11635	2464.025
2988.55388	2459.425
2990.98993	2454.625
2993.4245	2434.925
2995.85758	2442.725
2998.28917	2440.225
3000.71928	2434.125
3003.14791	2414.925
3005.57506	2419.325
3008.00073	2422.325
3010.42493	2405.025
3012.84764	2411.125
3015.26888	2402.425
3017.68865	2394.325
3020.10694	2390.425
3022.52376	2387.025
3024.9391	2372.625
3027.35298	2379.425
3029.76539	2367.725
3032.17632	2363.825
3034.5858	2357.225
3036.9938	2356.725
3039.40034	2347.825
3041.80542	2347.725
3044.20903	2340.925
3046.61118	2332.925
3049.01187	2327.725
3051.4111	2321.825
3053.80888	2312.125
3056.20519	2308.625
3058.60005	2308.225
3060.99345	2309.325
3063.3854	2307.825
3065.7759	2298.225
3068.16494	2290.725
3070.55254	2289.025
3072.93868	2273.625
3075.32338	2272.825
3077.70662	2272.825
3080.08842	2257.225
3082.46878	2251.825
3084.84769	2247.525
3087.22515	2243.725
3089.60118	2238.825
3091.97576	2242.825
3094.3489	2240.525
3096.72061	2235.125
3099.09087	2242.025
3101.4597	2242.025
3103.82709	2239.625
3106.19305	2227.325
3108.55757	2230.325
3110.92066	2221.025
3113.28232	2219.325
3115.64255	2219.125
3118.00134	2214.725
3120.35871	2210.325
3122.71466	2195.225
3125.06917	2196.025
3127.42226	2189.525
3129.77393	2192.025
3132.12417	2184.325
3134.47299	2188.325
3136.82039	2172.125
3139.16636	2173.925
3141.51092	2169.625
3143.85406	2178.225
3146.19579	2169.125
3148.53609	2162.625
3150.87499	2170.625
3153.21246	2173.325
3155.54853	2186.425
3157.88318	2170.125
3160.21642	2172.525
3162.54826	2171.025
3164.87868	2176.725
3167.2077	2170.225
3169.5353	2157.925
3171.86151	2151.725
3174.18631	2150.725
3176.5097	2149.925
3178.83169	2150.825
3181.15228	2146.225
3183.47147	2139.925
3185.78926	2130.025
3188.10565	2131.425
3190.42065	2130.625
3192.73424	2137.525
3195.04645	2127.525
3197.35725	2121.325
3199.66667	2125.425
3201.97469	2121.925
3204.28132	2112.425
3206.58656	2110.925
3208.8904	2117.225
3211.19287	2114.625
3213.49394	2117.125
3215.79363	2116.425
3218.09193	2109.125
3220.38884	2114.425
3222.68438	2114.425
3224.97853	2114.225
3227.2713	2112.625
3229.56269	2093.525
3231.8527	2096.325
3234.14133	2090.425
3236.42858	2089.125
3238.71446	2081.425
