Data from AgNPs_UA_20uM_CRN_500uM_SU_RamanShift__26__13-40-50-296.txt Node

Date: Thu Aug 04 13:40:50 BST 2022
User: TCL
Spectrometer: QEP01345
Trigger mode: 4
Integration Time (sec): 1.000000E0
Scans to average: 10
Electric dark correction enabled: true
Nonlinearity correction enabled: false
Boxcar width: 0
XAxis mode: Raman Shifts
Number of Pixels in Spectrum: 1044
>>>>>Begin Spectral Data<<<<<
46.04893	-1.075
50.45542	-0.775
54.85868	0.725
59.25871	0.525
63.6555	17.125
68.04907	13.625
72.43941	19.725
76.82654	17.325
81.21044	16.725
85.59113	21.325
89.96862	19.225
94.34289	20.125
98.71396	20.525
103.08183	22.425
107.4465	21.725
111.80798	23.225
116.16626	26.625
120.52136	24.925
124.87327	25.225
129.222	30.625
133.56755	30.025
137.90993	32.425
142.24913	35.825
146.58517	41.225
150.91804	49.925
155.24774	59.625
159.57429	76.925
163.89768	98.525
168.21792	132.925
172.53501	180.225
176.84895	254.425
181.15975	360.825
185.46741	512.525
189.77193	706.925
194.07331	966.925
198.37157	1242.125
202.6667	1536.125
206.9587	1843.725
211.24758	2148.225
215.53334	2451.825
219.81599	2795.725
224.09553	3173.825
228.37195	3606.425
232.64527	4048.925
236.91549	4489.325
241.18261	4885.225
245.44663	5172.925
249.70755	5407.725
253.96539	5566.425
258.22014	5723.725
262.4718	5855.525
266.72039	5944.225
270.96589	5946.625
275.20832	5905.125
279.44768	5812.725
283.68397	5697.625
287.91719	5620.225
292.14735	5658.225
296.37445	5789.925
300.59849	6001.325
304.81948	6310.625
309.03742	6577.225
313.25231	6764.225
317.46415	6693.025
321.67296	6399.225
325.87872	6078.325
330.08145	5897.525
334.28114	5862.225
338.47781	5936.525
342.67145	6075.325
346.86207	6272.225
351.04966	6550.925
355.23424	6841.525
359.4158	7043.725
363.59435	7100.525
367.76989	7100.325
371.94243	7045.025
376.11196	6969.725
380.27849	6922.325
384.44203	6881.725
388.60257	6893.025
392.76012	6946.425
396.91468	7054.225
401.06626	7174.825
405.21485	7219.325
409.36047	7061.725
413.50311	6781.725
417.64277	6571.025
421.77947	6398.225
425.9132	6321.325
430.04396	6338.325
434.17176	6373.425
438.2966	6433.725
442.41849	6555.125
446.53742	6693.725
450.6534	6822.225
454.76644	6897.425
458.87653	6883.125
462.98368	6866.125
467.08789	6809.525
471.18916	6713.325
475.2875	6575.725
479.38291	6447.225
483.4754	6364.225
487.56496	6318.525
491.6516	6288.625
495.73531	6298.725
499.81612	6320.925
503.89401	6376.925
507.96899	6450.425
512.04106	6525.525
516.11023	6568.725
520.1765	6632.925
524.23987	6641.825
528.30034	6636.225
532.35792	6603.025
536.41261	6551.525
540.46441	6450.025
544.51333	6411.125
548.55936	6462.125
552.60252	6559.225
556.64279	6666.125
560.6802	6738.725
564.71473	6832.425
568.7464	6964.025
572.7752	6954.125
576.80114	6756.225
580.82422	6569.625
584.84444	6522.825
588.86181	6497.725
592.87633	6540.925
596.888	6683.825
600.89682	7014.825
604.9028	7892.825
608.90594	9830.725
612.90624	11812.325
616.90371	10898.925
620.89834	8120.025
624.89015	6940.725
628.87913	6794.725
632.86528	6968.825
636.84862	7100.125
640.82913	6977.025
644.80683	6720.125
648.78172	6528.025
652.75379	6544.225
656.72306	6737.325
660.68952	6972.825
664.65319	6885.325
668.61405	6684.625
672.57211	6647.425
676.52738	6671.925
680.47986	6574.125
684.42955	6458.625
688.37646	6415.625
692.32058	6450.825
696.26192	6563.025
700.20048	6665.725
704.13626	6710.725
708.06928	6668.125
711.99952	6601.325
715.927	6592.225
719.85171	6638.025
723.77365	6681.025
727.69284	6616.125
731.60928	6549.825
735.52295	6554.225
739.43388	6560.825
743.34206	6591.125
747.24749	6611.925
751.15017	6619.025
755.05012	6693.725
758.94733	7017.125
762.8418	7757.225
766.73354	8940.225
770.62254	9835.925
774.50882	9945.525
778.39237	9438.525
782.27321	8582.825
786.15132	7663.125
790.02671	7058.825
793.89938	6749.325
797.76935	6643.525
801.6366	6563.825
805.50115	6500.225
809.36299	6504.525
813.22213	6507.525
817.07857	6487.025
820.93231	6509.425
824.78336	6529.925
828.63172	6540.825
832.47738	6542.325
836.32036	6523.425
840.16066	6492.725
843.99827	6493.725
847.8332	6470.925
851.66546	6493.425
855.49504	6517.925
859.32195	6528.525
863.1462	6529.025
866.96777	6539.325
870.78668	6518.025
874.60293	6513.525
878.41652	6581.725
882.22745	6635.625
886.03573	6669.025
889.84136	6669.025
893.64433	6617.525
897.44466	6631.125
901.24235	6639.125
905.0374	6603.525
908.8298	6552.725
912.61957	6517.425
916.40671	6514.025
920.19121	6559.725
923.97308	6640.325
927.75233	6721.925
931.52895	6751.525
935.30295	6690.825
939.07433	6543.625
942.84309	6454.225
946.60924	6408.725
950.37278	6398.225
954.13371	6388.725
957.89203	6409.025
961.64774	6390.625
965.40086	6388.625
969.15137	6372.425
972.89929	6393.525
976.64461	6391.225
980.38733	6391.325
984.12747	6409.725
987.86502	6435.725
991.59999	6471.725
995.33237	6522.925
999.06217	6596.225
1002.78939	6708.725
1006.51404	6856.525
1010.23611	6987.425
1013.95561	7043.925
1017.67255	7031.925
1021.38692	6972.025
1025.09872	6885.825
1028.80796	6798.525
1032.51465	6761.125
1036.21877	6759.625
1039.92035	6805.125
1043.61937	6856.525
1047.31584	6875.025
1051.00976	6916.125
1054.70114	6897.025
1058.38998	6903.325
1062.07627	6925.425
1065.76003	7006.125
1069.44126	7108.025
1073.11995	7241.225
1076.79611	7414.225
1080.46974	7541.725
1084.14085	7659.425
1087.80943	7773.225
1091.47549	7835.725
1095.13903	7813.625
1098.80005	7731.525
1102.45857	7608.625
1106.11456	7483.925
1109.76805	7421.625
1113.41903	7434.125
1117.06751	7568.625
1120.71348	7761.725
1124.35696	8055.025
1127.99793	8266.125
1131.63641	8125.525
1135.2724	7796.725
1138.90589	7573.925
1142.5369	7457.425
1146.16542	7423.725
1149.79145	7375.825
1153.415	7279.625
1157.03607	7213.425
1160.65467	7249.125
1164.27079	7398.925
1167.88443	7645.425
1171.49561	8003.825
1175.10432	8650.225
1178.71056	9487.025
1182.31434	10210.125
1185.91565	10400.625
1189.51451	10249.225
1193.11091	9987.025
1196.70485	9762.025
1200.29634	9535.325
1203.88538	9266.925
1207.47197	8903.025
1211.05612	8557.825
1214.63782	8280.525
1218.21708	8061.625
1221.79391	7874.725
1225.36829	7764.825
1228.94024	7734.725
1232.50976	7703.025
1236.07685	7721.625
1239.6415	7758.525
1243.20374	7780.725
1246.76355	7847.825
1250.32093	7965.725
1253.8759	8097.525
1257.42845	8357.725
1260.97859	8621.225
1264.52631	8846.125
1268.07163	8988.225
1271.61453	9100.025
1275.15503	9110.425
1278.69312	9109.925
1282.22882	9099.925
1285.76211	9223.125
1289.29301	9439.525
1292.82151	9632.325
1296.34761	9871.225
1299.87133	10214.625
1303.39266	10867.225
1306.9116	11784.225
1310.42815	12761.925
1313.94233	13018.425
1317.45412	12431.225
1320.96354	11544.325
1324.47058	10779.325
1327.97525	10108.925
1331.47754	9747.025
1334.97747	9687.325
1338.47502	9814.625
1341.97022	10185.325
1345.46305	10871.225
1348.95352	11834.625
1352.44163	12929.625
1355.92738	14078.425
1359.41078	15474.125
1362.89183	16689.525
1366.37053	16002.525
1369.84688	13568.925
1373.32088	11280.625
1376.79254	10005.225
1380.26186	9425.125
1383.72883	9071.125
1387.19347	8745.525
1390.65578	8469.125
1394.11575	8230.025
1397.57339	8030.525
1401.0287	7910.925
1404.48168	7837.225
1407.93234	7827.225
1411.38068	7901.225
1414.82669	7961.125
1418.27039	7990.425
1421.71177	7964.825
1425.15083	7875.325
1428.58758	7819.325
1432.02203	7858.325
1435.45416	7947.125
1438.88399	8034.525
1442.31151	8069.425
1445.73673	8133.725
1449.15965	8190.525
1452.58027	8153.125
1455.9986	8089.725
1459.41463	8086.825
1462.82837	8157.225
1466.23982	8331.125
1469.64898	8527.825
1473.05586	8704.225
1476.46045	8775.725
1479.86276	8818.425
1483.26279	8957.225
1486.66054	9108.825
1490.05602	9449.725
1493.44922	9897.225
1496.84016	10668.625
1500.22882	11859.825
1503.61521	13353.925
1506.99934	14765.825
1510.38121	15577.325
1513.76081	15271.425
1517.13816	13916.025
1520.51324	12221.325
1523.88607	10864.325
1527.25665	10114.025
1530.62498	9724.225
1533.99105	9523.125
1537.35488	9450.625
1540.71647	9356.025
1544.07581	9252.425
1547.4329	9164.225
1550.78776	9052.225
1554.14038	8949.825
1557.49077	8881.625
1560.83892	8970.125
1564.18484	9167.125
1567.52853	9497.425
1570.86999	9778.625
1574.20922	9917.125
1577.54624	9722.425
1580.88103	9235.825
1584.2136	8675.525
1587.54395	8333.025
1590.87208	8301.025
1594.19801	8525.825
1597.52172	8902.625
1600.84321	9083.025
1604.16251	9021.425
1607.47959	8874.025
1610.79447	8572.825
1614.10715	8197.125
1617.41763	7783.725
1620.7259	7495.925
1624.03199	7303.725
1627.33587	7253.925
1630.63757	7328.825
1633.93707	7547.425
1637.23439	7962.125
1640.52951	8637.025
1643.82246	9585.525
1647.11321	10699.525
1650.40179	11307.925
1653.68819	10939.525
1656.97241	9735.225
1660.25446	8452.225
1663.53433	7508.925
1666.81203	6976.725
1670.08756	6683.325
1673.36092	6503.425
1676.63211	6384.925
1679.90115	6272.725
1683.16801	6207.825
1686.43272	6155.525
1689.69527	6111.625
1692.95567	6079.425
1696.2139	6068.725
1699.46999	6037.625
1702.72392	6035.825
1705.97571	6035.825
1709.22535	6034.525
1712.47284	6013.325
1715.71819	6001.425
1718.96139	5982.425
1722.20246	5986.825
1725.44139	5969.825
1728.67818	5934.425
1731.91284	5890.625
1735.14537	5862.625
1738.37576	5854.925
1741.60403	5829.225
1744.83017	5824.825
1748.05418	5796.925
1751.27607	5793.425
1754.49584	5766.125
1757.71349	5761.025
1760.92903	5752.225
1764.14244	5734.725
1767.35375	5727.725
1770.56294	5716.325
1773.77002	5709.325
1776.97499	5698.825
1780.17785	5658.025
1783.37861	5656.025
1786.57727	5616.725
1789.77382	5625.325
1792.96828	5623.925
1796.16064	5610.125
1799.3509	5598.425
1802.53907	5581.625
1805.72514	5577.825
1808.90913	5571.325
1812.09102	5549.725
1815.27083	5541.125
1818.44856	5514.325
1821.6242	5488.725
1824.79776	5493.925
1827.96924	5495.325
1831.13864	5481.525
1834.30597	5473.625
1837.47122	5471.225
1840.6344	5453.525
1843.7955	5436.325
1846.95454	5423.425
1850.11151	5437.425
1853.26642	5427.725
1856.41926	5448.925
1859.57004	5415.825
1862.71876	5421.725
1865.86542	5427.225
1869.01003	5390.025
1872.15258	5382.225
1875.29308	5371.425
1878.43152	5387.625
1881.56792	5370.525
1884.70227	5359.725
1887.83457	5359.025
1890.96482	5367.425
1894.09304	5331.125
1897.21921	5332.625
1900.34335	5323.425
1903.46544	5325.725
1906.58551	5324.625
1909.70353	5322.925
1912.81953	5292.425
1915.93349	5294.325
1919.04543	5270.825
1922.15534	5267.825
1925.26322	5258.425
1928.36908	5250.725
1931.47292	5240.825
1934.57473	5224.625
1937.67453	5227.925
1940.77232	5199.525
1943.86808	5203.125
1946.96184	5167.125
1950.05358	5157.625
1953.14331	5151.825
1956.23103	5127.325
1959.31675	5100.425
1962.40046	5086.325
1965.48217	5090.825
1968.56188	5064.625
1971.63959	5067.825
1974.7153	5031.625
1977.78901	5028.625
1980.86073	5009.225
1983.93046	4985.525
1986.99819	4979.925
1990.06394	4953.225
1993.1277	4947.125
1996.18947	4950.325
1999.24925	4918.525
2002.30706	4903.225
2005.36288	4878.225
2008.41672	4864.725
2011.46859	4850.525
2014.51848	4837.225
2017.56639	4830.925
2020.61233	4800.825
2023.6563	4798.225
2026.6983	4772.125
2029.73833	4778.625
2032.7764	4747.425
2035.8125	4753.725
2038.84664	4739.525
2041.87881	4745.625
2044.90903	4707.725
2047.93729	4712.425
2050.96359	4698.525
2053.98794	4699.625
2057.01034	4678.125
2060.03078	4658.925
2063.04927	4658.925
2066.06582	4651.525
2069.08042	4653.525
2072.09307	4651.125
2075.10378	4644.625
2078.11255	4649.025
2081.11938	4649.225
2084.12426	4632.325
2087.12722	4629.625
2090.12824	4643.425
2093.12732	4637.525
2096.12447	4642.125
2099.11969	4651.925
2102.11299	4640.225
2105.10435	4653.125
2108.09379	4645.325
2111.08131	4656.625
2114.0669	4644.425
2117.05057	4648.625
2120.03233	4648.725
2123.01216	4638.925
2125.99008	4644.925
2128.96609	4664.925
2131.94018	4665.125
2134.91236	4656.225
2137.88263	4651.325
2140.851	4656.725
2143.81746	4652.725
2146.78201	4664.625
2149.74466	4646.025
2152.7054	4641.525
2155.66425	4653.025
2158.6212	4645.325
2161.57625	4654.225
2164.52941	4630.025
2167.48067	4637.425
2170.43004	4641.425
2173.37752	4619.825
2176.32311	4636.025
2179.26681	4637.125
2182.20863	4622.225
2185.14856	4630.625
2188.08661	4632.325
2191.02278	4614.525
2193.95707	4606.225
2196.88948	4613.225
2199.82001	4612.225
2202.74867	4608.125
2205.67545	4616.125
2208.60037	4591.825
2211.52341	4583.825
2214.44458	4580.125
2217.36388	4564.525
2220.28132	4537.925
2223.1969	4528.525
2226.11061	4526.225
2229.02246	4514.825
2231.93245	4511.425
2234.84058	4494.725
2237.74686	4490.525
2240.65128	4501.425
2243.55385	4491.225
2246.45456	4487.125
2249.35343	4476.025
2252.25044	4469.725
2255.14561	4485.325
2258.03893	4478.825
2260.93041	4464.625
2263.82004	4430.425
2266.70783	4443.725
2269.59378	4430.925
2272.4779	4419.325
2275.36017	4404.825
2278.24061	4395.025
2281.11922	4371.425
2283.996	4360.225
2286.87094	4351.025
2289.74405	4366.525
2292.61534	4343.725
2295.4848	4350.225
2298.35243	4335.525
2301.21824	4332.325
2304.08223	4338.725
2306.94439	4330.725
2309.80474	4334.825
2312.66327	4336.925
2315.51999	4319.425
2318.37489	4300.825
2321.22797	4313.325
2324.07925	4293.225
2326.92871	4283.725
2329.77637	4283.825
2332.62222	4270.925
2335.46626	4266.425
2338.3085	4267.725
2341.14893	4244.325
2343.98756	4241.725
2346.8244	4243.125
2349.65943	4250.625
2352.49267	4243.425
2355.32411	4233.225
2358.15376	4241.325
2360.98161	4241.225
2363.80768	4246.325
2366.63195	4240.425
2369.45444	4247.725
2372.27514	4237.025
2375.09405	4230.425
2377.91118	4243.725
2380.72652	4226.225
2383.54009	4208.625
2386.35187	4204.425
2389.16188	4185.625
2391.97011	4169.725
2394.77657	4156.525
2397.58125	4138.725
2400.38416	4147.025
2403.18529	4125.425
2405.98466	4138.025
2408.78226	4118.925
2411.57809	4113.125
2414.37216	4098.825
2417.16446	4102.825
2419.955	4102.025
2422.74378	4098.025
2425.5308	4097.225
2428.31606	4085.725
2431.09956	4084.325
2433.88131	4079.625
2436.6613	4078.725
2439.43954	4080.925
2442.21603	4073.625
2444.99077	4084.525
2447.76377	4088.125
2450.53501	4067.125
2453.30451	4054.425
2456.07226	4059.325
2458.83827	4052.925
2461.60254	4065.025
2464.36507	4047.925
2467.12586	4046.225
2469.88492	4043.825
2472.64224	4045.125
2475.39782	4045.325
2478.15167	4046.525
2480.90379	4030.625
2483.65417	4034.625
2486.40283	4046.625
2489.14976	4046.325
2491.89497	4051.825
2494.63845	4042.425
2497.3802	4046.325
2500.12024	4033.325
2502.85855	4010.925
2505.59514	3999.825
2508.33002	3991.325
2511.06318	3965.525
2513.79462	3967.525
2516.52435	3974.325
2519.25237	3950.525
2521.97867	3944.025
2524.70327	3962.525
2527.42616	3941.925
2530.14734	3934.225
2532.86681	3925.825
2535.58458	3928.525
2538.30065	3920.725
2541.01501	3924.225
2543.72768	3929.625
2546.43864	3915.625
2549.14791	3913.525
2551.85548	3908.725
2554.56136	3916.725
2557.26554	3908.925
2559.96803	3905.925
2562.66883	3877.525
2565.36794	3884.825
2568.06536	3862.525
2570.7611	3835.725
2573.45514	3835.125
2576.14751	3857.725
2578.83819	3826.125
2581.52719	3817.925
2584.21451	3806.125
2586.90015	3787.025
2589.58411	3774.325
2592.2664	3785.125
2594.94701	3768.825
2597.62594	3773.725
2600.30321	3761.925
2602.9788	3760.725
2605.65273	3754.825
2608.32498	3749.925
2610.99557	3758.625
2613.66449	3746.825
2616.33175	3736.125
2618.99734	3728.125
2621.66128	3713.325
2624.32355	3719.125
2626.98416	3724.725
2629.64311	3701.025
2632.30041	3696.525
2634.95605	3694.525
2637.61004	3683.625
2640.26238	3665.525
2642.91306	3661.525
2645.56209	3665.925
2648.20948	3672.725
2650.85521	3665.125
2653.4993	3672.325
2656.14175	3662.125
2658.78255	3671.225
2661.42171	3657.925
2664.05923	3670.525
2666.6951	3682.125
2669.32934	3668.925
2671.96194	3673.725
2674.59291	3675.625
2677.22224	3660.525
2679.84993	3669.525
2682.476	3657.725
2685.10043	3655.425
2687.72324	3643.425
2690.34441	3646.225
2692.96396	3639.325
2695.58188	3641.825
2698.19818	3647.325
2700.81285	3648.925
2703.4259	3643.125
2706.03733	3653.525
2708.64714	3651.625
2711.25533	3630.925
2713.86191	3624.525
2716.46687	3643.225
2719.07021	3636.725
2721.67194	3642.725
2724.27206	3655.825
2726.87057	3632.525
2729.46747	3634.625
2732.06276	3627.125
2734.65644	3618.325
2737.24852	3621.225
2739.83899	3612.425
2742.42786	3615.525
2745.01513	3606.425
2747.60079	3608.625
2750.18486	3604.225
2752.76733	3582.325
2755.3482	3585.225
2757.92747	3580.225
2760.50515	3566.225
2763.08123	3563.225
2765.65573	3549.125
2768.22863	3545.325
2770.79994	3536.125
2773.36967	3534.225
2775.9378	3534.525
2778.50435	3539.325
2781.06932	3536.025
2783.6327	3525.425
2786.1945	3509.025
2788.75471	3493.325
2791.31335	3493.025
2793.87041	3489.225
2796.42589	3478.225
2798.97979	3479.425
2801.53212	3477.625
2804.08288	3486.425
2806.63206	3468.925
2809.17967	3470.925
2811.72571	3452.325
2814.27018	3463.825
2816.81308	3451.125
2819.35442	3427.025
2821.89419	3418.425
2824.43239	3412.825
2826.96904	3406.225
2829.50412	3417.425
2832.03763	3408.125
2834.56959	3404.025
2837.1	3392.425
2839.62884	3381.125
2842.15613	3379.625
2844.68186	3375.225
2847.20604	3372.525
2849.72867	3372.125
2852.24974	3357.025
2854.76927	3343.525
2857.28724	3341.225
2859.80367	3323.025
2862.31855	3335.725
2864.83189	3335.025
2867.34368	3337.325
2869.85393	3332.325
2872.36264	3318.925
2874.8698	3317.625
2877.37543	3320.425
2879.87952	3304.125
2882.38207	3305.225
2884.88308	3311.525
2887.38256	3305.825
2889.88051	3293.325
2892.37692	3304.425
2894.8718	3287.325
2897.36515	3290.525
2899.85698	3290.825
2902.34727	3287.725
2904.83604	3286.825
2907.32328	3305.625
2909.809	3298.725
2912.29319	3294.325
2914.77587	3305.125
2917.25702	3308.825
2919.73665	3299.425
2922.21476	3297.825
2924.69136	3303.225
2927.16644	3298.325
2929.64	3273.025
2932.11205	3277.125
2934.58258	3251.525
2937.05161	3257.125
2939.51912	3248.625
2941.98513	3255.025
2944.44962	3239.125
2946.91261	3237.925
2949.37409	3241.925
2951.83407	3245.225
2954.29254	3242.625
2956.74951	3230.325
2959.20498	3227.625
2961.65895	3219.925
2964.11142	3209.125
2966.56239	3201.325
2969.01186	3214.925
2971.45984	3211.625
2973.90632	3205.825
2976.35131	3205.425
2978.7948	3202.725
2981.23681	3183.225
2983.67732	3181.725
2986.11635	3177.825
2988.55388	3177.025
2990.98993	3166.625
2993.4245	3169.525
2995.85758	3163.425
2998.28917	3150.025
3000.71928	3147.925
3003.14791	3133.625
3005.57506	3127.025
3008.00073	3130.025
3010.42493	3094.825
3012.84764	3091.725
3015.26888	3078.325
3017.68865	3074.225
3020.10694	3093.625
3022.52376	3069.625
3024.9391	3063.125
3027.35298	3054.625
3029.76539	3034.625
3032.17632	3040.425
3034.5858	3020.825
3036.9938	3035.025
3039.40034	3017.625
3041.80542	3003.725
3044.20903	3014.425
3046.61118	2996.725
3049.01187	2987.225
3051.4111	2980.225
3053.80888	2971.325
3056.20519	2971.625
3058.60005	2970.525
3060.99345	2966.525
3063.3854	2959.525
3065.7759	2949.525
3068.16494	2939.925
3070.55254	2930.825
3072.93868	2924.625
3075.32338	2922.025
3077.70662	2915.025
3080.08842	2890.525
3082.46878	2882.925
3084.84769	2883.425
3087.22515	2892.725
3089.60118	2873.725
3091.97576	2885.225
3094.3489	2891.525
3096.72061	2869.525
3099.09087	2877.325
3101.4597	2874.425
3103.82709	2867.425
3106.19305	2855.625
3108.55757	2862.725
3110.92066	2848.225
3113.28232	2838.125
3115.64255	2823.425
3118.00134	2826.225
3120.35871	2813.425
3122.71466	2818.425
3125.06917	2815.925
3127.42226	2811.625
3129.77393	2804.625
3132.12417	2788.725
3134.47299	2788.425
3136.82039	2776.825
3139.16636	2775.725
3141.51092	2781.425
3143.85406	2770.525
3146.19579	2781.225
3148.53609	2788.625
3150.87499	2773.225
3153.21246	2771.625
3155.54853	2767.125
3157.88318	2772.125
3160.21642	2780.925
3162.54826	2771.725
3164.87868	2760.625
3167.2077	2755.725
3169.5353	2754.525
3171.86151	2744.125
3174.18631	2747.225
3176.5097	2741.625
3178.83169	2727.125
3181.15228	2726.225
3183.47147	2732.725
3185.78926	2707.425
3188.10565	2707.025
3190.42065	2715.425
3192.73424	2705.125
3195.04645	2688.025
3197.35725	2685.925
3199.66667	2675.125
3201.97469	2685.825
3204.28132	2676.125
3206.58656	2671.125
3208.8904	2681.825
3211.19287	2686.625
3213.49394	2694.225
3215.79363	2680.225
3218.09193	2681.125
3220.38884	2679.525
3222.68438	2686.325
3224.97853	2667.125
3227.2713	2676.325
3229.56269	2667.125
3231.8527	2664.025
3234.14133	2667.025
3236.42858	2645.525
