Data from AgNPs_UA_5uM_CRN_500uM_SU_RamanShift__116__11-48-43-162.txt Node

Date: Thu Aug 04 11:48:43 BST 2022
User: TCL
Spectrometer: QEP01345
Trigger mode: 4
Integration Time (sec): 1.000000E0
Scans to average: 10
Electric dark correction enabled: true
Nonlinearity correction enabled: false
Boxcar width: 0
XAxis mode: Raman Shifts
Number of Pixels in Spectrum: 1044
>>>>>Begin Spectral Data<<<<<
46.04893	0.2375
50.45542	-0.3625
54.85868	0.3375
59.25871	-0.8625
63.6555	-57.6625
68.04907	-41.2625
72.43941	-71.9625
76.82654	-57.4625
81.21044	-59.0625
85.59113	-50.1625
89.96862	-74.3625
94.34289	-56.5625
98.71396	-79.1625
103.08183	-61.5625
107.4465	-51.5625
111.80798	-58.3625
116.16626	-44.4625
120.52136	-76.8625
124.87327	-53.8625
129.222	-64.8625
133.56755	-53.5625
137.90993	-66.2625
142.24913	-56.6625
146.58517	-49.4625
150.91804	-46.2625
155.24774	-38.2625
159.57429	-20.1625
163.89768	-19.0625
168.21792	17.4375
172.53501	32.8375
176.84895	100.0375
181.15975	216.6375
185.46741	339.2375
189.77193	486.1375
194.07331	734.1375
198.37157	964.7375
202.6667	1213.0375
206.9587	1479.6375
211.24758	1742.5375
215.53334	2007.2375
219.81599	2292.4375
224.09553	2617.2375
228.37195	2969.1375
232.64527	3356.1375
236.91549	3776.0375
241.18261	4115.3375
245.44663	4420.4375
249.70755	4636.5375
253.96539	4777.9375
258.22014	4888.6375
262.4718	4953.1375
266.72039	4972.0375
270.96589	4933.1375
275.20832	4845.7375
279.44768	4772.2375
283.68397	4652.6375
287.91719	4596.1375
292.14735	4574.6375
296.37445	4643.4375
300.59849	4767.7375
304.81948	4915.7375
309.03742	5058.3375
313.25231	5180.8375
317.46415	5138.2375
321.67296	4949.1375
325.87872	4774.3375
330.08145	4674.2375
334.28114	4662.7375
338.47781	4736.3375
342.67145	4828.5375
346.86207	4958.8375
351.04966	5170.1375
355.23424	5366.4375
359.4158	5536.4375
363.59435	5575.4375
367.76989	5570.7375
371.94243	5554.0375
376.11196	5527.4375
380.27849	5526.8375
384.44203	5532.0375
388.60257	5538.0375
392.76012	5561.3375
396.91468	5668.6375
401.06626	5765.1375
405.21485	5781.1375
409.36047	5727.9375
413.50311	5577.7375
417.64277	5453.7375
421.77947	5340.2375
425.9132	5322.9375
430.04396	5358.0375
434.17176	5397.8375
438.2966	5490.8375
442.41849	5565.4375
446.53742	5663.5375
450.6534	5728.0375
454.76644	5813.0375
458.87653	5834.0375
462.98368	5846.9375
467.08789	5848.1375
471.18916	5822.4375
475.2875	5811.5375
479.38291	5722.6375
483.4754	5650.4375
487.56496	5580.0375
491.6516	5554.5375
495.73531	5538.6375
499.81612	5555.8375
503.89401	5590.7375
507.96899	5609.3375
512.04106	5677.1375
516.11023	5742.2375
520.1765	5785.0375
524.23987	5804.1375
528.30034	5852.4375
532.35792	5817.9375
536.41261	5802.3375
540.46441	5747.6375
544.51333	5734.9375
548.55936	5771.5375
552.60252	5874.3375
556.64279	5932.1375
560.6802	6002.8375
564.71473	6042.4375
568.7464	6103.7375
572.7752	6079.1375
576.80114	5926.5375
580.82422	5826.1375
584.84444	5797.2375
588.86181	5801.4375
592.87633	5836.1375
596.888	5905.9375
600.89682	6141.7375
604.9028	6679.7375
608.90594	7767.2375
612.90624	8954.1375
616.90371	8447.0375
620.89834	6884.4375
624.89015	6227.0375
628.87913	6146.0375
632.86528	6221.9375
636.84862	6323.5375
640.82913	6264.9375
644.80683	6126.1375
648.78172	6078.7375
652.75379	6070.0375
656.72306	6185.2375
660.68952	6291.4375
664.65319	6245.5375
668.61405	6125.6375
672.57211	6137.5375
676.52738	6167.2375
680.47986	6121.0375
684.42955	6078.9375
688.37646	6032.1375
692.32058	6019.9375
696.26192	6068.1375
700.20048	6165.6375
704.13626	6176.6375
708.06928	6137.9375
711.99952	6132.7375
715.927	6098.9375
719.85171	6114.9375
723.77365	6165.5375
727.69284	6133.3375
731.60928	6140.4375
735.52295	6125.5375
739.43388	6161.5375
743.34206	6181.2375
747.24749	6212.5375
751.15017	6203.4375
755.05012	6223.6375
758.94733	6448.4375
762.8418	6836.8375
766.73354	7475.2375
770.62254	7995.5375
774.50882	8086.3375
778.39237	7838.3375
782.27321	7381.1375
786.15132	6828.9375
790.02671	6486.6375
793.89938	6272.6375
797.76935	6237.9375
801.6366	6180.0375
805.50115	6174.0375
809.36299	6180.5375
813.22213	6184.3375
817.07857	6191.8375
820.93231	6168.3375
824.78336	6180.2375
828.63172	6176.6375
832.47738	6191.7375
836.32036	6205.7375
840.16066	6214.0375
843.99827	6211.2375
847.8332	6220.7375
851.66546	6251.1375
855.49504	6242.9375
859.32195	6284.1375
863.1462	6274.5375
866.96777	6295.3375
870.78668	6284.3375
874.60293	6318.7375
878.41652	6319.1375
882.22745	6375.9375
886.03573	6385.0375
889.84136	6386.7375
893.64433	6377.0375
897.44466	6377.8375
901.24235	6345.2375
905.0374	6367.8375
908.8298	6344.3375
912.61957	6330.5375
916.40671	6287.3375
920.19121	6307.0375
923.97308	6378.1375
927.75233	6419.1375
931.52895	6450.3375
935.30295	6457.9375
939.07433	6376.7375
942.84309	6293.0375
946.60924	6294.1375
950.37278	6260.2375
954.13371	6269.4375
957.89203	6265.6375
961.64774	6305.3375
965.40086	6268.7375
969.15137	6241.6375
972.89929	6276.9375
976.64461	6253.9375
980.38733	6268.4375
984.12747	6304.5375
987.86502	6325.5375
991.59999	6357.1375
995.33237	6440.3375
999.06217	6518.2375
1002.78939	6620.3375
1006.51404	6767.4375
1010.23611	6866.8375
1013.95561	6955.7375
1017.67255	6998.0375
1021.38692	6977.0375
1025.09872	6886.3375
1028.80796	6770.9375
1032.51465	6750.8375
1036.21877	6759.2375
1039.92035	6794.3375
1043.61937	6810.3375
1047.31584	6867.6375
1051.00976	6900.8375
1054.70114	6898.3375
1058.38998	6900.5375
1062.07627	6891.3375
1065.76003	6938.4375
1069.44126	7029.1375
1073.11995	7129.3375
1076.79611	7271.2375
1080.46974	7384.5375
1084.14085	7427.5375
1087.80943	7460.1375
1091.47549	7552.6375
1095.13903	7585.1375
1098.80005	7561.2375
1102.45857	7442.7375
1106.11456	7318.3375
1109.76805	7177.0375
1113.41903	7199.3375
1117.06751	7274.2375
1120.71348	7375.3375
1124.35696	7537.5375
1127.99793	7685.0375
1131.63641	7645.0375
1135.2724	7487.5375
1138.90589	7374.7375
1142.5369	7305.2375
1146.16542	7315.1375
1149.79145	7318.7375
1153.415	7218.4375
1157.03607	7131.7375
1160.65467	7134.1375
1164.27079	7226.4375
1167.88443	7351.5375
1171.49561	7581.3375
1175.10432	7880.9375
1178.71056	8346.9375
1182.31434	8788.8375
1185.91565	9007.1375
1189.51451	9028.9375
1193.11091	9002.1375
1196.70485	8981.2375
1200.29634	8944.3375
1203.88538	8832.8375
1207.47197	8660.9375
1211.05612	8497.9375
1214.63782	8317.7375
1218.21708	8140.7375
1221.79391	7950.1375
1225.36829	7790.4375
1228.94024	7739.5375
1232.50976	7716.0375
1236.07685	7735.2375
1239.6415	7759.5375
1243.20374	7793.2375
1246.76355	7826.5375
1250.32093	7935.9375
1253.8759	8035.7375
1257.42845	8259.4375
1260.97859	8469.2375
1264.52631	8632.9375
1268.07163	8651.1375
1271.61453	8701.7375
1275.15503	8718.3375
1278.69312	8704.7375
1282.22882	8741.9375
1285.76211	8841.9375
1289.29301	8929.1375
1292.82151	9076.7375
1296.34761	9226.1375
1299.87133	9483.7375
1303.39266	9896.3375
1306.9116	10439.3375
1310.42815	10989.4375
1313.94233	11236.8375
1317.45412	10902.5375
1320.96354	10440.8375
1324.47058	9974.2375
1327.97525	9616.0375
1331.47754	9400.3375
1334.97747	9377.4375
1338.47502	9487.9375
1341.97022	9819.2375
1345.46305	10301.8375
1348.95352	10903.3375
1352.44163	11564.6375
1355.92738	12100.4375
1359.41078	12721.8375
1362.89183	13184.7375
1366.37053	12650.4375
1369.84688	11144.4375
1373.32088	9820.3375
1376.79254	9123.6375
1380.26186	8770.3375
1383.72883	8554.9375
1387.19347	8354.1375
1390.65578	8168.0375
1394.11575	8039.2375
1397.57339	7970.9375
1401.0287	7876.0375
1404.48168	7840.4375
1407.93234	7885.5375
1411.38068	7930.3375
1414.82669	7985.6375
1418.27039	8003.4375
1421.71177	7974.0375
1425.15083	7870.7375
1428.58758	7863.4375
1432.02203	7906.9375
1435.45416	7959.6375
1438.88399	8016.2375
1442.31151	8067.3375
1445.73673	8166.2375
1449.15965	8216.8375
1452.58027	8254.9375
1455.9986	8235.3375
1459.41463	8264.0375
1462.82837	8335.2375
1466.23982	8481.7375
1469.64898	8648.6375
1473.05586	8729.6375
1476.46045	8760.5375
1479.86276	8769.5375
1483.26279	8755.2375
1486.66054	8818.9375
1490.05602	8918.2375
1493.44922	9168.8375
1496.84016	9619.1375
1500.22882	10337.0375
1503.61521	11158.1375
1506.99934	11906.2375
1510.38121	12358.2375
1513.76081	12233.1375
1517.13816	11487.1375
1520.51324	10518.9375
1523.88607	9767.3375
1527.25665	9327.2375
1530.62498	9117.8375
1533.99105	9036.3375
1537.35488	9055.3375
1540.71647	9057.0375
1544.07581	9103.3375
1547.4329	9052.2375
1550.78776	8917.9375
1554.14038	8762.4375
1557.49077	8632.0375
1560.83892	8589.0375
1564.18484	8632.0375
1567.52853	8743.8375
1570.86999	8852.8375
1574.20922	8901.6375
1577.54624	8860.7375
1580.88103	8613.7375
1584.2136	8291.6375
1587.54395	8178.6375
1590.87208	8209.3375
1594.19801	8370.1375
1597.52172	8673.0375
1600.84321	8874.1375
1604.16251	8918.1375
1607.47959	8860.9375
1610.79447	8674.6375
1614.10715	8358.6375
1617.41763	7998.1375
1620.7259	7740.2375
1624.03199	7562.7375
1627.33587	7481.7375
1630.63757	7503.7375
1633.93707	7668.6375
1637.23439	7983.4375
1640.52951	8446.9375
1643.82246	9031.1375
1647.11321	9621.1375
1650.40179	9844.3375
1653.68819	9544.5375
1656.97241	8797.0375
1660.25446	7974.2375
1663.53433	7414.8375
1666.81203	7060.5375
1670.08756	6824.0375
1673.36092	6744.9375
1676.63211	6642.9375
1679.90115	6559.7375
1683.16801	6499.6375
1686.43272	6403.2375
1689.69527	6366.1375
1692.95567	6326.8375
1696.2139	6309.5375
1699.46999	6240.1375
1702.72392	6235.4375
1705.97571	6254.2375
1709.22535	6229.2375
1712.47284	6279.5375
1715.71819	6286.0375
1718.96139	6269.5375
1722.20246	6266.9375
1725.44139	6242.3375
1728.67818	6223.0375
1731.91284	6201.6375
1735.14537	6196.9375
1738.37576	6147.7375
1741.60403	6149.0375
1744.83017	6118.1375
1748.05418	6135.6375
1751.27607	6132.9375
1754.49584	6120.7375
1757.71349	6062.2375
1760.92903	6067.4375
1764.14244	6031.7375
1767.35375	6039.0375
1770.56294	6053.3375
1773.77002	6017.0375
1776.97499	6032.0375
1780.17785	6020.8375
1783.37861	6013.3375
1786.57727	6026.6375
1789.77382	5964.6375
1792.96828	6016.2375
1796.16064	5987.3375
1799.3509	5979.9375
1802.53907	6003.3375
1805.72514	5962.5375
1808.90913	5917.1375
1812.09102	5933.8375
1815.27083	5928.7375
1818.44856	5923.2375
1821.6242	5909.6375
1824.79776	5876.7375
1827.96924	5890.9375
1831.13864	5865.5375
1834.30597	5859.9375
1837.47122	5866.0375
1840.6344	5852.1375
1843.7955	5825.7375
1846.95454	5811.9375
1850.11151	5857.7375
1853.26642	5807.8375
1856.41926	5813.8375
1859.57004	5821.5375
1862.71876	5826.9375
1865.86542	5816.9375
1869.01003	5811.2375
1872.15258	5792.8375
1875.29308	5804.8375
1878.43152	5792.7375
1881.56792	5789.9375
1884.70227	5749.7375
1887.83457	5759.7375
1890.96482	5738.9375
1894.09304	5727.8375
1897.21921	5735.1375
1900.34335	5735.1375
1903.46544	5699.0375
1906.58551	5737.2375
1909.70353	5732.5375
1912.81953	5717.7375
1915.93349	5699.5375
1919.04543	5693.1375
1922.15534	5679.9375
1925.26322	5682.3375
1928.36908	5683.0375
1931.47292	5652.4375
1934.57473	5657.1375
1937.67453	5648.1375
1940.77232	5600.4375
1943.86808	5584.0375
1946.96184	5596.2375
1950.05358	5588.5375
1953.14331	5562.4375
1956.23103	5568.0375
1959.31675	5524.9375
1962.40046	5470.7375
1965.48217	5500.5375
1968.56188	5492.3375
1971.63959	5467.7375
1974.7153	5451.0375
1977.78901	5458.7375
1980.86073	5437.6375
1983.93046	5385.2375
1986.99819	5314.8375
1990.06394	5327.7375
1993.1277	5364.3375
1996.18947	5343.6375
1999.24925	5295.5375
2002.30706	5302.3375
2005.36288	5300.1375
2008.41672	5277.9375
2011.46859	5233.4375
2014.51848	5251.9375
2017.56639	5204.1375
2020.61233	5187.2375
2023.6563	5192.8375
2026.6983	5156.3375
2029.73833	5154.3375
2032.7764	5157.6375
2035.8125	5130.3375
2038.84664	5124.1375
2041.87881	5090.5375
2044.90903	5101.0375
2047.93729	5094.7375
2050.96359	5083.4375
2053.98794	5062.2375
2057.01034	5069.3375
2060.03078	5061.9375
2063.04927	5066.2375
2066.06582	5057.3375
2069.08042	5047.0375
2072.09307	5069.9375
2075.10378	5056.7375
2078.11255	5019.5375
2081.11938	5037.2375
2084.12426	5048.0375
2087.12722	5039.9375
2090.12824	5019.8375
2093.12732	5046.2375
2096.12447	5037.9375
2099.11969	5042.6375
2102.11299	5006.8375
2105.10435	5049.2375
2108.09379	5032.3375
2111.08131	5032.8375
2114.0669	5032.7375
2117.05057	5018.9375
2120.03233	5000.5375
2123.01216	5037.5375
2125.99008	5042.5375
2128.96609	5045.4375
2131.94018	5065.7375
2134.91236	5050.9375
2137.88263	5061.3375
2140.851	5042.5375
2143.81746	5063.4375
2146.78201	5066.8375
2149.74466	5056.5375
2152.7054	5054.6375
2155.66425	5046.5375
2158.6212	5052.2375
2161.57625	5003.3375
2164.52941	5033.3375
2167.48067	5022.4375
2170.43004	5018.0375
2173.37752	5024.4375
2176.32311	5005.6375
2179.26681	5019.6375
2182.20863	5025.4375
2185.14856	5024.7375
2188.08661	5019.6375
2191.02278	5040.1375
2193.95707	5004.4375
2196.88948	4999.7375
2199.82001	5020.9375
2202.74867	4984.7375
2205.67545	5002.9375
2208.60037	4991.0375
2211.52341	4990.5375
2214.44458	4975.4375
2217.36388	4959.7375
2220.28132	4941.8375
2223.1969	4924.8375
2226.11061	4927.6375
2229.02246	4915.9375
2231.93245	4920.8375
2234.84058	4889.6375
2237.74686	4895.0375
2240.65128	4865.1375
2243.55385	4866.8375
2246.45456	4850.0375
2249.35343	4857.3375
2252.25044	4852.1375
2255.14561	4864.8375
2258.03893	4833.9375
2260.93041	4833.9375
2263.82004	4813.1375
2266.70783	4802.2375
2269.59378	4782.9375
2272.4779	4746.3375
2275.36017	4768.0375
2278.24061	4759.4375
2281.11922	4730.5375
2283.996	4735.3375
2286.87094	4728.2375
2289.74405	4731.4375
2292.61534	4729.1375
2295.4848	4715.6375
2298.35243	4716.3375
2301.21824	4691.6375
2304.08223	4692.6375
2306.94439	4699.4375
2309.80474	4710.1375
2312.66327	4688.8375
2315.51999	4688.9375
2318.37489	4663.6375
2321.22797	4650.2375
2324.07925	4644.5375
2326.92871	4646.5375
2329.77637	4630.5375
2332.62222	4615.5375
2335.46626	4609.1375
2338.3085	4599.6375
2341.14893	4607.2375
2343.98756	4608.1375
2346.8244	4599.4375
2349.65943	4582.5375
2352.49267	4578.5375
2355.32411	4590.8375
2358.15376	4563.0375
2360.98161	4596.6375
2363.80768	4565.9375
2366.63195	4559.0375
2369.45444	4567.2375
2372.27514	4544.8375
2375.09405	4569.8375
2377.91118	4521.2375
2380.72652	4524.7375
2383.54009	4507.5375
2386.35187	4523.3375
2389.16188	4491.5375
2391.97011	4492.1375
2394.77657	4476.3375
2397.58125	4494.8375
2400.38416	4486.2375
2403.18529	4460.3375
2405.98466	4455.4375
2408.78226	4454.6375
2411.57809	4432.3375
2414.37216	4443.3375
2417.16446	4428.4375
2419.955	4424.2375
2422.74378	4429.4375
2425.5308	4412.3375
2428.31606	4415.0375
2431.09956	4415.6375
2433.88131	4392.1375
2436.6613	4410.6375
2439.43954	4385.7375
2442.21603	4382.8375
2444.99077	4368.0375
2447.76377	4384.0375
2450.53501	4353.9375
2453.30451	4360.1375
2456.07226	4368.6375
2458.83827	4345.4375
2461.60254	4300.2375
2464.36507	4329.1375
2467.12586	4323.5375
2469.88492	4331.6375
2472.64224	4318.8375
2475.39782	4280.7375
2478.15167	4332.1375
2480.90379	4296.4375
2483.65417	4331.4375
2486.40283	4311.8375
2489.14976	4325.2375
2491.89497	4298.5375
2494.63845	4305.2375
2497.3802	4295.4375
2500.12024	4284.6375
2502.85855	4279.3375
2505.59514	4283.4375
2508.33002	4267.1375
2511.06318	4247.5375
2513.79462	4263.9375
2516.52435	4232.0375
2519.25237	4218.0375
2521.97867	4220.4375
2524.70327	4222.4375
2527.42616	4222.7375
2530.14734	4260.1375
2532.86681	4213.5375
2535.58458	4213.6375
2538.30065	4198.7375
2541.01501	4214.1375
2543.72768	4199.2375
2546.43864	4202.1375
2549.14791	4187.5375
2551.85548	4168.8375
2554.56136	4158.8375
2557.26554	4174.5375
2559.96803	4160.8375
2562.66883	4158.1375
2565.36794	4140.7375
2568.06536	4097.1375
2570.7611	4124.1375
2573.45514	4105.7375
2576.14751	4105.6375
2578.83819	4084.0375
2581.52719	4081.9375
2584.21451	4067.3375
2586.90015	4046.8375
2589.58411	4021.8375
2592.2664	4036.2375
2594.94701	4039.5375
2597.62594	4044.5375
2600.30321	3974.0375
2602.9788	4003.9375
2605.65273	3994.8375
2608.32498	3989.2375
2610.99557	4025.7375
2613.66449	3967.9375
2616.33175	3992.0375
2618.99734	3991.4375
2621.66128	3981.4375
2624.32355	3969.1375
2626.98416	3936.9375
2629.64311	3948.8375
2632.30041	3942.3375
2634.95605	3912.1375
2637.61004	3895.0375
2640.26238	3895.1375
2642.91306	3906.2375
2645.56209	3914.9375
2648.20948	3913.0375
2650.85521	3886.9375
2653.4993	3910.3375
2656.14175	3894.5375
2658.78255	3886.9375
2661.42171	3847.5375
2664.05923	3898.9375
2666.6951	3902.4375
2669.32934	3906.8375
2671.96194	3916.0375
2674.59291	3886.8375
2677.22224	3905.2375
2679.84993	3904.1375
2682.476	3881.7375
2685.10043	3879.3375
2687.72324	3874.8375
2690.34441	3878.0375
2692.96396	3859.2375
2695.58188	3887.2375
2698.19818	3878.6375
2700.81285	3866.9375
2703.4259	3857.4375
2706.03733	3831.4375
2708.64714	3827.8375
2711.25533	3849.8375
2713.86191	3853.0375
2716.46687	3858.9375
2719.07021	3832.2375
2721.67194	3848.5375
2724.27206	3855.2375
2726.87057	3835.3375
2729.46747	3838.5375
2732.06276	3839.4375
2734.65644	3813.8375
2737.24852	3828.5375
2739.83899	3810.4375
2742.42786	3810.2375
2745.01513	3831.0375
2747.60079	3810.6375
2750.18486	3807.7375
2752.76733	3806.4375
2755.3482	3786.8375
2757.92747	3783.4375
2760.50515	3771.8375
2763.08123	3754.7375
2765.65573	3757.9375
2768.22863	3750.8375
2770.79994	3745.5375
2773.36967	3740.4375
2775.9378	3723.5375
2778.50435	3721.6375
2781.06932	3711.8375
2783.6327	3701.4375
2786.1945	3721.4375
2788.75471	3706.8375
2791.31335	3692.0375
2793.87041	3693.6375
2796.42589	3663.8375
2798.97979	3658.2375
2801.53212	3660.3375
2804.08288	3673.4375
2806.63206	3664.2375
2809.17967	3634.2375
2811.72571	3635.5375
2814.27018	3643.3375
2816.81308	3625.2375
2819.35442	3578.2375
2821.89419	3588.7375
2824.43239	3588.5375
2826.96904	3592.2375
2829.50412	3583.3375
2832.03763	3583.4375
2834.56959	3581.7375
2837.1	3561.8375
2839.62884	3572.7375
2842.15613	3570.2375
2844.68186	3561.7375
2847.20604	3531.2375
2849.72867	3517.6375
2852.24974	3509.8375
2854.76927	3485.7375
2857.28724	3449.6375
2859.80367	3506.9375
2862.31855	3502.1375
2864.83189	3486.0375
2867.34368	3501.7375
2869.85393	3500.9375
2872.36264	3463.8375
2874.8698	3478.2375
2877.37543	3478.8375
2879.87952	3467.0375
2882.38207	3446.2375
2884.88308	3453.6375
2887.38256	3461.1375
2889.88051	3447.4375
2892.37692	3453.7375
2894.8718	3437.9375
2897.36515	3461.2375
2899.85698	3442.7375
2902.34727	3444.1375
2904.83604	3436.2375
2907.32328	3451.4375
2909.809	3440.7375
2912.29319	3443.7375
2914.77587	3454.1375
2917.25702	3452.1375
2919.73665	3472.4375
2922.21476	3448.7375
2924.69136	3455.4375
2927.16644	3436.8375
2929.64	3435.5375
2932.11205	3421.8375
2934.58258	3440.8375
2937.05161	3410.5375
2939.51912	3424.2375
2941.98513	3431.8375
2944.44962	3414.9375
2946.91261	3386.2375
2949.37409	3397.3375
2951.83407	3393.2375
2954.29254	3385.7375
2956.74951	3388.6375
2959.20498	3375.3375
2961.65895	3371.8375
2964.11142	3352.9375
2966.56239	3359.8375
2969.01186	3364.7375
2971.45984	3355.3375
2973.90632	3346.8375
2976.35131	3356.5375
2978.7948	3353.7375
2981.23681	3330.2375
2983.67732	3318.1375
2986.11635	3313.3375
2988.55388	3267.8375
2990.98993	3297.0375
2993.4245	3289.9375
2995.85758	3274.5375
2998.28917	3273.5375
3000.71928	3253.6375
3003.14791	3251.6375
3005.57506	3233.3375
3008.00073	3236.3375
3010.42493	3172.1375
3012.84764	3230.3375
3015.26888	3224.7375
3017.68865	3192.0375
3020.10694	3168.8375
3022.52376	3173.7375
3024.9391	3172.7375
3027.35298	3165.4375
3029.76539	3153.4375
3032.17632	3143.3375
3034.5858	3132.9375
3036.9938	3137.4375
3039.40034	3147.2375
3041.80542	3129.2375
3044.20903	3111.5375
3046.61118	3105.4375
3049.01187	3109.5375
3051.4111	3100.9375
3053.80888	3083.1375
3056.20519	3076.5375
3058.60005	3054.5375
3060.99345	3082.6375
3063.3854	3050.2375
3065.7759	3044.4375
3068.16494	3032.8375
3070.55254	3018.0375
3072.93868	3029.6375
3075.32338	3019.7375
3077.70662	3002.1375
3080.08842	2996.3375
3082.46878	2989.0375
3084.84769	3001.5375
3087.22515	2979.7375
3089.60118	2995.8375
3091.97576	2983.3375
3094.3489	2989.7375
3096.72061	2970.3375
3099.09087	2959.9375
3101.4597	2976.4375
3103.82709	2971.4375
3106.19305	2949.9375
3108.55757	2950.7375
3110.92066	2942.3375
3113.28232	2948.4375
3115.64255	2936.2375
3118.00134	2934.8375
3120.35871	2911.0375
3122.71466	2891.4375
3125.06917	2897.8375
