Data from AgNPs_UA_10uM_CRN_500uM_SU_RamanShift__79__13-18-30-269.txt Node

Date: Thu Aug 04 13:18:30 BST 2022
User: TCL
Spectrometer: QEP01345
Trigger mode: 4
Integration Time (sec): 1.000000E0
Scans to average: 10
Electric dark correction enabled: true
Nonlinearity correction enabled: false
Boxcar width: 0
XAxis mode: Raman Shifts
Number of Pixels in Spectrum: 1044
>>>>>Begin Spectral Data<<<<<
46.04893	-0.1
50.45542	-0.6
54.85868	0.8
59.25871	-0.5
63.6555	22.6
68.04907	19.8
72.43941	24.7
76.82654	24.1
81.21044	25.3
85.59113	27.2
89.96862	25.1
94.34289	26
98.71396	27.9
103.08183	30.2
107.4465	29.7
111.80798	31.3
116.16626	32.1
120.52136	34.4
124.87327	35.6
129.222	37.6
133.56755	38.8
137.90993	41.9
142.24913	47.8
146.58517	55.8
150.91804	63.8
155.24774	79.9
159.57429	100.9
163.89768	128.8
168.21792	176
172.53501	239.6
176.84895	337.9
181.15975	478.5
185.46741	672.7
189.77193	946.4
194.07331	1271.2
198.37157	1623.8
202.6667	2014
206.9587	2397
211.24758	2785.4
215.53334	3172.3
219.81599	3576.2
224.09553	4039.4
228.37195	4545.6
232.64527	5062.9
236.91549	5630
241.18261	6162
245.44663	6566.3
249.70755	6924.8
253.96539	7223.9
258.22014	7505.8
262.4718	7740.2
266.72039	7913.3
270.96589	7949
275.20832	7944.7
279.44768	7833.9
283.68397	7717.7
287.91719	7649.9
292.14735	7642.8
296.37445	7724.9
300.59849	7857.2
304.81948	8090.7
309.03742	8284.5
313.25231	8360.8
317.46415	8284.6
321.67296	8059.5
325.87872	7828.6
330.08145	7709
334.28114	7723.9
338.47781	7819.7
342.67145	7966.2
346.86207	8151.4
351.04966	8382.5
355.23424	8663.8
359.4158	8897.1
363.59435	9023.5
367.76989	9071.5
371.94243	9099
376.11196	9127.6
380.27849	9160.2
384.44203	9204.9
388.60257	9293
392.76012	9369.2
396.91468	9494.2
401.06626	9630.6
405.21485	9709.1
409.36047	9630.7
413.50311	9409.1
417.64277	9182.9
421.77947	9068.2
425.9132	8998.2
430.04396	8977.8
434.17176	9029.5
438.2966	9140.8
442.41849	9294.7
446.53742	9511.4
450.6534	9725.5
454.76644	9881.8
458.87653	9938.2
462.98368	9955
467.08789	9878.1
471.18916	9723.5
475.2875	9548.4
479.38291	9337.3
483.4754	9249.8
487.56496	9178.8
491.6516	9124.7
495.73531	9125.4
499.81612	9153.4
503.89401	9234.6
507.96899	9286.2
512.04106	9313.2
516.11023	9353.7
520.1765	9400.2
524.23987	9406.6
528.30034	9416.2
532.35792	9399.4
536.41261	9328
540.46441	9202.7
544.51333	9218.8
548.55936	9241.9
552.60252	9384.7
556.64279	9534.9
560.6802	9659.9
564.71473	9724.7
568.7464	9753.8
572.7752	9716.3
576.80114	9558
580.82422	9424.9
584.84444	9397.5
588.86181	9442.2
592.87633	9539.8
596.888	9712.2
600.89682	10129.1
604.9028	11096.4
608.90594	13056.9
612.90624	14808.2
616.90371	13700.4
620.89834	11125.8
624.89015	10147.5
628.87913	10104.1
632.86528	10210.2
636.84862	10194.6
640.82913	9991.2
644.80683	9635.9
648.78172	9472.6
652.75379	9502.7
656.72306	9740.4
660.68952	10017.2
664.65319	9986.5
668.61405	9936.5
672.57211	10023.7
676.52738	10032.2
680.47986	9793.7
684.42955	9587.6
688.37646	9572.3
692.32058	9648.1
696.26192	9838
700.20048	10016.1
704.13626	10058.5
708.06928	9904.4
711.99952	9804.6
715.927	9778.2
719.85171	9845
723.77365	9855.6
727.69284	9758.1
731.60928	9718.9
735.52295	9719
739.43388	9733.8
743.34206	9789.6
747.24749	9824.9
751.15017	9815.7
755.05012	9911.5
758.94733	10182.6
762.8418	10857.2
766.73354	11869.4
770.62254	12704
774.50882	12937.2
778.39237	12596.1
782.27321	11911.8
786.15132	11086.9
790.02671	10482
793.89938	10154
797.76935	10003.3
801.6366	9906.5
805.50115	9848.2
809.36299	9804.8
813.22213	9801.4
817.07857	9806.5
820.93231	9797.2
824.78336	9795.7
828.63172	9811.8
832.47738	9808
836.32036	9811.4
840.16066	9822.1
843.99827	9823.3
847.8332	9843.4
851.66546	9844.3
855.49504	9834.8
859.32195	9844.8
863.1462	9866.2
866.96777	9829.5
870.78668	9833.2
874.60293	9862.9
878.41652	9928.3
882.22745	9994.3
886.03573	10040.4
889.84136	10045.7
893.64433	9987.8
897.44466	9956.5
901.24235	9906.3
905.0374	9904.2
908.8298	9893.3
912.61957	9896.5
916.40671	9909.9
920.19121	9927.2
923.97308	10004.7
927.75233	10080.6
931.52895	10154.5
935.30295	10098
939.07433	9955.7
942.84309	9878.6
946.60924	9834.7
950.37278	9827.7
954.13371	9806.1
957.89203	9802.9
961.64774	9775
965.40086	9771.7
969.15137	9728.9
972.89929	9761.6
976.64461	9738.4
980.38733	9754.8
984.12747	9825.3
987.86502	9869.4
991.59999	9937.8
995.33237	10003.3
999.06217	10193.3
1002.78939	10366.8
1006.51404	10548.9
1010.23611	10666
1013.95561	10743.2
1017.67255	10811.2
1021.38692	10837.6
1025.09872	10833.9
1028.80796	10807.8
1032.51465	10921.2
1036.21877	10985.4
1039.92035	11001.4
1043.61937	10928.1
1047.31584	10846.5
1051.00976	10767.5
1054.70114	10739.8
1058.38998	10801.8
1062.07627	10834.4
1065.76003	10895.9
1069.44126	11002.2
1073.11995	11177.8
1076.79611	11347.1
1080.46974	11477.7
1084.14085	11547.1
1087.80943	11602.9
1091.47549	11636.2
1095.13903	11620.2
1098.80005	11665.8
1102.45857	11752.2
1106.11456	11742.8
1109.76805	11601.3
1113.41903	11537.5
1117.06751	11649
1120.71348	11793.7
1124.35696	11927.6
1127.99793	11987.4
1131.63641	11853.4
1135.2724	11578.4
1138.90589	11362.6
1142.5369	11210.9
1146.16542	11121.1
1149.79145	11042.3
1153.415	10960.9
1157.03607	10945.2
1160.65467	11025.2
1164.27079	11274
1167.88443	11606.9
1171.49561	12092.6
1175.10432	12804.7
1178.71056	13708.9
1182.31434	14539.1
1185.91565	14951.9
1189.51451	15009
1193.11091	14849.9
1196.70485	14539.9
1200.29634	14140.7
1203.88538	13679
1207.47197	13176
1211.05612	12714.2
1214.63782	12293.6
1218.21708	12064.3
1221.79391	12001.3
1225.36829	11979.9
1228.94024	11976.1
1232.50976	11905.7
1236.07685	11931.9
1239.6415	11968.5
1243.20374	12002.4
1246.76355	12054.7
1250.32093	12171.9
1253.8759	12371.9
1257.42845	12677
1260.97859	12965.1
1264.52631	13319.4
1268.07163	13533
1271.61453	13696.8
1275.15503	13783.9
1278.69312	13844.2
1282.22882	13949.9
1285.76211	14092.2
1289.29301	14225.2
1292.82151	14405.5
1296.34761	14670
1299.87133	15071.7
1303.39266	15806.3
1306.9116	16886.5
1310.42815	17938.3
1313.94233	18439
1317.45412	18122.3
1320.96354	17303.7
1324.47058	16483.1
1327.97525	15796.9
1331.47754	15380
1334.97747	15316.1
1338.47502	15547
1341.97022	16072.9
1345.46305	16789.8
1348.95352	17780.5
1352.44163	18801.1
1355.92738	19829.6
1359.41078	20936.1
1362.89183	21485.3
1366.37053	20383.1
1369.84688	18013.9
1373.32088	15907.3
1376.79254	14658.2
1380.26186	14057.5
1383.72883	13696.9
1387.19347	13389.1
1390.65578	13002.6
1394.11575	12703.9
1397.57339	12452.2
1401.0287	12351.1
1404.48168	12434.3
1407.93234	12574.9
1411.38068	12801.6
1414.82669	13016.2
1418.27039	13020.4
1421.71177	12945.5
1425.15083	12869.6
1428.58758	12844.3
1432.02203	12890.9
1435.45416	12948.8
1438.88399	12939.4
1442.31151	12884.1
1445.73673	12880
1449.15965	12869
1452.58027	12803.7
1455.9986	12711.8
1459.41463	12709
1462.82837	12825.3
1466.23982	13002.2
1469.64898	13246.9
1473.05586	13395.6
1476.46045	13583.6
1479.86276	13711.7
1483.26279	13873.3
1486.66054	14065.3
1490.05602	14444.5
1493.44922	14920.5
1496.84016	15698.9
1500.22882	16714.1
1503.61521	17917.1
1506.99934	18950.1
1510.38121	19517.7
1513.76081	19157.6
1517.13816	17995.5
1520.51324	16526.8
1523.88607	15364.8
1527.25665	14646.3
1530.62498	14279.5
1533.99105	14140.6
1537.35488	14067.6
1540.71647	13928.9
1544.07581	13820.2
1547.4329	13714.8
1550.78776	13563.2
1554.14038	13414.4
1557.49077	13362.4
1560.83892	13491.1
1564.18484	13698.1
1567.52853	13861.3
1570.86999	13976.7
1574.20922	14000.4
1577.54624	13822.7
1580.88103	13418.8
1584.2136	12951.4
1587.54395	12794.6
1590.87208	12970.7
1594.19801	13478.5
1597.52172	14137.4
1600.84321	14461.9
1604.16251	14370.8
1607.47959	14034.7
1610.79447	13513.1
1614.10715	12871.1
1617.41763	12228.1
1620.7259	11782
1624.03199	11521.4
1627.33587	11474.2
1630.63757	11634.8
1633.93707	12029.6
1637.23439	12781.7
1640.52951	13797.4
1643.82246	15021.9
1647.11321	16046.4
1650.40179	16273.1
1653.68819	15315.1
1656.97241	13712.5
1660.25446	12259.8
1663.53433	11282.9
1666.81203	10686.7
1670.08756	10348.8
1673.36092	10137.6
1676.63211	9975.3
1679.90115	9877.9
1683.16801	9777.8
1686.43272	9676.6
1689.69527	9635.4
1692.95567	9586.8
1696.2139	9550.1
1699.46999	9524
1702.72392	9502.9
1705.97571	9510.6
1709.22535	9525.6
1712.47284	9503
1715.71819	9508.3
1718.96139	9516.7
1722.20246	9505.1
1725.44139	9473.5
1728.67818	9391.7
1731.91284	9364.3
1735.14537	9319.2
1738.37576	9295.5
1741.60403	9242.1
1744.83017	9216.6
1748.05418	9216.1
1751.27607	9170.5
1754.49584	9179.6
1757.71349	9165.4
1760.92903	9172.1
1764.14244	9131.9
1767.35375	9139.6
1770.56294	9116
1773.77002	9091.9
1776.97499	9068.5
1780.17785	9042.7
1783.37861	9021.3
1786.57727	9017
1789.77382	9013.9
1792.96828	9017.2
1796.16064	8984.1
1799.3509	8972
1802.53907	8954.4
1805.72514	8931.4
1808.90913	8916.6
1812.09102	8918.3
1815.27083	8885.1
1818.44856	8850.9
1821.6242	8811.6
1824.79776	8811.2
1827.96924	8799.9
1831.13864	8790.2
1834.30597	8770.4
1837.47122	8760.2
1840.6344	8735
1843.7955	8746.5
1846.95454	8744.5
1850.11151	8739.4
1853.26642	8737.5
1856.41926	8754.7
1859.57004	8737.7
1862.71876	8748.5
1865.86542	8715
1869.01003	8697.5
1872.15258	8692.4
1875.29308	8668.2
1878.43152	8676
1881.56792	8672.4
1884.70227	8651.1
1887.83457	8610.1
1890.96482	8591.6
1894.09304	8588.9
1897.21921	8589
1900.34335	8584
1903.46544	8571.2
1906.58551	8570.6
1909.70353	8535.3
1912.81953	8547.3
1915.93349	8516.8
1919.04543	8539.4
1922.15534	8500.4
1925.26322	8483.1
1928.36908	8453.9
1931.47292	8452.3
1934.57473	8442.8
1937.67453	8429.4
1940.77232	8401.8
1943.86808	8380.3
1946.96184	8367.3
1950.05358	8329.1
1953.14331	8324.1
1956.23103	8293.8
1959.31675	8256.1
1962.40046	8226.1
1965.48217	8205.9
1968.56188	8172.5
1971.63959	8168.1
1974.7153	8143.9
1977.78901	8117
1980.86073	8109.4
1983.93046	8051.3
1986.99819	8027.7
1990.06394	8029
1993.1277	7974.9
1996.18947	7961.4
1999.24925	7938.6
2002.30706	7933.4
2005.36288	7881.3
2008.41672	7851.4
2011.46859	7829
2014.51848	7799.7
2017.56639	7806.4
2020.61233	7758.3
2023.6563	7733.5
2026.6983	7739.8
2029.73833	7698.2
2032.7764	7683.9
2035.8125	7669.8
2038.84664	7655.6
2041.87881	7662.6
2044.90903	7611.7
2047.93729	7598.5
2050.96359	7612.4
2053.98794	7576.4
2057.01034	7589.1
2060.03078	7580
2063.04927	7544.7
2066.06582	7549.9
2069.08042	7543.3
2072.09307	7523.1
2075.10378	7516.7
2078.11255	7507.4
2081.11938	7513.2
2084.12426	7492.7
2087.12722	7499.2
2090.12824	7506.2
2093.12732	7489.6
2096.12447	7496
2099.11969	7496.3
2102.11299	7492.9
2105.10435	7496.2
2108.09379	7507.2
2111.08131	7500.9
2114.0669	7494.4
2117.05057	7517.1
2120.03233	7521.1
2123.01216	7532.3
2125.99008	7527
2128.96609	7525.7
2131.94018	7532
2134.91236	7524.3
2137.88263	7512.5
2140.851	7515.5
2143.81746	7507.7
2146.78201	7510.5
2149.74466	7501.8
2152.7054	7528.4
2155.66425	7510.1
2158.6212	7524.2
2161.57625	7488.8
2164.52941	7497.6
2167.48067	7486.7
2170.43004	7491.6
2173.37752	7469.3
2176.32311	7490.1
2179.26681	7501.4
2182.20863	7476.1
2185.14856	7494.6
2188.08661	7491.6
2191.02278	7485.9
2193.95707	7490.5
2196.88948	7476.3
2199.82001	7459.7
2202.74867	7458.1
2205.67545	7478.7
2208.60037	7448.4
2211.52341	7434.1
2214.44458	7412.2
2217.36388	7385.6
2220.28132	7366.3
2223.1969	7355.7
2226.11061	7319
2229.02246	7338.4
2231.93245	7317.7
2234.84058	7285.5
2237.74686	7271.3
2240.65128	7276.8
2243.55385	7244.5
2246.45456	7256.5
2249.35343	7262.1
2252.25044	7224.2
2255.14561	7225.7
2258.03893	7214.6
2260.93041	7196.9
2263.82004	7178.6
2266.70783	7191.4
2269.59378	7163.5
2272.4779	7128.6
2275.36017	7105.9
2278.24061	7115
2281.11922	7087.1
2283.996	7064.6
2286.87094	7047.7
2289.74405	7062.7
2292.61534	7037.4
2295.4848	7017.4
2298.35243	7019.6
2301.21824	7010.8
2304.08223	6988.6
2306.94439	6999.9
2309.80474	6997.9
2312.66327	6994.9
2315.51999	6986.4
2318.37489	6998
2321.22797	6980.3
2324.07925	6935.2
2326.92871	6938.9
2329.77637	6930.1
2332.62222	6915.3
2335.46626	6899.7
2338.3085	6899.2
2341.14893	6905.7
2343.98756	6899.5
2346.8244	6911.8
2349.65943	6902.4
2352.49267	6875.2
2355.32411	6878.1
2358.15376	6888.6
2360.98161	6871
2363.80768	6871.8
2366.63195	6868.1
2369.45444	6843.8
2372.27514	6838.3
2375.09405	6826
2377.91118	6803.2
2380.72652	6783.1
2383.54009	6779.8
2386.35187	6775.8
2389.16188	6742.4
2391.97011	6728.5
2394.77657	6721.3
2397.58125	6695.3
2400.38416	6693
2403.18529	6684.9
2405.98466	6674.4
2408.78226	6664.4
2411.57809	6641.1
2414.37216	6648
2417.16446	6633.9
2419.955	6605.2
2422.74378	6604.6
2425.5308	6608.8
2428.31606	6607.7
2431.09956	6589.1
2433.88131	6583.5
2436.6613	6585.4
2439.43954	6575.5
2442.21603	6548.4
2444.99077	6560.9
2447.76377	6569.7
2450.53501	6560.9
2453.30451	6559.4
2456.07226	6561.9
2458.83827	6526
2461.60254	6519.7
2464.36507	6496.9
2467.12586	6486.9
2469.88492	6505.1
2472.64224	6490.2
2475.39782	6505.5
2478.15167	6504.8
2480.90379	6471.3
2483.65417	6476.6
2486.40283	6462.3
2489.14976	6479.9
2491.89497	6472.5
2494.63845	6462.4
2497.3802	6465.7
2500.12024	6432.5
2502.85855	6438.6
2505.59514	6423.1
2508.33002	6434.3
2511.06318	6396.2
2513.79462	6386.6
2516.52435	6407.3
2519.25237	6374.2
2521.97867	6360.2
2524.70327	6354.9
2527.42616	6340.9
2530.14734	6325.9
2532.86681	6324.2
2535.58458	6344.1
2538.30065	6349.2
2541.01501	6343
2543.72768	6324.9
2546.43864	6307.5
2549.14791	6281.7
2551.85548	6288.3
2554.56136	6295.2
2557.26554	6255
2559.96803	6266.7
2562.66883	6237.7
2565.36794	6217.1
2568.06536	6207.7
2570.7611	6195.9
2573.45514	6185.4
2576.14751	6178.8
2578.83819	6166.9
2581.52719	6146.8
2584.21451	6169.5
2586.90015	6160.3
2589.58411	6149.1
2592.2664	6138.9
2594.94701	6118.8
2597.62594	6110
2600.30321	6104.6
2602.9788	6094.9
2605.65273	6093.7
2608.32498	6068.9
2610.99557	6063.2
2613.66449	6082.7
2616.33175	6058.2
2618.99734	6061.7
2621.66128	6061.4
2624.32355	6029.1
2626.98416	6035.5
2629.64311	6022.8
2632.30041	6032.5
2634.95605	6015.3
2637.61004	6018.4
2640.26238	5970.4
2642.91306	5970.8
2645.56209	5981.3
2648.20948	5974.8
2650.85521	5969.9
2653.4993	5958.1
2656.14175	5967
2658.78255	5959.2
2661.42171	5939
2664.05923	5942.1
2666.6951	5963.9
2669.32934	5971.8
2671.96194	5973.8
2674.59291	5972
2677.22224	5982.4
2679.84993	5969.8
2682.476	5957.3
2685.10043	5959.3
2687.72324	5951.8
2690.34441	5957.6
2692.96396	5937.4
2695.58188	5939.2
2698.19818	5941.5
2700.81285	5936.5
2703.4259	5919.2
2706.03733	5910.9
2708.64714	5906.9
2711.25533	5905.9
2713.86191	5901.6
2716.46687	5914.2
2719.07021	5914
2721.67194	5925.4
2724.27206	5900.9
2726.87057	5908.9
2729.46747	5897.3
2732.06276	5904.3
2734.65644	5899.2
2737.24852	5890.2
2739.83899	5892.6
2742.42786	5888.9
2745.01513	5841.4
2747.60079	5848.9
2750.18486	5834.3
2752.76733	5836.5
2755.3482	5823.7
2757.92747	5820.7
2760.50515	5814.9
2763.08123	5805.9
2765.65573	5788.6
2768.22863	5779.2
2770.79994	5772.9
2773.36967	5772
2775.9378	5752.4
2778.50435	5755.7
2781.06932	5754.3
2783.6327	5772.6
2786.1945	5747.3
2788.75471	5747
2791.31335	5714.3
2793.87041	5715.4
2796.42589	5691.4
2798.97979	5679.6
2801.53212	5658.9
2804.08288	5640.2
2806.63206	5664.1
2809.17967	5650.9
2811.72571	5617.7
2814.27018	5637.3
2816.81308	5613
2819.35442	5587.7
2821.89419	5574.2
2824.43239	5562.1
2826.96904	5563.6
2829.50412	5559.9
2832.03763	5534.9
2834.56959	5555.2
2837.1	5528.1
2839.62884	5521.8
2842.15613	5510.9
2844.68186	5507.9
2847.20604	5527.2
2849.72867	5498.9
2852.24974	5483.8
2854.76927	5453.4
2857.28724	5453
2859.80367	5448.3
2862.31855	5441.9
2864.83189	5465.1
2867.34368	5454.8
2869.85393	5436.5
2872.36264	5405.4
2874.8698	5419.9
2877.37543	5413.6
2879.87952	5406.7
2882.38207	5404
2884.88308	5379.5
2887.38256	5404.8
2889.88051	5392.3
2892.37692	5399
2894.8718	5377.7
2897.36515	5373.1
2899.85698	5358.6
2902.34727	5369.8
2904.83604	5387
2907.32328	5393.6
2909.809	5391.9
2912.29319	5395.7
2914.77587	5385.4
2917.25702	5384.5
2919.73665	5394.5
2922.21476	5398.6
2924.69136	5382.2
2927.16644	5372.2
2929.64	5348.3
2932.11205	5356.1
2934.58258	5325.9
2937.05161	5333.9
2939.51912	5333.8
2941.98513	5323.9
2944.44962	5320.6
2946.91261	5303.7
2949.37409	5312.2
2951.83407	5305.9
2954.29254	5307.4
2956.74951	5290.7
2959.20498	5292.8
2961.65895	5272.9
2964.11142	5286.6
2966.56239	5275.4
2969.01186	5282.8
2971.45984	5275.1
2973.90632	5263.9
2976.35131	5245.4
2978.7948	5236.1
2981.23681	5240.1
2983.67732	5223.7
2986.11635	5218.8
2988.55388	5192
2990.98993	5178.9
2993.4245	5149.4
2995.85758	5149.9
2998.28917	5145.7
3000.71928	5124.4
3003.14791	5117.8
3005.57506	5107.2
3008.00073	5082.2
3010.42493	5085.4
3012.84764	5062.5
3015.26888	5067.8
3017.68865	5040.4
3020.10694	5051.2
3022.52376	5027.4
3024.9391	5008.7
3027.35298	4987.6
3029.76539	4987.9
3032.17632	4990.6
3034.5858	4983
3036.9938	4972.3
3039.40034	4945.6
3041.80542	4931.4
3044.20903	4917.9
3046.61118	4926.2
3049.01187	4919.4
3051.4111	4885.4
3053.80888	4868.7
3056.20519	4871.1
3058.60005	4847.6
3060.99345	4858.3
3063.3854	4845.8
3065.7759	4829.5
3068.16494	4815.6
3070.55254	4798.7
3072.93868	4776.4
3075.32338	4760
3077.70662	4744.5
3080.08842	4752.6
3082.46878	4738.1
3084.84769	4714.4
3087.22515	4706.7
3089.60118	4704.6
3091.97576	4701.7
3094.3489	4704.4
3096.72061	4710.2
3099.09087	4676.8
3101.4597	4698.7
3103.82709	4691.9
3106.19305	4680.8
3108.55757	4671.7
3110.92066	4659.9
3113.28232	4656.7
3115.64255	4642.8
3118.00134	4620.5
3120.35871	4621.6
3122.71466	4620.6
3125.06917	4614.1
3127.42226	4588.4
3129.77393	4577.7
3132.12417	4569.5
3134.47299	4564.4
3136.82039	4555.8
3139.16636	4558.5
3141.51092	4555.2
3143.85406	4545.1
3146.19579	4549.1
3148.53609	4550.1
3150.87499	4524.1
3153.21246	4541.9
3155.54853	4544.3
3157.88318	4526.2
3160.21642	4519.3
3162.54826	4511.3
3164.87868	4510.4
3167.2077	4501
3169.5353	4494
3171.86151	4496.4
3174.18631	4488.4
3176.5097	4476
3178.83169	4460.6
3181.15228	4463.7
3183.47147	4448.8
3185.78926	4446.4
3188.10565	4424
3190.42065	4410.8
3192.73424	4407.8
3195.04645	4412.8
3197.35725	4398.3
3199.66667	4392.7
3201.97469	4397.2
3204.28132	4396.3
3206.58656	4394.3
3208.8904	4379.7
3211.19287	4397
3213.49394	4400
3215.79363	4384.5
3218.09193	4385.6
3220.38884	4369.4
3222.68438	4384.8
3224.97853	4371.7
3227.2713	4372.9
3229.56269	4366.7
3231.8527	4354.2
3234.14133	4343.3
3236.42858	4337.4
3238.71446	4318.4
3240.99896	4316
3243.28209	4315.6
3245.56384	4288.9
3247.84423	4289.4
3250.12324	4276.9
3252.40088	4265.6
3254.67715	4266.8
3256.95205	4257.1
3259.22558	4262
3261.49775	4252.3
3263.76855	4271.2
3266.03799	4255.9
3268.30606	4253
3270.57277	4238.8
3272.83812	4234.3
3275.10211	4212.6
3277.36474	4220.3
3279.62601	4214.7
3281.88593	4203.8
3284.14448	4172.9
3286.40168	4185.9
3288.65753	4189.6
3290.91202	4167.4
3293.16516	4164.5
3295.41695	4170.2
3297.66738	4152.9
3299.91647	4148.8
3302.16421	4109
3304.4106	4070.7
3306.65564	4041.4
3308.89933	4011
3311.14169	3974.2
3313.38269	3948
3315.62236	3921.5
3317.86068	3895.4
3320.09766	3873.1
3322.3333	3845.7
3324.5676	3816.5
3326.80056	3738.9
3329.03219	3729.9
3331.26248	1.8
3333.49143	-1.2
3335.71905	0
