Data from AgNPs_UA_10uM_CRN_500uM_SU_RamanShift__42__13-12-20-261.txt Node

Date: Thu Aug 04 13:12:20 BST 2022
User: TCL
Spectrometer: QEP01345
Trigger mode: 4
Integration Time (sec): 1.000000E0
Scans to average: 10
Electric dark correction enabled: true
Nonlinearity correction enabled: false
Boxcar width: 0
XAxis mode: Raman Shifts
Number of Pixels in Spectrum: 1044
>>>>>Begin Spectral Data<<<<<
46.04893	-0.5375
50.45542	-0.7375
54.85868	1.1625
59.25871	-0.2375
63.6555	18.8625
68.04907	18.9625
72.43941	20.3625
76.82654	20.4625
81.21044	20.2625
85.59113	22.3625
89.96862	23.2625
94.34289	23.6625
98.71396	24.4625
103.08183	25.9625
107.4465	24.0625
111.80798	23.8625
116.16626	26.5625
120.52136	28.4625
124.87327	29.3625
129.222	32.6625
133.56755	31.8625
137.90993	36.1625
142.24913	40.8625
146.58517	44.7625
150.91804	52.6625
155.24774	67.6625
159.57429	78.8625
163.89768	102.7625
168.21792	136.6625
172.53501	189.4625
176.84895	266.2625
181.15975	377.0625
185.46741	527.1625
189.77193	735.3625
194.07331	989.3625
198.37157	1278.2625
202.6667	1578.5625
206.9587	1873.4625
211.24758	2180.4625
215.53334	2483.2625
219.81599	2790.1625
224.09553	3138.1625
228.37195	3541.5625
232.64527	3953.1625
236.91549	4383.9625
241.18261	4797.3625
245.44663	5175.7625
249.70755	5494.6625
253.96539	5778.1625
258.22014	6034.2625
262.4718	6221.3625
266.72039	6348.2625
270.96589	6374.8625
275.20832	6376.3625
279.44768	6315.2625
283.68397	6204.7625
287.91719	6143.2625
292.14735	6122.3625
296.37445	6125.8625
300.59849	6217.5625
304.81948	6303.8625
309.03742	6388.5625
313.25231	6413.3625
317.46415	6380.5625
321.67296	6248.6625
325.87872	6156.7625
330.08145	6120.2625
334.28114	6115.0625
338.47781	6201.3625
342.67145	6278.9625
346.86207	6408.8625
351.04966	6582.2625
355.23424	6765.6625
359.4158	6921.3625
363.59435	7035.6625
367.76989	7101.4625
371.94243	7138.5625
376.11196	7185.0625
380.27849	7216.0625
384.44203	7263.7625
388.60257	7342.7625
392.76012	7400.3625
396.91468	7476.1625
401.06626	7563.4625
405.21485	7608.7625
409.36047	7605.7625
413.50311	7499.2625
417.64277	7409.2625
421.77947	7335.5625
425.9132	7307.1625
430.04396	7308.5625
434.17176	7327.1625
438.2966	7382.4625
442.41849	7486.0625
446.53742	7611.1625
450.6534	7729.6625
454.76644	7820.3625
458.87653	7884.0625
462.98368	7950.5625
467.08789	7929.8625
471.18916	7869.7625
475.2875	7786.6625
479.38291	7713.3625
483.4754	7660.1625
487.56496	7646.4625
491.6516	7618.4625
495.73531	7641.1625
499.81612	7694.1625
503.89401	7736.2625
507.96899	7771.5625
512.04106	7791.3625
516.11023	7811.0625
520.1765	7839.3625
524.23987	7845.7625
528.30034	7854.2625
532.35792	7861.5625
536.41261	7831.6625
540.46441	7812.4625
544.51333	7821.1625
548.55936	7886.5625
552.60252	7938.0625
556.64279	8010.7625
560.6802	8107.8625
564.71473	8140.9625
568.7464	8155.1625
572.7752	8115.8625
576.80114	8009.1625
580.82422	7950.9625
584.84444	7966.1625
588.86181	7939.0625
592.87633	7999.2625
596.888	8066.2625
600.89682	8334.7625
604.9028	8904.2625
608.90594	9931.0625
612.90624	10918.3625
616.90371	10374.5625
620.89834	8968.9625
624.89015	8424.5625
628.87913	8380.3625
632.86528	8510.8625
636.84862	8570.8625
640.82913	8501.3625
644.80683	8311.4625
648.78172	8235.9625
652.75379	8231.4625
656.72306	8403.6625
660.68952	8555.6625
664.65319	8552.5625
668.61405	8540.0625
672.57211	8635.7625
676.52738	8674.5625
680.47986	8520.0625
684.42955	8406.9625
688.37646	8401.3625
692.32058	8434.6625
696.26192	8567.8625
700.20048	8699.1625
704.13626	8724.0625
708.06928	8653.3625
711.99952	8567.5625
715.927	8591.3625
719.85171	8610.2625
723.77365	8649.1625
727.69284	8602.6625
731.60928	8596.0625
735.52295	8601.4625
739.43388	8641.0625
743.34206	8636.7625
747.24749	8645.2625
751.15017	8622.0625
755.05012	8697.0625
758.94733	8839.7625
762.8418	9181.1625
766.73354	9736.2625
770.62254	10185.2625
774.50882	10370.6625
778.39237	10273.2625
782.27321	9976.2625
786.15132	9537.1625
790.02671	9180.1625
793.89938	8951.6625
797.76935	8860.5625
801.6366	8792.1625
805.50115	8776.1625
809.36299	8760.2625
813.22213	8745.1625
817.07857	8755.2625
820.93231	8769.6625
824.78336	8778.0625
828.63172	8786.5625
832.47738	8823.1625
836.32036	8802.0625
840.16066	8814.3625
843.99827	8799.5625
847.8332	8830.8625
851.66546	8863.0625
855.49504	8864.5625
859.32195	8889.1625
863.1462	8889.5625
866.96777	8905.9625
870.78668	8908.0625
874.60293	8939.2625
878.41652	8946.4625
882.22745	9006.1625
886.03573	9052.7625
889.84136	9067.6625
893.64433	9034.2625
897.44466	9028.1625
901.24235	9013.5625
905.0374	9025.8625
908.8298	8993.1625
912.61957	9010.5625
916.40671	9001.3625
920.19121	8996.0625
923.97308	9018.9625
927.75233	9067.7625
931.52895	9095.5625
935.30295	9050.0625
939.07433	9007.2625
942.84309	8961.0625
946.60924	8965.9625
950.37278	8964.9625
954.13371	8964.9625
957.89203	8949.1625
961.64774	8972.2625
965.40086	8952.3625
969.15137	8948.3625
972.89929	8938.0625
976.64461	8941.5625
980.38733	8948.2625
984.12747	8984.4625
987.86502	9007.3625
991.59999	9026.3625
995.33237	9033.9625
999.06217	9071.1625
1002.78939	9145.5625
1006.51404	9216.2625
1010.23611	9335.2625
1013.95561	9378.0625
1017.67255	9402.5625
1021.38692	9411.6625
1025.09872	9396.0625
1028.80796	9340.0625
1032.51465	9321.8625
1036.21877	9313.6625
1039.92035	9324.2625
1043.61937	9353.0625
1047.31584	9411.5625
1051.00976	9410.6625
1054.70114	9453.2625
1058.38998	9472.7625
1062.07627	9530.9625
1065.76003	9558.6625
1069.44126	9620.0625
1073.11995	9779.7625
1076.79611	9919.5625
1080.46974	10008.1625
1084.14085	10033.1625
1087.80943	10045.4625
1091.47549	10095.3625
1095.13903	10162.2625
1098.80005	10226.2625
1102.45857	10339.1625
1106.11456	10354.5625
1109.76805	10217.6625
1113.41903	10137.4625
1117.06751	10173.3625
1120.71348	10214.5625
1124.35696	10249.6625
1127.99793	10274.4625
1131.63641	10194.1625
1135.2724	10043.2625
1138.90589	9922.4625
1142.5369	9856.4625
1146.16542	9826.3625
1149.79145	9750.8625
1153.415	9702.7625
1157.03607	9665.7625
1160.65467	9699.9625
1164.27079	9780.8625
1167.88443	9963.7625
1171.49561	10196.2625
1175.10432	10555.0625
1178.71056	11009.2625
1182.31434	11406.9625
1185.91565	11603.7625
1189.51451	11647.7625
1193.11091	11611.0625
1196.70485	11555.5625
1200.29634	11404.7625
1203.88538	11218.3625
1207.47197	10974.6625
1211.05612	10746.2625
1214.63782	10513.0625
1218.21708	10333.9625
1221.79391	10195.9625
1225.36829	10148.1625
1228.94024	10122.8625
1232.50976	10148.9625
1236.07685	10165.5625
1239.6415	10193.9625
1243.20374	10257.7625
1246.76355	10286.0625
1250.32093	10331.8625
1253.8759	10427.8625
1257.42845	10567.0625
1260.97859	10756.4625
1264.52631	10919.1625
1268.07163	10990.6625
1271.61453	11103.2625
1275.15503	11062.8625
1278.69312	11029.5625
1282.22882	11014.0625
1285.76211	11023.0625
1289.29301	11082.0625
1292.82151	11193.3625
1296.34761	11333.5625
1299.87133	11491.8625
1303.39266	11849.3625
1306.9116	12321.7625
1310.42815	12793.2625
1313.94233	12981.1625
1317.45412	12778.0625
1320.96354	12448.8625
1324.47058	12101.6625
1327.97525	11768.4625
1331.47754	11536.2625
1334.97747	11488.1625
1338.47502	11544.5625
1341.97022	11823.6625
1345.46305	12250.4625
1348.95352	12911.2625
1352.44163	13530.8625
1355.92738	14049.2625
1359.41078	14520.5625
1362.89183	14796.1625
1366.37053	14282.3625
1369.84688	13085.0625
1373.32088	11982.9625
1376.79254	11342.1625
1380.26186	11017.4625
1383.72883	10788.2625
1387.19347	10593.7625
1390.65578	10377.3625
1394.11575	10205.1625
1397.57339	10060.9625
1401.0287	10009.5625
1404.48168	9988.7625
1407.93234	10013.9625
1411.38068	10136.0625
1414.82669	10226.0625
1418.27039	10248.1625
1421.71177	10228.8625
1425.15083	10226.3625
1428.58758	10114.8625
1432.02203	10092.8625
1435.45416	10036.3625
1438.88399	10032.3625
1442.31151	10010.9625
1445.73673	10019.0625
1449.15965	10023.8625
1452.58027	10034.2625
1455.9986	10048.3625
1459.41463	10018.9625
1462.82837	10087.6625
1466.23982	10173.2625
1469.64898	10299.5625
1473.05586	10377.6625
1476.46045	10493.6625
1479.86276	10572.6625
1483.26279	10651.2625
1486.66054	10804.3625
1490.05602	11008.3625
1493.44922	11298.4625
1496.84016	11757.8625
1500.22882	12422.2625
1503.61521	13085.7625
1506.99934	13639.6625
1510.38121	13880.9625
1513.76081	13628.3625
1517.13816	12986.9625
1520.51324	12238.9625
1523.88607	11586.3625
1527.25665	11180.2625
1530.62498	10947.0625
1533.99105	10883.7625
1537.35488	10851.5625
1540.71647	10785.4625
1544.07581	10754.7625
1547.4329	10717.5625
1550.78776	10621.5625
1554.14038	10582.0625
1557.49077	10561.9625
1560.83892	10628.4625
1564.18484	10745.8625
1567.52853	10876.8625
1570.86999	10984.9625
1574.20922	11064.7625
1577.54624	10982.8625
1580.88103	10762.4625
1584.2136	10485.3625
1587.54395	10333.7625
1590.87208	10339.9625
1594.19801	10459.2625
1597.52172	10669.2625
1600.84321	10727.6625
1604.16251	10716.7625
1607.47959	10642.4625
1610.79447	10443.2625
1614.10715	10251.2625
1617.41763	9950.4625
1620.7259	9779.7625
1624.03199	9636.2625
1627.33587	9599.3625
1630.63757	9624.8625
1633.93707	9722.1625
1637.23439	10015.8625
1640.52951	10444.6625
1643.82246	11004.7625
1647.11321	11548.0625
1650.40179	11831.2625
1653.68819	11506.2625
1656.97241	10805.0625
1660.25446	10112.8625
1663.53433	9639.6625
1666.81203	9360.3625
1670.08756	9171.5625
1673.36092	9048.3625
1676.63211	9008.3625
1679.90115	8962.1625
1683.16801	8885.9625
1686.43272	8855.6625
1689.69527	8784.0625
1692.95567	8752.8625
1696.2139	8736.3625
1699.46999	8696.6625
1702.72392	8698.1625
1705.97571	8665.1625
1709.22535	8701.6625
1712.47284	8671.9625
1715.71819	8669.9625
1718.96139	8680.9625
1722.20246	8668.5625
1725.44139	8649.9625
1728.67818	8609.4625
1731.91284	8572.3625
1735.14537	8555.8625
1738.37576	8535.4625
1741.60403	8514.2625
1744.83017	8497.9625
1748.05418	8508.4625
1751.27607	8477.9625
1754.49584	8484.0625
1757.71349	8464.0625
1760.92903	8469.3625
1764.14244	8449.9625
1767.35375	8430.0625
1770.56294	8447.2625
1773.77002	8405.0625
1776.97499	8412.6625
1780.17785	8377.9625
1783.37861	8356.5625
1786.57727	8331.7625
1789.77382	8332.2625
1792.96828	8348.1625
1796.16064	8317.7625
1799.3509	8306.7625
1802.53907	8306.0625
1805.72514	8283.5625
1808.90913	8275.2625
1812.09102	8247.3625
1815.27083	8237.7625
1818.44856	8211.6625
1821.6242	8201.0625
1824.79776	8174.2625
1827.96924	8178.3625
1831.13864	8152.4625
1834.30597	8150.7625
1837.47122	8130.7625
1840.6344	8143.1625
1843.7955	8139.5625
1846.95454	8134.9625
1850.11151	8128.9625
1853.26642	8135.9625
1856.41926	8121.2625
1859.57004	8147.5625
1862.71876	8119.3625
1865.86542	8102.2625
1869.01003	8096.4625
1872.15258	8081.5625
1875.29308	8072.9625
1878.43152	8066.2625
1881.56792	8046.0625
1884.70227	8003.8625
1887.83457	8013.0625
1890.96482	7988.6625
1894.09304	7992.4625
1897.21921	7982.6625
1900.34335	7959.7625
1903.46544	7952.5625
1906.58551	7961.8625
1909.70353	7937.0625
1912.81953	7934.1625
1915.93349	7940.3625
1919.04543	7881.2625
1922.15534	7886.2625
1925.26322	7880.4625
1928.36908	7868.3625
1931.47292	7841.0625
1934.57473	7829.3625
1937.67453	7802.4625
1940.77232	7805.2625
1943.86808	7777.4625
1946.96184	7748.7625
1950.05358	7740.7625
1953.14331	7732.2625
1956.23103	7699.7625
1959.31675	7666.9625
1962.40046	7648.3625
1965.48217	7620.9625
1968.56188	7590.9625
1971.63959	7558.0625
1974.7153	7551.6625
1977.78901	7544.3625
1980.86073	7528.7625
1983.93046	7484.7625
1986.99819	7463.4625
1990.06394	7447.3625
1993.1277	7428.8625
1996.18947	7386.1625
1999.24925	7370.0625
2002.30706	7353.5625
2005.36288	7320.9625
2008.41672	7307.4625
2011.46859	7267.8625
2014.51848	7289.2625
2017.56639	7241.1625
2020.61233	7213.8625
2023.6563	7208.3625
2026.6983	7188.5625
2029.73833	7163.8625
2032.7764	7131.1625
2035.8125	7132.2625
2038.84664	7108.4625
2041.87881	7097.6625
2044.90903	7066.5625
2047.93729	7062.3625
2050.96359	7046.0625
2053.98794	7045.1625
2057.01034	7035.7625
2060.03078	7030.2625
2063.04927	7013.2625
2066.06582	7005.4625
2069.08042	7010.2625
2072.09307	6999.1625
2075.10378	6991.1625
2078.11255	6991.6625
2081.11938	6980.4625
2084.12426	6967.8625
2087.12722	6949.3625
2090.12824	6962.8625
2093.12732	6962.9625
2096.12447	6971.1625
2099.11969	6986.5625
2102.11299	6961.6625
2105.10435	6946.3625
2108.09379	6967.6625
2111.08131	6976.2625
2114.0669	6969.8625
2117.05057	6981.4625
2120.03233	6985.3625
2123.01216	6982.9625
2125.99008	6977.0625
2128.96609	6999.3625
2131.94018	6995.0625
2134.91236	6988.8625
2137.88263	7000.5625
2140.851	6995.8625
2143.81746	6996.7625
2146.78201	6993.0625
2149.74466	6991.3625
2152.7054	6982.6625
2155.66425	6978.5625
2158.6212	6997.5625
2161.57625	6950.4625
2164.52941	6968.0625
2167.48067	6957.2625
2170.43004	6950.3625
2173.37752	6945.6625
2176.32311	6969.1625
2179.26681	6959.8625
2182.20863	6976.3625
2185.14856	6957.7625
2188.08661	6939.8625
2191.02278	6966.2625
2193.95707	6955.2625
2196.88948	6946.4625
2199.82001	6951.2625
2202.74867	6931.1625
2205.67545	6916.1625
2208.60037	6908.1625
2211.52341	6897.1625
2214.44458	6882.7625
2217.36388	6845.1625
2220.28132	6857.5625
2223.1969	6822.7625
2226.11061	6806.7625
2229.02246	6808.4625
2231.93245	6784.8625
2234.84058	6769.8625
2237.74686	6753.8625
2240.65128	6746.5625
2243.55385	6743.9625
2246.45456	6716.5625
2249.35343	6696.4625
2252.25044	6695.7625
2255.14561	6702.6625
2258.03893	6688.6625
2260.93041	6688.5625
2263.82004	6674.9625
2266.70783	6649.3625
2269.59378	6622.7625
2272.4779	6611.6625
2275.36017	6578.0625
2278.24061	6581.8625
2281.11922	6565.9625
2283.996	6551.7625
2286.87094	6534.5625
2289.74405	6535.6625
2292.61534	6526.7625
2295.4848	6493.9625
2298.35243	6489.6625
2301.21824	6477.5625
2304.08223	6482.6625
2306.94439	6474.1625
2309.80474	6478.2625
2312.66327	6460.4625
2315.51999	6448.4625
2318.37489	6441.5625
2321.22797	6415.4625
2324.07925	6410.9625
2326.92871	6410.3625
2329.77637	6402.3625
2332.62222	6359.7625
2335.46626	6377.3625
2338.3085	6346.3625
2341.14893	6345.6625
2343.98756	6341.6625
2346.8244	6330.2625
2349.65943	6312.6625
2352.49267	6294.1625
2355.32411	6287.6625
2358.15376	6279.4625
2360.98161	6283.8625
2363.80768	6285.0625
2366.63195	6277.4625
2369.45444	6278.9625
2372.27514	6268.1625
2375.09405	6275.4625
2377.91118	6233.6625
2380.72652	6238.2625
2383.54009	6215.2625
2386.35187	6216.8625
2389.16188	6184.2625
2391.97011	6177.1625
2394.77657	6164.6625
2397.58125	6129.4625
2400.38416	6138.1625
2403.18529	6124.2625
2405.98466	6122.8625
2408.78226	6107.6625
2411.57809	6108.8625
2414.37216	6090.3625
2417.16446	6052.0625
2419.955	6086.9625
2422.74378	6061.4625
2425.5308	6060.4625
2428.31606	6055.4625
2431.09956	6040.6625
2433.88131	6030.0625
2436.6613	6025.4625
2439.43954	6019.5625
2442.21603	6003.6625
2444.99077	5992.9625
2447.76377	5989.8625
2450.53501	6005.7625
2453.30451	6004.1625
2456.07226	5978.0625
2458.83827	5963.9625
2461.60254	5960.9625
2464.36507	5939.1625
2467.12586	5928.1625
2469.88492	5911.3625
2472.64224	5926.5625
2475.39782	5915.2625
2478.15167	5913.7625
2480.90379	5885.6625
2483.65417	5870.0625
2486.40283	5881.3625
2489.14976	5889.6625
2491.89497	5878.1625
2494.63845	5878.6625
2497.3802	5866.5625
2500.12024	5831.4625
2502.85855	5856.0625
2505.59514	5844.3625
2508.33002	5843.2625
2511.06318	5791.3625
2513.79462	5799.5625
2516.52435	5791.8625
2519.25237	5797.9625
2521.97867	5780.1625
2524.70327	5760.9625
2527.42616	5737.0625
2530.14734	5725.3625
2532.86681	5732.6625
2535.58458	5721.2625
2538.30065	5736.3625
2541.01501	5720.2625
2543.72768	5702.6625
2546.43864	5694.9625
2549.14791	5699.9625
2551.85548	5667.4625
2554.56136	5659.9625
2557.26554	5661.0625
2559.96803	5648.8625
2562.66883	5612.6625
2565.36794	5629.2625
2568.06536	5585.2625
2570.7611	5585.1625
2573.45514	5559.2625
2576.14751	5552.2625
2578.83819	5546.3625
2581.52719	5523.7625
2584.21451	5525.2625
2586.90015	5518.4625
2589.58411	5509.8625
2592.2664	5502.8625
2594.94701	5481.1625
2597.62594	5459.3625
2600.30321	5455.0625
2602.9788	5463.7625
2605.65273	5443.0625
2608.32498	5462.0625
2610.99557	5425.1625
2613.66449	5415.6625
2616.33175	5398.8625
2618.99734	5409.5625
2621.66128	5380.3625
2624.32355	5361.6625
2626.98416	5329.4625
2629.64311	5342.0625
2632.30041	5331.9625
2634.95605	5315.9625
2637.61004	5315.5625
2640.26238	5300.0625
2642.91306	5286.1625
2645.56209	5301.9625
2648.20948	5271.8625
2650.85521	5274.4625
2653.4993	5268.9625
2656.14175	5256.6625
2658.78255	5265.3625
2661.42171	5250.5625
2664.05923	5273.7625
2666.6951	5263.8625
2669.32934	5275.8625
2671.96194	5271.2625
2674.59291	5266.3625
2677.22224	5252.8625
2679.84993	5233.6625
2682.476	5252.7625
2685.10043	5261.1625
2687.72324	5247.2625
2690.34441	5248.5625
2692.96396	5230.6625
2695.58188	5228.5625
2698.19818	5224.0625
2700.81285	5226.6625
2703.4259	5216.4625
2706.03733	5207.3625
2708.64714	5194.7625
2711.25533	5208.0625
2713.86191	5193.0625
2716.46687	5201.1625
2719.07021	5211.6625
2721.67194	5214.4625
2724.27206	5180.7625
2726.87057	5208.2625
2729.46747	5196.7625
2732.06276	5190.7625
2734.65644	5168.2625
2737.24852	5173.5625
2739.83899	5166.6625
2742.42786	5172.9625
2745.01513	5142.7625
2747.60079	5126.0625
2750.18486	5110.7625
2752.76733	5115.9625
2755.3482	5110.3625
2757.92747	5098.7625
2760.50515	5072.7625
2763.08123	5091.4625
2765.65573	5076.8625
2768.22863	5039.6625
2770.79994	5054.9625
2773.36967	5047.9625
2775.9378	5029.2625
2778.50435	5006.6625
2781.06932	5018.0625
2783.6327	5011.3625
2786.1945	5011.0625
2788.75471	4994.1625
2791.31335	4979.2625
2793.87041	4977.2625
2796.42589	4951.8625
2798.97979	4941.3625
2801.53212	4934.2625
2804.08288	4925.9625
2806.63206	4905.0625
2809.17967	4911.4625
2811.72571	4897.4625
2814.27018	4894.5625
2816.81308	4867.8625
2819.35442	4848.4625
2821.89419	4848.6625
2824.43239	4829.1625
2826.96904	4808.3625
2829.50412	4811.7625
2832.03763	4786.6625
2834.56959	4784.4625
2837.1	4771.6625
2839.62884	4765.2625
2842.15613	4754.9625
2844.68186	4761.1625
2847.20604	4762.6625
2849.72867	4762.7625
2852.24974	4720.0625
2854.76927	4710.9625
2857.28724	4715.7625
2859.80367	4710.3625
2862.31855	4703.6625
2864.83189	4694.4625
2867.34368	4686.1625
2869.85393	4675.9625
2872.36264	4663.1625
2874.8698	4656.5625
2877.37543	4661.3625
2879.87952	4651.4625
2882.38207	4638.1625
2884.88308	4637.7625
2887.38256	4637.8625
2889.88051	4649.0625
2892.37692	4638.6625
2894.8718	4645.9625
2897.36515	4635.8625
2899.85698	4619.2625
2902.34727	4638.4625
2904.83604	4613.5625
2907.32328	4618.0625
2909.809	4619.6625
2912.29319	4616.9625
2914.77587	4617.3625
2917.25702	4645.8625
2919.73665	4622.9625
2922.21476	4626.3625
2924.69136	4623.2625
2927.16644	4616.1625
2929.64	4606.1625
2932.11205	4593.6625
2934.58258	4577.7625
2937.05161	4570.2625
2939.51912	4582.9625
2941.98513	4571.1625
2944.44962	4547.1625
2946.91261	4545.9625
2949.37409	4553.9625
2951.83407	4555.2625
2954.29254	4553.3625
2956.74951	4538.1625
2959.20498	4558.3625
2961.65895	4541.7625
2964.11142	4535.9625
2966.56239	4536.7625
2969.01186	4550.2625
2971.45984	4534.7625
2973.90632	4511.8625
2976.35131	4489.7625
2978.7948	4509.5625
2981.23681	4487.5625
2983.67732	4493.1625
2986.11635	4477.8625
2988.55388	4470.1625
2990.98993	4459.0625
2993.4245	4435.1625
2995.85758	4440.0625
2998.28917	4426.8625
3000.71928	4432.1625
3003.14791	4402.7625
3005.57506	4410.2625
3008.00073	4377.8625
3010.42493	4359.7625
3012.84764	4372.7625
3015.26888	4369.5625
3017.68865	4338.9625
3020.10694	4351.1625
3022.52376	4324.6625
3024.9391	4321.9625
3027.35298	4301.1625
3029.76539	4288.7625
3032.17632	4272.0625
3034.5858	4301.5625
3036.9938	4272.0625
3039.40034	4252.9625
3041.80542	4250.1625
3044.20903	4243.9625
3046.61118	4234.3625
3049.01187	4219.9625
3051.4111	4218.1625
3053.80888	4212.7625
3056.20519	4202.7625
3058.60005	4173.5625
3060.99345	4187.9625
3063.3854	4166.3625
3065.7759	4159.4625
3068.16494	4141.6625
3070.55254	4128.1625
3072.93868	4116.4625
3075.32338	4116.8625
3077.70662	4112.6625
3080.08842	4103.7625
3082.46878	4088.4625
3084.84769	4074.3625
3087.22515	4059.8625
3089.60118	4066.6625
3091.97576	4074.8625
3094.3489	4065.1625
3096.72061	4056.8625
3099.09087	4061.9625
3101.4597	4042.7625
3103.82709	4048.0625
3106.19305	4043.8625
3108.55757	4054.8625
3110.92066	4032.8625
