Data from AgNPs_UA_20uM_CRN_500uM_SU_RamanShift__40__13-43-10-299.txt Node

Date: Thu Aug 04 13:43:10 BST 2022
User: TCL
Spectrometer: QEP01345
Trigger mode: 4
Integration Time (sec): 1.000000E0
Scans to average: 10
Electric dark correction enabled: true
Nonlinearity correction enabled: false
Boxcar width: 0
XAxis mode: Raman Shifts
Number of Pixels in Spectrum: 1044
>>>>>Begin Spectral Data<<<<<
46.04893	-1.175
50.45542	-1.275
54.85868	1.625
59.25871	-0.175
63.6555	17.725
68.04907	17.525
72.43941	21.325
76.82654	20.625
81.21044	21.025
85.59113	22.125
89.96862	20.825
94.34289	23.425
98.71396	24.925
103.08183	27.025
107.4465	24.525
111.80798	27.825
116.16626	28.725
120.52136	30.025
124.87327	28.425
129.222	33.525
133.56755	35.425
137.90993	37.425
142.24913	42.425
146.58517	48.325
150.91804	54.725
155.24774	66.525
159.57429	85.625
163.89768	111.425
168.21792	148.625
172.53501	205.225
176.84895	282.425
181.15975	408.125
185.46741	572.825
189.77193	797.925
194.07331	1070.225
198.37157	1377.725
202.6667	1718.125
206.9587	2043.225
211.24758	2375.025
215.53334	2711.325
219.81599	3065.825
224.09553	3453.525
228.37195	3891.025
232.64527	4364.525
236.91549	4844.825
241.18261	5274.825
245.44663	5622.125
249.70755	5930.625
253.96539	6196.325
258.22014	6426.125
262.4718	6590.825
266.72039	6740.625
270.96589	6781.325
275.20832	6739.425
279.44768	6655.525
283.68397	6562.525
287.91719	6457.325
292.14735	6466.625
296.37445	6551.125
300.59849	6697.925
304.81948	6912.625
309.03742	7114.325
313.25231	7207.525
317.46415	7133.525
321.67296	6893.925
325.87872	6643.825
330.08145	6539.825
334.28114	6531.725
338.47781	6604.325
342.67145	6752.025
346.86207	6943.725
351.04966	7173.125
355.23424	7428.325
359.4158	7629.325
363.59435	7742.025
367.76989	7804.425
371.94243	7795.625
376.11196	7802.525
380.27849	7775.725
384.44203	7781.125
388.60257	7820.925
392.76012	7893.825
396.91468	7986.825
401.06626	8088.625
405.21485	8134.225
409.36047	8035.725
413.50311	7838.625
417.64277	7631.525
421.77947	7492.425
425.9132	7441.825
430.04396	7436.925
434.17176	7476.425
438.2966	7534.825
442.41849	7673.025
446.53742	7828.425
450.6534	7975.725
454.76644	8085.825
458.87653	8105.825
462.98368	8123.025
467.08789	8071.525
471.18916	7992.125
475.2875	7819.425
479.38291	7694.425
483.4754	7616.825
487.56496	7575.225
491.6516	7539.525
495.73531	7547.125
499.81612	7565.125
503.89401	7623.925
507.96899	7674.225
512.04106	7699.825
516.11023	7754.525
520.1765	7816.225
524.23987	7807.225
528.30034	7798.725
532.35792	7791.725
536.41261	7723.525
540.46441	7649.725
544.51333	7630.325
548.55936	7687.825
552.60252	7793.725
556.64279	7878.725
560.6802	7984.625
564.71473	8069.325
568.7464	8155.825
572.7752	8106.625
576.80114	7933.925
580.82422	7788.225
584.84444	7751.025
588.86181	7729.525
592.87633	7783.525
596.888	7931.225
600.89682	8267.725
604.9028	9144.125
608.90594	10898.625
612.90624	12605.325
616.90371	11687.425
620.89834	9266.025
624.89015	8292.125
628.87913	8199.625
632.86528	8366.925
636.84862	8410.225
640.82913	8253.225
644.80683	7990.825
648.78172	7816.525
652.75379	7824.325
656.72306	8072.325
660.68952	8301.125
664.65319	8269.625
668.61405	8140.525
672.57211	8168.825
676.52738	8174.425
680.47986	8048.725
684.42955	7883.925
688.37646	7860.125
692.32058	7908.025
696.26192	8052.125
700.20048	8181.525
704.13626	8232.725
708.06928	8145.525
711.99952	8053.125
715.927	8053.125
719.85171	8104.225
723.77365	8115.025
727.69284	8074.625
731.60928	7991.925
735.52295	7983.525
739.43388	8006.325
743.34206	8041.425
747.24749	8071.225
751.15017	8076.925
755.05012	8136.825
758.94733	8389.025
762.8418	8984.225
766.73354	9953.525
770.62254	10706.625
774.50882	10901.725
778.39237	10567.125
782.27321	9872.325
786.15132	9103.025
790.02671	8569.125
793.89938	8279.725
797.76935	8140.125
801.6366	8086.025
805.50115	8063.625
809.36299	8010.825
813.22213	8004.525
817.07857	7999.825
820.93231	8011.025
824.78336	8039.025
828.63172	8050.325
832.47738	8042.925
836.32036	8050.725
840.16066	8016.425
843.99827	8015.225
847.8332	8027.625
851.66546	8042.225
855.49504	8050.025
859.32195	8065.925
863.1462	8067.425
866.96777	8053.025
870.78668	8057.525
874.60293	8079.625
878.41652	8095.225
882.22745	8154.725
886.03573	8202.325
889.84136	8205.025
893.64433	8148.025
897.44466	8118.225
901.24235	8135.325
905.0374	8102.325
908.8298	8067.325
912.61957	8067.925
916.40671	8051.025
920.19121	8071.125
923.97308	8143.025
927.75233	8212.625
931.52895	8265.425
935.30295	8224.825
939.07433	8095.225
942.84309	8014.725
946.60924	7962.725
950.37278	7976.825
954.13371	7939.325
957.89203	7948.225
961.64774	7921.625
965.40086	7923.825
969.15137	7902.625
972.89929	7907.325
976.64461	7931.125
980.38733	7939.125
984.12747	7934.525
987.86502	7976.125
991.59999	8044.125
995.33237	8109.125
999.06217	8169.825
1002.78939	8284.225
1006.51404	8405.225
1010.23611	8532.325
1013.95561	8569.925
1017.67255	8623.225
1021.38692	8605.125
1025.09872	8555.625
1028.80796	8511.325
1032.51465	8506.725
1036.21877	8579.225
1039.92035	8560.225
1043.61937	8569.425
1047.31584	8546.825
1051.00976	8555.825
1054.70114	8552.425
1058.38998	8553.225
1062.07627	8606.925
1065.76003	8678.825
1069.44126	8765.025
1073.11995	8921.325
1076.79611	9052.925
1080.46974	9163.325
1084.14085	9273.125
1087.80943	9324.525
1091.47549	9407.925
1095.13903	9392.425
1098.80005	9334.025
1102.45857	9355.525
1106.11456	9293.725
1109.76805	9188.625
1113.41903	9210.125
1117.06751	9305.325
1120.71348	9445.925
1124.35696	9606.525
1127.99793	9717.025
1131.63641	9599.825
1135.2724	9318.025
1138.90589	9124.525
1142.5369	9001.325
1146.16542	8918.225
1149.79145	8854.525
1153.415	8800.925
1157.03607	8761.125
1160.65467	8808.325
1164.27079	8966.425
1167.88443	9187.025
1171.49561	9552.525
1175.10432	10121.425
1178.71056	10893.725
1182.31434	11574.525
1185.91565	11818.025
1189.51451	11796.325
1193.11091	11564.525
1196.70485	11297.425
1200.29634	11023.525
1203.88538	10703.725
1207.47197	10328.625
1211.05612	9994.525
1214.63782	9680.925
1218.21708	9495.925
1221.79391	9377.525
1225.36829	9315.925
1228.94024	9306.825
1232.50976	9287.225
1236.07685	9286.625
1239.6415	9341.125
1243.20374	9360.825
1246.76355	9425.925
1250.32093	9542.725
1253.8759	9664.125
1257.42845	9884.825
1260.97859	10150.725
1264.52631	10358.925
1268.07163	10516.525
1271.61453	10629.725
1275.15503	10671.625
1278.69312	10696.525
1282.22882	10719.325
1285.76211	10777.525
1289.29301	10941.525
1292.82151	11157.325
1296.34761	11361.525
1299.87133	11715.725
1303.39266	12315.525
1306.9116	13121.425
1310.42815	13992.425
1313.94233	14299.625
1317.45412	13857.925
1320.96354	13151.625
1324.47058	12450.325
1327.97525	11862.825
1331.47754	11528.525
1334.97747	11465.525
1338.47502	11659.025
1341.97022	12047.825
1345.46305	12682.025
1348.95352	13487.525
1352.44163	14379.125
1355.92738	15262.225
1359.41078	16337.725
1362.89183	17130.425
1366.37053	16387.425
1369.84688	14310.225
1373.32088	12438.325
1376.79254	11373.925
1380.26186	10825.125
1383.72883	10536.225
1387.19347	10259.425
1390.65578	9956.325
1394.11575	9707.325
1397.57339	9529.725
1401.0287	9423.625
1404.48168	9375.925
1407.93234	9450.925
1411.38068	9584.225
1414.82669	9730.825
1418.27039	9784.525
1421.71177	9761.925
1425.15083	9671.925
1428.58758	9634.225
1432.02203	9670.425
1435.45416	9733.825
1438.88399	9737.825
1442.31151	9748.425
1445.73673	9678.725
1449.15965	9698.125
1452.58027	9642.625
1455.9986	9576.125
1459.41463	9576.625
1462.82837	9646.625
1466.23982	9784.825
1469.64898	9940.525
1473.05586	10113.225
1476.46045	10199.525
1479.86276	10294.125
1483.26279	10430.325
1486.66054	10620.425
1490.05602	10935.025
1493.44922	11364.425
1496.84016	12085.525
1500.22882	13098.525
1503.61521	14262.025
1506.99934	15397.225
1510.38121	15979.325
1513.76081	15713.525
1517.13816	14614.425
1520.51324	13184.525
1523.88607	12032.225
1527.25665	11304.625
1530.62498	10927.625
1533.99105	10735.025
1537.35488	10654.325
1540.71647	10553.525
1544.07581	10490.925
1547.4329	10387.025
1550.78776	10320.425
1554.14038	10240.225
1557.49077	10238.825
1560.83892	10328.025
1564.18484	10532.325
1567.52853	10760.825
1570.86999	10936.325
1574.20922	10992.925
1577.54624	10851.725
1580.88103	10474.925
1584.2136	10011.525
1587.54395	9761.525
1590.87208	9797.325
1594.19801	10084.325
1597.52172	10508.925
1600.84321	10738.025
1604.16251	10666.825
1607.47959	10457.125
1610.79447	10153.025
1614.10715	9693.625
1617.41763	9273.925
1620.7259	8959.725
1624.03199	8803.525
1627.33587	8746.125
1630.63757	8843.825
1633.93707	9116.725
1637.23439	9587.725
1640.52951	10298.725
1643.82246	11311.525
1647.11321	12267.425
1650.40179	12677.325
1653.68819	12123.725
1656.97241	10869.525
1660.25446	9663.725
1663.53433	8843.025
1666.81203	8378.425
1670.08756	8057.825
1673.36092	7906.625
1676.63211	7803.425
1679.90115	7700.425
1683.16801	7627.825
1686.43272	7571.325
1689.69527	7534.325
1692.95567	7493.725
1696.2139	7489.725
1699.46999	7473.025
1702.72392	7439.425
1705.97571	7454.125
1709.22535	7461.825
1712.47284	7452.325
1715.71819	7400.325
1718.96139	7406.625
1722.20246	7399.025
1725.44139	7389.325
1728.67818	7354.925
1731.91284	7307.825
1735.14537	7273.925
1738.37576	7252.525
1741.60403	7245.425
1744.83017	7210.325
1748.05418	7218.825
1751.27607	7197.825
1754.49584	7168.825
1757.71349	7146.625
1760.92903	7135.225
1764.14244	7137.525
1767.35375	7098.825
1770.56294	7112.325
1773.77002	7110.325
1776.97499	7086.725
1780.17785	7071.425
1783.37861	7043.025
1786.57727	7043.825
1789.77382	7015.525
1792.96828	7010.025
1796.16064	6994.725
1799.3509	6991.125
1802.53907	6986.925
1805.72514	6969.225
1808.90913	6957.425
1812.09102	6926.525
1815.27083	6937.025
1818.44856	6887.225
1821.6242	6877.225
1824.79776	6893.525
1827.96924	6874.525
1831.13864	6851.525
1834.30597	6863.225
1837.47122	6835.225
1840.6344	6794.625
1843.7955	6805.025
1846.95454	6793.725
1850.11151	6791.025
1853.26642	6782.425
1856.41926	6785.525
1859.57004	6783.325
1862.71876	6761.225
1865.86542	6768.425
1869.01003	6742.725
1872.15258	6732.025
1875.29308	6747.325
1878.43152	6718.925
1881.56792	6724.025
1884.70227	6714.225
1887.83457	6706.525
1890.96482	6711.725
1894.09304	6688.025
1897.21921	6658.425
1900.34335	6667.725
1903.46544	6665.925
1906.58551	6666.425
1909.70353	6638.825
1912.81953	6620.825
1915.93349	6623.925
1919.04543	6607.825
1922.15534	6594.825
1925.26322	6588.925
1928.36908	6575.725
1931.47292	6565.025
1934.57473	6555.425
1937.67453	6522.425
1940.77232	6523.025
1943.86808	6508.025
1946.96184	6475.125
1950.05358	6474.425
1953.14331	6443.525
1956.23103	6427.025
1959.31675	6394.225
1962.40046	6380.125
1965.48217	6346.625
1968.56188	6363.225
1971.63959	6322.725
1974.7153	6319.225
1977.78901	6297.525
1980.86073	6270.825
1983.93046	6247.625
1986.99819	6224.625
1990.06394	6211.425
1993.1277	6179.325
1996.18947	6176.425
1999.24925	6151.825
2002.30706	6136.025
2005.36288	6097.825
2008.41672	6073.625
2011.46859	6063.425
2014.51848	6040.325
2017.56639	6027.525
2020.61233	6016.725
2023.6563	6008.225
2026.6983	5988.625
2029.73833	5968.625
2032.7764	5934.225
2035.8125	5928.925
2038.84664	5924.025
2041.87881	5919.625
2044.90903	5904.725
2047.93729	5875.525
2050.96359	5891.825
2053.98794	5872.525
2057.01034	5866.025
2060.03078	5858.825
2063.04927	5845.025
2066.06582	5854.225
2069.08042	5835.125
2072.09307	5837.025
2075.10378	5804.725
2078.11255	5832.025
2081.11938	5815.225
2084.12426	5801.925
2087.12722	5790.225
2090.12824	5803.625
2093.12732	5815.925
2096.12447	5805.225
2099.11969	5804.725
2102.11299	5789.325
2105.10435	5808.025
2108.09379	5806.825
2111.08131	5786.525
2114.0669	5811.525
2117.05057	5803.325
2120.03233	5790.125
2123.01216	5811.425
2125.99008	5810.525
2128.96609	5826.725
2131.94018	5833.325
2134.91236	5830.725
2137.88263	5825.125
2140.851	5827.925
2143.81746	5817.525
2146.78201	5815.125
2149.74466	5830.825
2152.7054	5805.325
2155.66425	5805.325
2158.6212	5809.825
2161.57625	5814.125
2164.52941	5801.925
2167.48067	5806.325
2170.43004	5790.025
2173.37752	5786.625
2176.32311	5779.125
2179.26681	5776.025
2182.20863	5778.625
2185.14856	5786.225
2188.08661	5779.625
2191.02278	5783.625
2193.95707	5778.525
2196.88948	5769.625
2199.82001	5773.225
2202.74867	5752.225
2205.67545	5766.525
2208.60037	5781.425
2211.52341	5754.625
2214.44458	5738.125
2217.36388	5700.225
2220.28132	5693.725
2223.1969	5669.925
2226.11061	5668.725
2229.02246	5642.525
2231.93245	5636.325
2234.84058	5624.325
2237.74686	5611.025
2240.65128	5614.725
2243.55385	5609.325
2246.45456	5596.925
2249.35343	5604.825
2252.25044	5597.725
2255.14561	5590.225
2258.03893	5569.225
2260.93041	5559.525
2263.82004	5564.425
2266.70783	5552.425
2269.59378	5525.725
2272.4779	5512.025
2275.36017	5496.625
2278.24061	5479.225
2281.11922	5485.225
2283.996	5456.625
2286.87094	5431.925
2289.74405	5416.925
2292.61534	5427.925
2295.4848	5431.625
2298.35243	5394.625
2301.21824	5403.625
2304.08223	5399.725
2306.94439	5412.225
2309.80474	5396.125
2312.66327	5387.925
2315.51999	5381.025
2318.37489	5369.425
2321.22797	5366.025
2324.07925	5360.725
2326.92871	5347.625
2329.77637	5331.725
2332.62222	5327.925
2335.46626	5314.725
2338.3085	5315.125
2341.14893	5312.425
2343.98756	5316.325
2346.8244	5301.825
2349.65943	5291.925
2352.49267	5297.725
2355.32411	5292.625
2358.15376	5290.325
2360.98161	5279.525
2363.80768	5281.625
2366.63195	5283.625
2369.45444	5277.925
2372.27514	5281.325
2375.09405	5253.725
2377.91118	5244.925
2380.72652	5235.325
2383.54009	5230.325
2386.35187	5201.925
2389.16188	5178.025
2391.97011	5178.125
2394.77657	5161.425
2397.58125	5162.525
2400.38416	5147.625
2403.18529	5131.025
2405.98466	5141.625
2408.78226	5121.925
2411.57809	5115.825
2414.37216	5111.825
2417.16446	5113.925
2419.955	5096.825
2422.74378	5081.025
2425.5308	5085.225
2428.31606	5064.425
2431.09956	5088.125
2433.88131	5062.525
2436.6613	5070.325
2439.43954	5057.025
2442.21603	5051.325
2444.99077	5049.125
2447.76377	5053.825
2450.53501	5032.425
2453.30451	5026.225
2456.07226	5023.325
2458.83827	5025.425
2461.60254	5000.125
2464.36507	5015.125
2467.12586	5015.425
2469.88492	5004.725
2472.64224	4994.725
2475.39782	4973.725
2478.15167	4979.625
2480.90379	4972.425
2483.65417	4994.825
2486.40283	4987.725
2489.14976	4998.025
2491.89497	4984.125
2494.63845	4982.625
2497.3802	4980.625
2500.12024	4963.525
2502.85855	4950.025
2505.59514	4932.325
2508.33002	4936.225
2511.06318	4898.425
2513.79462	4903.225
2516.52435	4871.725
2519.25237	4895.125
2521.97867	4883.025
2524.70327	4874.925
2527.42616	4878.725
2530.14734	4855.725
2532.86681	4863.625
2535.58458	4839.625
2538.30065	4832.425
2541.01501	4841.025
2543.72768	4854.525
2546.43864	4848.525
2549.14791	4827.925
2551.85548	4823.925
2554.56136	4814.925
2557.26554	4821.625
2559.96803	4805.125
2562.66883	4797.925
2565.36794	4796.125
2568.06536	4761.225
2570.7611	4736.125
2573.45514	4756.525
2576.14751	4742.725
2578.83819	4721.825
2581.52719	4695.325
2584.21451	4709.425
2586.90015	4685.525
2589.58411	4673.125
2592.2664	4687.425
2594.94701	4670.225
2597.62594	4669.625
2600.30321	4660.425
2602.9788	4644.425
2605.65273	4653.225
2608.32498	4639.025
2610.99557	4627.925
2613.66449	4627.925
2616.33175	4607.825
2618.99734	4605.525
2621.66128	4600.125
2624.32355	4601.025
2626.98416	4594.425
2629.64311	4587.625
2632.30041	4571.525
2634.95605	4571.725
2637.61004	4557.425
2640.26238	4542.725
2642.91306	4549.025
2645.56209	4551.225
2648.20948	4532.625
2650.85521	4536.225
2653.4993	4530.225
2656.14175	4535.325
2658.78255	4516.225
2661.42171	4527.725
2664.05923	4546.625
2666.6951	4538.125
2669.32934	4542.225
2671.96194	4533.825
2674.59291	4530.825
2677.22224	4514.425
2679.84993	4530.225
2682.476	4520.625
2685.10043	4505.325
2687.72324	4497.925
2690.34441	4510.725
2692.96396	4495.225
2695.58188	4501.825
2698.19818	4500.225
2700.81285	4497.725
2703.4259	4497.825
2706.03733	4485.125
2708.64714	4484.425
2711.25533	4469.925
2713.86191	4475.325
2716.46687	4487.025
2719.07021	4486.825
2721.67194	4500.125
2724.27206	4494.325
2726.87057	4488.125
2729.46747	4486.925
2732.06276	4477.125
2734.65644	4459.625
2737.24852	4463.125
2739.83899	4471.225
2742.42786	4471.525
2745.01513	4457.125
2747.60079	4446.025
2750.18486	4433.625
2752.76733	4449.825
2755.3482	4425.525
2757.92747	4402.325
2760.50515	4404.825
2763.08123	4400.325
2765.65573	4393.125
2768.22863	4378.225
2770.79994	4366.325
2773.36967	4383.425
2775.9378	4380.925
2778.50435	4369.025
2781.06932	4349.425
2783.6327	4358.325
2786.1945	4355.525
2788.75471	4333.325
2791.31335	4329.125
2793.87041	4322.725
2796.42589	4296.625
2798.97979	4296.725
2801.53212	4293.225
2804.08288	4300.825
2806.63206	4287.525
2809.17967	4269.425
2811.72571	4247.725
2814.27018	4264.325
2816.81308	4252.225
2819.35442	4235.625
2821.89419	4208.725
2824.43239	4214.125
2826.96904	4189.825
2829.50412	4208.225
2832.03763	4196.525
2834.56959	4177.925
2837.1	4174.825
2839.62884	4170.225
2842.15613	4170.925
2844.68186	4170.425
2847.20604	4172.625
2849.72867	4157.425
2852.24974	4133.825
2854.76927	4124.525
2857.28724	4120.725
2859.80367	4115.125
2862.31855	4111.725
2864.83189	4120.125
2867.34368	4093.325
2869.85393	4093.725
2872.36264	4088.825
2874.8698	4086.525
2877.37543	4084.925
2879.87952	4078.325
2882.38207	4071.725
2884.88308	4067.625
2887.38256	4062.625
2889.88051	4045.425
2892.37692	4059.225
2894.8718	4045.925
2897.36515	4051.525
2899.85698	4050.625
2902.34727	4044.225
2904.83604	4047.325
2907.32328	4051.525
2909.809	4060.125
2912.29319	4063.825
2914.77587	4048.725
2917.25702	4057.925
2919.73665	4059.225
2922.21476	4069.125
2924.69136	4049.525
2927.16644	4047.025
2929.64	4034.325
2932.11205	4029.625
2934.58258	4022.725
2937.05161	4018.125
2939.51912	3996.825
2941.98513	3996.525
2944.44962	3998.325
2946.91261	3982.225
2949.37409	3995.825
2951.83407	3995.125
2954.29254	3974.725
2956.74951	3981.425
2959.20498	3967.325
2961.65895	3977.025
2964.11142	3975.725
2966.56239	3955.625
2969.01186	3962.525
2971.45984	3963.025
2973.90632	3955.325
2976.35131	3947.325
2978.7948	3942.425
2981.23681	3937.925
2983.67732	3923.525
2986.11635	3922.925
2988.55388	3914.225
2990.98993	3905.425
2993.4245	3895.325
2995.85758	3888.125
2998.28917	3882.225
3000.71928	3866.425
3003.14791	3864.725
3005.57506	3853.225
3008.00073	3823.225
3010.42493	3818.225
3012.84764	3804.125
3015.26888	3813.225
3017.68865	3795.225
3020.10694	3806.925
3022.52376	3779.725
3024.9391	3788.225
3027.35298	3755.025
3029.76539	3747.925
3032.17632	3746.425
3034.5858	3757.125
3036.9938	3745.325
3039.40034	3720.125
3041.80542	3714.825
3044.20903	3704.425
3046.61118	3696.525
3049.01187	3675.125
3051.4111	3682.125
3053.80888	3678.125
3056.20519	3671.125
3058.60005	3674.725
3060.99345	3661.725
3063.3854	3651.125
3065.7759	3638.825
3068.16494	3646.225
3070.55254	3635.025
3072.93868	3635.125
3075.32338	3605.125
3077.70662	3598.825
3080.08842	3578.925
3082.46878	3566.125
3084.84769	3559.325
3087.22515	3548.025
3089.60118	3555.225
3091.97576	3558.925
3094.3489	3561.425
3096.72061	3548.625
3099.09087	3538.125
3101.4597	3552.325
3103.82709	3543.125
3106.19305	3525.725
3108.55757	3536.525
3110.92066	3527.425
3113.28232	3515.925
3115.64255	3495.625
3118.00134	3491.825
3120.35871	3488.325
3122.71466	3478.325
3125.06917	3484.025
3127.42226	3476.825
3129.77393	3456.625
3132.12417	3453.425
3134.47299	3453.225
3136.82039	3429.225
3139.16636	3427.525
3141.51092	3436.925
3143.85406	3442.325
3146.19579	3438.325
3148.53609	3441.525
3150.87499	3431.425
3153.21246	3419.725
3155.54853	3425.025
3157.88318	3420.725
3160.21642	3444.225
3162.54826	3426.925
3164.87868	3418.825
3167.2077	3408.725
3169.5353	3409.125
3171.86151	3411.225
3174.18631	3398.825
3176.5097	3408.325
3178.83169	3373.725
3181.15228	3380.125
3183.47147	3367.625
3185.78926	3360.525
3188.10565	3352.525
3190.42065	3337.425
3192.73424	3350.325
3195.04645	3325.325
3197.35725	3327.125
3199.66667	3318.925
3201.97469	3321.425
3204.28132	3313.625
3206.58656	3314.525
3208.8904	3320.325
3211.19287	3320.525
3213.49394	3328.325
3215.79363	3313.325
3218.09193	3315.325
3220.38884	3318.725
3222.68438	3300.625
3224.97853	3304.825
3227.2713	3297.925
