Data from AgNPs_UA_10uM_CRN_500uM_SU_RamanShift__150__13-30-20-283.txt Node

Date: Thu Aug 04 13:30:20 BST 2022
User: TCL
Spectrometer: QEP01345
Trigger mode: 4
Integration Time (sec): 1.000000E0
Scans to average: 10
Electric dark correction enabled: true
Nonlinearity correction enabled: false
Boxcar width: 0
XAxis mode: Raman Shifts
Number of Pixels in Spectrum: 1044
>>>>>Begin Spectral Data<<<<<
46.04893	1.375
50.45542	-0.825
54.85868	0.375
59.25871	1.075
63.6555	15.375
68.04907	15.575
72.43941	17.375
76.82654	17.575
81.21044	19.075
85.59113	20.375
89.96862	20.775
94.34289	20.175
98.71396	21.175
103.08183	24.675
107.4465	22.575
111.80798	22.375
116.16626	24.575
120.52136	25.375
124.87327	27.375
129.222	28.875
133.56755	27.875
137.90993	29.275
142.24913	33.275
146.58517	40.275
150.91804	44.675
155.24774	58.275
159.57429	68.475
163.89768	92.075
168.21792	120.575
172.53501	165.075
176.84895	227.575
181.15975	324.675
185.46741	455.975
189.77193	627.875
194.07331	839.375
198.37157	1084.675
202.6667	1330.675
206.9587	1578.175
211.24758	1831.675
215.53334	2071.975
219.81599	2343.975
224.09553	2630.875
228.37195	2969.075
232.64527	3322.575
236.91549	3674.175
241.18261	4027.375
245.44663	4340.575
249.70755	4591.475
253.96539	4825.975
258.22014	5032.175
262.4718	5204.575
266.72039	5309.075
270.96589	5358.975
275.20832	5365.975
279.44768	5307.875
283.68397	5223.175
287.91719	5159.475
292.14735	5160.175
296.37445	5200.475
300.59849	5305.575
304.81948	5431.075
309.03742	5517.475
313.25231	5578.175
317.46415	5496.275
321.67296	5349.875
325.87872	5225.475
330.08145	5178.575
334.28114	5185.375
338.47781	5268.575
342.67145	5361.975
346.86207	5491.675
351.04966	5673.175
355.23424	5869.975
359.4158	5994.675
363.59435	6108.675
367.76989	6180.175
371.94243	6222.275
376.11196	6254.775
380.27849	6299.375
384.44203	6314.575
388.60257	6362.075
392.76012	6393.975
396.91468	6498.075
401.06626	6622.775
405.21485	6710.075
409.36047	6669.475
413.50311	6512.275
417.64277	6377.575
421.77947	6294.875
425.9132	6288.875
430.04396	6357.875
434.17176	6484.775
438.2966	6653.075
442.41849	6886.675
446.53742	7228.075
450.6534	7494.075
454.76644	7652.975
458.87653	7634.375
462.98368	7472.475
467.08789	7225.175
471.18916	6984.375
475.2875	6764.375
479.38291	6578.975
483.4754	6450.375
487.56496	6353.175
491.6516	6292.275
495.73531	6272.975
499.81612	6248.475
503.89401	6316.875
507.96899	6351.975
512.04106	6359.775
516.11023	6408.575
520.1765	6476.775
524.23987	6512.175
528.30034	6533.775
532.35792	6509.375
536.41261	6424.675
540.46441	6347.375
544.51333	6329.175
548.55936	6361.675
552.60252	6466.375
556.64279	6566.575
560.6802	6599.175
564.71473	6551.675
568.7464	6604.875
572.7752	6595.175
576.80114	6531.075
580.82422	6560.275
584.84444	6680.775
588.86181	6901.775
592.87633	7148.375
596.888	7359.875
600.89682	7537.675
604.9028	8192.975
608.90594	9438.275
612.90624	10465.175
616.90371	9578.575
620.89834	7834.575
624.89015	7223.175
628.87913	7148.875
632.86528	7057.175
636.84862	6909.375
640.82913	6723.775
644.80683	6532.575
648.78172	6400.575
652.75379	6467.375
656.72306	6659.775
660.68952	6842.775
664.65319	6784.575
668.61405	6735.175
672.57211	6712.375
676.52738	6692.775
680.47986	6613.975
684.42955	6546.875
688.37646	6549.675
692.32058	6605.975
696.26192	6732.275
700.20048	6823.475
704.13626	6843.375
708.06928	6718.775
711.99952	6646.575
715.927	6661.175
719.85171	6711.575
723.77365	6686.075
727.69284	6618.875
731.60928	6576.175
735.52295	6614.375
739.43388	6676.075
743.34206	6756.675
747.24749	6758.475
751.15017	6787.575
755.05012	6891.275
758.94733	7097.275
762.8418	7543.075
766.73354	8210.075
770.62254	8822.175
774.50882	9046.975
778.39237	8730.275
782.27321	8065.475
786.15132	7432.275
790.02671	7038.075
793.89938	6870.375
797.76935	6803.675
801.6366	6752.575
805.50115	6703.675
809.36299	6682.875
813.22213	6655.775
817.07857	6651.975
820.93231	6644.775
824.78336	6629.275
828.63172	6654.875
832.47738	6682.675
836.32036	6709.275
840.16066	6741.975
843.99827	6766.375
847.8332	6743.775
851.66546	6697.275
855.49504	6713.275
859.32195	6707.875
863.1462	6697.075
866.96777	6677.675
870.78668	6676.575
874.60293	6681.075
878.41652	6729.275
882.22745	6776.475
886.03573	6801.775
889.84136	6807.775
893.64433	6751.675
897.44466	6731.575
901.24235	6718.475
905.0374	6683.375
908.8298	6681.575
912.61957	6686.875
916.40671	6744.075
920.19121	6785.175
923.97308	6888.675
927.75233	6946.475
931.52895	6979.975
935.30295	6918.975
939.07433	6772.975
942.84309	6710.875
946.60924	6692.775
950.37278	6669.175
954.13371	6631.075
957.89203	6604.975
961.64774	6565.875
965.40086	6552.275
969.15137	6549.475
972.89929	6531.575
976.64461	6548.975
980.38733	6580.275
984.12747	6611.675
987.86502	6665.975
991.59999	6768.075
995.33237	6910.275
999.06217	7202.775
1002.78939	7472.875
1006.51404	7594.475
1010.23611	7642.875
1013.95561	7791.575
1017.67255	7882.375
1021.38692	7814.375
1025.09872	7767.875
1028.80796	7830.375
1032.51465	8021.275
1036.21877	8168.175
1039.92035	8138.275
1043.61937	7990.375
1047.31584	7792.475
1051.00976	7590.275
1054.70114	7498.175
1058.38998	7499.075
1062.07627	7497.275
1065.76003	7533.475
1069.44126	7563.775
1073.11995	7655.675
1076.79611	7737.575
1080.46974	7776.075
1084.14085	7859.475
1087.80943	7916.875
1091.47549	7928.275
1095.13903	7811.575
1098.80005	7663.375
1102.45857	7622.475
1106.11456	7606.375
1109.76805	7630.075
1113.41903	7712.975
1117.06751	7819.875
1120.71348	8004.975
1124.35696	8122.075
1127.99793	8207.575
1131.63641	8119.875
1135.2724	7946.675
1138.90589	7812.075
1142.5369	7690.975
1146.16542	7579.475
1149.79145	7528.475
1153.415	7559.475
1157.03607	7584.775
1160.65467	7733.275
1164.27079	7911.775
1167.88443	8222.175
1171.49561	8701.675
1175.10432	9361.575
1178.71056	10268.975
1182.31434	11150.975
1185.91565	11670.475
1189.51451	11774.475
1193.11091	11448.575
1196.70485	10833.375
1200.29634	10224.775
1203.88538	9672.175
1207.47197	9219.975
1211.05612	8908.275
1214.63782	8747.775
1218.21708	8720.575
1221.79391	8783.475
1225.36829	8857.275
1228.94024	8786.475
1232.50976	8756.175
1236.07685	8746.175
1239.6415	8779.075
1243.20374	8865.475
1246.76355	8878.975
1250.32093	8995.275
1253.8759	9190.575
1257.42845	9476.975
1260.97859	9760.075
1264.52631	9993.575
1268.07163	10208.275
1271.61453	10364.275
1275.15503	10489.775
1278.69312	10693.875
1282.22882	10917.375
1285.76211	11187.975
1289.29301	11396.875
1292.82151	11720.575
1296.34761	11978.875
1299.87133	12368.675
1303.39266	13035.575
1306.9116	13954.075
1310.42815	14870.875
1313.94233	15269.775
1317.45412	15011.775
1320.96354	14388.075
1324.47058	13759.375
1327.97525	13385.575
1331.47754	13319.475
1334.97747	13516.775
1338.47502	13790.275
1341.97022	14047.775
1345.46305	14306.275
1348.95352	14672.075
1352.44163	15238.875
1355.92738	15913.175
1359.41078	16757.675
1362.89183	17035.875
1366.37053	16082.775
1369.84688	14396.975
1373.32088	12838.875
1376.79254	11848.275
1380.26186	11418.575
1383.72883	11126.575
1387.19347	10818.075
1390.65578	10473.975
1394.11575	10143.175
1397.57339	9987.375
1401.0287	10058.175
1404.48168	10285.775
1407.93234	10579.275
1411.38068	10834.275
1414.82669	10929.475
1418.27039	10756.675
1421.71177	10588.875
1425.15083	10547.775
1428.58758	10673.275
1432.02203	10891.575
1435.45416	11087.775
1438.88399	11078.475
1442.31151	10965.775
1445.73673	10874.975
1449.15965	10790.675
1452.58027	10637.975
1455.9986	10463.175
1459.41463	10416.775
1462.82837	10533.275
1466.23982	10757.575
1469.64898	10990.875
1473.05586	11180.075
1476.46045	11377.675
1479.86276	11505.275
1483.26279	11592.875
1486.66054	11662.975
1490.05602	11817.875
1493.44922	12072.775
1496.84016	12418.875
1500.22882	12952.875
1503.61521	13616.975
1506.99934	14202.375
1510.38121	14442.775
1513.76081	14086.275
1517.13816	13259.375
1520.51324	12378.775
1523.88607	11818.775
1527.25665	11527.475
1530.62498	11467.175
1533.99105	11502.575
1537.35488	11535.075
1540.71647	11538.875
1544.07581	11449.075
1547.4329	11275.575
1550.78776	11013.575
1554.14038	10742.175
1557.49077	10532.475
1560.83892	10438.375
1564.18484	10463.375
1567.52853	10531.875
1570.86999	10594.075
1574.20922	10598.875
1577.54624	10480.975
1580.88103	10186.275
1584.2136	9957.975
1587.54395	10056.675
1590.87208	10492.875
1594.19801	11389.375
1597.52172	12459.175
1600.84321	13173.775
1604.16251	13084.275
1607.47959	12357.875
1610.79447	11323.375
1614.10715	10321.975
1617.41763	9526.575
1620.7259	9029.375
1624.03199	8770.975
1627.33587	8777.975
1630.63757	9041.275
1633.93707	9557.175
1637.23439	10353.275
1640.52951	11384.875
1643.82246	12458.875
1647.11321	13084.675
1650.40179	12827.575
1653.68819	11677.275
1656.97241	10177.575
1660.25446	9000.775
1663.53433	8212.375
1666.81203	7739.675
1670.08756	7423.975
1673.36092	7244.375
1676.63211	7106.275
1679.90115	7006.875
1683.16801	6914.975
1686.43272	6846.875
1689.69527	6804.575
1692.95567	6779.075
1696.2139	6756.375
1699.46999	6742.075
1702.72392	6736.175
1705.97571	6719.675
1709.22535	6717.175
1712.47284	6728.575
1715.71819	6724.075
1718.96139	6704.275
1722.20246	6684.375
1725.44139	6664.975
1728.67818	6626.075
1731.91284	6591.575
1735.14537	6562.275
1738.37576	6542.675
1741.60403	6527.275
1744.83017	6508.075
1748.05418	6482.575
1751.27607	6490.975
1754.49584	6487.375
1757.71349	6476.175
1760.92903	6479.775
1764.14244	6441.375
1767.35375	6441.875
1770.56294	6440.475
1773.77002	6442.775
1776.97499	6414.775
1780.17785	6417.275
1783.37861	6391.175
1786.57727	6394.875
1789.77382	6391.275
1792.96828	6369.075
1796.16064	6378.075
1799.3509	6370.175
1802.53907	6353.075
1805.72514	6365.475
1808.90913	6318.375
1812.09102	6327.475
1815.27083	6308.475
1818.44856	6283.775
1821.6242	6262.475
1824.79776	6273.675
1827.96924	6272.075
1831.13864	6261.275
1834.30597	6246.575
1837.47122	6231.175
1840.6344	6216.675
1843.7955	6217.875
1846.95454	6226.075
1850.11151	6216.075
1853.26642	6249.675
1856.41926	6232.275
1859.57004	6233.075
1862.71876	6263.175
1865.86542	6259.275
1869.01003	6235.175
1872.15258	6204.675
1875.29308	6221.175
1878.43152	6222.375
1881.56792	6219.675
1884.70227	6199.675
1887.83457	6178.575
1890.96482	6185.175
1894.09304	6184.075
1897.21921	6152.775
1900.34335	6173.075
1903.46544	6166.275
1906.58551	6174.375
1909.70353	6150.575
1912.81953	6159.675
1915.93349	6151.675
1919.04543	6154.975
1922.15534	6140.475
1925.26322	6146.875
1928.36908	6151.275
1931.47292	6099.175
1934.57473	6106.175
1937.67453	6094.575
1940.77232	6096.975
1943.86808	6083.375
1946.96184	6062.975
1950.05358	6055.375
1953.14331	6035.475
1956.23103	6016.475
1959.31675	5980.775
1962.40046	5975.475
1965.48217	5941.375
1968.56188	5930.575
1971.63959	5925.975
1974.7153	5910.075
1977.78901	5904.875
1980.86073	5893.175
1983.93046	5863.775
1986.99819	5832.275
1990.06394	5822.075
1993.1277	5821.275
1996.18947	5774.675
1999.24925	5775.575
2002.30706	5748.675
2005.36288	5740.175
2008.41672	5734.475
2011.46859	5710.975
2014.51848	5674.675
2017.56639	5667.575
2020.61233	5643.575
2023.6563	5640.575
2026.6983	5634.975
2029.73833	5605.975
2032.7764	5608.575
2035.8125	5610.775
2038.84664	5585.775
2041.87881	5584.475
2044.90903	5586.975
2047.93729	5584.575
2050.96359	5571.775
2053.98794	5553.475
2057.01034	5558.275
2060.03078	5552.575
2063.04927	5549.475
2066.06582	5549.075
2069.08042	5527.175
2072.09307	5532.575
2075.10378	5504.275
2078.11255	5507.475
2081.11938	5490.475
2084.12426	5493.675
2087.12722	5500.375
2090.12824	5507.375
2093.12732	5494.775
2096.12447	5496.675
2099.11969	5502.275
2102.11299	5515.375
2105.10435	5495.275
2108.09379	5495.375
2111.08131	5495.175
2114.0669	5504.475
2117.05057	5510.975
2120.03233	5519.075
2123.01216	5525.975
2125.99008	5503.175
2128.96609	5506.475
2131.94018	5517.575
2134.91236	5515.375
2137.88263	5519.175
2140.851	5515.575
2143.81746	5530.975
2146.78201	5501.975
2149.74466	5535.375
2152.7054	5524.775
2155.66425	5524.275
2158.6212	5523.775
2161.57625	5498.275
2164.52941	5520.675
2167.48067	5520.075
2170.43004	5512.075
2173.37752	5485.975
2176.32311	5489.375
2179.26681	5516.475
2182.20863	5508.375
2185.14856	5507.175
2188.08661	5512.775
2191.02278	5525.975
2193.95707	5505.775
2196.88948	5499.375
2199.82001	5509.375
2202.74867	5517.175
2205.67545	5515.575
2208.60037	5512.375
2211.52341	5492.775
2214.44458	5477.675
2217.36388	5478.475
2220.28132	5467.075
2223.1969	5435.775
2226.11061	5444.675
2229.02246	5419.675
2231.93245	5434.075
2234.84058	5428.075
2237.74686	5404.275
2240.65128	5401.675
2243.55385	5375.375
2246.45456	5369.775
2249.35343	5364.875
2252.25044	5367.075
2255.14561	5357.575
2258.03893	5367.875
2260.93041	5348.875
2263.82004	5344.975
2266.70783	5338.975
2269.59378	5308.675
2272.4779	5285.675
2275.36017	5257.175
2278.24061	5262.175
2281.11922	5258.775
2283.996	5268.775
2286.87094	5238.275
2289.74405	5231.175
2292.61534	5247.275
2295.4848	5217.475
2298.35243	5230.375
2301.21824	5222.275
2304.08223	5211.475
2306.94439	5225.275
2309.80474	5230.075
2312.66327	5233.375
2315.51999	5224.975
2318.37489	5230.975
2321.22797	5235.575
2324.07925	5206.075
2326.92871	5206.975
2329.77637	5210.275
2332.62222	5192.175
2335.46626	5189.675
2338.3085	5201.475
2341.14893	5194.575
2343.98756	5219.375
2346.8244	5222.175
2349.65943	5219.175
2352.49267	5196.575
2355.32411	5197.775
2358.15376	5191.675
2360.98161	5209.075
2363.80768	5180.175
2366.63195	5184.875
2369.45444	5162.175
2372.27514	5151.375
2375.09405	5165.475
2377.91118	5122.275
2380.72652	5134.075
2383.54009	5101.575
2386.35187	5094.575
2389.16188	5091.875
2391.97011	5074.875
2394.77657	5071.275
2397.58125	5062.875
2400.38416	5053.475
2403.18529	5037.975
2405.98466	5035.875
2408.78226	5025.575
2411.57809	5013.375
2414.37216	5000.375
2417.16446	5012.475
2419.955	5008.075
2422.74378	4982.975
2425.5308	4997.575
2428.31606	4998.675
2431.09956	4977.775
2433.88131	4974.775
2436.6613	4962.175
2439.43954	4967.675
2442.21603	4970.275
2444.99077	4961.875
2447.76377	4958.975
2450.53501	4954.275
2453.30451	4982.575
2456.07226	4939.275
2458.83827	4928.875
2461.60254	4933.775
2464.36507	4919.575
2467.12586	4923.775
2469.88492	4911.475
2472.64224	4932.375
2475.39782	4942.775
2478.15167	4942.375
2480.90379	4932.975
2483.65417	4921.375
2486.40283	4925.775
2489.14976	4937.475
2491.89497	4941.375
2494.63845	4943.575
2497.3802	4946.875
2500.12024	4930.375
2502.85855	4945.675
2505.59514	4922.275
2508.33002	4923.075
2511.06318	4910.075
2513.79462	4905.275
2516.52435	4913.675
2519.25237	4899.375
2521.97867	4878.975
2524.70327	4868.275
2527.42616	4885.175
2530.14734	4867.875
2532.86681	4873.375
2535.58458	4875.475
2538.30065	4878.075
2541.01501	4886.975
2543.72768	4869.175
2546.43864	4875.675
2549.14791	4862.575
2551.85548	4857.375
2554.56136	4855.975
2557.26554	4848.175
2559.96803	4838.575
2562.66883	4832.875
2565.36794	4814.075
2568.06536	4812.675
2570.7611	4798.775
2573.45514	4797.875
2576.14751	4790.775
2578.83819	4799.075
2581.52719	4793.075
2584.21451	4798.975
2586.90015	4789.475
2589.58411	4805.075
2592.2664	4783.075
2594.94701	4771.375
2597.62594	4777.875
2600.30321	4767.375
2602.9788	4781.775
2605.65273	4774.975
2608.32498	4772.975
2610.99557	4761.475
2613.66449	4759.875
2616.33175	4774.575
2618.99734	4778.975
2621.66128	4776.075
2624.32355	4768.175
2626.98416	4754.875
2629.64311	4761.875
2632.30041	4771.175
2634.95605	4757.375
2637.61004	4760.375
2640.26238	4751.375
2642.91306	4740.375
2645.56209	4757.675
2648.20948	4731.775
2650.85521	4738.975
2653.4993	4738.075
2656.14175	4720.275
2658.78255	4724.875
2661.42171	4720.175
2664.05923	4719.775
2666.6951	4742.275
2669.32934	4756.375
2671.96194	4740.175
2674.59291	4739.875
2677.22224	4742.375
2679.84993	4761.775
2682.476	4753.875
2685.10043	4754.475
2687.72324	4755.075
2690.34441	4750.175
2692.96396	4732.175
2695.58188	4731.375
2698.19818	4732.175
2700.81285	4732.475
2703.4259	4705.075
2706.03733	4711.575
2708.64714	4707.075
2711.25533	4705.875
2713.86191	4715.075
2716.46687	4728.275
2719.07021	4717.175
2721.67194	4714.375
2724.27206	4730.575
2726.87057	4722.775
2729.46747	4719.075
2732.06276	4721.775
2734.65644	4717.675
2737.24852	4725.475
2739.83899	4718.475
2742.42786	4713.675
2745.01513	4679.275
2747.60079	4689.475
2750.18486	4687.075
2752.76733	4699.875
2755.3482	4690.775
2757.92747	4678.775
2760.50515	4678.775
2763.08123	4693.075
2765.65573	4670.975
2768.22863	4687.275
2770.79994	4654.775
2773.36967	4657.175
2775.9378	4669.975
2778.50435	4659.575
2781.06932	4665.775
2783.6327	4660.975
2786.1945	4674.775
2788.75471	4644.575
2791.31335	4648.575
2793.87041	4643.275
2796.42589	4639.675
2798.97979	4614.975
2801.53212	4610.275
2804.08288	4613.875
2806.63206	4600.675
2809.17967	4596.275
2811.72571	4584.875
2814.27018	4585.875
2816.81308	4565.075
2819.35442	4563.375
2821.89419	4551.175
2824.43239	4558.975
2826.96904	4547.275
2829.50412	4548.975
2832.03763	4531.975
2834.56959	4528.175
2837.1	4515.475
2839.62884	4511.575
2842.15613	4508.475
2844.68186	4508.275
2847.20604	4521.575
2849.72867	4502.975
2852.24974	4500.275
2854.76927	4501.275
2857.28724	4497.075
2859.80367	4485.875
2862.31855	4464.875
2864.83189	4471.075
2867.34368	4475.875
2869.85393	4450.875
2872.36264	4461.075
2874.8698	4453.675
2877.37543	4455.275
2879.87952	4445.875
2882.38207	4432.975
2884.88308	4433.275
2887.38256	4440.075
2889.88051	4444.775
2892.37692	4422.875
2894.8718	4423.075
2897.36515	4422.175
2899.85698	4432.775
2902.34727	4444.875
2904.83604	4439.375
2907.32328	4433.475
2909.809	4458.175
2912.29319	4449.075
2914.77587	4440.175
2917.25702	4457.675
2919.73665	4436.375
2922.21476	4432.475
2924.69136	4447.475
2927.16644	4442.475
2929.64	4421.775
2932.11205	4402.875
2934.58258	4392.975
2937.05161	4395.475
2939.51912	4421.275
2941.98513	4414.975
2944.44962	4405.475
2946.91261	4387.075
2949.37409	4396.775
2951.83407	4397.775
2954.29254	4376.275
2956.74951	4380.475
2959.20498	4368.875
2961.65895	4373.175
2964.11142	4376.875
2966.56239	4367.975
2969.01186	4374.175
2971.45984	4356.975
2973.90632	4350.775
2976.35131	4348.475
2978.7948	4331.475
2981.23681	4317.075
2983.67732	4315.475
2986.11635	4294.475
2988.55388	4291.475
2990.98993	4270.675
2993.4245	4257.675
2995.85758	4240.975
2998.28917	4220.575
3000.71928	4226.175
3003.14791	4215.775
3005.57506	4201.175
3008.00073	4191.275
3010.42493	4182.975
3012.84764	4159.775
3015.26888	4166.575
3017.68865	4156.075
3020.10694	4156.975
3022.52376	4147.275
3024.9391	4124.475
3027.35298	4106.775
3029.76539	4105.275
3032.17632	4111.075
3034.5858	4107.075
3036.9938	4099.575
3039.40034	4086.875
3041.80542	4062.375
3044.20903	4073.575
3046.61118	4063.975
3049.01187	4046.175
3051.4111	4046.375
3053.80888	4024.875
3056.20519	4013.275
3058.60005	4001.975
3060.99345	4003.875
3063.3854	3985.875
3065.7759	3979.875
3068.16494	3962.275
3070.55254	3931.175
3072.93868	3929.675
3075.32338	3906.775
3077.70662	3919.675
3080.08842	3900.475
3082.46878	3894.375
3084.84769	3888.375
3087.22515	3876.375
3089.60118	3877.875
3091.97576	3879.975
3094.3489	3875.275
3096.72061	3864.175
3099.09087	3857.975
3101.4597	3866.375
3103.82709	3860.175
3106.19305	3845.675
3108.55757	3861.275
3110.92066	3823.875
3113.28232	3831.675
3115.64255	3827.875
3118.00134	3802.475
3120.35871	3805.475
3122.71466	3803.475
3125.06917	3789.575
3127.42226	3778.975
3129.77393	3774.375
3132.12417	3760.975
3134.47299	3759.775
3136.82039	3743.475
3139.16636	3755.275
3141.51092	3761.175
3143.85406	3750.675
3146.19579	3737.775
3148.53609	3739.575
3150.87499	3743.375
3153.21246	3730.675
3155.54853	3732.275
3157.88318	3738.375
3160.21642	3720.975
3162.54826	3706.775
3164.87868	3724.675
3167.2077	3715.175
3169.5353	3706.175
3171.86151	3685.475
3174.18631	3691.475
3176.5097	3678.575
3178.83169	3688.875
3181.15228	3674.975
3183.47147	3664.175
3185.78926	3661.075
3188.10565	3658.975
3190.42065	3638.975
3192.73424	3623.875
3195.04645	3635.875
3197.35725	3642.375
3199.66667	3623.775
3201.97469	3637.275
3204.28132	3624.975
3206.58656	3640.975
3208.8904	3622.275
3211.19287	3618.775
3213.49394	3619.175
3215.79363	3618.775
3218.09193	3624.275
3220.38884	3617.675
3222.68438	3622.075
3224.97853	3611.575
3227.2713	3616.175
