Data from AgNPs_UA_5uM_CRN_500uM_SU_RamanShift__64__11-40-03-152.txt Node

Date: Thu Aug 04 11:40:03 BST 2022
User: TCL
Spectrometer: QEP01345
Trigger mode: 4
Integration Time (sec): 1.000000E0
Scans to average: 10
Electric dark correction enabled: true
Nonlinearity correction enabled: false
Boxcar width: 0
XAxis mode: Raman Shifts
Number of Pixels in Spectrum: 1044
>>>>>Begin Spectral Data<<<<<
46.04893	-0.0875
50.45542	0.8125
54.85868	-0.4875
59.25871	-0.9875
63.6555	-55.1875
68.04907	-38.5875
72.43941	-69.6875
76.82654	-53.9875
81.21044	-54.2875
85.59113	-47.6875
89.96862	-75.3875
94.34289	-53.5875
98.71396	-74.9875
103.08183	-55.2875
107.4465	-46.8875
111.80798	-54.2875
116.16626	-42.4875
120.52136	-68.4875
124.87327	-47.0875
129.222	-56.0875
133.56755	-44.4875
137.90993	-57.2875
142.24913	-40.7875
146.58517	-32.9875
150.91804	-27.2875
155.24774	-12.2875
159.57429	12.1125
163.89768	24.3125
168.21792	84.6125
172.53501	119.7125
176.84895	231.4125
181.15975	398.2125
185.46741	602.3125
189.77193	854.8125
194.07331	1237.4125
198.37157	1611.8125
202.6667	2020.5125
206.9587	2461.5125
211.24758	2930.7125
215.53334	3421.7125
219.81599	3982.0125
224.09553	4666.7125
228.37195	5328.1125
232.64527	5998.3125
236.91549	6568.2125
241.18261	6897.5125
245.44663	7074.6125
249.70755	7146.1125
253.96539	7221.0125
258.22014	7354.4125
262.4718	7453.7125
266.72039	7490.0125
270.96589	7397.7125
275.20832	7152.6125
279.44768	6908.2125
283.68397	6699.3125
287.91719	6624.8125
292.14735	6740.0125
296.37445	7102.9125
300.59849	7758.0125
304.81948	8686.6125
309.03742	9724.5125
313.25231	10478.4125
317.46415	10397.3125
321.67296	9294.4125
325.87872	8044.8125
330.08145	7347.2125
334.28114	7189.7125
338.47781	7384.0125
342.67145	7801.5125
346.86207	8458.6125
351.04966	9485.2125
355.23424	10506.3125
359.4158	10935.3125
363.59435	10643.1125
367.76989	10089.7125
371.94243	9534.0125
376.11196	9067.8125
380.27849	8769.3125
384.44203	8481.5125
388.60257	8364.7125
392.76012	8414.0125
396.91468	8661.9125
401.06626	8956.2125
405.21485	8954.4125
409.36047	8558.1125
413.50311	7805.3125
417.64277	7116.8125
421.77947	6624.6125
425.9132	6441.2125
430.04396	6336.2125
434.17176	6304.0125
438.2966	6438.6125
442.41849	6580.1125
446.53742	6762.7125
450.6534	6879.5125
454.76644	6933.4125
458.87653	6899.5125
462.98368	6808.1125
467.08789	6687.5125
471.18916	6529.6125
475.2875	6306.0125
479.38291	6142.5125
483.4754	6034.7125
487.56496	5978.4125
491.6516	5927.5125
495.73531	5917.2125
499.81612	5961.4125
503.89401	6107.7125
507.96899	6242.5125
512.04106	6406.4125
516.11023	6624.7125
520.1765	6782.5125
524.23987	6843.7125
528.30034	6816.5125
532.35792	6687.3125
536.41261	6581.3125
540.46441	6402.6125
544.51333	6299.3125
548.55936	6292.4125
552.60252	6438.7125
556.64279	6607.4125
560.6802	6931.5125
564.71473	7588.1125
568.7464	8407.9125
572.7752	8323.6125
576.80114	7233.7125
580.82422	6374.1125
584.84444	5992.5125
588.86181	5855.9125
592.87633	5895.5125
596.888	6054.6125
600.89682	6662.6125
604.9028	8611.1125
608.90594	13431.3125
612.90624	19234.8125
616.90371	17556.3125
620.89834	10343.0125
624.89015	7200.4125
628.87913	6864.3125
632.86528	7331.9125
636.84862	7555.3125
640.82913	7018.3125
644.80683	6220.1125
648.78172	5900.5125
652.75379	5983.5125
656.72306	6552.6125
660.68952	7114.8125
664.65319	6859.0125
668.61405	6176.6125
672.57211	5939.0125
676.52738	5960.8125
680.47986	5849.1125
684.42955	5696.6125
688.37646	5622.7125
692.32058	5648.0125
696.26192	5759.8125
700.20048	5893.4125
704.13626	5931.1125
708.06928	5838.2125
711.99952	5806.6125
715.927	5818.6125
719.85171	5959.2125
723.77365	6073.9125
727.69284	5985.8125
731.60928	5859.2125
735.52295	5793.2125
739.43388	5863.0125
743.34206	5902.1125
747.24749	5895.6125
751.15017	5923.8125
755.05012	6144.1125
758.94733	7090.7125
762.8418	9153.2125
766.73354	11905.6125
770.62254	13315.7125
774.50882	12836.2125
778.39237	11870.0125
782.27321	10368.5125
786.15132	8305.5125
790.02671	6878.9125
793.89938	6183.6125
797.76935	5952.1125
801.6366	5834.6125
805.50115	5762.2125
809.36299	5717.2125
813.22213	5717.9125
817.07857	5717.3125
820.93231	5731.4125
824.78336	5804.1125
828.63172	5886.6125
832.47738	5924.8125
836.32036	5853.0125
840.16066	5725.8125
843.99827	5636.1125
847.8332	5604.6125
851.66546	5616.6125
855.49504	5586.2125
859.32195	5593.8125
863.1462	5552.8125
866.96777	5580.0125
870.78668	5547.9125
874.60293	5576.6125
878.41652	5649.7125
882.22745	5754.3125
886.03573	5832.5125
889.84136	5798.6125
893.64433	5791.7125
897.44466	5794.3125
901.24235	5789.3125
905.0374	5735.8125
908.8298	5599.8125
912.61957	5523.7125
916.40671	5444.5125
920.19121	5488.1125
923.97308	5643.6125
927.75233	5893.9125
931.52895	6191.3125
935.30295	6059.6125
939.07433	5628.0125
942.84309	5359.9125
946.60924	5265.4125
950.37278	5199.3125
954.13371	5208.6125
957.89203	5204.0125
961.64774	5207.4125
965.40086	5192.2125
969.15137	5163.0125
972.89929	5169.1125
976.64461	5170.7125
980.38733	5172.1125
984.12747	5153.8125
987.86502	5177.8125
991.59999	5194.4125
995.33237	5261.4125
999.06217	5338.7125
1002.78939	5475.6125
1006.51404	5687.7125
1010.23611	5840.8125
1013.95561	5758.7125
1017.67255	5630.8125
1021.38692	5532.7125
1025.09872	5408.2125
1028.80796	5339.1125
1032.51465	5361.2125
1036.21877	5374.7125
1039.92035	5462.7125
1043.61937	5496.7125
1047.31584	5564.0125
1051.00976	5573.7125
1054.70114	5577.0125
1058.38998	5535.9125
1062.07627	5533.7125
1065.76003	5536.4125
1069.44126	5598.2125
1073.11995	5703.4125
1076.79611	5944.4125
1080.46974	6306.9125
1084.14085	6820.9125
1087.80943	7246.4125
1091.47549	7243.8125
1095.13903	6862.9125
1098.80005	6494.4125
1102.45857	6345.3125
1106.11456	6298.1125
1109.76805	6294.1125
1113.41903	6543.7125
1117.06751	6958.7125
1120.71348	7662.0125
1124.35696	8716.8125
1127.99793	9427.2125
1131.63641	8877.9125
1135.2724	7704.5125
1138.90589	6946.2125
1142.5369	6478.0125
1146.16542	6235.4125
1149.79145	6022.2125
1153.415	5944.9125
1157.03607	5959.3125
1160.65467	6126.7125
1164.27079	6399.7125
1167.88443	6837.4125
1171.49561	7584.6125
1175.10432	8818.8125
1178.71056	10582.4125
1182.31434	11856.6125
1185.91565	11738.8125
1189.51451	10700.2125
1193.11091	9531.3125
1196.70485	8822.2125
1200.29634	8506.8125
1203.88538	8107.3125
1207.47197	7359.4125
1211.05612	6682.4125
1214.63782	6242.9125
1218.21708	5998.8125
1221.79391	5890.6125
1225.36829	5872.8125
1228.94024	5864.7125
1232.50976	5867.4125
1236.07685	5896.5125
1239.6415	5922.3125
1243.20374	6020.6125
1246.76355	6145.3125
1250.32093	6279.8125
1253.8759	6477.6125
1257.42845	6846.2125
1260.97859	7354.9125
1264.52631	7847.3125
1268.07163	8106.8125
1271.61453	8160.4125
1275.15503	7990.6125
1278.69312	7810.1125
1282.22882	7942.1125
1285.76211	8545.9125
1289.29301	9380.0125
1292.82151	9932.7125
1296.34761	10201.5125
1299.87133	10813.5125
1303.39266	12249.3125
1306.9116	15010.1125
1310.42815	18350.6125
1313.94233	19489.4125
1317.45412	16963.6125
1320.96354	13382.8125
1324.47058	10666.1125
1327.97525	8959.6125
1331.47754	8078.0125
1334.97747	7771.9125
1338.47502	7889.8125
1341.97022	8597.9125
1345.46305	10152.6125
1348.95352	12317.9125
1352.44163	14568.8125
1355.92738	17152.1125
1359.41078	21634.6125
1362.89183	26474.0125
1366.37053	25450.7125
1369.84688	18444.3125
1373.32088	12636.4125
1376.79254	10055.0125
1380.26186	8915.0125
1383.72883	8059.6125
1387.19347	7250.6125
1390.65578	6602.1125
1394.11575	6230.6125
1397.57339	6049.7125
1401.0287	5918.3125
1404.48168	5826.2125
1407.93234	5802.0125
1411.38068	5906.9125
1414.82669	6172.5125
1418.27039	6478.5125
1421.71177	6551.4125
1425.15083	6415.5125
1428.58758	6396.0125
1432.02203	6665.5125
1435.45416	6888.6125
1438.88399	6680.9125
1442.31151	6425.8125
1445.73673	6389.0125
1449.15965	6355.0125
1452.58027	6276.8125
1455.9986	6190.9125
1459.41463	6088.6125
1462.82837	6095.4125
1466.23982	6275.1125
1469.64898	6538.6125
1473.05586	6647.1125
1476.46045	6663.2125
1479.86276	6708.9125
1483.26279	6895.0125
1486.66054	7361.4125
1490.05602	8053.0125
1493.44922	9212.1125
1496.84016	11022.0125
1500.22882	13766.6125
1503.61521	17564.6125
1506.99934	22358.6125
1510.38121	26930.6125
1513.76081	28495.6125
1517.13816	25318.6125
1520.51324	19470.9125
1523.88607	14319.6125
1527.25665	11028.4125
1530.62498	9201.3125
1533.99105	8158.6125
1537.35488	7499.4125
1540.71647	7083.8125
1544.07581	6914.8125
1547.4329	6912.6125
1550.78776	7039.9125
1554.14038	7250.3125
1557.49077	7607.4125
1560.83892	8223.2125
1564.18484	9180.1125
1567.52853	10260.3125
1570.86999	10972.9125
1574.20922	11068.9125
1577.54624	10674.9125
1580.88103	9355.7125
1584.2136	7819.4125
1587.54395	6926.3125
1590.87208	6684.1125
1594.19801	6948.7125
1597.52172	7487.0125
1600.84321	7498.4125
1604.16251	6964.5125
1607.47959	6459.7125
1610.79447	6118.5125
1614.10715	5824.4125
1617.41763	5623.3125
1620.7259	5485.4125
1624.03199	5497.0125
1627.33587	5583.7125
1630.63757	5831.4125
1633.93707	6307.8125
1637.23439	7156.0125
1640.52951	8713.7125
1643.82246	11348.1125
1647.11321	14822.2125
1650.40179	17574.1125
1653.68819	17281.4125
1656.97241	14034.0125
1660.25446	10262.8125
1663.53433	7687.1125
1666.81203	6289.9125
1670.08756	5578.0125
1673.36092	5183.0125
1676.63211	4920.1125
1679.90115	4779.6125
1683.16801	4659.7125
1686.43272	4545.8125
1689.69527	4499.6125
1692.95567	4420.7125
1696.2139	4402.5125
1699.46999	4337.8125
1702.72392	4345.7125
1705.97571	4357.8125
1709.22535	4331.4125
1712.47284	4382.5125
1715.71819	4414.0125
1718.96139	4407.7125
1722.20246	4387.2125
1725.44139	4345.5125
1728.67818	4317.0125
1731.91284	4242.2125
1735.14537	4196.9125
1738.37576	4164.6125
1741.60403	4128.7125
1744.83017	4116.6125
1748.05418	4118.6125
1751.27607	4096.3125
1754.49584	4047.2125
1757.71349	4003.6125
1760.92903	3993.6125
1764.14244	3914.4125
1767.35375	3911.2125
1770.56294	3906.4125
1773.77002	3861.2125
1776.97499	3849.5125
1780.17785	3830.5125
1783.37861	3809.3125
1786.57727	3807.3125
1789.77382	3754.6125
1792.96828	3785.3125
1796.16064	3802.1125
1799.3509	3771.8125
1802.53907	3781.9125
1805.72514	3750.9125
1808.90913	3715.4125
1812.09102	3735.4125
1815.27083	3709.5125
1818.44856	3695.3125
1821.6242	3684.9125
1824.79776	3670.3125
1827.96924	3665.8125
1831.13864	3643.7125
1834.30597	3644.1125
1837.47122	3618.6125
1840.6344	3585.2125
1843.7955	3564.2125
1846.95454	3549.8125
1850.11151	3570.6125
1853.26642	3524.7125
1856.41926	3542.4125
1859.57004	3537.7125
1862.71876	3536.4125
1865.86542	3555.7125
1869.01003	3528.2125
1872.15258	3516.9125
1875.29308	3544.0125
1878.43152	3541.1125
1881.56792	3526.7125
1884.70227	3504.8125
1887.83457	3508.6125
1890.96482	3469.6125
1894.09304	3478.0125
1897.21921	3468.5125
1900.34335	3475.6125
1903.46544	3457.9125
1906.58551	3463.9125
1909.70353	3442.7125
1912.81953	3437.9125
1915.93349	3433.3125
1919.04543	3434.5125
1922.15534	3406.7125
1925.26322	3393.4125
1928.36908	3378.0125
1931.47292	3371.9125
1934.57473	3370.2125
1937.67453	3322.1125
1940.77232	3280.7125
1943.86808	3288.3125
1946.96184	3276.6125
1950.05358	3253.5125
1953.14331	3252.3125
1956.23103	3262.3125
1959.31675	3233.8125
1962.40046	3188.7125
1965.48217	3218.4125
1968.56188	3239.5125
1971.63959	3240.6125
1974.7153	3237.0125
1977.78901	3218.1125
1980.86073	3197.3125
1983.93046	3146.4125
1986.99819	3074.9125
1990.06394	3084.1125
1993.1277	3094.9125
1996.18947	3084.1125
1999.24925	3040.0125
2002.30706	3053.4125
2005.36288	3043.2125
2008.41672	3026.2125
2011.46859	2986.4125
2014.51848	2993.2125
2017.56639	2974.5125
2020.61233	2960.2125
2023.6563	2964.8125
2026.6983	2929.0125
2029.73833	2936.6125
2032.7764	2949.3125
2035.8125	2893.0125
2038.84664	2906.8125
2041.87881	2895.3125
2044.90903	2904.3125
2047.93729	2894.5125
2050.96359	2857.6125
2053.98794	2877.5125
2057.01034	2880.6125
2060.03078	2840.9125
2063.04927	2833.7125
2066.06582	2834.1125
2069.08042	2806.0125
2072.09307	2814.2125
2075.10378	2816.1125
2078.11255	2806.6125
2081.11938	2814.8125
2084.12426	2817.1125
2087.12722	2805.5125
2090.12824	2789.6125
2093.12732	2800.2125
2096.12447	2803.3125
2099.11969	2807.7125
2102.11299	2791.7125
2105.10435	2818.1125
2108.09379	2818.6125
2111.08131	2801.1125
2114.0669	2806.4125
2117.05057	2810.8125
2120.03233	2807.5125
2123.01216	2839.8125
2125.99008	2850.6125
2128.96609	2836.9125
2131.94018	2847.0125
2134.91236	2839.0125
2137.88263	2819.5125
2140.851	2811.4125
2143.81746	2828.8125
2146.78201	2800.8125
2149.74466	2776.5125
2152.7054	2783.2125
2155.66425	2768.6125
2158.6212	2754.8125
2161.57625	2742.0125
2164.52941	2716.0125
2167.48067	2742.8125
2170.43004	2725.6125
2173.37752	2756.0125
2176.32311	2740.8125
2179.26681	2746.2125
2182.20863	2757.9125
2185.14856	2753.2125
2188.08661	2756.8125
2191.02278	2750.5125
2193.95707	2721.0125
2196.88948	2710.1125
2199.82001	2720.0125
2202.74867	2690.3125
2205.67545	2719.5125
2208.60037	2710.5125
2211.52341	2698.4125
2214.44458	2686.2125
2217.36388	2679.6125
2220.28132	2672.9125
2223.1969	2639.3125
2226.11061	2652.0125
2229.02246	2643.5125
2231.93245	2639.9125
2234.84058	2628.6125
2237.74686	2618.4125
2240.65128	2621.6125
2243.55385	2630.6125
2246.45456	2606.6125
2249.35343	2629.9125
2252.25044	2622.2125
2255.14561	2640.7125
2258.03893	2655.0125
2260.93041	2653.2125
2263.82004	2661.1125
2266.70783	2660.5125
2269.59378	2640.8125
2272.4779	2627.1125
2275.36017	2638.5125
2278.24061	2612.8125
2281.11922	2586.5125
2283.996	2593.6125
2286.87094	2569.9125
2289.74405	2571.2125
2292.61534	2565.1125
2295.4848	2554.3125
2298.35243	2540.2125
2301.21824	2524.8125
2304.08223	2510.7125
2306.94439	2521.4125
2309.80474	2520.5125
2312.66327	2523.8125
2315.51999	2509.6125
2318.37489	2507.0125
2321.22797	2488.3125
2324.07925	2485.4125
2326.92871	2489.0125
2329.77637	2463.6125
2332.62222	2462.9125
2335.46626	2454.1125
2338.3085	2452.2125
2341.14893	2477.0125
2343.98756	2484.1125
2346.8244	2464.8125
2349.65943	2454.8125
2352.49267	2476.6125
2355.32411	2472.5125
2358.15376	2476.9125
2360.98161	2500.6125
2363.80768	2482.3125
2366.63195	2505.2125
2369.45444	2501.7125
2372.27514	2498.7125
2375.09405	2519.4125
2377.91118	2490.5125
2380.72652	2481.0125
2383.54009	2472.8125
2386.35187	2470.9125
2389.16188	2452.9125
2391.97011	2440.5125
2394.77657	2417.2125
2397.58125	2416.5125
2400.38416	2393.0125
2403.18529	2381.0125
2405.98466	2376.5125
2408.78226	2396.3125
2411.57809	2356.7125
2414.37216	2346.3125
2417.16446	2353.9125
2419.955	2340.7125
2422.74378	2361.6125
2425.5308	2351.6125
2428.31606	2353.2125
2431.09956	2362.8125
2433.88131	2340.1125
2436.6613	2363.0125
2439.43954	2360.4125
2442.21603	2348.0125
2444.99077	2354.3125
2447.76377	2365.7125
2450.53501	2356.1125
2453.30451	2361.5125
2456.07226	2370.1125
2458.83827	2356.1125
2461.60254	2311.3125
2464.36507	2350.5125
2467.12586	2323.6125
2469.88492	2333.5125
2472.64224	2342.6125
2475.39782	2318.1125
2478.15167	2343.0125
2480.90379	2348.6125
2483.65417	2379.3125
2486.40283	2375.5125
2489.14976	2384.7125
2491.89497	2380.5125
2494.63845	2380.7125
2497.3802	2359.9125
2500.12024	2358.1125
2502.85855	2351.8125
2505.59514	2329.7125
2508.33002	2317.5125
2511.06318	2285.7125
2513.79462	2273.7125
2516.52435	2229.2125
2519.25237	2207.9125
2521.97867	2198.2125
2524.70327	2202.5125
2527.42616	2191.3125
2530.14734	2195.3125
2532.86681	2158.5125
2535.58458	2185.3125
2538.30065	2166.2125
2541.01501	2189.0125
2543.72768	2181.3125
2546.43864	2173.6125
2549.14791	2180.8125
2551.85548	2176.1125
2554.56136	2169.0125
2557.26554	2192.4125
2559.96803	2181.6125
2562.66883	2184.7125
2565.36794	2175.1125
2568.06536	2154.3125
2570.7611	2173.7125
2573.45514	2153.3125
2576.14751	2152.6125
2578.83819	2130.6125
2581.52719	2125.8125
2584.21451	2132.7125
2586.90015	2103.0125
2589.58411	2092.0125
2592.2664	2097.3125
2594.94701	2105.2125
2597.62594	2109.2125
2600.30321	2043.7125
2602.9788	2063.8125
2605.65273	2059.8125
2608.32498	2064.2125
2610.99557	2077.8125
2613.66449	2056.1125
2616.33175	2068.0125
2618.99734	2083.1125
2621.66128	2072.3125
2624.32355	2052.9125
2626.98416	2055.6125
2629.64311	2031.0125
2632.30041	2022.2125
2634.95605	2007.8125
2637.61004	1997.0125
2640.26238	1981.9125
2642.91306	1977.4125
2645.56209	1998.0125
2648.20948	1992.2125
2650.85521	1963.9125
2653.4993	1998.4125
2656.14175	1997.0125
2658.78255	1974.1125
2661.42171	1955.6125
2664.05923	1996.4125
2666.6951	2001.0125
2669.32934	1993.8125
2671.96194	2032.0125
2674.59291	2013.7125
2677.22224	2019.0125
2679.84993	2002.6125
2682.476	1993.7125
2685.10043	1997.3125
2687.72324	1980.0125
2690.34441	1988.5125
2692.96396	1977.0125
2695.58188	1995.7125
2698.19818	1979.3125
2700.81285	1964.0125
2703.4259	1952.9125
2706.03733	1926.1125
2708.64714	1936.6125
2711.25533	1963.4125
2713.86191	1974.8125
2716.46687	1970.9125
2719.07021	1965.8125
2721.67194	1963.0125
2724.27206	1987.0125
2726.87057	1955.9125
2729.46747	1941.6125
2732.06276	1946.3125
2734.65644	1921.7125
2737.24852	1927.0125
2739.83899	1913.7125
2742.42786	1911.3125
2745.01513	1928.5125
2747.60079	1891.6125
2750.18486	1886.8125
2752.76733	1889.3125
2755.3482	1873.3125
2757.92747	1868.5125
2760.50515	1861.8125
2763.08123	1845.5125
2765.65573	1867.8125
2768.22863	1846.6125
2770.79994	1828.8125
2773.36967	1840.7125
2775.9378	1827.0125
2778.50435	1845.4125
2781.06932	1826.8125
2783.6327	1813.3125
2786.1945	1841.1125
2788.75471	1826.7125
2791.31335	1827.3125
2793.87041	1819.3125
2796.42589	1812.1125
2798.97979	1810.7125
2801.53212	1813.7125
2804.08288	1830.9125
2806.63206	1817.5125
2809.17967	1814.3125
2811.72571	1837.9125
2814.27018	1834.2125
2816.81308	1832.8125
2819.35442	1818.5125
2821.89419	1847.1125
2824.43239	1828.3125
2826.96904	1860.0125
2829.50412	1847.9125
2832.03763	1830.7125
2834.56959	1839.5125
2837.1	1812.6125
2839.62884	1818.9125
2842.15613	1811.0125
2844.68186	1813.8125
2847.20604	1786.3125
2849.72867	1792.9125
2852.24974	1795.7125
2854.76927	1781.6125
2857.28724	1761.0125
2859.80367	1817.4125
2862.31855	1829.7125
2864.83189	1839.3125
2867.34368	1843.4125
2869.85393	1847.8125
2872.36264	1839.4125
2874.8698	1840.6125
2877.37543	1844.9125
2879.87952	1833.1125
2882.38207	1808.9125
2884.88308	1803.4125
2887.38256	1798.9125
2889.88051	1786.0125
2892.37692	1782.2125
2894.8718	1764.6125
2897.36515	1777.7125
2899.85698	1772.8125
2902.34727	1764.7125
2904.83604	1788.5125
2907.32328	1807.5125
2909.809	1805.1125
2912.29319	1806.0125
2914.77587	1825.1125
2917.25702	1833.6125
2919.73665	1821.2125
2922.21476	1826.5125
2924.69136	1818.7125
2927.16644	1780.7125
2929.64	1775.0125
2932.11205	1752.2125
2934.58258	1752.0125
2937.05161	1738.8125
2939.51912	1739.3125
2941.98513	1752.9125
2944.44962	1738.9125
2946.91261	1713.2125
2949.37409	1721.4125
2951.83407	1719.1125
2954.29254	1733.4125
2956.74951	1731.2125
2959.20498	1716.1125
2961.65895	1722.8125
2964.11142	1721.1125
2966.56239	1718.1125
2969.01186	1711.7125
2971.45984	1704.8125
2973.90632	1695.4125
2976.35131	1714.1125
2978.7948	1710.3125
2981.23681	1697.4125
2983.67732	1718.6125
2986.11635	1710.1125
2988.55388	1693.3125
2990.98993	1697.1125
2993.4245	1684.1125
2995.85758	1686.0125
2998.28917	1686.7125
3000.71928	1679.6125
3003.14791	1677.2125
3005.57506	1669.8125
3008.00073	1672.6125
3010.42493	1602.4125
3012.84764	1658.7125
3015.26888	1652.0125
3017.68865	1656.5125
3020.10694	1609.1125
3022.52376	1618.1125
3024.9391	1615.9125
3027.35298	1608.1125
3029.76539	1589.8125
3032.17632	1589.6125
3034.5858	1568.9125
3036.9938	1565.1125
3039.40034	1557.9125
3041.80542	1543.9125
3044.20903	1534.4125
3046.61118	1532.2125
3049.01187	1540.8125
3051.4111	1525.3125
3053.80888	1514.2125
3056.20519	1501.7125
3058.60005	1495.4125
3060.99345	1518.4125
3063.3854	1496.6125
3065.7759	1474.8125
3068.16494	1476.8125
3070.55254	1456.3125
3072.93868	1480.5125
3075.32338	1477.7125
3077.70662	1467.3125
3080.08842	1453.0125
3082.46878	1439.3125
3084.84769	1468.7125
3087.22515	1452.3125
3089.60118	1464.8125
3091.97576	1434.9125
3094.3489	1444.3125
3096.72061	1437.9125
3099.09087	1426.6125
3101.4597	1439.6125
3103.82709	1425.6125
3106.19305	1418.8125
3108.55757	1423.4125
3110.92066	1426.3125
3113.28232	1428.8125
3115.64255	1433.0125
3118.00134	1431.9125
3120.35871	1405.5125
