Data from AgNPs_UA_20uM_CRN_500uM_SU_RamanShift__88__13-51-10-308.txt Node

Date: Thu Aug 04 13:51:10 BST 2022
User: TCL
Spectrometer: QEP01345
Trigger mode: 4
Integration Time (sec): 1.000000E0
Scans to average: 10
Electric dark correction enabled: true
Nonlinearity correction enabled: false
Boxcar width: 0
XAxis mode: Raman Shifts
Number of Pixels in Spectrum: 1044
>>>>>Begin Spectral Data<<<<<
46.04893	-1.625
50.45542	-0.425
54.85868	0.775
59.25871	0.675
63.6555	12.375
68.04907	11.975
72.43941	14.575
76.82654	14.275
81.21044	13.475
85.59113	15.075
89.96862	15.775
94.34289	14.775
98.71396	14.575
103.08183	17.875
107.4465	16.575
111.80798	18.775
116.16626	18.375
120.52136	19.675
124.87327	18.775
129.222	22.275
133.56755	21.075
137.90993	25.875
142.24913	25.175
146.58517	29.575
150.91804	36.775
155.24774	42.775
159.57429	56.675
163.89768	71.775
168.21792	93.475
172.53501	129.475
176.84895	176.975
181.15975	258.175
185.46741	361.975
189.77193	491.275
194.07331	664.675
198.37157	859.275
202.6667	1068.175
206.9587	1266.175
211.24758	1480.075
215.53334	1692.575
219.81599	1913.275
224.09553	2175.675
228.37195	2451.675
232.64527	2755.175
236.91549	3068.775
241.18261	3331.175
245.44663	3536.975
249.70755	3682.275
253.96539	3813.375
258.22014	3928.175
262.4718	4042.675
266.72039	4112.575
270.96589	4122.875
275.20832	4105.875
279.44768	4047.875
283.68397	3966.875
287.91719	3922.775
292.14735	3923.775
296.37445	4004.775
300.59849	4141.975
304.81948	4340.475
309.03742	4521.975
313.25231	4602.375
317.46415	4552.675
321.67296	4361.875
325.87872	4161.975
330.08145	4060.875
334.28114	4032.375
338.47781	4097.075
342.67145	4178.075
346.86207	4328.575
351.04966	4485.775
355.23424	4670.975
359.4158	4773.675
363.59435	4843.175
367.76989	4855.675
371.94243	4835.375
376.11196	4814.975
380.27849	4807.275
384.44203	4811.475
388.60257	4789.775
392.76012	4831.475
396.91468	4893.675
401.06626	4970.075
405.21485	4993.675
409.36047	4892.975
413.50311	4709.375
417.64277	4533.575
421.77947	4429.575
425.9132	4392.475
430.04396	4410.675
434.17176	4450.175
438.2966	4540.875
442.41849	4650.375
446.53742	4791.875
450.6534	4917.975
454.76644	4985.575
458.87653	4961.375
462.98368	4918.575
467.08789	4857.675
471.18916	4762.575
475.2875	4647.075
479.38291	4537.475
483.4754	4460.875
487.56496	4402.875
491.6516	4384.975
495.73531	4367.275
499.81612	4387.475
503.89401	4421.375
507.96899	4456.375
512.04106	4496.275
516.11023	4546.775
520.1765	4592.875
524.23987	4622.075
528.30034	4614.875
532.35792	4598.075
536.41261	4545.175
540.46441	4461.075
544.51333	4422.575
548.55936	4475.475
552.60252	4550.175
556.64279	4636.775
560.6802	4710.175
564.71473	4738.975
568.7464	4827.175
572.7752	4834.075
576.80114	4728.075
580.82422	4632.875
584.84444	4621.275
588.86181	4702.475
592.87633	4806.575
596.888	4928.175
600.89682	5088.175
604.9028	5690.075
608.90594	6968.175
612.90624	8285.375
616.90371	7583.975
620.89834	5705.675
624.89015	4937.275
628.87913	4850.475
632.86528	4895.275
636.84862	4896.475
640.82913	4763.775
644.80683	4582.175
648.78172	4457.775
652.75379	4486.875
656.72306	4657.075
660.68952	4813.475
664.65319	4760.375
668.61405	4604.075
672.57211	4565.875
676.52738	4557.275
680.47986	4509.575
684.42955	4453.075
688.37646	4435.075
692.32058	4460.775
696.26192	4537.875
700.20048	4617.875
704.13626	4626.075
708.06928	4576.175
711.99952	4536.175
715.927	4551.775
719.85171	4573.675
723.77365	4562.575
727.69284	4528.675
731.60928	4482.275
735.52295	4487.475
739.43388	4496.375
743.34206	4558.275
747.24749	4565.575
751.15017	4576.375
755.05012	4651.675
758.94733	4853.475
762.8418	5345.775
766.73354	6103.675
770.62254	6751.875
774.50882	6873.175
778.39237	6453.775
782.27321	5804.175
786.15132	5191.975
790.02671	4819.675
793.89938	4643.275
797.76935	4562.475
801.6366	4549.675
805.50115	4500.275
809.36299	4494.075
813.22213	4473.675
817.07857	4481.775
820.93231	4462.675
824.78336	4466.775
828.63172	4502.075
832.47738	4510.475
836.32036	4502.475
840.16066	4516.975
843.99827	4519.675
847.8332	4512.075
851.66546	4502.875
855.49504	4511.475
859.32195	4517.075
863.1462	4505.975
866.96777	4471.875
870.78668	4473.775
874.60293	4503.975
878.41652	4496.175
882.22745	4536.775
886.03573	4557.675
889.84136	4559.075
893.64433	4525.675
897.44466	4523.075
901.24235	4503.975
905.0374	4495.675
908.8298	4464.975
912.61957	4453.075
916.40671	4491.075
920.19121	4521.975
923.97308	4604.375
927.75233	4665.275
931.52895	4707.475
935.30295	4636.275
939.07433	4528.775
942.84309	4465.075
946.60924	4433.875
950.37278	4418.575
954.13371	4400.975
957.89203	4378.875
961.64774	4362.575
965.40086	4351.675
969.15137	4350.175
972.89929	4352.475
976.64461	4348.475
980.38733	4366.275
984.12747	4385.175
987.86502	4416.975
991.59999	4461.075
995.33237	4570.075
999.06217	4700.975
1002.78939	4852.975
1006.51404	4942.975
1010.23611	5032.575
1013.95561	5040.475
1017.67255	5067.575
1021.38692	5043.175
1025.09872	5002.775
1028.80796	5042.075
1032.51465	5127.075
1036.21877	5222.775
1039.92035	5213.875
1043.61937	5130.675
1047.31584	5050.275
1051.00976	4960.275
1054.70114	4909.775
1058.38998	4890.775
1062.07627	4891.575
1065.76003	4906.375
1069.44126	4954.575
1073.11995	5039.775
1076.79611	5107.675
1080.46974	5205.275
1084.14085	5301.375
1087.80943	5357.275
1091.47549	5398.575
1095.13903	5331.575
1098.80005	5225.075
1102.45857	5128.675
1106.11456	5072.775
1109.76805	5075.475
1113.41903	5131.775
1117.06751	5226.575
1120.71348	5380.775
1124.35696	5566.875
1127.99793	5672.775
1131.63641	5588.275
1135.2724	5398.375
1138.90589	5243.875
1142.5369	5143.375
1146.16542	5122.575
1149.79145	5096.875
1153.415	5054.875
1157.03607	5031.475
1160.65467	5081.675
1164.27079	5197.475
1167.88443	5404.875
1171.49561	5730.175
1175.10432	6220.675
1178.71056	6896.275
1182.31434	7469.975
1185.91565	7676.875
1189.51451	7540.775
1193.11091	7263.275
1196.70485	6933.775
1200.29634	6658.675
1203.88538	6427.575
1207.47197	6135.875
1211.05612	5911.875
1214.63782	5763.975
1218.21708	5685.375
1221.79391	5652.675
1225.36829	5662.675
1228.94024	5630.475
1232.50976	5565.375
1236.07685	5504.075
1239.6415	5467.875
1243.20374	5487.275
1246.76355	5557.475
1250.32093	5648.375
1253.8759	5809.075
1257.42845	5997.175
1260.97859	6180.275
1264.52631	6364.075
1268.07163	6487.175
1271.61453	6595.375
1275.15503	6688.175
1278.69312	6785.375
1282.22882	6891.575
1285.76211	6984.975
1289.29301	7131.575
1292.82151	7327.675
1296.34761	7547.075
1299.87133	7901.075
1303.39266	8476.175
1306.9116	9281.175
1310.42815	10082.475
1313.94233	10399.975
1317.45412	10018.475
1320.96354	9334.475
1324.47058	8660.075
1327.97525	8027.575
1331.47754	7661.375
1334.97747	7555.475
1338.47502	7624.575
1341.97022	7824.875
1345.46305	8184.875
1348.95352	8717.675
1352.44163	9347.075
1355.92738	10165.775
1359.41078	11279.675
1362.89183	12056.875
1366.37053	11455.075
1369.84688	9775.175
1373.32088	8200.475
1376.79254	7297.175
1380.26186	6899.975
1383.72883	6683.175
1387.19347	6510.375
1390.65578	6309.775
1394.11575	6154.675
1397.57339	6027.475
1401.0287	5985.875
1404.48168	5946.675
1407.93234	5966.375
1411.38068	6013.175
1414.82669	6046.075
1418.27039	6054.275
1421.71177	6016.475
1425.15083	5968.775
1428.58758	5969.275
1432.02203	6064.875
1435.45416	6174.875
1438.88399	6236.775
1442.31151	6219.375
1445.73673	6204.975
1449.15965	6205.575
1452.58027	6144.775
1455.9986	6070.975
1459.41463	6059.175
1462.82837	6107.275
1466.23982	6231.475
1469.64898	6345.975
1473.05586	6422.475
1476.46045	6495.275
1479.86276	6533.775
1483.26279	6591.675
1486.66054	6695.675
1490.05602	6881.475
1493.44922	7204.675
1496.84016	7676.875
1500.22882	8442.375
1503.61521	9362.675
1506.99934	10295.975
1510.38121	10838.275
1513.76081	10643.975
1517.13816	9792.375
1520.51324	8716.775
1523.88607	7857.275
1527.25665	7365.175
1530.62498	7119.975
1533.99105	6988.775
1537.35488	6903.175
1540.71647	6833.675
1544.07581	6795.275
1547.4329	6702.575
1550.78776	6613.075
1554.14038	6549.875
1557.49077	6505.675
1560.83892	6545.775
1564.18484	6687.875
1567.52853	6856.675
1570.86999	7006.975
1574.20922	7033.175
1577.54624	6920.275
1580.88103	6596.575
1584.2136	6257.575
1587.54395	6120.775
1590.87208	6247.075
1594.19801	6610.775
1597.52172	7098.575
1600.84321	7342.175
1604.16251	7259.875
1607.47959	6965.875
1610.79447	6581.275
1614.10715	6107.875
1617.41763	5722.375
1620.7259	5459.975
1624.03199	5352.175
1627.33587	5351.775
1630.63757	5460.775
1633.93707	5732.375
1637.23439	6176.475
1640.52951	6801.675
1643.82246	7623.375
1647.11321	8337.475
1650.40179	8554.375
1653.68819	8015.975
1656.97241	6965.175
1660.25446	5960.575
1663.53433	5283.075
1666.81203	4889.275
1670.08756	4680.475
1673.36092	4538.775
1676.63211	4459.875
1679.90115	4363.875
1683.16801	4318.075
1686.43272	4282.475
1689.69527	4269.475
1692.95567	4251.775
1696.2139	4229.875
1699.46999	4201.775
1702.72392	4219.575
1705.97571	4199.075
1709.22535	4214.775
1712.47284	4200.875
1715.71819	4183.275
1718.96139	4193.375
1722.20246	4185.875
1725.44139	4159.675
1728.67818	4138.975
1731.91284	4107.775
1735.14537	4099.275
1738.37576	4079.675
1741.60403	4061.175
1744.83017	4051.075
1748.05418	4054.275
1751.27607	4046.575
1754.49584	4024.175
1757.71349	4022.575
1760.92903	3993.975
1764.14244	4014.975
1767.35375	3998.375
1770.56294	3994.175
1773.77002	3992.775
1776.97499	3987.175
1780.17785	3961.675
1783.37861	3954.475
1786.57727	3950.175
1789.77382	3940.675
1792.96828	3930.975
1796.16064	3932.775
1799.3509	3916.775
1802.53907	3902.775
1805.72514	3929.775
1808.90913	3897.875
1812.09102	3891.775
1815.27083	3901.775
1818.44856	3874.875
1821.6242	3859.975
1824.79776	3873.075
1827.96924	3864.875
1831.13864	3859.775
1834.30597	3862.975
1837.47122	3847.775
1840.6344	3835.175
1843.7955	3832.275
1846.95454	3831.275
1850.11151	3838.575
1853.26642	3832.875
1856.41926	3820.775
1859.57004	3828.675
1862.71876	3832.775
1865.86542	3808.775
1869.01003	3815.375
1872.15258	3790.975
1875.29308	3830.375
1878.43152	3805.875
1881.56792	3807.675
1884.70227	3798.575
1887.83457	3811.975
1890.96482	3811.075
1894.09304	3787.175
1897.21921	3784.175
1900.34335	3771.775
1903.46544	3771.975
1906.58551	3783.975
1909.70353	3770.075
1912.81953	3779.475
1915.93349	3779.275
1919.04543	3753.275
1922.15534	3750.175
1925.26322	3743.275
1928.36908	3732.775
1931.47292	3734.475
1934.57473	3731.375
1937.67453	3720.475
1940.77232	3725.775
1943.86808	3712.975
1946.96184	3689.475
1950.05358	3705.075
1953.14331	3680.975
1956.23103	3654.975
1959.31675	3652.575
1962.40046	3637.575
1965.48217	3628.975
1968.56188	3612.975
1971.63959	3613.575
1974.7153	3593.675
1977.78901	3610.675
1980.86073	3588.575
1983.93046	3571.575
1986.99819	3558.275
1990.06394	3549.675
1993.1277	3542.475
1996.18947	3539.475
1999.24925	3516.475
2002.30706	3512.275
2005.36288	3489.775
2008.41672	3484.875
2011.46859	3475.475
2014.51848	3471.975
2017.56639	3452.375
2020.61233	3443.075
2023.6563	3452.175
2026.6983	3439.575
2029.73833	3439.575
2032.7764	3422.875
2035.8125	3410.175
2038.84664	3416.575
2041.87881	3416.175
2044.90903	3397.275
2047.93729	3392.475
2050.96359	3388.475
2053.98794	3396.175
2057.01034	3375.875
2060.03078	3375.275
2063.04927	3355.875
2066.06582	3372.575
2069.08042	3364.875
2072.09307	3365.675
2075.10378	3359.175
2078.11255	3353.275
2081.11938	3371.075
2084.12426	3357.475
2087.12722	3358.375
2090.12824	3353.875
2093.12732	3365.375
2096.12447	3369.075
2099.11969	3359.275
2102.11299	3376.175
2105.10435	3364.675
2108.09379	3349.475
2111.08131	3350.475
2114.0669	3365.575
2117.05057	3366.675
2120.03233	3353.275
2123.01216	3357.475
2125.99008	3366.375
2128.96609	3371.975
2131.94018	3385.275
2134.91236	3379.375
2137.88263	3374.275
2140.851	3375.975
2143.81746	3380.275
2146.78201	3384.875
2149.74466	3372.475
2152.7054	3377.375
2155.66425	3396.875
2158.6212	3381.175
2161.57625	3392.275
2164.52941	3374.875
2167.48067	3370.075
2170.43004	3376.275
2173.37752	3366.975
2176.32311	3378.575
2179.26681	3388.275
2182.20863	3377.175
2185.14856	3367.575
2188.08661	3375.275
2191.02278	3379.875
2193.95707	3383.775
2196.88948	3368.975
2199.82001	3380.675
2202.74867	3375.975
2205.67545	3381.375
2208.60037	3370.975
2211.52341	3373.575
2214.44458	3368.075
2217.36388	3349.875
2220.28132	3340.375
2223.1969	3339.875
2226.11061	3343.475
2229.02246	3317.775
2231.93245	3316.575
2234.84058	3315.475
2237.74686	3303.375
2240.65128	3307.175
2243.55385	3307.975
2246.45456	3303.675
2249.35343	3288.275
2252.25044	3291.775
2255.14561	3286.875
2258.03893	3300.075
2260.93041	3281.275
2263.82004	3274.575
2266.70783	3279.675
2269.59378	3261.175
2272.4779	3253.675
2275.36017	3250.675
2278.24061	3239.875
2281.11922	3236.475
2283.996	3227.475
2286.87094	3230.075
2289.74405	3218.575
2292.61534	3218.075
2295.4848	3209.075
2298.35243	3225.275
2301.21824	3215.375
2304.08223	3211.275
2306.94439	3228.675
2309.80474	3212.675
2312.66327	3225.275
2315.51999	3219.275
2318.37489	3200.475
2321.22797	3212.275
2324.07925	3198.975
2326.92871	3200.375
2329.77637	3211.775
2332.62222	3199.275
2335.46626	3190.775
2338.3085	3203.275
2341.14893	3207.075
2343.98756	3190.275
2346.8244	3196.375
2349.65943	3192.575
2352.49267	3189.375
2355.32411	3192.775
2358.15376	3189.575
2360.98161	3195.375
2363.80768	3191.975
2366.63195	3196.075
2369.45444	3175.675
2372.27514	3176.175
2375.09405	3179.675
2377.91118	3174.075
2380.72652	3166.675
2383.54009	3151.475
2386.35187	3134.475
2389.16188	3148.875
2391.97011	3138.875
2394.77657	3127.575
2397.58125	3121.375
2400.38416	3118.475
2403.18529	3112.975
2405.98466	3113.375
2408.78226	3106.375
2411.57809	3087.575
2414.37216	3090.875
2417.16446	3103.475
2419.955	3082.675
2422.74378	3077.975
2425.5308	3067.875
2428.31606	3066.275
2431.09956	3077.075
2433.88131	3069.175
2436.6613	3071.975
2439.43954	3073.275
2442.21603	3063.775
2444.99077	3071.975
2447.76377	3068.375
2450.53501	3061.475
2453.30451	3063.775
2456.07226	3052.475
2458.83827	3050.175
2461.60254	3053.675
2464.36507	3054.675
2467.12586	3044.075
2469.88492	3053.075
2472.64224	3051.475
2475.39782	3058.675
2478.15167	3054.675
2480.90379	3050.175
2483.65417	3060.075
2486.40283	3067.475
2489.14976	3056.175
2491.89497	3074.375
2494.63845	3063.475
2497.3802	3058.075
2500.12024	3054.175
2502.85855	3039.675
2505.59514	3049.175
2508.33002	3035.475
2511.06318	3017.475
2513.79462	3020.775
2516.52435	3016.975
2519.25237	3026.575
2521.97867	3015.475
2524.70327	3023.375
2527.42616	3008.475
2530.14734	3008.375
2532.86681	2998.375
2535.58458	3009.175
2538.30065	2999.375
2541.01501	2993.875
2543.72768	3004.175
2546.43864	3008.775
2549.14791	3000.375
2551.85548	3008.975
2554.56136	2996.575
2557.26554	2988.075
2559.96803	2982.675
2562.66883	2975.775
2565.36794	2976.175
2568.06536	2964.375
2570.7611	2955.575
2573.45514	2963.775
2576.14751	2960.175
2578.83819	2957.375
2581.52719	2948.575
2584.21451	2953.775
2586.90015	2936.675
2589.58411	2932.675
2592.2664	2943.875
2594.94701	2929.675
2597.62594	2938.275
2600.30321	2940.975
2602.9788	2931.475
2605.65273	2925.675
2608.32498	2928.175
2610.99557	2913.875
2613.66449	2928.275
2616.33175	2925.175
2618.99734	2914.275
2621.66128	2910.675
2624.32355	2926.975
2626.98416	2920.675
2629.64311	2918.675
2632.30041	2916.175
2634.95605	2904.675
2637.61004	2917.575
2640.26238	2909.475
2642.91306	2888.475
2645.56209	2907.075
2648.20948	2890.575
2650.85521	2880.975
2653.4993	2890.475
2656.14175	2884.475
2658.78255	2895.575
2661.42171	2889.775
2664.05923	2902.875
2666.6951	2909.575
2669.32934	2902.575
2671.96194	2899.275
2674.59291	2896.175
2677.22224	2907.175
2679.84993	2905.775
2682.476	2900.775
2685.10043	2893.675
2687.72324	2883.775
2690.34441	2881.275
2692.96396	2872.775
2695.58188	2873.375
2698.19818	2890.275
2700.81285	2878.175
2703.4259	2882.875
2706.03733	2869.275
2708.64714	2872.175
2711.25533	2860.675
2713.86191	2860.275
2716.46687	2872.775
2719.07021	2869.675
2721.67194	2877.675
2724.27206	2880.175
2726.87057	2869.175
2729.46747	2882.475
2732.06276	2880.675
2734.65644	2877.875
2737.24852	2867.175
2739.83899	2857.575
2742.42786	2866.275
2745.01513	2871.375
2747.60079	2853.375
2750.18486	2866.575
2752.76733	2848.375
2755.3482	2859.675
2757.92747	2838.775
2760.50515	2843.175
2763.08123	2848.375
2765.65573	2822.775
2768.22863	2836.075
2770.79994	2825.675
2773.36967	2833.475
2775.9378	2828.575
2778.50435	2828.775
2781.06932	2827.675
2783.6327	2821.575
2786.1945	2828.575
2788.75471	2798.175
2791.31335	2811.775
2793.87041	2811.175
2796.42589	2801.775
2798.97979	2789.975
2801.53212	2796.175
2804.08288	2804.375
2806.63206	2797.675
2809.17967	2792.075
2811.72571	2774.475
2814.27018	2791.875
2816.81308	2770.775
2819.35442	2755.175
2821.89419	2760.275
2824.43239	2753.875
2826.96904	2755.275
2829.50412	2745.675
2832.03763	2742.575
2834.56959	2739.875
2837.1	2739.975
2839.62884	2730.775
2842.15613	2738.775
2844.68186	2735.875
2847.20604	2730.775
2849.72867	2720.075
2852.24974	2718.875
2854.76927	2705.475
2857.28724	2711.475
2859.80367	2704.275
2862.31855	2701.375
2864.83189	2698.575
2867.34368	2705.975
2869.85393	2701.975
2872.36264	2712.275
2874.8698	2704.275
2877.37543	2693.975
2879.87952	2681.775
2882.38207	2693.175
2884.88308	2689.775
2887.38256	2694.575
2889.88051	2685.175
2892.37692	2691.775
2894.8718	2692.175
2897.36515	2681.975
2899.85698	2686.675
2902.34727	2705.875
2904.83604	2680.175
2907.32328	2695.175
2909.809	2701.975
2912.29319	2712.475
2914.77587	2698.675
2917.25702	2705.375
2919.73665	2712.375
2922.21476	2696.075
2924.69136	2707.975
2927.16644	2702.675
2929.64	2691.075
2932.11205	2682.075
2934.58258	2682.175
2937.05161	2670.275
2939.51912	2678.675
2941.98513	2670.275
2944.44962	2663.275
2946.91261	2653.375
2949.37409	2659.075
2951.83407	2671.575
2954.29254	2668.275
2956.74951	2674.875
2959.20498	2654.075
2961.65895	2653.275
2964.11142	2651.575
2966.56239	2649.375
2969.01186	2655.575
2971.45984	2650.375
2973.90632	2642.075
2976.35131	2646.675
2978.7948	2625.275
2981.23681	2615.875
2983.67732	2613.675
2986.11635	2614.275
2988.55388	2628.575
2990.98993	2611.375
2993.4245	2593.875
2995.85758	2598.575
2998.28917	2604.375
3000.71928	2592.175
3003.14791	2579.475
3005.57506	2576.275
3008.00073	2571.775
3010.42493	2566.275
3012.84764	2548.475
3015.26888	2542.675
3017.68865	2544.875
3020.10694	2545.275
3022.52376	2547.275
3024.9391	2534.775
3027.35298	2521.975
3029.76539	2523.775
3032.17632	2508.375
3034.5858	2514.475
3036.9938	2519.775
3039.40034	2505.675
3041.80542	2492.775
3044.20903	2498.175
3046.61118	2496.975
3049.01187	2485.675
3051.4111	2483.275
3053.80888	2481.975
3056.20519	2473.875
3058.60005	2454.575
3060.99345	2453.075
3063.3854	2466.875
3065.7759	2469.175
3068.16494	2461.275
3070.55254	2444.275
3072.93868	2441.075
3075.32338	2436.775
3077.70662	2418.875
3080.08842	2430.575
3082.46878	2422.275
3084.84769	2413.175
3087.22515	2409.675
3089.60118	2414.375
3091.97576	2405.275
3094.3489	2407.575
3096.72061	2414.375
3099.09087	2402.575
3101.4597	2396.975
3103.82709	2403.975
3106.19305	2395.775
3108.55757	2396.275
3110.92066	2396.275
3113.28232	2398.175
3115.64255	2383.975
3118.00134	2387.875
3120.35871	2372.675
3122.71466	2378.575
3125.06917	2377.675
3127.42226	2351.075
3129.77393	2366.175
3132.12417	2357.475
3134.47299	2346.275
3136.82039	2341.775
3139.16636	2351.675
3141.51092	2345.275
3143.85406	2356.475
3146.19579	2355.075
3148.53609	2346.175
3150.87499	2361.275
3153.21246	2351.375
3155.54853	2355.075
3157.88318	2353.975
3160.21642	2345.675
3162.54826	2354.475
3164.87868	2355.675
3167.2077	2345.875
3169.5353	2353.975
3171.86151	2345.375
3174.18631	2331.575
3176.5097	2335.175
3178.83169	2323.075
3181.15228	2330.175
3183.47147	2333.275
3185.78926	2312.075
3188.10565	2302.675
3190.42065	2310.575
3192.73424	2312.975
3195.04645	2300.775
3197.35725	2305.775
3199.66667	2294.575
3201.97469	2290.975
3204.28132	2291.675
3206.58656	2292.775
3208.8904	2305.275
3211.19287	2307.175
3213.49394	2318.975
3215.79363	2298.375
3218.09193	2308.075
3220.38884	2286.875
3222.68438	2301.575
3224.97853	2305.875
3227.2713	2298.575
3229.56269	2300.575
3231.8527	2298.475
3234.14133	2291.075
3236.42858	2286.075
3238.71446	2288.575
