Data from AgNPs_UA_10uM_CRN_500uM_SU_RamanShift__4__13-06-00-254.txt Node

Date: Thu Aug 04 13:06:00 BST 2022
User: TCL
Spectrometer: QEP01345
Trigger mode: 4
Integration Time (sec): 1.000000E0
Scans to average: 10
Electric dark correction enabled: true
Nonlinearity correction enabled: false
Boxcar width: 0
XAxis mode: Raman Shifts
Number of Pixels in Spectrum: 1044
>>>>>Begin Spectral Data<<<<<
46.04893	0.4125
50.45542	-1.0875
54.85868	1.5125
59.25871	0.0125
63.6555	16.8125
68.04907	16.5125
72.43941	18.7125
76.82654	19.3125
81.21044	18.5125
85.59113	21.1125
89.96862	21.9125
94.34289	23.4125
98.71396	22.3125
103.08183	25.4125
107.4465	23.5125
111.80798	25.0125
116.16626	24.3125
120.52136	26.1125
124.87327	27.9125
129.222	27.9125
133.56755	28.1125
137.90993	33.1125
142.24913	36.3125
146.58517	42.5125
150.91804	48.6125
155.24774	62.8125
159.57429	75.8125
163.89768	100.9125
168.21792	135.7125
172.53501	183.7125
176.84895	260.2125
181.15975	376.7125
185.46741	526.2125
189.77193	732.2125
194.07331	989.8125
198.37157	1281.0125
202.6667	1596.3125
206.9587	1901.1125
211.24758	2217.7125
215.53334	2521.0125
219.81599	2863.4125
224.09553	3232.4125
228.37195	3668.8125
232.64527	4101.8125
236.91549	4541.5125
241.18261	4930.2125
245.44663	5237.4125
249.70755	5474.0125
253.96539	5681.4125
258.22014	5855.3125
262.4718	5991.5125
266.72039	6084.5125
270.96589	6104.0125
275.20832	6055.6125
279.44768	5961.6125
283.68397	5857.6125
287.91719	5802.8125
292.14735	5833.1125
296.37445	5919.9125
300.59849	6109.6125
304.81948	6354.2125
309.03742	6573.9125
313.25231	6726.8125
317.46415	6674.0125
321.67296	6419.9125
325.87872	6141.4125
330.08145	6001.2125
334.28114	5983.9125
338.47781	6057.0125
342.67145	6159.8125
346.86207	6359.2125
351.04966	6614.1125
355.23424	6914.2125
359.4158	7096.4125
363.59435	7154.2125
367.76989	7131.8125
371.94243	7094.9125
376.11196	7043.1125
380.27849	7054.3125
384.44203	7051.2125
388.60257	7091.8125
392.76012	7159.4125
396.91468	7249.4125
401.06626	7384.8125
405.21485	7410.6125
409.36047	7316.8125
413.50311	7111.5125
417.64277	6884.9125
421.77947	6757.6125
425.9132	6675.8125
430.04396	6670.1125
434.17176	6669.7125
438.2966	6736.9125
442.41849	6834.0125
446.53742	6985.3125
450.6534	7104.6125
454.76644	7218.6125
458.87653	7275.8125
462.98368	7264.9125
467.08789	7208.9125
471.18916	7133.1125
475.2875	6987.7125
479.38291	6873.8125
483.4754	6771.3125
487.56496	6723.5125
491.6516	6712.4125
495.73531	6717.6125
499.81612	6735.9125
503.89401	6834.7125
507.96899	6853.3125
512.04106	6899.1125
516.11023	6946.2125
520.1765	6988.2125
524.23987	6995.8125
528.30034	6980.2125
532.35792	6964.0125
536.41261	6899.1125
540.46441	6840.9125
544.51333	6799.5125
548.55936	6860.1125
552.60252	6947.7125
556.64279	7051.1125
560.6802	7165.0125
564.71473	7260.6125
568.7464	7339.2125
572.7752	7274.5125
576.80114	7080.6125
580.82422	6922.8125
584.84444	6847.8125
588.86181	6816.6125
592.87633	6851.1125
596.888	6973.7125
600.89682	7305.3125
604.9028	8155.8125
608.90594	9906.9125
612.90624	11633.9125
616.90371	10716.7125
620.89834	8374.9125
624.89015	7364.4125
628.87913	7299.9125
632.86528	7444.2125
636.84862	7561.2125
640.82913	7384.0125
644.80683	7095.2125
648.78172	6957.6125
652.75379	6974.4125
656.72306	7164.0125
660.68952	7369.2125
664.65319	7328.5125
668.61405	7270.1125
672.57211	7299.1125
676.52738	7288.3125
680.47986	7112.5125
684.42955	6963.6125
688.37646	6915.1125
692.32058	6950.6125
696.26192	7086.5125
700.20048	7232.9125
704.13626	7271.3125
708.06928	7177.2125
711.99952	7095.6125
715.927	7086.8125
719.85171	7126.6125
723.77365	7145.6125
727.69284	7113.1125
731.60928	7041.6125
735.52295	7062.1125
739.43388	7063.7125
743.34206	7097.3125
747.24749	7088.8125
751.15017	7075.1125
755.05012	7164.7125
758.94733	7434.7125
762.8418	8088.8125
766.73354	9067.6125
770.62254	9783.7125
774.50882	9930.6125
778.39237	9639.9125
782.27321	9038.9125
786.15132	8251.7125
790.02671	7675.7125
793.89938	7372.3125
797.76935	7237.7125
801.6366	7142.5125
805.50115	7083.1125
809.36299	7042.7125
813.22213	7035.5125
817.07857	7041.5125
820.93231	7046.7125
824.78336	7055.2125
828.63172	7093.4125
832.47738	7101.2125
836.32036	7090.1125
840.16066	7046.5125
843.99827	7023.6125
847.8332	7054.9125
851.66546	7059.3125
855.49504	7042.5125
859.32195	7082.1125
863.1462	7080.8125
866.96777	7072.4125
870.78668	7072.3125
874.60293	7107.1125
878.41652	7128.9125
882.22745	7179.2125
886.03573	7229.1125
889.84136	7225.7125
893.64433	7194.1125
897.44466	7181.9125
901.24235	7165.1125
905.0374	7140.7125
908.8298	7125.9125
912.61957	7112.7125
916.40671	7111.6125
920.19121	7124.8125
923.97308	7152.6125
927.75233	7233.8125
931.52895	7298.4125
935.30295	7227.4125
939.07433	7124.5125
942.84309	7055.8125
946.60924	7006.1125
950.37278	7012.3125
954.13371	6993.4125
957.89203	7010.9125
961.64774	7007.8125
965.40086	7004.3125
969.15137	6993.8125
972.89929	7006.5125
976.64461	6982.3125
980.38733	6994.6125
984.12747	7007.0125
987.86502	7067.2125
991.59999	7064.2125
995.33237	7089.2125
999.06217	7156.4125
1002.78939	7229.8125
1006.51404	7373.2125
1010.23611	7498.1125
1013.95561	7566.7125
1017.67255	7594.7125
1021.38692	7573.2125
1025.09872	7508.6125
1028.80796	7431.0125
1032.51465	7391.4125
1036.21877	7416.2125
1039.92035	7429.6125
1043.61937	7458.4125
1047.31584	7506.7125
1051.00976	7540.8125
1054.70114	7548.4125
1058.38998	7562.4125
1062.07627	7603.9125
1065.76003	7661.6125
1069.44126	7747.8125
1073.11995	7904.6125
1076.79611	8081.0125
1080.46974	8176.3125
1084.14085	8241.4125
1087.80943	8347.2125
1091.47549	8404.0125
1095.13903	8391.9125
1098.80005	8457.8125
1102.45857	8530.7125
1106.11456	8496.9125
1109.76805	8343.0125
1113.41903	8308.7125
1117.06751	8399.8125
1120.71348	8513.9125
1124.35696	8712.7125
1127.99793	8843.7125
1131.63641	8684.5125
1135.2724	8383.8125
1138.90589	8189.0125
1142.5369	8064.6125
1146.16542	8013.7125
1149.79145	7947.0125
1153.415	7867.3125
1157.03607	7841.4125
1160.65467	7871.4125
1164.27079	8048.0125
1167.88443	8300.7125
1171.49561	8664.7125
1175.10432	9178.7125
1178.71056	9878.5125
1182.31434	10522.2125
1185.91565	10713.5125
1189.51451	10730.5125
1193.11091	10652.9125
1196.70485	10478.8125
1200.29634	10291.8125
1203.88538	10045.9125
1207.47197	9664.3125
1211.05612	9296.4125
1214.63782	8937.6125
1218.21708	8642.8125
1221.79391	8459.5125
1225.36829	8384.8125
1228.94024	8380.6125
1232.50976	8397.4125
1236.07685	8410.0125
1239.6415	8463.7125
1243.20374	8490.1125
1246.76355	8547.7125
1250.32093	8624.7125
1253.8759	8737.3125
1257.42845	8935.9125
1260.97859	9172.7125
1264.52631	9396.3125
1268.07163	9579.4125
1271.61453	9652.9125
1275.15503	9656.9125
1278.69312	9637.2125
1282.22882	9631.3125
1285.76211	9700.9125
1289.29301	9863.2125
1292.82151	10046.3125
1296.34761	10230.4125
1299.87133	10518.3125
1303.39266	11060.4125
1306.9116	11896.3125
1310.42815	12773.7125
1313.94233	13080.1125
1317.45412	12599.8125
1320.96354	11901.1125
1324.47058	11213.3125
1327.97525	10680.3125
1331.47754	10323.9125
1334.97747	10229.1125
1338.47502	10370.4125
1341.97022	10736.0125
1345.46305	11441.6125
1348.95352	12425.2125
1352.44163	13543.9125
1355.92738	14615.6125
1359.41078	15702.2125
1362.89183	16464.4125
1366.37053	15646.7125
1369.84688	13453.4125
1373.32088	11488.1125
1376.79254	10408.5125
1380.26186	9873.5125
1383.72883	9519.6125
1387.19347	9205.8125
1390.65578	8887.5125
1394.11575	8646.7125
1397.57339	8479.8125
1401.0287	8385.9125
1404.48168	8372.2125
1407.93234	8427.0125
1411.38068	8548.9125
1414.82669	8684.1125
1418.27039	8726.4125
1421.71177	8691.9125
1425.15083	8605.7125
1428.58758	8487.5125
1432.02203	8503.4125
1435.45416	8492.1125
1438.88399	8478.6125
1442.31151	8483.8125
1445.73673	8521.1125
1449.15965	8520.7125
1452.58027	8517.0125
1455.9986	8520.5125
1459.41463	8519.2125
1462.82837	8605.6125
1466.23982	8770.2125
1469.64898	8972.3125
1473.05586	9102.8125
1476.46045	9213.4125
1479.86276	9329.5125
1483.26279	9454.8125
1486.66054	9607.0125
1490.05602	9898.6125
1493.44922	10345.9125
1496.84016	11040.8125
1500.22882	12101.8125
1503.61521	13325.5125
1506.99934	14480.7125
1510.38121	15195.0125
1513.76081	14966.0125
1517.13816	13840.9125
1520.51324	12345.8125
1523.88607	11163.2125
1527.25665	10446.9125
1530.62498	10083.9125
1533.99105	9929.1125
1537.35488	9829.9125
1540.71647	9749.5125
1544.07581	9653.4125
1547.4329	9539.1125
1550.78776	9426.3125
1554.14038	9318.2125
1557.49077	9285.3125
1560.83892	9353.1125
1564.18484	9591.7125
1567.52853	9833.9125
1570.86999	10009.8125
1574.20922	10106.7125
1577.54624	9984.8125
1580.88103	9580.6125
1584.2136	9123.5125
1587.54395	8827.3125
1590.87208	8786.8125
1594.19801	8986.4125
1597.52172	9298.3125
1600.84321	9397.5125
1604.16251	9348.4125
1607.47959	9216.9125
1610.79447	9019.6125
1614.10715	8704.3125
1617.41763	8354.2125
1620.7259	8077.8125
1624.03199	7910.0125
1627.33587	7843.8125
1630.63757	7888.6125
1633.93707	8093.8125
1637.23439	8504.7125
1640.52951	9177.0125
1643.82246	10100.3125
1647.11321	11070.9125
1650.40179	11584.6125
1653.68819	11132.8125
1656.97241	9984.1125
1660.25446	8822.3125
1663.53433	8001.2125
1666.81203	7498.9125
1670.08756	7237.0125
1673.36092	7029.4125
1676.63211	6926.4125
1679.90115	6854.4125
1683.16801	6776.0125
1686.43272	6716.8125
1689.69527	6659.2125
1692.95567	6638.4125
1696.2139	6617.3125
1699.46999	6591.1125
1702.72392	6584.8125
1705.97571	6587.8125
1709.22535	6568.6125
1712.47284	6562.8125
1715.71819	6555.4125
1718.96139	6560.8125
1722.20246	6555.2125
1725.44139	6538.6125
1728.67818	6493.7125
1731.91284	6455.9125
1735.14537	6430.5125
1738.37576	6426.3125
1741.60403	6364.9125
1744.83017	6359.9125
1748.05418	6350.6125
1751.27607	6347.5125
1754.49584	6314.3125
1757.71349	6318.1125
1760.92903	6313.4125
1764.14244	6281.9125
1767.35375	6269.4125
1770.56294	6262.9125
1773.77002	6255.8125
1776.97499	6224.9125
1780.17785	6204.1125
1783.37861	6181.6125
1786.57727	6171.7125
1789.77382	6160.6125
1792.96828	6173.2125
1796.16064	6128.6125
1799.3509	6137.2125
1802.53907	6121.5125
1805.72514	6125.5125
1808.90913	6105.1125
1812.09102	6061.9125
1815.27083	6052.8125
1818.44856	6043.9125
1821.6242	6039.7125
1824.79776	6014.4125
1827.96924	6008.9125
1831.13864	5992.2125
1834.30597	5983.6125
1837.47122	5976.6125
1840.6344	5957.2125
1843.7955	5968.5125
1846.95454	5956.5125
1850.11151	5935.4125
1853.26642	5944.5125
1856.41926	5947.0125
1859.57004	5938.1125
1862.71876	5950.1125
1865.86542	5930.6125
1869.01003	5914.5125
1872.15258	5904.8125
1875.29308	5900.9125
1878.43152	5891.9125
1881.56792	5863.1125
1884.70227	5854.9125
1887.83457	5847.0125
1890.96482	5838.7125
1894.09304	5826.5125
1897.21921	5801.0125
1900.34335	5790.5125
1903.46544	5800.1125
1906.58551	5803.0125
1909.70353	5792.6125
1912.81953	5777.2125
1915.93349	5772.9125
1919.04543	5759.4125
1922.15534	5757.1125
1925.26322	5745.2125
1928.36908	5712.3125
1931.47292	5709.6125
1934.57473	5697.5125
1937.67453	5677.8125
1940.77232	5654.3125
1943.86808	5645.4125
1946.96184	5623.5125
1950.05358	5616.4125
1953.14331	5598.8125
1956.23103	5592.3125
1959.31675	5568.3125
1962.40046	5559.7125
1965.48217	5530.0125
1968.56188	5527.4125
1971.63959	5495.6125
1974.7153	5477.9125
1977.78901	5485.7125
1980.86073	5483.9125
1983.93046	5418.2125
1986.99819	5391.8125
1990.06394	5402.0125
1993.1277	5381.0125
1996.18947	5341.2125
1999.24925	5321.8125
2002.30706	5318.5125
2005.36288	5288.7125
2008.41672	5264.2125
2011.46859	5263.5125
2014.51848	5229.1125
2017.56639	5224.1125
2020.61233	5202.5125
2023.6563	5194.3125
2026.6983	5173.9125
2029.73833	5162.6125
2032.7764	5143.6125
2035.8125	5150.0125
2038.84664	5117.7125
2041.87881	5103.6125
2044.90903	5100.7125
2047.93729	5092.2125
2050.96359	5072.6125
2053.98794	5062.0125
2057.01034	5058.7125
2060.03078	5061.5125
2063.04927	5032.7125
2066.06582	5026.3125
2069.08042	5044.1125
2072.09307	5018.4125
2075.10378	5011.7125
2078.11255	4998.2125
2081.11938	5000.5125
2084.12426	4994.4125
2087.12722	4989.6125
2090.12824	4997.8125
2093.12732	5002.4125
2096.12447	4992.0125
2099.11969	5005.0125
2102.11299	5014.6125
2105.10435	5009.1125
2108.09379	4988.8125
2111.08131	4988.3125
2114.0669	4994.4125
2117.05057	4996.7125
2120.03233	5031.3125
2123.01216	5015.9125
2125.99008	5003.2125
2128.96609	5003.9125
2131.94018	5008.6125
2134.91236	4998.9125
2137.88263	4992.5125
2140.851	4997.0125
2143.81746	4992.1125
2146.78201	4987.0125
2149.74466	4982.8125
2152.7054	4996.8125
2155.66425	4986.7125
2158.6212	4983.2125
2161.57625	4972.4125
2164.52941	4988.0125
2167.48067	4967.6125
2170.43004	4965.1125
2173.37752	4958.4125
2176.32311	4956.7125
2179.26681	4965.4125
2182.20863	4961.6125
2185.14856	4961.0125
2188.08661	4950.6125
2191.02278	4950.3125
2193.95707	4960.9125
2196.88948	4926.7125
2199.82001	4932.7125
2202.74867	4936.9125
2205.67545	4946.9125
2208.60037	4926.1125
2211.52341	4912.6125
2214.44458	4892.8125
2217.36388	4882.3125
2220.28132	4862.2125
2223.1969	4830.9125
2226.11061	4828.6125
2229.02246	4822.6125
2231.93245	4818.3125
2234.84058	4803.6125
2237.74686	4800.5125
2240.65128	4785.5125
2243.55385	4784.0125
2246.45456	4769.1125
2249.35343	4774.4125
2252.25044	4759.2125
2255.14561	4766.3125
2258.03893	4744.7125
2260.93041	4748.0125
2263.82004	4730.8125
2266.70783	4721.7125
2269.59378	4694.3125
2272.4779	4705.8125
2275.36017	4683.4125
2278.24061	4671.0125
2281.11922	4650.1125
2283.996	4641.5125
2286.87094	4641.9125
2289.74405	4622.5125
2292.61534	4630.3125
2295.4848	4616.5125
2298.35243	4611.5125
2301.21824	4602.3125
2304.08223	4592.2125
2306.94439	4591.5125
2309.80474	4593.9125
2312.66327	4594.1125
2315.51999	4572.5125
2318.37489	4567.3125
2321.22797	4533.6125
2324.07925	4534.5125
2326.92871	4521.9125
2329.77637	4530.1125
2332.62222	4509.2125
2335.46626	4500.8125
2338.3085	4478.3125
2341.14893	4502.5125
2343.98756	4490.9125
2346.8244	4484.2125
2349.65943	4481.5125
2352.49267	4469.3125
2355.32411	4457.6125
2358.15376	4457.7125
2360.98161	4469.4125
2363.80768	4466.3125
2366.63195	4469.5125
2369.45444	4448.0125
2372.27514	4451.1125
2375.09405	4460.1125
2377.91118	4434.6125
2380.72652	4425.6125
2383.54009	4419.4125
2386.35187	4407.6125
2389.16188	4387.7125
2391.97011	4372.9125
2394.77657	4367.3125
2397.58125	4352.1125
2400.38416	4353.3125
2403.18529	4335.3125
2405.98466	4322.5125
2408.78226	4314.3125
2411.57809	4314.8125
2414.37216	4296.4125
2417.16446	4305.4125
2419.955	4312.0125
2422.74378	4298.8125
2425.5308	4261.2125
2428.31606	4290.8125
2431.09956	4282.4125
2433.88131	4279.2125
2436.6613	4263.0125
2439.43954	4265.8125
2442.21603	4263.6125
2444.99077	4253.9125
2447.76377	4247.7125
2450.53501	4240.1125
2453.30451	4255.6125
2456.07226	4225.5125
2458.83827	4226.1125
2461.60254	4223.0125
2464.36507	4208.0125
2467.12586	4189.6125
2469.88492	4207.9125
2472.64224	4199.9125
2475.39782	4201.0125
2478.15167	4189.9125
2480.90379	4174.7125
2483.65417	4165.7125
2486.40283	4175.6125
2489.14976	4181.0125
2491.89497	4177.8125
2494.63845	4172.9125
2497.3802	4173.2125
2500.12024	4161.0125
2502.85855	4150.6125
2505.59514	4142.5125
2508.33002	4152.5125
2511.06318	4127.5125
2513.79462	4092.7125
2516.52435	4100.7125
2519.25237	4098.2125
2521.97867	4082.8125
2524.70327	4073.9125
2527.42616	4075.5125
2530.14734	4062.5125
2532.86681	4053.5125
2535.58458	4054.4125
2538.30065	4063.5125
2541.01501	4041.1125
2543.72768	4039.6125
2546.43864	4039.3125
2549.14791	4032.2125
2551.85548	4023.4125
2554.56136	4016.1125
2557.26554	4001.1125
2559.96803	4001.7125
2562.66883	3992.6125
2565.36794	3965.3125
2568.06536	3970.1125
2570.7611	3945.0125
2573.45514	3929.5125
2576.14751	3931.4125
2578.83819	3914.7125
2581.52719	3929.8125
2584.21451	3923.3125
2586.90015	3903.8125
2589.58411	3901.8125
2592.2664	3888.9125
2594.94701	3881.4125
2597.62594	3881.3125
2600.30321	3865.9125
2602.9788	3865.4125
2605.65273	3865.2125
2608.32498	3853.3125
2610.99557	3829.9125
2613.66449	3837.6125
2616.33175	3844.6125
2618.99734	3816.7125
2621.66128	3794.1125
2624.32355	3802.6125
2626.98416	3798.4125
2629.64311	3774.6125
2632.30041	3780.9125
2634.95605	3775.4125
2637.61004	3757.9125
2640.26238	3751.4125
2642.91306	3755.4125
2645.56209	3738.6125
2648.20948	3740.2125
2650.85521	3725.1125
2653.4993	3729.7125
2656.14175	3721.2125
2658.78255	3722.9125
2661.42171	3723.2125
2664.05923	3725.0125
2666.6951	3722.2125
2669.32934	3743.2125
2671.96194	3732.5125
2674.59291	3733.1125
2677.22224	3728.0125
2679.84993	3733.0125
2682.476	3716.0125
2685.10043	3730.0125
2687.72324	3716.4125
2690.34441	3730.8125
2692.96396	3718.2125
2695.58188	3710.0125
2698.19818	3717.8125
2700.81285	3712.4125
2703.4259	3700.2125
2706.03733	3697.5125
2708.64714	3689.7125
2711.25533	3691.7125
2713.86191	3692.3125
2716.46687	3686.6125
2719.07021	3681.7125
2721.67194	3698.8125
2724.27206	3689.7125
2726.87057	3674.1125
2729.46747	3680.7125
2732.06276	3674.9125
2734.65644	3679.6125
2737.24852	3670.6125
2739.83899	3656.6125
2742.42786	3655.2125
2745.01513	3636.4125
2747.60079	3635.5125
2750.18486	3619.9125
2752.76733	3616.5125
2755.3482	3613.0125
2757.92747	3613.2125
2760.50515	3615.9125
2763.08123	3600.3125
2765.65573	3584.6125
2768.22863	3585.6125
2770.79994	3565.5125
2773.36967	3554.7125
2775.9378	3547.6125
2778.50435	3556.6125
2781.06932	3550.1125
2783.6327	3541.9125
2786.1945	3557.0125
2788.75471	3526.2125
2791.31335	3511.7125
2793.87041	3516.7125
2796.42589	3496.9125
2798.97979	3493.5125
2801.53212	3502.7125
2804.08288	3480.1125
2806.63206	3466.8125
2809.17967	3481.8125
2811.72571	3465.4125
2814.27018	3459.2125
2816.81308	3443.2125
2819.35442	3447.0125
2821.89419	3443.2125
2824.43239	3429.6125
2826.96904	3416.5125
2829.50412	3420.2125
2832.03763	3410.6125
2834.56959	3398.4125
2837.1	3386.8125
2839.62884	3374.3125
2842.15613	3374.0125
2844.68186	3380.2125
2847.20604	3369.8125
2849.72867	3370.9125
2852.24974	3359.5125
2854.76927	3355.2125
2857.28724	3335.1125
2859.80367	3346.5125
2862.31855	3336.1125
2864.83189	3341.4125
2867.34368	3349.9125
2869.85393	3338.9125
2872.36264	3324.9125
2874.8698	3316.7125
2877.37543	3320.7125
2879.87952	3307.7125
2882.38207	3307.1125
2884.88308	3299.0125
2887.38256	3294.4125
2889.88051	3304.7125
2892.37692	3288.5125
2894.8718	3284.6125
2897.36515	3295.3125
2899.85698	3282.7125
2902.34727	3279.4125
2904.83604	3293.6125
2907.32328	3289.0125
2909.809	3293.4125
2912.29319	3302.3125
2914.77587	3296.7125
2917.25702	3303.4125
2919.73665	3303.4125
2922.21476	3288.2125
2924.69136	3291.4125
2927.16644	3287.0125
2929.64	3277.9125
2932.11205	3260.8125
2934.58258	3242.3125
2937.05161	3263.2125
2939.51912	3246.8125
2941.98513	3248.7125
2944.44962	3226.7125
2946.91261	3227.5125
2949.37409	3214.2125
2951.83407	3217.1125
2954.29254	3226.8125
2956.74951	3214.9125
2959.20498	3214.4125
2961.65895	3208.0125
2964.11142	3212.5125
2966.56239	3206.1125
2969.01186	3206.6125
2971.45984	3208.1125
2973.90632	3187.1125
2976.35131	3187.6125
2978.7948	3187.1125
2981.23681	3182.7125
2983.67732	3173.7125
2986.11635	3150.1125
2988.55388	3132.4125
2990.98993	3138.3125
2993.4245	3134.0125
2995.85758	3135.3125
2998.28917	3119.5125
3000.71928	3101.2125
3003.14791	3100.4125
3005.57506	3093.0125
3008.00073	3078.3125
3010.42493	3074.0125
3012.84764	3066.0125
3015.26888	3066.0125
3017.68865	3061.9125
3020.10694	3059.3125
3022.52376	3030.2125
3024.9391	3032.5125
3027.35298	3032.7125
3029.76539	3017.0125
3032.17632	3002.0125
3034.5858	2992.2125
3036.9938	2996.8125
3039.40034	2986.4125
3041.80542	2970.6125
3044.20903	2955.9125
3046.61118	2960.0125
3049.01187	2967.5125
3051.4111	2950.4125
3053.80888	2937.7125
3056.20519	2934.3125
3058.60005	2932.3125
3060.99345	2925.6125
3063.3854	2909.3125
3065.7759	2907.0125
3068.16494	2895.6125
3070.55254	2889.0125
3072.93868	2874.8125
3075.32338	2867.2125
3077.70662	2863.0125
3080.08842	2863.3125
3082.46878	2852.2125
3084.84769	2834.0125
3087.22515	2832.0125
3089.60118	2832.5125
3091.97576	2845.8125
3094.3489	2847.1125
3096.72061	2817.0125
3099.09087	2828.5125
3101.4597	2826.4125
3103.82709	2811.4125
3106.19305	2811.3125
3108.55757	2814.4125
3110.92066	2796.2125
3113.28232	2799.6125
3115.64255	2782.8125
3118.00134	2785.4125
3120.35871	2780.3125
3122.71466	2786.3125
