Data from AgNPs_UA_10uM_CRN_500uM_SU_RamanShift__55__13-14-30-265.txt Node

Date: Thu Aug 04 13:14:30 BST 2022
User: TCL
Spectrometer: QEP01345
Trigger mode: 4
Integration Time (sec): 1.000000E0
Scans to average: 10
Electric dark correction enabled: true
Nonlinearity correction enabled: false
Boxcar width: 0
XAxis mode: Raman Shifts
Number of Pixels in Spectrum: 1044
>>>>>Begin Spectral Data<<<<<
46.04893	0.0125
50.45542	0.3125
54.85868	0.1125
59.25871	-0.5875
63.6555	22.1125
68.04907	23.0125
72.43941	25.2125
76.82654	24.4125
81.21044	24.4125
85.59113	26.2125
89.96862	27.0125
94.34289	25.9125
98.71396	28.6125
103.08183	31.3125
107.4465	30.8125
111.80798	29.0125
116.16626	31.4125
120.52136	33.3125
124.87327	36.4125
129.222	38.6125
133.56755	40.5125
137.90993	43.3125
142.24913	49.7125
146.58517	57.7125
150.91804	66.3125
155.24774	84.3125
159.57429	98.5125
163.89768	135.9125
168.21792	179.0125
172.53501	246.3125
176.84895	344.2125
181.15975	496.8125
185.46741	694.7125
189.77193	965.0125
194.07331	1303.5125
198.37157	1684.3125
202.6667	2082.6125
206.9587	2486.0125
211.24758	2887.8125
215.53334	3296.0125
219.81599	3710.9125
224.09553	4179.2125
228.37195	4716.0125
232.64527	5271.8125
236.91549	5842.5125
241.18261	6385.2125
245.44663	6833.6125
249.70755	7217.1125
253.96539	7541.7125
258.22014	7831.8125
262.4718	8072.5125
266.72039	8211.8125
270.96589	8263.8125
275.20832	8241.3125
279.44768	8122.5125
283.68397	8010.9125
287.91719	7912.5125
292.14735	7907.2125
296.37445	7974.3125
300.59849	8146.5125
304.81948	8353.7125
309.03742	8520.2125
313.25231	8617.4125
317.46415	8551.6125
321.67296	8312.7125
325.87872	8099.4125
330.08145	7999.6125
334.28114	8001.2125
338.47781	8071.1125
342.67145	8209.6125
346.86207	8400.4125
351.04966	8673.2125
355.23424	8949.7125
359.4158	9165.8125
363.59435	9297.7125
367.76989	9364.5125
371.94243	9383.0125
376.11196	9373.7125
380.27849	9416.5125
384.44203	9490.2125
388.60257	9542.9125
392.76012	9666.8125
396.91468	9780.7125
401.06626	9896.5125
405.21485	9991.0125
409.36047	9898.5125
413.50311	9707.7125
417.64277	9504.2125
421.77947	9380.4125
425.9132	9290.4125
430.04396	9254.9125
434.17176	9297.9125
438.2966	9343.8125
442.41849	9485.7125
446.53742	9654.8125
450.6534	9849.1125
454.76644	9974.3125
458.87653	10075.7125
462.98368	10125.5125
467.08789	10100.6125
471.18916	9984.4125
475.2875	9830.3125
479.38291	9678.1125
483.4754	9560.2125
487.56496	9498.6125
491.6516	9476.4125
495.73531	9487.8125
499.81612	9529.5125
503.89401	9615.7125
507.96899	9662.2125
512.04106	9686.1125
516.11023	9721.9125
520.1765	9722.2125
524.23987	9751.2125
528.30034	9742.4125
532.35792	9725.3125
536.41261	9717.9125
540.46441	9617.2125
544.51333	9607.9125
548.55936	9659.9125
552.60252	9776.6125
556.64279	9918.6125
560.6802	10042.1125
564.71473	10123.2125
568.7464	10158.6125
572.7752	10074.1125
576.80114	9858.0125
580.82422	9710.9125
584.84444	9631.3125
588.86181	9634.5125
592.87633	9686.2125
596.888	9838.9125
600.89682	10264.9125
604.9028	11205.3125
608.90594	13091.8125
612.90624	14878.1125
616.90371	13842.0125
620.89834	11338.3125
624.89015	10352.5125
628.87913	10256.6125
632.86528	10455.3125
636.84862	10567.0125
640.82913	10386.5125
644.80683	10095.1125
648.78172	9927.8125
652.75379	9912.3125
656.72306	10141.3125
660.68952	10431.8125
664.65319	10388.7125
668.61405	10382.8125
672.57211	10515.8125
676.52738	10510.8125
680.47986	10244.3125
684.42955	10045.7125
688.37646	9982.8125
692.32058	10073.7125
696.26192	10241.5125
700.20048	10414.0125
704.13626	10470.7125
708.06928	10376.3125
711.99952	10259.3125
715.927	10197.9125
719.85171	10264.4125
723.77365	10305.3125
727.69284	10257.4125
731.60928	10146.4125
735.52295	10154.5125
739.43388	10185.7125
743.34206	10211.9125
747.24749	10216.1125
751.15017	10205.4125
755.05012	10263.7125
758.94733	10532.9125
762.8418	11148.9125
766.73354	12118.6125
770.62254	12848.6125
774.50882	13116.8125
778.39237	12972.1125
782.27321	12429.2125
786.15132	11606.0125
790.02671	10959.1125
793.89938	10588.6125
797.76935	10412.0125
801.6366	10307.7125
805.50115	10234.3125
809.36299	10184.2125
813.22213	10202.5125
817.07857	10214.3125
820.93231	10208.6125
824.78336	10220.6125
828.63172	10237.0125
832.47738	10255.0125
836.32036	10238.5125
840.16066	10214.5125
843.99827	10222.0125
847.8332	10226.7125
851.66546	10215.1125
855.49504	10272.7125
859.32195	10271.9125
863.1462	10292.5125
866.96777	10274.5125
870.78668	10290.1125
874.60293	10306.4125
878.41652	10380.6125
882.22745	10425.0125
886.03573	10482.5125
889.84136	10499.2125
893.64433	10432.9125
897.44466	10408.5125
901.24235	10399.6125
905.0374	10383.7125
908.8298	10352.6125
912.61957	10351.7125
916.40671	10333.2125
920.19121	10362.9125
923.97308	10367.6125
927.75233	10442.3125
931.52895	10518.1125
935.30295	10467.9125
939.07433	10351.2125
942.84309	10297.0125
946.60924	10239.5125
950.37278	10233.2125
954.13371	10232.1125
957.89203	10250.3125
961.64774	10240.8125
965.40086	10244.0125
969.15137	10230.0125
972.89929	10224.8125
976.64461	10209.8125
980.38733	10197.9125
984.12747	10241.6125
987.86502	10292.2125
991.59999	10324.3125
995.33237	10330.1125
999.06217	10411.2125
1002.78939	10531.2125
1006.51404	10676.4125
1010.23611	10835.7125
1013.95561	10929.6125
1017.67255	10952.1125
1021.38692	10964.7125
1025.09872	10884.8125
1028.80796	10773.0125
1032.51465	10729.3125
1036.21877	10723.9125
1039.92035	10778.6125
1043.61937	10825.6125
1047.31584	10848.4125
1051.00976	10905.5125
1054.70114	10925.9125
1058.38998	10962.6125
1062.07627	11034.1125
1065.76003	11098.0125
1069.44126	11182.9125
1073.11995	11435.3125
1076.79611	11680.3125
1080.46974	11810.7125
1084.14085	11848.6125
1087.80943	11925.9125
1091.47549	11984.7125
1095.13903	12060.3125
1098.80005	12208.0125
1102.45857	12407.4125
1106.11456	12381.1125
1109.76805	12126.4125
1113.41903	11987.6125
1117.06751	12059.6125
1120.71348	12162.4125
1124.35696	12234.3125
1127.99793	12274.2125
1131.63641	12130.6125
1135.2724	11862.6125
1138.90589	11644.7125
1142.5369	11538.5125
1146.16542	11466.8125
1149.79145	11395.6125
1153.415	11285.7125
1157.03607	11208.0125
1160.65467	11268.1125
1164.27079	11424.6125
1167.88443	11686.5125
1171.49561	12086.0125
1175.10432	12658.9125
1178.71056	13391.1125
1182.31434	14073.8125
1185.91565	14377.8125
1189.51451	14420.4125
1193.11091	14397.1125
1196.70485	14268.6125
1200.29634	14031.4125
1203.88538	13727.9125
1207.47197	13324.5125
1211.05612	12938.7125
1214.63782	12533.7125
1218.21708	12241.7125
1221.79391	11990.6125
1225.36829	11890.8125
1228.94024	11832.0125
1232.50976	11871.4125
1236.07685	11874.6125
1239.6415	11969.3125
1243.20374	12011.9125
1246.76355	12100.1125
1250.32093	12140.0125
1253.8759	12305.4125
1257.42845	12582.0125
1260.97859	12871.6125
1264.52631	13148.7125
1268.07163	13341.8125
1271.61453	13444.9125
1275.15503	13429.0125
1278.69312	13380.4125
1282.22882	13322.9125
1285.76211	13365.7125
1289.29301	13456.5125
1292.82151	13641.8125
1296.34761	13825.9125
1299.87133	14125.3125
1303.39266	14673.8125
1306.9116	15463.5125
1310.42815	16333.0125
1313.94233	16666.2125
1317.45412	16297.8125
1320.96354	15696.3125
1324.47058	15118.9125
1327.97525	14540.1125
1331.47754	14119.6125
1334.97747	13980.6125
1338.47502	14083.1125
1341.97022	14574.0125
1345.46305	15381.4125
1348.95352	16515.0125
1352.44163	17659.2125
1355.92738	18613.7125
1359.41078	19526.6125
1362.89183	20019.3125
1366.37053	19053.4125
1369.84688	16934.1125
1373.32088	15024.6125
1376.79254	13918.3125
1380.26186	13361.0125
1383.72883	12994.6125
1387.19347	12672.6125
1390.65578	12324.3125
1394.11575	12046.5125
1397.57339	11779.9125
1401.0287	11690.4125
1404.48168	11683.5125
1407.93234	11776.2125
1411.38068	11964.8125
1414.82669	12129.5125
1418.27039	12167.6125
1421.71177	12185.6125
1425.15083	12092.8125
1428.58758	11961.0125
1432.02203	11891.9125
1435.45416	11876.2125
1438.88399	11841.5125
1442.31151	11805.1125
1445.73673	11838.2125
1449.15965	11872.1125
1452.58027	11861.2125
1455.9986	11816.7125
1459.41463	11824.2125
1462.82837	11910.5125
1466.23982	12079.3125
1469.64898	12272.2125
1473.05586	12447.7125
1476.46045	12601.7125
1479.86276	12738.4125
1483.26279	12855.7125
1486.66054	13069.2125
1490.05602	13408.4125
1493.44922	13922.3125
1496.84016	14690.9125
1500.22882	15780.2125
1503.61521	16972.6125
1506.99934	18001.5125
1510.38121	18429.2125
1513.76081	18065.7125
1517.13816	16949.0125
1520.51324	15557.5125
1523.88607	14426.3125
1527.25665	13751.8125
1530.62498	13395.1125
1533.99105	13182.0125
1537.35488	13107.8125
1540.71647	13046.2125
1544.07581	12953.8125
1547.4329	12847.1125
1550.78776	12717.3125
1554.14038	12588.4125
1557.49077	12547.8125
1560.83892	12673.8125
1564.18484	12916.0125
1567.52853	13130.9125
1570.86999	13313.2125
1574.20922	13393.2125
1577.54624	13274.4125
1580.88103	12869.1125
1584.2136	12399.5125
1587.54395	12130.4125
1590.87208	12122.2125
1594.19801	12326.4125
1597.52172	12681.4125
1600.84321	12801.2125
1604.16251	12766.6125
1607.47959	12628.4125
1610.79447	12384.9125
1614.10715	11983.3125
1617.41763	11542.2125
1620.7259	11236.5125
1624.03199	11023.4125
1627.33587	10944.7125
1630.63757	10995.4125
1633.93707	11207.7125
1637.23439	11692.8125
1640.52951	12436.8125
1643.82246	13442.3125
1647.11321	14440.7125
1650.40179	14883.6125
1653.68819	14329.5125
1656.97241	13105.4125
1660.25446	11902.0125
1663.53433	11051.2125
1666.81203	10523.7125
1670.08756	10236.0125
1673.36092	10062.6125
1676.63211	9959.9125
1679.90115	9842.6125
1683.16801	9772.1125
1686.43272	9694.2125
1689.69527	9608.2125
1692.95567	9595.1125
1696.2139	9569.9125
1699.46999	9532.1125
1702.72392	9521.3125
1705.97571	9501.6125
1709.22535	9495.9125
1712.47284	9523.4125
1715.71819	9492.9125
1718.96139	9486.9125
1722.20246	9487.2125
1725.44139	9468.0125
1728.67818	9420.9125
1731.91284	9360.1125
1735.14537	9344.2125
1738.37576	9292.8125
1741.60403	9275.4125
1744.83017	9249.1125
1748.05418	9254.4125
1751.27607	9212.2125
1754.49584	9194.9125
1757.71349	9171.7125
1760.92903	9167.1125
1764.14244	9146.3125
1767.35375	9131.7125
1770.56294	9121.9125
1773.77002	9087.0125
1776.97499	9059.0125
1780.17785	9033.1125
1783.37861	9009.3125
1786.57727	8995.9125
1789.77382	9007.3125
1792.96828	8989.1125
1796.16064	8962.3125
1799.3509	8943.4125
1802.53907	8933.4125
1805.72514	8918.3125
1808.90913	8874.4125
1812.09102	8884.1125
1815.27083	8834.4125
1818.44856	8821.5125
1821.6242	8784.7125
1824.79776	8781.7125
1827.96924	8765.1125
1831.13864	8733.0125
1834.30597	8743.4125
1837.47122	8700.5125
1840.6344	8698.3125
1843.7955	8710.2125
1846.95454	8682.8125
1850.11151	8675.7125
1853.26642	8676.0125
1856.41926	8680.4125
1859.57004	8681.9125
1862.71876	8693.5125
1865.86542	8657.0125
1869.01003	8656.3125
1872.15258	8627.9125
1875.29308	8587.3125
1878.43152	8604.9125
1881.56792	8583.3125
1884.70227	8553.2125
1887.83457	8543.3125
1890.96482	8517.5125
1894.09304	8467.5125
1897.21921	8510.3125
1900.34335	8460.4125
1903.46544	8461.6125
1906.58551	8461.6125
1909.70353	8440.9125
1912.81953	8440.3125
1915.93349	8414.7125
1919.04543	8405.0125
1922.15534	8375.7125
1925.26322	8372.6125
1928.36908	8330.4125
1931.47292	8316.1125
1934.57473	8310.7125
1937.67453	8292.0125
1940.77232	8271.1125
1943.86808	8230.5125
1946.96184	8214.0125
1950.05358	8186.4125
1953.14331	8192.0125
1956.23103	8146.5125
1959.31675	8118.3125
1962.40046	8082.4125
1965.48217	8048.3125
1968.56188	8030.8125
1971.63959	8007.6125
1974.7153	8000.2125
1977.78901	7994.7125
1980.86073	7967.4125
1983.93046	7929.8125
1986.99819	7880.6125
1990.06394	7884.3125
1993.1277	7832.2125
1996.18947	7799.4125
1999.24925	7775.2125
2002.30706	7750.5125
2005.36288	7710.0125
2008.41672	7665.3125
2011.46859	7648.1125
2014.51848	7621.8125
2017.56639	7604.8125
2020.61233	7573.6125
2023.6563	7565.4125
2026.6983	7532.9125
2029.73833	7512.1125
2032.7764	7498.1125
2035.8125	7480.5125
2038.84664	7472.0125
2041.87881	7434.8125
2044.90903	7410.0125
2047.93729	7419.0125
2050.96359	7397.6125
2053.98794	7363.0125
2057.01034	7368.5125
2060.03078	7361.4125
2063.04927	7365.5125
2066.06582	7354.1125
2069.08042	7328.6125
2072.09307	7304.0125
2075.10378	7319.2125
2078.11255	7280.8125
2081.11938	7292.3125
2084.12426	7258.1125
2087.12722	7271.7125
2090.12824	7278.3125
2093.12732	7272.2125
2096.12447	7270.9125
2099.11969	7287.3125
2102.11299	7291.0125
2105.10435	7289.2125
2108.09379	7290.6125
2111.08131	7278.8125
2114.0669	7274.6125
2117.05057	7295.1125
2120.03233	7295.3125
2123.01216	7291.9125
2125.99008	7290.2125
2128.96609	7287.8125
2131.94018	7292.4125
2134.91236	7296.0125
2137.88263	7290.8125
2140.851	7301.3125
2143.81746	7278.5125
2146.78201	7277.9125
2149.74466	7257.7125
2152.7054	7261.5125
2155.66425	7272.5125
2158.6212	7247.0125
2161.57625	7249.6125
2164.52941	7252.2125
2167.48067	7237.9125
2170.43004	7239.4125
2173.37752	7231.7125
2176.32311	7221.1125
2179.26681	7246.6125
2182.20863	7230.3125
2185.14856	7223.7125
2188.08661	7222.8125
2191.02278	7194.6125
2193.95707	7204.6125
2196.88948	7217.6125
2199.82001	7189.5125
2202.74867	7186.6125
2205.67545	7177.0125
2208.60037	7183.9125
2211.52341	7166.3125
2214.44458	7126.7125
2217.36388	7105.2125
2220.28132	7096.9125
2223.1969	7053.2125
2226.11061	7049.9125
2229.02246	7018.2125
2231.93245	7029.0125
2234.84058	7006.9125
2237.74686	6980.1125
2240.65128	6981.0125
2243.55385	6983.8125
2246.45456	6946.1125
2249.35343	6943.6125
2252.25044	6916.5125
2255.14561	6915.6125
2258.03893	6920.1125
2260.93041	6908.6125
2263.82004	6891.8125
2266.70783	6860.1125
2269.59378	6835.9125
2272.4779	6830.4125
2275.36017	6805.3125
2278.24061	6805.0125
2281.11922	6789.3125
2283.996	6745.3125
2286.87094	6726.2125
2289.74405	6743.8125
2292.61534	6707.9125
2295.4848	6701.1125
2298.35243	6706.7125
2301.21824	6690.7125
2304.08223	6665.8125
2306.94439	6672.7125
2309.80474	6671.6125
2312.66327	6649.3125
2315.51999	6651.4125
2318.37489	6636.5125
2321.22797	6606.8125
2324.07925	6596.2125
2326.92871	6586.2125
2329.77637	6581.8125
2332.62222	6567.4125
2335.46626	6548.1125
2338.3085	6529.5125
2341.14893	6520.0125
2343.98756	6525.8125
2346.8244	6507.0125
2349.65943	6496.1125
2352.49267	6494.5125
2355.32411	6476.8125
2358.15376	6489.0125
2360.98161	6488.5125
2363.80768	6471.0125
2366.63195	6453.8125
2369.45444	6455.2125
2372.27514	6464.9125
2375.09405	6448.9125
2377.91118	6424.0125
2380.72652	6421.8125
2383.54009	6397.1125
2386.35187	6381.8125
2389.16188	6370.7125
2391.97011	6340.7125
2394.77657	6321.0125
2397.58125	6292.3125
2400.38416	6286.0125
2403.18529	6292.0125
2405.98466	6297.9125
2408.78226	6256.9125
2411.57809	6246.8125
2414.37216	6242.3125
2417.16446	6237.5125
2419.955	6227.9125
2422.74378	6223.2125
2425.5308	6233.2125
2428.31606	6219.7125
2431.09956	6209.7125
2433.88131	6186.3125
2436.6613	6182.4125
2439.43954	6168.6125
2442.21603	6158.5125
2444.99077	6157.2125
2447.76377	6162.0125
2450.53501	6157.1125
2453.30451	6157.1125
2456.07226	6135.5125
2458.83827	6122.2125
2461.60254	6113.5125
2464.36507	6102.7125
2467.12586	6078.0125
2469.88492	6075.5125
2472.64224	6087.1125
2475.39782	6084.0125
2478.15167	6077.6125
2480.90379	6059.1125
2483.65417	6039.8125
2486.40283	6018.1125
2489.14976	6041.8125
2491.89497	6029.5125
2494.63845	6035.7125
2497.3802	6013.2125
2500.12024	5984.6125
2502.85855	5985.0125
2505.59514	5982.7125
2508.33002	5962.5125
2511.06318	5969.7125
2513.79462	5935.0125
2516.52435	5925.4125
2519.25237	5928.5125
2521.97867	5915.0125
2524.70327	5902.5125
2527.42616	5866.2125
2530.14734	5873.1125
2532.86681	5861.5125
2535.58458	5866.8125
2538.30065	5851.5125
2541.01501	5854.7125
2543.72768	5850.3125
2546.43864	5840.7125
2549.14791	5823.4125
2551.85548	5803.4125
2554.56136	5806.2125
2557.26554	5809.9125
2559.96803	5781.4125
2562.66883	5742.9125
2565.36794	5733.7125
2568.06536	5723.4125
2570.7611	5710.1125
2573.45514	5697.8125
2576.14751	5675.7125
2578.83819	5680.0125
2581.52719	5641.9125
2584.21451	5638.6125
2586.90015	5645.7125
2589.58411	5622.8125
2592.2664	5622.2125
2594.94701	5605.1125
2597.62594	5599.7125
2600.30321	5567.3125
2602.9788	5574.2125
2605.65273	5562.9125
2608.32498	5547.0125
2610.99557	5531.3125
2613.66449	5556.3125
2616.33175	5531.0125
2618.99734	5507.9125
2621.66128	5489.7125
2624.32355	5482.0125
2626.98416	5442.2125
2629.64311	5444.6125
2632.30041	5443.7125
2634.95605	5434.9125
2637.61004	5429.0125
2640.26238	5396.8125
2642.91306	5390.6125
2645.56209	5391.9125
2648.20948	5388.6125
2650.85521	5385.7125
2653.4993	5381.1125
2656.14175	5378.1125
2658.78255	5351.1125
2661.42171	5360.8125
2664.05923	5353.9125
2666.6951	5370.3125
2669.32934	5376.2125
2671.96194	5373.2125
2674.59291	5363.0125
2677.22224	5365.5125
2679.84993	5354.0125
2682.476	5342.6125
2685.10043	5360.9125
2687.72324	5352.9125
2690.34441	5363.3125
2692.96396	5354.1125
2695.58188	5346.0125
2698.19818	5340.5125
2700.81285	5314.3125
2703.4259	5312.8125
2706.03733	5311.9125
2708.64714	5319.9125
2711.25533	5309.6125
2713.86191	5307.3125
2716.46687	5294.3125
2719.07021	5303.4125
2721.67194	5306.7125
2724.27206	5295.5125
2726.87057	5297.8125
2729.46747	5283.1125
2732.06276	5286.8125
2734.65644	5275.3125
2737.24852	5271.7125
2739.83899	5260.9125
2742.42786	5241.2125
2745.01513	5222.8125
2747.60079	5206.4125
2750.18486	5215.2125
2752.76733	5204.8125
2755.3482	5181.0125
2757.92747	5175.0125
2760.50515	5162.8125
2763.08123	5181.3125
2765.65573	5145.8125
2768.22863	5145.8125
2770.79994	5124.5125
2773.36967	5112.5125
2775.9378	5097.0125
2778.50435	5093.1125
2781.06932	5081.7125
2783.6327	5099.8125
2786.1945	5081.0125
2788.75471	5065.9125
2791.31335	5050.4125
2793.87041	5036.2125
2796.42589	5020.8125
2798.97979	5019.9125
2801.53212	5000.3125
2804.08288	4987.7125
2806.63206	4970.1125
2809.17967	4966.0125
2811.72571	4957.8125
2814.27018	4958.8125
2816.81308	4927.8125
2819.35442	4926.0125
2821.89419	4925.8125
2824.43239	4888.1125
2826.96904	4881.7125
2829.50412	4886.4125
2832.03763	4870.7125
2834.56959	4876.0125
2837.1	4840.3125
2839.62884	4834.2125
2842.15613	4823.2125
2844.68186	4817.3125
2847.20604	4817.9125
2849.72867	4798.8125
2852.24974	4797.7125
2854.76927	4782.3125
2857.28724	4767.9125
2859.80367	4771.9125
2862.31855	4758.5125
2864.83189	4765.0125
2867.34368	4762.8125
2869.85393	4750.0125
2872.36264	4735.4125
2874.8698	4734.9125
2877.37543	4736.6125
2879.87952	4712.0125
2882.38207	4704.3125
2884.88308	4695.4125
2887.38256	4703.6125
2889.88051	4690.6125
2892.37692	4683.3125
2894.8718	4673.8125
2897.36515	4679.9125
2899.85698	4674.2125
2902.34727	4671.8125
2904.83604	4669.7125
2907.32328	4691.0125
2909.809	4674.8125
2912.29319	4681.4125
2914.77587	4678.7125
2917.25702	4674.2125
2919.73665	4661.3125
2922.21476	4670.5125
2924.69136	4657.2125
2927.16644	4661.1125
2929.64	4641.1125
2932.11205	4643.3125
2934.58258	4615.5125
2937.05161	4615.7125
2939.51912	4633.0125
2941.98513	4608.9125
2944.44962	4596.4125
2946.91261	4584.2125
2949.37409	4585.5125
2951.83407	4585.8125
2954.29254	4572.7125
2956.74951	4562.3125
2959.20498	4559.3125
2961.65895	4573.9125
2964.11142	4557.5125
2966.56239	4560.3125
2969.01186	4557.7125
2971.45984	4556.5125
2973.90632	4558.8125
2976.35131	4529.6125
2978.7948	4519.0125
2981.23681	4513.3125
2983.67732	4509.6125
2986.11635	4508.5125
2988.55388	4466.6125
2990.98993	4480.0125
2993.4245	4464.9125
2995.85758	4450.2125
2998.28917	4448.5125
3000.71928	4438.9125
3003.14791	4410.1125
3005.57506	4405.8125
3008.00073	4396.1125
3010.42493	4370.9125
3012.84764	4351.2125
3015.26888	4377.4125
3017.68865	4349.9125
3020.10694	4348.1125
3022.52376	4322.3125
3024.9391	4311.5125
3027.35298	4290.7125
3029.76539	4280.2125
3032.17632	4287.2125
3034.5858	4271.8125
3036.9938	4279.7125
3039.40034	4253.8125
3041.80542	4248.6125
3044.20903	4228.8125
3046.61118	4226.0125
3049.01187	4219.4125
3051.4111	4210.3125
3053.80888	4192.2125
3056.20519	4164.4125
3058.60005	4160.1125
3060.99345	4144.2125
3063.3854	4165.2125
3065.7759	4126.5125
3068.16494	4133.0125
3070.55254	4113.2125
3072.93868	4106.6125
3075.32338	4097.0125
3077.70662	4086.7125
3080.08842	4062.4125
3082.46878	4082.4125
3084.84769	4050.8125
3087.22515	4044.0125
3089.60118	4039.3125
3091.97576	4033.7125
3094.3489	4041.6125
