Data from AgNPs_UA_5uM_CRN_500uM_SU_RamanShift__176__11-58-43-175.txt Node

Date: Thu Aug 04 11:58:43 BST 2022
User: TCL
Spectrometer: QEP01345
Trigger mode: 4
Integration Time (sec): 1.000000E0
Scans to average: 10
Electric dark correction enabled: true
Nonlinearity correction enabled: false
Boxcar width: 0
XAxis mode: Raman Shifts
Number of Pixels in Spectrum: 1044
>>>>>Begin Spectral Data<<<<<
46.04893	1.15
50.45542	0.25
54.85868	0.05
59.25871	-1.95
63.6555	-60.15
68.04907	-38.75
72.43941	-70.75
76.82654	-54.85
81.21044	-56.55
85.59113	-47.75
89.96862	-75.25
94.34289	-54.15
98.71396	-76.05
103.08183	-58.75
107.4465	-48.75
111.80798	-55.35
116.16626	-43.15
120.52136	-74.05
124.87327	-49.25
129.222	-61.45
133.56755	-50.05
137.90993	-64.25
142.24913	-50.95
146.58517	-44.75
150.91804	-40.55
155.24774	-30.15
159.57429	-9.35
163.89768	-5.55
168.21792	39.85
172.53501	54.55
176.84895	142.65
181.15975	272.05
185.46741	421.25
189.77193	602.75
194.07331	890.15
198.37157	1180.45
202.6667	1470.25
206.9587	1785.95
211.24758	2093.05
215.53334	2428.65
219.81599	2786.45
224.09553	3194.25
228.37195	3609.65
232.64527	4075.75
236.91549	4539.75
241.18261	4893.95
245.44663	5180.95
249.70755	5370.35
253.96539	5501.45
258.22014	5603.05
262.4718	5679.65
266.72039	5715.65
270.96589	5683.35
275.20832	5597.55
279.44768	5466.65
283.68397	5355.55
287.91719	5291.25
292.14735	5326.15
296.37445	5493.55
300.59849	5765.35
304.81948	6125.95
309.03742	6481.25
313.25231	6714.25
317.46415	6689.75
321.67296	6274.75
325.87872	5862.55
330.08145	5679.95
334.28114	5658.85
338.47781	5703.75
342.67145	5851.25
346.86207	6082.85
351.04966	6471.55
355.23424	6863.25
359.4158	7137.55
363.59435	7180.15
367.76989	7093.45
371.94243	6966.35
376.11196	6832.25
380.27849	6788.35
384.44203	6704.45
388.60257	6655.55
392.76012	6671.85
396.91468	6773.25
401.06626	6948.75
405.21485	6978.45
409.36047	6824.75
413.50311	6501.45
417.64277	6228.15
421.77947	6010.25
425.9132	5933.45
430.04396	5926.15
434.17176	5958.95
438.2966	6068.25
442.41849	6161.75
446.53742	6282.05
450.6534	6371.85
454.76644	6456.35
458.87653	6456.05
462.98368	6415.75
467.08789	6342.75
471.18916	6270.95
475.2875	6161.85
479.38291	6063.45
483.4754	5971.55
487.56496	5917.75
491.6516	5877.45
495.73531	5894.35
499.81612	5921.95
503.89401	6001.35
507.96899	6056.75
512.04106	6147.05
516.11023	6245.75
520.1765	6334.95
524.23987	6371.95
528.30034	6356.55
532.35792	6290.75
536.41261	6219.45
540.46441	6124.05
544.51333	6076.95
548.55936	6108.25
552.60252	6249.15
556.64279	6358.75
560.6802	6466.95
564.71473	6615.45
568.7464	6822.95
572.7752	6779.15
576.80114	6467.75
580.82422	6225.55
584.84444	6105.05
588.86181	6086.05
592.87633	6137.45
596.888	6275.75
600.89682	6624.15
604.9028	7585.45
608.90594	9664.85
612.90624	12002.75
616.90371	11108.05
620.89834	8085.05
624.89015	6787.15
628.87913	6559.05
632.86528	6720.05
636.84862	6900.05
640.82913	6754.25
644.80683	6397.85
648.78172	6227.25
652.75379	6272.95
656.72306	6511.15
660.68952	6720.35
664.65319	6635.85
668.61405	6416.95
672.57211	6354.65
676.52738	6362.35
680.47986	6255.65
684.42955	6162.35
688.37646	6124.35
692.32058	6131.25
696.26192	6203.65
700.20048	6293.55
704.13626	6321.05
708.06928	6283.95
711.99952	6263.45
715.927	6237.15
719.85171	6279.85
723.77365	6331.95
727.69284	6308.75
731.60928	6278.15
735.52295	6255.95
739.43388	6311.85
743.34206	6329.85
747.24749	6349.65
751.15017	6352.85
755.05012	6425.25
758.94733	6788.85
762.8418	7638.05
766.73354	8926.65
770.62254	9921.45
774.50882	9992.85
778.39237	9497.55
782.27321	8592.65
786.15132	7555.45
790.02671	6886.65
793.89938	6510.25
797.76935	6393.65
801.6366	6295.35
805.50115	6262.75
809.36299	6267.35
813.22213	6252.05
817.07857	6260.55
820.93231	6248.15
824.78336	6276.85
828.63172	6291.35
832.47738	6298.15
836.32036	6300.75
840.16066	6273.35
843.99827	6254.45
847.8332	6273.05
851.66546	6248.05
855.49504	6271.05
859.32195	6296.35
863.1462	6278.15
866.96777	6282.05
870.78668	6273.25
874.60293	6303.65
878.41652	6326.65
882.22745	6396.15
886.03573	6440.35
889.84136	6419.75
893.64433	6423.65
897.44466	6403.15
901.24235	6413.15
905.0374	6423.15
908.8298	6328.75
912.61957	6307.25
916.40671	6266.05
920.19121	6318.95
923.97308	6412.95
927.75233	6470.55
931.52895	6520.35
935.30295	6500.35
939.07433	6351.85
942.84309	6245.55
946.60924	6221.45
950.37278	6180.95
954.13371	6157.95
957.89203	6184.05
961.64774	6172.05
965.40086	6165.25
969.15137	6135.55
972.89929	6178.05
976.64461	6166.95
980.38733	6189.35
984.12747	6186.55
987.86502	6208.95
991.59999	6228.75
995.33237	6315.85
999.06217	6363.35
1002.78939	6462.45
1006.51404	6574.65
1010.23611	6722.05
1013.95561	6745.15
1017.67255	6751.35
1021.38692	6724.05
1025.09872	6664.45
1028.80796	6570.15
1032.51465	6595.55
1036.21877	6563.35
1039.92035	6605.35
1043.61937	6629.45
1047.31584	6707.05
1051.00976	6735.55
1054.70114	6752.45
1058.38998	6718.65
1062.07627	6729.25
1065.76003	6757.35
1069.44126	6840.75
1073.11995	6934.65
1076.79611	7051.55
1080.46974	7208.45
1084.14085	7370.35
1087.80943	7491.65
1091.47549	7524.05
1095.13903	7450.25
1098.80005	7324.65
1102.45857	7238.05
1106.11456	7177.15
1109.76805	7128.95
1113.41903	7255.55
1117.06751	7426.55
1120.71348	7665.75
1124.35696	8058.65
1127.99793	8315.45
1131.63641	8161.85
1135.2724	7763.35
1138.90589	7458.35
1142.5369	7273.45
1146.16542	7184.15
1149.79145	7085.45
1153.415	7024.65
1157.03607	7010.95
1160.65467	7102.95
1164.27079	7295.25
1167.88443	7552.85
1171.49561	7963.15
1175.10432	8579.45
1178.71056	9427.65
1182.31434	10222.95
1185.91565	10450.25
1189.51451	10305.85
1193.11091	10063.95
1196.70485	9812.95
1200.29634	9589.25
1203.88538	9324.85
1207.47197	8896.55
1211.05612	8468.55
1214.63782	8059.45
1218.21708	7812.05
1221.79391	7654.05
1225.36829	7583.55
1228.94024	7577.45
1232.50976	7587.55
1236.07685	7605.25
1239.6415	7656.05
1243.20374	7643.45
1246.76355	7702.05
1250.32093	7784.65
1253.8759	7837.75
1257.42845	8017.45
1260.97859	8242.85
1264.52631	8460.05
1268.07163	8600.75
1271.61453	8740.25
1275.15503	8794.25
1278.69312	8784.05
1282.22882	8847.05
1285.76211	9051.65
1289.29301	9297.25
1292.82151	9567.75
1296.34761	9767.25
1299.87133	10145.55
1303.39266	10859.45
1306.9116	11962.65
1310.42815	13195.25
1313.94233	13590.45
1317.45412	12839.95
1320.96354	11688.55
1324.47058	10707.75
1327.97525	9974.05
1331.47754	9596.55
1334.97747	9483.45
1338.47502	9597.15
1341.97022	9985.15
1345.46305	10670.25
1348.95352	11750.85
1352.44163	12983.85
1355.92738	14269.55
1359.41078	15901.35
1362.89183	17373.05
1366.37053	16720.55
1369.84688	13916.65
1373.32088	11332.15
1376.79254	9959.35
1380.26186	9319.15
1383.72883	8938.05
1387.19347	8563.25
1390.65578	8206.35
1394.11575	7955.85
1397.57339	7789.05
1401.0287	7699.15
1404.48168	7673.15
1407.93234	7682.55
1411.38068	7711.95
1414.82669	7790.75
1418.27039	7867.35
1421.71177	7882.25
1425.15083	7761.15
1428.58758	7693.35
1432.02203	7729.45
1435.45416	7802.65
1438.88399	7804.25
1442.31151	7804.45
1445.73673	7867.25
1449.15965	7920.35
1452.58027	7944.55
1455.9986	7937.45
1459.41463	7925.65
1462.82837	8033.65
1466.23982	8207.15
1469.64898	8416.25
1473.05586	8552.65
1476.46045	8669.75
1479.86276	8726.25
1483.26279	8815.75
1486.66054	8988.35
1490.05602	9248.75
1493.44922	9813.45
1496.84016	10651.65
1500.22882	11982.55
1503.61521	13682.95
1506.99934	15432.45
1510.38121	16593.15
1513.76081	16489.25
1517.13816	14929.15
1520.51324	12860.65
1523.88607	11171.95
1527.25665	10184.25
1530.62498	9706.85
1533.99105	9477.65
1537.35488	9357.45
1540.71647	9269.55
1544.07581	9150.85
1547.4329	9021.95
1550.78776	8935.85
1554.14038	8841.45
1557.49077	8824.05
1560.83892	8901.55
1564.18484	9127.55
1567.52853	9447.95
1570.86999	9741.25
1574.20922	9909.95
1577.54624	9812.75
1580.88103	9266.45
1584.2136	8633.45
1587.54395	8290.55
1590.87208	8222.85
1594.19801	8383.35
1597.52172	8730.15
1600.84321	8869.65
1604.16251	8737.15
1607.47959	8553.05
1610.79447	8375.15
1614.10715	8090.95
1617.41763	7797.75
1620.7259	7530.75
1624.03199	7378.75
1627.33587	7320.15
1630.63757	7344.95
1633.93707	7596.85
1637.23439	7994.55
1640.52951	8681.75
1643.82246	9644.95
1647.11321	10762.05
1650.40179	11468.25
1653.68819	11132.15
1656.97241	9910.25
1660.25446	8544.25
1663.53433	7566.75
1666.81203	6978.35
1670.08756	6638.65
1673.36092	6474.65
1676.63211	6329.55
1679.90115	6229.25
1683.16801	6177.05
1686.43272	6074.25
1689.69527	6019.85
1692.95567	5970.75
1696.2139	5941.55
1699.46999	5909.95
1702.72392	5891.25
1705.97571	5904.95
1709.22535	5871.15
1712.47284	5914.15
1715.71819	5916.35
1718.96139	5918.25
1722.20246	5904.55
1725.44139	5879.45
1728.67818	5853.45
1731.91284	5789.45
1735.14537	5773.75
1738.37576	5737.75
1741.60403	5718.25
1744.83017	5684.55
1748.05418	5711.75
1751.27607	5701.35
1754.49584	5670.25
1757.71349	5614.05
1760.92903	5622.15
1764.14244	5577.95
1767.35375	5588.05
1770.56294	5592.25
1773.77002	5567.95
1776.97499	5564.25
1780.17785	5563.85
1783.37861	5532.85
1786.57727	5546.25
1789.77382	5483.95
1792.96828	5529.45
1796.16064	5518.15
1799.3509	5501.75
1802.53907	5513.45
1805.72514	5491.55
1808.90913	5451.35
1812.09102	5455.75
1815.27083	5458.75
1818.44856	5424.55
1821.6242	5428.85
1824.79776	5408.45
1827.96924	5385.15
1831.13864	5371.25
1834.30597	5378.05
1837.47122	5357.55
1840.6344	5333.75
1843.7955	5328.45
1846.95454	5327.25
1850.11151	5348.25
1853.26642	5310.75
1856.41926	5308.95
1859.57004	5306.75
1862.71876	5313.85
1865.86542	5295.65
1869.01003	5294.15
1872.15258	5269.65
1875.29308	5281.05
1878.43152	5294.95
1881.56792	5271.75
1884.70227	5227.05
1887.83457	5246.65
1890.96482	5215.25
1894.09304	5220.05
1897.21921	5227.15
1900.34335	5218.05
1903.46544	5204.65
1906.58551	5214.75
1909.70353	5212.65
1912.81953	5191.45
1915.93349	5179.25
1919.04543	5171.95
1922.15534	5168.15
1925.26322	5177.05
1928.36908	5133.25
1931.47292	5151.55
1934.57473	5146.35
1937.67453	5115.45
1940.77232	5086.25
1943.86808	5086.05
1946.96184	5080.15
1950.05358	5051.35
1953.14331	5025.95
1956.23103	5026.95
1959.31675	5008.35
1962.40046	4953.15
1965.48217	4983.95
1968.56188	4960.55
1971.63959	4954.95
1974.7153	4946.55
1977.78901	4948.25
1980.86073	4910.55
1983.93046	4879.45
1986.99819	4809.65
1990.06394	4836.05
1993.1277	4843.55
1996.18947	4820.25
1999.24925	4787.85
2002.30706	4803.35
2005.36288	4767.95
2008.41672	4767.45
2011.46859	4728.75
2014.51848	4724.05
2017.56639	4695.75
2020.61233	4684.05
2023.6563	4677.35
2026.6983	4650.35
2029.73833	4647.75
2032.7764	4648.55
2035.8125	4612.05
2038.84664	4598.85
2041.87881	4591.15
2044.90903	4589.15
2047.93729	4577.15
2050.96359	4566.75
2053.98794	4561.55
2057.01034	4555.85
2060.03078	4533.15
2063.04927	4538.95
2066.06582	4548.35
2069.08042	4527.65
2072.09307	4543.65
2075.10378	4518.95
2078.11255	4507.65
2081.11938	4515.75
2084.12426	4520.35
2087.12722	4512.85
2090.12824	4511.15
2093.12732	4494.65
2096.12447	4512.05
2099.11969	4500.25
2102.11299	4493.35
2105.10435	4521.75
2108.09379	4515.35
2111.08131	4488.75
2114.0669	4500.75
2117.05057	4501.85
2120.03233	4496.95
2123.01216	4510.85
2125.99008	4509.85
2128.96609	4536.75
2131.94018	4526.55
2134.91236	4510.45
2137.88263	4518.65
2140.851	4512.65
2143.81746	4542.85
2146.78201	4524.85
2149.74466	4522.35
2152.7054	4518.45
2155.66425	4516.95
2158.6212	4516.25
2161.57625	4471.25
2164.52941	4455.35
2167.48067	4466.75
2170.43004	4473.55
2173.37752	4485.65
2176.32311	4477.55
2179.26681	4474.65
2182.20863	4473.55
2185.14856	4474.55
2188.08661	4483.15
2191.02278	4487.55
2193.95707	4457.15
2196.88948	4455.95
2199.82001	4463.75
2202.74867	4454.25
2205.67545	4444.45
2208.60037	4460.85
2211.52341	4430.45
2214.44458	4402.85
2217.36388	4402.65
2220.28132	4384.35
2223.1969	4379.25
2226.11061	4384.05
2229.02246	4352.35
2231.93245	4367.85
2234.84058	4340.05
2237.74686	4330.45
2240.65128	4310.85
2243.55385	4331.45
2246.45456	4289.85
2249.35343	4317.25
2252.25044	4304.45
2255.14561	4295.45
2258.03893	4306.05
2260.93041	4288.05
2263.82004	4280.55
2266.70783	4282.15
2269.59378	4252.15
2272.4779	4239.25
2275.36017	4236.15
2278.24061	4234.85
2281.11922	4194.05
2283.996	4207.05
2286.87094	4198.85
2289.74405	4194.95
2292.61534	4194.45
2295.4848	4180.35
2298.35243	4159.05
2301.21824	4158.55
2304.08223	4148.15
2306.94439	4151.65
2309.80474	4163.95
2312.66327	4164.35
2315.51999	4137.95
2318.37489	4148.45
2321.22797	4115.75
2324.07925	4113.75
2326.92871	4112.85
2329.77637	4079.55
2332.62222	4069.55
2335.46626	4055.95
2338.3085	4065.35
2341.14893	4074.55
2343.98756	4085.75
2346.8244	4047.45
2349.65943	4045.65
2352.49267	4043.95
2355.32411	4050.35
2358.15376	4049.95
2360.98161	4066.05
2363.80768	4030.25
2366.63195	4028.35
2369.45444	4039.45
2372.27514	4039.25
2375.09405	4053.85
2377.91118	4000.35
2380.72652	4005.15
2383.54009	3988.75
2386.35187	4013.15
2389.16188	3976.45
2391.97011	3977.35
2394.77657	3958.25
2397.58125	3958.45
2400.38416	3940.25
2403.18529	3926.95
2405.98466	3911.25
2408.78226	3923.05
2411.57809	3906.85
2414.37216	3875.85
2417.16446	3912.75
2419.955	3871.75
2422.74378	3888.35
2425.5308	3866.05
2428.31606	3890.25
2431.09956	3871.55
2433.88131	3847.05
2436.6613	3859.95
2439.43954	3858.55
2442.21603	3853.25
2444.99077	3842.75
2447.76377	3857.35
2450.53501	3829.95
2453.30451	3823.35
2456.07226	3840.75
2458.83827	3815.85
2461.60254	3789.05
2464.36507	3823.45
2467.12586	3793.65
2469.88492	3808.45
2472.64224	3798.25
2475.39782	3785.65
2478.15167	3793.25
2480.90379	3777.55
2483.65417	3807.35
2486.40283	3810.85
2489.14976	3802.65
2491.89497	3786.75
2494.63845	3793.25
2497.3802	3784.65
2500.12024	3780.75
2502.85855	3763.25
2505.59514	3780.15
2508.33002	3760.25
2511.06318	3736.45
2513.79462	3742.55
2516.52435	3704.45
2519.25237	3678.15
2521.97867	3678.85
2524.70327	3696.65
2527.42616	3686.25
2530.14734	3699.55
2532.86681	3664.55
2535.58458	3665.65
2538.30065	3653.95
2541.01501	3664.55
2543.72768	3647.15
2546.43864	3657.25
2549.14791	3654.95
2551.85548	3622.35
2554.56136	3627.15
2557.26554	3637.95
2559.96803	3631.15
2562.66883	3620.85
2565.36794	3606.05
2568.06536	3565.15
2570.7611	3597.05
2573.45514	3574.35
2576.14751	3566.05
2578.83819	3555.85
2581.52719	3529.05
2584.21451	3558.75
2586.90015	3526.75
2589.58411	3502.55
2592.2664	3523.15
2594.94701	3511.85
2597.62594	3515.55
2600.30321	3448.85
2602.9788	3469.75
2605.65273	3467.05
2608.32498	3464.25
2610.99557	3495.75
2613.66449	3440.15
2616.33175	3463.95
2618.99734	3464.85
2621.66128	3466.75
2624.32355	3451.65
2626.98416	3434.15
2629.64311	3431.65
2632.30041	3420.65
2634.95605	3400.15
2637.61004	3404.65
2640.26238	3370.75
2642.91306	3382.75
2645.56209	3398.05
2648.20948	3388.55
2650.85521	3359.85
2653.4993	3393.05
2656.14175	3384.65
2658.78255	3361.15
2661.42171	3356.05
2664.05923	3377.25
2666.6951	3390.55
2669.32934	3382.15
2671.96194	3387.75
2674.59291	3370.85
2677.22224	3363.45
2679.84993	3369.55
2682.476	3381.05
2685.10043	3364.55
2687.72324	3348.95
2690.34441	3348.85
2692.96396	3332.45
2695.58188	3362.15
2698.19818	3350.75
2700.81285	3356.15
2703.4259	3319.85
2706.03733	3320.35
2708.64714	3305.55
2711.25533	3334.95
2713.86191	3348.55
2716.46687	3327.55
2719.07021	3337.85
2721.67194	3332.85
2724.27206	3348.85
2726.87057	3328.95
2729.46747	3319.25
2732.06276	3339.15
2734.65644	3305.15
2737.24852	3310.05
2739.83899	3297.65
2742.42786	3306.15
2745.01513	3292.95
2747.60079	3288.55
2750.18486	3272.95
2752.76733	3276.75
2755.3482	3268.75
2757.92747	3275.85
2760.50515	3247.55
2763.08123	3242.45
2765.65573	3235.05
2768.22863	3234.65
2770.79994	3214.45
2773.36967	3226.25
2775.9378	3211.65
2778.50435	3219.75
2781.06932	3197.15
2783.6327	3184.95
2786.1945	3214.15
2788.75471	3194.75
2791.31335	3201.45
2793.87041	3190.05
2796.42589	3158.05
2798.97979	3152.85
2801.53212	3155.75
2804.08288	3161.65
2806.63206	3154.65
2809.17967	3128.45
2811.72571	3137.35
2814.27018	3128.45
2816.81308	3123.45
2819.35442	3090.25
2821.89419	3098.35
2824.43239	3097.45
2826.96904	3124.85
2829.50412	3102.35
2832.03763	3103.75
2834.56959	3095.35
2837.1	3080.95
2839.62884	3074.65
2842.15613	3091.25
2844.68186	3100.45
2847.20604	3060.75
2849.72867	3061.55
2852.24974	3056.65
2854.76927	3028.45
2857.28724	2984.85
2859.80367	3050.55
2862.31855	3046.55
2864.83189	3033.65
2867.34368	3038.15
2869.85393	3047.45
2872.36264	3035.25
2874.8698	3021.65
2877.37543	3027.35
2879.87952	3023.35
2882.38207	2995.65
2884.88308	3013.15
2887.38256	3011.25
2889.88051	3000.85
2892.37692	2997.45
2894.8718	2981.25
2897.36515	2999.15
2899.85698	2990.95
2902.34727	2985.45
2904.83604	2998.75
2907.32328	3008.35
2909.809	3002.95
2912.29319	3000.25
2914.77587	3003.95
2917.25702	3029.45
2919.73665	3027.05
2922.21476	3014.45
2924.69136	3023.25
2927.16644	2994.75
2929.64	3005.45
2932.11205	2994.85
2934.58258	2991.45
2937.05161	2985.95
2939.51912	2973.75
2941.98513	2984.05
2944.44962	2963.35
2946.91261	2940.55
2949.37409	2945.85
2951.83407	2957.85
2954.29254	2934.45
2956.74951	2950.85
2959.20498	2921.45
2961.65895	2925.45
2964.11142	2914.85
2966.56239	2899.85
2969.01186	2918.95
2971.45984	2910.55
2973.90632	2895.15
2976.35131	2914.15
2978.7948	2909.15
2981.23681	2879.35
2983.67732	2881.85
2986.11635	2883.05
2988.55388	2856.85
2990.98993	2862.15
2993.4245	2841.55
2995.85758	2835.35
2998.28917	2828.15
3000.71928	2828.75
3003.14791	2815.35
3005.57506	2806.25
3008.00073	2802.55
3010.42493	2726.85
3012.84764	2803.75
3015.26888	2795.25
3017.68865	2772.75
3020.10694	2734.75
3022.52376	2744.45
3024.9391	2745.15
3027.35298	2744.35
3029.76539	2724.15
3032.17632	2724.75
3034.5858	2718.35
3036.9938	2721.35
3039.40034	2704.95
3041.80542	2690.05
3044.20903	2688.45
3046.61118	2694.05
3049.01187	2677.65
3051.4111	2668.05
3053.80888	2656.05
3056.20519	2659.85
3058.60005	2643.15
3060.99345	2661.15
3063.3854	2642.35
3065.7759	2626.85
3068.16494	2623.25
3070.55254	2618.25
3072.93868	2623.65
3075.32338	2601.55
3077.70662	2593.65
3080.08842	2592.15
3082.46878	2578.55
3084.84769	2585.55
3087.22515	2565.35
3089.60118	2578.35
3091.97576	2557.15
3094.3489	2581.45
3096.72061	2572.35
3099.09087	2549.85
3101.4597	2571.75
3103.82709	2545.95
3106.19305	2552.65
3108.55757	2550.25
3110.92066	2528.25
3113.28232	2546.15
3115.64255	2544.85
3118.00134	2536.55
3120.35871	2519.15
3122.71466	2498.25
3125.06917	2511.75
3127.42226	2492.75
3129.77393	2474.45
3132.12417	2493.65
3134.47299	2503.75
3136.82039	2475.55
3139.16636	2455.05
3141.51092	2472.65
3143.85406	2480.75
3146.19579	2454.95
3148.53609	2454.95
3150.87499	2459.35
3153.21246	2439.15
3155.54853	2454.35
3157.88318	2459.35
3160.21642	2450.85
3162.54826	2461.65
3164.87868	2449.25
3167.2077	2418.65
3169.5353	2440.25
3171.86151	2443.45
3174.18631	2429.95
3176.5097	2417.75
3178.83169	2433.25
3181.15228	2424.15
3183.47147	2408.85
3185.78926	2377.65
3188.10565	2399.95
3190.42065	2369.95
3192.73424	2390.25
3195.04645	2381.15
3197.35725	2364.45
3199.66667	2372.55
3201.97469	2358.85
3204.28132	2349.05
3206.58656	2363.55
3208.8904	2372.35
3211.19287	2360.05
3213.49394	2357.35
3215.79363	2345.95
3218.09193	2362.75
3220.38884	2356.75
3222.68438	2350.45
3224.97853	2321.95
3227.2713	2345.15
3229.56269	2325.85
3231.8527	2338.95
3234.14133	2317.35
3236.42858	2308.85
3238.71446	2284.65
3240.99896	2312.55
3243.28209	2296.35
3245.56384	2304.95
3247.84423	2288.55
3250.12324	2292.65
3252.40088	2287.85
3254.67715	2271.35
3256.95205	2266.25
3259.22558	2281.15
3261.49775	2274.35
3263.76855	2278.15
3266.03799	2287.45
3268.30606	2274.75
3270.57277	2260.15
3272.83812	2234.25
3275.10211	2255.95
3277.36474	2260.45
3279.62601	2255.25
3281.88593	2220.75
3284.14448	2214.95
3286.40168	2239.15
3288.65753	2212.95
3290.91202	2222.45
3293.16516	2194.55
3295.41695	2216.35
3297.66738	2214.75
3299.91647	2200.85
3302.16421	2195.25
3304.4106	2140.85
3306.65564	2174.15
3308.89933	2141.65
3311.14169	2122.45
3313.38269	2116.35
3315.62236	2099.85
3317.86068	2084.55
3320.09766	2068.45
3322.3333	2042.45
3324.5676	2021.55
3326.80056	2000.05
3329.03219	1997.75
3331.26248	-0.05
3333.49143	0.15
3335.71905	-0.15
