Data from AgNPs_UA_5uM_CRN_500uM_SU_RamanShift__47__11-37-13-148.txt Node

Date: Thu Aug 04 11:37:13 BST 2022
User: TCL
Spectrometer: QEP01345
Trigger mode: 4
Integration Time (sec): 1.000000E0
Scans to average: 10
Electric dark correction enabled: true
Nonlinearity correction enabled: false
Boxcar width: 0
XAxis mode: Raman Shifts
Number of Pixels in Spectrum: 1044
>>>>>Begin Spectral Data<<<<<
46.04893	0.35
50.45542	-0.15
54.85868	-0.15
59.25871	-0.35
63.6555	-55.35
68.04907	-35.65
72.43941	-69.25
76.82654	-53.45
81.21044	-54.25
85.59113	-46.85
89.96862	-72.65
94.34289	-52.55
98.71396	-75.15
103.08183	-53.55
107.4465	-46.75
111.80798	-52.45
116.16626	-38.75
120.52136	-70.15
124.87327	-45.95
129.222	-58.55
133.56755	-41.45
137.90993	-52.65
142.24913	-38.75
146.58517	-31.75
150.91804	-25.55
155.24774	-9.15
159.57429	20.55
163.89768	35.25
168.21792	97.25
172.53501	142.65
176.84895	259.65
181.15975	441.95
185.46741	663.85
189.77193	946.45
194.07331	1350.35
198.37157	1778.75
202.6667	2227.65
206.9587	2717.05
211.24758	3240.45
215.53334	3803.65
219.81599	4473.75
224.09553	5229.85
228.37195	6047.05
232.64527	6811.65
236.91549	7414.35
241.18261	7742.65
245.44663	7867.45
249.70755	7857.85
253.96539	7839.95
258.22014	7882.05
262.4718	7972.35
266.72039	7953.95
270.96589	7804.75
275.20832	7479.05
279.44768	7186.55
283.68397	6940.25
287.91719	6856.45
292.14735	7033.65
296.37445	7521.55
300.59849	8414.45
304.81948	9631.65
309.03742	11009.95
313.25231	12024.95
317.46415	11865.55
321.67296	10436.05
325.87872	8799.05
330.08145	7854.85
334.28114	7655.95
338.47781	7898.75
342.67145	8438.65
346.86207	9295.25
351.04966	10635.95
355.23424	11955.15
359.4158	12484.05
363.59435	12060.65
367.76989	11264.15
371.94243	10501.95
376.11196	9886.15
380.27849	9405.15
384.44203	9045.25
388.60257	8844.45
392.76012	8905.65
396.91468	9169.05
401.06626	9554.25
405.21485	9527.65
409.36047	8969.15
413.50311	7957.05
417.64277	7053.35
421.77947	6467.35
425.9132	6204.75
430.04396	6065.55
434.17176	6051.65
438.2966	6165.25
442.41849	6334.45
446.53742	6553.55
450.6534	6681.35
454.76644	6706.95
458.87653	6601.65
462.98368	6485.35
467.08789	6328.85
471.18916	6131.25
475.2875	5862.65
479.38291	5635.55
483.4754	5487.25
487.56496	5432.65
491.6516	5375.25
495.73531	5359.45
499.81612	5441.85
503.89401	5606.95
507.96899	5797.15
512.04106	6030.35
516.11023	6291.85
520.1765	6515.95
524.23987	6579.85
528.30034	6544.15
532.35792	6404.75
536.41261	6241.85
540.46441	6040.85
544.51333	5872.05
548.55936	5869.85
552.60252	6012.25
556.64279	6227.35
560.6802	6630.55
564.71473	7501.55
568.7464	8622.35
572.7752	8536.45
576.80114	7086.75
580.82422	5898.55
584.84444	5415.45
588.86181	5262.75
592.87633	5268.95
596.888	5476.85
600.89682	6222.25
604.9028	8657.75
608.90594	14846.75
612.90624	22403.75
616.90371	20323.45
620.89834	10994.95
624.89015	6911.75
628.87913	6432.85
632.86528	7029.35
636.84862	7297.15
640.82913	6592.75
644.80683	5621.25
648.78172	5170.05
652.75379	5302.85
656.72306	6036.85
660.68952	6738.45
664.65319	6375.05
668.61405	5449.75
672.57211	5056.25
676.52738	5059.35
680.47986	4978.15
684.42955	4840.85
688.37646	4764.35
692.32058	4761.95
696.26192	4862.05
700.20048	4981.55
704.13626	5038.15
708.06928	4933.55
711.99952	4903.45
715.927	4946.15
719.85171	5137.05
723.77365	5299.05
727.69284	5149.75
731.60928	5010.55
735.52295	4950.45
739.43388	5028.05
743.34206	5044.75
747.24749	5054.45
751.15017	5094.35
755.05012	5388.05
758.94733	6608.15
762.8418	9338.65
766.73354	12940.65
770.62254	14788.75
774.50882	14048.15
778.39237	12719.25
782.27321	10650.95
786.15132	7972.55
790.02671	6181.35
793.89938	5330.25
797.76935	5052.15
801.6366	4901.65
805.50115	4832.55
809.36299	4803.95
813.22213	4775.95
817.07857	4779.65
820.93231	4806.65
824.78336	4899.25
828.63172	5023.85
832.47738	5053.35
836.32036	4988.85
840.16066	4780.25
843.99827	4670.25
847.8332	4624.85
851.66546	4634.55
855.49504	4592.95
859.32195	4601.95
863.1462	4548.45
866.96777	4525.25
870.78668	4515.75
874.60293	4572.15
878.41652	4622.45
882.22745	4775.25
886.03573	4859.45
889.84136	4830.95
893.64433	4800.35
897.44466	4834.15
901.24235	4828.35
905.0374	4759.35
908.8298	4568.85
912.61957	4445.45
916.40671	4371.15
920.19121	4445.35
923.97308	4622.25
927.75233	4996.75
931.52895	5349.15
935.30295	5158.75
939.07433	4609.75
942.84309	4248.15
946.60924	4115.55
950.37278	4063.75
954.13371	4048.65
957.89203	4054.45
961.64774	4056.05
965.40086	4021.15
969.15137	3989.45
972.89929	4038.65
976.64461	4006.45
980.38733	3998.25
984.12747	3980.25
987.86502	3998.55
991.59999	4023.75
995.33237	4103.05
999.06217	4191.25
1002.78939	4372.25
1006.51404	4649.75
1010.23611	4783.05
1013.95561	4666.15
1017.67255	4482.25
1021.38692	4326.95
1025.09872	4198.75
1028.80796	4106.55
1032.51465	4150.35
1036.21877	4183.65
1039.92035	4271.85
1043.61937	4316.65
1047.31584	4398.65
1051.00976	4414.95
1054.70114	4356.85
1058.38998	4311.15
1062.07627	4295.35
1065.76003	4295.55
1069.44126	4340.75
1073.11995	4441.65
1076.79611	4712.55
1080.46974	5179.45
1084.14085	5842.55
1087.80943	6429.25
1091.47549	6397.75
1095.13903	5846.05
1098.80005	5281.85
1102.45857	4978.75
1106.11456	4937.35
1109.76805	5009.25
1113.41903	5383.65
1117.06751	5963.55
1120.71348	6912.65
1124.35696	8344.55
1127.99793	9352.25
1131.63641	8627.35
1135.2724	7102.45
1138.90589	6072.05
1142.5369	5492.35
1146.16542	5149.05
1149.79145	4891.35
1153.415	4803.65
1157.03607	4867.15
1160.65467	5059.85
1164.27079	5439.15
1167.88443	5965.75
1171.49561	6913.45
1175.10432	8537.65
1178.71056	10809.65
1182.31434	12427.55
1185.91565	12190.45
1189.51451	10713.25
1193.11091	9199.15
1196.70485	8231.65
1200.29634	7837.75
1203.88538	7344.55
1207.47197	6410.85
1211.05612	5549.35
1214.63782	4993.55
1218.21708	4734.15
1221.79391	4636.15
1225.36829	4609.25
1228.94024	4628.75
1232.50976	4615.45
1236.07685	4621.95
1239.6415	4685.55
1243.20374	4767.45
1246.76355	4912.35
1250.32093	5118.35
1253.8759	5360.15
1257.42845	5804.55
1260.97859	6381.55
1264.52631	6985.75
1268.07163	7315.25
1271.61453	7367.05
1275.15503	7171.45
1278.69312	6951.35
1282.22882	7129.15
1285.76211	7963.25
1289.29301	9084.35
1292.82151	9857.65
1296.34761	10170.45
1299.87133	10920.35
1303.39266	12869.85
1306.9116	16501.55
1310.42815	20885.95
1313.94233	22347.15
1317.45412	18945.75
1320.96354	14110.75
1324.47058	10490.65
1327.97525	8287.95
1331.47754	7161.05
1334.97747	6795.35
1338.47502	6927.35
1341.97022	7816.25
1345.46305	9764.15
1348.95352	12505.55
1352.44163	15378.25
1355.92738	18804.15
1359.41078	24812.25
1362.89183	31392.75
1366.37053	30083.75
1369.84688	20890.85
1373.32088	13268.05
1376.79254	9991.35
1380.26186	8525.25
1383.72883	7412.75
1387.19347	6354.65
1390.65578	5586.95
1394.11575	5143.65
1397.57339	4929.45
1401.0287	4773.65
1404.48168	4642.45
1407.93234	4575.15
1411.38068	4649.85
1414.82669	4988.15
1418.27039	5358.65
1421.71177	5445.05
1425.15083	5277.45
1428.58758	5270.75
1432.02203	5661.25
1435.45416	6001.25
1438.88399	5763.45
1442.31151	5466.35
1445.73673	5415.55
1449.15965	5388.45
1452.58027	5269.65
1455.9986	5127.35
1459.41463	4997.05
1462.82837	5013.05
1466.23982	5236.25
1469.64898	5550.45
1473.05586	5685.05
1476.46045	5669.55
1479.86276	5678.45
1483.26279	5939.25
1486.66054	6517.35
1490.05602	7376.65
1493.44922	8842.65
1496.84016	11170.15
1500.22882	14728.35
1503.61521	19745.45
1506.99934	26134.45
1510.38121	32285.45
1513.76081	34420.55
1517.13816	30237.45
1520.51324	22517.45
1523.88607	15703.15
1527.25665	11429.05
1530.62498	9012.05
1533.99105	7639.65
1537.35488	6737.35
1540.71647	6226.55
1544.07581	6031.85
1547.4329	6029.55
1550.78776	6170.35
1554.14038	6473.65
1557.49077	6934.95
1560.83892	7709.35
1564.18484	9002.65
1567.52853	10464.25
1570.86999	11385.25
1574.20922	11526.35
1577.54624	10956.85
1580.88103	9290.45
1584.2136	7216.15
1587.54395	6026.85
1590.87208	5720.15
1594.19801	6051.55
1597.52172	6707.15
1600.84321	6706.45
1604.16251	6007.45
1607.47959	5360.05
1610.79447	4956.85
1614.10715	4636.25
1617.41763	4396.05
1620.7259	4275.45
1624.03199	4316.65
1627.33587	4446.35
1630.63757	4767.85
1633.93707	5375.65
1637.23439	6429.75
1640.52951	8377.25
1643.82246	11726.45
1647.11321	16303.85
1650.40179	19967.55
1653.68819	19670.05
1656.97241	15499.45
1660.25446	10646.15
1663.53433	7304.55
1666.81203	5471.55
1670.08756	4547.95
1673.36092	4045.45
1676.63211	3723.55
1679.90115	3535.35
1683.16801	3383.75
1686.43272	3271.05
1689.69527	3212.55
1692.95567	3130.35
1696.2139	3098.45
1699.46999	3021.45
1702.72392	3021.65
1705.97571	3017.35
1709.22535	3014.55
1712.47284	3071.85
1715.71819	3100.35
1718.96139	3090.05
1722.20246	3067.75
1725.44139	3027.35
1728.67818	2967.45
1731.91284	2884.25
1735.14537	2838.15
1738.37576	2807.35
1741.60403	2781.05
1744.83017	2749.75
1748.05418	2755.95
1751.27607	2736.55
1754.49584	2678.65
1757.71349	2622.95
1760.92903	2614.25
1764.14244	2547.35
1767.35375	2525.75
1770.56294	2482.35
1773.77002	2448.65
1776.97499	2444.35
1780.17785	2400.85
1783.37861	2376.45
1786.57727	2378.35
1789.77382	2324.05
1792.96828	2354.25
1796.16064	2367.25
1799.3509	2345.85
1802.53907	2354.15
1805.72514	2325.75
1808.90913	2314.65
1812.09102	2306.05
1815.27083	2279.35
1818.44856	2271.25
1821.6242	2279.45
1824.79776	2259.95
1827.96924	2235.35
1831.13864	2222.75
1834.30597	2212.35
1837.47122	2189.85
1840.6344	2169.35
1843.7955	2142.25
1846.95454	2128.35
1850.11151	2138.15
1853.26642	2101.95
1856.41926	2105.65
1859.57004	2104.45
1862.71876	2110.25
1865.86542	2117.15
1869.01003	2118.75
1872.15258	2098.65
1875.29308	2131.95
1878.43152	2134.65
1881.56792	2115.95
1884.70227	2108.65
1887.83457	2094.75
1890.96482	2062.75
1894.09304	2064.15
1897.21921	2062.85
1900.34335	2065.65
1903.46544	2052.05
1906.58551	2066.05
1909.70353	2062.25
1912.81953	2051.25
1915.93349	2032.85
1919.04543	2038.05
1922.15534	2015.65
1925.26322	2001.95
1928.36908	1975.05
1931.47292	1970.55
1934.57473	1964.65
1937.67453	1921.55
1940.77232	1888.95
1943.86808	1886.25
1946.96184	1883.05
1950.05358	1858.95
1953.14331	1849.75
1956.23103	1868.85
1959.31675	1844.45
1962.40046	1823.65
1965.48217	1845.65
1968.56188	1880.65
1971.63959	1884.85
1974.7153	1882.05
1977.78901	1872.35
1980.86073	1841.85
1983.93046	1805.05
1986.99819	1726.85
1990.06394	1730.05
1993.1277	1758.05
1996.18947	1742.25
1999.24925	1708.45
2002.30706	1710.85
2005.36288	1708.75
2008.41672	1690.35
2011.46859	1656.95
2014.51848	1677.15
2017.56639	1645.65
2020.61233	1644.35
2023.6563	1657.85
2026.6983	1609.95
2029.73833	1618.15
2032.7764	1634.25
2035.8125	1598.55
2038.84664	1598.85
2041.87881	1598.95
2044.90903	1606.55
2047.93729	1591.05
2050.96359	1576.65
2053.98794	1577.75
2057.01034	1576.35
2060.03078	1552.75
2063.04927	1534.55
2066.06582	1542.65
2069.08042	1518.25
2072.09307	1524.25
2075.10378	1515.35
2078.11255	1520.25
2081.11938	1516.95
2084.12426	1516.25
2087.12722	1513.35
2090.12824	1506.85
2093.12732	1513.15
2096.12447	1520.85
2099.11969	1517.95
2102.11299	1504.05
2105.10435	1534.55
2108.09379	1519.65
2111.08131	1506.15
2114.0669	1522.45
2117.05057	1529.65
2120.03233	1518.95
2123.01216	1554.05
2125.99008	1560.25
2128.96609	1567.15
2131.94018	1569.55
2134.91236	1544.55
2137.88263	1525.45
2140.851	1526.85
2143.81746	1533.65
2146.78201	1509.95
2149.74466	1490.95
2152.7054	1477.45
2155.66425	1463.35
2158.6212	1455.35
2161.57625	1426.95
2164.52941	1408.15
2167.48067	1434.15
2170.43004	1437.05
2173.37752	1450.95
2176.32311	1450.85
2179.26681	1452.35
2182.20863	1466.15
2185.14856	1457.85
2188.08661	1461.35
2191.02278	1456.95
2193.95707	1427.45
2196.88948	1402.15
2199.82001	1410.65
2202.74867	1404.95
2205.67545	1414.15
2208.60037	1415.75
2211.52341	1411.35
2214.44458	1396.75
2217.36388	1399.65
2220.28132	1386.35
2223.1969	1364.05
2226.11061	1373.25
2229.02246	1366.35
2231.93245	1366.45
2234.84058	1354.05
2237.74686	1338.65
2240.65128	1343.45
2243.55385	1357.75
2246.45456	1333.55
2249.35343	1372.15
2252.25044	1369.45
2255.14561	1393.35
2258.03893	1413.85
2260.93041	1417.25
2263.82004	1426.65
2266.70783	1446.85
2269.59378	1417.95
2272.4779	1408.25
2275.36017	1417.35
2278.24061	1406.95
2281.11922	1375.75
2283.996	1385.75
2286.87094	1353.45
2289.74405	1358.75
2292.61534	1345.05
2295.4848	1333.55
2298.35243	1326.05
2301.21824	1311.55
2304.08223	1307.15
2306.94439	1312.85
2309.80474	1311.45
2312.66327	1311.95
2315.51999	1297.15
2318.37489	1298.85
2321.22797	1273.45
2324.07925	1280.55
2326.92871	1282.15
2329.77637	1273.95
2332.62222	1282.25
2335.46626	1260.55
2338.3085	1259.25
2341.14893	1283.55
2343.98756	1297.75
2346.8244	1273.35
2349.65943	1279.25
2352.49267	1285.85
2355.32411	1309.95
2358.15376	1313.55
2360.98161	1333.75
2363.80768	1326.65
2366.63195	1353.35
2369.45444	1368.25
2372.27514	1373.65
2375.09405	1386.45
2377.91118	1347.95
2380.72652	1331.65
2383.54009	1329.65
2386.35187	1328.55
2389.16188	1296.55
2391.97011	1292.15
2394.77657	1272.55
2397.58125	1266.85
2400.38416	1260.45
2403.18529	1244.15
2405.98466	1224.05
2408.78226	1237.35
2411.57809	1225.85
2414.37216	1217.45
2417.16446	1217.05
2419.955	1206.95
2422.74378	1223.95
2425.5308	1212.15
2428.31606	1217.55
2431.09956	1230.35
2433.88131	1224.35
2436.6613	1241.65
2439.43954	1243.65
2442.21603	1227.85
2444.99077	1231.35
2447.76377	1250.75
2450.53501	1251.35
2453.30451	1250.75
2456.07226	1266.95
2458.83827	1265.45
2461.60254	1218.65
2464.36507	1251.25
2467.12586	1236.85
2469.88492	1250.65
2472.64224	1251.45
2475.39782	1249.25
2478.15167	1265.85
2480.90379	1273.65
2483.65417	1301.65
2486.40283	1319.45
2489.14976	1337.35
2491.89497	1333.25
2494.63845	1328.95
2497.3802	1311.95
2500.12024	1311.45
2502.85855	1299.45
2505.59514	1288.45
2508.33002	1265.35
2511.06318	1224.85
2513.79462	1210.75
2516.52435	1160.15
2519.25237	1128.75
2521.97867	1118.15
2524.70327	1116.45
2527.42616	1104.65
2530.14734	1120.95
2532.86681	1096.25
2535.58458	1105.95
2538.30065	1098.75
2541.01501	1118.85
2543.72768	1105.05
2546.43864	1122.55
2549.14791	1119.35
2551.85548	1111.45
2554.56136	1121.45
2557.26554	1138.35
2559.96803	1139.85
2562.66883	1140.85
2565.36794	1126.45
2568.06536	1110.55
2570.7611	1144.05
2573.45514	1132.45
2576.14751	1121.75
2578.83819	1111.65
2581.52719	1105.65
2584.21451	1100.15
2586.90015	1079.45
2589.58411	1068.45
2592.2664	1089.45
2594.94701	1088.45
2597.62594	1086.45
2600.30321	1026.75
2602.9788	1058.75
2605.65273	1053.05
2608.32498	1064.55
2610.99557	1080.45
2613.66449	1050.35
2616.33175	1086.75
2618.99734	1079.15
2621.66128	1078.75
2624.32355	1067.05
2626.98416	1048.95
2629.64311	1042.95
2632.30041	1036.05
2634.95605	1012.95
2637.61004	1002.85
2640.26238	989.05
2642.91306	984.85
2645.56209	1002.45
2648.20948	993.45
2650.85521	979.95
2653.4993	1003.65
2656.14175	1000.55
2658.78255	1000.85
2661.42171	974.35
2664.05923	1020.55
2666.6951	1023.15
2669.32934	1040.75
2671.96194	1049.95
2674.59291	1035.15
2677.22224	1042.75
2679.84993	1032.05
2682.476	1023.05
2685.10043	1024.55
2687.72324	1007.55
2690.34441	1012.75
2692.96396	1002.75
2695.58188	1016.75
2698.19818	1004.85
2700.81285	984.75
2703.4259	979.05
2706.03733	955.25
2708.64714	969.55
2711.25533	995.95
2713.86191	1003.05
2716.46687	1001.05
2719.07021	1004.25
2721.67194	1005.55
2724.27206	1009.05
2726.87057	991.05
2729.46747	977.25
2732.06276	978.05
2734.65644	960.65
2737.24852	963.45
2739.83899	939.45
2742.42786	956.15
2745.01513	952.15
2747.60079	933.45
2750.18486	912.45
2752.76733	917.75
2755.3482	910.85
2757.92747	910.95
2760.50515	892.95
2763.08123	888.25
2765.65573	893.05
2768.22863	886.75
2770.79994	874.35
2773.36967	873.75
2775.9378	870.25
2778.50435	877.75
2781.06932	877.65
2783.6327	872.45
2786.1945	894.35
2788.75471	881.45
2791.31335	887.25
2793.87041	882.35
2796.42589	880.95
2798.97979	873.85
2801.53212	900.55
2804.08288	917.95
2806.63206	910.35
2809.17967	911.05
2811.72571	932.35
2814.27018	943.45
2816.81308	947.85
2819.35442	922.15
2821.89419	968.95
2824.43239	958.55
2826.96904	995.75
2829.50412	967.25
2832.03763	973.15
2834.56959	956.35
2837.1	942.05
2839.62884	933.25
2842.15613	932.95
2844.68186	949.35
2847.20604	921.05
2849.72867	928.15
2852.24974	946.65
2854.76927	923.25
2857.28724	897.45
2859.80367	979.05
2862.31855	997.05
2864.83189	995.75
2867.34368	1008.45
2869.85393	1031.05
2872.36264	1013.95
2874.8698	1019.75
2877.37543	1025.35
2879.87952	1005.15
2882.38207	984.25
2884.88308	976.35
2887.38256	971.85
2889.88051	957.25
2892.37692	951.25
2894.8718	926.45
2897.36515	951.35
2899.85698	949.35
2902.34727	947.15
2904.83604	961.55
2907.32328	985.75
2909.809	1002.25
2912.29319	1001.65
2914.77587	1022.65
2917.25702	1031.85
2919.73665	1026.75
2922.21476	1012.75
2924.69136	996.35
2927.16644	962.15
2929.64	952.45
2932.11205	925.95
2934.58258	930.75
2937.05161	917.95
2939.51912	926.05
2941.98513	927.85
2944.44962	922.85
2946.91261	895.15
2949.37409	915.45
2951.83407	910.65
2954.29254	912.35
2956.74951	913.05
2959.20498	905.55
2961.65895	908.05
2964.11142	905.35
2966.56239	900.55
2969.01186	893.35
2971.45984	892.85
2973.90632	887.75
2976.35131	913.05
2978.7948	895.05
2981.23681	888.55
2983.67732	898.05
2986.11635	903.65
2988.55388	882.65
2990.98993	900.95
2993.4245	890.15
2995.85758	890.85
2998.28917	895.65
3000.71928	892.65
3003.14791	892.85
3005.57506	882.65
3008.00073	875.55
3010.42493	819.85
3012.84764	879.75
3015.26888	877.05
3017.68865	865.45
3020.10694	831.15
3022.52376	849.05
3024.9391	841.75
3027.35298	828.75
3029.76539	813.65
3032.17632	804.35
3034.5858	791.45
3036.9938	793.05
3039.40034	774.95
3041.80542	757.55
3044.20903	744.55
3046.61118	736.35
3049.01187	747.15
3051.4111	729.05
3053.80888	723.75
3056.20519	728.95
3058.60005	714.65
3060.99345	742.75
3063.3854	716.35
3065.7759	709.95
3068.16494	701.45
3070.55254	691.15
3072.93868	716.25
3075.32338	708.25
3077.70662	699.05
3080.08842	692.35
3082.46878	678.25
3084.84769	698.75
3087.22515	676.65
3089.60118	691.15
3091.97576	673.15
3094.3489	678.85
3096.72061	669.35
3099.09087	662.15
3101.4597	671.95
3103.82709	664.65
3106.19305	651.45
3108.55757	665.25
3110.92066	656.35
3113.28232	667.25
3115.64255	668.55
3118.00134	671.65
3120.35871	656.65
3122.71466	649.15
3125.06917	658.45
3127.42226	655.25
3129.77393	642.65
3132.12417	660.35
3134.47299	671.45
3136.82039	648.35
3139.16636	623.75
3141.51092	649.75
3143.85406	660.25
3146.19579	640.85
3148.53609	640.95
3150.87499	652.15
3153.21246	649.45
3155.54853	655.45
3157.88318	664.45
3160.21642	664.45
3162.54826	654.35
3164.87868	662.45
3167.2077	617.95
3169.5353	638.55
3171.86151	639.95
3174.18631	628.45
3176.5097	618.45
3178.83169	619.45
3181.15228	619.65
3183.47147	599.35
3185.78926	579.95
3188.10565	597.95
3190.42065	579.45
3192.73424	588.95
3195.04645	584.25
3197.35725	571.05
3199.66667	583.95
3201.97469	586.85
3204.28132	579.35
3206.58656	593.05
3208.8904	602.45
3211.19287	594.05
3213.49394	589.95
3215.79363	586.55
3218.09193	599.45
3220.38884	594.85
3222.68438	593.35
3224.97853	569.95
3227.2713	592.85
3229.56269	579.15
3231.8527	580.75
3234.14133	571.65
3236.42858	571.95
3238.71446	549.75
3240.99896	573.35
3243.28209	557.15
3245.56384	575.55
3247.84423	557.55
3250.12324	570.25
3252.40088	558.75
3254.67715	548.85
3256.95205	544.45
3259.22558	556.35
3261.49775	560.05
3263.76855	554.55
3266.03799	565.55
3268.30606	566.95
3270.57277	562.55
3272.83812	545.65
3275.10211	559.15
3277.36474	576.25
3279.62601	579.75
3281.88593	566.85
3284.14448	547.75
3286.40168	580.45
3288.65753	575.65
3290.91202	577.35
3293.16516	576.65
3295.41695	604.85
3297.66738	618.05
3299.91647	603.15
3302.16421	620.25
3304.4106	587.05
3306.65564	614.55
3308.89933	590.85
3311.14169	596.15
3313.38269	604.55
3315.62236	593.15
3317.86068	592.05
3320.09766	603.85
3322.3333	584.95
3324.5676	597.55
3326.80056	590.65
3329.03219	600.95
3331.26248	0.25
3333.49143	-0.35
3335.71905	1.05
