Data from AgNPs_UA_10uM_CRN_500uM_SU_RamanShift__91__13-20-30-272.txt Node

Date: Thu Aug 04 13:20:30 BST 2022
User: TCL
Spectrometer: QEP01345
Trigger mode: 4
Integration Time (sec): 1.000000E0
Scans to average: 10
Electric dark correction enabled: true
Nonlinearity correction enabled: false
Boxcar width: 0
XAxis mode: Raman Shifts
Number of Pixels in Spectrum: 1044
>>>>>Begin Spectral Data<<<<<
46.04893	-0.3125
50.45542	-0.0125
54.85868	-0.0125
59.25871	0.9875
63.6555	20.2875
68.04907	21.5875
72.43941	22.1875
76.82654	21.9875
81.21044	21.8875
85.59113	26.3875
89.96862	26.6875
94.34289	24.5875
98.71396	25.1875
103.08183	28.2875
107.4465	27.9875
111.80798	31.6875
116.16626	31.0875
120.52136	33.1875
124.87327	33.3875
129.222	37.0875
133.56755	38.7875
137.90993	41.4875
142.24913	47.5875
146.58517	56.2875
150.91804	61.3875
155.24774	78.4875
159.57429	97.1875
163.89768	127.1875
168.21792	169.0875
172.53501	232.6875
176.84895	324.3875
181.15975	462.2875
185.46741	657.0875
189.77193	910.8875
194.07331	1223.4875
198.37157	1588.3875
202.6667	1954.8875
206.9587	2327.9875
211.24758	2698.4875
215.53334	3069.2875
219.81599	3480.5875
224.09553	3932.8875
228.37195	4435.9875
232.64527	4960.6875
236.91549	5474.7875
241.18261	5962.9875
245.44663	6380.5875
249.70755	6711.7875
253.96539	7039.4875
258.22014	7281.7875
262.4718	7507.7875
266.72039	7629.0875
270.96589	7685.7875
275.20832	7648.3875
279.44768	7563.9875
283.68397	7434.3875
287.91719	7369.3875
292.14735	7375.3875
296.37445	7457.5875
300.59849	7633.6875
304.81948	7879.7875
309.03742	8049.5875
313.25231	8155.5875
317.46415	8102.6875
321.67296	7847.4875
325.87872	7607.3875
330.08145	7472.2875
334.28114	7472.1875
338.47781	7556.3875
342.67145	7698.9875
346.86207	7876.9875
351.04966	8152.2875
355.23424	8430.9875
359.4158	8646.6875
363.59435	8760.8875
367.76989	8817.6875
371.94243	8832.9875
376.11196	8836.1875
380.27849	8854.0875
384.44203	8891.0875
388.60257	8940.0875
392.76012	8998.6875
396.91468	9154.2875
401.06626	9292.2875
405.21485	9314.4875
409.36047	9258.5875
413.50311	9010.1875
417.64277	8786.0875
421.77947	8652.0875
425.9132	8568.1875
430.04396	8577.4875
434.17176	8610.1875
438.2966	8728.7875
442.41849	8885.7875
446.53742	9069.7875
450.6534	9276.6875
454.76644	9436.5875
458.87653	9498.4875
462.98368	9460.5875
467.08789	9415.9875
471.18916	9261.4875
475.2875	9086.1875
479.38291	8902.9875
483.4754	8810.9875
487.56496	8735.8875
491.6516	8694.1875
495.73531	8697.4875
499.81612	8732.6875
503.89401	8813.8875
507.96899	8858.9875
512.04106	8886.8875
516.11023	8948.0875
520.1765	8974.3875
524.23987	8989.0875
528.30034	8986.0875
532.35792	8965.8875
536.41261	8903.6875
540.46441	8818.2875
544.51333	8784.0875
548.55936	8843.2875
552.60252	8967.9875
556.64279	9113.2875
560.6802	9220.5875
564.71473	9320.5875
568.7464	9378.3875
572.7752	9357.9875
576.80114	9152.9875
580.82422	9008.9875
584.84444	8987.7875
588.86181	9029.7875
592.87633	9127.6875
596.888	9296.5875
600.89682	9701.4875
604.9028	10663.0875
608.90594	12642.5875
612.90624	14414.6875
616.90371	13338.0875
620.89834	10730.1875
624.89015	9711.4875
628.87913	9674.0875
632.86528	9783.1875
636.84862	9785.4875
640.82913	9545.2875
644.80683	9227.1875
648.78172	9046.3875
652.75379	9028.4875
656.72306	9301.6875
660.68952	9574.2875
664.65319	9541.9875
668.61405	9446.7875
672.57211	9511.0875
676.52738	9506.7875
680.47986	9312.6875
684.42955	9133.9875
688.37646	9105.0875
692.32058	9193.8875
696.26192	9365.7875
700.20048	9534.1875
704.13626	9560.8875
708.06928	9434.0875
711.99952	9311.8875
715.927	9326.6875
719.85171	9379.6875
723.77365	9393.4875
727.69284	9310.3875
731.60928	9233.4875
735.52295	9226.7875
739.43388	9282.5875
743.34206	9321.3875
747.24749	9350.6875
751.15017	9348.6875
755.05012	9436.6875
758.94733	9733.1875
762.8418	10405.4875
766.73354	11424.1875
770.62254	12285.5875
774.50882	12479.6875
778.39237	12128.7875
782.27321	11403.3875
786.15132	10574.7875
790.02671	9951.5875
793.89938	9651.9875
797.76935	9544.0875
801.6366	9436.8875
805.50115	9368.0875
809.36299	9319.1875
813.22213	9320.2875
817.07857	9307.7875
820.93231	9294.0875
824.78336	9303.1875
828.63172	9328.6875
832.47738	9340.6875
836.32036	9326.7875
840.16066	9352.5875
843.99827	9359.8875
847.8332	9345.2875
851.66546	9352.6875
855.49504	9370.8875
859.32195	9365.8875
863.1462	9341.4875
866.96777	9340.0875
870.78668	9346.0875
874.60293	9373.7875
878.41652	9425.2875
882.22745	9487.8875
886.03573	9538.4875
889.84136	9558.4875
893.64433	9487.8875
897.44466	9462.3875
901.24235	9428.1875
905.0374	9425.1875
908.8298	9374.5875
912.61957	9381.3875
916.40671	9417.3875
920.19121	9436.5875
923.97308	9505.3875
927.75233	9626.5875
931.52895	9699.0875
935.30295	9650.2875
939.07433	9472.3875
942.84309	9385.3875
946.60924	9357.3875
950.37278	9340.3875
954.13371	9302.9875
957.89203	9272.2875
961.64774	9278.1875
965.40086	9277.7875
969.15137	9244.4875
972.89929	9251.3875
976.64461	9261.6875
980.38733	9275.8875
984.12747	9310.8875
987.86502	9365.6875
991.59999	9431.7875
995.33237	9548.7875
999.06217	9721.6875
1002.78939	9918.8875
1006.51404	10078.0875
1010.23611	10157.3875
1013.95561	10264.7875
1017.67255	10315.5875
1021.38692	10340.3875
1025.09872	10309.3875
1028.80796	10336.7875
1032.51465	10458.4875
1036.21877	10557.6875
1039.92035	10562.7875
1043.61937	10490.5875
1047.31584	10372.6875
1051.00976	10260.7875
1054.70114	10212.3875
1058.38998	10267.4875
1062.07627	10284.3875
1065.76003	10339.4875
1069.44126	10409.5875
1073.11995	10587.2875
1076.79611	10757.0875
1080.46974	10899.9875
1084.14085	10967.5875
1087.80943	11063.8875
1091.47549	11083.3875
1095.13903	11098.4875
1098.80005	11062.7875
1102.45857	11110.0875
1106.11456	11090.7875
1109.76805	10966.7875
1113.41903	10957.2875
1117.06751	11059.6875
1120.71348	11204.7875
1124.35696	11351.3875
1127.99793	11452.0875
1131.63641	11313.7875
1135.2724	11037.3875
1138.90589	10832.8875
1142.5369	10669.4875
1146.16542	10580.1875
1149.79145	10498.1875
1153.415	10437.4875
1157.03607	10418.3875
1160.65467	10498.2875
1164.27079	10694.4875
1167.88443	11030.5875
1171.49561	11501.6875
1175.10432	12227.1875
1178.71056	13163.3875
1182.31434	13990.7875
1185.91565	14368.2875
1189.51451	14362.4875
1193.11091	14115.4875
1196.70485	13759.1875
1200.29634	13360.1875
1203.88538	12934.7875
1207.47197	12525.5875
1211.05612	12081.1875
1214.63782	11721.5875
1218.21708	11505.2875
1221.79391	11396.2875
1225.36829	11411.1875
1228.94024	11394.9875
1232.50976	11304.1875
1236.07685	11276.0875
1239.6415	11266.4875
1243.20374	11298.8875
1246.76355	11405.6875
1250.32093	11518.5875
1253.8759	11727.5875
1257.42845	12004.3875
1260.97859	12333.4875
1264.52631	12626.8875
1268.07163	12886.7875
1271.61453	13051.4875
1275.15503	13116.2875
1278.69312	13264.0875
1282.22882	13329.7875
1285.76211	13461.4875
1289.29301	13564.1875
1292.82151	13759.4875
1296.34761	14017.2875
1299.87133	14492.1875
1303.39266	15225.5875
1306.9116	16383.4875
1310.42815	17554.9875
1313.94233	18114.3875
1317.45412	17722.2875
1320.96354	16839.9875
1324.47058	15919.3875
1327.97525	15133.3875
1331.47754	14641.4875
1334.97747	14515.6875
1338.47502	14637.2875
1341.97022	15097.5875
1345.46305	15795.0875
1348.95352	16756.1875
1352.44163	17778.5875
1355.92738	18846.6875
1359.41078	20059.5875
1362.89183	20805.3875
1366.37053	19839.1875
1369.84688	17415.5875
1373.32088	15214.0875
1376.79254	13986.7875
1380.26186	13374.0875
1383.72883	13025.5875
1387.19347	12698.9875
1390.65578	12345.7875
1394.11575	12042.2875
1397.57339	11796.1875
1401.0287	11754.7875
1404.48168	11766.2875
1407.93234	11850.3875
1411.38068	12032.7875
1414.82669	12208.4875
1418.27039	12224.9875
1421.71177	12168.6875
1425.15083	12090.1875
1428.58758	12035.7875
1432.02203	12118.8875
1435.45416	12239.4875
1438.88399	12205.0875
1442.31151	12149.9875
1445.73673	12139.7875
1449.15965	12134.9875
1452.58027	12069.0875
1455.9986	12025.6875
1459.41463	12009.5875
1462.82837	12081.9875
1466.23982	12257.5875
1469.64898	12468.2875
1473.05586	12616.8875
1476.46045	12769.7875
1479.86276	12912.2875
1483.26279	13064.2875
1486.66054	13226.1875
1490.05602	13550.8875
1493.44922	14022.4875
1496.84016	14766.8875
1500.22882	15800.2875
1503.61521	17038.2875
1506.99934	18238.4875
1510.38121	18817.4875
1513.76081	18548.7875
1517.13816	17391.5875
1520.51324	15859.2875
1523.88607	14622.7875
1527.25665	13900.6875
1530.62498	13519.0875
1533.99105	13313.3875
1537.35488	13219.0875
1540.71647	13128.3875
1544.07581	13053.9875
1547.4329	12928.8875
1550.78776	12788.8875
1554.14038	12637.3875
1557.49077	12627.1875
1560.83892	12700.8875
1564.18484	12942.8875
1567.52853	13167.9875
1570.86999	13314.4875
1574.20922	13345.5875
1577.54624	13176.8875
1580.88103	12757.3875
1584.2136	12285.1875
1587.54395	12074.1875
1590.87208	12261.4875
1594.19801	12794.3875
1597.52172	13413.9875
1600.84321	13722.3875
1604.16251	13570.9875
1607.47959	13236.1875
1610.79447	12749.5875
1614.10715	12114.9875
1617.41763	11533.2875
1620.7259	11064.1875
1624.03199	10832.0875
1627.33587	10825.3875
1630.63757	10999.0875
1633.93707	11409.9875
1637.23439	12110.7875
1640.52951	13088.9875
1643.82246	14306.5875
1647.11321	15392.7875
1650.40179	15678.0875
1653.68819	14804.2875
1656.97241	13185.7875
1660.25446	11721.4875
1663.53433	10727.0875
1666.81203	10136.4875
1670.08756	9786.0875
1673.36092	9591.7875
1676.63211	9423.6875
1679.90115	9296.9875
1683.16801	9223.2875
1686.43272	9136.6875
1689.69527	9073.1875
1692.95567	9044.4875
1696.2139	9009.2875
1699.46999	8993.6875
1702.72392	8995.2875
1705.97571	8972.1875
1709.22535	8966.7875
1712.47284	8979.2875
1715.71819	8986.7875
1718.96139	8962.4875
1722.20246	8939.8875
1725.44139	8925.2875
1728.67818	8872.1875
1731.91284	8804.0875
1735.14537	8756.2875
1738.37576	8753.9875
1741.60403	8717.2875
1744.83017	8687.4875
1748.05418	8701.9875
1751.27607	8666.4875
1754.49584	8642.4875
1757.71349	8633.9875
1760.92903	8632.6875
1764.14244	8628.0875
1767.35375	8585.5875
1770.56294	8580.4875
1773.77002	8576.6875
1776.97499	8554.9875
1780.17785	8524.4875
1783.37861	8485.8875
1786.57727	8483.9875
1789.77382	8484.7875
1792.96828	8485.2875
1796.16064	8455.9875
1799.3509	8432.0875
1802.53907	8451.4875
1805.72514	8420.3875
1808.90913	8390.9875
1812.09102	8393.1875
1815.27083	8370.7875
1818.44856	8323.5875
1821.6242	8309.6875
1824.79776	8305.5875
1827.96924	8281.3875
1831.13864	8288.0875
1834.30597	8274.5875
1837.47122	8250.6875
1840.6344	8248.3875
1843.7955	8222.8875
1846.95454	8220.5875
1850.11151	8219.5875
1853.26642	8205.2875
1856.41926	8221.6875
1859.57004	8233.4875
1862.71876	8224.9875
1865.86542	8218.5875
1869.01003	8203.0875
1872.15258	8164.9875
1875.29308	8185.6875
1878.43152	8156.4875
1881.56792	8149.4875
1884.70227	8124.6875
1887.83457	8103.3875
1890.96482	8103.3875
1894.09304	8071.0875
1897.21921	8074.9875
1900.34335	8050.6875
1903.46544	8075.5875
1906.58551	8070.4875
1909.70353	8041.7875
1912.81953	8058.3875
1915.93349	8031.3875
1919.04543	8015.4875
1922.15534	8009.7875
1925.26322	7999.5875
1928.36908	7973.5875
1931.47292	7946.4875
1934.57473	7941.2875
1937.67453	7943.5875
1940.77232	7892.9875
1943.86808	7890.6875
1946.96184	7847.8875
1950.05358	7834.6875
1953.14331	7818.1875
1956.23103	7801.1875
1959.31675	7754.5875
1962.40046	7755.9875
1965.48217	7730.5875
1968.56188	7674.6875
1971.63959	7664.0875
1974.7153	7657.0875
1977.78901	7656.2875
1980.86073	7643.4875
1983.93046	7583.6875
1986.99819	7558.3875
1990.06394	7550.3875
1993.1277	7528.2875
1996.18947	7490.6875
1999.24925	7456.2875
2002.30706	7408.2875
2005.36288	7413.0875
2008.41672	7398.1875
2011.46859	7369.4875
2014.51848	7351.4875
2017.56639	7333.4875
2020.61233	7290.6875
2023.6563	7295.1875
2026.6983	7278.8875
2029.73833	7232.0875
2032.7764	7233.2875
2035.8125	7227.0875
2038.84664	7197.1875
2041.87881	7193.9875
2044.90903	7181.2875
2047.93729	7166.3875
2050.96359	7162.1875
2053.98794	7129.3875
2057.01034	7135.4875
2060.03078	7122.7875
2063.04927	7117.9875
2066.06582	7121.1875
2069.08042	7106.0875
2072.09307	7088.4875
2075.10378	7073.2875
2078.11255	7097.3875
2081.11938	7095.4875
2084.12426	7054.3875
2087.12722	7051.5875
2090.12824	7057.3875
2093.12732	7047.9875
2096.12447	7079.3875
2099.11969	7070.1875
2102.11299	7062.5875
2105.10435	7054.2875
2108.09379	7047.2875
2111.08131	7048.2875
2114.0669	7075.1875
2117.05057	7078.1875
2120.03233	7083.0875
2123.01216	7093.7875
2125.99008	7079.1875
2128.96609	7093.0875
2131.94018	7099.4875
2134.91236	7095.2875
2137.88263	7085.5875
2140.851	7080.5875
2143.81746	7091.2875
2146.78201	7086.0875
2149.74466	7079.6875
2152.7054	7082.2875
2155.66425	7074.5875
2158.6212	7070.7875
2161.57625	7047.2875
2164.52941	7052.9875
2167.48067	7044.7875
2170.43004	7043.8875
2173.37752	7043.8875
2176.32311	7046.4875
2179.26681	7038.5875
2182.20863	7054.9875
2185.14856	7057.3875
2188.08661	7060.6875
2191.02278	7055.3875
2193.95707	7069.9875
2196.88948	7033.5875
2199.82001	7038.5875
2202.74867	7028.5875
2205.67545	7050.5875
2208.60037	7032.8875
2211.52341	7005.0875
2214.44458	6986.5875
2217.36388	6984.0875
2220.28132	6970.9875
2223.1969	6955.9875
2226.11061	6914.0875
2229.02246	6904.6875
2231.93245	6900.3875
2234.84058	6876.1875
2237.74686	6870.7875
2240.65128	6846.5875
2243.55385	6847.4875
2246.45456	6835.3875
2249.35343	6840.6875
2252.25044	6824.1875
2255.14561	6802.0875
2258.03893	6825.2875
2260.93041	6792.7875
2263.82004	6797.0875
2266.70783	6779.7875
2269.59378	6752.0875
2272.4779	6728.7875
2275.36017	6711.5875
2278.24061	6713.9875
2281.11922	6681.7875
2283.996	6681.6875
2286.87094	6638.9875
2289.74405	6650.6875
2292.61534	6652.3875
2295.4848	6626.8875
2298.35243	6607.3875
2301.21824	6618.5875
2304.08223	6606.1875
2306.94439	6599.9875
2309.80474	6611.4875
2312.66327	6618.0875
2315.51999	6609.9875
2318.37489	6605.9875
2321.22797	6569.8875
2324.07925	6584.7875
2326.92871	6558.1875
2329.77637	6561.5875
2332.62222	6549.5875
2335.46626	6520.1875
2338.3085	6522.9875
2341.14893	6524.3875
2343.98756	6539.2875
2346.8244	6529.4875
2349.65943	6515.1875
2352.49267	6523.8875
2355.32411	6504.1875
2358.15376	6504.3875
2360.98161	6496.3875
2363.80768	6491.7875
2366.63195	6497.5875
2369.45444	6483.7875
2372.27514	6468.0875
2375.09405	6449.4875
2377.91118	6448.2875
2380.72652	6419.4875
2383.54009	6406.8875
2386.35187	6402.0875
2389.16188	6393.3875
2391.97011	6364.4875
2394.77657	6348.8875
2397.58125	6337.1875
2400.38416	6334.7875
2403.18529	6330.1875
2405.98466	6328.9875
2408.78226	6313.9875
2411.57809	6292.9875
2414.37216	6248.3875
2417.16446	6274.5875
2419.955	6269.1875
2422.74378	6253.2875
2425.5308	6246.6875
2428.31606	6253.4875
2431.09956	6248.4875
2433.88131	6224.3875
2436.6613	6219.4875
2439.43954	6223.5875
2442.21603	6216.8875
2444.99077	6222.5875
2447.76377	6226.4875
2450.53501	6200.5875
2453.30451	6209.0875
2456.07226	6192.2875
2458.83827	6180.0875
2461.60254	6169.2875
2464.36507	6146.8875
2467.12586	6141.8875
2469.88492	6129.6875
2472.64224	6149.0875
2475.39782	6160.0875
2478.15167	6143.0875
2480.90379	6132.7875
2483.65417	6125.0875
2486.40283	6124.8875
2489.14976	6130.3875
2491.89497	6128.9875
2494.63845	6135.5875
2497.3802	6120.7875
2500.12024	6123.7875
2502.85855	6102.3875
2505.59514	6093.3875
2508.33002	6073.8875
2511.06318	6068.3875
2513.79462	6050.4875
2516.52435	6065.2875
2519.25237	6048.9875
2521.97867	6041.8875
2524.70327	6039.8875
2527.42616	6007.7875
2530.14734	5998.1875
2532.86681	5976.5875
2535.58458	6011.9875
2538.30065	5997.3875
2541.01501	6003.6875
2543.72768	5985.7875
2546.43864	5991.4875
2549.14791	5961.3875
2551.85548	5960.4875
2554.56136	5958.4875
2557.26554	5942.6875
2559.96803	5920.8875
2562.66883	5913.3875
2565.36794	5903.5875
2568.06536	5888.3875
2570.7611	5870.5875
2573.45514	5853.0875
2576.14751	5857.0875
2578.83819	5858.7875
2581.52719	5843.2875
2584.21451	5837.2875
2586.90015	5839.0875
2589.58411	5837.3875
2592.2664	5832.7875
2594.94701	5807.9875
2597.62594	5797.4875
2600.30321	5796.8875
2602.9788	5794.7875
2605.65273	5790.2875
2608.32498	5777.9875
2610.99557	5765.8875
2613.66449	5765.2875
2616.33175	5751.9875
2618.99734	5774.3875
2621.66128	5738.7875
2624.32355	5741.6875
2626.98416	5724.9875
2629.64311	5720.9875
2632.30041	5716.4875
2634.95605	5709.9875
2637.61004	5696.3875
2640.26238	5680.4875
2642.91306	5676.0875
2645.56209	5670.0875
2648.20948	5659.8875
2650.85521	5648.9875
2653.4993	5658.0875
2656.14175	5661.3875
2658.78255	5649.9875
2661.42171	5630.6875
2664.05923	5652.2875
2666.6951	5675.2875
2669.32934	5664.7875
2671.96194	5669.5875
2674.59291	5663.8875
2677.22224	5656.8875
2679.84993	5644.0875
2682.476	5665.5875
2685.10043	5659.4875
2687.72324	5653.0875
2690.34441	5639.1875
2692.96396	5642.9875
2695.58188	5639.4875
2698.19818	5628.0875
2700.81285	5627.4875
2703.4259	5601.4875
2706.03733	5606.7875
2708.64714	5593.9875
2711.25533	5598.9875
2713.86191	5603.1875
2716.46687	5605.7875
2719.07021	5605.4875
2721.67194	5616.1875
2724.27206	5589.4875
2726.87057	5610.7875
2729.46747	5592.9875
2732.06276	5609.2875
2734.65644	5585.4875
2737.24852	5587.1875
2739.83899	5564.9875
2742.42786	5556.4875
2745.01513	5533.5875
2747.60079	5533.6875
2750.18486	5541.9875
2752.76733	5531.3875
2755.3482	5540.6875
2757.92747	5505.7875
2760.50515	5496.4875
2763.08123	5489.9875
2765.65573	5470.3875
2768.22863	5482.0875
2770.79994	5458.7875
2773.36967	5461.2875
2775.9378	5454.8875
2778.50435	5468.9875
2781.06932	5461.8875
2783.6327	5452.4875
2786.1945	5472.9875
2788.75471	5428.6875
2791.31335	5422.3875
2793.87041	5414.8875
2796.42589	5381.6875
2798.97979	5383.6875
2801.53212	5381.7875
2804.08288	5372.0875
2806.63206	5338.3875
2809.17967	5358.1875
2811.72571	5345.9875
2814.27018	5329.5875
2816.81308	5311.0875
2819.35442	5291.5875
2821.89419	5300.9875
2824.43239	5291.8875
2826.96904	5273.1875
2829.50412	5267.6875
2832.03763	5248.6875
2834.56959	5254.6875
2837.1	5232.2875
2839.62884	5233.8875
2842.15613	5213.1875
2844.68186	5211.3875
2847.20604	5219.5875
2849.72867	5224.6875
2852.24974	5191.3875
2854.76927	5200.1875
2857.28724	5170.4875
2859.80367	5174.2875
2862.31855	5159.0875
2864.83189	5158.6875
2867.34368	5162.4875
2869.85393	5157.5875
2872.36264	5138.7875
2874.8698	5119.6875
2877.37543	5142.9875
2879.87952	5146.4875
2882.38207	5126.5875
2884.88308	5106.8875
2887.38256	5112.6875
2889.88051	5101.5875
2892.37692	5104.5875
2894.8718	5088.7875
2897.36515	5115.6875
2899.85698	5095.3875
2902.34727	5098.5875
2904.83604	5122.3875
2907.32328	5121.8875
2909.809	5115.5875
2912.29319	5130.4875
2914.77587	5131.5875
2917.25702	5123.3875
2919.73665	5117.5875
2922.21476	5133.4875
2924.69136	5102.4875
2927.16644	5103.9875
2929.64	5083.4875
2932.11205	5067.5875
2934.58258	5041.2875
2937.05161	5058.7875
2939.51912	5061.4875
2941.98513	5049.5875
2944.44962	5048.7875
2946.91261	5043.7875
2949.37409	5038.2875
2951.83407	5031.1875
2954.29254	5029.7875
2956.74951	5023.3875
2959.20498	5029.0875
2961.65895	5013.8875
2964.11142	5027.2875
2966.56239	5009.2875
2969.01186	5003.8875
2971.45984	5007.4875
2973.90632	4990.7875
2976.35131	4981.7875
2978.7948	4967.5875
2981.23681	4960.9875
2983.67732	4972.1875
2986.11635	4952.4875
2988.55388	4941.0875
2990.98993	4916.0875
2993.4245	4912.6875
2995.85758	4894.8875
2998.28917	4881.1875
3000.71928	4862.6875
3003.14791	4853.5875
3005.57506	4851.7875
3008.00073	4833.1875
3010.42493	4824.6875
3012.84764	4827.1875
3015.26888	4812.1875
3017.68865	4802.8875
3020.10694	4792.7875
3022.52376	4759.1875
3024.9391	4767.9875
3027.35298	4737.6875
3029.76539	4735.9875
3032.17632	4728.1875
3034.5858	4726.5875
3036.9938	4718.8875
3039.40034	4704.6875
3041.80542	4671.1875
3044.20903	4676.6875
3046.61118	4673.9875
3049.01187	4660.8875
3051.4111	4647.9875
3053.80888	4638.8875
3056.20519	4633.1875
3058.60005	4621.9875
3060.99345	4603.0875
3063.3854	4613.8875
3065.7759	4565.1875
3068.16494	4592.6875
3070.55254	4544.7875
3072.93868	4538.4875
3075.32338	4526.3875
3077.70662	4514.0875
3080.08842	4493.3875
3082.46878	4518.4875
3084.84769	4484.6875
3087.22515	4471.3875
3089.60118	4488.7875
3091.97576	4479.2875
3094.3489	4480.6875
3096.72061	4472.9875
3099.09087	4457.8875
3101.4597	4457.2875
3103.82709	4463.7875
3106.19305	4462.4875
