Data from AgNPs_UA_10uM_CRN_500uM_SU_RamanShift__31__13-10-30-260.txt Node

Date: Thu Aug 04 13:10:30 BST 2022
User: TCL
Spectrometer: QEP01345
Trigger mode: 4
Integration Time (sec): 1.000000E0
Scans to average: 10
Electric dark correction enabled: true
Nonlinearity correction enabled: false
Boxcar width: 0
XAxis mode: Raman Shifts
Number of Pixels in Spectrum: 1044
>>>>>Begin Spectral Data<<<<<
46.04893	1.2625
50.45542	-0.2375
54.85868	-0.3375
59.25871	0.6625
63.6555	18.3625
68.04907	16.6625
72.43941	19.3625
76.82654	17.6625
81.21044	17.7625
85.59113	20.7625
89.96862	22.0625
94.34289	22.7625
98.71396	21.6625
103.08183	23.4625
107.4465	23.7625
111.80798	23.3625
116.16626	23.9625
120.52136	27.5625
124.87327	27.7625
129.222	27.4625
133.56755	29.4625
137.90993	33.8625
142.24913	37.8625
146.58517	43.2625
150.91804	48.5625
155.24774	61.5625
159.57429	75.1625
163.89768	102.5625
168.21792	130.0625
172.53501	180.8625
176.84895	252.5625
181.15975	362.3625
185.46741	509.2625
189.77193	712.7625
194.07331	959.9625
198.37157	1240.7625
202.6667	1542.5625
206.9587	1841.0625
211.24758	2134.7625
215.53334	2442.3625
219.81599	2770.5625
224.09553	3128.7625
228.37195	3523.1625
232.64527	3956.2625
236.91549	4385.8625
241.18261	4750.9625
245.44663	5076.9625
249.70755	5334.8625
253.96539	5554.9625
258.22014	5750.4625
262.4718	5882.3625
266.72039	5976.4625
270.96589	5996.2625
275.20832	5958.8625
279.44768	5869.8625
283.68397	5783.7625
287.91719	5724.5625
292.14735	5723.4625
296.37445	5778.6625
300.59849	5925.1625
304.81948	6132.5625
309.03742	6329.8625
313.25231	6421.7625
317.46415	6372.3625
321.67296	6168.8625
325.87872	5969.5625
330.08145	5868.8625
334.28114	5856.6625
338.47781	5890.7625
342.67145	6017.8625
346.86207	6182.1625
351.04966	6421.3625
355.23424	6682.6625
359.4158	6837.9625
363.59435	6880.8625
367.76989	6895.8625
371.94243	6875.5625
376.11196	6857.3625
380.27849	6855.9625
384.44203	6882.2625
388.60257	6915.1625
392.76012	6970.0625
396.91468	7083.7625
401.06626	7188.9625
405.21485	7225.5625
409.36047	7149.9625
413.50311	6976.1625
417.64277	6820.3625
421.77947	6707.8625
425.9132	6639.8625
430.04396	6617.7625
434.17176	6636.8625
438.2966	6709.6625
442.41849	6817.7625
446.53742	6935.2625
450.6534	7057.0625
454.76644	7156.9625
458.87653	7187.7625
462.98368	7213.5625
467.08789	7188.9625
471.18916	7084.3625
475.2875	6972.4625
479.38291	6854.0625
483.4754	6759.9625
487.56496	6736.7625
491.6516	6699.8625
495.73531	6720.3625
499.81612	6767.9625
503.89401	6822.3625
507.96899	6849.5625
512.04106	6891.8625
516.11023	6926.6625
520.1765	6963.9625
524.23987	6976.7625
528.30034	6967.0625
532.35792	6948.7625
536.41261	6889.6625
540.46441	6839.0625
544.51333	6818.8625
548.55936	6863.7625
552.60252	6944.6625
556.64279	7025.5625
560.6802	7113.9625
564.71473	7197.6625
568.7464	7278.7625
572.7752	7249.0625
576.80114	7065.7625
580.82422	6934.4625
584.84444	6919.2625
588.86181	6891.2625
592.87633	6939.6625
596.888	7044.1625
600.89682	7344.1625
604.9028	8084.7625
608.90594	9574.7625
612.90624	11042.2625
616.90371	10276.7625
620.89834	8221.5625
624.89015	7372.7625
628.87913	7311.1625
632.86528	7453.3625
636.84862	7536.6625
640.82913	7409.1625
644.80683	7166.9625
648.78172	7019.2625
652.75379	7044.7625
656.72306	7190.5625
660.68952	7400.0625
664.65319	7384.0625
668.61405	7292.8625
672.57211	7361.0625
676.52738	7353.8625
680.47986	7222.8625
684.42955	7061.2625
688.37646	7040.5625
692.32058	7076.0625
696.26192	7203.8625
700.20048	7324.2625
704.13626	7361.5625
708.06928	7287.5625
711.99952	7215.0625
715.927	7187.4625
719.85171	7246.5625
723.77365	7236.1625
727.69284	7220.7625
731.60928	7158.2625
735.52295	7161.3625
739.43388	7193.9625
743.34206	7223.8625
747.24749	7201.3625
751.15017	7207.0625
755.05012	7290.4625
758.94733	7517.4625
762.8418	8081.4625
766.73354	8937.6625
770.62254	9549.0625
774.50882	9686.9625
778.39237	9440.0625
782.27321	8923.5625
786.15132	8264.9625
790.02671	7757.2625
793.89938	7494.8625
797.76935	7356.5625
801.6366	7293.1625
805.50115	7233.1625
809.36299	7205.3625
813.22213	7202.8625
817.07857	7216.8625
820.93231	7207.2625
824.78336	7232.2625
828.63172	7245.0625
832.47738	7250.5625
836.32036	7232.3625
840.16066	7209.3625
843.99827	7204.3625
847.8332	7208.6625
851.66546	7222.4625
855.49504	7235.9625
859.32195	7232.5625
863.1462	7243.1625
866.96777	7246.5625
870.78668	7271.9625
874.60293	7278.8625
878.41652	7306.4625
882.22745	7361.4625
886.03573	7401.6625
889.84136	7382.0625
893.64433	7368.3625
897.44466	7364.3625
901.24235	7341.3625
905.0374	7339.2625
908.8298	7311.2625
912.61957	7313.8625
916.40671	7306.3625
920.19121	7309.4625
923.97308	7340.5625
927.75233	7403.5625
931.52895	7454.3625
935.30295	7399.0625
939.07433	7326.1625
942.84309	7249.6625
946.60924	7219.1625
950.37278	7206.8625
954.13371	7222.7625
957.89203	7189.8625
961.64774	7220.4625
965.40086	7210.5625
969.15137	7208.6625
972.89929	7197.2625
976.64461	7204.0625
980.38733	7192.3625
984.12747	7224.1625
987.86502	7238.1625
991.59999	7262.0625
995.33237	7329.0625
999.06217	7350.0625
1002.78939	7420.0625
1006.51404	7550.8625
1010.23611	7670.5625
1013.95561	7733.5625
1017.67255	7741.5625
1021.38692	7724.6625
1025.09872	7672.2625
1028.80796	7613.4625
1032.51465	7579.8625
1036.21877	7561.2625
1039.92035	7601.3625
1043.61937	7632.2625
1047.31584	7667.8625
1051.00976	7712.1625
1054.70114	7716.9625
1058.38998	7726.0625
1062.07627	7766.7625
1065.76003	7816.3625
1069.44126	7918.8625
1073.11995	8045.7625
1076.79611	8200.9625
1080.46974	8304.6625
1084.14085	8364.3625
1087.80943	8423.4625
1091.47549	8497.0625
1095.13903	8485.5625
1098.80005	8506.2625
1102.45857	8604.4625
1106.11456	8593.3625
1109.76805	8433.3625
1113.41903	8383.2625
1117.06751	8461.3625
1120.71348	8596.5625
1124.35696	8720.7625
1127.99793	8825.1625
1131.63641	8708.0625
1135.2724	8480.4625
1138.90589	8294.5625
1142.5369	8180.1625
1146.16542	8128.9625
1149.79145	8073.5625
1153.415	8012.0625
1157.03607	7969.0625
1160.65467	8020.3625
1164.27079	8162.4625
1167.88443	8408.0625
1171.49561	8728.7625
1175.10432	9200.5625
1178.71056	9840.8625
1182.31434	10398.0625
1185.91565	10548.6625
1189.51451	10606.1625
1193.11091	10508.0625
1196.70485	10380.3625
1200.29634	10215.3625
1203.88538	9971.0625
1207.47197	9654.7625
1211.05612	9321.5625
1214.63782	8995.5625
1218.21708	8745.1625
1221.79391	8593.7625
1225.36829	8531.3625
1228.94024	8522.1625
1232.50976	8534.1625
1236.07685	8565.9625
1239.6415	8611.0625
1243.20374	8628.0625
1246.76355	8679.5625
1250.32093	8767.2625
1253.8759	8830.1625
1257.42845	9028.2625
1260.97859	9239.9625
1264.52631	9460.3625
1268.07163	9600.4625
1271.61453	9671.4625
1275.15503	9681.0625
1278.69312	9670.2625
1282.22882	9673.2625
1285.76211	9744.6625
1289.29301	9860.7625
1292.82151	10035.7625
1296.34761	10179.1625
1299.87133	10453.3625
1303.39266	10903.2625
1306.9116	11630.7625
1310.42815	12392.7625
1313.94233	12642.4625
1317.45412	12261.8625
1320.96354	11653.4625
1324.47058	11105.2625
1327.97525	10650.9625
1331.47754	10361.4625
1334.97747	10310.5625
1338.47502	10397.3625
1341.97022	10710.5625
1345.46305	11322.8625
1348.95352	12213.8625
1352.44163	13145.1625
1355.92738	14025.7625
1359.41078	14971.7625
1362.89183	15592.7625
1366.37053	14910.2625
1369.84688	13038.6625
1373.32088	11318.5625
1376.79254	10366.9625
1380.26186	9899.5625
1383.72883	9610.0625
1387.19347	9303.2625
1390.65578	9051.8625
1394.11575	8773.9625
1397.57339	8638.0625
1401.0287	8573.5625
1404.48168	8529.5625
1407.93234	8589.0625
1411.38068	8710.6625
1414.82669	8810.3625
1418.27039	8861.7625
1421.71177	8809.6625
1425.15083	8742.6625
1428.58758	8649.6625
1432.02203	8634.9625
1435.45416	8658.2625
1438.88399	8620.0625
1442.31151	8618.0625
1445.73673	8675.3625
1449.15965	8695.4625
1452.58027	8688.1625
1455.9986	8669.7625
1459.41463	8693.5625
1462.82837	8764.4625
1466.23982	8917.0625
1469.64898	9061.8625
1473.05586	9224.6625
1476.46045	9328.2625
1479.86276	9432.7625
1483.26279	9547.6625
1486.66054	9696.1625
1490.05602	9928.6625
1493.44922	10323.4625
1496.84016	10933.0625
1500.22882	11777.0625
1503.61521	12786.3625
1506.99934	13794.8625
1510.38121	14333.9625
1513.76081	14126.9625
1517.13816	13116.1625
1520.51324	11902.3625
1523.88607	10888.5625
1527.25665	10297.7625
1530.62498	10011.6625
1533.99105	9886.7625
1537.35488	9855.5625
1540.71647	9767.2625
1544.07581	9670.5625
1547.4329	9577.6625
1550.78776	9463.9625
1554.14038	9389.8625
1557.49077	9328.9625
1560.83892	9382.0625
1564.18484	9588.1625
1567.52853	9807.1625
1570.86999	9931.4625
1574.20922	10018.3625
1577.54624	9929.0625
1580.88103	9607.8625
1584.2136	9158.6625
1587.54395	8896.0625
1590.87208	8903.2625
1594.19801	9101.8625
1597.52172	9360.4625
1600.84321	9476.9625
1604.16251	9405.0625
1607.47959	9287.0625
1610.79447	9088.5625
1614.10715	8800.3625
1617.41763	8502.9625
1620.7259	8238.9625
1624.03199	8067.1625
1627.33587	8025.4625
1630.63757	8041.6625
1633.93707	8215.3625
1637.23439	8625.3625
1640.52951	9190.9625
1643.82246	9998.4625
1647.11321	10819.3625
1650.40179	11272.6625
1653.68819	10889.0625
1656.97241	9866.4625
1660.25446	8801.6625
1663.53433	8120.7625
1666.81203	7685.6625
1670.08756	7434.7625
1673.36092	7270.3625
1676.63211	7178.0625
1679.90115	7072.5625
1683.16801	7017.8625
1686.43272	6978.0625
1689.69527	6921.3625
1692.95567	6892.3625
1696.2139	6838.3625
1699.46999	6832.5625
1702.72392	6823.5625
1705.97571	6828.3625
1709.22535	6826.9625
1712.47284	6810.9625
1715.71819	6811.8625
1718.96139	6795.1625
1722.20246	6800.0625
1725.44139	6775.1625
1728.67818	6736.9625
1731.91284	6699.4625
1735.14537	6680.5625
1738.37576	6666.4625
1741.60403	6626.7625
1744.83017	6623.0625
1748.05418	6587.4625
1751.27607	6602.4625
1754.49584	6580.0625
1757.71349	6584.1625
1760.92903	6572.7625
1764.14244	6534.1625
1767.35375	6534.2625
1770.56294	6496.1625
1773.77002	6517.2625
1776.97499	6488.0625
1780.17785	6457.8625
1783.37861	6438.6625
1786.57727	6458.5625
1789.77382	6435.5625
1792.96828	6430.3625
1796.16064	6415.3625
1799.3509	6416.9625
1802.53907	6402.6625
1805.72514	6388.8625
1808.90913	6360.3625
1812.09102	6346.2625
1815.27083	6325.5625
1818.44856	6309.9625
1821.6242	6312.2625
1824.79776	6290.2625
1827.96924	6296.6625
1831.13864	6268.0625
1834.30597	6282.4625
1837.47122	6239.4625
1840.6344	6222.2625
1843.7955	6230.4625
1846.95454	6222.9625
1850.11151	6217.5625
1853.26642	6220.9625
1856.41926	6211.6625
1859.57004	6220.1625
1862.71876	6206.4625
1865.86542	6200.7625
1869.01003	6198.3625
1872.15258	6187.5625
1875.29308	6168.5625
1878.43152	6171.5625
1881.56792	6153.9625
1884.70227	6151.9625
1887.83457	6124.6625
1890.96482	6119.5625
1894.09304	6093.2625
1897.21921	6106.6625
1900.34335	6077.9625
1903.46544	6074.4625
1906.58551	6065.0625
1909.70353	6059.2625
1912.81953	6059.7625
1915.93349	6057.1625
1919.04543	6025.5625
1922.15534	6015.7625
1925.26322	6012.9625
1928.36908	5995.9625
1931.47292	5976.1625
1934.57473	5983.3625
1937.67453	5947.6625
1940.77232	5930.2625
1943.86808	5921.3625
1946.96184	5895.5625
1950.05358	5902.8625
1953.14331	5861.1625
1956.23103	5864.6625
1959.31675	5844.4625
1962.40046	5805.7625
1965.48217	5802.8625
1968.56188	5775.3625
1971.63959	5778.2625
1974.7153	5761.4625
1977.78901	5742.4625
1980.86073	5740.2625
1983.93046	5696.6625
1986.99819	5685.3625
1990.06394	5677.2625
1993.1277	5649.1625
1996.18947	5626.1625
1999.24925	5614.1625
2002.30706	5574.3625
2005.36288	5563.9625
2008.41672	5547.3625
2011.46859	5514.8625
2014.51848	5516.2625
2017.56639	5497.7625
2020.61233	5470.3625
2023.6563	5458.3625
2026.6983	5441.0625
2029.73833	5445.3625
2032.7764	5405.9625
2035.8125	5397.8625
2038.84664	5368.7625
2041.87881	5363.9625
2044.90903	5348.4625
2047.93729	5357.5625
2050.96359	5331.1625
2053.98794	5339.1625
2057.01034	5320.2625
2060.03078	5294.0625
2063.04927	5319.1625
2066.06582	5296.9625
2069.08042	5295.8625
2072.09307	5278.3625
2075.10378	5278.2625
2078.11255	5278.3625
2081.11938	5264.5625
2084.12426	5266.6625
2087.12722	5260.0625
2090.12824	5253.8625
2093.12732	5252.4625
2096.12447	5262.4625
2099.11969	5275.5625
2102.11299	5263.6625
2105.10435	5261.1625
2108.09379	5266.0625
2111.08131	5235.6625
2114.0669	5265.5625
2117.05057	5256.7625
2120.03233	5270.2625
2123.01216	5272.2625
2125.99008	5258.4625
2128.96609	5280.4625
2131.94018	5278.2625
2134.91236	5279.3625
2137.88263	5248.9625
2140.851	5268.0625
2143.81746	5260.7625
2146.78201	5269.7625
2149.74466	5256.9625
2152.7054	5287.1625
2155.66425	5250.0625
2158.6212	5262.7625
2161.57625	5249.2625
2164.52941	5232.0625
2167.48067	5240.9625
2170.43004	5237.2625
2173.37752	5227.6625
2176.32311	5234.2625
2179.26681	5239.2625
2182.20863	5233.9625
2185.14856	5236.9625
2188.08661	5228.8625
2191.02278	5229.8625
2193.95707	5212.9625
2196.88948	5213.6625
2199.82001	5205.0625
2202.74867	5200.9625
2205.67545	5210.2625
2208.60037	5197.4625
2211.52341	5176.9625
2214.44458	5170.1625
2217.36388	5148.8625
2220.28132	5133.6625
2223.1969	5138.4625
2226.11061	5097.2625
2229.02246	5097.4625
2231.93245	5097.7625
2234.84058	5073.8625
2237.74686	5067.7625
2240.65128	5047.3625
2243.55385	5041.1625
2246.45456	5047.3625
2249.35343	5032.4625
2252.25044	5033.2625
2255.14561	5020.3625
2258.03893	5017.2625
2260.93041	5005.8625
2263.82004	5002.8625
2266.70783	4981.1625
2269.59378	4973.8625
2272.4779	4957.7625
2275.36017	4942.9625
2278.24061	4926.1625
2281.11922	4922.7625
2283.996	4898.8625
2286.87094	4892.0625
2289.74405	4886.6625
2292.61534	4880.8625
2295.4848	4876.8625
2298.35243	4858.9625
2301.21824	4855.0625
2304.08223	4862.5625
2306.94439	4849.4625
2309.80474	4843.9625
2312.66327	4839.3625
2315.51999	4828.6625
2318.37489	4812.2625
2321.22797	4790.4625
2324.07925	4803.7625
2326.92871	4794.2625
2329.77637	4786.1625
2332.62222	4772.7625
2335.46626	4754.1625
2338.3085	4740.8625
2341.14893	4752.3625
2343.98756	4747.5625
2346.8244	4748.4625
2349.65943	4720.9625
2352.49267	4721.7625
2355.32411	4693.9625
2358.15376	4713.5625
2360.98161	4702.6625
2363.80768	4707.1625
2366.63195	4724.8625
2369.45444	4702.4625
2372.27514	4715.5625
2375.09405	4696.9625
2377.91118	4688.2625
2380.72652	4674.5625
2383.54009	4666.8625
2386.35187	4666.3625
2389.16188	4640.4625
2391.97011	4633.9625
2394.77657	4612.6625
2397.58125	4599.5625
2400.38416	4605.9625
2403.18529	4592.2625
2405.98466	4581.8625
2408.78226	4558.4625
2411.57809	4571.4625
2414.37216	4547.7625
2417.16446	4539.9625
2419.955	4547.0625
2422.74378	4525.1625
2425.5308	4526.8625
2428.31606	4524.5625
2431.09956	4522.9625
2433.88131	4510.6625
2436.6613	4518.1625
2439.43954	4508.9625
2442.21603	4492.9625
2444.99077	4499.7625
2447.76377	4505.9625
2450.53501	4492.3625
2453.30451	4495.6625
2456.07226	4473.0625
2458.83827	4460.3625
2461.60254	4440.9625
2464.36507	4446.1625
2467.12586	4442.6625
2469.88492	4437.1625
2472.64224	4436.9625
2475.39782	4448.2625
2478.15167	4435.3625
2480.90379	4425.3625
2483.65417	4407.8625
2486.40283	4408.2625
2489.14976	4409.7625
2491.89497	4421.8625
2494.63845	4416.2625
2497.3802	4398.1625
2500.12024	4403.1625
2502.85855	4393.6625
2505.59514	4380.9625
2508.33002	4377.0625
2511.06318	4364.7625
2513.79462	4339.9625
2516.52435	4347.9625
2519.25237	4334.6625
2521.97867	4319.7625
2524.70327	4314.9625
2527.42616	4300.5625
2530.14734	4283.6625
2532.86681	4283.4625
2535.58458	4297.9625
2538.30065	4286.8625
2541.01501	4289.4625
2543.72768	4282.9625
2546.43864	4281.9625
2549.14791	4258.8625
2551.85548	4267.6625
2554.56136	4242.0625
2557.26554	4249.9625
2559.96803	4235.7625
2562.66883	4228.8625
2565.36794	4211.2625
2568.06536	4203.4625
2570.7611	4182.8625
2573.45514	4176.4625
2576.14751	4163.6625
2578.83819	4164.3625
2581.52719	4146.3625
2584.21451	4138.5625
2586.90015	4144.6625
2589.58411	4124.4625
2592.2664	4120.2625
2594.94701	4120.2625
2597.62594	4097.7625
2600.30321	4085.5625
2602.9788	4085.2625
2605.65273	4076.6625
2608.32498	4071.9625
2610.99557	4067.8625
2613.66449	4067.7625
2616.33175	4055.1625
2618.99734	4047.2625
2621.66128	4041.8625
2624.32355	4026.0625
2626.98416	4018.2625
2629.64311	4005.4625
2632.30041	4001.4625
2634.95605	3984.4625
2637.61004	3980.0625
2640.26238	3974.6625
2642.91306	3963.0625
2645.56209	3975.3625
2648.20948	3955.6625
2650.85521	3958.1625
2653.4993	3957.0625
2656.14175	3961.5625
2658.78255	3943.2625
2661.42171	3945.5625
2664.05923	3952.1625
2666.6951	3953.5625
2669.32934	3966.6625
2671.96194	3950.9625
2674.59291	3941.9625
2677.22224	3945.2625
2679.84993	3954.4625
2682.476	3939.4625
2685.10043	3949.5625
2687.72324	3948.8625
2690.34441	3945.8625
2692.96396	3947.9625
2695.58188	3934.5625
2698.19818	3927.2625
2700.81285	3919.4625
2703.4259	3907.0625
2706.03733	3905.8625
2708.64714	3911.5625
2711.25533	3901.4625
2713.86191	3918.6625
2716.46687	3919.8625
2719.07021	3891.1625
2721.67194	3924.2625
2724.27206	3896.1625
2726.87057	3914.0625
2729.46747	3895.4625
2732.06276	3900.4625
2734.65644	3896.4625
2737.24852	3889.6625
2739.83899	3869.3625
2742.42786	3876.3625
2745.01513	3854.6625
2747.60079	3849.4625
2750.18486	3858.6625
2752.76733	3843.4625
2755.3482	3834.6625
2757.92747	3832.8625
2760.50515	3821.1625
2763.08123	3817.7625
2765.65573	3791.6625
2768.22863	3788.8625
2770.79994	3787.5625
2773.36967	3788.2625
2775.9378	3777.3625
2778.50435	3774.3625
2781.06932	3766.0625
2783.6327	3772.7625
2786.1945	3741.9625
2788.75471	3749.7625
2791.31335	3739.5625
2793.87041	3734.4625
2796.42589	3721.1625
2798.97979	3694.0625
2801.53212	3694.4625
2804.08288	3692.7625
2806.63206	3676.6625
2809.17967	3681.4625
2811.72571	3671.5625
2814.27018	3670.9625
2816.81308	3666.3625
2819.35442	3655.1625
2821.89419	3651.5625
2824.43239	3625.1625
2826.96904	3633.8625
2829.50412	3623.2625
2832.03763	3601.5625
2834.56959	3598.7625
2837.1	3596.2625
2839.62884	3591.0625
2842.15613	3570.9625
2844.68186	3579.2625
2847.20604	3578.8625
2849.72867	3572.9625
2852.24974	3564.6625
2854.76927	3559.7625
2857.28724	3537.2625
2859.80367	3542.6625
2862.31855	3533.4625
2864.83189	3540.9625
2867.34368	3533.9625
2869.85393	3530.1625
2872.36264	3519.6625
2874.8698	3517.3625
2877.37543	3526.9625
2879.87952	3506.3625
2882.38207	3507.3625
2884.88308	3495.1625
2887.38256	3494.9625
2889.88051	3504.6625
2892.37692	3482.4625
2894.8718	3495.5625
2897.36515	3481.7625
2899.85698	3481.2625
2902.34727	3476.6625
2904.83604	3485.2625
2907.32328	3488.3625
2909.809	3491.5625
2912.29319	3488.4625
2914.77587	3480.6625
2917.25702	3496.9625
2919.73665	3487.7625
2922.21476	3489.5625
2924.69136	3494.9625
2927.16644	3482.2625
2929.64	3478.5625
2932.11205	3469.0625
2934.58258	3448.5625
2937.05161	3454.2625
2939.51912	3460.9625
2941.98513	3437.7625
2944.44962	3424.8625
2946.91261	3431.8625
2949.37409	3435.1625
2951.83407	3407.5625
2954.29254	3410.9625
2956.74951	3426.0625
2959.20498	3417.3625
2961.65895	3401.8625
2964.11142	3408.9625
2966.56239	3382.8625
2969.01186	3409.5625
2971.45984	3393.2625
2973.90632	3489.8625
2976.35131	3483.9625
2978.7948	3408.6625
2981.23681	3377.2625
2983.67732	3364.1625
2986.11635	3356.7625
2988.55388	3351.4625
2990.98993	3325.9625
2993.4245	3332.0625
2995.85758	3322.6625
2998.28917	3315.1625
3000.71928	3305.1625
3003.14791	3289.2625
3005.57506	3289.8625
3008.00073	3265.8625
3010.42493	3268.4625
3012.84764	3252.7625
3015.26888	3255.7625
3017.68865	3245.1625
3020.10694	3248.4625
3022.52376	3236.6625
3024.9391	3214.1625
3027.35298	3198.9625
3029.76539	3205.9625
3032.17632	3197.8625
3034.5858	3200.1625
3036.9938	3185.7625
3039.40034	3190.0625
3041.80542	3178.4625
3044.20903	3157.4625
3046.61118	3159.5625
3049.01187	3157.0625
3051.4111	3142.4625
3053.80888	3122.6625
3056.20519	3126.5625
3058.60005	3104.8625
3060.99345	3121.4625
3063.3854	3110.7625
3065.7759	3103.6625
3068.16494	3097.7625
3070.55254	3082.3625
3072.93868	3079.3625
3075.32338	3075.1625
3077.70662	3044.3625
3080.08842	3051.8625
3082.46878	3045.0625
3084.84769	3036.0625
3087.22515	3024.2625
3089.60118	3021.8625
3091.97576	3029.3625
3094.3489	3028.3625
3096.72061	3016.1625
3099.09087	3014.4625
3101.4597	3008.4625
3103.82709	2989.7625
3106.19305	3016.7625
3108.55757	3014.2625
3110.92066	3000.2625
3113.28232	2984.2625
3115.64255	2985.8625
3118.00134	2972.5625
3120.35871	2970.9625
3122.71466	2960.1625
