Data from AgNPs_UA_10uM_CRN_500uM_SU_RamanShift__57__13-14-50-265.txt Node

Date: Thu Aug 04 13:14:50 BST 2022
User: TCL
Spectrometer: QEP01345
Trigger mode: 4
Integration Time (sec): 1.000000E0
Scans to average: 10
Electric dark correction enabled: true
Nonlinearity correction enabled: false
Boxcar width: 0
XAxis mode: Raman Shifts
Number of Pixels in Spectrum: 1044
>>>>>Begin Spectral Data<<<<<
46.04893	0.3875
50.45542	-0.8125
54.85868	0.4875
59.25871	0.5875
63.6555	21.7875
68.04907	23.9875
72.43941	24.2875
76.82654	22.6875
81.21044	23.1875
85.59113	26.0875
89.96862	28.3875
94.34289	29.5875
98.71396	28.1875
103.08183	31.1875
107.4465	29.4875
111.80798	31.8875
116.16626	32.3875
120.52136	34.3875
124.87327	38.0875
129.222	39.9875
133.56755	41.7875
137.90993	43.1875
142.24913	51.7875
146.58517	61.1875
150.91804	68.5875
155.24774	82.7875
159.57429	103.6875
163.89768	138.1875
168.21792	180.7875
172.53501	254.8875
176.84895	350.8875
181.15975	502.3875
185.46741	713.8875
189.77193	988.2875
194.07331	1332.3875
198.37157	1725.0875
202.6667	2134.0875
206.9587	2535.0875
211.24758	2942.9875
215.53334	3371.8875
219.81599	3790.7875
224.09553	4295.8875
228.37195	4821.7875
232.64527	5396.4875
236.91549	5991.6875
241.18261	6536.9875
245.44663	6993.0875
249.70755	7366.2875
253.96539	7736.0875
258.22014	8003.0875
262.4718	8244.6875
266.72039	8401.8875
270.96589	8451.3875
275.20832	8410.6875
279.44768	8319.1875
283.68397	8184.4875
287.91719	8094.1875
292.14735	8100.7875
296.37445	8171.7875
300.59849	8339.8875
304.81948	8539.9875
309.03742	8724.9875
313.25231	8842.2875
317.46415	8785.7875
321.67296	8559.8875
325.87872	8314.5875
330.08145	8201.7875
334.28114	8200.5875
338.47781	8282.9875
342.67145	8392.2875
346.86207	8586.2875
351.04966	8885.6875
355.23424	9162.0875
359.4158	9396.3875
363.59435	9523.4875
367.76989	9569.9875
371.94243	9582.7875
376.11196	9605.6875
380.27849	9653.3875
384.44203	9705.5875
388.60257	9794.6875
392.76012	9878.1875
396.91468	10002.5875
401.06626	10144.9875
405.21485	10210.9875
409.36047	10132.2875
413.50311	9922.4875
417.64277	9710.8875
421.77947	9598.7875
425.9132	9479.8875
430.04396	9467.9875
434.17176	9487.0875
438.2966	9551.2875
442.41849	9703.6875
446.53742	9880.0875
450.6534	10048.9875
454.76644	10221.2875
458.87653	10304.0875
462.98368	10348.8875
467.08789	10354.0875
471.18916	10212.8875
475.2875	10029.5875
479.38291	9875.0875
483.4754	9758.4875
487.56496	9707.7875
491.6516	9676.6875
495.73531	9678.5875
499.81612	9729.8875
503.89401	9804.8875
507.96899	9871.8875
512.04106	9892.3875
516.11023	9938.0875
520.1765	9970.3875
524.23987	9977.0875
528.30034	9958.7875
532.35792	9949.2875
536.41261	9897.1875
540.46441	9813.6875
544.51333	9796.5875
548.55936	9875.6875
552.60252	9975.7875
556.64279	10116.5875
560.6802	10242.2875
564.71473	10333.0875
568.7464	10335.2875
572.7752	10276.4875
576.80114	10047.0875
580.82422	9913.8875
584.84444	9836.8875
588.86181	9845.8875
592.87633	9885.8875
596.888	10032.6875
600.89682	10483.7875
604.9028	11491.2875
608.90594	13389.4875
612.90624	15221.5875
616.90371	14175.7875
620.89834	11608.0875
624.89015	10544.1875
628.87913	10476.7875
632.86528	10678.8875
636.84862	10806.7875
640.82913	10632.6875
644.80683	10298.5875
648.78172	10109.2875
652.75379	10137.6875
656.72306	10342.0875
660.68952	10635.1875
664.65319	10614.8875
668.61405	10595.7875
672.57211	10719.9875
676.52738	10724.6875
680.47986	10482.7875
684.42955	10227.6875
688.37646	10172.3875
692.32058	10255.7875
696.26192	10449.7875
700.20048	10636.1875
704.13626	10684.5875
708.06928	10585.1875
711.99952	10466.6875
715.927	10442.5875
719.85171	10472.7875
723.77365	10479.5875
727.69284	10430.1875
731.60928	10361.8875
735.52295	10362.9875
739.43388	10390.2875
743.34206	10414.9875
747.24749	10403.3875
751.15017	10390.6875
755.05012	10480.0875
758.94733	10736.8875
762.8418	11383.9875
766.73354	12367.5875
770.62254	13177.9875
774.50882	13413.8875
778.39237	13239.8875
782.27321	12707.1875
786.15132	11870.9875
790.02671	11180.2875
793.89938	10808.2875
797.76935	10615.2875
801.6366	10489.9875
805.50115	10441.1875
809.36299	10394.9875
813.22213	10385.0875
817.07857	10416.7875
820.93231	10406.6875
824.78336	10415.8875
828.63172	10432.3875
832.47738	10454.1875
836.32036	10436.6875
840.16066	10395.0875
843.99827	10375.4875
847.8332	10423.2875
851.66546	10438.3875
855.49504	10442.2875
859.32195	10468.0875
863.1462	10467.6875
866.96777	10451.7875
870.78668	10484.2875
874.60293	10525.9875
878.41652	10557.3875
882.22745	10627.0875
886.03573	10680.6875
889.84136	10676.2875
893.64433	10631.9875
897.44466	10615.5875
901.24235	10556.1875
905.0374	10575.2875
908.8298	10516.6875
912.61957	10513.9875
916.40671	10526.4875
920.19121	10523.1875
923.97308	10579.8875
927.75233	10631.6875
931.52895	10688.7875
935.30295	10646.4875
939.07433	10522.0875
942.84309	10453.3875
946.60924	10423.5875
950.37278	10425.9875
954.13371	10395.1875
957.89203	10412.6875
961.64774	10431.4875
965.40086	10424.9875
969.15137	10403.6875
972.89929	10414.6875
976.64461	10398.9875
980.38733	10410.2875
984.12747	10417.0875
987.86502	10456.4875
991.59999	10483.7875
995.33237	10543.7875
999.06217	10584.3875
1002.78939	10702.7875
1006.51404	10853.8875
1010.23611	11027.7875
1013.95561	11125.2875
1017.67255	11156.3875
1021.38692	11144.4875
1025.09872	11081.7875
1028.80796	10988.4875
1032.51465	10953.6875
1036.21877	10928.6875
1039.92035	10970.4875
1043.61937	11010.9875
1047.31584	11063.8875
1051.00976	11113.3875
1054.70114	11148.3875
1058.38998	11176.3875
1062.07627	11223.6875
1065.76003	11314.1875
1069.44126	11417.5875
1073.11995	11644.0875
1076.79611	11896.9875
1080.46974	12009.6875
1084.14085	12079.7875
1087.80943	12139.7875
1091.47549	12195.3875
1095.13903	12306.9875
1098.80005	12453.6875
1102.45857	12672.0875
1106.11456	12643.1875
1109.76805	12367.7875
1113.41903	12239.6875
1117.06751	12300.2875
1120.71348	12395.8875
1124.35696	12479.5875
1127.99793	12511.9875
1131.63641	12386.5875
1135.2724	12094.0875
1138.90589	11879.2875
1142.5369	11769.4875
1146.16542	11696.6875
1149.79145	11624.0875
1153.415	11473.1875
1157.03607	11405.8875
1160.65467	11464.0875
1164.27079	11647.1875
1167.88443	11906.4875
1171.49561	12317.1875
1175.10432	12912.0875
1178.71056	13685.8875
1182.31434	14380.8875
1185.91565	14681.7875
1189.51451	14764.1875
1193.11091	14696.4875
1196.70485	14574.9875
1200.29634	14328.0875
1203.88538	13992.5875
1207.47197	13615.4875
1211.05612	13187.9875
1214.63782	12764.6875
1218.21708	12447.2875
1221.79391	12228.4875
1225.36829	12107.9875
1228.94024	12078.4875
1232.50976	12080.0875
1236.07685	12143.0875
1239.6415	12175.7875
1243.20374	12260.3875
1246.76355	12316.9875
1250.32093	12391.3875
1253.8759	12548.3875
1257.42845	12799.6875
1260.97859	13117.4875
1264.52631	13419.9875
1268.07163	13598.2875
1271.61453	13720.8875
1275.15503	13677.7875
1278.69312	13623.6875
1282.22882	13612.4875
1285.76211	13629.9875
1289.29301	13739.7875
1292.82151	13912.7875
1296.34761	14097.4875
1299.87133	14412.8875
1303.39266	14962.7875
1306.9116	15824.8875
1310.42815	16709.3875
1313.94233	17039.7875
1317.45412	16662.3875
1320.96354	16093.9875
1324.47058	15438.3875
1327.97525	14856.2875
1331.47754	14400.7875
1334.97747	14278.4875
1338.47502	14412.8875
1341.97022	14898.5875
1345.46305	15696.5875
1348.95352	16857.7875
1352.44163	18053.1875
1355.92738	19109.6875
1359.41078	19981.0875
1362.89183	20502.1875
1366.37053	19561.0875
1369.84688	17365.0875
1373.32088	15356.4875
1376.79254	14234.3875
1380.26186	13706.9875
1383.72883	13290.9875
1387.19347	12934.0875
1390.65578	12587.1875
1394.11575	12277.4875
1397.57339	12035.7875
1401.0287	11929.1875
1404.48168	11912.9875
1407.93234	12022.2875
1411.38068	12231.0875
1414.82669	12385.0875
1418.27039	12444.3875
1421.71177	12415.5875
1425.15083	12332.5875
1428.58758	12193.5875
1432.02203	12138.4875
1435.45416	12116.7875
1438.88399	12065.2875
1442.31151	12053.8875
1445.73673	12059.4875
1449.15965	12098.5875
1452.58027	12102.3875
1455.9986	12036.7875
1459.41463	12040.5875
1462.82837	12144.7875
1466.23982	12337.1875
1469.64898	12518.0875
1473.05586	12686.3875
1476.46045	12855.8875
1479.86276	12977.0875
1483.26279	13142.2875
1486.66054	13363.3875
1490.05602	13690.1875
1493.44922	14246.4875
1496.84016	15035.8875
1500.22882	16181.2875
1503.61521	17401.2875
1506.99934	18422.5875
1510.38121	18908.0875
1513.76081	18517.0875
1517.13816	17369.2875
1520.51324	15919.8875
1523.88607	14745.2875
1527.25665	14076.3875
1530.62498	13663.3875
1533.99105	13483.1875
1537.35488	13404.8875
1540.71647	13310.3875
1544.07581	13225.5875
1547.4329	13108.3875
1550.78776	12970.1875
1554.14038	12834.7875
1557.49077	12813.1875
1560.83892	12924.5875
1564.18484	13164.6875
1567.52853	13438.6875
1570.86999	13624.3875
1574.20922	13665.9875
1577.54624	13551.1875
1580.88103	13161.7875
1584.2136	12674.4875
1587.54395	12390.4875
1590.87208	12355.4875
1594.19801	12609.8875
1597.52172	12950.2875
1600.84321	13077.0875
1604.16251	13006.6875
1607.47959	12879.2875
1610.79447	12618.1875
1614.10715	12201.0875
1617.41763	11777.2875
1620.7259	11451.0875
1624.03199	11236.1875
1627.33587	11146.1875
1630.63757	11186.2875
1633.93707	11420.0875
1637.23439	11900.0875
1640.52951	12669.9875
1643.82246	13714.2875
1647.11321	14760.5875
1650.40179	15225.7875
1653.68819	14651.6875
1656.97241	13386.3875
1660.25446	12115.0875
1663.53433	11259.4875
1666.81203	10720.9875
1670.08756	10402.7875
1673.36092	10246.4875
1676.63211	10102.0875
1679.90115	10019.7875
1683.16801	9895.8875
1686.43272	9850.5875
1689.69527	9774.5875
1692.95567	9739.4875
1696.2139	9708.9875
1699.46999	9683.4875
1702.72392	9661.2875
1705.97571	9653.2875
1709.22535	9672.7875
1712.47284	9655.6875
1715.71819	9664.0875
1718.96139	9659.9875
1722.20246	9650.5875
1725.44139	9628.6875
1728.67818	9554.7875
1731.91284	9511.7875
1735.14537	9481.3875
1738.37576	9456.6875
1741.60403	9406.6875
1744.83017	9377.6875
1748.05418	9366.5875
1751.27607	9352.1875
1754.49584	9331.6875
1757.71349	9334.9875
1760.92903	9325.2875
1764.14244	9302.8875
1767.35375	9264.3875
1770.56294	9252.5875
1773.77002	9247.2875
1776.97499	9196.3875
1780.17785	9169.0875
1783.37861	9140.8875
1786.57727	9136.1875
1789.77382	9127.5875
1792.96828	9096.8875
1796.16064	9087.6875
1799.3509	9092.6875
1802.53907	9076.2875
1805.72514	9050.2875
1808.90913	9018.1875
1812.09102	9010.6875
1815.27083	8989.0875
1818.44856	8948.8875
1821.6242	8914.9875
1824.79776	8911.1875
1827.96924	8904.9875
1831.13864	8889.1875
1834.30597	8856.4875
1837.47122	8856.2875
1840.6344	8838.0875
1843.7955	8820.7875
1846.95454	8843.1875
1850.11151	8804.8875
1853.26642	8789.9875
1856.41926	8786.8875
1859.57004	8812.9875
1862.71876	8796.3875
1865.86542	8771.5875
1869.01003	8755.0875
1872.15258	8750.3875
1875.29308	8757.9875
1878.43152	8714.7875
1881.56792	8710.8875
1884.70227	8698.2875
1887.83457	8666.4875
1890.96482	8644.5875
1894.09304	8606.6875
1897.21921	8598.5875
1900.34335	8604.0875
1903.46544	8589.7875
1906.58551	8597.8875
1909.70353	8577.4875
1912.81953	8565.7875
1915.93349	8546.2875
1919.04543	8509.4875
1922.15534	8500.8875
1925.26322	8498.0875
1928.36908	8472.3875
1931.47292	8454.5875
1934.57473	8419.2875
1937.67453	8410.0875
1940.77232	8373.9875
1943.86808	8331.6875
1946.96184	8318.2875
1950.05358	8308.6875
1953.14331	8276.4875
1956.23103	8265.0875
1959.31675	8241.3875
1962.40046	8204.0875
1965.48217	8178.1875
1968.56188	8132.1875
1971.63959	8125.8875
1974.7153	8118.1875
1977.78901	8083.5875
1980.86073	8082.2875
1983.93046	8036.3875
1986.99819	8015.0875
1990.06394	7983.2875
1993.1277	7960.2875
1996.18947	7918.0875
1999.24925	7870.8875
2002.30706	7874.0875
2005.36288	7827.6875
2008.41672	7799.6875
2011.46859	7772.7875
2014.51848	7756.2875
2017.56639	7745.9875
2020.61233	7697.2875
2023.6563	7678.4875
2026.6983	7665.0875
2029.73833	7622.7875
2032.7764	7614.9875
2035.8125	7595.7875
2038.84664	7572.0875
2041.87881	7541.4875
2044.90903	7529.5875
2047.93729	7509.0875
2050.96359	7487.5875
2053.98794	7485.4875
2057.01034	7472.4875
2060.03078	7456.9875
2063.04927	7438.1875
2066.06582	7426.6875
2069.08042	7441.4875
2072.09307	7406.8875
2075.10378	7406.5875
2078.11255	7395.9875
2081.11938	7402.9875
2084.12426	7379.1875
2087.12722	7384.1875
2090.12824	7370.0875
2093.12732	7373.1875
2096.12447	7381.7875
2099.11969	7401.0875
2102.11299	7385.9875
2105.10435	7391.5875
2108.09379	7392.9875
2111.08131	7377.2875
2114.0669	7366.7875
2117.05057	7385.2875
2120.03233	7382.5875
2123.01216	7392.2875
2125.99008	7390.6875
2128.96609	7403.2875
2131.94018	7394.5875
2134.91236	7387.7875
2137.88263	7387.1875
2140.851	7384.8875
2143.81746	7376.9875
2146.78201	7352.7875
2149.74466	7368.2875
2152.7054	7372.1875
2155.66425	7367.3875
2158.6212	7366.6875
2161.57625	7351.7875
2164.52941	7333.3875
2167.48067	7346.1875
2170.43004	7335.2875
2173.37752	7314.4875
2176.32311	7313.5875
2179.26681	7312.1875
2182.20863	7322.7875
2185.14856	7335.7875
2188.08661	7327.1875
2191.02278	7325.3875
2193.95707	7312.1875
2196.88948	7301.2875
2199.82001	7276.8875
2202.74867	7289.4875
2205.67545	7290.0875
2208.60037	7267.6875
2211.52341	7247.8875
2214.44458	7209.7875
2217.36388	7176.1875
2220.28132	7189.5875
2223.1969	7135.4875
2226.11061	7132.1875
2229.02246	7123.5875
2231.93245	7117.9875
2234.84058	7116.0875
2237.74686	7086.4875
2240.65128	7060.2875
2243.55385	7052.7875
2246.45456	7042.0875
2249.35343	7004.3875
2252.25044	7012.3875
2255.14561	7005.4875
2258.03893	7005.6875
2260.93041	6995.0875
2263.82004	6984.6875
2266.70783	6955.5875
2269.59378	6932.2875
2272.4779	6907.3875
2275.36017	6885.8875
2278.24061	6890.2875
2281.11922	6854.7875
2283.996	6841.9875
2286.87094	6821.4875
2289.74405	6818.9875
2292.61534	6796.7875
2295.4848	6772.1875
2298.35243	6769.1875
2301.21824	6782.4875
2304.08223	6774.9875
2306.94439	6762.6875
2309.80474	6748.4875
2312.66327	6751.9875
2315.51999	6707.3875
2318.37489	6727.3875
2321.22797	6712.1875
2324.07925	6704.1875
2326.92871	6675.2875
2329.77637	6654.2875
2332.62222	6622.6875
2335.46626	6622.0875
2338.3085	6619.9875
2341.14893	6594.1875
2343.98756	6596.0875
2346.8244	6605.7875
2349.65943	6567.3875
2352.49267	6567.9875
2355.32411	6580.3875
2358.15376	6550.0875
2360.98161	6571.9875
2363.80768	6562.4875
2366.63195	6547.9875
2369.45444	6530.1875
2372.27514	6542.8875
2375.09405	6534.4875
2377.91118	6503.0875
2380.72652	6481.9875
2383.54009	6463.4875
2386.35187	6451.0875
2389.16188	6460.4875
2391.97011	6429.5875
2394.77657	6412.7875
2397.58125	6387.8875
2400.38416	6377.1875
2403.18529	6377.1875
2405.98466	6370.6875
2408.78226	6337.3875
2411.57809	6324.2875
2414.37216	6325.7875
2417.16446	6312.2875
2419.955	6296.2875
2422.74378	6306.5875
2425.5308	6312.7875
2428.31606	6304.0875
2431.09956	6270.2875
2433.88131	6276.5875
2436.6613	6251.6875
2439.43954	6250.8875
2442.21603	6245.2875
2444.99077	6247.1875
2447.76377	6229.1875
2450.53501	6233.7875
2453.30451	6233.5875
2456.07226	6211.1875
2458.83827	6220.4875
2461.60254	6172.6875
2464.36507	6164.7875
2467.12586	6160.4875
2469.88492	6156.3875
2472.64224	6147.9875
2475.39782	6159.1875
2478.15167	6143.5875
2480.90379	6126.7875
2483.65417	6119.6875
2486.40283	6099.8875
2489.14976	6135.0875
2491.89497	6110.8875
2494.63845	6103.3875
2497.3802	6101.7875
2500.12024	6071.4875
2502.85855	6069.6875
2505.59514	6046.9875
2508.33002	6046.6875
2511.06318	6026.0875
2513.79462	6025.2875
2516.52435	6020.8875
2519.25237	6000.1875
2521.97867	5963.6875
2524.70327	5976.8875
2527.42616	5981.3875
2530.14734	5934.4875
2532.86681	5942.1875
2535.58458	5947.5875
2538.30065	5931.7875
2541.01501	5946.6875
2543.72768	5919.0875
2546.43864	5908.1875
2549.14791	5906.0875
2551.85548	5890.0875
2554.56136	5889.3875
2557.26554	5871.4875
2559.96803	5845.6875
2562.66883	5830.5875
2565.36794	5811.5875
2568.06536	5800.6875
2570.7611	5768.3875
2573.45514	5772.3875
2576.14751	5746.6875
2578.83819	5723.8875
2581.52719	5714.0875
2584.21451	5721.2875
2586.90015	5695.9875
2589.58411	5697.3875
2592.2664	5683.0875
2594.94701	5678.8875
2597.62594	5651.7875
2600.30321	5656.9875
2602.9788	5639.5875
2605.65273	5629.7875
2608.32498	5632.1875
2610.99557	5622.6875
2613.66449	5616.0875
2616.33175	5603.8875
2618.99734	5600.8875
2621.66128	5564.0875
2624.32355	5543.2875
2626.98416	5524.6875
2629.64311	5515.4875
2632.30041	5500.6875
2634.95605	5501.0875
2637.61004	5488.3875
2640.26238	5462.7875
2642.91306	5471.5875
2645.56209	5458.6875
2648.20948	5455.0875
2650.85521	5447.2875
2653.4993	5448.9875
2656.14175	5436.9875
2658.78255	5430.9875
2661.42171	5424.4875
2664.05923	5438.8875
2666.6951	5451.6875
2669.32934	5438.3875
2671.96194	5445.3875
2674.59291	5436.9875
2677.22224	5441.7875
2679.84993	5435.5875
2682.476	5432.8875
2685.10043	5425.1875
2687.72324	5413.8875
2690.34441	5425.7875
2692.96396	5413.6875
2695.58188	5399.5875
2698.19818	5390.0875
2700.81285	5385.4875
2703.4259	5385.6875
2706.03733	5376.3875
2708.64714	5369.5875
2711.25533	5369.7875
2713.86191	5361.0875
2716.46687	5372.8875
2719.07021	5382.0875
2721.67194	5352.5875
2724.27206	5365.9875
2726.87057	5351.4875
2729.46747	5365.0875
2732.06276	5360.7875
2734.65644	5341.5875
2737.24852	5321.4875
2739.83899	5325.0875
2742.42786	5325.2875
2745.01513	5305.2875
2747.60079	5289.5875
2750.18486	5285.2875
2752.76733	5277.6875
2755.3482	5269.1875
2757.92747	5241.0875
2760.50515	5227.1875
2763.08123	5235.9875
2765.65573	5212.9875
2768.22863	5195.1875
2770.79994	5181.7875
2773.36967	5181.2875
2775.9378	5181.4875
2778.50435	5161.2875
2781.06932	5148.6875
2783.6327	5156.3875
2786.1945	5158.0875
2788.75471	5142.2875
2791.31335	5105.6875
2793.87041	5109.7875
2796.42589	5077.2875
2798.97979	5085.5875
2801.53212	5065.9875
2804.08288	5055.4875
2806.63206	5038.3875
2809.17967	5036.4875
2811.72571	5030.8875
2814.27018	5025.5875
2816.81308	4995.8875
2819.35442	4996.4875
2821.89419	4961.9875
2824.43239	4966.7875
2826.96904	4948.6875
2829.50412	4965.0875
2832.03763	4939.2875
2834.56959	4922.2875
2837.1	4888.7875
2839.62884	4884.7875
2842.15613	4897.0875
2844.68186	4888.3875
2847.20604	4886.1875
2849.72867	4869.1875
2852.24974	4862.4875
2854.76927	4839.7875
2857.28724	4830.4875
2859.80367	4827.5875
2862.31855	4822.2875
2864.83189	4819.0875
2867.34368	4805.3875
2869.85393	4808.6875
2872.36264	4799.4875
2874.8698	4786.6875
2877.37543	4795.3875
2879.87952	4783.4875
2882.38207	4770.1875
2884.88308	4757.1875
2887.38256	4762.1875
2889.88051	4750.3875
2892.37692	4738.0875
2894.8718	4719.7875
2897.36515	4736.1875
2899.85698	4723.4875
2902.34727	4727.0875
2904.83604	4737.9875
2907.32328	4749.1875
2909.809	4731.5875
2912.29319	4742.0875
2914.77587	4737.7875
2917.25702	4745.0875
2919.73665	4747.7875
2922.21476	4719.1875
2924.69136	4715.2875
2927.16644	4715.8875
2929.64	4698.9875
2932.11205	4691.9875
2934.58258	4673.1875
2937.05161	4686.1875
2939.51912	4669.9875
2941.98513	4670.7875
2944.44962	4658.8875
2946.91261	4653.2875
2949.37409	4637.3875
2951.83407	4641.9875
2954.29254	4622.2875
2956.74951	4630.6875
2959.20498	4617.6875
2961.65895	4618.6875
2964.11142	4625.2875
2966.56239	4612.4875
2969.01186	4622.5875
2971.45984	4616.7875
2973.90632	4606.7875
2976.35131	4571.7875
2978.7948	4587.1875
2981.23681	4587.8875
2983.67732	4575.2875
2986.11635	4562.3875
2988.55388	4542.1875
2990.98993	4534.7875
2993.4245	4504.2875
2995.85758	4515.6875
2998.28917	4500.9875
3000.71928	4474.9875
3003.14791	4471.9875
3005.57506	4467.3875
3008.00073	4447.2875
3010.42493	4429.0875
3012.84764	4426.9875
3015.26888	4412.1875
3017.68865	4410.3875
3020.10694	4398.5875
3022.52376	4392.8875
3024.9391	4363.4875
3027.35298	4337.5875
3029.76539	4331.4875
3032.17632	4331.8875
3034.5858	4333.2875
3036.9938	4335.5875
3039.40034	4309.8875
3041.80542	4303.2875
3044.20903	4276.9875
3046.61118	4285.7875
3049.01187	4269.4875
3051.4111	4255.0875
3053.80888	4239.4875
3056.20519	4237.8875
3058.60005	4210.3875
3060.99345	4233.6875
3063.3854	4224.3875
3065.7759	4210.6875
3068.16494	4182.3875
3070.55254	4166.9875
3072.93868	4157.1875
3075.32338	4127.0875
3077.70662	4144.6875
3080.08842	4123.0875
3082.46878	4128.9875
3084.84769	4098.9875
3087.22515	4101.1875
3089.60118	4102.9875
3091.97576	4081.4875
