Data from AgNPs_UA_5uM_CRN_500uM_SU_RamanShift__280__12-16-03-195.txt Node

Date: Thu Aug 04 12:16:03 BST 2022
User: TCL
Spectrometer: QEP01345
Trigger mode: 4
Integration Time (sec): 1.000000E0
Scans to average: 10
Electric dark correction enabled: true
Nonlinearity correction enabled: false
Boxcar width: 0
XAxis mode: Raman Shifts
Number of Pixels in Spectrum: 1044
>>>>>Begin Spectral Data<<<<<
46.04893	0.125
50.45542	0.525
54.85868	0.525
59.25871	-0.975
63.6555	-57.675
68.04907	-38.775
72.43941	-73.075
76.82654	-56.375
81.21044	-53.875
85.59113	-49.375
89.96862	-75.175
94.34289	-55.275
98.71396	-77.775
103.08183	-58.875
107.4465	-47.875
111.80798	-55.675
116.16626	-45.875
120.52136	-73.975
124.87327	-50.175
129.222	-63.575
133.56755	-50.175
137.90993	-63.175
142.24913	-51.575
146.58517	-44.875
150.91804	-42.575
155.24774	-32.375
159.57429	-8.775
163.89768	-7.975
168.21792	38.025
172.53501	57.725
176.84895	139.825
181.15975	271.625
185.46741	422.525
189.77193	600.825
194.07331	892.325
198.37157	1177.125
202.6667	1466.625
206.9587	1778.225
211.24758	2097.425
215.53334	2419.725
219.81599	2779.825
224.09553	3183.925
228.37195	3625.125
232.64527	4100.125
236.91549	4560.925
241.18261	4922.525
245.44663	5204.325
249.70755	5353.025
253.96539	5482.725
258.22014	5596.125
262.4718	5648.225
266.72039	5699.125
270.96589	5666.925
275.20832	5587.425
279.44768	5462.425
283.68397	5361.525
287.91719	5311.325
292.14735	5352.125
296.37445	5509.625
300.59849	5822.225
304.81948	6165.025
309.03742	6557.925
313.25231	6808.425
317.46415	6759.125
321.67296	6371.525
325.87872	5983.825
330.08145	5757.725
334.28114	5695.325
338.47781	5746.725
342.67145	5897.625
346.86207	6110.925
351.04966	6483.425
355.23424	6871.925
359.4158	7141.425
363.59435	7195.825
367.76989	7102.825
371.94243	6983.225
376.11196	6872.525
380.27849	6776.625
384.44203	6699.025
388.60257	6670.725
392.76012	6689.725
396.91468	6792.625
401.06626	6951.825
405.21485	7000.825
409.36047	6814.825
413.50311	6488.925
417.64277	6185.325
421.77947	5980.025
425.9132	5918.025
430.04396	5889.225
434.17176	5932.725
438.2966	6026.925
442.41849	6079.325
446.53742	6219.325
450.6534	6308.625
454.76644	6372.825
458.87653	6393.425
462.98368	6373.725
467.08789	6277.325
471.18916	6200.525
475.2875	6069.125
479.38291	5963.525
483.4754	5855.225
487.56496	5815.625
491.6516	5778.125
495.73531	5807.125
499.81612	5816.025
503.89401	5893.825
507.96899	5968.625
512.04106	6067.025
516.11023	6154.525
520.1765	6226.125
524.23987	6271.925
528.30034	6263.425
532.35792	6182.525
536.41261	6114.625
540.46441	6007.525
544.51333	5959.825
548.55936	6014.125
552.60252	6162.725
556.64279	6251.225
560.6802	6359.625
564.71473	6519.725
568.7464	6704.425
572.7752	6675.625
576.80114	6354.925
580.82422	6135.325
584.84444	6037.825
588.86181	6023.725
592.87633	6060.525
596.888	6189.925
600.89682	6543.425
604.9028	7561.425
608.90594	9705.425
612.90624	12109.025
616.90371	11196.425
620.89834	8026.725
624.89015	6662.325
628.87913	6435.325
632.86528	6599.225
636.84862	6752.725
640.82913	6637.125
644.80683	6271.425
648.78172	6080.825
652.75379	6102.525
656.72306	6352.925
660.68952	6606.825
664.65319	6483.925
668.61405	6255.625
672.57211	6176.625
676.52738	6187.125
680.47986	6097.025
684.42955	5992.025
688.37646	5920.725
692.32058	5941.125
696.26192	6010.825
700.20048	6111.525
704.13626	6161.325
708.06928	6106.325
711.99952	6072.725
715.927	6065.825
719.85171	6090.725
723.77365	6139.425
727.69284	6114.225
731.60928	6085.425
735.52295	6060.525
739.43388	6109.925
743.34206	6126.125
747.24749	6138.025
751.15017	6160.325
755.05012	6247.025
758.94733	6632.825
762.8418	7532.825
766.73354	8920.125
770.62254	9996.725
774.50882	10077.525
778.39237	9488.825
782.27321	8535.825
786.15132	7431.325
790.02671	6744.225
793.89938	6337.325
797.76935	6210.125
801.6366	6125.225
805.50115	6066.525
809.36299	6053.725
813.22213	6021.925
817.07857	6043.325
820.93231	6046.225
824.78336	6058.025
828.63172	6072.525
832.47738	6078.925
836.32036	6081.425
840.16066	6053.425
843.99827	6033.025
847.8332	6034.225
851.66546	6031.825
855.49504	6034.225
859.32195	6065.725
863.1462	6078.825
866.96777	6054.225
870.78668	6039.625
874.60293	6078.925
878.41652	6078.325
882.22745	6146.225
886.03573	6194.225
889.84136	6183.425
893.64433	6190.025
897.44466	6178.525
901.24235	6164.025
905.0374	6178.825
908.8298	6085.325
912.61957	6051.725
916.40671	6016.425
920.19121	6084.925
923.97308	6178.025
927.75233	6229.925
931.52895	6283.625
935.30295	6245.525
939.07433	6112.025
942.84309	5977.825
946.60924	5955.725
950.37278	5900.025
954.13371	5909.225
957.89203	5890.425
961.64774	5912.925
965.40086	5912.825
969.15137	5873.625
972.89929	5920.425
976.64461	5892.025
980.38733	5927.025
984.12747	5912.825
987.86502	5935.025
991.59999	5974.525
995.33237	6021.825
999.06217	6088.525
1002.78939	6160.325
1006.51404	6296.225
1010.23611	6428.625
1013.95561	6473.525
1017.67255	6459.125
1021.38692	6435.025
1025.09872	6380.125
1028.80796	6281.825
1032.51465	6292.225
1036.21877	6279.125
1039.92035	6337.325
1043.61937	6385.625
1047.31584	6409.925
1051.00976	6446.525
1054.70114	6446.525
1058.38998	6464.325
1062.07627	6458.325
1065.76003	6501.825
1069.44126	6576.425
1073.11995	6646.125
1076.79611	6801.125
1080.46974	6938.225
1084.14085	7116.425
1087.80943	7217.825
1091.47549	7277.425
1095.13903	7198.625
1098.80005	7060.125
1102.45857	6956.125
1106.11456	6919.725
1109.76805	6876.525
1113.41903	6978.025
1117.06751	7188.725
1120.71348	7458.625
1124.35696	7844.025
1127.99793	8119.125
1131.63641	7972.325
1135.2724	7544.625
1138.90589	7242.925
1142.5369	7035.925
1146.16542	6920.625
1149.79145	6789.325
1153.415	6749.525
1157.03607	6773.825
1160.65467	6879.025
1164.27079	7091.025
1167.88443	7376.625
1171.49561	7827.425
1175.10432	8463.025
1178.71056	9406.825
1182.31434	10248.625
1185.91565	10515.225
1189.51451	10369.725
1193.11091	10101.925
1196.70485	9836.625
1200.29634	9576.825
1203.88538	9270.825
1207.47197	8808.825
1211.05612	8287.425
1214.63782	7851.425
1218.21708	7596.425
1221.79391	7436.825
1225.36829	7359.525
1228.94024	7382.525
1232.50976	7372.225
1236.07685	7399.925
1239.6415	7413.325
1243.20374	7452.725
1246.76355	7476.625
1250.32093	7551.625
1253.8759	7629.325
1257.42845	7795.425
1260.97859	8021.325
1264.52631	8253.125
1268.07163	8415.025
1271.61453	8560.525
1275.15503	8612.225
1278.69312	8633.625
1282.22882	8696.125
1285.76211	8897.025
1289.29301	9154.925
1292.82151	9431.825
1296.34761	9666.125
1299.87133	10074.725
1303.39266	10799.325
1306.9116	12000.725
1310.42815	13247.425
1313.94233	13699.025
1317.45412	12919.025
1320.96354	11747.325
1324.47058	10700.025
1327.97525	9899.025
1331.47754	9457.325
1334.97747	9333.425
1338.47502	9473.025
1341.97022	9857.225
1345.46305	10604.025
1348.95352	11760.025
1352.44163	13165.025
1355.92738	14586.725
1359.41078	16391.925
1362.89183	17949.925
1366.37053	17319.425
1369.84688	14356.425
1373.32088	11506.125
1376.79254	10000.925
1380.26186	9251.425
1383.72883	8811.625
1387.19347	8408.125
1390.65578	8022.725
1394.11575	7763.225
1397.57339	7596.425
1401.0287	7479.025
1404.48168	7428.825
1407.93234	7437.725
1411.38068	7463.525
1414.82669	7527.525
1418.27039	7627.725
1421.71177	7610.725
1425.15083	7514.425
1428.58758	7418.625
1432.02203	7470.925
1435.45416	7504.225
1438.88399	7540.525
1442.31151	7530.125
1445.73673	7595.225
1449.15965	7639.025
1452.58027	7665.425
1455.9986	7659.425
1459.41463	7658.025
1462.82837	7753.525
1466.23982	7976.425
1469.64898	8178.425
1473.05586	8322.425
1476.46045	8441.425
1479.86276	8528.625
1483.26279	8633.825
1486.66054	8862.125
1490.05602	9146.325
1493.44922	9757.325
1496.84016	10692.325
1500.22882	12130.025
1503.61521	13987.825
1506.99934	15828.825
1510.38121	17109.125
1513.76081	16909.425
1517.13816	15277.325
1520.51324	13024.825
1523.88607	11259.325
1527.25665	10213.425
1530.62498	9673.825
1533.99105	9482.825
1537.35488	9346.725
1540.71647	9261.125
1544.07581	9105.225
1547.4329	8935.525
1550.78776	8806.525
1554.14038	8716.925
1557.49077	8681.825
1560.83892	8787.525
1564.18484	9026.825
1567.52853	9392.125
1570.86999	9721.425
1574.20922	9889.325
1577.54624	9774.325
1580.88103	9248.025
1584.2136	8476.025
1587.54395	8102.725
1590.87208	7982.125
1594.19801	8161.325
1597.52172	8525.525
1600.84321	8694.725
1604.16251	8515.125
1607.47959	8338.825
1610.79447	8141.025
1614.10715	7848.125
1617.41763	7545.425
1620.7259	7256.525
1624.03199	7090.425
1627.33587	7022.225
1630.63757	7072.925
1633.93707	7304.025
1637.23439	7747.725
1640.52951	8457.625
1643.82246	9477.825
1647.11321	10661.125
1650.40179	11477.525
1653.68819	11138.425
1656.97241	9840.525
1660.25446	8380.925
1663.53433	7339.425
1666.81203	6680.625
1670.08756	6346.125
1673.36092	6142.825
1676.63211	6004.325
1679.90115	5902.825
1683.16801	5807.025
1686.43272	5746.125
1689.69527	5686.325
1692.95567	5632.925
1696.2139	5600.325
1699.46999	5569.925
1702.72392	5562.625
1705.97571	5568.725
1709.22535	5541.925
1712.47284	5590.125
1715.71819	5605.125
1718.96139	5585.825
1722.20246	5564.425
1725.44139	5534.325
1728.67818	5510.625
1731.91284	5464.925
1735.14537	5430.725
1738.37576	5392.225
1741.60403	5381.825
1744.83017	5356.125
1748.05418	5352.425
1751.27607	5354.125
1754.49584	5310.825
1757.71349	5269.525
1760.92903	5291.425
1764.14244	5237.825
1767.35375	5241.925
1770.56294	5233.825
1773.77002	5196.025
1776.97499	5208.625
1780.17785	5197.225
1783.37861	5186.225
1786.57727	5212.325
1789.77382	5124.825
1792.96828	5160.425
1796.16064	5164.925
1799.3509	5145.225
1802.53907	5163.825
1805.72514	5108.125
1808.90913	5095.625
1812.09102	5094.025
1815.27083	5079.425
1818.44856	5076.625
1821.6242	5050.625
1824.79776	5036.425
1827.96924	5034.925
1831.13864	5009.525
1834.30597	5016.125
1837.47122	4990.725
1840.6344	4993.325
1843.7955	4992.625
1846.95454	4973.225
1850.11151	5006.825
1853.26642	4949.725
1856.41926	4949.825
1859.57004	4947.825
1862.71876	4939.625
1865.86542	4955.625
1869.01003	4938.425
1872.15258	4910.725
1875.29308	4944.825
1878.43152	4922.825
1881.56792	4907.925
1884.70227	4885.425
1887.83457	4895.625
1890.96482	4864.225
1894.09304	4872.125
1897.21921	4869.725
1900.34335	4857.025
1903.46544	4851.625
1906.58551	4870.625
1909.70353	4859.525
1912.81953	4841.025
1915.93349	4828.225
1919.04543	4810.325
1922.15534	4811.025
1925.26322	4809.525
1928.36908	4783.425
1931.47292	4799.825
1934.57473	4790.825
1937.67453	4749.725
1940.77232	4731.225
1943.86808	4726.925
1946.96184	4709.125
1950.05358	4703.425
1953.14331	4667.425
1956.23103	4686.325
1959.31675	4655.825
1962.40046	4597.225
1965.48217	4624.825
1968.56188	4620.725
1971.63959	4616.225
1974.7153	4598.625
1977.78901	4591.925
1980.86073	4574.225
1983.93046	4527.225
1986.99819	4451.425
1990.06394	4469.525
1993.1277	4490.525
1996.18947	4471.825
1999.24925	4435.325
2002.30706	4430.325
2005.36288	4443.525
2008.41672	4412.425
2011.46859	4390.825
2014.51848	4373.125
2017.56639	4366.125
2020.61233	4339.425
2023.6563	4337.425
2026.6983	4291.525
2029.73833	4300.625
2032.7764	4305.925
2035.8125	4264.825
2038.84664	4269.925
2041.87881	4252.125
2044.90903	4259.225
2047.93729	4245.125
2050.96359	4228.525
2053.98794	4227.625
2057.01034	4226.925
2060.03078	4222.025
2063.04927	4213.225
2066.06582	4201.225
2069.08042	4196.625
2072.09307	4195.025
2075.10378	4204.825
2078.11255	4184.525
2081.11938	4181.225
2084.12426	4177.125
2087.12722	4160.525
2090.12824	4166.425
2093.12732	4160.525
2096.12447	4179.425
2099.11969	4177.525
2102.11299	4163.525
2105.10435	4184.625
2108.09379	4178.625
2111.08131	4161.325
2114.0669	4178.625
2117.05057	4170.925
2120.03233	4152.225
2123.01216	4172.225
2125.99008	4185.625
2128.96609	4182.225
2131.94018	4197.525
2134.91236	4184.125
2137.88263	4174.425
2140.851	4178.825
2143.81746	4202.825
2146.78201	4198.525
2149.74466	4165.925
2152.7054	4177.525
2155.66425	4173.225
2158.6212	4152.025
2161.57625	4146.225
2164.52941	4130.125
2167.48067	4122.625
2170.43004	4127.925
2173.37752	4167.625
2176.32311	4130.525
2179.26681	4141.725
2182.20863	4139.725
2185.14856	4139.025
2188.08661	4134.025
2191.02278	4149.325
2193.95707	4120.625
2196.88948	4107.325
2199.82001	4114.825
2202.74867	4107.125
2205.67545	4107.425
2208.60037	4102.525
2211.52341	4104.025
2214.44458	4072.325
2217.36388	4084.125
2220.28132	4047.125
2223.1969	4030.125
2226.11061	4029.225
2229.02246	4027.125
2231.93245	4031.825
2234.84058	4009.025
2237.74686	4008.125
2240.65128	3989.725
2243.55385	3990.425
2246.45456	3975.025
2249.35343	3986.525
2252.25044	3961.725
2255.14561	3967.125
2258.03893	3948.125
2260.93041	3948.025
2263.82004	3955.625
2266.70783	3950.725
2269.59378	3935.925
2272.4779	3914.925
2275.36017	3925.625
2278.24061	3912.125
2281.11922	3868.125
2283.996	3884.525
2286.87094	3860.325
2289.74405	3867.125
2292.61534	3861.625
2295.4848	3851.125
2298.35243	3845.725
2301.21824	3823.925
2304.08223	3835.825
2306.94439	3833.525
2309.80474	3848.525
2312.66327	3829.425
2315.51999	3812.825
2318.37489	3807.125
2321.22797	3788.525
2324.07925	3794.125
2326.92871	3775.125
2329.77637	3768.425
2332.62222	3766.025
2335.46626	3724.325
2338.3085	3740.225
2341.14893	3761.725
2343.98756	3769.525
2346.8244	3732.725
2349.65943	3737.425
2352.49267	3725.025
2355.32411	3742.325
2358.15376	3733.525
2360.98161	3748.525
2363.80768	3712.525
2366.63195	3729.925
2369.45444	3731.225
2372.27514	3718.425
2375.09405	3736.025
2377.91118	3699.625
2380.72652	3699.125
2383.54009	3686.225
2386.35187	3687.825
2389.16188	3655.725
2391.97011	3655.325
2394.77657	3641.225
2397.58125	3651.125
2400.38416	3642.625
2403.18529	3625.325
2405.98466	3605.725
2408.78226	3609.525
2411.57809	3594.525
2414.37216	3593.225
2417.16446	3591.325
2419.955	3569.025
2422.74378	3588.225
2425.5308	3564.025
2428.31606	3572.425
2431.09956	3566.725
2433.88131	3551.225
2436.6613	3554.925
2439.43954	3542.525
2442.21603	3541.825
2444.99077	3535.725
2447.76377	3553.525
2450.53501	3533.525
2453.30451	3531.025
2456.07226	3534.525
2458.83827	3514.325
2461.60254	3475.425
2464.36507	3510.125
2467.12586	3494.825
2469.88492	3506.825
2472.64224	3507.525
2475.39782	3477.825
2478.15167	3494.125
2480.90379	3505.725
2483.65417	3501.925
2486.40283	3513.425
2489.14976	3522.425
2491.89497	3494.525
2494.63845	3504.825
2497.3802	3483.125
2500.12024	3478.025
2502.85855	3483.825
2505.59514	3481.025
2508.33002	3470.125
2511.06318	3437.125
2513.79462	3439.425
2516.52435	3414.725
2519.25237	3380.725
2521.97867	3395.625
2524.70327	3399.425
2527.42616	3394.425
2530.14734	3402.125
2532.86681	3372.725
2535.58458	3376.725
2538.30065	3364.925
2541.01501	3379.325
2543.72768	3367.425
2546.43864	3365.425
2549.14791	3361.825
2551.85548	3337.725
2554.56136	3340.425
2557.26554	3346.425
2559.96803	3326.325
2562.66883	3330.125
2565.36794	3308.825
2568.06536	3272.725
2570.7611	3307.325
2573.45514	3284.825
2576.14751	3281.025
2578.83819	3261.425
2581.52719	3264.525
2584.21451	3254.925
2586.90015	3223.825
2589.58411	3226.325
2592.2664	3239.125
2594.94701	3240.025
2597.62594	3234.825
2600.30321	3168.625
2602.9788	3192.825
2605.65273	3191.625
2608.32498	3202.725
2610.99557	3203.325
2613.66449	3172.025
2616.33175	3189.625
2618.99734	3186.225
2621.66128	3169.325
2624.32355	3167.325
2626.98416	3158.925
2629.64311	3135.925
2632.30041	3146.525
2634.95605	3116.825
2637.61004	3105.325
2640.26238	3095.225
2642.91306	3111.125
2645.56209	3121.925
2648.20948	3106.625
2650.85521	3084.825
2653.4993	3117.925
2656.14175	3105.525
2658.78255	3096.625
2661.42171	3065.225
2664.05923	3093.125
2666.6951	3106.025
2669.32934	3117.825
2671.96194	3131.625
2674.59291	3114.125
2677.22224	3104.625
2679.84993	3110.125
2682.476	3086.425
2685.10043	3093.825
2687.72324	3088.525
2690.34441	3075.425
2692.96396	3080.725
2695.58188	3107.025
2698.19818	3076.825
2700.81285	3080.825
2703.4259	3071.125
2706.03733	3034.825
2708.64714	3042.525
2711.25533	3080.825
2713.86191	3072.425
2716.46687	3072.725
2719.07021	3064.025
2721.67194	3066.325
2724.27206	3079.325
2726.87057	3045.325
2729.46747	3053.325
2732.06276	3053.225
2734.65644	3028.625
2737.24852	3039.225
2739.83899	3033.125
2742.42786	3026.125
2745.01513	3039.425
2747.60079	3017.325
2750.18486	3003.025
2752.76733	3007.125
2755.3482	2999.825
2757.92747	3006.325
2760.50515	2983.825
2763.08123	2980.325
2765.65573	2988.925
2768.22863	2963.125
2770.79994	2948.325
2773.36967	2960.225
2775.9378	2947.325
2778.50435	2939.625
2781.06932	2950.725
2783.6327	2934.225
2786.1945	2948.825
2788.75471	2942.725
2791.31335	2932.025
2793.87041	2935.625
2796.42589	2897.225
2798.97979	2908.225
2801.53212	2900.825
2804.08288	2917.025
2806.63206	2891.025
2809.17967	2880.125
2811.72571	2886.425
2814.27018	2881.125
2816.81308	2886.725
2819.35442	2837.925
2821.89419	2855.225
2824.43239	2843.625
2826.96904	2857.725
2829.50412	2844.825
2832.03763	2848.725
2834.56959	2830.525
2837.1	2844.325
2839.62884	2835.325
2842.15613	2833.125
2844.68186	2835.825
2847.20604	2814.625
2849.72867	2803.725
2852.24974	2812.925
2854.76927	2787.525
2857.28724	2741.025
2859.80367	2808.525
2862.31855	2801.725
2864.83189	2801.025
2867.34368	2800.625
2869.85393	2809.225
2872.36264	2786.225
2874.8698	2777.225
2877.37543	2806.525
2879.87952	2787.525
2882.38207	2757.725
2884.88308	2779.225
2887.38256	2774.825
2889.88051	2761.525
2892.37692	2762.825
2894.8718	2746.425
2897.36515	2760.125
2899.85698	2759.725
2902.34727	2750.625
2904.83604	2759.425
2907.32328	2781.425
2909.809	2770.825
2912.29319	2762.725
2914.77587	2782.125
2917.25702	2789.225
2919.73665	2797.725
2922.21476	2797.925
2924.69136	2800.625
2927.16644	2780.625
2929.64	2771.625
2932.11205	2757.225
2934.58258	2766.825
2937.05161	2748.425
2939.51912	2751.625
2941.98513	2765.125
2944.44962	2736.925
2946.91261	2709.925
2949.37409	2721.325
2951.83407	2698.925
2954.29254	2700.725
2956.74951	2709.125
2959.20498	2699.725
2961.65895	2702.625
2964.11142	2684.725
2966.56239	2680.525
2969.01186	2692.725
2971.45984	2681.725
2973.90632	2664.825
2976.35131	2681.125
2978.7948	2668.525
2981.23681	2652.525
2983.67732	2665.725
2986.11635	2657.525
2988.55388	2630.725
2990.98993	2641.225
2993.4245	2617.625
2995.85758	2608.525
2998.28917	2603.025
3000.71928	2597.725
3003.14791	2596.225
3005.57506	2583.825
3008.00073	2567.825
3010.42493	2511.225
3012.84764	2566.625
3015.26888	2561.025
3017.68865	2562.825
3020.10694	2509.625
3022.52376	2534.625
3024.9391	2516.925
3027.35298	2518.925
3029.76539	2495.425
3032.17632	2507.225
3034.5858	2494.825
3036.9938	2506.425
3039.40034	2490.225
3041.80542	2488.525
3044.20903	2471.925
3046.61118	2467.725
3049.01187	2484.125
3051.4111	2453.625
3053.80888	2444.625
3056.20519	2451.225
3058.60005	2425.725
3060.99345	2454.025
3063.3854	2439.025
3065.7759	2420.725
3068.16494	2408.125
3070.55254	2402.625
3072.93868	2402.025
3075.32338	2403.425
3077.70662	2395.025
3080.08842	2378.125
3082.46878	2365.925
3084.84769	2387.425
3087.22515	2365.825
3089.60118	2381.225
3091.97576	2361.225
3094.3489	2369.125
3096.72061	2362.125
3099.09087	2349.625
3101.4597	2367.025
3103.82709	2357.925
3106.19305	2338.925
3108.55757	2335.925
3110.92066	2332.925
3113.28232	2335.825
3115.64255	2336.525
3118.00134	2322.425
3120.35871	2315.225
3122.71466	2296.525
3125.06917	2308.225
3127.42226	2289.925
3129.77393	2269.625
3132.12417	2287.525
3134.47299	2294.725
3136.82039	2272.025
3139.16636	2254.825
3141.51092	2269.825
3143.85406	2280.925
3146.19579	2254.125
3148.53609	2255.625
3150.87499	2257.625
3153.21246	2261.625
3155.54853	2267.625
3157.88318	2268.825
3160.21642	2265.125
3162.54826	2256.625
3164.87868	2260.925
3167.2077	2217.725
3169.5353	2240.825
3171.86151	2251.225
3174.18631	2222.025
3176.5097	2226.225
3178.83169	2222.925
3181.15228	2227.725
3183.47147	2207.625
3185.78926	2187.425
3188.10565	2197.525
3190.42065	2179.025
3192.73424	2189.825
3195.04645	2171.725
3197.35725	2160.425
3199.66667	2177.825
3201.97469	2165.225
3204.28132	2152.825
3206.58656	2182.025
3208.8904	2182.425
3211.19287	2182.225
3213.49394	2159.325
3215.79363	2164.325
3218.09193	2170.325
3220.38884	2158.625
3222.68438	2170.125
3224.97853	2138.725
3227.2713	2157.125
3229.56269	2153.825
3231.8527	2148.925
3234.14133	2136.125
