Data from AgNPs_UA_5uM_CRN_500uM_SU_RamanShift__212__12-04-43-182.txt Node

Date: Thu Aug 04 12:04:43 BST 2022
User: TCL
Spectrometer: QEP01345
Trigger mode: 4
Integration Time (sec): 1.000000E0
Scans to average: 10
Electric dark correction enabled: true
Nonlinearity correction enabled: false
Boxcar width: 0
XAxis mode: Raman Shifts
Number of Pixels in Spectrum: 1044
>>>>>Begin Spectral Data<<<<<
46.04893	-0.525
50.45542	-0.425
54.85868	1.075
59.25871	-0.325
63.6555	-57.625
68.04907	-39.225
72.43941	-69.525
76.82654	-55.525
81.21044	-55.225
85.59113	-48.825
89.96862	-75.025
94.34289	-55.825
98.71396	-77.025
103.08183	-58.825
107.4465	-48.525
111.80798	-56.925
116.16626	-44.025
120.52136	-74.525
124.87327	-51.325
129.222	-62.225
133.56755	-50.325
137.90993	-61.925
142.24913	-49.825
146.58517	-43.425
150.91804	-40.825
155.24774	-28.125
159.57429	-7.525
163.89768	-5.125
168.21792	41.275
172.53501	58.275
176.84895	138.775
181.15975	272.275
185.46741	425.775
189.77193	606.875
194.07331	897.475
198.37157	1183.175
202.6667	1471.175
206.9587	1781.575
211.24758	2105.075
215.53334	2430.575
219.81599	2784.275
224.09553	3191.975
228.37195	3633.375
232.64527	4096.475
236.91549	4553.275
241.18261	4925.475
245.44663	5193.975
249.70755	5366.375
253.96539	5495.975
258.22014	5590.175
262.4718	5675.875
266.72039	5725.675
270.96589	5703.675
275.20832	5601.175
279.44768	5491.475
283.68397	5379.675
287.91719	5327.475
292.14735	5349.475
296.37445	5516.975
300.59849	5811.475
304.81948	6171.575
309.03742	6543.775
313.25231	6787.275
317.46415	6713.975
321.67296	6334.875
325.87872	5925.875
330.08145	5746.575
334.28114	5682.775
338.47781	5741.675
342.67145	5898.275
346.86207	6125.875
351.04966	6500.175
355.23424	6881.475
359.4158	7158.175
363.59435	7196.175
367.76989	7132.675
371.94243	6996.175
376.11196	6869.575
380.27849	6798.775
384.44203	6729.475
388.60257	6684.475
392.76012	6720.575
396.91468	6826.975
401.06626	6986.075
405.21485	7004.275
409.36047	6844.375
413.50311	6525.475
417.64277	6220.175
421.77947	6013.575
425.9132	5937.475
430.04396	5913.075
434.17176	5972.375
438.2966	6066.775
442.41849	6148.975
446.53742	6280.075
450.6534	6362.375
454.76644	6438.775
458.87653	6452.575
462.98368	6422.475
467.08789	6334.775
471.18916	6259.675
475.2875	6140.575
479.38291	6034.375
483.4754	5933.675
487.56496	5899.275
491.6516	5847.875
495.73531	5876.875
499.81612	5866.875
503.89401	5971.675
507.96899	6022.975
512.04106	6115.775
516.11023	6205.775
520.1765	6314.875
524.23987	6328.575
528.30034	6337.775
532.35792	6250.475
536.41261	6195.375
540.46441	6107.675
544.51333	6026.075
548.55936	6088.675
552.60252	6215.375
556.64279	6333.275
560.6802	6452.275
564.71473	6579.675
568.7464	6773.175
572.7752	6740.575
576.80114	6430.475
580.82422	6205.975
584.84444	6080.975
588.86181	6072.775
592.87633	6110.675
596.888	6238.775
600.89682	6620.175
604.9028	7598.175
608.90594	9708.675
612.90624	12069.775
616.90371	11187.075
620.89834	8088.875
624.89015	6760.375
628.87913	6536.875
632.86528	6685.775
636.84862	6841.275
640.82913	6720.375
644.80683	6366.975
648.78172	6203.175
652.75379	6200.275
656.72306	6450.775
660.68952	6704.275
664.65319	6612.075
668.61405	6357.575
672.57211	6303.275
676.52738	6297.275
680.47986	6192.975
684.42955	6117.375
688.37646	6053.675
692.32058	6052.575
696.26192	6137.475
700.20048	6237.375
704.13626	6244.775
708.06928	6195.575
711.99952	6209.575
715.927	6169.475
719.85171	6214.475
723.77365	6270.875
727.69284	6218.175
731.60928	6197.675
735.52295	6182.875
739.43388	6223.775
743.34206	6239.875
747.24749	6262.975
751.15017	6284.775
755.05012	6366.075
758.94733	6739.375
762.8418	7581.875
766.73354	8971.575
770.62254	9979.275
774.50882	10074.875
778.39237	9521.475
782.27321	8585.075
786.15132	7535.975
790.02671	6838.175
793.89938	6451.875
797.76935	6333.875
801.6366	6246.975
805.50115	6185.075
809.36299	6176.375
813.22213	6171.575
817.07857	6174.275
820.93231	6185.675
824.78336	6196.375
828.63172	6213.275
832.47738	6211.475
836.32036	6231.275
840.16066	6207.475
843.99827	6172.875
847.8332	6155.775
851.66546	6176.475
855.49504	6178.075
859.32195	6203.675
863.1462	6190.675
866.96777	6201.075
870.78668	6185.275
874.60293	6205.575
878.41652	6221.675
882.22745	6296.975
886.03573	6341.975
889.84136	6326.875
893.64433	6326.675
897.44466	6329.475
901.24235	6328.475
905.0374	6305.575
908.8298	6241.175
912.61957	6218.275
916.40671	6166.975
920.19121	6222.975
923.97308	6322.975
927.75233	6379.775
931.52895	6435.175
935.30295	6407.275
939.07433	6248.075
942.84309	6154.775
946.60924	6108.775
950.37278	6076.975
954.13371	6086.675
957.89203	6071.375
961.64774	6092.475
965.40086	6058.075
969.15137	6036.275
972.89929	6085.475
976.64461	6054.275
980.38733	6074.775
984.12747	6067.975
987.86502	6090.275
991.59999	6123.675
995.33237	6192.975
999.06217	6272.275
1002.78939	6347.175
1006.51404	6482.275
1010.23611	6595.375
1013.95561	6631.575
1017.67255	6643.775
1021.38692	6621.775
1025.09872	6554.575
1028.80796	6462.775
1032.51465	6486.775
1036.21877	6453.075
1039.92035	6506.675
1043.61937	6535.875
1047.31584	6572.075
1051.00976	6618.675
1054.70114	6621.075
1058.38998	6611.875
1062.07627	6638.475
1065.76003	6647.775
1069.44126	6734.375
1073.11995	6821.975
1076.79611	6952.575
1080.46974	7116.875
1084.14085	7267.775
1087.80943	7403.075
1091.47549	7428.075
1095.13903	7336.175
1098.80005	7235.775
1102.45857	7137.975
1106.11456	7099.275
1109.76805	7045.475
1113.41903	7160.375
1117.06751	7346.775
1120.71348	7594.475
1124.35696	7987.075
1127.99793	8280.575
1131.63641	8135.075
1135.2724	7698.275
1138.90589	7391.175
1142.5369	7171.175
1146.16542	7090.775
1149.79145	6976.175
1153.415	6936.475
1157.03607	6931.275
1160.65467	7030.775
1164.27079	7223.675
1167.88443	7489.375
1171.49561	7940.275
1175.10432	8535.175
1178.71056	9459.675
1182.31434	10251.475
1185.91565	10512.375
1189.51451	10374.375
1193.11091	10124.575
1196.70485	9851.575
1200.29634	9630.175
1203.88538	9329.675
1207.47197	8884.975
1211.05612	8402.275
1214.63782	8001.275
1218.21708	7727.975
1221.79391	7591.175
1225.36829	7504.175
1228.94024	7497.375
1232.50976	7497.975
1236.07685	7547.875
1239.6415	7561.175
1243.20374	7592.475
1246.76355	7618.375
1250.32093	7684.975
1253.8759	7774.075
1257.42845	7946.675
1260.97859	8147.675
1264.52631	8395.275
1268.07163	8541.775
1271.61453	8688.875
1275.15503	8739.575
1278.69312	8732.575
1282.22882	8797.475
1285.76211	9012.875
1289.29301	9266.675
1292.82151	9535.475
1296.34761	9754.075
1299.87133	10166.675
1303.39266	10850.675
1306.9116	12039.475
1310.42815	13278.975
1313.94233	13721.775
1317.45412	12950.475
1320.96354	11760.875
1324.47058	10732.175
1327.97525	9965.675
1331.47754	9563.475
1334.97747	9464.475
1338.47502	9594.475
1341.97022	9962.375
1345.46305	10683.975
1348.95352	11782.575
1352.44163	13080.375
1355.92738	14481.775
1359.41078	16167.775
1362.89183	17709.375
1366.37053	17035.375
1369.84688	14186.075
1373.32088	11436.875
1376.79254	10000.075
1380.26186	9343.575
1383.72883	8907.475
1387.19347	8531.075
1390.65578	8156.575
1394.11575	7916.075
1397.57339	7742.575
1401.0287	7631.675
1404.48168	7581.275
1407.93234	7586.475
1411.38068	7637.375
1414.82669	7704.075
1418.27039	7784.475
1421.71177	7775.175
1425.15083	7671.775
1428.58758	7608.475
1432.02203	7634.375
1435.45416	7718.675
1438.88399	7714.175
1442.31151	7704.975
1445.73673	7743.875
1449.15965	7819.775
1452.58027	7823.875
1455.9986	7832.575
1459.41463	7832.175
1462.82837	7922.475
1466.23982	8123.875
1469.64898	8343.175
1473.05586	8492.875
1476.46045	8586.475
1479.86276	8659.275
1483.26279	8745.875
1486.66054	8939.475
1490.05602	9244.475
1493.44922	9826.975
1496.84016	10685.175
1500.22882	12090.875
1503.61521	13859.275
1506.99934	15674.875
1510.38121	16900.775
1513.76081	16765.775
1517.13816	15128.975
1520.51324	12975.875
1523.88607	11246.075
1527.25665	10235.175
1530.62498	9691.575
1533.99105	9517.575
1537.35488	9394.475
1540.71647	9296.775
1544.07581	9164.175
1547.4329	9002.775
1550.78776	8892.975
1554.14038	8798.075
1557.49077	8777.675
1560.83892	8868.875
1564.18484	9111.075
1567.52853	9466.675
1570.86999	9765.275
1574.20922	9923.675
1577.54624	9830.575
1580.88103	9277.875
1584.2136	8589.675
1587.54395	8208.775
1590.87208	8113.075
1594.19801	8299.375
1597.52172	8669.775
1600.84321	8832.275
1604.16251	8674.575
1607.47959	8481.775
1610.79447	8312.175
1614.10715	8006.175
1617.41763	7722.175
1620.7259	7433.575
1624.03199	7257.375
1627.33587	7198.975
1630.63757	7237.675
1633.93707	7481.375
1637.23439	7907.975
1640.52951	8590.175
1643.82246	9629.675
1647.11321	10800.475
1650.40179	11526.175
1653.68819	11189.875
1656.97241	9906.175
1660.25446	8510.475
1663.53433	7485.275
1666.81203	6876.075
1670.08756	6525.875
1673.36092	6334.575
1676.63211	6189.575
1679.90115	6111.675
1683.16801	6011.675
1686.43272	5925.775
1689.69527	5903.475
1692.95567	5824.075
1696.2139	5810.575
1699.46999	5748.375
1702.72392	5761.975
1705.97571	5744.675
1709.22535	5740.575
1712.47284	5801.875
1715.71819	5780.075
1718.96139	5775.975
1722.20246	5773.375
1725.44139	5733.475
1728.67818	5717.175
1731.91284	5667.375
1735.14537	5627.975
1738.37576	5585.975
1741.60403	5565.675
1744.83017	5548.075
1748.05418	5538.675
1751.27607	5573.875
1754.49584	5511.175
1757.71349	5467.675
1760.92903	5475.075
1764.14244	5441.575
1767.35375	5442.275
1770.56294	5429.775
1773.77002	5411.875
1776.97499	5416.675
1780.17785	5406.875
1783.37861	5378.075
1786.57727	5394.675
1789.77382	5333.175
1792.96828	5370.075
1796.16064	5376.475
1799.3509	5363.475
1802.53907	5361.975
1805.72514	5321.475
1808.90913	5303.075
1812.09102	5293.375
1815.27083	5288.375
1818.44856	5277.875
1821.6242	5271.775
1824.79776	5248.375
1827.96924	5248.475
1831.13864	5215.675
1834.30597	5237.175
1837.47122	5205.175
1840.6344	5205.175
1843.7955	5182.775
1846.95454	5175.975
1850.11151	5199.175
1853.26642	5148.775
1856.41926	5156.775
1859.57004	5164.775
1862.71876	5154.975
1865.86542	5146.075
1869.01003	5145.275
1872.15258	5109.075
1875.29308	5137.075
1878.43152	5144.475
1881.56792	5111.475
1884.70227	5080.075
1887.83457	5106.175
1890.96482	5074.275
1894.09304	5079.875
1897.21921	5063.375
1900.34335	5077.175
1903.46544	5038.875
1906.58551	5069.375
1909.70353	5063.875
1912.81953	5040.475
1915.93349	5027.375
1919.04543	5023.775
1922.15534	5015.675
1925.26322	5028.475
1928.36908	5002.375
1931.47292	5000.375
1934.57473	4979.075
1937.67453	4955.275
1940.77232	4932.875
1943.86808	4947.175
1946.96184	4928.275
1950.05358	4907.975
1953.14331	4893.975
1956.23103	4884.275
1959.31675	4867.075
1962.40046	4795.675
1965.48217	4830.175
1968.56188	4823.375
1971.63959	4807.775
1974.7153	4801.275
1977.78901	4809.075
1980.86073	4770.175
1983.93046	4744.875
1986.99819	4637.775
1990.06394	4671.775
1993.1277	4696.575
1996.18947	4666.775
1999.24925	4620.175
2002.30706	4638.475
2005.36288	4632.175
2008.41672	4600.175
2011.46859	4578.875
2014.51848	4576.275
2017.56639	4542.675
2020.61233	4543.875
2023.6563	4536.375
2026.6983	4501.475
2029.73833	4491.575
2032.7764	4507.275
2035.8125	4467.175
2038.84664	4460.875
2041.87881	4444.975
2044.90903	4455.175
2047.93729	4446.975
2050.96359	4421.975
2053.98794	4440.375
2057.01034	4437.475
2060.03078	4401.675
2063.04927	4409.075
2066.06582	4409.575
2069.08042	4378.675
2072.09307	4386.075
2075.10378	4400.375
2078.11255	4385.075
2081.11938	4386.175
2084.12426	4365.775
2087.12722	4357.075
2090.12824	4355.775
2093.12732	4371.875
2096.12447	4382.975
2099.11969	4378.475
2102.11299	4358.475
2105.10435	4384.175
2108.09379	4368.175
2111.08131	4375.375
2114.0669	4364.275
2117.05057	4351.775
2120.03233	4355.475
2123.01216	4370.675
2125.99008	4359.275
2128.96609	4370.375
2131.94018	4412.075
2134.91236	4383.775
2137.88263	4368.875
2140.851	4373.875
2143.81746	4394.475
2146.78201	4385.475
2149.74466	4370.075
2152.7054	4380.475
2155.66425	4366.275
2158.6212	4366.775
2161.57625	4333.375
2164.52941	4295.475
2167.48067	4331.275
2170.43004	4338.575
2173.37752	4341.075
2176.32311	4337.875
2179.26681	4340.875
2182.20863	4345.575
2185.14856	4344.775
2188.08661	4344.975
2191.02278	4345.375
2193.95707	4317.075
2196.88948	4298.075
2199.82001	4323.875
2202.74867	4291.275
2205.67545	4304.675
2208.60037	4302.775
2211.52341	4286.575
2214.44458	4276.975
2217.36388	4281.275
2220.28132	4268.475
2223.1969	4229.275
2226.11061	4227.975
2229.02246	4210.475
2231.93245	4219.175
2234.84058	4193.875
2237.74686	4179.675
2240.65128	4185.275
2243.55385	4171.875
2246.45456	4164.475
2249.35343	4176.775
2252.25044	4158.475
2255.14561	4170.975
2258.03893	4159.675
2260.93041	4162.275
2263.82004	4142.175
2266.70783	4128.775
2269.59378	4128.975
2272.4779	4090.875
2275.36017	4101.675
2278.24061	4083.775
2281.11922	4071.875
2283.996	4079.075
2286.87094	4042.475
2289.74405	4055.975
2292.61534	4052.075
2295.4848	4042.075
2298.35243	4031.875
2301.21824	4024.875
2304.08223	4021.475
2306.94439	4019.175
2309.80474	4037.175
2312.66327	4016.575
2315.51999	4000.375
2318.37489	3994.375
2321.22797	3983.075
2324.07925	3976.975
2326.92871	3969.175
2329.77637	3943.175
2332.62222	3950.475
2335.46626	3913.075
2338.3085	3919.375
2341.14893	3942.075
2343.98756	3944.275
2346.8244	3920.875
2349.65943	3900.775
2352.49267	3907.875
2355.32411	3908.975
2358.15376	3903.975
2360.98161	3910.975
2363.80768	3898.575
2366.63195	3899.875
2369.45444	3900.975
2372.27514	3914.575
2375.09405	3909.875
2377.91118	3870.275
2380.72652	3871.175
2383.54009	3865.775
2386.35187	3867.875
2389.16188	3855.475
2391.97011	3842.375
2394.77657	3816.175
2397.58125	3820.475
2400.38416	3811.475
2403.18529	3793.875
2405.98466	3776.375
2408.78226	3777.775
2411.57809	3778.475
2414.37216	3767.775
2417.16446	3769.975
2419.955	3743.875
2422.74378	3750.175
2425.5308	3729.875
2428.31606	3735.175
2431.09956	3749.775
2433.88131	3707.775
2436.6613	3735.375
2439.43954	3710.575
2442.21603	3716.575
2444.99077	3714.175
2447.76377	3721.875
2450.53501	3713.775
2453.30451	3683.375
2456.07226	3718.875
2458.83827	3691.975
2461.60254	3666.075
2464.36507	3695.175
2467.12586	3672.875
2469.88492	3685.575
2472.64224	3672.775
2475.39782	3664.775
2478.15167	3673.975
2480.90379	3666.275
2483.65417	3680.775
2486.40283	3679.275
2489.14976	3688.375
2491.89497	3662.675
2494.63845	3685.575
2497.3802	3636.575
2500.12024	3660.875
2502.85855	3643.675
2505.59514	3648.775
2508.33002	3629.275
2511.06318	3603.975
2513.79462	3620.375
2516.52435	3578.375
2519.25237	3562.175
2521.97867	3560.675
2524.70327	3572.475
2527.42616	3550.275
2530.14734	3566.675
2532.86681	3556.075
2535.58458	3548.375
2538.30065	3534.475
2541.01501	3557.875
2543.72768	3527.675
2546.43864	3530.775
2549.14791	3522.275
2551.85548	3501.775
2554.56136	3506.375
2557.26554	3513.575
2559.96803	3502.775
2562.66883	3485.975
2565.36794	3464.375
2568.06536	3454.975
2570.7611	3467.375
2573.45514	3458.875
2576.14751	3446.675
2578.83819	3415.875
2581.52719	3415.975
2584.21451	3421.575
2586.90015	3401.975
2589.58411	3385.575
2592.2664	3406.275
2594.94701	3398.075
2597.62594	3393.975
2600.30321	3325.275
2602.9788	3349.875
2605.65273	3349.175
2608.32498	3350.975
2610.99557	3364.875
2613.66449	3334.375
2616.33175	3339.175
2618.99734	3351.775
2621.66128	3332.775
2624.32355	3337.375
2626.98416	3300.775
2629.64311	3300.175
2632.30041	3304.375
2634.95605	3285.775
2637.61004	3276.275
2640.26238	3250.975
2642.91306	3265.375
2645.56209	3283.275
2648.20948	3270.575
2650.85521	3245.775
2653.4993	3267.575
2656.14175	3257.275
2658.78255	3254.475
2661.42171	3223.775
2664.05923	3259.575
2666.6951	3271.875
2669.32934	3270.775
2671.96194	3279.475
2674.59291	3268.275
2677.22224	3265.975
2679.84993	3261.075
2682.476	3247.175
2685.10043	3253.975
2687.72324	3239.575
2690.34441	3235.575
2692.96396	3234.275
2695.58188	3254.575
2698.19818	3238.275
2700.81285	3230.275
2703.4259	3213.375
2706.03733	3189.175
2708.64714	3195.175
2711.25533	3226.275
2713.86191	3222.275
2716.46687	3207.575
2719.07021	3217.875
2721.67194	3210.275
2724.27206	3231.875
2726.87057	3213.275
2729.46747	3200.075
2732.06276	3214.875
2734.65644	3187.675
2737.24852	3189.375
2739.83899	3172.075
2742.42786	3201.775
2745.01513	3196.175
2747.60079	3171.975
2750.18486	3152.175
2752.76733	3164.075
2755.3482	3146.175
2757.92747	3153.675
2760.50515	3126.775
2763.08123	3121.375
2765.65573	3131.675
2768.22863	3115.975
2770.79994	3114.275
2773.36967	3097.675
2775.9378	3100.175
2778.50435	3091.775
2781.06932	3085.875
2783.6327	3075.175
2786.1945	3097.075
2788.75471	3079.775
2791.31335	3068.875
2793.87041	3089.975
2796.42589	3061.775
2798.97979	3037.475
2801.53212	3052.275
2804.08288	3056.975
2806.63206	3040.475
2809.17967	3025.975
2811.72571	3039.475
2814.27018	3040.275
2816.81308	3026.775
2819.35442	2984.375
2821.89419	2996.175
2824.43239	2987.475
2826.96904	3001.375
2829.50412	2996.675
2832.03763	2999.175
2834.56959	2990.875
2837.1	2978.175
2839.62884	2973.475
2842.15613	2972.775
2844.68186	2990.775
2847.20604	2947.875
2849.72867	2942.875
2852.24974	2951.375
2854.76927	2921.275
2857.28724	2886.575
2859.80367	2948.375
2862.31855	2945.775
2864.83189	2936.075
2867.34368	2927.875
2869.85393	2951.575
2872.36264	2908.875
2874.8698	2932.175
2877.37543	2933.975
2879.87952	2916.375
2882.38207	2908.175
2884.88308	2910.975
2887.38256	2908.975
2889.88051	2902.475
2892.37692	2883.075
2894.8718	2885.575
2897.36515	2894.875
2899.85698	2890.575
2902.34727	2895.775
2904.83604	2896.075
2907.32328	2908.375
2909.809	2887.075
2912.29319	2899.575
2914.77587	2905.775
2917.25702	2913.575
2919.73665	2918.575
2922.21476	2922.675
2924.69136	2920.975
2927.16644	2901.075
2929.64	2900.675
2932.11205	2893.075
2934.58258	2882.775
2937.05161	2887.075
2939.51912	2869.875
2941.98513	2882.675
2944.44962	2873.575
2946.91261	2832.575
2949.37409	2846.875
2951.83407	2837.575
2954.29254	2833.175
2956.74951	2839.075
2959.20498	2823.775
2961.65895	2840.775
2964.11142	2816.475
2966.56239	2821.875
2969.01186	2828.275
2971.45984	2810.675
2973.90632	2796.875
2976.35131	2808.875
2978.7948	2792.475
2981.23681	2785.175
2983.67732	2781.775
2986.11635	2783.775
2988.55388	2753.575
2990.98993	2769.875
2993.4245	2752.075
2995.85758	2733.475
2998.28917	2736.175
3000.71928	2719.875
3003.14791	2733.175
3005.57506	2703.975
3008.00073	2696.875
3010.42493	2637.675
3012.84764	2683.175
3015.26888	2697.675
3017.68865	2684.075
3020.10694	2641.975
3022.52376	2648.075
3024.9391	2659.175
3027.35298	2640.475
3029.76539	2627.875
3032.17632	2635.775
3034.5858	2619.675
3036.9938	2623.575
3039.40034	2629.375
3041.80542	2607.575
3044.20903	2591.975
3046.61118	2596.075
3049.01187	2602.675
3051.4111	2580.475
3053.80888	2573.775
3056.20519	2565.975
3058.60005	2542.075
3060.99345	2565.775
3063.3854	2546.275
3065.7759	2536.075
3068.16494	2520.675
3070.55254	2509.575
3072.93868	2521.275
3075.32338	2524.175
3077.70662	2504.975
3080.08842	2492.675
3082.46878	2480.775
3084.84769	2499.475
3087.22515	2472.675
3089.60118	2487.475
3091.97576	2459.975
3094.3489	2485.475
3096.72061	2464.175
3099.09087	2460.175
3101.4597	2468.775
3103.82709	2464.575
3106.19305	2456.975
3108.55757	2460.275
3110.92066	2435.375
3113.28232	2464.675
3115.64255	2445.075
3118.00134	2447.975
3120.35871	2424.475
3122.71466	2411.875
3125.06917	2399.875
3127.42226	2404.975
3129.77393	2384.275
3132.12417	2395.075
3134.47299	2409.975
3136.82039	2383.775
3139.16636	2355.475
3141.51092	2380.575
3143.85406	2384.275
3146.19579	2373.375
3148.53609	2362.675
3150.87499	2364.575
3153.21246	2355.875
3155.54853	2367.575
3157.88318	2376.275
3160.21642	2375.475
3162.54826	2364.775
3164.87868	2360.875
3167.2077	2332.875
3169.5353	2348.775
3171.86151	2359.875
3174.18631	2340.575
3176.5097	2338.875
3178.83169	2335.575
3181.15228	2330.475
3183.47147	2308.675
3185.78926	2299.175
3188.10565	2309.875
3190.42065	2290.175
3192.73424	2305.975
3195.04645	2283.175
3197.35725	2274.075
3199.66667	2290.075
3201.97469	2279.575
3204.28132	2268.175
3206.58656	2281.775
3208.8904	2284.475
3211.19287	2284.075
3213.49394	2257.975
3215.79363	2258.175
3218.09193	2281.275
3220.38884	2273.475
3222.68438	2265.375
3224.97853	2256.975
3227.2713	2265.875
3229.56269	2252.875
3231.8527	2260.575
3234.14133	2244.875
