Data from AgNPs_UA_5uM_CRN_500uM_SU_RamanShift__263__12-13-13-192.txt Node

Date: Thu Aug 04 12:13:13 BST 2022
User: TCL
Spectrometer: QEP01345
Trigger mode: 4
Integration Time (sec): 1.000000E0
Scans to average: 10
Electric dark correction enabled: true
Nonlinearity correction enabled: false
Boxcar width: 0
XAxis mode: Raman Shifts
Number of Pixels in Spectrum: 1044
>>>>>Begin Spectral Data<<<<<
46.04893	0.65
50.45542	0.05
54.85868	0.45
59.25871	-0.05
63.6555	-58.35
68.04907	-40.75
72.43941	-72.15
76.82654	-54.95
81.21044	-56.45
85.59113	-48.55
89.96862	-76.05
94.34289	-54.85
98.71396	-78.55
103.08183	-58.75
107.4465	-50.15
111.80798	-55.95
116.16626	-45.95
120.52136	-74.95
124.87327	-50.75
129.222	-62.35
133.56755	-51.95
137.90993	-65.35
142.24913	-51.95
146.58517	-46.45
150.91804	-42.85
155.24774	-32.75
159.57429	-12.85
163.89768	-7.35
168.21792	30.95
172.53501	49.75
176.84895	135.45
181.15975	261.55
185.46741	404.75
189.77193	583.95
194.07331	867.45
198.37157	1136.35
202.6667	1415.65
206.9587	1731.75
211.24758	2038.75
215.53334	2347.85
219.81599	2696.35
224.09553	3079.75
228.37195	3515.45
232.64527	3950.85
236.91549	4400.65
241.18261	4740.35
245.44663	5025.45
249.70755	5176.55
253.96539	5316.95
258.22014	5401.35
262.4718	5462.35
266.72039	5509.35
270.96589	5484.15
275.20832	5384.95
279.44768	5295.55
283.68397	5180.35
287.91719	5123.35
292.14735	5170.15
296.37445	5335.85
300.59849	5629.05
304.81948	5967.25
309.03742	6325.75
313.25231	6572.35
317.46415	6545.65
321.67296	6173.45
325.87872	5765.85
330.08145	5560.35
334.28114	5512.45
338.47781	5574.55
342.67145	5704.15
346.86207	5931.75
351.04966	6285.95
355.23424	6635.95
359.4158	6906.15
363.59435	6937.55
367.76989	6880.95
371.94243	6767.15
376.11196	6637.35
380.27849	6570.15
384.44203	6483.55
388.60257	6456.55
392.76012	6480.55
396.91468	6592.65
401.06626	6732.95
405.21485	6778.15
409.36047	6592.35
413.50311	6303.35
417.64277	5994.55
421.77947	5805.85
425.9132	5712.25
430.04396	5702.35
434.17176	5746.55
438.2966	5838.85
442.41849	5924.05
446.53742	6044.65
450.6534	6133.45
454.76644	6219.05
458.87653	6204.55
462.98368	6183.15
467.08789	6109.15
471.18916	6008.15
475.2875	5884.35
479.38291	5785.95
483.4754	5684.05
487.56496	5652.85
491.6516	5600.75
495.73531	5623.35
499.81612	5640.75
503.89401	5737.75
507.96899	5782.25
512.04106	5856.25
516.11023	5968.95
520.1765	6070.05
524.23987	6076.65
528.30034	6093.85
532.35792	5990.35
536.41261	5936.15
540.46441	5831.45
544.51333	5784.35
548.55936	5845.15
552.60252	5957.95
556.64279	6065.35
560.6802	6186.85
564.71473	6324.15
568.7464	6501.55
572.7752	6480.05
576.80114	6188.75
580.82422	5953.25
584.84444	5884.35
588.86181	5841.85
592.87633	5883.85
596.888	5998.05
600.89682	6346.65
604.9028	7321.65
608.90594	9374.25
612.90624	11683.25
616.90371	10846.95
620.89834	7780.35
624.89015	6464.25
628.87913	6245.75
632.86528	6409.35
636.84862	6558.95
640.82913	6435.55
644.80683	6103.35
648.78172	5908.25
652.75379	5924.35
656.72306	6167.05
660.68952	6403.85
664.65319	6316.65
668.61405	6075.15
672.57211	5999.65
676.52738	5999.35
680.47986	5905.15
684.42955	5819.95
688.37646	5769.55
692.32058	5776.05
696.26192	5847.45
700.20048	5930.95
704.13626	5979.45
708.06928	5927.85
711.99952	5914.95
715.927	5877.65
719.85171	5911.45
723.77365	5970.45
727.69284	5930.85
731.60928	5930.85
735.52295	5904.95
739.43388	5926.05
743.34206	5946.05
747.24749	5975.25
751.15017	5994.45
755.05012	6063.25
758.94733	6437.85
762.8418	7313.95
766.73354	8620.65
770.62254	9676.25
774.50882	9728.15
778.39237	9207.05
782.27321	8257.65
786.15132	7220.25
790.02671	6530.75
793.89938	6150.85
797.76935	6045.15
801.6366	5943.45
805.50115	5877.75
809.36299	5884.05
813.22213	5877.35
817.07857	5876.05
820.93231	5877.65
824.78336	5891.25
828.63172	5927.65
832.47738	5912.55
836.32036	5909.85
840.16066	5875.05
843.99827	5871.15
847.8332	5871.25
851.66546	5869.05
855.49504	5871.15
859.32195	5901.25
863.1462	5866.65
866.96777	5889.35
870.78668	5885.15
874.60293	5890.05
878.41652	5926.85
882.22745	6003.05
886.03573	6008.15
889.84136	6013.95
893.64433	6024.35
897.44466	6000.55
901.24235	5988.55
905.0374	5997.05
908.8298	5933.35
912.61957	5890.25
916.40671	5861.15
920.19121	5914.95
923.97308	5987.15
927.75233	6056.65
931.52895	6117.95
935.30295	6081.85
939.07433	5940.55
942.84309	5812.75
946.60924	5779.05
950.37278	5760.55
954.13371	5764.55
957.89203	5730.75
961.64774	5744.75
965.40086	5740.15
969.15137	5718.45
972.89929	5756.85
976.64461	5748.95
980.38733	5758.75
984.12747	5758.95
987.86502	5779.05
991.59999	5792.35
995.33237	5865.55
999.06217	5939.15
1002.78939	6001.15
1006.51404	6138.65
1010.23611	6242.95
1013.95561	6286.25
1017.67255	6292.25
1021.38692	6269.05
1025.09872	6195.65
1028.80796	6111.55
1032.51465	6127.35
1036.21877	6117.75
1039.92035	6162.15
1043.61937	6199.65
1047.31584	6256.05
1051.00976	6269.45
1054.70114	6286.45
1058.38998	6272.25
1062.07627	6281.15
1065.76003	6336.65
1069.44126	6400.05
1073.11995	6467.45
1076.79611	6607.35
1080.46974	6735.55
1084.14085	6915.35
1087.80943	7057.45
1091.47549	7061.25
1095.13903	6992.75
1098.80005	6868.45
1102.45857	6755.05
1106.11456	6729.55
1109.76805	6681.75
1113.41903	6796.95
1117.06751	6975.15
1120.71348	7241.65
1124.35696	7625.25
1127.99793	7889.65
1131.63641	7741.15
1135.2724	7327.35
1138.90589	7036.55
1142.5369	6852.75
1146.16542	6727.25
1149.79145	6622.85
1153.415	6572.25
1157.03607	6574.25
1160.65467	6693.85
1164.27079	6904.35
1167.88443	7152.35
1171.49561	7605.45
1175.10432	8213.85
1178.71056	9117.35
1182.31434	9930.15
1185.91565	10184.75
1189.51451	10011.05
1193.11091	9779.65
1196.70485	9516.95
1200.29634	9286.25
1203.88538	8991.05
1207.47197	8522.75
1211.05612	8047.95
1214.63782	7629.65
1218.21708	7366.75
1221.79391	7208.65
1225.36829	7143.95
1228.94024	7145.95
1232.50976	7159.95
1236.07685	7186.55
1239.6415	7227.35
1243.20374	7234.75
1246.76355	7259.15
1250.32093	7340.95
1253.8759	7397.15
1257.42845	7580.15
1260.97859	7775.35
1264.52631	8020.35
1268.07163	8183.05
1271.61453	8299.95
1275.15503	8349.45
1278.69312	8358.35
1282.22882	8426.25
1285.76211	8652.75
1289.29301	8853.65
1292.82151	9136.05
1296.34761	9355.45
1299.87133	9749.25
1303.39266	10441.05
1306.9116	11601.35
1310.42815	12835.75
1313.94233	13257.85
1317.45412	12468.25
1320.96354	11348.65
1324.47058	10324.65
1327.97525	9580.15
1331.47754	9189.55
1334.97747	9055.35
1338.47502	9156.75
1341.97022	9527.25
1345.46305	10284.55
1348.95352	11396.25
1352.44163	12691.75
1355.92738	14080.55
1359.41078	15763.65
1362.89183	17315.65
1366.37053	16675.45
1369.84688	13856.65
1373.32088	11122.95
1376.79254	9652.25
1380.26186	8964.75
1383.72883	8538.85
1387.19347	8141.65
1390.65578	7784.95
1394.11575	7551.35
1397.57339	7379.05
1401.0287	7259.85
1404.48168	7220.55
1407.93234	7240.75
1411.38068	7240.75
1414.82669	7319.95
1418.27039	7396.35
1421.71177	7382.25
1425.15083	7286.65
1428.58758	7196.25
1432.02203	7221.75
1435.45416	7322.75
1438.88399	7308.35
1442.31151	7293.25
1445.73673	7353.55
1449.15965	7412.75
1452.58027	7424.75
1455.9986	7411.05
1459.41463	7434.35
1462.82837	7524.65
1466.23982	7706.85
1469.64898	7928.95
1473.05586	8062.95
1476.46045	8176.05
1479.86276	8260.75
1483.26279	8380.25
1486.66054	8584.65
1490.05602	8846.05
1493.44922	9420.85
1496.84016	10322.55
1500.22882	11684.55
1503.61521	13437.95
1506.99934	15231.05
1510.38121	16465.85
1513.76081	16306.15
1517.13816	14689.55
1520.51324	12594.45
1523.88607	10849.65
1527.25665	9882.45
1530.62498	9352.45
1533.99105	9177.35
1537.35488	9054.85
1540.71647	8944.25
1544.07581	8801.55
1547.4329	8650.35
1550.78776	8509.95
1554.14038	8456.55
1557.49077	8405.45
1560.83892	8490.45
1564.18484	8723.05
1567.52853	9073.75
1570.86999	9384.45
1574.20922	9571.35
1577.54624	9452.45
1580.88103	8910.55
1584.2136	8239.75
1587.54395	7829.25
1590.87208	7739.65
1594.19801	7918.65
1597.52172	8296.25
1600.84321	8412.55
1604.16251	8271.65
1607.47959	8079.65
1610.79447	7878.65
1614.10715	7617.85
1617.41763	7322.95
1620.7259	7058.75
1624.03199	6891.05
1627.33587	6834.95
1630.63757	6885.05
1633.93707	7090.45
1637.23439	7507.55
1640.52951	8197.65
1643.82246	9170.95
1647.11321	10344.95
1650.40179	11098.15
1653.68819	10717.25
1656.97241	9508.85
1660.25446	8126.25
1663.53433	7114.65
1666.81203	6502.15
1670.08756	6154.95
1673.36092	5984.65
1676.63211	5841.45
1679.90115	5749.95
1683.16801	5682.15
1686.43272	5592.05
1689.69527	5549.65
1692.95567	5463.35
1696.2139	5482.75
1699.46999	5410.45
1702.72392	5418.95
1705.97571	5435.65
1709.22535	5397.05
1712.47284	5451.45
1715.71819	5444.45
1718.96139	5455.25
1722.20246	5424.85
1725.44139	5380.45
1728.67818	5370.65
1731.91284	5341.75
1735.14537	5288.35
1738.37576	5260.85
1741.60403	5246.55
1744.83017	5209.65
1748.05418	5215.75
1751.27607	5213.75
1754.49584	5175.25
1757.71349	5141.65
1760.92903	5136.55
1764.14244	5089.05
1767.35375	5119.05
1770.56294	5099.95
1773.77002	5078.55
1776.97499	5075.85
1780.17785	5070.05
1783.37861	5045.45
1786.57727	5072.45
1789.77382	4997.45
1792.96828	5042.35
1796.16064	5030.05
1799.3509	5014.45
1802.53907	5017.65
1805.72514	4985.25
1808.90913	4973.15
1812.09102	4957.35
1815.27083	4967.55
1818.44856	4953.85
1821.6242	4946.05
1824.79776	4910.45
1827.96924	4909.05
1831.13864	4884.95
1834.30597	4906.15
1837.47122	4884.95
1840.6344	4860.95
1843.7955	4854.15
1846.95454	4824.95
1850.11151	4856.15
1853.26642	4808.35
1856.41926	4831.45
1859.57004	4843.85
1862.71876	4817.85
1865.86542	4826.35
1869.01003	4808.95
1872.15258	4777.75
1875.29308	4822.35
1878.43152	4808.15
1881.56792	4783.35
1884.70227	4774.55
1887.83457	4786.45
1890.96482	4759.25
1894.09304	4746.75
1897.21921	4744.05
1900.34335	4751.35
1903.46544	4730.45
1906.58551	4743.45
1909.70353	4742.35
1912.81953	4721.25
1915.93349	4700.75
1919.04543	4701.65
1922.15534	4679.65
1925.26322	4684.35
1928.36908	4668.85
1931.47292	4660.75
1934.57473	4674.15
1937.67453	4636.25
1940.77232	4606.95
1943.86808	4610.75
1946.96184	4610.05
1950.05358	4594.65
1953.14331	4564.55
1956.23103	4572.25
1959.31675	4535.45
1962.40046	4488.65
1965.48217	4522.35
1968.56188	4513.85
1971.63959	4489.65
1974.7153	4492.05
1977.78901	4476.15
1980.86073	4457.25
1983.93046	4420.55
1986.99819	4340.95
1990.06394	4371.25
1993.1277	4382.25
1996.18947	4358.15
1999.24925	4339.95
2002.30706	4333.25
2005.36288	4332.15
2008.41672	4303.95
2011.46859	4267.85
2014.51848	4270.35
2017.56639	4259.55
2020.61233	4245.35
2023.6563	4235.85
2026.6983	4199.95
2029.73833	4208.65
2032.7764	4219.45
2035.8125	4151.45
2038.84664	4162.15
2041.87881	4157.25
2044.90903	4163.55
2047.93729	4144.35
2050.96359	4121.35
2053.98794	4134.35
2057.01034	4137.05
2060.03078	4098.75
2063.04927	4104.05
2066.06582	4110.65
2069.08042	4101.65
2072.09307	4109.75
2075.10378	4108.85
2078.11255	4081.25
2081.11938	4090.95
2084.12426	4075.55
2087.12722	4068.05
2090.12824	4063.15
2093.12732	4072.25
2096.12447	4076.65
2099.11969	4063.05
2102.11299	4068.45
2105.10435	4100.55
2108.09379	4071.25
2111.08131	4069.15
2114.0669	4079.85
2117.05057	4062.85
2120.03233	4061.15
2123.01216	4076.75
2125.99008	4070.95
2128.96609	4078.15
2131.94018	4093.05
2134.91236	4086.05
2137.88263	4069.65
2140.851	4074.35
2143.81746	4103.05
2146.78201	4082.45
2149.74466	4071.65
2152.7054	4086.25
2155.66425	4078.85
2158.6212	4066.05
2161.57625	4045.75
2164.52941	4009.15
2167.48067	4050.85
2170.43004	4033.75
2173.37752	4056.35
2176.32311	4040.75
2179.26681	4045.55
2182.20863	4038.35
2185.14856	4045.85
2188.08661	4042.25
2191.02278	4044.05
2193.95707	4012.65
2196.88948	4008.65
2199.82001	4020.55
2202.74867	4003.05
2205.67545	4010.35
2208.60037	4020.35
2211.52341	3995.75
2214.44458	3992.65
2217.36388	3977.45
2220.28132	3965.35
2223.1969	3941.55
2226.11061	3946.25
2229.02246	3919.25
2231.93245	3938.95
2234.84058	3908.85
2237.74686	3915.45
2240.65128	3902.25
2243.55385	3903.55
2246.45456	3867.15
2249.35343	3910.15
2252.25044	3876.75
2255.14561	3876.45
2258.03893	3882.45
2260.93041	3867.05
2263.82004	3864.85
2266.70783	3866.05
2269.59378	3834.15
2272.4779	3825.05
2275.36017	3821.25
2278.24061	3820.25
2281.11922	3784.95
2283.996	3793.85
2286.87094	3771.75
2289.74405	3789.25
2292.61534	3774.45
2295.4848	3777.55
2298.35243	3759.95
2301.21824	3759.65
2304.08223	3744.05
2306.94439	3752.75
2309.80474	3746.95
2312.66327	3746.65
2315.51999	3719.65
2318.37489	3720.65
2321.22797	3707.55
2324.07925	3694.15
2326.92871	3702.75
2329.77637	3669.35
2332.62222	3677.25
2335.46626	3653.55
2338.3085	3654.65
2341.14893	3665.65
2343.98756	3674.35
2346.8244	3641.45
2349.65943	3629.65
2352.49267	3639.45
2355.32411	3655.65
2358.15376	3643.85
2360.98161	3647.15
2363.80768	3638.05
2366.63195	3626.95
2369.45444	3645.85
2372.27514	3636.15
2375.09405	3652.65
2377.91118	3618.35
2380.72652	3608.35
2383.54009	3606.55
2386.35187	3605.35
2389.16188	3587.95
2391.97011	3590.75
2394.77657	3569.25
2397.58125	3570.45
2400.38416	3556.95
2403.18529	3542.35
2405.98466	3535.75
2408.78226	3521.75
2411.57809	3512.05
2414.37216	3511.35
2417.16446	3514.05
2419.955	3480.35
2422.74378	3492.25
2425.5308	3485.45
2428.31606	3488.35
2431.09956	3492.35
2433.88131	3453.75
2436.6613	3476.15
2439.43954	3467.15
2442.21603	3461.05
2444.99077	3451.65
2447.76377	3471.95
2450.53501	3440.75
2453.30451	3439.45
2456.07226	3458.85
2458.83827	3437.15
2461.60254	3408.55
2464.36507	3442.75
2467.12586	3422.75
2469.88492	3419.55
2472.64224	3420.85
2475.39782	3395.85
2478.15167	3422.65
2480.90379	3406.65
2483.65417	3430.15
2486.40283	3412.05
2489.14976	3424.15
2491.89497	3410.95
2494.63845	3414.55
2497.3802	3416.15
2500.12024	3404.85
2502.85855	3398.95
2505.59514	3399.15
2508.33002	3386.85
2511.06318	3366.35
2513.79462	3380.15
2516.52435	3329.15
2519.25237	3318.45
2521.97867	3309.95
2524.70327	3321.75
2527.42616	3324.05
2530.14734	3338.65
2532.86681	3304.55
2535.58458	3291.25
2538.30065	3288.55
2541.01501	3291.65
2543.72768	3288.15
2546.43864	3291.65
2549.14791	3277.25
2551.85548	3252.65
2554.56136	3272.95
2557.26554	3271.15
2559.96803	3268.35
2562.66883	3258.75
2565.36794	3238.45
2568.06536	3206.15
2570.7611	3230.85
2573.45514	3215.35
2576.14751	3206.85
2578.83819	3196.85
2581.52719	3180.55
2584.21451	3185.55
2586.90015	3165.55
2589.58411	3138.65
2592.2664	3162.95
2594.94701	3158.95
2597.62594	3166.75
2600.30321	3100.45
2602.9788	3111.35
2605.65273	3117.25
2608.32498	3118.45
2610.99557	3136.95
2613.66449	3101.05
2616.33175	3117.75
2618.99734	3122.35
2621.66128	3105.85
2624.32355	3102.55
2626.98416	3079.25
2629.64311	3068.05
2632.30041	3067.35
2634.95605	3054.25
2637.61004	3040.25
2640.26238	3010.55
2642.91306	3038.55
2645.56209	3043.25
2648.20948	3045.25
2650.85521	3030.05
2653.4993	3054.85
2656.14175	3028.95
2658.78255	3025.75
2661.42171	2998.65
2664.05923	3036.45
2666.6951	3027.35
2669.32934	3039.55
2671.96194	3056.25
2674.59291	3033.25
2677.22224	3034.15
2679.84993	3044.35
2682.476	3024.55
2685.10043	3009.95
2687.72324	3023.95
2690.34441	3008.65
2692.96396	3003.35
2695.58188	3025.55
2698.19818	3007.35
2700.81285	3007.45
2703.4259	2991.15
2706.03733	2967.75
2708.64714	2982.65
2711.25533	2998.45
2713.86191	2995.75
2716.46687	2999.75
2719.07021	3000.35
2721.67194	2980.95
2724.27206	3011.15
2726.87057	3000.85
2729.46747	2978.75
2732.06276	2985.65
2734.65644	2971.35
2737.24852	2974.65
2739.83899	2939.95
2742.42786	2970.95
2745.01513	2972.55
2747.60079	2946.75
2750.18486	2932.75
2752.76733	2924.75
2755.3482	2932.25
2757.92747	2937.45
2760.50515	2916.75
2763.08123	2910.65
2765.65573	2915.45
2768.22863	2914.35
2770.79994	2903.45
2773.36967	2899.85
2775.9378	2889.25
2778.50435	2883.45
2781.06932	2872.35
2783.6327	2866.65
2786.1945	2885.15
2788.75471	2872.35
2791.31335	2863.95
2793.87041	2869.75
2796.42589	2840.05
2798.97979	2831.95
2801.53212	2827.35
2804.08288	2843.55
2806.63206	2831.15
2809.17967	2814.85
2811.72571	2824.45
2814.27018	2822.65
2816.81308	2813.75
2819.35442	2767.25
2821.89419	2789.95
2824.43239	2769.85
2826.96904	2813.35
2829.50412	2780.55
2832.03763	2793.35
2834.56959	2772.65
2837.1	2774.45
2839.62884	2781.45
2842.15613	2767.65
2844.68186	2770.15
2847.20604	2749.35
2849.72867	2739.55
2852.24974	2756.15
2854.76927	2727.85
2857.28724	2674.25
2859.80367	2739.05
2862.31855	2744.95
2864.83189	2735.25
2867.34368	2736.65
2869.85393	2744.85
2872.36264	2717.25
2874.8698	2717.65
2877.37543	2722.05
2879.87952	2728.15
2882.38207	2702.75
2884.88308	2696.55
2887.38256	2708.35
2889.88051	2700.35
2892.37692	2702.95
2894.8718	2676.05
2897.36515	2701.15
2899.85698	2702.75
2902.34727	2692.95
2904.83604	2708.55
2907.32328	2712.65
2909.809	2713.75
2912.29319	2699.75
2914.77587	2721.45
2917.25702	2731.85
2919.73665	2730.55
2922.21476	2718.05
2924.69136	2723.15
2927.16644	2711.15
2929.64	2699.65
2932.11205	2694.15
2934.58258	2692.95
2937.05161	2687.45
2939.51912	2685.05
2941.98513	2704.65
2944.44962	2675.65
2946.91261	2650.35
2949.37409	2662.75
2951.83407	2643.55
2954.29254	2654.75
2956.74951	2642.05
2959.20498	2632.95
2961.65895	2645.15
2964.11142	2619.55
2966.56239	2612.65
2969.01186	2618.25
2971.45984	2618.05
2973.90632	2612.55
2976.35131	2619.25
2978.7948	2607.35
2981.23681	2600.25
2983.67732	2599.65
2986.11635	2603.05
2988.55388	2563.25
2990.98993	2579.35
2993.4245	2558.65
2995.85758	2547.25
2998.28917	2544.75
3000.71928	2527.25
3003.14791	2541.15
3005.57506	2523.25
3008.00073	2504.45
3010.42493	2453.85
3012.84764	2496.15
3015.26888	2503.05
3017.68865	2498.95
3020.10694	2451.75
3022.52376	2463.05
3024.9391	2468.95
3027.35298	2456.55
3029.76539	2438.05
3032.17632	2453.55
3034.5858	2445.15
3036.9938	2452.25
3039.40034	2426.45
3041.80542	2431.05
3044.20903	2419.25
3046.61118	2416.85
3049.01187	2415.55
3051.4111	2399.75
3053.80888	2386.65
3056.20519	2387.15
3058.60005	2366.15
3060.99345	2392.65
3063.3854	2369.15
3065.7759	2354.15
3068.16494	2344.85
3070.55254	2337.45
3072.93868	2354.45
3075.32338	2350.85
3077.70662	2329.55
3080.08842	2315.55
3082.46878	2321.65
3084.84769	2319.85
3087.22515	2306.55
3089.60118	2321.05
3091.97576	2301.15
3094.3489	2312.55
3096.72061	2302.05
3099.09087	2286.95
3101.4597	2305.75
3103.82709	2299.15
3106.19305	2280.25
3108.55757	2280.45
3110.92066	2266.45
3113.28232	2282.45
3115.64255	2277.35
3118.00134	2277.85
3120.35871	2245.65
3122.71466	2242.15
3125.06917	2243.75
3127.42226	2246.45
3129.77393	2219.95
3132.12417	2240.65
3134.47299	2239.85
3136.82039	2212.75
3139.16636	2197.25
3141.51092	2220.45
3143.85406	2223.35
3146.19579	2196.55
3148.53609	2200.15
3150.87499	2207.35
3153.21246	2196.75
3155.54853	2215.15
3157.88318	2207.45
3160.21642	2210.15
3162.54826	2193.05
3164.87868	2210.15
3167.2077	2172.35
3169.5353	2200.15
3171.86151	2193.65
3174.18631	2181.25
3176.5097	2180.45
3178.83169	2173.35
3181.15228	2176.15
3183.47147	2149.05
3185.78926	2125.75
3188.10565	2147.35
3190.42065	2128.75
3192.73424	2131.65
3195.04645	2127.05
3197.35725	2114.05
3199.66667	2133.75
3201.97469	2114.15
3204.28132	2097.75
3206.58656	2121.95
3208.8904	2135.55
3211.19287	2121.75
3213.49394	2116.25
3215.79363	2095.15
3218.09193	2120.05
3220.38884	2118.15
3222.68438	2105.25
3224.97853	2092.75
3227.2713	2111.25
3229.56269	2094.35
3231.8527	2091.35
3234.14133	2085.25
3236.42858	2079.35
3238.71446	2056.95
3240.99896	2076.85
3243.28209	2063.95
3245.56384	2070.35
3247.84423	2049.65
3250.12324	2058.55
3252.40088	2054.05
3254.67715	2037.35
3256.95205	2028.55
3259.22558	2054.75
3261.49775	2043.15
3263.76855	2037.25
3266.03799	2044.55
3268.30606	2042.85
3270.57277	2047.25
3272.83812	2018.05
3275.10211	2012.95
3277.36474	2023.15
3279.62601	2019.35
3281.88593	2002.35
3284.14448	1982.85
3286.40168	2005.45
3288.65753	1997.05
3290.91202	1983.85
3293.16516	1966.05
3295.41695	1999.85
3297.66738	2010.45
3299.91647	1968.45
3302.16421	1969.65
3304.4106	1924.75
3306.65564	1942.55
3308.89933	1912.75
3311.14169	1909.65
3313.38269	1891.85
3315.62236	1888.05
3317.86068	1865.45
3320.09766	1867.35
3322.3333	1840.95
3324.5676	1830.55
3326.80056	1791.35
3329.03219	1786.55
3331.26248	-0.95
3333.49143	0.05
3335.71905	-0.45
