Data from AgNPs_UA_5uM_CRN_500uM_SU_RamanShift__159__11-55-53-171.txt Node

Date: Thu Aug 04 11:55:53 BST 2022
User: TCL
Spectrometer: QEP01345
Trigger mode: 4
Integration Time (sec): 1.000000E0
Scans to average: 10
Electric dark correction enabled: true
Nonlinearity correction enabled: false
Boxcar width: 0
XAxis mode: Raman Shifts
Number of Pixels in Spectrum: 1044
>>>>>Begin Spectral Data<<<<<
46.04893	0.5375
50.45542	-0.7625
54.85868	-1.7625
59.25871	-0.4625
63.6555	-57.0625
68.04907	-39.7625
72.43941	-69.5625
76.82654	-56.0625
81.21044	-55.9625
85.59113	-48.6625
89.96862	-73.4625
94.34289	-54.1625
98.71396	-75.8625
103.08183	-59.0625
107.4465	-48.4625
111.80798	-57.1625
116.16626	-42.3625
120.52136	-73.4625
124.87327	-50.8625
129.222	-63.9625
133.56755	-49.8625
137.90993	-62.0625
142.24913	-51.6625
146.58517	-41.8625
150.91804	-39.6625
155.24774	-29.8625
159.57429	-9.0625
163.89768	-6.6625
168.21792	39.3375
172.53501	56.3375
176.84895	135.4375
181.15975	265.6375
185.46741	413.8375
189.77193	598.5375
194.07331	886.5375
198.37157	1166.4375
202.6667	1443.6375
206.9587	1768.3375
211.24758	2078.3375
215.53334	2405.3375
219.81599	2748.5375
224.09553	3150.6375
228.37195	3593.4375
232.64527	4044.7375
236.91549	4504.0375
241.18261	4874.2375
245.44663	5156.2375
249.70755	5327.1375
253.96539	5477.3375
258.22014	5569.6375
262.4718	5628.4375
266.72039	5677.1375
270.96589	5646.7375
275.20832	5523.6375
279.44768	5431.1375
283.68397	5312.6375
287.91719	5250.4375
292.14735	5281.9375
296.37445	5436.1375
300.59849	5701.7375
304.81948	6027.9375
309.03742	6391.4375
313.25231	6611.3375
317.46415	6576.3375
321.67296	6194.3375
325.87872	5797.9375
330.08145	5623.6375
334.28114	5586.1375
338.47781	5643.1375
342.67145	5793.6375
346.86207	6028.9375
351.04966	6397.4375
355.23424	6739.2375
359.4158	7033.4375
363.59435	7074.6375
367.76989	6991.2375
371.94243	6881.1375
376.11196	6756.7375
380.27849	6693.2375
384.44203	6607.9375
388.60257	6588.6375
392.76012	6588.0375
396.91468	6711.3375
401.06626	6857.2375
405.21485	6891.7375
409.36047	6746.6375
413.50311	6450.3375
417.64277	6159.5375
421.77947	5964.4375
425.9132	5881.2375
430.04396	5884.4375
434.17176	5927.2375
438.2966	6019.2375
442.41849	6129.1375
446.53742	6231.2375
450.6534	6317.1375
454.76644	6386.2375
458.87653	6408.6375
462.98368	6373.8375
467.08789	6322.2375
471.18916	6248.8375
475.2875	6152.6375
479.38291	6037.9375
483.4754	5934.9375
487.56496	5904.3375
491.6516	5861.5375
495.73531	5858.5375
499.81612	5871.0375
503.89401	5982.9375
507.96899	6032.5375
512.04106	6118.6375
516.11023	6217.0375
520.1765	6291.8375
524.23987	6326.8375
528.30034	6322.4375
532.35792	6255.0375
536.41261	6211.4375
540.46441	6094.1375
544.51333	6056.1375
548.55936	6104.9375
552.60252	6232.6375
556.64279	6337.3375
560.6802	6452.4375
564.71473	6586.7375
568.7464	6782.9375
572.7752	6750.4375
576.80114	6414.0375
580.82422	6197.1375
584.84444	6083.8375
588.86181	6092.7375
592.87633	6126.1375
596.888	6239.1375
600.89682	6578.5375
604.9028	7521.3375
608.90594	9511.6375
612.90624	11772.9375
616.90371	10946.2375
620.89834	7997.5375
624.89015	6749.4375
628.87913	6575.1375
632.86528	6700.6375
636.84862	6860.0375
640.82913	6721.2375
644.80683	6402.8375
648.78172	6238.8375
652.75379	6260.2375
656.72306	6481.0375
660.68952	6691.5375
664.65319	6626.4375
668.61405	6425.8375
672.57211	6351.4375
676.52738	6339.8375
680.47986	6258.6375
684.42955	6182.4375
688.37646	6119.4375
692.32058	6137.7375
696.26192	6227.1375
700.20048	6306.1375
704.13626	6344.8375
708.06928	6286.2375
711.99952	6259.9375
715.927	6231.6375
719.85171	6260.9375
723.77365	6320.6375
727.69284	6289.3375
731.60928	6294.8375
735.52295	6271.1375
739.43388	6315.7375
743.34206	6310.9375
747.24749	6332.6375
751.15017	6356.8375
755.05012	6416.2375
758.94733	6767.0375
762.8418	7560.9375
766.73354	8812.7375
770.62254	9766.4375
774.50882	9863.0375
778.39237	9393.4375
782.27321	8517.5375
786.15132	7502.5375
790.02671	6852.5375
793.89938	6501.4375
797.76935	6390.5375
801.6366	6297.9375
805.50115	6272.3375
809.36299	6276.4375
813.22213	6277.1375
817.07857	6266.6375
820.93231	6259.5375
824.78336	6295.2375
828.63172	6322.2375
832.47738	6299.9375
836.32036	6327.5375
840.16066	6275.1375
843.99827	6272.0375
847.8332	6278.7375
851.66546	6287.1375
855.49504	6278.6375
859.32195	6318.3375
863.1462	6314.2375
866.96777	6310.8375
870.78668	6293.4375
874.60293	6322.1375
878.41652	6350.3375
882.22745	6406.1375
886.03573	6435.4375
889.84136	6444.5375
893.64433	6440.9375
897.44466	6414.2375
901.24235	6416.7375
905.0374	6415.6375
908.8298	6367.1375
912.61957	6333.1375
916.40671	6276.0375
920.19121	6336.2375
923.97308	6420.4375
927.75233	6476.4375
931.52895	6550.1375
935.30295	6513.8375
939.07433	6375.5375
942.84309	6266.3375
946.60924	6241.7375
950.37278	6198.7375
954.13371	6198.1375
957.89203	6189.0375
961.64774	6210.6375
965.40086	6195.1375
969.15137	6173.1375
972.89929	6212.3375
976.64461	6202.8375
980.38733	6202.9375
984.12747	6222.2375
987.86502	6255.0375
991.59999	6259.2375
995.33237	6334.4375
999.06217	6391.0375
1002.78939	6470.8375
1006.51404	6620.4375
1010.23611	6721.2375
1013.95561	6789.8375
1017.67255	6776.9375
1021.38692	6745.6375
1025.09872	6690.2375
1028.80796	6599.0375
1032.51465	6628.2375
1036.21877	6594.4375
1039.92035	6645.8375
1043.61937	6679.2375
1047.31584	6725.8375
1051.00976	6755.7375
1054.70114	6764.0375
1058.38998	6753.0375
1062.07627	6751.8375
1065.76003	6787.7375
1069.44126	6852.2375
1073.11995	6939.8375
1076.79611	7091.3375
1080.46974	7222.8375
1084.14085	7374.5375
1087.80943	7506.1375
1091.47549	7528.7375
1095.13903	7465.6375
1098.80005	7363.3375
1102.45857	7248.2375
1106.11456	7217.9375
1109.76805	7139.1375
1113.41903	7270.1375
1117.06751	7411.6375
1120.71348	7659.4375
1124.35696	8015.2375
1127.99793	8280.7375
1131.63641	8138.4375
1135.2724	7763.7375
1138.90589	7461.1375
1142.5369	7293.5375
1146.16542	7187.6375
1149.79145	7100.3375
1153.415	7046.9375
1157.03607	7035.0375
1160.65467	7125.3375
1164.27079	7288.7375
1167.88443	7533.5375
1171.49561	7927.3375
1175.10432	8498.5375
1178.71056	9333.0375
1182.31434	10069.4375
1185.91565	10301.3375
1189.51451	10174.2375
1193.11091	9914.8375
1196.70485	9696.5375
1200.29634	9517.9375
1203.88538	9265.5375
1207.47197	8861.7375
1211.05612	8426.0375
1214.63782	8054.7375
1218.21708	7822.2375
1221.79391	7702.9375
1225.36829	7597.3375
1228.94024	7560.5375
1232.50976	7572.3375
1236.07685	7606.9375
1239.6415	7643.3375
1243.20374	7659.4375
1246.76355	7705.6375
1250.32093	7775.9375
1253.8759	7863.7375
1257.42845	8044.4375
1260.97859	8247.8375
1264.52631	8468.8375
1268.07163	8603.3375
1271.61453	8734.1375
1275.15503	8759.5375
1278.69312	8752.9375
1282.22882	8832.5375
1285.76211	9008.5375
1289.29301	9239.5375
1292.82151	9512.2375
1296.34761	9712.7375
1299.87133	10089.1375
1303.39266	10759.6375
1306.9116	11815.0375
1310.42815	12993.6375
1313.94233	13392.2375
1317.45412	12636.5375
1320.96354	11564.7375
1324.47058	10623.0375
1327.97525	9928.0375
1331.47754	9536.0375
1334.97747	9442.9375
1338.47502	9574.9375
1341.97022	9906.6375
1345.46305	10610.3375
1348.95352	11605.4375
1352.44163	12793.4375
1355.92738	14010.9375
1359.41078	15548.9375
1362.89183	16957.0375
1366.37053	16309.6375
1369.84688	13626.9375
1373.32088	11157.4375
1376.79254	9872.9375
1380.26186	9270.9375
1383.72883	8887.1375
1387.19347	8515.0375
1390.65578	8177.8375
1394.11575	7970.0375
1397.57339	7812.8375
1401.0287	7715.9375
1404.48168	7675.0375
1407.93234	7683.4375
1411.38068	7703.6375
1414.82669	7799.9375
1418.27039	7883.3375
1421.71177	7882.7375
1425.15083	7782.0375
1428.58758	7691.2375
1432.02203	7741.0375
1435.45416	7831.0375
1438.88399	7833.2375
1442.31151	7824.3375
1445.73673	7905.2375
1449.15965	7931.6375
1452.58027	7951.6375
1455.9986	7945.3375
1459.41463	7930.4375
1462.82837	8025.4375
1466.23982	8210.5375
1469.64898	8392.7375
1473.05586	8549.2375
1476.46045	8630.4375
1479.86276	8684.5375
1483.26279	8783.6375
1486.66054	8948.7375
1490.05602	9192.1375
1493.44922	9693.5375
1496.84016	10528.7375
1500.22882	11777.8375
1503.61521	13408.3375
1506.99934	15041.9375
1510.38121	16183.8375
1513.76081	16092.2375
1517.13816	14607.7375
1520.51324	12632.2375
1523.88607	11020.5375
1527.25665	10089.2375
1530.62498	9596.3375
1533.99105	9386.6375
1537.35488	9291.3375
1540.71647	9195.4375
1544.07581	9108.6375
1547.4329	9011.6375
1550.78776	8888.2375
1554.14038	8799.2375
1557.49077	8790.3375
1560.83892	8861.4375
1564.18484	9071.6375
1567.52853	9360.1375
1570.86999	9665.3375
1574.20922	9789.2375
1577.54624	9688.2375
1580.88103	9197.2375
1584.2136	8578.0375
1587.54395	8250.0375
1590.87208	8201.7375
1594.19801	8360.0375
1597.52172	8699.5375
1600.84321	8857.6375
1604.16251	8724.6375
1607.47959	8558.7375
1610.79447	8366.7375
1614.10715	8085.2375
1617.41763	7803.6375
1620.7259	7527.7375
1624.03199	7380.4375
1627.33587	7301.5375
1630.63757	7372.7375
1633.93707	7579.1375
1637.23439	7985.4375
1640.52951	8647.2375
1643.82246	9570.1375
1647.11321	10650.6375
1650.40179	11303.8375
1653.68819	10987.4375
1656.97241	9800.7375
1660.25446	8513.4375
1663.53433	7551.6375
1666.81203	6985.9375
1670.08756	6683.8375
1673.36092	6519.6375
1676.63211	6384.7375
1679.90115	6292.8375
1683.16801	6211.1375
1686.43272	6115.8375
1689.69527	6073.8375
1692.95567	5991.9375
1696.2139	5994.1375
1699.46999	5921.9375
1702.72392	5948.7375
1705.97571	5938.6375
1709.22535	5944.6375
1712.47284	5959.6375
1715.71819	5957.7375
1718.96139	5955.7375
1722.20246	5966.7375
1725.44139	5917.1375
1728.67818	5894.4375
1731.91284	5861.3375
1735.14537	5832.3375
1738.37576	5805.6375
1741.60403	5764.6375
1744.83017	5751.1375
1748.05418	5737.6375
1751.27607	5760.3375
1754.49584	5709.6375
1757.71349	5694.1375
1760.92903	5694.5375
1764.14244	5650.7375
1767.35375	5645.0375
1770.56294	5629.0375
1773.77002	5614.4375
1776.97499	5619.5375
1780.17785	5599.6375
1783.37861	5584.9375
1786.57727	5612.6375
1789.77382	5537.4375
1792.96828	5579.0375
1796.16064	5586.8375
1799.3509	5564.1375
1802.53907	5571.1375
1805.72514	5531.7375
1808.90913	5514.6375
1812.09102	5521.7375
1815.27083	5489.7375
1818.44856	5481.8375
1821.6242	5480.3375
1824.79776	5467.4375
1827.96924	5434.3375
1831.13864	5420.8375
1834.30597	5439.0375
1837.47122	5393.7375
1840.6344	5404.4375
1843.7955	5397.0375
1846.95454	5373.6375
1850.11151	5401.4375
1853.26642	5362.5375
1856.41926	5372.9375
1859.57004	5369.0375
1862.71876	5356.4375
1865.86542	5374.6375
1869.01003	5347.4375
1872.15258	5334.8375
1875.29308	5355.9375
1878.43152	5361.5375
1881.56792	5335.3375
1884.70227	5316.5375
1887.83457	5311.0375
1890.96482	5279.3375
1894.09304	5299.7375
1897.21921	5295.8375
1900.34335	5296.5375
1903.46544	5267.4375
1906.58551	5293.0375
1909.70353	5285.3375
1912.81953	5256.9375
1915.93349	5246.9375
1919.04543	5230.3375
1922.15534	5235.2375
1925.26322	5217.0375
1928.36908	5207.4375
1931.47292	5214.4375
1934.57473	5208.9375
1937.67453	5181.1375
1940.77232	5144.9375
1943.86808	5137.1375
1946.96184	5152.1375
1950.05358	5111.3375
1953.14331	5092.8375
1956.23103	5111.1375
1959.31675	5063.0375
1962.40046	5022.5375
1965.48217	5042.1375
1968.56188	5025.7375
1971.63959	5010.9375
1974.7153	5007.5375
1977.78901	4996.8375
1980.86073	4975.3375
1983.93046	4944.8375
1986.99819	4876.6375
1990.06394	4874.8375
1993.1277	4912.6375
1996.18947	4896.3375
1999.24925	4835.2375
2002.30706	4850.6375
2005.36288	4838.1375
2008.41672	4829.9375
2011.46859	4777.3375
2014.51848	4789.1375
2017.56639	4747.5375
2020.61233	4740.3375
2023.6563	4744.3375
2026.6983	4710.4375
2029.73833	4709.6375
2032.7764	4710.7375
2035.8125	4661.1375
2038.84664	4667.5375
2041.87881	4649.9375
2044.90903	4662.2375
2047.93729	4647.4375
2050.96359	4633.9375
2053.98794	4629.4375
2057.01034	4633.0375
2060.03078	4611.8375
2063.04927	4608.6375
2066.06582	4605.0375
2069.08042	4589.7375
2072.09307	4606.8375
2075.10378	4599.7375
2078.11255	4571.1375
2081.11938	4575.4375
2084.12426	4568.9375
2087.12722	4573.4375
2090.12824	4567.5375
2093.12732	4560.2375
2096.12447	4576.2375
2099.11969	4574.4375
2102.11299	4556.6375
2105.10435	4581.3375
2108.09379	4570.0375
2111.08131	4557.3375
2114.0669	4578.4375
2117.05057	4561.9375
2120.03233	4556.5375
2123.01216	4581.9375
2125.99008	4582.2375
2128.96609	4582.4375
2131.94018	4595.1375
2134.91236	4580.2375
2137.88263	4575.1375
2140.851	4587.8375
2143.81746	4611.1375
2146.78201	4603.6375
2149.74466	4578.3375
2152.7054	4601.0375
2155.66425	4577.0375
2158.6212	4572.2375
2161.57625	4540.5375
2164.52941	4525.5375
2167.48067	4539.7375
2170.43004	4544.7375
2173.37752	4557.0375
2176.32311	4538.8375
2179.26681	4555.1375
2182.20863	4549.6375
2185.14856	4547.8375
2188.08661	4551.0375
2191.02278	4547.3375
2193.95707	4518.2375
2196.88948	4516.7375
2199.82001	4526.5375
2202.74867	4508.7375
2205.67545	4504.3375
2208.60037	4507.2375
2211.52341	4507.6375
2214.44458	4485.9375
2217.36388	4471.2375
2220.28132	4470.9375
2223.1969	4437.5375
2226.11061	4430.5375
2229.02246	4411.8375
2231.93245	4432.0375
2234.84058	4409.3375
2237.74686	4399.8375
2240.65128	4386.0375
2243.55385	4375.4375
2246.45456	4350.0375
2249.35343	4389.0375
2252.25044	4365.2375
2255.14561	4374.5375
2258.03893	4363.6375
2260.93041	4357.8375
2263.82004	4349.9375
2266.70783	4343.0375
2269.59378	4319.2375
2272.4779	4298.6375
2275.36017	4298.6375
2278.24061	4289.4375
2281.11922	4266.0375
2283.996	4275.3375
2286.87094	4251.0375
2289.74405	4263.6375
2292.61534	4249.1375
2295.4848	4240.8375
2298.35243	4227.9375
2301.21824	4229.5375
2304.08223	4224.4375
2306.94439	4232.0375
2309.80474	4215.9375
2312.66327	4212.0375
2315.51999	4208.9375
2318.37489	4197.5375
2321.22797	4175.9375
2324.07925	4168.2375
2326.92871	4167.6375
2329.77637	4137.8375
2332.62222	4141.9375
2335.46626	4104.2375
2338.3085	4131.0375
2341.14893	4137.1375
2343.98756	4134.6375
2346.8244	4102.9375
2349.65943	4101.0375
2352.49267	4114.6375
2355.32411	4107.7375
2358.15376	4097.1375
2360.98161	4114.9375
2363.80768	4086.0375
2366.63195	4095.0375
2369.45444	4096.7375
2372.27514	4099.6375
2375.09405	4104.5375
2377.91118	4058.3375
2380.72652	4075.9375
2383.54009	4053.8375
2386.35187	4061.4375
2389.16188	4042.5375
2391.97011	4046.2375
2394.77657	4034.7375
2397.58125	4020.5375
2400.38416	4004.3375
2403.18529	4007.6375
2405.98466	3990.3375
2408.78226	3979.9375
2411.57809	3969.6375
2414.37216	3951.3375
2417.16446	3956.4375
2419.955	3932.6375
2422.74378	3961.9375
2425.5308	3926.7375
2428.31606	3955.0375
2431.09956	3943.0375
2433.88131	3906.5375
2436.6613	3927.6375
2439.43954	3924.7375
2442.21603	3905.3375
2444.99077	3901.6375
2447.76377	3914.5375
2450.53501	3900.8375
2453.30451	3890.2375
2456.07226	3891.9375
2458.83827	3871.0375
2461.60254	3846.7375
2464.36507	3874.6375
2467.12586	3844.4375
2469.88492	3872.8375
2472.64224	3864.1375
2475.39782	3845.5375
2478.15167	3857.0375
2480.90379	3852.2375
2483.65417	3863.5375
2486.40283	3859.7375
2489.14976	3860.6375
2491.89497	3854.0375
2494.63845	3855.9375
2497.3802	3837.7375
2500.12024	3829.3375
2502.85855	3831.5375
2505.59514	3834.5375
2508.33002	3811.6375
2511.06318	3777.4375
2513.79462	3806.7375
2516.52435	3745.8375
2519.25237	3742.1375
2521.97867	3735.6375
2524.70327	3750.3375
2527.42616	3765.1375
2530.14734	3753.2375
2532.86681	3732.0375
2535.58458	3729.0375
2538.30065	3723.5375
2541.01501	3735.3375
2543.72768	3713.5375
2546.43864	3722.4375
2549.14791	3700.1375
2551.85548	3684.2375
2554.56136	3681.5375
2557.26554	3678.5375
2559.96803	3675.0375
2562.66883	3685.7375
2565.36794	3661.3375
2568.06536	3633.8375
2570.7611	3648.8375
2573.45514	3642.3375
2576.14751	3617.8375
2578.83819	3619.9375
2581.52719	3599.0375
2584.21451	3610.7375
2586.90015	3572.9375
2589.58411	3566.4375
2592.2664	3568.4375
2594.94701	3585.7375
2597.62594	3562.6375
2600.30321	3510.5375
2602.9788	3517.3375
2605.65273	3515.6375
2608.32498	3527.9375
2610.99557	3533.3375
2613.66449	3506.6375
2616.33175	3522.0375
2618.99734	3512.8375
2621.66128	3518.5375
2624.32355	3504.1375
2626.98416	3490.0375
2629.64311	3468.0375
2632.30041	3467.9375
2634.95605	3455.3375
2637.61004	3459.2375
2640.26238	3421.8375
2642.91306	3429.2375
2645.56209	3457.4375
2648.20948	3440.2375
2650.85521	3428.2375
2653.4993	3448.6375
2656.14175	3442.2375
2658.78255	3415.0375
2661.42171	3387.5375
2664.05923	3443.0375
2666.6951	3439.4375
2669.32934	3446.9375
2671.96194	3448.9375
2674.59291	3435.9375
2677.22224	3444.0375
2679.84993	3441.9375
2682.476	3420.5375
2685.10043	3417.1375
2687.72324	3414.7375
2690.34441	3407.4375
2692.96396	3407.1375
2695.58188	3421.7375
2698.19818	3419.0375
2700.81285	3395.6375
2703.4259	3397.4375
2706.03733	3353.6375
2708.64714	3370.2375
2711.25533	3388.1375
2713.86191	3406.7375
2716.46687	3387.6375
2719.07021	3386.7375
2721.67194	3389.6375
2724.27206	3403.2375
2726.87057	3389.8375
2729.46747	3362.4375
2732.06276	3374.7375
2734.65644	3365.4375
2737.24852	3368.1375
2739.83899	3339.4375
2742.42786	3352.3375
2745.01513	3367.5375
2747.60079	3340.2375
2750.18486	3325.1375
2752.76733	3326.4375
2755.3482	3307.1375
2757.92747	3326.9375
2760.50515	3295.3375
2763.08123	3309.6375
2765.65573	3304.4375
2768.22863	3285.7375
2770.79994	3278.8375
2773.36967	3296.2375
2775.9378	3284.2375
2778.50435	3265.1375
2781.06932	3271.2375
2783.6327	3242.5375
2786.1945	3270.8375
2788.75471	3260.7375
2791.31335	3241.8375
2793.87041	3246.6375
2796.42589	3221.2375
2798.97979	3210.9375
2801.53212	3208.9375
2804.08288	3234.7375
2806.63206	3201.2375
2809.17967	3198.1375
2811.72571	3206.0375
2814.27018	3199.2375
2816.81308	3176.1375
2819.35442	3141.0375
2821.89419	3172.1375
2824.43239	3154.8375
2826.96904	3163.0375
2829.50412	3147.1375
2832.03763	3148.1375
2834.56959	3146.4375
2837.1	3127.9375
2839.62884	3150.5375
2842.15613	3143.8375
2844.68186	3141.0375
2847.20604	3109.6375
2849.72867	3109.7375
2852.24974	3106.0375
2854.76927	3076.0375
2857.28724	3034.1375
2859.80367	3098.0375
2862.31855	3089.7375
2864.83189	3092.4375
2867.34368	3083.4375
2869.85393	3096.3375
2872.36264	3066.0375
2874.8698	3082.2375
2877.37543	3073.1375
2879.87952	3062.1375
2882.38207	3050.3375
2884.88308	3050.1375
2887.38256	3053.7375
2889.88051	3039.0375
2892.37692	3058.6375
2894.8718	3016.4375
2897.36515	3053.7375
2899.85698	3043.7375
2902.34727	3034.3375
2904.83604	3040.6375
2907.32328	3046.6375
2909.809	3043.3375
2912.29319	3038.4375
2914.77587	3042.2375
2917.25702	3070.1375
2919.73665	3071.9375
2922.21476	3063.3375
2924.69136	3061.6375
2927.16644	3052.6375
2929.64	3044.8375
2932.11205	3032.3375
2934.58258	3040.9375
2937.05161	3022.0375
2939.51912	3023.5375
2941.98513	3041.3375
2944.44962	3020.1375
2946.91261	2974.1375
2949.37409	2991.7375
2951.83407	2987.9375
2954.29254	2988.6375
2956.74951	2992.3375
2959.20498	2968.6375
2961.65895	2965.3375
2964.11142	2953.3375
2966.56239	2969.2375
2969.01186	2969.0375
2971.45984	2942.2375
2973.90632	2937.8375
2976.35131	2963.2375
2978.7948	2953.8375
2981.23681	2937.6375
2983.67732	2935.7375
2986.11635	2932.6375
2988.55388	2895.7375
2990.98993	2909.8375
2993.4245	2883.2375
2995.85758	2879.4375
2998.28917	2874.3375
3000.71928	2866.1375
3003.14791	2870.0375
3005.57506	2864.4375
3008.00073	2841.7375
3010.42493	2778.3375
3012.84764	2836.2375
3015.26888	2831.0375
3017.68865	2831.2375
3020.10694	2780.2375
3022.52376	2785.6375
3024.9391	2786.3375
3027.35298	2778.4375
3029.76539	2754.3375
3032.17632	2774.9375
3034.5858	2755.9375
3036.9938	2764.9375
3039.40034	2755.4375
3041.80542	2754.7375
3044.20903	2730.0375
3046.61118	2731.7375
3049.01187	2733.3375
3051.4111	2715.6375
3053.80888	2705.2375
3056.20519	2700.9375
3058.60005	2692.6375
3060.99345	2711.0375
3063.3854	2683.0375
3065.7759	2676.5375
3068.16494	2654.5375
3070.55254	2656.0375
3072.93868	2668.4375
3075.32338	2642.6375
3077.70662	2641.2375
3080.08842	2622.9375
3082.46878	2619.5375
3084.84769	2634.0375
3087.22515	2617.7375
3089.60118	2628.1375
3091.97576	2596.7375
3094.3489	2609.3375
3096.72061	2608.7375
3099.09087	2592.5375
3101.4597	2601.5375
3103.82709	2602.3375
3106.19305	2583.7375
3108.55757	2588.4375
3110.92066	2575.8375
3113.28232	2584.3375
3115.64255	2590.7375
3118.00134	2566.9375
3120.35871	2555.3375
3122.71466	2534.2375
