Data from AgNPs_UA_10uM_CRN_500uM_SU_RamanShift__11__13-07-10-255.txt Node

Date: Thu Aug 04 13:07:10 BST 2022
User: TCL
Spectrometer: QEP01345
Trigger mode: 4
Integration Time (sec): 1.000000E0
Scans to average: 10
Electric dark correction enabled: true
Nonlinearity correction enabled: false
Boxcar width: 0
XAxis mode: Raman Shifts
Number of Pixels in Spectrum: 1044
>>>>>Begin Spectral Data<<<<<
46.04893	-0.375
50.45542	-0.575
54.85868	1.025
59.25871	1.725
63.6555	17.325
68.04907	16.425
72.43941	18.025
76.82654	19.825
81.21044	21.125
85.59113	20.225
89.96862	22.525
94.34289	22.025
98.71396	21.525
103.08183	22.725
107.4465	25.325
111.80798	25.325
116.16626	24.925
120.52136	28.025
124.87327	29.025
129.222	30.125
133.56755	29.525
137.90993	35.325
142.24913	37.525
146.58517	44.325
150.91804	52.525
155.24774	62.525
159.57429	80.525
163.89768	104.925
168.21792	137.725
172.53501	189.025
176.84895	270.525
181.15975	379.725
185.46741	543.525
189.77193	757.825
194.07331	1018.025
198.37157	1312.525
202.6667	1637.625
206.9587	1943.125
211.24758	2239.825
215.53334	2584.325
219.81599	2942.725
224.09553	3317.625
228.37195	3738.925
232.64527	4204.725
236.91549	4643.125
241.18261	5031.625
245.44663	5342.625
249.70755	5596.325
253.96539	5799.825
258.22014	6000.925
262.4718	6138.825
266.72039	6222.125
270.96589	6244.225
275.20832	6185.725
279.44768	6088.125
283.68397	6015.625
287.91719	5942.825
292.14735	5962.625
296.37445	6079.125
300.59849	6253.525
304.81948	6522.025
309.03742	6774.525
313.25231	6920.825
317.46415	6851.525
321.67296	6591.425
325.87872	6312.525
330.08145	6166.725
334.28114	6140.425
338.47781	6190.725
342.67145	6319.325
346.86207	6527.025
351.04966	6806.925
355.23424	7096.325
359.4158	7285.825
363.59435	7360.425
367.76989	7311.625
371.94243	7292.125
376.11196	7246.025
380.27849	7214.325
384.44203	7235.325
388.60257	7266.325
392.76012	7309.625
396.91468	7438.625
401.06626	7544.625
405.21485	7596.425
409.36047	7477.525
413.50311	7245.725
417.64277	7023.925
421.77947	6891.525
425.9132	6817.725
430.04396	6787.825
434.17176	6802.325
438.2966	6876.025
442.41849	6968.525
446.53742	7118.525
450.6534	7258.025
454.76644	7349.925
458.87653	7405.025
462.98368	7424.525
467.08789	7373.225
471.18916	7287.725
475.2875	7137.325
479.38291	6978.425
483.4754	6904.525
487.56496	6832.225
491.6516	6821.525
495.73531	6828.825
499.81612	6852.125
503.89401	6929.225
507.96899	6985.525
512.04106	7002.925
516.11023	7079.025
520.1765	7114.925
524.23987	7105.825
528.30034	7125.825
532.35792	7085.125
536.41261	7038.725
540.46441	6934.625
544.51333	6952.625
548.55936	6992.825
552.60252	7082.325
556.64279	7184.125
560.6802	7294.025
564.71473	7403.325
568.7464	7491.525
572.7752	7447.425
576.80114	7211.925
580.82422	7033.525
584.84444	6975.025
588.86181	6982.025
592.87633	6963.625
596.888	7121.625
600.89682	7447.725
604.9028	8348.825
608.90594	10181.325
612.90624	12006.225
616.90371	11074.325
620.89834	8564.925
624.89015	7538.925
628.87913	7425.525
632.86528	7618.525
636.84862	7697.825
640.82913	7534.325
644.80683	7228.425
648.78172	7035.325
652.75379	7060.625
656.72306	7299.425
660.68952	7518.225
664.65319	7464.525
668.61405	7366.525
672.57211	7422.725
676.52738	7398.125
680.47986	7240.425
684.42955	7070.225
688.37646	7021.425
692.32058	7067.325
696.26192	7183.525
700.20048	7327.125
704.13626	7363.125
708.06928	7284.825
711.99952	7204.825
715.927	7169.625
719.85171	7204.925
723.77365	7239.925
727.69284	7193.825
731.60928	7141.625
735.52295	7141.825
739.43388	7179.825
743.34206	7180.925
747.24749	7210.025
751.15017	7163.625
755.05012	7284.025
758.94733	7558.025
762.8418	8250.625
766.73354	9285.825
770.62254	10048.025
774.50882	10188.625
778.39237	9872.125
782.27321	9205.925
786.15132	8386.125
790.02671	7774.725
793.89938	7476.325
797.76935	7310.225
801.6366	7227.725
805.50115	7179.425
809.36299	7146.725
813.22213	7129.925
817.07857	7139.125
820.93231	7139.625
824.78336	7155.225
828.63172	7173.225
832.47738	7191.425
836.32036	7172.625
840.16066	7148.425
843.99827	7111.125
847.8332	7125.525
851.66546	7143.325
855.49504	7160.125
859.32195	7166.825
863.1462	7168.725
866.96777	7154.425
870.78668	7163.525
874.60293	7181.725
878.41652	7231.625
882.22745	7284.825
886.03573	7305.025
889.84136	7318.125
893.64433	7281.925
897.44466	7262.425
901.24235	7248.825
905.0374	7247.925
908.8298	7208.625
912.61957	7201.825
916.40671	7202.625
920.19121	7221.025
923.97308	7240.825
927.75233	7331.925
931.52895	7379.625
935.30295	7325.625
939.07433	7208.825
942.84309	7138.225
946.60924	7094.325
950.37278	7078.625
954.13371	7070.325
957.89203	7085.925
961.64774	7082.825
965.40086	7078.525
969.15137	7059.325
972.89929	7070.225
976.64461	7072.625
980.38733	7068.725
984.12747	7101.725
987.86502	7088.025
991.59999	7130.525
995.33237	7181.925
999.06217	7246.225
1002.78939	7326.525
1006.51404	7457.825
1010.23611	7587.025
1013.95561	7654.125
1017.67255	7658.025
1021.38692	7641.625
1025.09872	7587.025
1028.80796	7513.925
1032.51465	7505.025
1036.21877	7488.025
1039.92035	7506.725
1043.61937	7563.925
1047.31584	7600.825
1051.00976	7643.925
1054.70114	7640.025
1058.38998	7667.925
1062.07627	7699.225
1065.76003	7765.925
1069.44126	7827.125
1073.11995	7999.925
1076.79611	8141.925
1080.46974	8290.525
1084.14085	8370.425
1087.80943	8452.825
1091.47549	8487.025
1095.13903	8481.225
1098.80005	8533.725
1102.45857	8603.025
1106.11456	8574.925
1109.76805	8439.725
1113.41903	8405.425
1117.06751	8510.425
1120.71348	8658.025
1124.35696	8837.525
1127.99793	8986.525
1131.63641	8819.125
1135.2724	8529.025
1138.90589	8309.725
1142.5369	8183.225
1146.16542	8115.025
1149.79145	8021.325
1153.415	7955.825
1157.03607	7924.625
1160.65467	7995.425
1164.27079	8183.825
1167.88443	8449.525
1171.49561	8799.525
1175.10432	9369.725
1178.71056	10129.625
1182.31434	10718.125
1185.91565	10982.125
1189.51451	10974.925
1193.11091	10908.125
1196.70485	10688.625
1200.29634	10518.425
1203.88538	10220.925
1207.47197	9849.025
1211.05612	9421.225
1214.63782	9042.325
1218.21708	8764.525
1221.79391	8578.525
1225.36829	8499.725
1228.94024	8496.125
1232.50976	8520.925
1236.07685	8548.925
1239.6415	8569.225
1243.20374	8622.125
1246.76355	8667.625
1250.32093	8754.325
1253.8759	8852.825
1257.42845	9067.325
1260.97859	9317.025
1264.52631	9574.925
1268.07163	9743.925
1271.61453	9808.525
1275.15503	9841.525
1278.69312	9777.925
1282.22882	9803.625
1285.76211	9894.925
1289.29301	10031.225
1292.82151	10255.725
1296.34761	10456.925
1299.87133	10756.625
1303.39266	11342.425
1306.9116	12190.725
1310.42815	13134.325
1313.94233	13508.725
1317.45412	12998.025
1320.96354	12244.725
1324.47058	11547.125
1327.97525	10934.025
1331.47754	10598.525
1334.97747	10465.225
1338.47502	10598.525
1341.97022	10963.425
1345.46305	11665.125
1348.95352	12710.125
1352.44163	13888.225
1355.92738	15042.825
1359.41078	16237.125
1362.89183	17051.225
1366.37053	16179.225
1369.84688	13862.025
1373.32088	11768.325
1376.79254	10656.925
1380.26186	10083.425
1383.72883	9699.125
1387.19347	9382.025
1390.65578	9063.025
1394.11575	8797.325
1397.57339	8614.825
1401.0287	8514.825
1404.48168	8528.125
1407.93234	8572.725
1411.38068	8717.225
1414.82669	8817.825
1418.27039	8873.725
1421.71177	8895.825
1425.15083	8782.825
1428.58758	8694.725
1432.02203	8671.725
1435.45416	8682.225
1438.88399	8650.925
1442.31151	8633.325
1445.73673	8681.025
1449.15965	8714.725
1452.58027	8718.725
1455.9986	8675.025
1459.41463	8705.625
1462.82837	8776.225
1466.23982	8939.725
1469.64898	9122.925
1473.05586	9262.525
1476.46045	9413.725
1479.86276	9507.725
1483.26279	9652.325
1486.66054	9800.125
1490.05602	10113.425
1493.44922	10597.125
1496.84016	11356.225
1500.22882	12425.825
1503.61521	13721.825
1506.99934	14995.525
1510.38121	15777.925
1513.76081	15622.025
1517.13816	14426.125
1520.51324	12812.525
1523.88607	11561.225
1527.25665	10719.425
1530.62498	10367.725
1533.99105	10173.725
1537.35488	10078.125
1540.71647	9965.425
1544.07581	9865.425
1547.4329	9749.825
1550.78776	9612.225
1554.14038	9516.225
1557.49077	9491.625
1560.83892	9593.825
1564.18484	9850.725
1567.52853	10091.725
1570.86999	10286.225
1574.20922	10349.425
1577.54624	10227.325
1580.88103	9794.925
1584.2136	9304.825
1587.54395	8996.525
1590.87208	8966.325
1594.19801	9176.525
1597.52172	9492.325
1600.84321	9616.625
1604.16251	9560.425
1607.47959	9437.925
1610.79447	9214.825
1614.10715	8887.625
1617.41763	8520.625
1620.7259	8248.725
1624.03199	8089.225
1627.33587	8006.825
1630.63757	8078.125
1633.93707	8299.225
1637.23439	8719.525
1640.52951	9448.025
1643.82246	10472.825
1647.11321	11509.525
1650.40179	12054.425
1653.68819	11596.325
1656.97241	10299.825
1660.25446	9041.625
1663.53433	8169.225
1666.81203	7663.425
1670.08756	7337.825
1673.36092	7170.525
1676.63211	7038.225
1679.90115	6931.125
1683.16801	6881.625
1686.43272	6817.525
1689.69527	6756.325
1692.95567	6737.125
1696.2139	6703.825
1699.46999	6689.425
1702.72392	6680.825
1705.97571	6657.125
1709.22535	6674.625
1712.47284	6658.025
1715.71819	6665.325
1718.96139	6671.925
1722.20246	6643.525
1725.44139	6634.525
1728.67818	6598.525
1731.91284	6541.025
1735.14537	6497.425
1738.37576	6477.825
1741.60403	6449.525
1744.83017	6449.025
1748.05418	6420.425
1751.27607	6427.425
1754.49584	6405.125
1757.71349	6408.525
1760.92903	6375.925
1764.14244	6370.925
1767.35375	6350.525
1770.56294	6338.625
1773.77002	6318.125
1776.97499	6286.125
1780.17785	6269.925
1783.37861	6237.525
1786.57727	6231.725
1789.77382	6263.125
1792.96828	6232.325
1796.16064	6209.425
1799.3509	6191.325
1802.53907	6190.425
1805.72514	6167.825
1808.90913	6184.625
1812.09102	6162.125
1815.27083	6131.425
1818.44856	6127.225
1821.6242	6092.725
1824.79776	6070.725
1827.96924	6087.125
1831.13864	6061.525
1834.30597	6074.725
1837.47122	6050.825
1840.6344	6014.025
1843.7955	6016.425
1846.95454	6032.625
1850.11151	6021.525
1853.26642	6020.025
1856.41926	6024.125
1859.57004	5998.225
1862.71876	6006.425
1865.86542	6006.725
1869.01003	5994.325
1872.15258	5988.225
1875.29308	5964.025
1878.43152	5954.325
1881.56792	5949.925
1884.70227	5941.825
1887.83457	5926.625
1890.96482	5926.925
1894.09304	5893.525
1897.21921	5879.825
1900.34335	5884.925
1903.46544	5891.025
1906.58551	5866.225
1909.70353	5848.325
1912.81953	5864.425
1915.93349	5845.825
1919.04543	5836.225
1922.15534	5794.225
1925.26322	5823.525
1928.36908	5778.225
1931.47292	5755.725
1934.57473	5759.925
1937.67453	5757.725
1940.77232	5742.425
1943.86808	5717.025
1946.96184	5685.225
1950.05358	5690.825
1953.14331	5671.725
1956.23103	5644.425
1959.31675	5633.625
1962.40046	5621.525
1965.48217	5609.325
1968.56188	5588.825
1971.63959	5558.525
1974.7153	5543.325
1977.78901	5551.925
1980.86073	5528.125
1983.93046	5506.625
1986.99819	5484.725
1990.06394	5463.125
1993.1277	5438.125
1996.18947	5404.025
1999.24925	5391.225
2002.30706	5374.225
2005.36288	5366.525
2008.41672	5330.625
2011.46859	5318.225
2014.51848	5285.125
2017.56639	5276.225
2020.61233	5257.225
2023.6563	5253.625
2026.6983	5255.825
2029.73833	5230.125
2032.7764	5197.325
2035.8125	5181.925
2038.84664	5183.125
2041.87881	5161.125
2044.90903	5148.525
2047.93729	5137.025
2050.96359	5146.125
2053.98794	5137.125
2057.01034	5129.725
2060.03078	5131.125
2063.04927	5109.925
2066.06582	5100.025
2069.08042	5100.325
2072.09307	5089.325
2075.10378	5071.125
2078.11255	5070.525
2081.11938	5070.725
2084.12426	5058.125
2087.12722	5045.025
2090.12824	5047.525
2093.12732	5050.825
2096.12447	5061.325
2099.11969	5071.525
2102.11299	5076.425
2105.10435	5048.225
2108.09379	5054.925
2111.08131	5045.825
2114.0669	5061.125
2117.05057	5077.025
2120.03233	5078.225
2123.01216	5060.525
2125.99008	5064.725
2128.96609	5058.425
2131.94018	5062.025
2134.91236	5068.525
2137.88263	5054.425
2140.851	5050.925
2143.81746	5070.525
2146.78201	5063.425
2149.74466	5044.525
2152.7054	5066.925
2155.66425	5057.625
2158.6212	5052.125
2161.57625	5024.725
2164.52941	5030.225
2167.48067	5034.725
2170.43004	5011.225
2173.37752	5016.425
2176.32311	5007.625
2179.26681	5022.425
2182.20863	5023.325
2185.14856	5031.825
2188.08661	5004.925
2191.02278	5031.925
2193.95707	5009.125
2196.88948	5005.625
2199.82001	5004.625
2202.74867	4975.425
2205.67545	4999.525
2208.60037	4980.225
2211.52341	4951.925
2214.44458	4950.125
2217.36388	4931.425
2220.28132	4923.125
2223.1969	4910.325
2226.11061	4883.825
2229.02246	4876.825
2231.93245	4864.325
2234.84058	4868.625
2237.74686	4855.425
2240.65128	4838.125
2243.55385	4836.525
2246.45456	4839.725
2249.35343	4813.725
2252.25044	4828.725
2255.14561	4806.525
2258.03893	4814.525
2260.93041	4806.725
2263.82004	4794.725
2266.70783	4789.725
2269.59378	4759.125
2272.4779	4762.225
2275.36017	4738.125
2278.24061	4724.025
2281.11922	4711.825
2283.996	4699.825
2286.87094	4693.825
2289.74405	4688.225
2292.61534	4679.125
2295.4848	4666.625
2298.35243	4680.925
2301.21824	4657.125
2304.08223	4647.925
2306.94439	4628.025
2309.80474	4626.425
2312.66327	4631.325
2315.51999	4644.125
2318.37489	4628.325
2321.22797	4604.325
2324.07925	4593.825
2326.92871	4583.025
2329.77637	4580.125
2332.62222	4562.625
2335.46626	4554.525
2338.3085	4551.025
2341.14893	4532.425
2343.98756	4550.225
2346.8244	4537.425
2349.65943	4519.725
2352.49267	4527.425
2355.32411	4517.425
2358.15376	4518.325
2360.98161	4510.425
2363.80768	4520.225
2366.63195	4514.725
2369.45444	4519.225
2372.27514	4513.825
2375.09405	4497.225
2377.91118	4501.125
2380.72652	4485.025
2383.54009	4461.525
2386.35187	4463.425
2389.16188	4446.825
2391.97011	4432.825
2394.77657	4427.625
2397.58125	4402.025
2400.38416	4407.325
2403.18529	4388.725
2405.98466	4389.325
2408.78226	4372.825
2411.57809	4370.725
2414.37216	4354.625
2417.16446	4344.025
2419.955	4345.125
2422.74378	4335.625
2425.5308	4325.825
2428.31606	4337.925
2431.09956	4330.225
2433.88131	4333.825
2436.6613	4331.425
2439.43954	4309.825
2442.21603	4311.725
2444.99077	4317.425
2447.76377	4309.325
2450.53501	4296.825
2453.30451	4295.125
2456.07226	4282.825
2458.83827	4268.425
2461.60254	4268.125
2464.36507	4274.525
2467.12586	4257.525
2469.88492	4253.025
2472.64224	4256.025
2475.39782	4263.125
2478.15167	4250.525
2480.90379	4239.325
2483.65417	4236.725
2486.40283	4236.425
2489.14976	4238.025
2491.89497	4243.225
2494.63845	4225.525
2497.3802	4230.725
2500.12024	4209.025
2502.85855	4202.625
2505.59514	4208.325
2508.33002	4189.725
2511.06318	4172.325
2513.79462	4170.725
2516.52435	4157.625
2519.25237	4139.325
2521.97867	4142.325
2524.70327	4122.925
2527.42616	4125.525
2530.14734	4123.125
2532.86681	4110.125
2535.58458	4122.425
2538.30065	4118.525
2541.01501	4103.325
2543.72768	4077.925
2546.43864	4090.025
2549.14791	4078.925
2551.85548	4087.425
2554.56136	4077.725
2557.26554	4069.525
2559.96803	4050.925
2562.66883	4046.625
2565.36794	4018.825
2568.06536	4020.925
2570.7611	4003.625
2573.45514	3988.725
2576.14751	3996.725
2578.83819	3970.225
2581.52719	3975.325
2584.21451	3968.325
2586.90015	3959.825
2589.58411	3966.125
2592.2664	3934.525
2594.94701	3946.025
2597.62594	3929.625
2600.30321	3922.325
2602.9788	3915.225
2605.65273	3903.825
2608.32498	3905.125
2610.99557	3888.525
2613.66449	3888.525
2616.33175	3889.025
2618.99734	3875.925
2621.66128	3877.425
2624.32355	3850.225
2626.98416	3837.825
2629.64311	3839.125
2632.30041	3853.325
2634.95605	3826.525
2637.61004	3819.625
2640.26238	3801.325
2642.91306	3806.525
2645.56209	3796.125
2648.20948	3787.025
2650.85521	3792.725
2653.4993	3788.625
2656.14175	3765.925
2658.78255	3782.925
2661.42171	3769.025
2664.05923	3782.225
2666.6951	3796.325
2669.32934	3784.625
2671.96194	3783.825
2674.59291	3798.525
2677.22224	3793.225
2679.84993	3785.225
2682.476	3772.425
2685.10043	3783.725
2687.72324	3782.225
2690.34441	3775.525
2692.96396	3779.225
2695.58188	3763.425
2698.19818	3759.425
2700.81285	3752.125
2703.4259	3760.825
2706.03733	3740.825
2708.64714	3753.025
2711.25533	3752.325
2713.86191	3741.725
2716.46687	3756.325
2719.07021	3760.925
2721.67194	3759.725
2724.27206	3745.325
2726.87057	3747.925
2729.46747	3736.925
2732.06276	3743.125
2734.65644	3736.425
2737.24852	3724.825
2739.83899	3722.025
2742.42786	3707.125
2745.01513	3696.625
2747.60079	3684.525
2750.18486	3677.325
2752.76733	3688.325
2755.3482	3679.225
2757.92747	3660.425
2760.50515	3651.625
2763.08123	3643.525
2765.65573	3635.725
2768.22863	3639.425
2770.79994	3631.825
2773.36967	3622.425
2775.9378	3622.725
2778.50435	3609.925
2781.06932	3605.225
2783.6327	3597.325
2786.1945	3609.725
2788.75471	3603.025
2791.31335	3580.225
2793.87041	3569.125
2796.42589	3552.625
2798.97979	3551.725
2801.53212	3545.225
2804.08288	3547.825
2806.63206	3536.025
2809.17967	3523.025
2811.72571	3509.225
2814.27018	3513.125
2816.81308	3508.825
2819.35442	3500.725
2821.89419	3496.425
2824.43239	3484.125
2826.96904	3477.525
2829.50412	3474.125
2832.03763	3462.325
2834.56959	3449.925
2837.1	3452.425
2839.62884	3437.725
2842.15613	3439.825
2844.68186	3424.525
2847.20604	3437.025
2849.72867	3432.725
2852.24974	3416.025
2854.76927	3402.825
2857.28724	3409.425
2859.80367	3394.425
2862.31855	3398.025
2864.83189	3396.025
2867.34368	3392.725
2869.85393	3390.625
2872.36264	3386.525
2874.8698	3380.025
2877.37543	3382.225
2879.87952	3372.225
2882.38207	3368.525
2884.88308	3361.225
2887.38256	3361.925
2889.88051	3343.225
2892.37692	3349.125
2894.8718	3341.725
2897.36515	3325.825
2899.85698	3333.525
2902.34727	3338.625
2904.83604	3339.325
2907.32328	3348.625
2909.809	3348.025
2912.29319	3366.625
2914.77587	3354.725
2917.25702	3356.225
2919.73665	3370.225
2922.21476	3358.625
2924.69136	3348.125
2927.16644	3344.825
2929.64	3335.825
2932.11205	3323.625
2934.58258	3304.825
2937.05161	3317.525
2939.51912	3324.025
2941.98513	3318.825
2944.44962	3295.625
2946.91261	3277.425
2949.37409	3286.925
2951.83407	3282.225
2954.29254	3266.325
2956.74951	3275.525
2959.20498	3273.025
2961.65895	3264.125
2964.11142	3266.225
2966.56239	3255.125
2969.01186	3257.125
2971.45984	3258.325
2973.90632	3249.525
2976.35131	3244.125
2978.7948	3243.725
2981.23681	3225.625
2983.67732	3230.425
2986.11635	3225.225
2988.55388	3209.325
2990.98993	3203.425
2993.4245	3197.625
2995.85758	3196.025
2998.28917	3166.325
3000.71928	3174.925
3003.14791	3151.825
3005.57506	3151.825
3008.00073	3146.025
3010.42493	3152.725
3012.84764	3129.025
3015.26888	3119.925
3017.68865	3119.725
3020.10694	3112.025
3022.52376	3095.925
3024.9391	3083.825
3027.35298	3074.225
3029.76539	3061.625
3032.17632	3062.325
3034.5858	3054.325
3036.9938	3047.825
3039.40034	3037.825
3041.80542	3030.725
3044.20903	3028.125
3046.61118	3028.825
3049.01187	3011.925
3051.4111	3004.125
3053.80888	2996.925
3056.20519	2990.125
3058.60005	2966.725
3060.99345	2965.325
3063.3854	2968.925
3065.7759	2965.125
3068.16494	2956.325
3070.55254	2939.925
3072.93868	2940.425
3075.32338	2925.625
3077.70662	2934.525
3080.08842	2909.125
3082.46878	2911.025
3084.84769	2892.125
3087.22515	2887.825
3089.60118	2890.625
3091.97576	2892.025
3094.3489	2880.025
3096.72061	2871.525
3099.09087	2875.625
3101.4597	2863.925
3103.82709	2868.325
3106.19305	2876.425
3108.55757	2867.225
3110.92066	2856.625
3113.28232	2846.025
3115.64255	2832.625
3118.00134	2834.425
3120.35871	2838.425
3122.71466	2829.725
3125.06917	2810.425
3127.42226	2814.725
3129.77393	2810.125
3132.12417	2799.425
3134.47299	2783.925
3136.82039	2786.325
3139.16636	2788.025
3141.51092	2784.225
3143.85406	2785.125
3146.19579	2779.125
3148.53609	2784.525
3150.87499	2782.725
3153.21246	2776.725
3155.54853	2781.425
3157.88318	2786.825
3160.21642	2772.025
3162.54826	2767.925
3164.87868	2766.825
3167.2077	2755.225
3169.5353	2753.025
3171.86151	2737.625
3174.18631	2728.325
3176.5097	2733.425
3178.83169	2721.025
3181.15228	2721.225
3183.47147	2718.425
3185.78926	2704.625
3188.10565	2693.225
3190.42065	2689.425
3192.73424	2685.525
3195.04645	2671.725
3197.35725	2683.425
3199.66667	2672.525
3201.97469	2666.025
3204.28132	2673.425
3206.58656	2677.825
3208.8904	2676.325
3211.19287	2668.725
3213.49394	2672.125
3215.79363	2672.925
3218.09193	2662.125
3220.38884	2663.625
3222.68438	2666.325
3224.97853	2660.925
3227.2713	2670.225
3229.56269	2653.025
3231.8527	2644.525
