Data from AgNPs_UA_5uM_CRN_500uM_SU_RamanShift__146__11-53-43-168.txt Node

Date: Thu Aug 04 11:53:43 BST 2022
User: TCL
Spectrometer: QEP01345
Trigger mode: 4
Integration Time (sec): 1.000000E0
Scans to average: 10
Electric dark correction enabled: true
Nonlinearity correction enabled: false
Boxcar width: 0
XAxis mode: Raman Shifts
Number of Pixels in Spectrum: 1044
>>>>>Begin Spectral Data<<<<<
46.04893	-0.1625
50.45542	-0.1625
54.85868	0.5375
59.25871	-0.7625
63.6555	-58.3625
68.04907	-40.0625
72.43941	-69.2625
76.82654	-56.5625
81.21044	-54.8625
85.59113	-48.8625
89.96862	-76.1625
94.34289	-54.9625
98.71396	-75.6625
103.08183	-57.8625
107.4465	-49.0625
111.80798	-54.8625
116.16626	-45.0625
120.52136	-73.3625
124.87327	-51.1625
129.222	-61.8625
133.56755	-48.2625
137.90993	-61.8625
142.24913	-49.3625
146.58517	-42.6625
150.91804	-38.4625
155.24774	-27.2625
159.57429	-7.3625
163.89768	-3.2625
168.21792	41.2375
172.53501	59.9375
176.84895	145.6375
181.15975	278.3375
185.46741	436.2375
189.77193	611.7375
194.07331	917.7375
198.37157	1206.4375
202.6667	1497.1375
206.9587	1834.0375
211.24758	2147.4375
215.53334	2465.4375
219.81599	2821.6375
224.09553	3245.7375
228.37195	3699.0375
232.64527	4150.4375
236.91549	4628.8375
241.18261	4987.4375
245.44663	5307.8375
249.70755	5491.6375
253.96539	5652.1375
258.22014	5753.2375
262.4718	5831.0375
266.72039	5847.2375
270.96589	5814.9375
275.20832	5706.8375
279.44768	5584.8375
283.68397	5468.5375
287.91719	5412.5375
292.14735	5445.7375
296.37445	5587.8375
300.59849	5859.1375
304.81948	6183.0375
309.03742	6525.7375
313.25231	6753.2375
317.46415	6696.7375
321.67296	6323.7375
325.87872	5927.7375
330.08145	5746.4375
334.28114	5727.4375
338.47781	5793.0375
342.67145	5941.3375
346.86207	6164.9375
351.04966	6518.5375
355.23424	6906.8375
359.4158	7177.2375
363.59435	7197.9375
367.76989	7147.2375
371.94243	7046.8375
376.11196	6937.2375
380.27849	6879.7375
384.44203	6795.9375
388.60257	6784.4375
392.76012	6777.5375
396.91468	6884.7375
401.06626	7038.8375
405.21485	7076.0375
409.36047	6938.0375
413.50311	6624.9375
417.64277	6344.3375
421.77947	6152.0375
425.9132	6080.9375
430.04396	6083.3375
434.17176	6134.1375
438.2966	6228.7375
442.41849	6311.3375
446.53742	6437.1375
450.6534	6558.7375
454.76644	6608.8375
458.87653	6648.4375
462.98368	6589.8375
467.08789	6544.0375
471.18916	6482.7375
475.2875	6365.1375
479.38291	6263.5375
483.4754	6172.2375
487.56496	6132.0375
491.6516	6077.1375
495.73531	6093.6375
499.81612	6116.6375
503.89401	6191.4375
507.96899	6248.6375
512.04106	6331.5375
516.11023	6446.7375
520.1765	6535.2375
524.23987	6541.5375
528.30034	6549.8375
532.35792	6491.2375
536.41261	6432.5375
540.46441	6342.5375
544.51333	6290.9375
548.55936	6326.1375
552.60252	6461.4375
556.64279	6554.2375
560.6802	6678.2375
564.71473	6810.8375
568.7464	7001.1375
572.7752	6965.8375
576.80114	6662.8375
580.82422	6414.4375
584.84444	6314.9375
588.86181	6299.1375
592.87633	6331.7375
596.888	6468.8375
600.89682	6826.4375
604.9028	7732.7375
608.90594	9711.4375
612.90624	11946.4375
616.90371	11126.6375
620.89834	8222.1375
624.89015	6984.9375
628.87913	6785.5375
632.86528	6934.8375
636.84862	7079.9375
640.82913	6961.8375
644.80683	6650.5375
648.78172	6468.2375
652.75379	6503.2375
656.72306	6728.9375
660.68952	6963.7375
664.65319	6874.6375
668.61405	6674.2375
672.57211	6586.3375
676.52738	6604.1375
680.47986	6518.4375
684.42955	6435.0375
688.37646	6392.2375
692.32058	6383.2375
696.26192	6451.1375
700.20048	6557.8375
704.13626	6604.1375
708.06928	6561.0375
711.99952	6528.2375
715.927	6476.3375
719.85171	6517.4375
723.77365	6591.5375
727.69284	6562.3375
731.60928	6547.1375
735.52295	6524.0375
739.43388	6572.2375
743.34206	6580.4375
747.24749	6582.6375
751.15017	6620.2375
755.05012	6663.9375
758.94733	7028.2375
762.8418	7811.5375
766.73354	9064.0375
770.62254	9981.4375
774.50882	10044.9375
778.39237	9601.0375
782.27321	8742.6375
786.15132	7752.6375
790.02671	7102.4375
793.89938	6756.2375
797.76935	6655.5375
801.6366	6584.2375
805.50115	6547.8375
809.36299	6526.1375
813.22213	6533.2375
817.07857	6550.0375
820.93231	6537.3375
824.78336	6544.1375
828.63172	6569.5375
832.47738	6562.1375
836.32036	6568.7375
840.16066	6551.5375
843.99827	6538.5375
847.8332	6543.1375
851.66546	6542.6375
855.49504	6537.4375
859.32195	6589.0375
863.1462	6593.4375
866.96777	6562.0375
870.78668	6561.9375
874.60293	6590.9375
878.41652	6604.1375
882.22745	6686.2375
886.03573	6737.5375
889.84136	6716.8375
893.64433	6711.6375
897.44466	6692.2375
901.24235	6708.1375
905.0374	6728.0375
908.8298	6612.0375
912.61957	6607.3375
916.40671	6566.5375
920.19121	6604.2375
923.97308	6681.8375
927.75233	6743.9375
931.52895	6816.2375
935.30295	6803.7375
939.07433	6649.5375
942.84309	6527.8375
946.60924	6523.7375
950.37278	6473.4375
954.13371	6477.5375
957.89203	6465.8375
961.64774	6501.8375
965.40086	6472.8375
969.15137	6430.5375
972.89929	6469.4375
976.64461	6479.3375
980.38733	6501.4375
984.12747	6500.3375
987.86502	6526.6375
991.59999	6544.4375
995.33237	6619.1375
999.06217	6681.0375
1002.78939	6770.6375
1006.51404	6920.7375
1010.23611	7031.2375
1013.95561	7091.0375
1017.67255	7097.9375
1021.38692	7058.0375
1025.09872	7004.9375
1028.80796	6892.4375
1032.51465	6918.1375
1036.21877	6894.6375
1039.92035	6958.8375
1043.61937	6958.2375
1047.31584	7024.3375
1051.00976	7058.9375
1054.70114	7057.2375
1058.38998	7053.5375
1062.07627	7057.4375
1065.76003	7095.9375
1069.44126	7175.3375
1073.11995	7273.3375
1076.79611	7379.8375
1080.46974	7532.3375
1084.14085	7691.1375
1087.80943	7797.9375
1091.47549	7843.2375
1095.13903	7796.4375
1098.80005	7656.8375
1102.45857	7580.9375
1106.11456	7536.2375
1109.76805	7467.1375
1113.41903	7558.2375
1117.06751	7714.9375
1120.71348	7958.9375
1124.35696	8306.3375
1127.99793	8573.9375
1131.63641	8433.3375
1135.2724	8064.6375
1138.90589	7771.1375
1142.5369	7596.8375
1146.16542	7508.2375
1149.79145	7409.0375
1153.415	7354.3375
1157.03607	7332.4375
1160.65467	7428.0375
1164.27079	7581.1375
1167.88443	7839.9375
1171.49561	8204.9375
1175.10432	8770.7375
1178.71056	9572.5375
1182.31434	10317.8375
1185.91565	10583.7375
1189.51451	10416.8375
1193.11091	10188.8375
1196.70485	10003.5375
1200.29634	9833.3375
1203.88538	9565.6375
1207.47197	9182.2375
1211.05612	8759.6375
1214.63782	8375.3375
1218.21708	8184.8375
1221.79391	8018.8375
1225.36829	7921.1375
1228.94024	7871.1375
1232.50976	7908.1375
1236.07685	7957.0375
1239.6415	7956.2375
1243.20374	7979.1375
1246.76355	8029.3375
1250.32093	8125.8375
1253.8759	8206.4375
1257.42845	8394.5375
1260.97859	8571.1375
1264.52631	8774.3375
1268.07163	8927.8375
1271.61453	9055.9375
1275.15503	9093.7375
1278.69312	9086.3375
1282.22882	9146.5375
1285.76211	9342.7375
1289.29301	9570.1375
1292.82151	9833.1375
1296.34761	10017.9375
1299.87133	10392.7375
1303.39266	11082.8375
1306.9116	12115.1375
1310.42815	13250.9375
1313.94233	13663.4375
1317.45412	12907.9375
1320.96354	11858.9375
1324.47058	10931.1375
1327.97525	10247.4375
1331.47754	9875.0375
1334.97747	9790.2375
1338.47502	9915.5375
1341.97022	10254.5375
1345.46305	10936.2375
1348.95352	11964.0375
1352.44163	13089.1375
1355.92738	14293.2375
1359.41078	15764.7375
1362.89183	17125.0375
1366.37053	16465.7375
1369.84688	13854.7375
1373.32088	11411.6375
1376.79254	10131.1375
1380.26186	9581.0375
1383.72883	9194.9375
1387.19347	8826.5375
1390.65578	8490.2375
1394.11575	8276.3375
1397.57339	8125.7375
1401.0287	8031.2375
1404.48168	8010.0375
1407.93234	8012.9375
1411.38068	8057.1375
1414.82669	8119.3375
1418.27039	8216.3375
1421.71177	8200.8375
1425.15083	8092.0375
1428.58758	8029.5375
1432.02203	8064.3375
1435.45416	8120.4375
1438.88399	8135.8375
1442.31151	8153.9375
1445.73673	8237.0375
1449.15965	8274.5375
1452.58027	8289.4375
1455.9986	8275.0375
1459.41463	8301.9375
1462.82837	8396.4375
1466.23982	8547.5375
1469.64898	8761.0375
1473.05586	8880.1375
1476.46045	8975.3375
1479.86276	9014.8375
1483.26279	9115.0375
1486.66054	9279.7375
1490.05602	9512.5375
1493.44922	10025.6375
1496.84016	10808.8375
1500.22882	12048.5375
1503.61521	13628.0375
1506.99934	15237.5375
1510.38121	16325.8375
1513.76081	16228.8375
1517.13816	14825.5375
1520.51324	12869.6375
1523.88607	11290.0375
1527.25665	10340.8375
1530.62498	9877.9375
1533.99105	9697.7375
1537.35488	9584.5375
1540.71647	9521.0375
1544.07581	9426.9375
1547.4329	9360.4375
1550.78776	9224.2375
1554.14038	9111.1375
1557.49077	9080.5375
1560.83892	9158.5375
1564.18484	9374.1375
1567.52853	9668.2375
1570.86999	9942.6375
1574.20922	10057.5375
1577.54624	9962.6375
1580.88103	9480.1375
1584.2136	8904.0375
1587.54395	8567.4375
1590.87208	8532.1375
1594.19801	8676.7375
1597.52172	9048.9375
1600.84321	9157.8375
1604.16251	9080.9375
1607.47959	8898.8375
1610.79447	8709.0375
1614.10715	8405.3375
1617.41763	8123.4375
1620.7259	7860.7375
1624.03199	7703.7375
1627.33587	7614.9375
1630.63757	7673.8375
1633.93707	7897.3375
1637.23439	8316.1375
1640.52951	8969.4375
1643.82246	9880.9375
1647.11321	10917.8375
1650.40179	11576.2375
1653.68819	11239.0375
1656.97241	10073.8375
1660.25446	8785.4375
1663.53433	7848.6375
1666.81203	7278.2375
1670.08756	6977.2375
1673.36092	6796.1375
1676.63211	6679.5375
1679.90115	6574.9375
1683.16801	6494.3375
1686.43272	6415.1375
1689.69527	6374.6375
1692.95567	6297.6375
1696.2139	6291.9375
1699.46999	6226.1375
1702.72392	6221.5375
1705.97571	6238.6375
1709.22535	6205.8375
1712.47284	6255.8375
1715.71819	6254.3375
1718.96139	6272.6375
1722.20246	6227.0375
1725.44139	6208.0375
1728.67818	6186.9375
1731.91284	6132.7375
1735.14537	6114.5375
1738.37576	6077.5375
1741.60403	6063.8375
1744.83017	6028.2375
1748.05418	6030.5375
1751.27607	6036.6375
1754.49584	6004.8375
1757.71349	5949.8375
1760.92903	5957.3375
1764.14244	5940.1375
1767.35375	5950.9375
1770.56294	5906.8375
1773.77002	5884.4375
1776.97499	5923.1375
1780.17785	5899.0375
1783.37861	5901.0375
1786.57727	5884.7375
1789.77382	5842.9375
1792.96828	5869.1375
1796.16064	5859.3375
1799.3509	5849.6375
1802.53907	5860.0375
1805.72514	5832.8375
1808.90913	5792.1375
1812.09102	5801.0375
1815.27083	5784.3375
1818.44856	5741.4375
1821.6242	5771.2375
1824.79776	5739.4375
1827.96924	5720.2375
1831.13864	5723.5375
1834.30597	5713.8375
1837.47122	5708.5375
1840.6344	5683.2375
1843.7955	5678.8375
1846.95454	5656.7375
1850.11151	5680.5375
1853.26642	5636.2375
1856.41926	5651.3375
1859.57004	5654.0375
1862.71876	5639.1375
1865.86542	5647.3375
1869.01003	5647.7375
1872.15258	5622.5375
1875.29308	5634.6375
1878.43152	5639.8375
1881.56792	5609.5375
1884.70227	5579.2375
1887.83457	5581.7375
1890.96482	5554.0375
1894.09304	5558.8375
1897.21921	5554.8375
1900.34335	5549.5375
1903.46544	5544.1375
1906.58551	5548.9375
1909.70353	5549.1375
1912.81953	5538.4375
1915.93349	5523.8375
1919.04543	5512.6375
1922.15534	5501.0375
1925.26322	5487.3375
1928.36908	5476.4375
1931.47292	5463.2375
1934.57473	5487.3375
1937.67453	5452.8375
1940.77232	5420.4375
1943.86808	5410.4375
1946.96184	5400.8375
1950.05358	5387.9375
1953.14331	5354.9375
1956.23103	5370.4375
1959.31675	5317.6375
1962.40046	5268.2375
1965.48217	5296.2375
1968.56188	5300.7375
1971.63959	5277.1375
1974.7153	5273.8375
1977.78901	5259.8375
1980.86073	5231.3375
1983.93046	5203.5375
1986.99819	5118.9375
1990.06394	5129.9375
1993.1277	5150.4375
1996.18947	5141.2375
1999.24925	5112.0375
2002.30706	5101.5375
2005.36288	5092.9375
2008.41672	5067.9375
2011.46859	5042.7375
2014.51848	5029.2375
2017.56639	5005.7375
2020.61233	4993.4375
2023.6563	4990.6375
2026.6983	4949.6375
2029.73833	4958.4375
2032.7764	4966.3375
2035.8125	4907.2375
2038.84664	4932.0375
2041.87881	4882.2375
2044.90903	4915.1375
2047.93729	4891.6375
2050.96359	4868.8375
2053.98794	4876.2375
2057.01034	4886.6375
2060.03078	4860.1375
2063.04927	4852.9375
2066.06582	4849.9375
2069.08042	4837.7375
2072.09307	4840.5375
2075.10378	4834.9375
2078.11255	4815.5375
2081.11938	4826.1375
2084.12426	4823.4375
2087.12722	4814.4375
2090.12824	4824.2375
2093.12732	4824.1375
2096.12447	4812.4375
2099.11969	4807.1375
2102.11299	4815.6375
2105.10435	4828.1375
2108.09379	4823.0375
2111.08131	4813.3375
2114.0669	4817.7375
2117.05057	4818.2375
2120.03233	4804.1375
2123.01216	4816.3375
2125.99008	4831.7375
2128.96609	4825.2375
2131.94018	4844.1375
2134.91236	4825.6375
2137.88263	4824.3375
2140.851	4828.9375
2143.81746	4836.6375
2146.78201	4843.0375
2149.74466	4811.4375
2152.7054	4836.7375
2155.66425	4819.3375
2158.6212	4812.0375
2161.57625	4793.9375
2164.52941	4783.1375
2167.48067	4775.9375
2170.43004	4775.8375
2173.37752	4808.4375
2176.32311	4772.0375
2179.26681	4781.1375
2182.20863	4797.3375
2185.14856	4795.6375
2188.08661	4784.1375
2191.02278	4777.9375
2193.95707	4769.8375
2196.88948	4751.8375
2199.82001	4762.3375
2202.74867	4757.7375
2205.67545	4758.5375
2208.60037	4755.4375
2211.52341	4750.8375
2214.44458	4740.6375
2217.36388	4723.1375
2220.28132	4694.6375
2223.1969	4680.7375
2226.11061	4679.9375
2229.02246	4658.9375
2231.93245	4653.0375
2234.84058	4647.5375
2237.74686	4648.0375
2240.65128	4638.2375
2243.55385	4633.1375
2246.45456	4602.3375
2249.35343	4623.5375
2252.25044	4601.1375
2255.14561	4596.5375
2258.03893	4603.1375
2260.93041	4594.1375
2263.82004	4576.2375
2266.70783	4582.2375
2269.59378	4550.2375
2272.4779	4528.7375
2275.36017	4541.2375
2278.24061	4522.2375
2281.11922	4484.5375
2283.996	4503.6375
2286.87094	4483.2375
2289.74405	4496.4375
2292.61534	4493.5375
2295.4848	4465.6375
2298.35243	4449.5375
2301.21824	4452.9375
2304.08223	4457.1375
2306.94439	4443.6375
2309.80474	4450.2375
2312.66327	4462.9375
2315.51999	4425.8375
2318.37489	4431.4375
2321.22797	4413.3375
2324.07925	4409.6375
2326.92871	4387.1375
2329.77637	4376.9375
2332.62222	4379.8375
2335.46626	4362.0375
2338.3085	4355.3375
2341.14893	4345.4375
2343.98756	4359.6375
2346.8244	4337.5375
2349.65943	4319.1375
2352.49267	4333.2375
2355.32411	4344.8375
2358.15376	4324.0375
2360.98161	4326.0375
2363.80768	4316.1375
2366.63195	4315.9375
2369.45444	4316.8375
2372.27514	4322.7375
2375.09405	4334.0375
2377.91118	4288.8375
2380.72652	4273.7375
2383.54009	4283.5375
2386.35187	4284.7375
2389.16188	4250.6375
2391.97011	4255.1375
2394.77657	4242.6375
2397.58125	4246.5375
2400.38416	4228.7375
2403.18529	4224.5375
2405.98466	4203.7375
2408.78226	4193.1375
2411.57809	4198.7375
2414.37216	4177.2375
2417.16446	4177.8375
2419.955	4155.4375
2422.74378	4180.8375
2425.5308	4145.3375
2428.31606	4157.4375
2431.09956	4138.7375
2433.88131	4122.8375
2436.6613	4141.5375
2439.43954	4128.2375
2442.21603	4126.8375
2444.99077	4102.8375
2447.76377	4120.0375
2450.53501	4103.6375
2453.30451	4103.7375
2456.07226	4098.6375
2458.83827	4098.9375
2461.60254	4043.3375
2464.36507	4095.9375
2467.12586	4064.2375
2469.88492	4081.8375
2472.64224	4074.4375
2475.39782	4054.1375
2478.15167	4079.5375
2480.90379	4048.2375
2483.65417	4071.5375
2486.40283	4061.8375
2489.14976	4072.0375
2491.89497	4053.3375
2494.63845	4068.5375
2497.3802	4043.2375
2500.12024	4033.2375
2502.85855	4034.6375
2505.59514	4042.2375
2508.33002	4028.7375
2511.06318	4004.8375
2513.79462	4001.0375
2516.52435	3962.0375
2519.25237	3956.0375
2521.97867	3965.0375
2524.70327	3950.4375
2527.42616	3946.8375
2530.14734	3957.9375
2532.86681	3932.2375
2535.58458	3951.0375
2538.30065	3932.5375
2541.01501	3940.7375
2543.72768	3925.0375
2546.43864	3919.8375
2549.14791	3900.2375
2551.85548	3905.7375
2554.56136	3897.0375
2557.26554	3896.0375
2559.96803	3873.5375
2562.66883	3870.2375
2565.36794	3861.5375
2568.06536	3829.1375
2570.7611	3855.1375
2573.45514	3839.9375
2576.14751	3822.7375
2578.83819	3804.2375
2581.52719	3801.5375
2584.21451	3790.3375
2586.90015	3771.8375
2589.58411	3763.5375
2592.2664	3776.8375
2594.94701	3774.1375
2597.62594	3774.0375
2600.30321	3699.0375
2602.9788	3719.5375
2605.65273	3721.1375
2608.32498	3730.8375
2610.99557	3729.3375
2613.66449	3711.4375
2616.33175	3732.4375
2618.99734	3716.2375
2621.66128	3717.0375
2624.32355	3683.4375
2626.98416	3675.0375
2629.64311	3674.0375
2632.30041	3672.5375
2634.95605	3658.7375
2637.61004	3629.8375
2640.26238	3624.5375
2642.91306	3622.2375
2645.56209	3642.1375
2648.20948	3623.1375
2650.85521	3614.7375
2653.4993	3644.5375
2656.14175	3631.3375
2658.78255	3605.2375
2661.42171	3587.6375
2664.05923	3613.2375
2666.6951	3636.9375
2669.32934	3631.1375
2671.96194	3648.5375
2674.59291	3623.8375
2677.22224	3622.7375
2679.84993	3625.7375
2682.476	3614.8375
2685.10043	3610.7375
2687.72324	3597.5375
2690.34441	3595.0375
2692.96396	3597.3375
2695.58188	3615.2375
2698.19818	3602.9375
2700.81285	3591.8375
2703.4259	3590.2375
2706.03733	3552.3375
2708.64714	3554.0375
2711.25533	3585.4375
2713.86191	3584.8375
2716.46687	3580.1375
2719.07021	3585.3375
2721.67194	3577.3375
2724.27206	3593.3375
2726.87057	3579.4375
2729.46747	3575.8375
2732.06276	3570.2375
2734.65644	3553.9375
2737.24852	3551.4375
2739.83899	3527.5375
2742.42786	3544.1375
2745.01513	3548.3375
2747.60079	3522.5375
2750.18486	3520.2375
2752.76733	3516.1375
2755.3482	3508.4375
2757.92747	3507.8375
2760.50515	3497.5375
2763.08123	3497.7375
2765.65573	3483.8375
2768.22863	3475.2375
2770.79994	3465.5375
2773.36967	3454.1375
2775.9378	3453.2375
2778.50435	3438.5375
2781.06932	3445.2375
2783.6327	3422.2375
2786.1945	3445.9375
2788.75471	3430.0375
2791.31335	3408.2375
2793.87041	3426.6375
2796.42589	3403.8375
2798.97979	3378.5375
2801.53212	3399.0375
2804.08288	3396.4375
2806.63206	3389.9375
2809.17967	3360.9375
2811.72571	3383.8375
2814.27018	3362.8375
2816.81308	3361.7375
2819.35442	3322.5375
2821.89419	3331.9375
2824.43239	3313.5375
2826.96904	3343.9375
2829.50412	3327.3375
2832.03763	3330.3375
2834.56959	3324.0375
2837.1	3299.3375
2839.62884	3312.7375
2842.15613	3305.7375
2844.68186	3314.2375
2847.20604	3281.6375
2849.72867	3278.6375
2852.24974	3281.3375
2854.76927	3241.6375
2857.28724	3214.6375
2859.80367	3259.5375
2862.31855	3265.5375
2864.83189	3253.2375
2867.34368	3256.9375
2869.85393	3274.1375
2872.36264	3225.3375
2874.8698	3238.6375
2877.37543	3248.3375
2879.87952	3240.3375
2882.38207	3215.3375
2884.88308	3231.0375
2887.38256	3216.5375
2889.88051	3210.9375
2892.37692	3208.4375
2894.8718	3187.9375
2897.36515	3213.9375
2899.85698	3203.1375
2902.34727	3200.8375
2904.83604	3209.2375
2907.32328	3222.4375
2909.809	3222.0375
2912.29319	3219.6375
2914.77587	3208.4375
2917.25702	3219.2375
2919.73665	3237.0375
2922.21476	3244.6375
2924.69136	3216.7375
2927.16644	3212.3375
2929.64	3210.4375
2932.11205	3190.9375
2934.58258	3201.2375
2937.05161	3191.5375
2939.51912	3189.4375
2941.98513	3198.0375
2944.44962	3181.8375
2946.91261	3144.5375
2949.37409	3169.9375
2951.83407	3150.1375
2954.29254	3156.5375
2956.74951	3152.9375
2959.20498	3132.8375
2961.65895	3141.6375
2964.11142	3126.0375
2966.56239	3118.6375
2969.01186	3129.6375
2971.45984	3135.9375
2973.90632	3110.3375
2976.35131	3116.1375
2978.7948	3090.2375
2981.23681	3093.9375
2983.67732	3087.4375
2986.11635	3096.7375
2988.55388	3065.9375
2990.98993	3071.3375
2993.4245	3059.3375
2995.85758	3046.4375
2998.28917	3037.2375
3000.71928	3024.4375
3003.14791	3026.9375
3005.57506	2995.9375
3008.00073	2999.2375
3010.42493	2936.7375
3012.84764	2998.3375
3015.26888	2993.6375
3017.68865	2984.3375
3020.10694	2949.1375
3022.52376	2946.8375
3024.9391	2941.8375
3027.35298	2928.2375
3029.76539	2921.5375
3032.17632	2921.0375
3034.5858	2906.0375
3036.9938	2924.4375
3039.40034	2921.8375
3041.80542	2896.3375
3044.20903	2881.1375
3046.61118	2874.9375
3049.01187	2891.4375
3051.4111	2870.9375
3053.80888	2858.2375
3056.20519	2856.5375
3058.60005	2838.5375
3060.99345	2850.2375
3063.3854	2822.9375
3065.7759	2811.0375
3068.16494	2809.3375
3070.55254	2803.1375
3072.93868	2815.2375
3075.32338	2803.9375
3077.70662	2782.0375
3080.08842	2771.3375
3082.46878	2769.5375
3084.84769	2788.3375
3087.22515	2757.6375
3089.60118	2770.4375
3091.97576	2757.7375
3094.3489	2764.4375
3096.72061	2750.6375
3099.09087	2739.3375
3101.4597	2744.4375
3103.82709	2732.7375
3106.19305	2733.4375
3108.55757	2735.5375
3110.92066	2704.5375
3113.28232	2732.6375
3115.64255	2723.2375
3118.00134	2725.0375
3120.35871	2703.1375
3122.71466	2685.8375
