Data from AgNPs_UA_5uM_CRN_500uM_SU_RamanShift__6__11-30-23-139.txt Node

Date: Thu Aug 04 11:30:23 BST 2022
User: TCL
Spectrometer: QEP01345
Trigger mode: 4
Integration Time (sec): 1.000000E0
Scans to average: 10
Electric dark correction enabled: true
Nonlinearity correction enabled: false
Boxcar width: 0
XAxis mode: Raman Shifts
Number of Pixels in Spectrum: 1044
>>>>>Begin Spectral Data<<<<<
46.04893	-0.35
50.45542	-0.25
54.85868	0.65
59.25871	-0.35
63.6555	-55.35
68.04907	-35.25
72.43941	-69.45
76.82654	-53.95
81.21044	-53.75
85.59113	-46.45
89.96862	-71.75
94.34289	-50.95
98.71396	-72.55
103.08183	-54.15
107.4465	-45.05
111.80798	-52.35
116.16626	-39.45
120.52136	-67.15
124.87327	-40.85
129.222	-53.85
133.56755	-41.05
137.90993	-49.75
142.24913	-36.05
146.58517	-27.45
150.91804	-20.35
155.24774	-2.15
159.57429	25.95
163.89768	42.95
168.21792	111.75
172.53501	161.45
176.84895	293.35
181.15975	484.05
185.46741	724.05
189.77193	1016.45
194.07331	1455.05
198.37157	1918.25
202.6667	2387.45
206.9587	2933.95
211.24758	3495.05
215.53334	4108.65
219.81599	4831.95
224.09553	5664.65
228.37195	6557.95
232.64527	7360.45
236.91549	8005.65
241.18261	8339.35
245.44663	8444.15
249.70755	8365.25
253.96539	8340.75
258.22014	8398.55
262.4718	8454.55
266.72039	8441.45
270.96589	8212.15
275.20832	7865.35
279.44768	7519.85
283.68397	7242.05
287.91719	7181.35
292.14735	7375.45
296.37445	7921.95
300.59849	8944.95
304.81948	10311.25
309.03742	11926.85
313.25231	13086.25
317.46415	12959.95
321.67296	11319.85
325.87872	9423.75
330.08145	8347.65
334.28114	8090.35
338.47781	8379.95
342.67145	8999.45
346.86207	9987.75
351.04966	11489.95
355.23424	13004.25
359.4158	13588.75
363.59435	13062.15
367.76989	12159.55
371.94243	11234.05
376.11196	10520.55
380.27849	9952.75
384.44203	9534.65
388.60257	9287.65
392.76012	9323.65
396.91468	9662.85
401.06626	10042.05
405.21485	10095.35
409.36047	9456.65
413.50311	8276.25
417.64277	7222.85
421.77947	6557.75
425.9132	6281.75
430.04396	6117.25
434.17176	6090.45
438.2966	6213.35
442.41849	6417.15
446.53742	6633.75
450.6534	6768.35
454.76644	6731.95
458.87653	6636.65
462.98368	6485.95
467.08789	6322.95
471.18916	6130.95
475.2875	5805.85
479.38291	5586.15
483.4754	5397.85
487.56496	5329.95
491.6516	5274.45
495.73531	5275.95
499.81612	5348.55
503.89401	5533.95
507.96899	5726.15
512.04106	6001.05
516.11023	6299.85
520.1765	6545.55
524.23987	6634.45
528.30034	6596.85
532.35792	6439.95
536.41261	6261.75
540.46441	6013.95
544.51333	5839.75
548.55936	5827.15
552.60252	5987.75
556.64279	6203.65
560.6802	6662.15
564.71473	7658.75
568.7464	8988.25
572.7752	8929.45
576.80114	7247.25
580.82422	5886.55
584.84444	5314.45
588.86181	5124.15
592.87633	5121.85
596.888	5343.65
600.89682	6173.15
604.9028	8893.45
608.90594	15911.35
612.90624	24491.15
616.90371	22200.75
620.89834	11599.25
624.89015	6943.25
628.87913	6428.15
632.86528	7075.35
636.84862	7387.55
640.82913	6595.75
644.80683	5485.75
648.78172	4975.15
652.75379	5129.45
656.72306	5964.55
660.68952	6758.95
664.65319	6310.95
668.61405	5228.45
672.57211	4782.05
676.52738	4782.75
680.47986	4710.65
684.42955	4569.25
688.37646	4475.15
692.32058	4479.75
696.26192	4567.25
700.20048	4680.15
704.13626	4741.85
708.06928	4646.75
711.99952	4619.55
715.927	4677.55
719.85171	4894.15
723.77365	5049.85
727.69284	4922.35
731.60928	4731.45
735.52295	4687.45
739.43388	4773.55
743.34206	4798.75
747.24749	4807.05
751.15017	4831.25
755.05012	5174.95
758.94733	6551.85
762.8418	9685.45
766.73354	13725.85
770.62254	15761.85
774.50882	14947.55
778.39237	13371.15
782.27321	11041.65
786.15132	8038.05
790.02671	6013.25
793.89938	5087.25
797.76935	4767.25
801.6366	4616.35
805.50115	4536.15
809.36299	4493.55
813.22213	4466.55
817.07857	4460.95
820.93231	4505.35
824.78336	4621.85
828.63172	4723.75
832.47738	4793.25
836.32036	4680.35
840.16066	4466.25
843.99827	4326.95
847.8332	4276.45
851.66546	4267.75
855.49504	4268.15
859.32195	4247.15
863.1462	4202.35
866.96777	4181.05
870.78668	4174.35
874.60293	4206.55
878.41652	4291.25
882.22745	4424.85
886.03573	4546.65
889.84136	4504.25
893.64433	4476.65
897.44466	4489.25
901.24235	4489.15
905.0374	4403.15
908.8298	4223.65
912.61957	4086.15
916.40671	3987.55
920.19121	4047.25
923.97308	4272.75
927.75233	4682.45
931.52895	5139.25
935.30295	4897.15
939.07433	4249.85
942.84309	3852.85
946.60924	3699.85
950.37278	3643.15
954.13371	3635.45
957.89203	3616.65
961.64774	3629.45
965.40086	3603.45
969.15137	3568.85
972.89929	3593.85
976.64461	3562.65
980.38733	3572.75
984.12747	3557.75
987.86502	3572.25
991.59999	3588.15
995.33237	3668.45
999.06217	3780.35
1002.78939	3961.05
1006.51404	4288.25
1010.23611	4431.75
1013.95561	4281.85
1017.67255	4070.35
1021.38692	3899.85
1025.09872	3754.65
1028.80796	3658.65
1032.51465	3725.25
1036.21877	3749.75
1039.92035	3826.95
1043.61937	3908.45
1047.31584	3971.55
1051.00976	3999.35
1054.70114	3933.75
1058.38998	3856.05
1062.07627	3818.25
1065.76003	3822.45
1069.44126	3885.15
1073.11995	3982.15
1076.79611	4261.75
1080.46974	4781.15
1084.14085	5559.15
1087.80943	6207.55
1091.47549	6151.45
1095.13903	5516.55
1098.80005	4848.95
1102.45857	4485.55
1106.11456	4440.25
1109.76805	4551.85
1113.41903	4972.65
1117.06751	5628.95
1120.71348	6735.55
1124.35696	8392.15
1127.99793	9586.65
1131.63641	8739.15
1135.2724	7017.85
1138.90589	5834.45
1142.5369	5187.75
1146.16542	4785.15
1149.79145	4497.55
1153.415	4434.65
1157.03607	4488.25
1160.65467	4702.65
1164.27079	5120.05
1167.88443	5712.95
1171.49561	6753.15
1175.10432	8542.55
1178.71056	11054.05
1182.31434	12836.75
1185.91565	12567.95
1189.51451	10937.65
1193.11091	9209.95
1196.70485	8116.45
1200.29634	7721.15
1203.88538	7159.65
1207.47197	6135.85
1211.05612	5182.65
1214.63782	4575.95
1218.21708	4298.15
1221.79391	4199.15
1225.36829	4177.95
1228.94024	4188.45
1232.50976	4178.15
1236.07685	4178.45
1239.6415	4249.75
1243.20374	4355.45
1246.76355	4522.15
1250.32093	4751.65
1253.8759	5017.35
1257.42845	5521.35
1260.97859	6187.35
1264.52631	6842.25
1268.07163	7162.85
1271.61453	7192.95
1275.15503	7009.55
1278.69312	6743.85
1282.22882	6933.85
1285.76211	7884.35
1289.29301	9155.95
1292.82151	10027.95
1296.34761	10380.95
1299.87133	11210.95
1303.39266	13371.85
1306.9116	17422.85
1310.42815	22442.25
1313.94233	24169.35
1317.45412	20351.45
1320.96354	14834.05
1324.47058	10672.05
1327.97525	8141.95
1331.47754	6908.55
1334.97747	6485.65
1338.47502	6690.85
1341.97022	7668.15
1345.46305	9810.45
1348.95352	12897.35
1352.44163	16027.95
1355.92738	19898.15
1359.41078	26760.45
1362.89183	34318.75
1366.37053	32878.35
1369.84688	22464.75
1373.32088	13836.85
1376.79254	10154.25
1380.26186	8550.45
1383.72883	7292.25
1387.19347	6123.55
1390.65578	5258.05
1394.11575	4770.55
1397.57339	4566.75
1401.0287	4390.25
1404.48168	4250.65
1407.93234	4154.05
1411.38068	4235.15
1414.82669	4600.85
1418.27039	5032.45
1421.71177	5143.85
1425.15083	4925.35
1428.58758	4946.85
1432.02203	5439.25
1435.45416	5815.25
1438.88399	5553.05
1442.31151	5209.95
1445.73673	5131.35
1449.15965	5103.45
1452.58027	4989.85
1455.9986	4808.05
1459.41463	4654.75
1462.82837	4680.95
1466.23982	4919.95
1469.64898	5262.05
1473.05586	5401.05
1476.46045	5342.05
1479.86276	5379.05
1483.26279	5628.65
1486.66054	6242.55
1490.05602	7220.35
1493.44922	8802.65
1496.84016	11330.35
1500.22882	15283.95
1503.61521	20827.65
1506.99934	28000.05
1510.38121	35090.35
1513.76081	38007.75
1517.13816	33587.45
1520.51324	24986.85
1523.88607	17131.85
1527.25665	12076.35
1530.62498	9276.95
1533.99105	7649.75
1537.35488	6578.15
1540.71647	5999.15
1544.07581	5754.55
1547.4329	5767.65
1550.78776	5940.65
1554.14038	6271.55
1557.49077	6793.15
1560.83892	7706.65
1564.18484	9141.95
1567.52853	10823.75
1570.86999	11847.75
1574.20922	12036.25
1577.54624	11373.75
1580.88103	9447.25
1584.2136	7130.35
1587.54395	5771.65
1590.87208	5410.65
1594.19801	5826.55
1597.52172	6533.85
1600.84321	6523.95
1604.16251	5755.85
1607.47959	4977.35
1610.79447	4543.45
1614.10715	4205.95
1617.41763	3955.95
1620.7259	3839.55
1624.03199	3905.15
1627.33587	4096.15
1630.63757	4449.75
1633.93707	5112.95
1637.23439	6304.15
1640.52951	8512.65
1643.82246	12269.65
1647.11321	17458.45
1650.40179	21640.55
1653.68819	21490.95
1656.97241	16811.35
1660.25446	11242.25
1663.53433	7418.35
1666.81203	5320.15
1670.08756	4247.15
1673.36092	3675.65
1676.63211	3307.55
1679.90115	3095.05
1683.16801	2932.15
1686.43272	2802.15
1689.69527	2730.95
1692.95567	2649.95
1696.2139	2613.95
1699.46999	2541.95
1702.72392	2547.55
1705.97571	2542.35
1709.22535	2542.25
1712.47284	2581.75
1715.71819	2618.25
1718.96139	2615.65
1722.20246	2594.65
1725.44139	2532.45
1728.67818	2460.65
1731.91284	2367.55
1735.14537	2335.95
1738.37576	2294.45
1741.60403	2279.85
1744.83017	2242.25
1748.05418	2235.95
1751.27607	2219.65
1754.49584	2163.85
1757.71349	2105.85
1760.92903	2084.15
1764.14244	2006.75
1767.35375	1999.05
1770.56294	1963.35
1773.77002	1913.75
1776.97499	1900.35
1780.17785	1861.55
1783.37861	1827.15
1786.57727	1842.35
1789.77382	1778.55
1792.96828	1812.25
1796.16064	1815.15
1799.3509	1794.45
1802.53907	1811.25
1805.72514	1778.95
1808.90913	1758.45
1812.09102	1755.15
1815.27083	1745.35
1818.44856	1733.15
1821.6242	1733.45
1824.79776	1707.95
1827.96924	1690.85
1831.13864	1662.15
1834.30597	1658.65
1837.47122	1631.15
1840.6344	1601.35
1843.7955	1581.25
1846.95454	1568.85
1850.11151	1581.35
1853.26642	1529.55
1856.41926	1544.55
1859.57004	1555.25
1862.71876	1554.35
1865.86542	1557.05
1869.01003	1561.95
1872.15258	1544.15
1875.29308	1566.95
1878.43152	1576.05
1881.56792	1556.55
1884.70227	1543.65
1887.83457	1537.85
1890.96482	1515.45
1894.09304	1515.95
1897.21921	1503.95
1900.34335	1512.85
1903.46544	1499.05
1906.58551	1503.95
1909.70353	1505.95
1912.81953	1502.35
1915.93349	1484.75
1919.04543	1491.65
1922.15534	1462.05
1925.26322	1459.35
1928.36908	1427.45
1931.47292	1413.15
1934.57473	1403.95
1937.67453	1360.95
1940.77232	1335.55
1943.86808	1320.05
1946.96184	1333.35
1950.05358	1300.25
1953.14331	1293.55
1956.23103	1315.25
1959.31675	1296.45
1962.40046	1277.25
1965.48217	1325.25
1968.56188	1332.15
1971.63959	1334.95
1974.7153	1358.35
1977.78901	1345.05
1980.86073	1317.25
1983.93046	1272.35
1986.99819	1189.35
1990.06394	1195.35
1993.1277	1219.65
1996.18947	1204.05
1999.24925	1177.85
2002.30706	1186.25
2005.36288	1180.55
2008.41672	1155.75
2011.46859	1142.25
2014.51848	1133.25
2017.56639	1125.65
2020.61233	1109.45
2023.6563	1128.85
2026.6983	1089.15
2029.73833	1102.45
2032.7764	1115.85
2035.8125	1063.75
2038.84664	1078.65
2041.87881	1068.95
2044.90903	1088.55
2047.93729	1081.25
2050.96359	1046.25
2053.98794	1056.15
2057.01034	1050.85
2060.03078	1038.55
2063.04927	1025.15
2066.06582	1016.45
2069.08042	1003.55
2072.09307	1002.55
2075.10378	1004.05
2078.11255	997.75
2081.11938	1001.15
2084.12426	1003.05
2087.12722	995.05
2090.12824	994.45
2093.12732	1001.65
2096.12447	1005.45
2099.11969	997.05
2102.11299	983.55
2105.10435	1011.45
2108.09379	1001.25
2111.08131	985.95
2114.0669	1004.45
2117.05057	1009.95
2120.03233	1009.35
2123.01216	1047.25
2125.99008	1061.65
2128.96609	1052.85
2131.94018	1069.65
2134.91236	1038.65
2137.88263	1022.95
2140.851	1015.55
2143.81746	1020.15
2146.78201	986.45
2149.74466	960.35
2152.7054	955.75
2155.66425	934.45
2158.6212	929.85
2161.57625	912.25
2164.52941	883.65
2167.48067	904.65
2170.43004	913.05
2173.37752	934.75
2176.32311	926.55
2179.26681	940.95
2182.20863	944.45
2185.14856	939.65
2188.08661	927.35
2191.02278	926.85
2193.95707	899.45
2196.88948	881.25
2199.82001	891.45
2202.74867	881.45
2205.67545	884.75
2208.60037	895.95
2211.52341	884.35
2214.44458	876.35
2217.36388	875.05
2220.28132	867.25
2223.1969	847.05
2226.11061	854.35
2229.02246	839.15
2231.93245	853.15
2234.84058	831.35
2237.74686	830.45
2240.65128	832.35
2243.55385	840.45
2246.45456	825.35
2249.35343	858.15
2252.25044	857.85
2255.14561	882.75
2258.03893	921.05
2260.93041	924.85
2263.82004	942.05
2266.70783	954.95
2269.59378	929.15
2272.4779	923.95
2275.36017	930.85
2278.24061	922.05
2281.11922	893.45
2283.996	910.05
2286.87094	873.85
2289.74405	868.95
2292.61534	858.65
2295.4848	843.65
2298.35243	825.05
2301.21824	811.15
2304.08223	817.25
2306.94439	823.95
2309.80474	823.85
2312.66327	820.15
2315.51999	813.15
2318.37489	813.45
2321.22797	794.65
2324.07925	799.65
2326.92871	794.75
2329.77637	788.45
2332.62222	797.05
2335.46626	774.45
2338.3085	781.15
2341.14893	800.45
2343.98756	818.05
2346.8244	792.95
2349.65943	805.85
2352.49267	814.85
2355.32411	836.85
2358.15376	845.95
2360.98161	869.05
2363.80768	876.45
2366.63195	892.75
2369.45444	909.55
2372.27514	914.15
2375.09405	926.35
2377.91118	889.35
2380.72652	885.55
2383.54009	873.55
2386.35187	870.15
2389.16188	841.55
2391.97011	833.45
2394.77657	815.55
2397.58125	813.05
2400.38416	797.15
2403.18529	780.25
2405.98466	763.75
2408.78226	770.85
2411.57809	767.45
2414.37216	755.75
2417.16446	760.75
2419.955	738.65
2422.74378	766.55
2425.5308	752.95
2428.31606	768.25
2431.09956	775.85
2433.88131	766.15
2436.6613	789.95
2439.43954	789.95
2442.21603	784.55
2444.99077	790.55
2447.76377	821.65
2450.53501	812.65
2453.30451	819.35
2456.07226	828.05
2458.83827	814.45
2461.60254	781.95
2464.36507	819.85
2467.12586	793.65
2469.88492	807.45
2472.64224	812.75
2475.39782	809.25
2478.15167	832.95
2480.90379	843.35
2483.65417	880.45
2486.40283	903.05
2489.14976	919.65
2491.89497	909.05
2494.63845	913.25
2497.3802	906.55
2500.12024	893.25
2502.85855	878.15
2505.59514	867.55
2508.33002	848.95
2511.06318	789.95
2513.79462	781.75
2516.52435	730.75
2519.25237	694.75
2521.97867	687.35
2524.70327	688.25
2527.42616	674.45
2530.14734	686.95
2532.86681	665.55
2535.58458	673.75
2538.30065	667.85
2541.01501	688.65
2543.72768	677.75
2546.43864	690.55
2549.14791	693.15
2551.85548	689.55
2554.56136	697.45
2557.26554	711.65
2559.96803	714.75
2562.66883	720.35
2565.36794	712.45
2568.06536	695.65
2570.7611	724.45
2573.45514	722.85
2576.14751	709.55
2578.83819	705.55
2581.52719	693.85
2584.21451	691.35
2586.90015	668.35
2589.58411	658.25
2592.2664	678.15
2594.94701	679.05
2597.62594	675.95
2600.30321	625.05
2602.9788	649.25
2605.65273	651.85
2608.32498	659.35
2610.99557	677.65
2613.66449	654.75
2616.33175	678.15
2618.99734	682.45
2621.66128	683.65
2624.32355	671.55
2626.98416	647.95
2629.64311	647.05
2632.30041	634.15
2634.95605	619.65
2637.61004	604.05
2640.26238	588.55
2642.91306	590.15
2645.56209	600.05
2648.20948	599.15
2650.85521	581.05
2653.4993	615.45
2656.14175	611.15
2658.78255	609.55
2661.42171	586.05
2664.05923	624.35
2666.6951	633.25
2669.32934	641.95
2671.96194	662.15
2674.59291	652.35
2677.22224	660.35
2679.84993	646.55
2682.476	636.25
2685.10043	629.05
2687.72324	617.25
2690.34441	614.75
2692.96396	616.45
2695.58188	627.95
2698.19818	614.75
2700.81285	600.75
2703.4259	591.55
2706.03733	567.65
2708.64714	584.15
2711.25533	617.55
2713.86191	629.45
2716.46687	610.35
2719.07021	625.75
2721.67194	617.15
2724.27206	635.15
2726.87057	603.75
2729.46747	594.75
2732.06276	592.85
2734.65644	579.85
2737.24852	583.05
2739.83899	552.15
2742.42786	563.75
2745.01513	569.15
2747.60079	550.55
2750.18486	531.15
2752.76733	535.05
2755.3482	520.95
2757.92747	526.85
2760.50515	509.75
2763.08123	503.25
2765.65573	504.95
2768.22863	495.25
2770.79994	496.45
2773.36967	494.95
2775.9378	489.95
2778.50435	496.25
2781.06932	497.35
2783.6327	493.05
2786.1945	513.55
2788.75471	504.65
2791.31335	510.95
2793.87041	520.45
2796.42589	507.75
2798.97979	507.15
2801.53212	530.55
2804.08288	555.05
2806.63206	545.95
2809.17967	543.75
2811.72571	576.05
2814.27018	579.95
2816.81308	594.95
2819.35442	579.15
2821.89419	624.55
2824.43239	609.75
2826.96904	647.85
2829.50412	625.05
2832.03763	628.35
2834.56959	619.25
2837.1	603.75
2839.62884	601.95
2842.15613	590.25
2844.68186	602.65
2847.20604	575.15
2849.72867	583.85
2852.24974	602.65
2854.76927	591.15
2857.28724	566.85
2859.80367	632.85
2862.31855	672.55
2864.83189	664.35
2867.34368	691.25
2869.85393	714.75
2872.36264	698.45
2874.8698	701.85
2877.37543	704.85
2879.87952	694.45
2882.38207	661.95
2884.88308	660.35
2887.38256	652.55
2889.88051	636.45
2892.37692	627.85
2894.8718	605.35
2897.36515	627.55
2899.85698	628.85
2902.34727	629.35
2904.83604	641.25
2907.32328	661.65
2909.809	685.75
2912.29319	699.95
2914.77587	718.15
2917.25702	720.45
2919.73665	711.35
2922.21476	698.95
2924.69136	677.95
2927.16644	644.75
2929.64	632.65
2932.11205	610.15
2934.58258	613.75
2937.05161	597.35
2939.51912	599.05
2941.98513	616.95
2944.44962	604.65
2946.91261	581.25
2949.37409	590.55
2951.83407	587.25
2954.29254	593.85
2956.74951	608.25
2959.20498	591.65
2961.65895	596.75
2964.11142	584.35
2966.56239	585.55
2969.01186	589.75
2971.45984	578.05
2973.90632	569.25
2976.35131	594.05
2978.7948	580.85
2981.23681	575.75
2983.67732	587.55
2986.11635	597.95
2988.55388	568.45
2990.98993	587.15
2993.4245	577.05
2995.85758	578.25
2998.28917	584.65
3000.71928	584.25
3003.14791	583.85
3005.57506	576.05
3008.00073	567.65
3010.42493	517.25
3012.84764	577.35
3015.26888	573.75
3017.68865	564.75
3020.10694	531.35
3022.52376	546.95
3024.9391	545.65
3027.35298	531.15
3029.76539	503.05
3032.17632	504.45
3034.5858	485.15
3036.9938	488.95
3039.40034	477.35
3041.80542	452.05
3044.20903	438.85
3046.61118	427.45
3049.01187	443.85
3051.4111	425.65
3053.80888	421.95
3056.20519	420.75
3058.60005	409.55
3060.99345	438.35
3063.3854	419.15
3065.7759	407.85
3068.16494	401.35
3070.55254	397.75
3072.93868	403.85
3075.32338	402.55
3077.70662	400.15
3080.08842	390.15
3082.46878	377.45
3084.84769	396.75
3087.22515	381.45
3089.60118	391.35
3091.97576	373.15
3094.3489	386.25
3096.72061	376.55
3099.09087	359.05
3101.4597	375.55
3103.82709	364.95
3106.19305	354.25
3108.55757	364.95
3110.92066	358.05
3113.28232	374.85
3115.64255	378.05
3118.00134	385.05
3120.35871	364.35
3122.71466	351.25
3125.06917	368.55
3127.42226	364.45
3129.77393	349.95
3132.12417	367.75
3134.47299	372.55
3136.82039	354.95
3139.16636	334.25
3141.51092	364.55
3143.85406	363.65
3146.19579	354.75
3148.53609	358.15
3150.87499	365.65
3153.21246	364.55
3155.54853	374.85
3157.88318	378.15
3160.21642	376.75
3162.54826	371.95
3164.87868	376.85
3167.2077	340.55
3169.5353	354.65
3171.86151	364.75
3174.18631	342.45
3176.5097	335.25
3178.83169	335.05
3181.15228	335.35
3183.47147	311.35
3185.78926	301.45
3188.10565	309.75
3190.42065	291.15
3192.73424	305.25
3195.04645	301.75
3197.35725	291.35
3199.66667	309.35
3201.97469	297.25
3204.28132	297.25
3206.58656	310.95
3208.8904	319.75
3211.19287	309.55
3213.49394	314.85
3215.79363	310.15
3218.09193	325.15
3220.38884	318.95
3222.68438	317.65
3224.97853	300.15
3227.2713	322.65
3229.56269	307.25
3231.8527	306.55
3234.14133	296.85
3236.42858	298.55
3238.71446	279.05
3240.99896	300.45
3243.28209	281.05
3245.56384	295.05
3247.84423	285.55
3250.12324	299.85
3252.40088	291.25
3254.67715	283.95
3256.95205	276.05
3259.22558	293.95
3261.49775	288.05
3263.76855	282.15
3266.03799	293.15
3268.30606	291.75
3270.57277	297.55
3272.83812	283.65
3275.10211	292.75
3277.36474	318.25
3279.62601	311.85
3281.88593	303.25
3284.14448	292.05
3286.40168	322.35
3288.65753	316.45
3290.91202	326.85
3293.16516	323.05
3295.41695	358.35
3297.66738	366.65
3299.91647	353.65
3302.16421	377.65
3304.4106	344.85
3306.65564	379.15
3308.89933	353.55
3311.14169	370.25
3313.38269	370.05
3315.62236	362.95
3317.86068	364.75
3320.09766	377.25
3322.3333	359.95
3324.5676	377.15
3326.80056	373.05
3329.03219	389.35
3331.26248	-0.05
3333.49143	-0.95
3335.71905	1.05
