Data from AgNPs_UA_5uM_CRN_500uM_SU_RamanShift__48__11-37-23-148.txt Node

Date: Thu Aug 04 11:37:23 BST 2022
User: TCL
Spectrometer: QEP01345
Trigger mode: 4
Integration Time (sec): 1.000000E0
Scans to average: 10
Electric dark correction enabled: true
Nonlinearity correction enabled: false
Boxcar width: 0
XAxis mode: Raman Shifts
Number of Pixels in Spectrum: 1044
>>>>>Begin Spectral Data<<<<<
46.04893	0.1375
50.45542	0.4375
54.85868	-0.0625
59.25871	-1.7625
63.6555	-55.4625
68.04907	-38.6625
72.43941	-69.2625
76.82654	-53.6625
81.21044	-54.7625
85.59113	-46.7625
89.96862	-72.2625
94.34289	-53.3625
98.71396	-75.8625
103.08183	-54.6625
107.4465	-44.7625
111.80798	-52.7625
116.16626	-40.7625
120.52136	-69.5625
124.87327	-45.9625
129.222	-56.8625
133.56755	-42.3625
137.90993	-55.5625
142.24913	-40.0625
146.58517	-32.6625
150.91804	-25.8625
155.24774	-10.5625
159.57429	19.6375
163.89768	32.5375
168.21792	95.9375
172.53501	138.4375
176.84895	256.5375
181.15975	441.1375
185.46741	661.0375
189.77193	935.5375
194.07331	1332.4375
198.37157	1755.3375
202.6667	2197.3375
206.9587	2687.0375
211.24758	3189.9375
215.53334	3757.0375
219.81599	4415.0375
224.09553	5170.3375
228.37195	5960.2375
232.64527	6700.7375
236.91549	7314.3375
241.18261	7664.2375
245.44663	7776.8375
249.70755	7757.3375
253.96539	7772.1375
258.22014	7833.1375
262.4718	7890.2375
266.72039	7903.8375
270.96589	7723.0375
275.20832	7449.2375
279.44768	7130.0375
283.68397	6905.3375
287.91719	6839.5375
292.14735	6996.8375
296.37445	7480.5375
300.59849	8329.4375
304.81948	9518.7375
309.03742	10873.7375
313.25231	11828.1375
317.46415	11693.0375
321.67296	10280.8375
325.87872	8707.3375
330.08145	7781.6375
334.28114	7581.8375
338.47781	7824.1375
342.67145	8346.1375
346.86207	9176.1375
351.04966	10472.8375
355.23424	11778.6375
359.4158	12318.3375
363.59435	11892.8375
367.76989	11123.7375
371.94243	10373.6375
376.11196	9775.2375
380.27849	9339.6375
384.44203	9015.6375
388.60257	8794.4375
392.76012	8808.8375
396.91468	9115.1375
401.06626	9455.8375
405.21485	9476.0375
409.36047	8914.1375
413.50311	7918.4375
417.64277	7035.2375
421.77947	6436.2375
425.9132	6189.8375
430.04396	6065.7375
434.17176	6048.2375
438.2966	6163.8375
442.41849	6354.7375
446.53742	6546.7375
450.6534	6671.5375
454.76644	6687.1375
458.87653	6581.6375
462.98368	6467.4375
467.08789	6325.5375
471.18916	6150.0375
475.2875	5878.5375
479.38291	5661.0375
483.4754	5505.8375
487.56496	5465.4375
491.6516	5388.9375
495.73531	5392.8375
499.81612	5450.3375
503.89401	5616.4375
507.96899	5794.8375
512.04106	6049.2375
516.11023	6309.9375
520.1765	6528.7375
524.23987	6608.1375
528.30034	6542.0375
532.35792	6412.9375
536.41261	6257.5375
540.46441	6026.8375
544.51333	5884.3375
548.55936	5874.9375
552.60252	6031.1375
556.64279	6232.0375
560.6802	6618.5375
564.71473	7462.6375
568.7464	8562.1375
572.7752	8493.4375
576.80114	7092.6375
580.82422	5924.8375
584.84444	5438.4375
588.86181	5296.8375
592.87633	5292.1375
596.888	5498.2375
600.89682	6223.3375
604.9028	8615.1375
608.90594	14684.2375
612.90624	22062.8375
616.90371	20084.2375
620.89834	10907.1375
624.89015	6895.6375
628.87913	6445.9375
632.86528	7011.3375
636.84862	7277.6375
640.82913	6615.8375
644.80683	5641.1375
648.78172	5204.0375
652.75379	5347.4375
656.72306	6039.7375
660.68952	6746.3375
664.65319	6384.6375
668.61405	5472.3375
672.57211	5117.7375
676.52738	5096.2375
680.47986	5032.5375
684.42955	4907.6375
688.37646	4809.7375
692.32058	4812.9375
696.26192	4908.2375
700.20048	5045.5375
704.13626	5082.1375
708.06928	4995.9375
711.99952	4961.3375
715.927	5001.2375
719.85171	5185.5375
723.77365	5340.6375
727.69284	5207.9375
731.60928	5060.5375
735.52295	5016.1375
739.43388	5060.6375
743.34206	5112.0375
747.24749	5121.6375
751.15017	5154.2375
755.05012	5426.5375
758.94733	6611.7375
762.8418	9302.2375
766.73354	12784.0375
770.62254	14611.1375
774.50882	13931.6375
778.39237	12634.4375
782.27321	10617.8375
786.15132	7992.9375
790.02671	6230.9375
793.89938	5386.5375
797.76935	5115.9375
801.6366	4969.2375
805.50115	4882.9375
809.36299	4867.4375
813.22213	4836.5375
817.07857	4847.1375
820.93231	4875.8375
824.78336	4963.1375
828.63172	5073.2375
832.47738	5114.7375
836.32036	5029.9375
840.16066	4842.0375
843.99827	4716.8375
847.8332	4668.6375
851.66546	4687.2375
855.49504	4672.1375
859.32195	4677.9375
863.1462	4608.0375
866.96777	4600.7375
870.78668	4595.4375
874.60293	4642.6375
878.41652	4695.2375
882.22745	4847.8375
886.03573	4906.2375
889.84136	4890.6375
893.64433	4867.0375
897.44466	4882.7375
901.24235	4876.0375
905.0374	4828.7375
908.8298	4638.2375
912.61957	4524.6375
916.40671	4463.8375
920.19121	4508.0375
923.97308	4693.1375
927.75233	5029.1375
931.52895	5408.7375
935.30295	5210.8375
939.07433	4663.8375
942.84309	4335.3375
946.60924	4200.9375
950.37278	4143.6375
954.13371	4113.9375
957.89203	4132.3375
961.64774	4139.5375
965.40086	4106.2375
969.15137	4086.0375
972.89929	4108.9375
976.64461	4067.2375
980.38733	4089.6375
984.12747	4068.9375
987.86502	4091.7375
991.59999	4108.6375
995.33237	4181.9375
999.06217	4279.3375
1002.78939	4437.8375
1006.51404	4716.7375
1010.23611	4860.1375
1013.95561	4728.2375
1017.67255	4551.4375
1021.38692	4417.0375
1025.09872	4292.6375
1028.80796	4201.7375
1032.51465	4242.1375
1036.21877	4274.5375
1039.92035	4338.0375
1043.61937	4415.3375
1047.31584	4483.7375
1051.00976	4506.1375
1054.70114	4446.6375
1058.38998	4391.2375
1062.07627	4361.7375
1065.76003	4382.8375
1069.44126	4431.4375
1073.11995	4527.1375
1076.79611	4801.8375
1080.46974	5264.8375
1084.14085	5914.7375
1087.80943	6458.3375
1091.47549	6436.1375
1095.13903	5914.2375
1098.80005	5358.0375
1102.45857	5071.2375
1106.11456	5030.1375
1109.76805	5091.9375
1113.41903	5469.4375
1117.06751	6029.6375
1120.71348	6961.5375
1124.35696	8365.0375
1127.99793	9314.6375
1131.63641	8604.4375
1135.2724	7123.9375
1138.90589	6138.7375
1142.5369	5565.2375
1146.16542	5208.5375
1149.79145	4957.8375
1153.415	4895.5375
1157.03607	4945.8375
1160.65467	5121.0375
1164.27079	5481.9375
1167.88443	6022.5375
1171.49561	6940.0375
1175.10432	8527.1375
1178.71056	10767.5375
1182.31434	12347.2375
1185.91565	12129.7375
1189.51451	10687.2375
1193.11091	9193.0375
1196.70485	8226.7375
1200.29634	7837.0375
1203.88538	7378.9375
1207.47197	6454.6375
1211.05612	5621.7375
1214.63782	5050.5375
1218.21708	4835.3375
1221.79391	4728.5375
1225.36829	4695.6375
1228.94024	4711.4375
1232.50976	4698.5375
1236.07685	4696.6375
1239.6415	4754.8375
1243.20374	4846.3375
1246.76355	5007.9375
1250.32093	5181.0375
1253.8759	5416.5375
1257.42845	5874.8375
1260.97859	6426.7375
1264.52631	7040.6375
1268.07163	7350.4375
1271.61453	7401.7375
1275.15503	7221.1375
1278.69312	7005.8375
1282.22882	7166.7375
1285.76211	7983.4375
1289.29301	9062.7375
1292.82151	9814.5375
1296.34761	10132.7375
1299.87133	10875.6375
1303.39266	12770.7375
1306.9116	16341.4375
1310.42815	20608.2375
1313.94233	22034.6375
1317.45412	18714.6375
1320.96354	14016.1375
1324.47058	10482.9375
1327.97525	8296.8375
1331.47754	7198.5375
1334.97747	6818.3375
1338.47502	6980.7375
1341.97022	7834.8375
1345.46305	9741.6375
1348.95352	12444.9375
1352.44163	15236.1375
1355.92738	18603.4375
1359.41078	24445.9375
1362.89183	30884.8375
1366.37053	29607.1375
1369.84688	20648.6375
1373.32088	13182.7375
1376.79254	9962.4375
1380.26186	8519.1375
1383.72883	7441.4375
1387.19347	6409.7375
1390.65578	5643.8375
1394.11575	5206.0375
1397.57339	5016.5375
1401.0287	4848.5375
1404.48168	4698.5375
1407.93234	4649.6375
1411.38068	4728.9375
1414.82669	5057.1375
1418.27039	5436.0375
1421.71177	5524.9375
1425.15083	5343.0375
1428.58758	5330.2375
1432.02203	5721.9375
1435.45416	6037.3375
1438.88399	5822.8375
1442.31151	5503.4375
1445.73673	5473.0375
1449.15965	5436.0375
1452.58027	5334.1375
1455.9986	5188.2375
1459.41463	5062.5375
1462.82837	5085.6375
1466.23982	5289.9375
1469.64898	5603.8375
1473.05586	5731.7375
1476.46045	5723.3375
1479.86276	5740.8375
1483.26279	5984.8375
1486.66054	6529.7375
1490.05602	7412.6375
1493.44922	8822.6375
1496.84016	11105.1375
1500.22882	14590.6375
1503.61521	19538.7375
1506.99934	25731.5375
1510.38121	31735.7375
1513.76081	33826.1375
1517.13816	29739.3375
1520.51324	22195.0375
1523.88607	15525.5375
1527.25665	11349.4375
1530.62498	8993.9375
1533.99105	7674.3375
1537.35488	6760.7375
1540.71647	6269.7375
1544.07581	6059.5375
1547.4329	6066.6375
1550.78776	6224.9375
1554.14038	6496.1375
1557.49077	6959.6375
1560.83892	7763.1375
1564.18484	8967.3375
1567.52853	10413.5375
1570.86999	11290.7375
1574.20922	11444.5375
1577.54624	10905.3375
1580.88103	9260.1375
1584.2136	7240.7375
1587.54395	6046.7375
1590.87208	5763.5375
1594.19801	6107.3375
1597.52172	6738.4375
1600.84321	6765.9375
1604.16251	6084.5375
1607.47959	5417.4375
1610.79447	5034.2375
1614.10715	4711.6375
1617.41763	4484.5375
1620.7259	4353.9375
1624.03199	4384.5375
1627.33587	4525.8375
1630.63757	4830.1375
1633.93707	5425.7375
1637.23439	6456.9375
1640.52951	8388.2375
1643.82246	11644.3375
1647.11321	16130.2375
1650.40179	19681.5375
1653.68819	19444.9375
1656.97241	15317.1375
1660.25446	10564.4375
1663.53433	7294.0375
1666.81203	5511.0375
1670.08756	4595.7375
1673.36092	4117.7375
1676.63211	3805.8375
1679.90115	3616.2375
1683.16801	3476.2375
1686.43272	3354.7375
1689.69527	3305.6375
1692.95567	3213.7375
1696.2139	3194.5375
1699.46999	3133.6375
1702.72392	3116.6375
1705.97571	3129.8375
1709.22535	3093.8375
1712.47284	3155.3375
1715.71819	3177.5375
1718.96139	3192.3375
1722.20246	3172.8375
1725.44139	3126.8375
1728.67818	3071.6375
1731.91284	2990.3375
1735.14537	2937.4375
1738.37576	2902.6375
1741.60403	2891.0375
1744.83017	2848.2375
1748.05418	2844.2375
1751.27607	2823.7375
1754.49584	2786.3375
1757.71349	2719.8375
1760.92903	2705.6375
1764.14244	2661.2375
1767.35375	2636.3375
1770.56294	2590.5375
1773.77002	2550.9375
1776.97499	2545.5375
1780.17785	2511.0375
1783.37861	2484.1375
1786.57727	2496.0375
1789.77382	2422.1375
1792.96828	2470.2375
1796.16064	2475.4375
1799.3509	2444.0375
1802.53907	2467.3375
1805.72514	2428.9375
1808.90913	2415.0375
1812.09102	2409.8375
1815.27083	2398.2375
1818.44856	2385.1375
1821.6242	2370.6375
1824.79776	2353.6375
1827.96924	2353.8375
1831.13864	2319.7375
1834.30597	2331.0375
1837.47122	2286.6375
1840.6344	2273.9375
1843.7955	2246.2375
1846.95454	2235.8375
1850.11151	2242.9375
1853.26642	2196.4375
1856.41926	2212.8375
1859.57004	2210.8375
1862.71876	2216.5375
1865.86542	2227.8375
1869.01003	2228.8375
1872.15258	2204.8375
1875.29308	2232.9375
1878.43152	2238.2375
1881.56792	2201.1375
1884.70227	2194.8375
1887.83457	2204.8375
1890.96482	2162.1375
1894.09304	2173.8375
1897.21921	2166.3375
1900.34335	2168.7375
1903.46544	2155.7375
1906.58551	2165.5375
1909.70353	2155.1375
1912.81953	2153.9375
1915.93349	2150.3375
1919.04543	2132.6375
1922.15534	2121.6375
1925.26322	2106.8375
1928.36908	2084.2375
1931.47292	2072.8375
1934.57473	2072.5375
1937.67453	2028.8375
1940.77232	1999.7375
1943.86808	1993.2375
1946.96184	1983.2375
1950.05358	1965.6375
1953.14331	1952.8375
1956.23103	1968.4375
1959.31675	1954.5375
1962.40046	1921.8375
1965.48217	1955.1375
1968.56188	1978.0375
1971.63959	1982.6375
1974.7153	1989.2375
1977.78901	1974.5375
1980.86073	1940.9375
1983.93046	1895.3375
1986.99819	1824.4375
1990.06394	1832.6375
1993.1277	1866.6375
1996.18947	1842.9375
1999.24925	1815.6375
2002.30706	1822.1375
2005.36288	1816.9375
2008.41672	1789.1375
2011.46859	1776.1375
2014.51848	1770.7375
2017.56639	1746.7375
2020.61233	1742.2375
2023.6563	1747.2375
2026.6983	1710.9375
2029.73833	1721.3375
2032.7764	1737.9375
2035.8125	1683.1375
2038.84664	1694.0375
2041.87881	1694.8375
2044.90903	1702.0375
2047.93729	1700.0375
2050.96359	1663.9375
2053.98794	1681.2375
2057.01034	1678.8375
2060.03078	1651.2375
2063.04927	1634.8375
2066.06582	1635.6375
2069.08042	1618.6375
2072.09307	1629.4375
2075.10378	1617.5375
2078.11255	1612.8375
2081.11938	1616.8375
2084.12426	1615.5375
2087.12722	1613.5375
2090.12824	1614.8375
2093.12732	1606.8375
2096.12447	1610.3375
2099.11969	1606.2375
2102.11299	1601.9375
2105.10435	1632.1375
2108.09379	1601.5375
2111.08131	1608.2375
2114.0669	1618.0375
2117.05057	1631.3375
2120.03233	1619.3375
2123.01216	1656.1375
2125.99008	1660.3375
2128.96609	1656.2375
2131.94018	1668.4375
2134.91236	1640.9375
2137.88263	1635.4375
2140.851	1621.4375
2143.81746	1640.9375
2146.78201	1605.4375
2149.74466	1588.1375
2152.7054	1572.6375
2155.66425	1562.5375
2158.6212	1564.4375
2161.57625	1531.8375
2164.52941	1513.8375
2167.48067	1528.9375
2170.43004	1540.5375
2173.37752	1565.9375
2176.32311	1545.7375
2179.26681	1546.3375
2182.20863	1558.8375
2185.14856	1557.4375
2188.08661	1550.9375
2191.02278	1552.6375
2193.95707	1526.5375
2196.88948	1509.5375
2199.82001	1514.0375
2202.74867	1503.4375
2205.67545	1503.3375
2208.60037	1526.8375
2211.52341	1501.7375
2214.44458	1495.5375
2217.36388	1493.3375
2220.28132	1478.6375
2223.1969	1462.9375
2226.11061	1462.7375
2229.02246	1466.9375
2231.93245	1470.0375
2234.84058	1453.4375
2237.74686	1443.0375
2240.65128	1435.4375
2243.55385	1453.5375
2246.45456	1437.9375
2249.35343	1469.2375
2252.25044	1462.8375
2255.14561	1486.4375
2258.03893	1512.5375
2260.93041	1506.4375
2263.82004	1517.6375
2266.70783	1531.9375
2269.59378	1525.5375
2272.4779	1499.0375
2275.36017	1507.9375
2278.24061	1496.2375
2281.11922	1465.5375
2283.996	1484.7375
2286.87094	1453.5375
2289.74405	1459.9375
2292.61534	1433.6375
2295.4848	1423.8375
2298.35243	1407.6375
2301.21824	1403.6375
2304.08223	1396.1375
2306.94439	1401.3375
2309.80474	1418.0375
2312.66327	1401.2375
2315.51999	1393.9375
2318.37489	1392.2375
2321.22797	1359.7375
2324.07925	1370.3375
2326.92871	1363.3375
2329.77637	1356.2375
2332.62222	1370.5375
2335.46626	1349.3375
2338.3085	1350.4375
2341.14893	1365.6375
2343.98756	1376.8375
2346.8244	1362.9375
2349.65943	1365.1375
2352.49267	1376.8375
2355.32411	1397.7375
2358.15376	1402.6375
2360.98161	1424.4375
2363.80768	1412.6375
2366.63195	1448.3375
2369.45444	1464.1375
2372.27514	1457.6375
2375.09405	1468.3375
2377.91118	1434.1375
2380.72652	1420.3375
2383.54009	1418.0375
2386.35187	1411.4375
2389.16188	1382.7375
2391.97011	1370.6375
2394.77657	1359.6375
2397.58125	1363.6375
2400.38416	1352.2375
2403.18529	1323.5375
2405.98466	1306.4375
2408.78226	1311.0375
2411.57809	1305.8375
2414.37216	1302.6375
2417.16446	1301.3375
2419.955	1293.5375
2422.74378	1317.0375
2425.5308	1296.6375
2428.31606	1302.6375
2431.09956	1313.4375
2433.88131	1302.4375
2436.6613	1316.0375
2439.43954	1317.2375
2442.21603	1309.7375
2444.99077	1319.1375
2447.76377	1338.0375
2450.53501	1336.4375
2453.30451	1333.4375
2456.07226	1353.8375
2458.83827	1332.6375
2461.60254	1301.8375
2464.36507	1331.7375
2467.12586	1311.2375
2469.88492	1329.2375
2472.64224	1327.5375
2475.39782	1323.0375
2478.15167	1341.7375
2480.90379	1353.8375
2483.65417	1385.7375
2486.40283	1400.9375
2489.14976	1416.6375
2491.89497	1404.7375
2494.63845	1411.3375
2497.3802	1398.8375
2500.12024	1382.4375
2502.85855	1370.8375
2505.59514	1361.6375
2508.33002	1339.9375
2511.06318	1297.6375
2513.79462	1293.1375
2516.52435	1241.6375
2519.25237	1205.4375
2521.97867	1206.4375
2524.70327	1197.8375
2527.42616	1187.8375
2530.14734	1199.6375
2532.86681	1174.4375
2535.58458	1172.5375
2538.30065	1177.6375
2541.01501	1205.9375
2543.72768	1185.8375
2546.43864	1199.3375
2549.14791	1199.7375
2551.85548	1187.4375
2554.56136	1198.7375
2557.26554	1212.8375
2559.96803	1204.3375
2562.66883	1217.2375
2565.36794	1201.2375
2568.06536	1185.0375
2570.7611	1222.3375
2573.45514	1203.0375
2576.14751	1197.0375
2578.83819	1185.6375
2581.52719	1180.2375
2584.21451	1172.3375
2586.90015	1153.8375
2589.58411	1152.0375
2592.2664	1161.4375
2594.94701	1164.7375
2597.62594	1171.7375
2600.30321	1104.1375
2602.9788	1135.8375
2605.65273	1135.4375
2608.32498	1136.6375
2610.99557	1156.4375
2613.66449	1133.3375
2616.33175	1153.6375
2618.99734	1143.5375
2621.66128	1146.8375
2624.32355	1142.0375
2626.98416	1123.7375
2629.64311	1109.0375
2632.30041	1107.9375
2634.95605	1081.2375
2637.61004	1069.7375
2640.26238	1055.4375
2642.91306	1050.2375
2645.56209	1073.4375
2648.20948	1067.9375
2650.85521	1055.5375
2653.4993	1082.5375
2656.14175	1072.6375
2658.78255	1063.0375
2661.42171	1042.5375
2664.05923	1088.5375
2666.6951	1098.5375
2669.32934	1105.3375
2671.96194	1119.8375
2674.59291	1113.5375
2677.22224	1111.6375
2679.84993	1106.5375
2682.476	1092.2375
2685.10043	1090.9375
2687.72324	1077.4375
2690.34441	1083.1375
2692.96396	1074.2375
2695.58188	1082.0375
2698.19818	1066.4375
2700.81285	1063.1375
2703.4259	1048.1375
2706.03733	1029.3375
2708.64714	1035.4375
2711.25533	1066.4375
2713.86191	1075.5375
2716.46687	1071.5375
2719.07021	1073.3375
2721.67194	1085.8375
2724.27206	1092.0375
2726.87057	1066.9375
2729.46747	1043.4375
2732.06276	1055.1375
2734.65644	1034.9375
2737.24852	1029.7375
2739.83899	1005.9375
2742.42786	1022.7375
2745.01513	1027.9375
2747.60079	1000.7375
2750.18486	987.1375
2752.76733	997.6375
2755.3482	975.6375
2757.92747	981.7375
2760.50515	960.0375
2763.08123	963.5375
2765.65573	959.4375
2768.22863	949.0375
2770.79994	946.6375
2773.36967	952.6375
2775.9378	945.9375
2778.50435	954.5375
2781.06932	946.6375
2783.6327	943.0375
2786.1945	959.9375
2788.75471	952.3375
2791.31335	952.4375
2793.87041	957.6375
2796.42589	948.7375
2798.97979	950.6375
2801.53212	957.7375
2804.08288	984.4375
2806.63206	973.7375
2809.17967	977.3375
2811.72571	998.9375
2814.27018	1010.4375
2816.81308	1011.9375
2819.35442	995.1375
2821.89419	1026.2375
2824.43239	1025.0375
2826.96904	1056.8375
2829.50412	1032.1375
2832.03763	1023.5375
2834.56959	1021.0375
2837.1	1003.1375
2839.62884	1002.4375
2842.15613	995.8375
2844.68186	1002.2375
2847.20604	986.2375
2849.72867	988.8375
2852.24974	1003.5375
2854.76927	986.6375
2857.28724	952.0375
2859.80367	1024.4375
2862.31855	1054.5375
2864.83189	1057.3375
2867.34368	1070.3375
2869.85393	1091.6375
2872.36264	1079.7375
2874.8698	1087.1375
2877.37543	1087.4375
2879.87952	1064.4375
2882.38207	1041.3375
2884.88308	1038.0375
2887.38256	1037.3375
2889.88051	1015.1375
2892.37692	1014.3375
2894.8718	988.5375
2897.36515	1012.6375
2899.85698	1004.7375
2902.34727	1008.6375
2904.83604	1023.4375
2907.32328	1047.2375
2909.809	1057.4375
2912.29319	1068.8375
2914.77587	1085.4375
2917.25702	1089.7375
2919.73665	1087.4375
2922.21476	1077.3375
2924.69136	1052.8375
2927.16644	1025.8375
2929.64	1012.2375
2932.11205	1000.9375
2934.58258	996.9375
2937.05161	977.5375
2939.51912	983.2375
2941.98513	1000.0375
2944.44962	983.9375
2946.91261	955.8375
2949.37409	976.5375
2951.83407	969.9375
2954.29254	972.7375
2956.74951	977.5375
2959.20498	972.9375
2961.65895	974.9375
2964.11142	962.2375
2966.56239	961.3375
2969.01186	956.8375
2971.45984	958.6375
2973.90632	943.7375
2976.35131	969.5375
2978.7948	964.2375
2981.23681	956.2375
2983.67732	960.6375
2986.11635	974.2375
2988.55388	949.0375
2990.98993	957.6375
2993.4245	949.4375
2995.85758	950.9375
2998.28917	946.5375
3000.71928	940.5375
3003.14791	952.5375
3005.57506	941.0375
3008.00073	933.4375
3010.42493	879.7375
3012.84764	933.4375
3015.26888	938.6375
3017.68865	922.7375
3020.10694	879.8375
3022.52376	906.5375
3024.9391	900.1375
3027.35298	895.0375
3029.76539	863.9375
3032.17632	862.5375
3034.5858	852.8375
3036.9938	850.0375
3039.40034	836.9375
3041.80542	814.4375
3044.20903	801.2375
3046.61118	791.4375
3049.01187	809.4375
3051.4111	790.8375
3053.80888	789.4375
3056.20519	787.7375
3058.60005	769.3375
3060.99345	794.8375
3063.3854	778.7375
3065.7759	765.5375
3068.16494	767.8375
3070.55254	751.9375
3072.93868	769.7375
3075.32338	758.6375
3077.70662	757.2375
3080.08842	744.8375
3082.46878	736.8375
3084.84769	758.5375
3087.22515	735.5375
3089.60118	741.5375
3091.97576	730.8375
3094.3489	736.6375
3096.72061	728.3375
3099.09087	724.0375
3101.4597	725.1375
3103.82709	725.5375
3106.19305	717.0375
3108.55757	724.4375
3110.92066	713.7375
3113.28232	729.6375
3115.64255	731.2375
3118.00134	735.6375
3120.35871	709.5375
3122.71466	703.1375
3125.06917	718.5375
3127.42226	706.7375
3129.77393	695.8375
3132.12417	715.3375
