Data from AgNPs_UA_50uM_CRN_500uM_SU_RamanShift__60__14-05-50-325.txt Node

Date: Thu Aug 04 14:05:50 BST 2022
User: TCL
Spectrometer: QEP01345
Trigger mode: 4
Integration Time (sec): 1.000000E0
Scans to average: 10
Electric dark correction enabled: true
Nonlinearity correction enabled: false
Boxcar width: 0
XAxis mode: Raman Shifts
Number of Pixels in Spectrum: 1044
>>>>>Begin Spectral Data<<<<<
46.04893	0.5125
50.45542	-0.0875
54.85868	-1.5875
59.25871	-0.5875
63.6555	19.0125
68.04907	15.9125
72.43941	18.6125
76.82654	19.7125
81.21044	20.0125
85.59113	20.3125
89.96862	23.1125
94.34289	23.0125
98.71396	25.4125
103.08183	25.8125
107.4465	23.7125
111.80798	24.5125
116.16626	26.8125
120.52136	28.7125
124.87327	30.2125
129.222	32.9125
133.56755	37.2125
137.90993	39.7125
142.24913	40.6125
146.58517	46.8125
150.91804	56.1125
155.24774	67.4125
159.57429	86.1125
163.89768	112.5125
168.21792	150.9125
172.53501	210.0125
176.84895	294.2125
181.15975	414.5125
185.46741	589.0125
189.77193	829.5125
194.07331	1103.6125
198.37157	1436.3125
202.6667	1767.9125
206.9587	2112.0125
211.24758	2462.0125
215.53334	2806.4125
219.81599	3199.0125
224.09553	3618.9125
228.37195	4075.2125
232.64527	4560.7125
236.91549	5039.5125
241.18261	5458.7125
245.44663	5780.0125
249.70755	6039.0125
253.96539	6286.4125
258.22014	6471.3125
262.4718	6641.6125
266.72039	6783.3125
270.96589	6817.7125
275.20832	6778.3125
279.44768	6674.2125
283.68397	6575.0125
287.91719	6479.0125
292.14735	6491.7125
296.37445	6601.4125
300.59849	6866.8125
304.81948	7158.8125
309.03742	7449.1125
313.25231	7593.1125
317.46415	7487.3125
321.67296	7150.3125
325.87872	6784.8125
330.08145	6588.9125
334.28114	6586.7125
338.47781	6681.6125
342.67145	6842.0125
346.86207	7067.7125
351.04966	7395.8125
355.23424	7704.3125
359.4158	7906.5125
363.59435	8021.2125
367.76989	8047.4125
371.94243	8000.5125
376.11196	7969.0125
380.27849	7913.4125
384.44203	7910.2125
388.60257	7923.1125
392.76012	7955.8125
396.91468	8058.4125
401.06626	8178.1125
405.21485	8237.4125
409.36047	8086.0125
413.50311	7756.5125
417.64277	7481.2125
421.77947	7304.3125
425.9132	7200.8125
430.04396	7204.8125
434.17176	7257.9125
438.2966	7370.9125
442.41849	7528.8125
446.53742	7726.7125
450.6534	7891.1125
454.76644	8009.1125
458.87653	8055.2125
462.98368	8011.4125
467.08789	7927.2125
471.18916	7750.6125
475.2875	7559.2125
479.38291	7385.8125
483.4754	7294.3125
487.56496	7210.4125
491.6516	7157.0125
495.73531	7156.1125
499.81612	7160.2125
503.89401	7228.2125
507.96899	7278.5125
512.04106	7332.8125
516.11023	7423.1125
520.1765	7468.5125
524.23987	7509.2125
528.30034	7489.3125
532.35792	7443.3125
536.41261	7369.9125
540.46441	7244.2125
544.51333	7237.5125
548.55936	7289.8125
552.60252	7405.9125
556.64279	7539.8125
560.6802	7651.4125
564.71473	7745.3125
568.7464	7902.7125
572.7752	7875.8125
576.80114	7622.6125
580.82422	7405.3125
584.84444	7366.5125
588.86181	7384.6125
592.87633	7501.1125
596.888	7687.5125
600.89682	8049.2125
604.9028	9082.2125
608.90594	11364.3125
612.90624	13582.4125
616.90371	12372.8125
620.89834	9251.6125
624.89015	8053.6125
628.87913	7935.6125
632.86528	8031.4125
636.84862	8020.8125
640.82913	7755.3125
644.80683	7385.7125
648.78172	7199.8125
652.75379	7238.7125
656.72306	7511.9125
660.68952	7802.6125
664.65319	7720.9125
668.61405	7558.4125
672.57211	7562.5125
676.52738	7525.5125
680.47986	7381.0125
684.42955	7222.4125
688.37646	7219.8125
692.32058	7280.0125
696.26192	7417.1125
700.20048	7556.1125
704.13626	7564.0125
708.06928	7465.8125
711.99952	7369.2125
715.927	7375.6125
719.85171	7450.9125
723.77365	7441.6125
727.69284	7374.0125
731.60928	7303.6125
735.52295	7286.6125
739.43388	7321.4125
743.34206	7366.9125
747.24749	7374.6125
751.15017	7395.8125
755.05012	7499.4125
758.94733	7833.0125
762.8418	8664.5125
766.73354	9853.6125
770.62254	10825.2125
774.50882	10997.5125
778.39237	10444.7125
782.27321	9491.5125
786.15132	8545.2125
790.02671	7877.7125
793.89938	7574.5125
797.76935	7429.4125
801.6366	7357.4125
805.50115	7313.5125
809.36299	7299.7125
813.22213	7258.4125
817.07857	7248.2125
820.93231	7244.3125
824.78336	7255.1125
828.63172	7276.6125
832.47738	7285.1125
836.32036	7271.4125
840.16066	7276.7125
843.99827	7275.1125
847.8332	7254.3125
851.66546	7219.8125
855.49504	7240.8125
859.32195	7254.2125
863.1462	7245.6125
866.96777	7201.4125
870.78668	7209.4125
874.60293	7243.8125
878.41652	7256.9125
882.22745	7319.0125
886.03573	7337.7125
889.84136	7330.3125
893.64433	7302.2125
897.44466	7259.6125
901.24235	7261.6125
905.0374	7246.7125
908.8298	7226.8125
912.61957	7190.3125
916.40671	7199.7125
920.19121	7254.4125
923.97308	7347.6125
927.75233	7451.9125
931.52895	7544.9125
935.30295	7448.5125
939.07433	7277.7125
942.84309	7163.3125
946.60924	7104.7125
950.37278	7099.5125
954.13371	7078.4125
957.89203	7039.2125
961.64774	7010.4125
965.40086	6995.7125
969.15137	6977.0125
972.89929	6967.4125
976.64461	6965.6125
980.38733	6975.1125
984.12747	6995.7125
987.86502	7044.1125
991.59999	7128.3125
995.33237	7224.4125
999.06217	7393.4125
1002.78939	7593.9125
1006.51404	7707.4125
1010.23611	7804.6125
1013.95561	7881.7125
1017.67255	7923.0125
1021.38692	7901.0125
1025.09872	7869.3125
1028.80796	7908.0125
1032.51465	8027.9125
1036.21877	8162.4125
1039.92035	8167.5125
1043.61937	8071.4125
1047.31584	7937.0125
1051.00976	7794.7125
1054.70114	7746.0125
1058.38998	7741.3125
1062.07627	7770.2125
1065.76003	7779.7125
1069.44126	7837.0125
1073.11995	7963.0125
1076.79611	8119.6125
1080.46974	8228.0125
1084.14085	8383.8125
1087.80943	8506.5125
1091.47549	8515.5125
1095.13903	8406.6125
1098.80005	8298.6125
1102.45857	8254.4125
1106.11456	8249.4125
1109.76805	8234.8125
1113.41903	8277.0125
1117.06751	8436.6125
1120.71348	8646.5125
1124.35696	8923.0125
1127.99793	9057.2125
1131.63641	8883.3125
1135.2724	8558.8125
1138.90589	8276.6125
1142.5369	8099.1125
1146.16542	7990.8125
1149.79145	7917.0125
1153.415	7857.7125
1157.03607	7869.4125
1160.65467	7961.6125
1164.27079	8168.6125
1167.88443	8478.6125
1171.49561	8967.5125
1175.10432	9753.7125
1178.71056	10755.4125
1182.31434	11580.5125
1185.91565	11858.9125
1189.51451	11657.0125
1193.11091	11223.7125
1196.70485	10678.7125
1200.29634	10262.8125
1203.88538	9872.1125
1207.47197	9378.1125
1211.05612	9000.8125
1214.63782	8735.5125
1218.21708	8561.8125
1221.79391	8549.5125
1225.36829	8565.1125
1228.94024	8552.9125
1232.50976	8477.2125
1236.07685	8406.2125
1239.6415	8426.4125
1243.20374	8469.8125
1246.76355	8508.8125
1250.32093	8646.6125
1253.8759	8835.9125
1257.42845	9085.9125
1260.97859	9402.4125
1264.52631	9674.8125
1268.07163	9914.3125
1271.61453	10048.3125
1275.15503	10151.4125
1278.69312	10233.1125
1282.22882	10346.1125
1285.76211	10538.3125
1289.29301	10739.8125
1292.82151	10931.1125
1296.34761	11187.3125
1299.87133	11698.3125
1303.39266	12516.5125
1306.9116	13764.2125
1310.42815	15057.1125
1313.94233	15532.2125
1317.45412	14937.8125
1320.96354	13820.7125
1324.47058	12763.9125
1327.97525	11923.3125
1331.47754	11401.5125
1334.97747	11252.6125
1338.47502	11401.9125
1341.97022	11819.9125
1345.46305	12492.7125
1348.95352	13359.0125
1352.44163	14425.5125
1355.92738	15667.9125
1359.41078	17302.0125
1362.89183	18467.5125
1366.37053	17453.5125
1369.84688	14833.9125
1373.32088	12442.0125
1376.79254	11114.8125
1380.26186	10490.5125
1383.72883	10117.2125
1387.19347	9777.2125
1390.65578	9407.2125
1394.11575	9124.1125
1397.57339	8918.7125
1401.0287	8861.0125
1404.48168	8843.5125
1407.93234	8933.1125
1411.38068	9090.9125
1414.82669	9265.1125
1418.27039	9321.5125
1421.71177	9246.8125
1425.15083	9170.6125
1428.58758	9151.6125
1432.02203	9248.2125
1435.45416	9343.9125
1438.88399	9357.2125
1442.31151	9295.0125
1445.73673	9279.5125
1449.15965	9246.3125
1452.58027	9145.6125
1455.9986	9048.5125
1459.41463	8985.9125
1462.82837	9069.3125
1466.23982	9228.5125
1469.64898	9399.1125
1473.05586	9563.4125
1476.46045	9686.1125
1479.86276	9832.5125
1483.26279	9985.1125
1486.66054	10190.8125
1490.05602	10541.7125
1493.44922	11018.2125
1496.84016	11823.1125
1500.22882	12936.0125
1503.61521	14364.2125
1506.99934	15820.9125
1510.38121	16779.1125
1513.76081	16583.1125
1517.13816	15261.3125
1520.51324	13450.4125
1523.88607	11986.6125
1527.25665	11061.3125
1530.62498	10538.1125
1533.99105	10270.6125
1537.35488	10117.7125
1540.71647	9986.6125
1544.07581	9865.5125
1547.4329	9737.3125
1550.78776	9660.5125
1554.14038	9605.3125
1557.49077	9672.3125
1560.83892	9826.5125
1564.18484	10088.6125
1567.52853	10383.2125
1570.86999	10560.6125
1574.20922	10566.5125
1577.54624	10358.3125
1580.88103	9892.0125
1584.2136	9355.7125
1587.54395	9140.6125
1590.87208	9294.6125
1594.19801	9805.1125
1597.52172	10423.4125
1600.84321	10690.9125
1604.16251	10488.1125
1607.47959	10068.7125
1610.79447	9562.4125
1614.10715	8973.1125
1617.41763	8420.8125
1620.7259	8134.3125
1624.03199	7990.1125
1627.33587	7961.8125
1630.63757	8145.9125
1633.93707	8566.3125
1637.23439	9231.9125
1640.52951	10190.2125
1643.82246	11463.6125
1647.11321	12661.8125
1650.40179	13127.0125
1653.68819	12322.8125
1656.97241	10686.6125
1660.25446	9148.5125
1663.53433	8127.3125
1666.81203	7515.4125
1670.08756	7165.2125
1673.36092	6947.1125
1676.63211	6791.3125
1679.90115	6701.1125
1683.16801	6612.7125
1686.43272	6561.3125
1689.69527	6515.3125
1692.95567	6480.2125
1696.2139	6460.8125
1699.46999	6444.8125
1702.72392	6440.5125
1705.97571	6450.9125
1709.22535	6443.3125
1712.47284	6451.6125
1715.71819	6431.0125
1718.96139	6425.4125
1722.20246	6416.2125
1725.44139	6372.2125
1728.67818	6329.1125
1731.91284	6281.2125
1735.14537	6234.6125
1738.37576	6245.1125
1741.60403	6210.3125
1744.83017	6191.9125
1748.05418	6175.9125
1751.27607	6153.8125
1754.49584	6145.3125
1757.71349	6138.2125
1760.92903	6131.8125
1764.14244	6102.6125
1767.35375	6099.6125
1770.56294	6090.6125
1773.77002	6056.6125
1776.97499	6053.5125
1780.17785	6030.6125
1783.37861	6000.8125
1786.57727	6013.6125
1789.77382	6001.2125
1792.96828	5982.7125
1796.16064	5952.0125
1799.3509	5978.0125
1802.53907	5956.2125
1805.72514	5938.3125
1808.90913	5933.2125
1812.09102	5910.9125
1815.27083	5887.6125
1818.44856	5891.6125
1821.6242	5867.7125
1824.79776	5863.4125
1827.96924	5832.4125
1831.13864	5827.8125
1834.30597	5811.5125
1837.47122	5797.7125
1840.6344	5806.6125
1843.7955	5818.9125
1846.95454	5773.5125
1850.11151	5786.4125
1853.26642	5773.8125
1856.41926	5784.9125
1859.57004	5760.9125
1862.71876	5769.5125
1865.86542	5749.4125
1869.01003	5757.0125
1872.15258	5756.1125
1875.29308	5753.9125
1878.43152	5742.6125
1881.56792	5747.1125
1884.70227	5730.4125
1887.83457	5729.1125
1890.96482	5713.8125
1894.09304	5698.5125
1897.21921	5692.6125
1900.34335	5680.8125
1903.46544	5675.2125
1906.58551	5646.0125
1909.70353	5636.6125
1912.81953	5643.3125
1915.93349	5645.2125
1919.04543	5624.2125
1922.15534	5614.5125
1925.26322	5602.6125
1928.36908	5593.8125
1931.47292	5597.2125
1934.57473	5573.9125
1937.67453	5553.1125
1940.77232	5521.5125
1943.86808	5524.3125
1946.96184	5535.7125
1950.05358	5476.8125
1953.14331	5476.3125
1956.23103	5456.2125
1959.31675	5426.6125
1962.40046	5439.3125
1965.48217	5412.2125
1968.56188	5403.6125
1971.63959	5394.6125
1974.7153	5388.9125
1977.78901	5357.9125
1980.86073	5349.7125
1983.93046	5324.5125
1986.99819	5297.1125
1990.06394	5292.9125
1993.1277	5264.9125
1996.18947	5248.1125
1999.24925	5240.1125
2002.30706	5213.0125
2005.36288	5184.5125
2008.41672	5171.3125
2011.46859	5162.1125
2014.51848	5146.3125
2017.56639	5125.3125
2020.61233	5127.8125
2023.6563	5107.5125
2026.6983	5083.2125
2029.73833	5064.2125
2032.7764	5056.6125
2035.8125	5031.6125
2038.84664	5036.9125
2041.87881	5038.5125
2044.90903	5024.4125
2047.93729	4999.3125
2050.96359	4993.8125
2053.98794	5001.7125
2057.01034	4980.6125
2060.03078	4994.7125
2063.04927	4981.6125
2066.06582	4981.3125
2069.08042	4958.3125
2072.09307	4943.1125
2075.10378	4929.0125
2078.11255	4924.5125
2081.11938	4950.5125
2084.12426	4935.1125
2087.12722	4939.4125
2090.12824	4949.5125
2093.12732	4916.4125
2096.12447	4935.7125
2099.11969	4936.9125
2102.11299	4940.4125
2105.10435	4930.7125
2108.09379	4928.2125
2111.08131	4929.0125
2114.0669	4929.7125
2117.05057	4933.6125
2120.03233	4932.6125
2123.01216	4930.2125
2125.99008	4942.2125
2128.96609	4958.9125
2131.94018	4957.5125
2134.91236	4948.1125
2137.88263	4943.6125
2140.851	4947.0125
2143.81746	4949.3125
2146.78201	4936.6125
2149.74466	4932.5125
2152.7054	4932.6125
2155.66425	4917.5125
2158.6212	4940.7125
2161.57625	4922.0125
2164.52941	4910.9125
2167.48067	4922.6125
2170.43004	4940.1125
2173.37752	4925.1125
2176.32311	4933.3125
2179.26681	4921.3125
2182.20863	4917.1125
2185.14856	4911.7125
2188.08661	4916.8125
2191.02278	4901.1125
2193.95707	4892.3125
2196.88948	4899.1125
2199.82001	4894.3125
2202.74867	4890.4125
2205.67545	4889.0125
2208.60037	4878.1125
2211.52341	4878.4125
2214.44458	4901.8125
2217.36388	4869.2125
2220.28132	4855.6125
2223.1969	4830.2125
2226.11061	4814.0125
2229.02246	4814.3125
2231.93245	4804.4125
2234.84058	4803.3125
2237.74686	4792.3125
2240.65128	4782.4125
2243.55385	4785.7125
2246.45456	4749.5125
2249.35343	4749.9125
2252.25044	4758.6125
2255.14561	4753.6125
2258.03893	4754.3125
2260.93041	4735.3125
2263.82004	4741.9125
2266.70783	4709.4125
2269.59378	4703.4125
2272.4779	4679.5125
2275.36017	4676.5125
2278.24061	4652.1125
2281.11922	4652.2125
2283.996	4631.3125
2286.87094	4625.1125
2289.74405	4632.9125
2292.61534	4622.0125
2295.4848	4627.9125
2298.35243	4617.3125
2301.21824	4616.6125
2304.08223	4614.4125
2306.94439	4628.3125
2309.80474	4616.5125
2312.66327	4620.5125
2315.51999	4616.4125
2318.37489	4607.9125
2321.22797	4606.9125
2324.07925	4584.3125
2326.92871	4570.9125
2329.77637	4583.7125
2332.62222	4570.0125
2335.46626	4555.9125
2338.3085	4565.3125
2341.14893	4567.3125
2343.98756	4562.2125
2346.8244	4574.5125
2349.65943	4561.6125
2352.49267	4539.6125
2355.32411	4552.4125
2358.15376	4564.1125
2360.98161	4549.1125
2363.80768	4566.3125
2366.63195	4545.3125
2369.45444	4539.3125
2372.27514	4541.0125
2375.09405	4515.9125
2377.91118	4509.2125
2380.72652	4512.0125
2383.54009	4474.0125
2386.35187	4464.3125
2389.16188	4478.4125
2391.97011	4456.3125
2394.77657	4445.8125
2397.58125	4433.1125
2400.38416	4435.3125
2403.18529	4399.7125
2405.98466	4411.1125
2408.78226	4382.4125
2411.57809	4392.2125
2414.37216	4366.0125
2417.16446	4371.7125
2419.955	4362.3125
2422.74378	4360.3125
2425.5308	4366.0125
2428.31606	4348.5125
2431.09956	4352.7125
2433.88131	4333.4125
2436.6613	4340.9125
2439.43954	4336.8125
2442.21603	4349.9125
2444.99077	4336.0125
2447.76377	4332.0125
2450.53501	4325.4125
2453.30451	4341.1125
2456.07226	4332.5125
2458.83827	4335.3125
2461.60254	4323.2125
2464.36507	4315.4125
2467.12586	4323.5125
2469.88492	4301.4125
2472.64224	4301.9125
2475.39782	4291.2125
2478.15167	4297.0125
2480.90379	4286.2125
2483.65417	4310.1125
2486.40283	4311.6125
2489.14976	4326.7125
2491.89497	4307.8125
2494.63845	4329.2125
2497.3802	4295.9125
2500.12024	4295.6125
2502.85855	4291.9125
2505.59514	4282.6125
2508.33002	4271.6125
2511.06318	4259.0125
2513.79462	4244.6125
2516.52435	4229.6125
2519.25237	4235.3125
2521.97867	4213.9125
2524.70327	4209.6125
2527.42616	4214.5125
2530.14734	4215.0125
2532.86681	4207.4125
2535.58458	4226.1125
2538.30065	4219.2125
2541.01501	4214.1125
2543.72768	4208.7125
2546.43864	4201.7125
2549.14791	4188.8125
2551.85548	4177.9125
2554.56136	4167.3125
2557.26554	4159.5125
2559.96803	4152.2125
2562.66883	4150.3125
2565.36794	4145.5125
2568.06536	4132.2125
2570.7611	4125.5125
2573.45514	4121.2125
2576.14751	4112.6125
2578.83819	4108.2125
2581.52719	4110.3125
2584.21451	4086.8125
2586.90015	4090.4125
2589.58411	4084.1125
2592.2664	4089.8125
2594.94701	4089.2125
2597.62594	4091.5125
2600.30321	4066.1125
2602.9788	4084.7125
2605.65273	4073.6125
2608.32498	4058.1125
2610.99557	4053.1125
2613.66449	4065.3125
2616.33175	4048.1125
2618.99734	4066.3125
2621.66128	4043.3125
2624.32355	4039.9125
2626.98416	4042.3125
2629.64311	4022.9125
2632.30041	4026.3125
2634.95605	4025.8125
2637.61004	4013.8125
2640.26238	4004.0125
2642.91306	3998.6125
2645.56209	3994.9125
2648.20948	4000.9125
2650.85521	3983.5125
2653.4993	3982.5125
2656.14175	3979.2125
2658.78255	3995.9125
2661.42171	3966.2125
2664.05923	3985.7125
2666.6951	3986.3125
2669.32934	3978.9125
2671.96194	3976.2125
2674.59291	3989.5125
2677.22224	3978.2125
2679.84993	3984.0125
2682.476	3984.8125
2685.10043	3968.0125
2687.72324	3980.6125
2690.34441	3956.5125
2692.96396	3944.8125
2695.58188	3954.4125
2698.19818	3962.5125
2700.81285	3949.3125
2703.4259	3956.0125
2706.03733	3975.6125
2708.64714	3958.3125
2711.25533	3953.5125
2713.86191	3930.0125
2716.46687	3949.2125
2719.07021	3935.1125
2721.67194	3942.3125
2724.27206	3943.2125
2726.87057	3941.0125
2729.46747	3930.5125
2732.06276	3936.1125
2734.65644	3923.2125
2737.24852	3921.3125
2739.83899	3926.7125
2742.42786	3917.6125
2745.01513	3913.7125
2747.60079	3903.5125
2750.18486	3897.0125
2752.76733	3918.3125
2755.3482	3879.1125
2757.92747	3883.5125
2760.50515	3878.5125
2763.08123	3880.1125
2765.65573	3870.4125
2768.22863	3848.1125
2770.79994	3840.1125
2773.36967	3844.3125
2775.9378	3848.6125
2778.50435	3853.4125
2781.06932	3860.1125
2783.6327	3842.9125
2786.1945	3841.7125
2788.75471	3836.5125
2791.31335	3826.8125
2793.87041	3818.5125
2796.42589	3811.4125
2798.97979	3806.8125
2801.53212	3790.2125
2804.08288	3801.7125
2806.63206	3785.9125
2809.17967	3789.4125
2811.72571	3765.6125
2814.27018	3765.5125
2816.81308	3754.1125
2819.35442	3764.3125
2821.89419	3754.1125
2824.43239	3726.9125
2826.96904	3743.5125
2829.50412	3738.9125
2832.03763	3739.4125
2834.56959	3722.6125
2837.1	3704.3125
2839.62884	3704.7125
2842.15613	3692.7125
2844.68186	3687.0125
2847.20604	3702.1125
2849.72867	3677.8125
2852.24974	3700.3125
2854.76927	3682.2125
2857.28724	3664.5125
2859.80367	3668.8125
2862.31855	3666.0125
2864.83189	3665.8125
2867.34368	3667.5125
2869.85393	3664.7125
2872.36264	3657.7125
2874.8698	3648.4125
2877.37543	3657.8125
2879.87952	3644.9125
2882.38207	3632.4125
2884.88308	3641.7125
2887.38256	3636.7125
2889.88051	3620.4125
2892.37692	3631.7125
2894.8718	3607.7125
2897.36515	3615.0125
2899.85698	3617.6125
2902.34727	3633.6125
2904.83604	3633.0125
2907.32328	3643.1125
2909.809	3641.7125
2912.29319	3651.7125
2914.77587	3643.9125
2917.25702	3653.6125
2919.73665	3645.0125
2922.21476	3646.8125
2924.69136	3620.4125
2927.16644	3609.9125
2929.64	3612.7125
2932.11205	3606.8125
2934.58258	3599.8125
2937.05161	3592.3125
2939.51912	3603.7125
2941.98513	3576.8125
2944.44962	3581.6125
2946.91261	3570.6125
2949.37409	3576.9125
2951.83407	3567.4125
2954.29254	3583.9125
2956.74951	3564.1125
2959.20498	3578.6125
2961.65895	3555.6125
2964.11142	3546.8125
2966.56239	3534.4125
2969.01186	3545.2125
2971.45984	3540.5125
2973.90632	3535.2125
2976.35131	3528.1125
2978.7948	3523.5125
2981.23681	3510.0125
2983.67732	3512.5125
2986.11635	3501.6125
2988.55388	3496.4125
2990.98993	3480.1125
2993.4245	3477.7125
2995.85758	3453.8125
2998.28917	3471.7125
3000.71928	3462.5125
3003.14791	3448.9125
3005.57506	3441.5125
3008.00073	3429.4125
3010.42493	3431.0125
3012.84764	3428.3125
3015.26888	3420.0125
3017.68865	3403.2125
3020.10694	3388.4125
3022.52376	3375.1125
3024.9391	3369.2125
3027.35298	3369.4125
3029.76539	3359.8125
3032.17632	3363.6125
3034.5858	3339.9125
3036.9938	3332.3125
3039.40034	3332.3125
3041.80542	3318.5125
3044.20903	3329.1125
3046.61118	3317.3125
3049.01187	3295.0125
3051.4111	3286.8125
3053.80888	3281.3125
3056.20519	3285.4125
3058.60005	3276.2125
3060.99345	3279.6125
3063.3854	3274.8125
3065.7759	3262.2125
3068.16494	3237.4125
3070.55254	3220.8125
3072.93868	3230.4125
3075.32338	3222.9125
3077.70662	3214.1125
3080.08842	3195.8125
3082.46878	3188.4125
3084.84769	3190.5125
3087.22515	3179.4125
3089.60118	3169.7125
3091.97576	3176.2125
3094.3489	3167.1125
3096.72061	3166.4125
3099.09087	3164.9125
3101.4597	3173.1125
3103.82709	3163.5125
3106.19305	3162.2125
3108.55757	3149.0125
3110.92066	3145.1125
3113.28232	3150.0125
3115.64255	3135.3125
3118.00134	3125.6125
3120.35871	3128.8125
