Data from AgNPs_UA_10uM_CRN_500uM_SU_RamanShift__80__13-18-40-270.txt Node

Date: Thu Aug 04 13:18:40 BST 2022
User: TCL
Spectrometer: QEP01345
Trigger mode: 4
Integration Time (sec): 1.000000E0
Scans to average: 10
Electric dark correction enabled: true
Nonlinearity correction enabled: false
Boxcar width: 0
XAxis mode: Raman Shifts
Number of Pixels in Spectrum: 1044
>>>>>Begin Spectral Data<<<<<
46.04893	-0.3625
50.45542	-0.0625
54.85868	-0.1625
59.25871	-0.2625
63.6555	22.0375
68.04907	23.5375
72.43941	24.2375
76.82654	24.7375
81.21044	24.5375
85.59113	25.5375
89.96862	26.8375
94.34289	27.9375
98.71396	26.9375
103.08183	30.7375
107.4465	29.3375
111.80798	30.7375
116.16626	31.8375
120.52136	33.6375
124.87327	37.5375
129.222	38.7375
133.56755	39.4375
137.90993	43.5375
142.24913	49.6375
146.58517	58.0375
150.91804	64.2375
155.24774	80.4375
159.57429	101.7375
163.89768	131.4375
168.21792	176.3375
172.53501	240.4375
176.84895	344.4375
181.15975	481.9375
185.46741	687.4375
189.77193	948.6375
194.07331	1283.6375
198.37157	1650.0375
202.6667	2030.0375
206.9587	2424.1375
211.24758	2805.3375
215.53334	3202.7375
219.81599	3620.0375
224.09553	4079.0375
228.37195	4605.7375
232.64527	5140.0375
236.91549	5687.4375
241.18261	6205.6375
245.44663	6623.8375
249.70755	6997.9375
253.96539	7327.3375
258.22014	7595.8375
262.4718	7842.5375
266.72039	8004.6375
270.96589	8047.2375
275.20832	8026.1375
279.44768	7934.0375
283.68397	7827.7375
287.91719	7724.0375
292.14735	7713.5375
296.37445	7814.1375
300.59849	7966.6375
304.81948	8180.8375
309.03742	8371.6375
313.25231	8453.8375
317.46415	8386.3375
321.67296	8144.0375
325.87872	7959.0375
330.08145	7811.7375
334.28114	7818.9375
338.47781	7896.1375
342.67145	8016.3375
346.86207	8210.2375
351.04966	8477.3375
355.23424	8769.3375
359.4158	8995.2375
363.59435	9129.4375
367.76989	9189.7375
371.94243	9234.7375
376.11196	9257.4375
380.27849	9257.4375
384.44203	9325.5375
388.60257	9374.0375
392.76012	9466.3375
396.91468	9593.4375
401.06626	9737.4375
405.21485	9805.6375
409.36047	9731.4375
413.50311	9520.7375
417.64277	9293.8375
421.77947	9145.3375
425.9132	9091.6375
430.04396	9099.0375
434.17176	9121.7375
438.2966	9254.4375
442.41849	9392.1375
446.53742	9636.3375
450.6534	9844.3375
454.76644	10002.6375
458.87653	10076.0375
462.98368	10075.8375
467.08789	9989.3375
471.18916	9831.3375
475.2875	9627.7375
479.38291	9464.7375
483.4754	9341.6375
487.56496	9255.9375
491.6516	9220.5375
495.73531	9204.5375
499.81612	9262.5375
503.89401	9344.4375
507.96899	9369.4375
512.04106	9418.0375
516.11023	9453.9375
520.1765	9491.3375
524.23987	9517.0375
528.30034	9513.1375
532.35792	9501.0375
536.41261	9419.3375
540.46441	9331.6375
544.51333	9309.4375
548.55936	9363.7375
552.60252	9500.0375
556.64279	9651.7375
560.6802	9742.4375
564.71473	9797.5375
568.7464	9850.1375
572.7752	9833.0375
576.80114	9642.5375
580.82422	9520.6375
584.84444	9509.8375
588.86181	9564.4375
592.87633	9664.7375
596.888	9840.5375
600.89682	10251.8375
604.9028	11265.5375
608.90594	13224.8375
612.90624	15002.7375
616.90371	13847.9375
620.89834	11268.4375
624.89015	10278.4375
628.87913	10244.6375
632.86528	10312.1375
636.84862	10334.5375
640.82913	10092.8375
644.80683	9729.6375
648.78172	9554.6375
652.75379	9590.5375
656.72306	9835.9375
660.68952	10121.2375
664.65319	10100.7375
668.61405	10021.8375
672.57211	10116.9375
676.52738	10093.4375
680.47986	9896.0375
684.42955	9687.3375
688.37646	9683.6375
692.32058	9770.0375
696.26192	9948.4375
700.20048	10100.9375
704.13626	10160.8375
708.06928	10011.1375
711.99952	9897.1375
715.927	9874.9375
719.85171	9946.8375
723.77365	9942.4375
727.69284	9872.0375
731.60928	9800.3375
735.52295	9809.3375
739.43388	9842.8375
743.34206	9904.6375
747.24749	9918.0375
751.15017	9917.7375
755.05012	10042.2375
758.94733	10313.1375
762.8418	10992.9375
766.73354	12025.6375
770.62254	12861.1375
774.50882	13109.4375
778.39237	12758.0375
782.27321	12031.7375
786.15132	11202.7375
790.02671	10594.4375
793.89938	10268.5375
797.76935	10088.0375
801.6366	10005.8375
805.50115	9955.8375
809.36299	9900.5375
813.22213	9908.1375
817.07857	9906.3375
820.93231	9902.8375
824.78336	9894.7375
828.63172	9908.9375
832.47738	9923.7375
836.32036	9898.7375
840.16066	9924.0375
843.99827	9935.6375
847.8332	9959.6375
851.66546	9961.7375
855.49504	9966.1375
859.32195	9973.6375
863.1462	9946.4375
866.96777	9927.1375
870.78668	9951.7375
874.60293	9970.2375
878.41652	10013.5375
882.22745	10089.6375
886.03573	10146.8375
889.84136	10143.1375
893.64433	10094.3375
897.44466	10069.7375
901.24235	10045.8375
905.0374	10027.2375
908.8298	9998.9375
912.61957	9978.7375
916.40671	10012.1375
920.19121	10040.5375
923.97308	10116.7375
927.75233	10202.5375
931.52895	10270.3375
935.30295	10222.2375
939.07433	10067.6375
942.84309	9996.1375
946.60924	9947.7375
950.37278	9958.7375
954.13371	9904.7375
957.89203	9875.3375
961.64774	9887.7375
965.40086	9874.2375
969.15137	9843.9375
972.89929	9861.2375
976.64461	9865.1375
980.38733	9855.3375
984.12747	9923.6375
987.86502	9959.4375
991.59999	10049.8375
995.33237	10143.0375
999.06217	10327.1375
1002.78939	10503.6375
1006.51404	10690.6375
1010.23611	10769.8375
1013.95561	10880.8375
1017.67255	10964.3375
1021.38692	10984.0375
1025.09872	10964.8375
1028.80796	10955.2375
1032.51465	11082.3375
1036.21877	11136.7375
1039.92035	11167.4375
1043.61937	11102.5375
1047.31584	10996.0375
1051.00976	10923.9375
1054.70114	10866.8375
1058.38998	10928.0375
1062.07627	10965.0375
1065.76003	11041.1375
1069.44126	11124.0375
1073.11995	11275.9375
1076.79611	11456.8375
1080.46974	11578.7375
1084.14085	11668.0375
1087.80943	11739.4375
1091.47549	11780.7375
1095.13903	11726.4375
1098.80005	11748.8375
1102.45857	11855.0375
1106.11456	11853.2375
1109.76805	11688.2375
1113.41903	11690.1375
1117.06751	11774.1375
1120.71348	11900.8375
1124.35696	12065.1375
1127.99793	12123.4375
1131.63641	11974.4375
1135.2724	11740.1375
1138.90589	11514.4375
1142.5369	11330.9375
1146.16542	11204.1375
1149.79145	11143.2375
1153.415	11075.1375
1157.03607	11078.5375
1160.65467	11163.6375
1164.27079	11393.3375
1167.88443	11728.6375
1171.49561	12255.5375
1175.10432	12964.8375
1178.71056	13870.8375
1182.31434	14731.2375
1185.91565	15180.9375
1189.51451	15235.3375
1193.11091	15087.6375
1196.70485	14720.8375
1200.29634	14297.1375
1203.88538	13844.4375
1207.47197	13351.1375
1211.05612	12853.3375
1214.63782	12454.3375
1218.21708	12232.4375
1221.79391	12144.2375
1225.36829	12140.4375
1228.94024	12119.5375
1232.50976	12072.9375
1236.07685	12065.4375
1239.6415	12104.0375
1243.20374	12149.9375
1246.76355	12213.7375
1250.32093	12329.2375
1253.8759	12505.0375
1257.42845	12823.1375
1260.97859	13171.0375
1264.52631	13481.3375
1268.07163	13718.0375
1271.61453	13880.7375
1275.15503	13998.6375
1278.69312	14060.3375
1282.22882	14154.4375
1285.76211	14290.0375
1289.29301	14415.8375
1292.82151	14626.7375
1296.34761	14901.0375
1299.87133	15306.1375
1303.39266	16063.5375
1306.9116	17137.0375
1310.42815	18275.5375
1313.94233	18799.0375
1317.45412	18432.7375
1320.96354	17665.8375
1324.47058	16816.0375
1327.97525	16074.9375
1331.47754	15634.8375
1334.97747	15559.4375
1338.47502	15798.4375
1341.97022	16305.0375
1345.46305	17066.1375
1348.95352	18053.3375
1352.44163	19080.3375
1355.92738	20122.6375
1359.41078	21237.3375
1362.89183	21845.3375
1366.37053	20742.2375
1369.84688	18332.9375
1373.32088	16135.9375
1376.79254	14874.4375
1380.26186	14264.0375
1383.72883	13917.1375
1387.19347	13583.8375
1390.65578	13220.9375
1394.11575	12880.5375
1397.57339	12663.5375
1401.0287	12578.0375
1404.48168	12617.2375
1407.93234	12779.9375
1411.38068	13019.5375
1414.82669	13212.4375
1418.27039	13249.4375
1421.71177	13149.0375
1425.15083	13041.0375
1428.58758	13039.1375
1432.02203	13113.5375
1435.45416	13169.4375
1438.88399	13158.8375
1442.31151	13072.7375
1445.73673	13051.4375
1449.15965	13032.2375
1452.58027	12987.5375
1455.9986	12928.6375
1459.41463	12914.9375
1462.82837	13011.5375
1466.23982	13211.4375
1469.64898	13470.7375
1473.05586	13584.4375
1476.46045	13770.0375
1479.86276	13943.6375
1483.26279	14084.7375
1486.66054	14283.3375
1490.05602	14633.5375
1493.44922	15174.2375
1496.84016	15917.4375
1500.22882	16972.2375
1503.61521	18151.5375
1506.99934	19240.5375
1510.38121	19809.3375
1513.76081	19464.7375
1517.13816	18266.2375
1520.51324	16765.9375
1523.88607	15581.6375
1527.25665	14890.9375
1530.62498	14512.0375
1533.99105	14358.2375
1537.35488	14246.7375
1540.71647	14133.9375
1544.07581	14022.5375
1547.4329	13903.2375
1550.78776	13775.9375
1554.14038	13622.4375
1557.49077	13576.7375
1560.83892	13675.3375
1564.18484	13851.2375
1567.52853	14061.8375
1570.86999	14183.9375
1574.20922	14206.1375
1577.54624	14023.4375
1580.88103	13619.2375
1584.2136	13169.6375
1587.54395	12976.0375
1590.87208	13144.3375
1594.19801	13706.1375
1597.52172	14362.1375
1600.84321	14706.0375
1604.16251	14623.0375
1607.47959	14265.5375
1610.79447	13718.0375
1614.10715	13061.7375
1617.41763	12405.7375
1620.7259	11927.2375
1624.03199	11668.6375
1627.33587	11624.9375
1630.63757	11807.6375
1633.93707	12246.5375
1637.23439	12989.2375
1640.52951	14045.2375
1643.82246	15286.8375
1647.11321	16306.4375
1650.40179	16533.5375
1653.68819	15567.1375
1656.97241	13919.3375
1660.25446	12439.5375
1663.53433	11445.6375
1666.81203	10846.1375
1670.08756	10473.4375
1673.36092	10269.0375
1676.63211	10094.0375
1679.90115	9972.2375
1683.16801	9883.6375
1686.43272	9800.0375
1689.69527	9744.0375
1692.95567	9715.1375
1696.2139	9671.6375
1699.46999	9633.4375
1702.72392	9638.5375
1705.97571	9618.9375
1709.22535	9614.1375
1712.47284	9627.2375
1715.71819	9637.3375
1718.96139	9615.8375
1722.20246	9610.9375
1725.44139	9582.9375
1728.67818	9509.0375
1731.91284	9485.2375
1735.14537	9427.2375
1738.37576	9408.6375
1741.60403	9370.6375
1744.83017	9316.3375
1748.05418	9340.2375
1751.27607	9316.6375
1754.49584	9295.1375
1757.71349	9291.6375
1760.92903	9290.5375
1764.14244	9277.6375
1767.35375	9229.9375
1770.56294	9203.2375
1773.77002	9221.5375
1776.97499	9198.1375
1780.17785	9147.8375
1783.37861	9155.6375
1786.57727	9115.7375
1789.77382	9137.6375
1792.96828	9112.8375
1796.16064	9096.1375
1799.3509	9076.7375
1802.53907	9068.8375
1805.72514	9057.2375
1808.90913	9048.1375
1812.09102	9016.5375
1815.27083	8970.4375
1818.44856	8945.3375
1821.6242	8937.5375
1824.79776	8918.2375
1827.96924	8919.7375
1831.13864	8922.6375
1834.30597	8880.3375
1837.47122	8858.5375
1840.6344	8852.4375
1843.7955	8869.0375
1846.95454	8856.1375
1850.11151	8854.0375
1853.26642	8852.4375
1856.41926	8833.5375
1859.57004	8847.6375
1862.71876	8834.5375
1865.86542	8830.9375
1869.01003	8831.5375
1872.15258	8815.5375
1875.29308	8811.9375
1878.43152	8787.5375
1881.56792	8765.9375
1884.70227	8773.8375
1887.83457	8741.1375
1890.96482	8732.5375
1894.09304	8719.1375
1897.21921	8697.9375
1900.34335	8702.9375
1903.46544	8678.2375
1906.58551	8687.1375
1909.70353	8668.8375
1912.81953	8683.1375
1915.93349	8657.1375
1919.04543	8639.4375
1922.15534	8594.5375
1925.26322	8598.8375
1928.36908	8580.0375
1931.47292	8563.2375
1934.57473	8542.1375
1937.67453	8535.1375
1940.77232	8518.6375
1943.86808	8494.5375
1946.96184	8475.6375
1950.05358	8445.3375
1953.14331	8412.7375
1956.23103	8402.2375
1959.31675	8357.1375
1962.40046	8356.5375
1965.48217	8301.0375
1968.56188	8291.0375
1971.63959	8268.3375
1974.7153	8248.8375
1977.78901	8251.1375
1980.86073	8215.2375
1983.93046	8168.5375
1986.99819	8149.8375
1990.06394	8155.4375
1993.1277	8093.5375
1996.18947	8067.7375
1999.24925	8049.6375
2002.30706	8002.3375
2005.36288	7989.3375
2008.41672	7964.7375
2011.46859	7941.4375
2014.51848	7903.4375
2017.56639	7898.6375
2020.61233	7866.9375
2023.6563	7839.3375
2026.6983	7831.5375
2029.73833	7795.4375
2032.7764	7760.7375
2035.8125	7780.3375
2038.84664	7749.6375
2041.87881	7745.6375
2044.90903	7729.4375
2047.93729	7724.9375
2050.96359	7695.6375
2053.98794	7683.5375
2057.01034	7671.9375
2060.03078	7665.0375
2063.04927	7657.0375
2066.06582	7643.4375
2069.08042	7641.4375
2072.09307	7634.8375
2075.10378	7625.8375
2078.11255	7614.0375
2081.11938	7576.0375
2084.12426	7581.9375
2087.12722	7600.1375
2090.12824	7587.4375
2093.12732	7599.2375
2096.12447	7598.0375
2099.11969	7598.4375
2102.11299	7616.3375
2105.10435	7582.5375
2108.09379	7598.1375
2111.08131	7589.4375
2114.0669	7582.7375
2117.05057	7599.6375
2120.03233	7604.2375
2123.01216	7619.4375
2125.99008	7591.4375
2128.96609	7613.6375
2131.94018	7643.0375
2134.91236	7632.3375
2137.88263	7625.9375
2140.851	7637.7375
2143.81746	7635.1375
2146.78201	7629.5375
2149.74466	7630.0375
2152.7054	7619.9375
2155.66425	7623.5375
2158.6212	7618.4375
2161.57625	7611.9375
2164.52941	7592.2375
2167.48067	7600.6375
2170.43004	7595.9375
2173.37752	7580.6375
2176.32311	7579.0375
2179.26681	7597.3375
2182.20863	7591.5375
2185.14856	7609.1375
2188.08661	7571.4375
2191.02278	7598.9375
2193.95707	7602.2375
2196.88948	7588.7375
2199.82001	7565.3375
2202.74867	7580.4375
2205.67545	7582.3375
2208.60037	7559.3375
2211.52341	7543.3375
2214.44458	7534.6375
2217.36388	7515.2375
2220.28132	7513.8375
2223.1969	7472.2375
2226.11061	7435.8375
2229.02246	7433.9375
2231.93245	7415.5375
2234.84058	7404.8375
2237.74686	7407.8375
2240.65128	7379.1375
2243.55385	7378.7375
2246.45456	7367.2375
2249.35343	7344.4375
2252.25044	7334.9375
2255.14561	7342.1375
2258.03893	7341.4375
2260.93041	7310.3375
2263.82004	7287.6375
2266.70783	7279.2375
2269.59378	7255.5375
2272.4779	7243.4375
2275.36017	7222.2375
2278.24061	7188.1375
2281.11922	7186.5375
2283.996	7158.3375
2286.87094	7159.3375
2289.74405	7149.9375
2292.61534	7149.7375
2295.4848	7125.8375
2298.35243	7122.9375
2301.21824	7123.9375
2304.08223	7092.1375
2306.94439	7108.2375
2309.80474	7113.5375
2312.66327	7109.8375
2315.51999	7088.2375
2318.37489	7094.5375
2321.22797	7078.4375
2324.07925	7053.5375
2326.92871	7046.1375
2329.77637	7027.0375
2332.62222	7028.4375
2335.46626	7028.4375
2338.3085	7010.0375
2341.14893	7013.5375
2343.98756	7025.1375
2346.8244	7021.3375
2349.65943	6995.2375
2352.49267	6989.6375
2355.32411	6988.3375
2358.15376	6974.1375
2360.98161	6982.2375
2363.80768	6978.8375
2366.63195	6966.4375
2369.45444	6964.7375
2372.27514	6944.4375
2375.09405	6956.9375
2377.91118	6911.2375
2380.72652	6900.9375
2383.54009	6883.5375
2386.35187	6877.5375
2389.16188	6853.2375
2391.97011	6833.2375
2394.77657	6813.2375
2397.58125	6798.8375
2400.38416	6793.2375
2403.18529	6793.0375
2405.98466	6781.7375
2408.78226	6779.2375
2411.57809	6749.7375
2414.37216	6730.7375
2417.16446	6738.4375
2419.955	6724.6375
2422.74378	6727.6375
2425.5308	6707.8375
2428.31606	6709.1375
2431.09956	6686.4375
2433.88131	6697.7375
2436.6613	6698.1375
2439.43954	6674.1375
2442.21603	6685.6375
2444.99077	6681.6375
2447.76377	6680.8375
2450.53501	6682.7375
2453.30451	6655.1375
2456.07226	6642.1375
2458.83827	6629.2375
2461.60254	6618.2375
2464.36507	6597.4375
2467.12586	6591.9375
2469.88492	6592.2375
2472.64224	6586.7375
2475.39782	6601.2375
2478.15167	6600.2375
2480.90379	6560.5375
2483.65417	6578.1375
2486.40283	6565.3375
2489.14976	6583.7375
2491.89497	6581.0375
2494.63845	6589.0375
2497.3802	6574.4375
2500.12024	6559.1375
2502.85855	6527.2375
2505.59514	6554.1375
2508.33002	6540.2375
2511.06318	6521.1375
2513.79462	6486.3375
2516.52435	6487.9375
2519.25237	6484.3375
2521.97867	6477.6375
2524.70327	6475.9375
2527.42616	6454.0375
2530.14734	6444.1375
2532.86681	6447.3375
2535.58458	6459.6375
2538.30065	6431.8375
2541.01501	6436.2375
2543.72768	6419.3375
2546.43864	6412.3375
2549.14791	6403.5375
2551.85548	6388.5375
2554.56136	6410.2375
2557.26554	6381.0375
2559.96803	6353.5375
2562.66883	6347.6375
2565.36794	6328.7375
2568.06536	6315.8375
2570.7611	6291.1375
2573.45514	6281.8375
2576.14751	6281.7375
2578.83819	6270.7375
2581.52719	6251.3375
2584.21451	6258.6375
2586.90015	6260.9375
2589.58411	6242.4375
2592.2664	6235.2375
2594.94701	6252.7375
2597.62594	6220.5375
2600.30321	6203.6375
2602.9788	6209.0375
2605.65273	6194.1375
2608.32498	6179.3375
2610.99557	6172.2375
2613.66449	6184.0375
2616.33175	6168.1375
2618.99734	6177.0375
2621.66128	6152.7375
2624.32355	6141.8375
2626.98416	6143.9375
2629.64311	6120.9375
2632.30041	6130.4375
2634.95605	6114.7375
2637.61004	6094.7375
2640.26238	6083.6375
2642.91306	6084.9375
2645.56209	6080.2375
2648.20948	6074.8375
2650.85521	6075.5375
2653.4993	6070.6375
2656.14175	6044.9375
2658.78255	6063.5375
2661.42171	6044.8375
2664.05923	6050.9375
2666.6951	6061.6375
2669.32934	6074.8375
2671.96194	6075.7375
2674.59291	6076.8375
2677.22224	6073.4375
2679.84993	6063.9375
2682.476	6077.7375
2685.10043	6068.6375
2687.72324	6047.4375
2690.34441	6067.7375
2692.96396	6051.2375
2695.58188	6051.5375
2698.19818	6040.7375
2700.81285	6019.7375
2703.4259	6034.6375
2706.03733	6007.5375
2708.64714	6010.0375
2711.25533	6012.0375
2713.86191	5992.2375
2716.46687	6004.9375
2719.07021	6013.5375
2721.67194	6029.6375
2724.27206	6023.2375
2726.87057	5997.7375
2729.46747	6011.9375
2732.06276	6012.5375
2734.65644	6012.6375
2737.24852	5995.3375
2739.83899	5972.1375
2742.42786	5981.3375
2745.01513	5955.3375
2747.60079	5947.0375
2750.18486	5948.9375
2752.76733	5962.6375
2755.3482	5930.7375
2757.92747	5933.3375
2760.50515	5943.5375
2763.08123	5915.2375
2765.65573	5901.1375
2768.22863	5873.7375
2770.79994	5868.6375
2773.36967	5869.3375
2775.9378	5868.4375
2778.50435	5858.0375
2781.06932	5856.2375
2783.6327	5836.1375
2786.1945	5857.9375
2788.75471	5844.0375
2791.31335	5827.8375
2793.87041	5808.9375
2796.42589	5800.7375
2798.97979	5794.4375
2801.53212	5768.0375
2804.08288	5760.5375
2806.63206	5742.1375
2809.17967	5738.8375
2811.72571	5745.7375
2814.27018	5718.5375
2816.81308	5696.1375
2819.35442	5688.6375
2821.89419	5688.7375
2824.43239	5673.7375
2826.96904	5684.1375
2829.50412	5675.4375
2832.03763	5655.3375
2834.56959	5660.2375
2837.1	5631.4375
2839.62884	5626.6375
2842.15613	5625.5375
2844.68186	5616.9375
2847.20604	5590.5375
2849.72867	5593.0375
2852.24974	5588.0375
2854.76927	5560.1375
2857.28724	5560.9375
2859.80367	5543.4375
2862.31855	5544.2375
2864.83189	5540.0375
2867.34368	5533.6375
2869.85393	5532.6375
2872.36264	5546.6375
2874.8698	5512.1375
2877.37543	5531.4375
2879.87952	5501.1375
2882.38207	5507.7375
2884.88308	5495.4375
2887.38256	5493.5375
2889.88051	5493.2375
2892.37692	5483.6375
2894.8718	5482.3375
2897.36515	5487.2375
2899.85698	5468.1375
2902.34727	5484.7375
2904.83604	5481.3375
2907.32328	5479.3375
2909.809	5473.6375
2912.29319	5491.1375
2914.77587	5493.2375
2917.25702	5502.8375
2919.73665	5507.5375
2922.21476	5498.7375
2924.69136	5470.7375
2927.16644	5466.6375
2929.64	5464.6375
2932.11205	5452.6375
2934.58258	5411.3375
2937.05161	5437.8375
2939.51912	5430.1375
2941.98513	5435.6375
2944.44962	5414.6375
2946.91261	5400.7375
2949.37409	5429.8375
2951.83407	5397.8375
2954.29254	5394.3375
2956.74951	5379.9375
2959.20498	5379.8375
2961.65895	5372.7375
2964.11142	5385.2375
2966.56239	5384.5375
2969.01186	5374.7375
2971.45984	5381.1375
2973.90632	5362.9375
2976.35131	5357.7375
2978.7948	5352.5375
2981.23681	5323.3375
2983.67732	5315.1375
2986.11635	5300.7375
2988.55388	5295.9375
2990.98993	5268.3375
2993.4245	5259.9375
2995.85758	5245.0375
2998.28917	5230.8375
3000.71928	5230.4375
3003.14791	5209.2375
3005.57506	5198.3375
3008.00073	5174.7375
3010.42493	5174.7375
3012.84764	5170.6375
3015.26888	5168.6375
3017.68865	5133.4375
3020.10694	5144.0375
3022.52376	5126.7375
3024.9391	5099.9375
3027.35298	5083.4375
3029.76539	5076.4375
3032.17632	5082.0375
3034.5858	5070.8375
3036.9938	5069.9375
3039.40034	5039.6375
3041.80542	5032.6375
3044.20903	5027.9375
3046.61118	5025.7375
3049.01187	4997.7375
3051.4111	5006.4375
3053.80888	4983.0375
3056.20519	4967.0375
3058.60005	4937.7375
3060.99345	4942.2375
3063.3854	4940.8375
3065.7759	4917.0375
3068.16494	4914.9375
3070.55254	4894.6375
3072.93868	4868.8375
3075.32338	4846.1375
3077.70662	4850.8375
3080.08842	4839.6375
3082.46878	4832.5375
3084.84769	4807.0375
3087.22515	4812.8375
3089.60118	4797.7375
3091.97576	4797.7375
3094.3489	4799.1375
3096.72061	4778.8375
3099.09087	4786.7375
3101.4597	4777.6375
