Data from AgNPs_UA_20uM_CRN_500uM_SU_RamanShift__25__13-40-40-296.txt Node

Date: Thu Aug 04 13:40:40 BST 2022
User: TCL
Spectrometer: QEP01345
Trigger mode: 4
Integration Time (sec): 1.000000E0
Scans to average: 10
Electric dark correction enabled: true
Nonlinearity correction enabled: false
Boxcar width: 0
XAxis mode: Raman Shifts
Number of Pixels in Spectrum: 1044
>>>>>Begin Spectral Data<<<<<
46.04893	-1.425
50.45542	0.875
54.85868	0.475
59.25871	-0.125
63.6555	16.575
68.04907	13.475
72.43941	17.775
76.82654	17.675
81.21044	17.675
85.59113	21.475
89.96862	20.775
94.34289	20.775
98.71396	20.575
103.08183	22.175
107.4465	20.275
111.80798	23.375
116.16626	25.875
120.52136	26.975
124.87327	25.375
129.222	30.375
133.56755	29.675
137.90993	34.775
142.24913	36.575
146.58517	41.375
150.91804	47.575
155.24774	62.175
159.57429	73.875
163.89768	98.975
168.21792	134.475
172.53501	184.975
176.84895	258.275
181.15975	373.175
185.46741	527.075
189.77193	723.675
194.07331	979.775
198.37157	1263.175
202.6667	1579.675
206.9587	1879.075
211.24758	2181.475
215.53334	2500.675
219.81599	2853.175
224.09553	3242.375
228.37195	3688.775
232.64527	4144.875
236.91549	4596.775
241.18261	4980.975
245.44663	5264.375
249.70755	5491.775
253.96539	5662.675
258.22014	5790.375
262.4718	5904.575
266.72039	6009.175
270.96589	6014.875
275.20832	5958.175
279.44768	5840.175
283.68397	5748.575
287.91719	5697.775
292.14735	5723.275
296.37445	5871.775
300.59849	6113.575
304.81948	6444.075
309.03742	6764.775
313.25231	6934.475
317.46415	6882.575
321.67296	6557.575
325.87872	6173.075
330.08145	6000.675
334.28114	5952.575
338.47781	6030.175
342.67145	6169.575
346.86207	6394.875
351.04966	6688.875
355.23424	7000.275
359.4158	7192.975
363.59435	7291.075
367.76989	7240.275
371.94243	7214.875
376.11196	7094.675
380.27849	7061.475
384.44203	7007.475
388.60257	6990.675
392.76012	7051.575
396.91468	7152.475
401.06626	7291.575
405.21485	7323.075
409.36047	7171.975
413.50311	6858.875
417.64277	6572.875
421.77947	6407.475
425.9132	6330.275
430.04396	6356.075
434.17176	6395.275
438.2966	6480.775
442.41849	6566.775
446.53742	6717.675
450.6534	6859.275
454.76644	6918.475
458.87653	6897.675
462.98368	6885.175
467.08789	6817.575
471.18916	6726.175
475.2875	6576.675
479.38291	6451.775
483.4754	6370.275
487.56496	6313.775
491.6516	6286.275
495.73531	6298.475
499.81612	6310.975
503.89401	6356.975
507.96899	6420.875
512.04106	6507.575
516.11023	6588.675
520.1765	6644.075
524.23987	6677.575
528.30034	6629.475
532.35792	6613.575
536.41261	6552.475
540.46441	6433.075
544.51333	6408.975
548.55936	6453.575
552.60252	6560.875
556.64279	6677.275
560.6802	6762.075
564.71473	6886.575
568.7464	7038.175
572.7752	6997.575
576.80114	6772.275
580.82422	6566.375
584.84444	6464.375
588.86181	6469.475
592.87633	6485.975
596.888	6628.175
600.89682	6992.275
604.9028	7944.275
608.90594	10037.275
612.90624	12178.175
616.90371	11188.275
620.89834	8233.775
624.89015	6951.875
628.87913	6776.075
632.86528	6971.775
636.84862	7112.775
640.82913	6983.875
644.80683	6687.175
648.78172	6481.275
652.75379	6511.075
656.72306	6735.075
660.68952	6982.775
664.65319	6874.475
668.61405	6650.575
672.57211	6625.575
676.52738	6638.675
680.47986	6539.775
684.42955	6412.075
688.37646	6343.975
692.32058	6389.975
696.26192	6512.075
700.20048	6610.675
704.13626	6642.975
708.06928	6610.375
711.99952	6567.575
715.927	6541.475
719.85171	6586.475
723.77365	6597.175
727.69284	6573.475
731.60928	6508.375
735.52295	6491.175
739.43388	6499.075
743.34206	6547.675
747.24749	6539.075
751.15017	6573.375
755.05012	6652.675
758.94733	6970.975
762.8418	7813.675
766.73354	9083.475
770.62254	10022.875
774.50882	10128.075
778.39237	9547.775
782.27321	8656.975
786.15132	7673.675
790.02671	7012.275
793.89938	6705.575
797.76935	6572.075
801.6366	6500.775
805.50115	6460.875
809.36299	6426.575
813.22213	6421.475
817.07857	6430.275
820.93231	6424.575
824.78336	6448.775
828.63172	6480.175
832.47738	6479.875
836.32036	6433.975
840.16066	6413.875
843.99827	6412.275
847.8332	6409.075
851.66546	6426.775
855.49504	6442.975
859.32195	6429.375
863.1462	6431.875
866.96777	6433.575
870.78668	6435.275
874.60293	6467.375
878.41652	6498.975
882.22745	6544.075
886.03573	6593.975
889.84136	6588.275
893.64433	6573.675
897.44466	6552.275
901.24235	6528.975
905.0374	6513.575
908.8298	6462.975
912.61957	6443.875
916.40671	6442.575
920.19121	6481.175
923.97308	6543.275
927.75233	6620.675
931.52895	6687.775
935.30295	6612.775
939.07433	6471.475
942.84309	6353.375
946.60924	6326.375
950.37278	6295.775
954.13371	6300.975
957.89203	6290.075
961.64774	6312.575
965.40086	6292.475
969.15137	6272.475
972.89929	6271.475
976.64461	6261.675
980.38733	6285.575
984.12747	6304.275
987.86502	6325.575
991.59999	6361.875
995.33237	6407.075
999.06217	6481.575
1002.78939	6606.975
1006.51404	6786.375
1010.23611	6919.775
1013.95561	6954.075
1017.67255	6940.675
1021.38692	6908.475
1025.09872	6805.075
1028.80796	6685.475
1032.51465	6673.275
1036.21877	6671.775
1039.92035	6731.975
1043.61937	6769.675
1047.31584	6811.975
1051.00976	6814.575
1054.70114	6808.975
1058.38998	6817.175
1062.07627	6841.575
1065.76003	6921.675
1069.44126	7014.975
1073.11995	7165.875
1076.79611	7336.675
1080.46974	7455.875
1084.14085	7595.775
1087.80943	7723.875
1091.47549	7827.375
1095.13903	7792.975
1098.80005	7681.875
1102.45857	7553.375
1106.11456	7418.075
1109.76805	7352.175
1113.41903	7364.275
1117.06751	7518.875
1120.71348	7767.675
1124.35696	8061.575
1127.99793	8287.575
1131.63641	8119.675
1135.2724	7787.275
1138.90589	7527.375
1142.5369	7397.675
1146.16542	7368.175
1149.79145	7326.875
1153.415	7197.175
1157.03607	7133.575
1160.65467	7197.975
1164.27079	7343.375
1167.88443	7612.875
1171.49561	7982.575
1175.10432	8640.675
1178.71056	9539.175
1182.31434	10309.875
1185.91565	10512.275
1189.51451	10335.975
1193.11091	10077.975
1196.70485	9773.275
1200.29634	9554.075
1203.88538	9249.775
1207.47197	8893.075
1211.05612	8490.075
1214.63782	8229.775
1218.21708	7979.975
1221.79391	7790.375
1225.36829	7686.775
1228.94024	7653.975
1232.50976	7625.175
1236.07685	7641.475
1239.6415	7679.475
1243.20374	7709.375
1246.76355	7778.475
1250.32093	7893.275
1253.8759	8035.175
1257.42845	8303.375
1260.97859	8572.775
1264.52631	8798.675
1268.07163	8937.775
1271.61453	9048.175
1275.15503	9103.575
1278.69312	9092.575
1282.22882	9081.375
1285.76211	9192.375
1289.29301	9428.475
1292.82151	9644.675
1296.34761	9903.275
1299.87133	10304.975
1303.39266	10970.675
1306.9116	11948.875
1310.42815	13044.675
1313.94233	13313.775
1317.45412	12667.075
1320.96354	11700.575
1324.47058	10832.175
1327.97525	10101.775
1331.47754	9672.375
1334.97747	9619.275
1338.47502	9752.675
1341.97022	10148.775
1345.46305	10904.775
1348.95352	11954.375
1352.44163	13125.875
1355.92738	14358.275
1359.41078	15889.475
1362.89183	17243.375
1366.37053	16510.975
1369.84688	13871.475
1373.32088	11411.575
1376.79254	10049.475
1380.26186	9422.475
1383.72883	9037.675
1387.19347	8702.375
1390.65578	8396.775
1394.11575	8136.875
1397.57339	7934.575
1401.0287	7807.675
1404.48168	7741.575
1407.93234	7727.475
1411.38068	7799.675
1414.82669	7902.175
1418.27039	7945.475
1421.71177	7897.075
1425.15083	7792.675
1428.58758	7740.075
1432.02203	7810.875
1435.45416	7888.875
1438.88399	7946.975
1442.31151	7993.675
1445.73673	8038.375
1449.15965	8094.875
1452.58027	8063.275
1455.9986	8013.375
1459.41463	7989.075
1462.82837	8084.275
1466.23982	8259.475
1469.64898	8446.475
1473.05586	8606.975
1476.46045	8681.875
1479.86276	8769.075
1483.26279	8881.475
1486.66054	9083.375
1490.05602	9421.875
1493.44922	9947.675
1496.84016	10764.575
1500.22882	12037.675
1503.61521	13641.175
1506.99934	15220.875
1510.38121	16136.075
1513.76081	15851.275
1517.13816	14424.675
1520.51324	12537.975
1523.88607	11060.575
1527.25665	10204.975
1530.62498	9794.275
1533.99105	9566.675
1537.35488	9471.375
1540.71647	9375.875
1544.07581	9274.375
1547.4329	9171.575
1550.78776	9065.775
1554.14038	8921.675
1557.49077	8882.475
1560.83892	8967.375
1564.18484	9209.075
1567.52853	9558.675
1570.86999	9827.875
1574.20922	9982.675
1577.54624	9805.575
1580.88103	9288.475
1584.2136	8673.075
1587.54395	8295.675
1590.87208	8244.775
1594.19801	8490.075
1597.52172	8850.575
1600.84321	9049.775
1604.16251	8999.275
1607.47959	8817.975
1610.79447	8534.875
1614.10715	8135.575
1617.41763	7727.775
1620.7259	7405.175
1624.03199	7245.675
1627.33587	7198.875
1630.63757	7259.275
1633.93707	7499.375
1637.23439	7921.875
1640.52951	8618.575
1643.82246	9647.875
1647.11321	10826.375
1650.40179	11518.475
1653.68819	11144.875
1656.97241	9868.075
1660.25446	8491.175
1663.53433	7489.575
1666.81203	6906.675
1670.08756	6587.775
1673.36092	6403.575
1676.63211	6250.475
1679.90115	6160.875
1683.16801	6086.075
1686.43272	6027.375
1689.69527	5996.575
1692.95567	5968.775
1696.2139	5937.575
1699.46999	5904.475
1702.72392	5911.475
1705.97571	5918.775
1709.22535	5915.975
1712.47284	5890.775
1715.71819	5899.175
1718.96139	5897.175
1722.20246	5882.975
1725.44139	5843.975
1728.67818	5820.875
1731.91284	5777.675
1735.14537	5738.575
1738.37576	5730.475
1741.60403	5708.975
1744.83017	5681.275
1748.05418	5683.875
1751.27607	5643.275
1754.49584	5641.875
1757.71349	5630.775
1760.92903	5620.775
1764.14244	5621.175
1767.35375	5595.875
1770.56294	5587.075
1773.77002	5566.275
1776.97499	5562.275
1780.17785	5537.175
1783.37861	5500.275
1786.57727	5504.175
1789.77382	5508.175
1792.96828	5487.075
1796.16064	5459.775
1799.3509	5453.275
1802.53907	5460.775
1805.72514	5423.675
1808.90913	5430.375
1812.09102	5411.975
1815.27083	5410.775
1818.44856	5375.975
1821.6242	5368.775
1824.79776	5379.575
1827.96924	5365.775
1831.13864	5339.475
1834.30597	5341.475
1837.47122	5335.875
1840.6344	5312.475
1843.7955	5285.075
1846.95454	5281.575
1850.11151	5281.775
1853.26642	5303.175
1856.41926	5294.975
1859.57004	5291.475
1862.71876	5271.675
1865.86542	5268.175
1869.01003	5253.575
1872.15258	5256.375
1875.29308	5262.075
1878.43152	5242.975
1881.56792	5239.975
1884.70227	5206.775
1887.83457	5230.275
1890.96482	5238.375
1894.09304	5209.175
1897.21921	5195.375
1900.34335	5196.575
1903.46544	5192.575
1906.58551	5180.475
1909.70353	5182.375
1912.81953	5172.675
1915.93349	5150.975
1919.04543	5140.775
1922.15534	5144.975
1925.26322	5111.375
1928.36908	5120.675
1931.47292	5107.575
1934.57473	5095.575
1937.67453	5080.275
1940.77232	5066.475
1943.86808	5050.475
1946.96184	5035.675
1950.05358	5021.575
1953.14331	5019.275
1956.23103	4996.075
1959.31675	4978.375
1962.40046	4972.675
1965.48217	4933.975
1968.56188	4925.175
1971.63959	4937.275
1974.7153	4908.375
1977.78901	4889.275
1980.86073	4877.875
1983.93046	4866.275
1986.99819	4835.575
1990.06394	4831.375
1993.1277	4814.575
1996.18947	4804.975
1999.24925	4790.575
2002.30706	4757.875
2005.36288	4758.575
2008.41672	4726.875
2011.46859	4723.575
2014.51848	4710.275
2017.56639	4679.375
2020.61233	4673.675
2023.6563	4662.175
2026.6983	4663.775
2029.73833	4639.175
2032.7764	4636.075
2035.8125	4618.975
2038.84664	4606.975
2041.87881	4598.675
2044.90903	4573.675
2047.93729	4575.675
2050.96359	4566.275
2053.98794	4572.375
2057.01034	4556.475
2060.03078	4536.675
2063.04927	4533.575
2066.06582	4541.475
2069.08042	4534.375
2072.09307	4530.675
2075.10378	4528.875
2078.11255	4527.775
2081.11938	4513.775
2084.12426	4511.475
2087.12722	4494.875
2090.12824	4520.475
2093.12732	4514.075
2096.12447	4512.575
2099.11969	4500.675
2102.11299	4520.375
2105.10435	4519.775
2108.09379	4520.575
2111.08131	4503.775
2114.0669	4515.775
2117.05057	4512.475
2120.03233	4514.575
2123.01216	4512.475
2125.99008	4506.575
2128.96609	4546.475
2131.94018	4546.375
2134.91236	4555.375
2137.88263	4524.575
2140.851	4520.575
2143.81746	4522.275
2146.78201	4527.475
2149.74466	4520.575
2152.7054	4494.875
2155.66425	4517.675
2158.6212	4517.275
2161.57625	4523.475
2164.52941	4522.375
2167.48067	4508.075
2170.43004	4512.175
2173.37752	4496.975
2176.32311	4507.975
2179.26681	4489.675
2182.20863	4498.875
2185.14856	4490.775
2188.08661	4486.975
2191.02278	4500.375
2193.95707	4495.775
2196.88948	4483.675
2199.82001	4464.775
2202.74867	4480.675
2205.67545	4476.275
2208.60037	4472.975
2211.52341	4450.375
2214.44458	4447.075
2217.36388	4431.675
2220.28132	4417.375
2223.1969	4398.175
2226.11061	4393.875
2229.02246	4383.075
2231.93245	4375.775
2234.84058	4371.275
2237.74686	4351.475
2240.65128	4363.875
2243.55385	4363.675
2246.45456	4352.075
2249.35343	4343.975
2252.25044	4345.275
2255.14561	4342.975
2258.03893	4329.775
2260.93041	4346.775
2263.82004	4319.575
2266.70783	4328.275
2269.59378	4317.475
2272.4779	4295.575
2275.36017	4281.675
2278.24061	4274.375
2281.11922	4258.275
2283.996	4257.875
2286.87094	4231.875
2289.74405	4233.375
2292.61534	4228.975
2295.4848	4233.975
2298.35243	4216.675
2301.21824	4218.475
2304.08223	4213.475
2306.94439	4215.475
2309.80474	4214.475
2312.66327	4194.675
2315.51999	4179.375
2318.37489	4181.875
2321.22797	4183.075
2324.07925	4165.475
2326.92871	4157.175
2329.77637	4167.675
2332.62222	4153.275
2335.46626	4152.075
2338.3085	4139.275
2341.14893	4121.375
2343.98756	4122.475
2346.8244	4145.375
2349.65943	4131.775
2352.49267	4132.675
2355.32411	4129.175
2358.15376	4123.075
2360.98161	4139.675
2363.80768	4126.375
2366.63195	4139.475
2369.45444	4116.275
2372.27514	4128.875
2375.09405	4120.375
2377.91118	4116.875
2380.72652	4109.775
2383.54009	4100.575
2386.35187	4077.975
2389.16188	4071.075
2391.97011	4064.175
2394.77657	4039.475
2397.58125	4026.675
2400.38416	4019.275
2403.18529	4023.675
2405.98466	4026.975
2408.78226	4014.475
2411.57809	3996.575
2414.37216	3988.575
2417.16446	3996.675
2419.955	3979.175
2422.74378	3989.875
2425.5308	3984.775
2428.31606	3971.575
2431.09956	3975.875
2433.88131	3970.175
2436.6613	3966.675
2439.43954	3969.075
2442.21603	3970.175
2444.99077	3962.775
2447.76377	3961.075
2450.53501	3951.575
2453.30451	3962.775
2456.07226	3943.775
2458.83827	3955.175
2461.60254	3944.675
2464.36507	3938.975
2467.12586	3933.475
2469.88492	3942.275
2472.64224	3938.175
2475.39782	3924.875
2478.15167	3929.075
2480.90379	3930.675
2483.65417	3931.775
2486.40283	3945.675
2489.14976	3917.775
2491.89497	3944.175
2494.63845	3943.275
2497.3802	3933.675
2500.12024	3922.575
2502.85855	3905.475
2505.59514	3895.375
2508.33002	3889.375
2511.06318	3877.675
2513.79462	3858.975
2516.52435	3840.775
2519.25237	3858.175
2521.97867	3846.775
2524.70327	3828.875
2527.42616	3819.175
2530.14734	3827.575
2532.86681	3829.075
2535.58458	3812.775
2538.30065	3809.275
2541.01501	3817.775
2543.72768	3810.075
2546.43864	3810.075
2549.14791	3801.575
2551.85548	3813.175
2554.56136	3808.175
2557.26554	3797.375
2559.96803	3793.375
2562.66883	3771.775
2565.36794	3760.475
2568.06536	3751.575
2570.7611	3738.675
2573.45514	3741.075
2576.14751	3738.375
2578.83819	3720.875
2581.52719	3713.375
2584.21451	3707.375
2586.90015	3687.875
2589.58411	3674.575
2592.2664	3687.075
2594.94701	3681.275
2597.62594	3680.375
2600.30321	3674.475
2602.9788	3662.875
2605.65273	3650.575
2608.32498	3650.475
2610.99557	3644.475
2613.66449	3642.175
2616.33175	3644.775
2618.99734	3615.275
2621.66128	3622.175
2624.32355	3625.375
2626.98416	3621.375
2629.64311	3606.575
2632.30041	3596.175
2634.95605	3598.775
2637.61004	3570.075
2640.26238	3576.475
2642.91306	3565.675
2645.56209	3568.075
2648.20948	3573.775
2650.85521	3568.675
2653.4993	3555.175
2656.14175	3575.975
2658.78255	3566.475
2661.42171	3570.175
2664.05923	3569.975
2666.6951	3572.275
2669.32934	3582.175
2671.96194	3559.375
2674.59291	3574.275
2677.22224	3569.975
2679.84993	3580.175
2682.476	3568.975
2685.10043	3546.075
2687.72324	3550.475
2690.34441	3557.875
2692.96396	3558.675
2695.58188	3547.775
2698.19818	3550.075
2700.81285	3555.675
2703.4259	3544.075
2706.03733	3544.875
2708.64714	3537.775
2711.25533	3513.875
2713.86191	3527.875
2716.46687	3539.075
2719.07021	3544.475
2721.67194	3553.475
2724.27206	3551.875
2726.87057	3526.475
2729.46747	3540.575
2732.06276	3530.375
2734.65644	3528.375
2737.24852	3531.175
2739.83899	3524.275
2742.42786	3517.675
2745.01513	3517.475
2747.60079	3513.975
2750.18486	3495.675
2752.76733	3496.975
2755.3482	3487.275
2757.92747	3487.975
2760.50515	3471.975
2763.08123	3467.375
2765.65573	3446.775
2768.22863	3446.675
2770.79994	3437.575
2773.36967	3446.075
2775.9378	3445.175
2778.50435	3437.375
2781.06932	3424.675
2783.6327	3424.475
2786.1945	3410.975
2788.75471	3408.675
2791.31335	3413.175
2793.87041	3397.975
2796.42589	3390.975
2798.97979	3390.875
2801.53212	3376.575
2804.08288	3383.375
2806.63206	3379.675
2809.17967	3377.475
2811.72571	3361.975
2814.27018	3387.475
2816.81308	3360.875
2819.35442	3350.275
2821.89419	3345.675
2824.43239	3338.775
2826.96904	3321.875
2829.50412	3322.575
2832.03763	3313.875
2834.56959	3299.375
2837.1	3295.975
2839.62884	3299.275
2842.15613	3291.575
2844.68186	3291.175
2847.20604	3290.075
2849.72867	3287.675
2852.24974	3276.075
2854.76927	3255.275
2857.28724	3247.775
2859.80367	3250.975
2862.31855	3254.875
2864.83189	3254.275
2867.34368	3260.075
2869.85393	3245.575
2872.36264	3243.975
2874.8698	3237.675
2877.37543	3239.375
2879.87952	3228.075
2882.38207	3240.075
2884.88308	3204.275
2887.38256	3218.675
2889.88051	3197.675
2892.37692	3218.675
2894.8718	3196.575
2897.36515	3213.875
2899.85698	3197.575
2902.34727	3204.075
2904.83604	3196.775
2907.32328	3218.975
2909.809	3208.575
2912.29319	3226.775
2914.77587	3211.075
2917.25702	3213.975
2919.73665	3218.475
2922.21476	3214.175
2924.69136	3214.475
2927.16644	3222.675
2929.64	3199.175
2932.11205	3192.475
2934.58258	3170.175
2937.05161	3173.875
2939.51912	3173.675
2941.98513	3153.075
2944.44962	3151.775
2946.91261	3146.175
2949.37409	3157.775
2951.83407	3159.575
2954.29254	3160.375
2956.74951	3147.675
2959.20498	3140.975
2961.65895	3139.375
2964.11142	3138.375
2966.56239	3127.975
2969.01186	3149.175
2971.45984	3128.175
2973.90632	3130.675
2976.35131	3121.675
2978.7948	3117.675
2981.23681	3106.175
2983.67732	3099.675
2986.11635	3089.675
2988.55388	3092.175
2990.98993	3079.575
2993.4245	3087.875
2995.85758	3078.275
2998.28917	3071.875
3000.71928	3054.075
3003.14791	3050.775
3005.57506	3037.575
3008.00073	3032.875
3010.42493	3032.975
3012.84764	3017.175
3015.26888	3010.275
3017.68865	3002.075
3020.10694	3007.075
3022.52376	3000.375
3024.9391	2988.075
3027.35298	2972.775
3029.76539	2963.175
3032.17632	2959.675
3034.5858	2951.975
3036.9938	2961.675
3039.40034	2939.575
3041.80542	2926.075
3044.20903	2932.375
3046.61118	2927.675
3049.01187	2913.575
3051.4111	2905.075
3053.80888	2912.775
3056.20519	2899.575
3058.60005	2897.775
3060.99345	2890.375
3063.3854	2880.675
3065.7759	2869.275
3068.16494	2871.875
3070.55254	2870.475
3072.93868	2853.175
3075.32338	2845.875
3077.70662	2838.275
3080.08842	2818.275
3082.46878	2820.775
3084.84769	2800.475
3087.22515	2796.775
3089.60118	2802.975
3091.97576	2800.975
3094.3489	2800.475
3096.72061	2793.375
3099.09087	2788.375
3101.4597	2798.975
3103.82709	2792.675
3106.19305	2768.675
3108.55757	2776.175
3110.92066	2775.675
3113.28232	2773.775
3115.64255	2756.175
3118.00134	2745.775
3120.35871	2734.075
3122.71466	2725.175
3125.06917	2748.575
3127.42226	2729.775
3129.77393	2727.075
3132.12417	2726.175
3134.47299	2718.375
3136.82039	2703.575
3139.16636	2709.275
3141.51092	2704.975
3143.85406	2702.875
3146.19579	2705.675
3148.53609	2697.975
3150.87499	2712.175
3153.21246	2691.375
3155.54853	2700.375
3157.88318	2692.675
3160.21642	2697.075
3162.54826	2702.875
3164.87868	2690.075
3167.2077	2682.075
3169.5353	2677.075
3171.86151	2682.675
3174.18631	2674.575
3176.5097	2662.375
3178.83169	2649.775
3181.15228	2644.575
3183.47147	2646.075
3185.78926	2644.975
3188.10565	2636.875
3190.42065	2637.775
3192.73424	2636.275
3195.04645	2611.075
3197.35725	2609.675
3199.66667	2605.975
3201.97469	2608.775
3204.28132	2611.875
3206.58656	2610.375
3208.8904	2606.675
3211.19287	2615.175
3213.49394	2626.775
3215.79363	2617.875
3218.09193	2612.875
3220.38884	2603.875
3222.68438	2606.675
3224.97853	2598.675
3227.2713	2606.075
3229.56269	2597.275
3231.8527	2587.375
3234.14133	2580.475
3236.42858	2578.375
