Data from AgNPs_UA_10uM_CRN_500uM_SU_RamanShift__133__13-27-30-280.txt Node

Date: Thu Aug 04 13:27:30 BST 2022
User: TCL
Spectrometer: QEP01345
Trigger mode: 4
Integration Time (sec): 1.000000E0
Scans to average: 10
Electric dark correction enabled: true
Nonlinearity correction enabled: false
Boxcar width: 0
XAxis mode: Raman Shifts
Number of Pixels in Spectrum: 1044
>>>>>Begin Spectral Data<<<<<
46.04893	-0.6625
50.45542	-0.4625
54.85868	-0.1625
59.25871	1.1375
63.6555	20.3375
68.04907	20.0375
72.43941	19.9375
76.82654	22.2375
81.21044	22.2375
85.59113	24.5375
89.96862	25.0375
94.34289	26.5375
98.71396	27.3375
103.08183	29.5375
107.4465	27.8375
111.80798	28.8375
116.16626	29.3375
120.52136	33.5375
124.87327	33.7375
129.222	36.9375
133.56755	37.3375
137.90993	41.2375
142.24913	46.9375
146.58517	51.9375
150.91804	61.5375
155.24774	76.0375
159.57429	96.4375
163.89768	124.0375
168.21792	169.6375
172.53501	231.2375
176.84895	325.6375
181.15975	462.3375
185.46741	657.6375
189.77193	915.4375
194.07331	1227.6375
198.37157	1580.4375
202.6667	1950.8375
206.9587	2319.2375
211.24758	2689.1375
215.53334	3076.7375
219.81599	3468.5375
224.09553	3915.9375
228.37195	4418.5375
232.64527	4925.5375
236.91549	5468.8375
241.18261	5937.7375
245.44663	6350.0375
249.70755	6647.4375
253.96539	6937.0375
258.22014	7188.6375
262.4718	7393.6375
266.72039	7540.7375
270.96589	7611.7375
275.20832	7586.1375
279.44768	7468.4375
283.68397	7337.6375
287.91719	7269.7375
292.14735	7286.1375
296.37445	7377.4375
300.59849	7598.3375
304.81948	7856.3375
309.03742	8097.4375
313.25231	8193.9375
317.46415	8113.7375
321.67296	7824.4375
325.87872	7539.5375
330.08145	7377.2375
334.28114	7392.4375
338.47781	7476.5375
342.67145	7630.8375
346.86207	7819.9375
351.04966	8122.6375
355.23424	8447.7375
359.4158	8666.3375
363.59435	8794.8375
367.76989	8864.5375
371.94243	8851.1375
376.11196	8844.6375
380.27849	8836.3375
384.44203	8840.7375
388.60257	8897.7375
392.76012	8923.5375
396.91468	9061.1375
401.06626	9192.2375
405.21485	9257.9375
409.36047	9122.3375
413.50311	8860.1375
417.64277	8591.4375
421.77947	8450.3375
425.9132	8404.1375
430.04396	8387.8375
434.17176	8468.1375
438.2966	8609.7375
442.41849	8800.4375
446.53742	9032.1375
450.6534	9273.4375
454.76644	9388.3375
458.87653	9439.4375
462.98368	9399.7375
467.08789	9251.5375
471.18916	9069.5375
475.2875	8845.3375
479.38291	8661.2375
483.4754	8546.0375
487.56496	8479.1375
491.6516	8401.8375
495.73531	8402.7375
499.81612	8419.6375
503.89401	8515.1375
507.96899	8567.6375
512.04106	8597.6375
516.11023	8672.6375
520.1765	8729.0375
524.23987	8748.0375
528.30034	8734.0375
532.35792	8733.6375
536.41261	8617.2375
540.46441	8519.1375
544.51333	8493.9375
548.55936	8558.5375
552.60252	8649.7375
556.64279	8819.8375
560.6802	8951.3375
564.71473	9018.4375
568.7464	9150.0375
572.7752	9151.1375
576.80114	8964.6375
580.82422	8819.5375
584.84444	8817.1375
588.86181	8931.8375
592.87633	9060.6375
596.888	9257.7375
600.89682	9604.7375
604.9028	10633.4375
608.90594	12769.6375
612.90624	14827.5375
616.90371	13584.2375
620.89834	10650.1375
624.89015	9560.9375
628.87913	9485.6375
632.86528	9532.2375
636.84862	9486.7375
640.82913	9213.6375
644.80683	8833.1375
648.78172	8646.8375
652.75379	8685.7375
656.72306	8970.0375
660.68952	9274.6375
664.65319	9168.3375
668.61405	9061.3375
672.57211	9054.8375
676.52738	9061.8375
680.47986	8894.6375
684.42955	8756.5375
688.37646	8714.3375
692.32058	8807.8375
696.26192	8946.8375
700.20048	9134.9375
704.13626	9146.9375
708.06928	9010.0375
711.99952	8901.6375
715.927	8923.2375
719.85171	8994.8375
723.77365	8994.8375
727.69284	8912.1375
731.60928	8828.8375
735.52295	8847.2375
739.43388	8905.9375
743.34206	8948.3375
747.24749	8974.6375
751.15017	8979.5375
755.05012	9126.7375
758.94733	9465.0375
762.8418	10212.3375
766.73354	11425.4375
770.62254	12374.1375
774.50882	12560.9375
778.39237	12026.9375
782.27321	11121.9375
786.15132	10185.4375
790.02671	9553.7375
793.89938	9232.5375
797.76935	9136.6375
801.6366	9056.3375
805.50115	8988.3375
809.36299	8941.2375
813.22213	8931.9375
817.07857	8909.4375
820.93231	8882.9375
824.78336	8885.0375
828.63172	8904.6375
832.47738	8942.0375
836.32036	8960.7375
840.16066	8977.2375
843.99827	8978.2375
847.8332	8945.5375
851.66546	8936.7375
855.49504	8965.0375
859.32195	8966.8375
863.1462	8927.4375
866.96777	8922.5375
870.78668	8891.1375
874.60293	8938.6375
878.41652	8977.5375
882.22745	9049.1375
886.03573	9096.5375
889.84136	9126.3375
893.64433	9064.8375
897.44466	9021.0375
901.24235	8995.9375
905.0374	8982.0375
908.8298	8954.2375
912.61957	8950.3375
916.40671	8998.5375
920.19121	9037.1375
923.97308	9144.5375
927.75233	9258.3375
931.52895	9351.2375
935.30295	9236.4375
939.07433	9074.4375
942.84309	8959.2375
946.60924	8922.0375
950.37278	8901.6375
954.13371	8868.0375
957.89203	8838.7375
961.64774	8800.1375
965.40086	8810.5375
969.15137	8757.0375
972.89929	8774.5375
976.64461	8773.8375
980.38733	8795.0375
984.12747	8816.7375
987.86502	8885.9375
991.59999	9003.6375
995.33237	9138.3375
999.06217	9390.4375
1002.78939	9650.8375
1006.51404	9795.0375
1010.23611	9892.5375
1013.95561	9980.5375
1017.67255	10054.9375
1021.38692	10044.4375
1025.09872	10069.9375
1028.80796	10161.2375
1032.51465	10395.6375
1036.21877	10582.0375
1039.92035	10548.9375
1043.61937	10390.5375
1047.31584	10168.6375
1051.00976	9983.1375
1054.70114	9878.1375
1058.38998	9870.2375
1062.07627	9860.7375
1065.76003	9877.5375
1069.44126	9925.1375
1073.11995	10055.9375
1076.79611	10188.5375
1080.46974	10347.9375
1084.14085	10451.0375
1087.80943	10562.7375
1091.47549	10601.4375
1095.13903	10488.4375
1098.80005	10383.5375
1102.45857	10387.9375
1106.11456	10369.5375
1109.76805	10350.4375
1113.41903	10383.6375
1117.06751	10524.8375
1120.71348	10736.3375
1124.35696	10945.0375
1127.99793	11101.1375
1131.63641	10923.8375
1135.2724	10638.4375
1138.90589	10404.4375
1142.5369	10201.4375
1146.16542	10065.4375
1149.79145	9970.1375
1153.415	9960.7375
1157.03607	9990.0375
1160.65467	10110.5375
1164.27079	10356.9375
1167.88443	10739.6375
1171.49561	11349.1375
1175.10432	12212.7375
1178.71056	13382.8375
1182.31434	14312.9375
1185.91565	14731.8375
1189.51451	14609.4375
1193.11091	14118.9375
1196.70485	13554.0375
1200.29634	13052.5375
1203.88538	12545.8375
1207.47197	12042.4375
1211.05612	11557.0375
1214.63782	11238.3375
1218.21708	11099.6375
1221.79391	11136.7375
1225.36829	11196.6375
1228.94024	11174.7375
1232.50976	11050.2375
1236.07685	10949.4375
1239.6415	10919.9375
1243.20374	10965.2375
1246.76355	11053.8375
1250.32093	11173.8375
1253.8759	11424.5375
1257.42845	11751.3375
1260.97859	12074.7375
1264.52631	12382.1375
1268.07163	12679.0375
1271.61453	12940.7375
1275.15503	13106.1375
1278.69312	13297.0375
1282.22882	13449.6375
1285.76211	13611.4375
1289.29301	13768.0375
1292.82151	14032.1375
1296.34761	14342.9375
1299.87133	14863.5375
1303.39266	15846.2375
1306.9116	17234.3375
1310.42815	18716.4375
1313.94233	19411.9375
1317.45412	18936.0375
1320.96354	17811.3375
1324.47058	16628.7375
1327.97525	15631.2375
1331.47754	15070.1375
1334.97747	14893.6375
1338.47502	15092.8375
1341.97022	15499.7375
1345.46305	16190.3375
1348.95352	17112.0375
1352.44163	18129.9375
1355.92738	19341.5375
1359.41078	20933.7375
1362.89183	21957.2375
1366.37053	20855.7375
1369.84688	18082.9375
1373.32088	15578.2375
1376.79254	14179.6375
1380.26186	13506.1375
1383.72883	13151.5375
1387.19347	12792.0375
1390.65578	12406.2375
1394.11575	12067.9375
1397.57339	11900.1375
1401.0287	11890.0375
1404.48168	11946.3375
1407.93234	12064.8375
1411.38068	12240.6375
1414.82669	12410.7375
1418.27039	12379.3375
1421.71177	12299.8375
1425.15083	12180.3375
1428.58758	12168.8375
1432.02203	12329.0375
1435.45416	12507.3375
1438.88399	12504.6375
1442.31151	12466.3375
1445.73673	12436.6375
1449.15965	12388.0375
1452.58027	12322.4375
1455.9986	12213.6375
1459.41463	12193.3375
1462.82837	12285.6375
1466.23982	12490.7375
1469.64898	12688.3375
1473.05586	12884.8375
1476.46045	13024.8375
1479.86276	13162.6375
1483.26279	13294.3375
1486.66054	13531.0375
1490.05602	13835.7375
1493.44922	14322.8375
1496.84016	15051.6375
1500.22882	16076.0375
1503.61521	17422.7375
1506.99934	18744.6375
1510.38121	19534.7375
1513.76081	19326.5375
1517.13816	18084.7375
1520.51324	16368.4375
1523.88607	14982.6375
1527.25665	14145.3375
1530.62498	13708.6375
1533.99105	13499.8375
1537.35488	13364.3375
1540.71647	13236.4375
1544.07581	13091.7375
1547.4329	12976.7375
1550.78776	12860.6375
1554.14038	12733.3375
1557.49077	12738.4375
1560.83892	12823.3375
1564.18484	13070.2375
1567.52853	13310.4375
1570.86999	13415.0375
1574.20922	13420.0375
1577.54624	13229.9375
1580.88103	12746.2375
1584.2136	12304.9375
1587.54395	12120.9375
1590.87208	12477.4375
1594.19801	13188.7375
1597.52172	14025.3375
1600.84321	14399.4375
1604.16251	14183.6375
1607.47959	13611.1375
1610.79447	12923.5375
1614.10715	12133.8375
1617.41763	11421.5375
1620.7259	10958.5375
1624.03199	10719.6375
1627.33587	10730.0375
1630.63757	10978.8375
1633.93707	11538.0375
1637.23439	12389.0375
1640.52951	13550.8375
1643.82246	14876.4375
1647.11321	16018.0375
1650.40179	16257.5375
1653.68819	15180.4375
1656.97241	13333.7375
1660.25446	11648.3375
1663.53433	10537.5375
1666.81203	9915.1375
1670.08756	9511.8375
1673.36092	9260.6375
1676.63211	9096.1375
1679.90115	8959.5375
1683.16801	8875.8375
1686.43272	8771.9375
1689.69527	8744.4375
1692.95567	8692.7375
1696.2139	8681.2375
1699.46999	8657.6375
1702.72392	8645.9375
1705.97571	8601.9375
1709.22535	8610.6375
1712.47284	8626.8375
1715.71819	8620.1375
1718.96139	8596.9375
1722.20246	8593.9375
1725.44139	8558.5375
1728.67818	8498.3375
1731.91284	8465.9375
1735.14537	8429.1375
1738.37576	8389.2375
1741.60403	8374.0375
1744.83017	8348.8375
1748.05418	8361.4375
1751.27607	8311.4375
1754.49584	8287.4375
1757.71349	8291.7375
1760.92903	8288.3375
1764.14244	8286.6375
1767.35375	8254.9375
1770.56294	8234.5375
1773.77002	8234.7375
1776.97499	8207.8375
1780.17785	8170.8375
1783.37861	8170.5375
1786.57727	8166.1375
1789.77382	8138.5375
1792.96828	8115.6375
1796.16064	8118.7375
1799.3509	8125.7375
1802.53907	8104.8375
1805.72514	8088.8375
1808.90913	8086.8375
1812.09102	8063.8375
1815.27083	8042.8375
1818.44856	8014.0375
1821.6242	7990.9375
1824.79776	7983.7375
1827.96924	7979.2375
1831.13864	7951.7375
1834.30597	7956.9375
1837.47122	7933.8375
1840.6344	7918.3375
1843.7955	7921.4375
1846.95454	7911.9375
1850.11151	7921.9375
1853.26642	7902.0375
1856.41926	7910.0375
1859.57004	7920.8375
1862.71876	7923.7375
1865.86542	7912.4375
1869.01003	7910.3375
1872.15258	7891.4375
1875.29308	7886.5375
1878.43152	7886.1375
1881.56792	7861.2375
1884.70227	7837.6375
1887.83457	7838.4375
1890.96482	7806.6375
1894.09304	7808.8375
1897.21921	7791.8375
1900.34335	7790.9375
1903.46544	7787.0375
1906.58551	7782.1375
1909.70353	7783.5375
1912.81953	7772.3375
1915.93349	7773.6375
1919.04543	7728.7375
1922.15534	7723.4375
1925.26322	7720.3375
1928.36908	7714.2375
1931.47292	7692.1375
1934.57473	7678.2375
1937.67453	7666.4375
1940.77232	7657.9375
1943.86808	7628.1375
1946.96184	7607.8375
1950.05358	7593.1375
1953.14331	7574.5375
1956.23103	7567.1375
1959.31675	7511.5375
1962.40046	7497.8375
1965.48217	7489.9375
1968.56188	7433.9375
1971.63959	7437.5375
1974.7153	7406.6375
1977.78901	7419.3375
1980.86073	7405.7375
1983.93046	7349.3375
1986.99819	7344.8375
1990.06394	7320.1375
1993.1277	7276.7375
1996.18947	7254.0375
1999.24925	7246.6375
2002.30706	7213.1375
2005.36288	7170.3375
2008.41672	7176.1375
2011.46859	7149.8375
2014.51848	7123.9375
2017.56639	7115.1375
2020.61233	7104.7375
2023.6563	7076.3375
2026.6983	7069.9375
2029.73833	7038.6375
2032.7764	7026.0375
2035.8125	7025.9375
2038.84664	6997.9375
2041.87881	7000.3375
2044.90903	6994.8375
2047.93729	6968.7375
2050.96359	6950.5375
2053.98794	6947.0375
2057.01034	6954.0375
2060.03078	6951.5375
2063.04927	6922.8375
2066.06582	6935.0375
2069.08042	6923.0375
2072.09307	6907.4375
2075.10378	6910.9375
2078.11255	6903.2375
2081.11938	6884.6375
2084.12426	6872.2375
2087.12722	6859.9375
2090.12824	6868.7375
2093.12732	6866.7375
2096.12447	6879.5375
2099.11969	6867.4375
2102.11299	6881.8375
2105.10435	6885.7375
2108.09379	6871.9375
2111.08131	6887.8375
2114.0669	6888.0375
2117.05057	6904.2375
2120.03233	6910.6375
2123.01216	6890.2375
2125.99008	6893.3375
2128.96609	6904.8375
2131.94018	6916.5375
2134.91236	6906.7375
2137.88263	6915.1375
2140.851	6918.3375
2143.81746	6910.2375
2146.78201	6912.6375
2149.74466	6914.4375
2152.7054	6912.0375
2155.66425	6912.4375
2158.6212	6896.9375
2161.57625	6887.1375
2164.52941	6887.8375
2167.48067	6896.1375
2170.43004	6877.8375
2173.37752	6860.2375
2176.32311	6882.6375
2179.26681	6883.9375
2182.20863	6892.9375
2185.14856	6904.9375
2188.08661	6890.0375
2191.02278	6884.8375
2193.95707	6906.6375
2196.88948	6901.7375
2199.82001	6880.3375
2202.74867	6871.0375
2205.67545	6883.6375
2208.60037	6864.6375
2211.52341	6867.7375
2214.44458	6849.8375
2217.36388	6839.8375
2220.28132	6827.2375
2223.1969	6799.0375
2226.11061	6772.4375
2229.02246	6779.9375
2231.93245	6773.2375
2234.84058	6756.3375
2237.74686	6745.7375
2240.65128	6725.5375
2243.55385	6711.4375
2246.45456	6711.8375
2249.35343	6708.3375
2252.25044	6697.1375
2255.14561	6689.3375
2258.03893	6711.5375
2260.93041	6692.5375
2263.82004	6653.3375
2266.70783	6644.0375
2269.59378	6636.7375
2272.4779	6617.3375
2275.36017	6589.4375
2278.24061	6595.5375
2281.11922	6563.2375
2283.996	6561.5375
2286.87094	6538.8375
2289.74405	6550.2375
2292.61534	6538.0375
2295.4848	6504.5375
2298.35243	6515.6375
2301.21824	6522.0375
2304.08223	6503.9375
2306.94439	6521.2375
2309.80474	6517.6375
2312.66327	6526.0375
2315.51999	6516.7375
2318.37489	6523.5375
2321.22797	6516.6375
2324.07925	6500.6375
2326.92871	6495.1375
2329.77637	6488.4375
2332.62222	6463.7375
2335.46626	6475.5375
2338.3085	6471.2375
2341.14893	6473.6375
2343.98756	6487.5375
2346.8244	6480.6375
2349.65943	6459.2375
2352.49267	6456.4375
2355.32411	6484.2375
2358.15376	6454.7375
2360.98161	6471.5375
2363.80768	6467.5375
2366.63195	6438.2375
2369.45444	6444.8375
2372.27514	6427.6375
2375.09405	6407.0375
2377.91118	6385.9375
2380.72652	6369.4375
2383.54009	6362.4375
2386.35187	6350.2375
2389.16188	6344.7375
2391.97011	6338.4375
2394.77657	6292.3375
2397.58125	6297.8375
2400.38416	6279.3375
2403.18529	6281.1375
2405.98466	6267.4375
2408.78226	6232.1375
2411.57809	6245.1375
2414.37216	6214.5375
2417.16446	6231.1375
2419.955	6203.2375
2422.74378	6214.9375
2425.5308	6184.4375
2428.31606	6198.2375
2431.09956	6192.7375
2433.88131	6178.7375
2436.6613	6184.4375
2439.43954	6165.9375
2442.21603	6163.1375
2444.99077	6170.0375
2447.76377	6181.5375
2450.53501	6170.9375
2453.30451	6170.9375
2456.07226	6155.3375
2458.83827	6138.3375
2461.60254	6133.5375
2464.36507	6129.5375
2467.12586	6112.5375
2469.88492	6112.5375
2472.64224	6119.5375
2475.39782	6120.0375
2478.15167	6122.3375
2480.90379	6108.6375
2483.65417	6101.2375
2486.40283	6098.5375
2489.14976	6127.6375
2491.89497	6132.8375
2494.63845	6132.8375
2497.3802	6126.3375
2500.12024	6095.5375
2502.85855	6100.4375
2505.59514	6106.4375
2508.33002	6100.1375
2511.06318	6071.8375
2513.79462	6057.6375
2516.52435	6035.8375
2519.25237	6034.5375
2521.97867	6002.7375
2524.70327	6033.6375
2527.42616	6019.5375
2530.14734	5995.5375
2532.86681	6005.7375
2535.58458	6021.7375
2538.30065	6009.8375
2541.01501	6027.0375
2543.72768	6024.1375
2546.43864	5987.8375
2549.14791	5989.1375
2551.85548	5970.5375
2554.56136	5986.0375
2557.26554	5970.7375
2559.96803	5954.7375
2562.66883	5938.7375
2565.36794	5924.5375
2568.06536	5917.8375
2570.7611	5889.6375
2573.45514	5888.8375
2576.14751	5888.9375
2578.83819	5888.6375
2581.52719	5886.7375
2584.21451	5878.2375
2586.90015	5895.1375
2589.58411	5851.0375
2592.2664	5876.2375
2594.94701	5856.2375
2597.62594	5837.1375
2600.30321	5836.1375
2602.9788	5845.8375
2605.65273	5844.2375
2608.32498	5838.5375
2610.99557	5833.4375
2613.66449	5833.8375
2616.33175	5815.8375
2618.99734	5823.5375
2621.66128	5803.9375
2624.32355	5807.2375
2626.98416	5816.9375
2629.64311	5810.5375
2632.30041	5836.8375
2634.95605	5796.2375
2637.61004	5781.7375
2640.26238	5781.8375
2642.91306	5766.2375
2645.56209	5757.0375
2648.20948	5751.5375
2650.85521	5753.5375
2653.4993	5740.2375
2656.14175	5731.9375
2658.78255	5740.3375
2661.42171	5734.9375
2664.05923	5735.9375
2666.6951	5757.9375
2669.32934	5775.8375
2671.96194	5766.4375
2674.59291	5754.5375
2677.22224	5755.4375
2679.84993	5772.9375
2682.476	5744.0375
2685.10043	5749.8375
2687.72324	5740.5375
2690.34441	5723.4375
2692.96396	5736.3375
2695.58188	5728.2375
2698.19818	5716.5375
2700.81285	5697.7375
2703.4259	5703.7375
2706.03733	5678.9375
2708.64714	5699.4375
2711.25533	5695.1375
2713.86191	5697.1375
2716.46687	5706.0375
2719.07021	5699.2375
2721.67194	5701.2375
2724.27206	5707.3375
2726.87057	5711.5375
2729.46747	5707.7375
2732.06276	5697.1375
2734.65644	5717.6375
2737.24852	5701.3375
2739.83899	5669.6375
2742.42786	5675.4375
2745.01513	5647.0375
2747.60079	5655.3375
2750.18486	5654.7375
2752.76733	5658.2375
2755.3482	5625.5375
2757.92747	5625.0375
2760.50515	5629.7375
2763.08123	5619.3375
2765.65573	5609.4375
2768.22863	5597.0375
2770.79994	5589.5375
2773.36967	5585.4375
2775.9378	5592.4375
2778.50435	5608.2375
2781.06932	5586.0375
2783.6327	5585.4375
2786.1945	5558.6375
2788.75471	5576.7375
2791.31335	5559.7375
2793.87041	5553.3375
2796.42589	5528.4375
2798.97979	5498.5375
2801.53212	5500.3375
2804.08288	5506.0375
2806.63206	5482.2375
2809.17967	5481.2375
2811.72571	5481.8375
2814.27018	5466.5375
2816.81308	5457.5375
2819.35442	5443.9375
2821.89419	5440.2375
2824.43239	5428.4375
2826.96904	5441.7375
2829.50412	5421.7375
2832.03763	5391.7375
2834.56959	5413.3375
2837.1	5387.2375
2839.62884	5380.5375
2842.15613	5374.5375
2844.68186	5387.2375
2847.20604	5372.1375
2849.72867	5364.5375
2852.24974	5354.8375
2854.76927	5336.4375
2857.28724	5325.2375
2859.80367	5339.6375
2862.31855	5326.5375
2864.83189	5334.0375
2867.34368	5325.9375
2869.85393	5312.3375
2872.36264	5303.3375
2874.8698	5307.5375
2877.37543	5306.8375
2879.87952	5298.1375
2882.38207	5284.5375
2884.88308	5289.6375
2887.38256	5285.2375
2889.88051	5282.1375
2892.37692	5279.0375
2894.8718	5272.3375
2897.36515	5273.7375
2899.85698	5271.7375
2902.34727	5300.3375
2904.83604	5306.5375
2907.32328	5294.9375
2909.809	5287.8375
2912.29319	5328.7375
2914.77587	5298.8375
2917.25702	5328.6375
2919.73665	5305.3375
2922.21476	5300.7375
2924.69136	5289.1375
2927.16644	5260.3375
2929.64	5283.1375
2932.11205	5254.5375
2934.58258	5227.8375
2937.05161	5249.1375
2939.51912	5250.0375
2941.98513	5245.7375
2944.44962	5233.9375
2946.91261	5223.3375
2949.37409	5241.3375
2951.83407	5225.7375
2954.29254	5211.5375
2956.74951	5205.4375
2959.20498	5196.4375
2961.65895	5203.9375
2964.11142	5194.1375
2966.56239	5204.5375
2969.01186	5206.6375
2971.45984	5176.2375
2973.90632	5196.4375
2976.35131	5175.6375
2978.7948	5160.8375
2981.23681	5148.4375
2983.67732	5148.3375
2986.11635	5140.4375
2988.55388	5112.5375
2990.98993	5113.7375
2993.4245	5086.4375
2995.85758	5074.6375
2998.28917	5064.7375
3000.71928	5043.3375
3003.14791	5030.8375
3005.57506	5025.6375
3008.00073	5000.4375
3010.42493	5014.3375
3012.84764	4991.8375
3015.26888	4990.7375
3017.68865	4986.5375
3020.10694	4960.5375
3022.52376	4951.2375
3024.9391	4933.7375
3027.35298	4925.1375
3029.76539	4918.1375
3032.17632	4914.9375
3034.5858	4913.1375
3036.9938	4901.0375
3039.40034	4889.5375
3041.80542	4877.8375
3044.20903	4882.8375
3046.61118	4869.9375
3049.01187	4837.4375
3051.4111	4844.5375
3053.80888	4821.8375
3056.20519	4823.7375
3058.60005	4796.7375
3060.99345	4810.7375
3063.3854	4786.9375
3065.7759	4767.7375
3068.16494	4756.1375
3070.55254	4737.3375
3072.93868	4730.3375
3075.32338	4708.4375
3077.70662	4691.0375
3080.08842	4687.9375
3082.46878	4688.3375
3084.84769	4670.8375
3087.22515	4653.4375
3089.60118	4661.2375
3091.97576	4662.1375
3094.3489	4666.8375
3096.72061	4657.4375
3099.09087	4655.1375
3101.4597	4658.8375
3103.82709	4651.2375
3106.19305	4646.5375
