Data from AgNPs_UA_10uM_CRN_500uM_SU_RamanShift__114__13-24-20-276.txt Node

Date: Thu Aug 04 13:24:20 BST 2022
User: TCL
Spectrometer: QEP01345
Trigger mode: 4
Integration Time (sec): 1.000000E0
Scans to average: 10
Electric dark correction enabled: true
Nonlinearity correction enabled: false
Boxcar width: 0
XAxis mode: Raman Shifts
Number of Pixels in Spectrum: 1044
>>>>>Begin Spectral Data<<<<<
46.04893	0.125
50.45542	-0.475
54.85868	-0.075
59.25871	-1.075
63.6555	21.825
68.04907	22.425
72.43941	25.225
76.82654	22.125
81.21044	24.125
85.59113	27.925
89.96862	28.525
94.34289	28.425
98.71396	28.425
103.08183	30.625
107.4465	31.625
111.80798	31.725
116.16626	32.825
120.52136	36.325
124.87327	37.425
129.222	38.825
133.56755	39.425
137.90993	44.325
142.24913	51.925
146.58517	55.425
150.91804	66.825
155.24774	78.925
159.57429	102.725
163.89768	131.525
168.21792	179.325
172.53501	245.425
176.84895	342.825
181.15975	491.625
185.46741	695.325
189.77193	963.525
194.07331	1296.025
198.37157	1672.125
202.6667	2068.325
206.9587	2469.925
211.24758	2874.725
215.53334	3279.425
219.81599	3696.525
224.09553	4208.425
228.37195	4733.425
232.64527	5311.125
236.91549	5872.125
241.18261	6417.325
245.44663	6808.625
249.70755	7164.025
253.96539	7453.725
258.22014	7708.925
262.4718	7928.025
266.72039	8063.925
270.96589	8107.825
275.20832	8067.825
279.44768	7966.825
283.68397	7833.225
287.91719	7740.825
292.14735	7758.825
296.37445	7885.225
300.59849	8094.925
304.81948	8400.025
309.03742	8661.625
313.25231	8802.825
317.46415	8711.225
321.67296	8405.225
325.87872	8087.425
330.08145	7910.525
334.28114	7882.825
338.47781	7997.625
342.67145	8143.425
346.86207	8362.025
351.04966	8700.925
355.23424	9021.525
359.4158	9245.125
363.59435	9385.325
367.76989	9414.125
371.94243	9394.725
376.11196	9372.525
380.27849	9376.425
384.44203	9396.425
388.60257	9415.425
392.76012	9516.025
396.91468	9660.225
401.06626	9773.025
405.21485	9829.325
409.36047	9721.625
413.50311	9432.025
417.64277	9148.425
421.77947	8976.725
425.9132	8888.825
430.04396	8869.525
434.17176	8922.925
438.2966	9020.525
442.41849	9190.025
446.53742	9396.925
450.6534	9578.825
454.76644	9694.625
458.87653	9758.725
462.98368	9758.525
467.08789	9684.325
471.18916	9550.325
475.2875	9398.425
479.38291	9202.325
483.4754	9106.725
487.56496	9009.225
491.6516	8961.025
495.73531	8990.925
499.81612	9026.825
503.89401	9115.425
507.96899	9169.525
512.04106	9205.725
516.11023	9282.025
520.1765	9348.725
524.23987	9369.825
528.30034	9347.325
532.35792	9341.325
536.41261	9287.725
540.46441	9155.125
544.51333	9126.925
548.55936	9182.725
552.60252	9316.225
556.64279	9462.825
560.6802	9609.725
564.71473	9712.425
568.7464	9799.625
572.7752	9788.525
576.80114	9541.725
580.82422	9360.025
584.84444	9298.225
588.86181	9283.925
592.87633	9354.925
596.888	9540.325
600.89682	9969.225
604.9028	11065.525
608.90594	13311.225
612.90624	15544.925
616.90371	14356.825
620.89834	11226.125
624.89015	9956.325
628.87913	9844.525
632.86528	10040.725
636.84862	10132.325
640.82913	9942.525
644.80683	9607.525
648.78172	9408.125
652.75379	9406.225
656.72306	9652.825
660.68952	9933.725
664.65319	9880.225
668.61405	9706.425
672.57211	9765.625
676.52738	9781.325
680.47986	9579.925
684.42955	9390.225
688.37646	9343.825
692.32058	9423.425
696.26192	9618.825
700.20048	9764.425
704.13626	9812.225
708.06928	9699.625
711.99952	9567.925
715.927	9580.525
719.85171	9647.425
723.77365	9658.725
727.69284	9578.125
731.60928	9498.825
735.52295	9499.725
739.43388	9524.525
743.34206	9579.625
747.24749	9565.225
751.15017	9568.425
755.05012	9685.625
758.94733	10028.825
762.8418	10839.925
766.73354	12087.625
770.62254	13057.425
774.50882	13278.025
778.39237	12818.725
782.27321	11984.125
786.15132	10995.125
790.02671	10257.325
793.89938	9888.125
797.76935	9701.425
801.6366	9603.025
805.50115	9555.825
809.36299	9501.425
813.22213	9500.925
817.07857	9512.825
820.93231	9497.125
824.78336	9482.625
828.63172	9539.825
832.47738	9561.225
836.32036	9529.325
840.16066	9514.525
843.99827	9506.525
847.8332	9507.725
851.66546	9529.725
855.49504	9529.925
859.32195	9565.225
863.1462	9534.725
866.96777	9550.025
870.78668	9542.425
874.60293	9600.425
878.41652	9637.725
882.22745	9700.425
886.03573	9750.425
889.84136	9750.525
893.64433	9708.225
897.44466	9668.425
901.24235	9644.125
905.0374	9615.625
908.8298	9594.925
912.61957	9567.425
916.40671	9600.425
920.19121	9601.525
923.97308	9678.125
927.75233	9786.425
931.52895	9860.025
935.30295	9778.025
939.07433	9626.825
942.84309	9548.725
946.60924	9514.725
950.37278	9482.625
954.13371	9449.225
957.89203	9467.025
961.64774	9450.025
965.40086	9453.925
969.15137	9424.825
972.89929	9445.225
976.64461	9456.925
980.38733	9451.225
984.12747	9471.325
987.86502	9536.825
991.59999	9589.625
995.33237	9679.625
999.06217	9835.225
1002.78939	10016.325
1006.51404	10232.925
1010.23611	10420.525
1013.95561	10520.825
1017.67255	10562.325
1021.38692	10533.325
1025.09872	10416.625
1028.80796	10336.425
1032.51465	10323.225
1036.21877	10364.325
1039.92035	10393.325
1043.61937	10391.325
1047.31584	10389.225
1051.00976	10342.225
1054.70114	10337.025
1058.38998	10358.425
1062.07627	10396.625
1065.76003	10442.825
1069.44126	10588.025
1073.11995	10813.225
1076.79611	11096.825
1080.46974	11281.325
1084.14085	11367.925
1087.80943	11459.425
1091.47549	11575.325
1095.13903	11602.625
1098.80005	11649.725
1102.45857	11602.625
1106.11456	11448.125
1109.76805	11205.925
1113.41903	11187.725
1117.06751	11282.925
1120.71348	11490.225
1124.35696	11728.425
1127.99793	11876.025
1131.63641	11723.425
1135.2724	11403.625
1138.90589	11152.625
1142.5369	11025.025
1146.16542	10991.925
1149.79145	10943.125
1153.415	10775.425
1157.03607	10692.025
1160.65467	10717.525
1164.27079	10891.925
1167.88443	11201.725
1171.49561	11701.125
1175.10432	12449.025
1178.71056	13468.725
1182.31434	14347.325
1185.91565	14701.225
1189.51451	14633.625
1193.11091	14422.125
1196.70485	14130.025
1200.29634	13833.525
1203.88538	13485.425
1207.47197	13091.425
1211.05612	12706.625
1214.63782	12379.825
1218.21708	12066.725
1221.79391	11800.425
1225.36829	11642.825
1228.94024	11554.625
1232.50976	11486.725
1236.07685	11465.925
1239.6415	11490.825
1243.20374	11540.425
1246.76355	11661.725
1250.32093	11814.825
1253.8759	12071.925
1257.42845	12497.825
1260.97859	12874.925
1264.52631	13184.025
1268.07163	13387.025
1271.61453	13546.325
1275.15503	13624.025
1278.69312	13608.725
1282.22882	13626.625
1285.76211	13722.025
1289.29301	13834.925
1292.82151	14061.725
1296.34761	14368.825
1299.87133	14803.125
1303.39266	15612.625
1306.9116	16746.625
1310.42815	17982.425
1313.94233	18444.625
1317.45412	17922.025
1320.96354	17033.225
1324.47058	16095.725
1327.97525	15307.625
1331.47754	14743.225
1334.97747	14608.325
1338.47502	14772.525
1341.97022	15302.525
1345.46305	16185.325
1348.95352	17384.125
1352.44163	18552.025
1355.92738	19772.425
1359.41078	21108.725
1362.89183	22079.225
1366.37053	21035.125
1369.84688	18248.325
1373.32088	15765.225
1376.79254	14327.325
1380.26186	13686.225
1383.72883	13268.925
1387.19347	12922.325
1390.65578	12502.925
1394.11575	12172.925
1397.57339	11946.225
1401.0287	11817.725
1404.48168	11810.425
1407.93234	11878.125
1411.38068	12053.825
1414.82669	12219.125
1418.27039	12263.025
1421.71177	12196.825
1425.15083	12106.225
1428.58758	12077.625
1432.02203	12143.725
1435.45416	12253.725
1438.88399	12281.525
1442.31151	12293.425
1445.73673	12364.725
1449.15965	12389.325
1452.58027	12329.525
1455.9986	12294.825
1459.41463	12284.425
1462.82837	12365.225
1466.23982	12578.825
1469.64898	12775.525
1473.05586	12941.625
1476.46045	13075.825
1479.86276	13157.325
1483.26279	13288.725
1486.66054	13521.425
1490.05602	13845.925
1493.44922	14380.525
1496.84016	15241.625
1500.22882	16479.725
1503.61521	18041.025
1506.99934	19494.125
1510.38121	20329.725
1513.76081	20007.125
1517.13816	18590.625
1520.51324	16781.625
1523.88607	15261.125
1527.25665	14389.325
1530.62498	13937.825
1533.99105	13699.725
1537.35488	13559.725
1540.71647	13507.125
1544.07581	13466.125
1547.4329	13391.125
1550.78776	13237.025
1554.14038	13049.125
1557.49077	12955.525
1560.83892	13052.525
1564.18484	13301.025
1567.52853	13615.825
1570.86999	13814.825
1574.20922	13834.925
1577.54624	13638.425
1580.88103	13151.325
1584.2136	12571.825
1587.54395	12258.025
1590.87208	12375.225
1594.19801	12823.625
1597.52172	13383.225
1600.84321	13656.725
1604.16251	13637.125
1607.47959	13404.925
1610.79447	12954.225
1614.10715	12313.725
1617.41763	11634.925
1620.7259	11185.425
1624.03199	10926.925
1627.33587	10874.725
1630.63757	10985.925
1633.93707	11362.025
1637.23439	12040.625
1640.52951	13053.725
1643.82246	14421.825
1647.11321	15716.425
1650.40179	16306.925
1653.68819	15481.825
1656.97241	13787.625
1660.25446	12149.125
1663.53433	11015.625
1666.81203	10331.425
1670.08756	9939.925
1673.36092	9713.825
1676.63211	9562.125
1679.90115	9412.525
1683.16801	9307.725
1686.43272	9225.225
1689.69527	9172.625
1692.95567	9134.425
1696.2139	9098.325
1699.46999	9084.425
1702.72392	9075.925
1705.97571	9053.925
1709.22535	9056.725
1712.47284	9062.925
1715.71819	9065.025
1718.96139	9063.125
1722.20246	9031.025
1725.44139	9002.825
1728.67818	8946.025
1731.91284	8912.125
1735.14537	8852.825
1738.37576	8839.125
1741.60403	8797.225
1744.83017	8769.125
1748.05418	8786.425
1751.27607	8729.425
1754.49584	8728.925
1757.71349	8703.125
1760.92903	8706.625
1764.14244	8659.525
1767.35375	8665.325
1770.56294	8642.025
1773.77002	8636.125
1776.97499	8602.825
1780.17785	8555.725
1783.37861	8533.325
1786.57727	8548.825
1789.77382	8542.525
1792.96828	8508.525
1796.16064	8498.825
1799.3509	8503.725
1802.53907	8469.525
1805.72514	8460.925
1808.90913	8445.525
1812.09102	8409.025
1815.27083	8403.625
1818.44856	8354.225
1821.6242	8361.625
1824.79776	8324.625
1827.96924	8326.825
1831.13864	8307.525
1834.30597	8300.925
1837.47122	8259.125
1840.6344	8263.925
1843.7955	8250.525
1846.95454	8254.525
1850.11151	8260.425
1853.26642	8243.325
1856.41926	8273.425
1859.57004	8276.425
1862.71876	8235.025
1865.86542	8228.625
1869.01003	8229.525
1872.15258	8209.125
1875.29308	8212.825
1878.43152	8195.125
1881.56792	8178.525
1884.70227	8174.725
1887.83457	8137.625
1890.96482	8133.825
1894.09304	8117.825
1897.21921	8094.125
1900.34335	8068.525
1903.46544	8093.225
1906.58551	8086.325
1909.70353	8073.425
1912.81953	8067.825
1915.93349	8042.325
1919.04543	8035.825
1922.15534	7989.025
1925.26322	8039.425
1928.36908	7987.425
1931.47292	7970.425
1934.57473	7925.825
1937.67453	7922.725
1940.77232	7910.625
1943.86808	7879.325
1946.96184	7837.725
1950.05358	7837.625
1953.14331	7815.125
1956.23103	7811.225
1959.31675	7785.225
1962.40046	7760.625
1965.48217	7713.425
1968.56188	7696.325
1971.63959	7670.025
1974.7153	7676.625
1977.78901	7660.925
1980.86073	7620.725
1983.93046	7594.625
1986.99819	7575.625
1990.06394	7555.925
1993.1277	7516.125
1996.18947	7497.025
1999.24925	7466.925
2002.30706	7439.425
2005.36288	7409.525
2008.41672	7408.825
2011.46859	7357.725
2014.51848	7341.525
2017.56639	7323.325
2020.61233	7310.925
2023.6563	7272.525
2026.6983	7264.825
2029.73833	7241.625
2032.7764	7207.425
2035.8125	7237.125
2038.84664	7201.325
2041.87881	7171.125
2044.90903	7162.125
2047.93729	7162.425
2050.96359	7129.525
2053.98794	7122.425
2057.01034	7112.025
2060.03078	7099.425
2063.04927	7096.425
2066.06582	7067.025
2069.08042	7068.925
2072.09307	7071.525
2075.10378	7068.425
2078.11255	7054.325
2081.11938	7057.025
2084.12426	7029.125
2087.12722	7033.525
2090.12824	7049.525
2093.12732	7031.225
2096.12447	7044.225
2099.11969	7063.325
2102.11299	7054.025
2105.10435	7045.025
2108.09379	7047.125
2111.08131	7057.425
2114.0669	7065.925
2117.05057	7062.625
2120.03233	7064.125
2123.01216	7075.925
2125.99008	7061.525
2128.96609	7081.525
2131.94018	7083.825
2134.91236	7073.625
2137.88263	7052.225
2140.851	7062.225
2143.81746	7078.525
2146.78201	7067.225
2149.74466	7076.025
2152.7054	7062.425
2155.66425	7043.625
2158.6212	7061.225
2161.57625	7049.725
2164.52941	7052.925
2167.48067	7047.525
2170.43004	7026.825
2173.37752	7011.825
2176.32311	7046.125
2179.26681	7030.425
2182.20863	7031.025
2185.14856	7038.025
2188.08661	7027.125
2191.02278	7020.225
2193.95707	7036.225
2196.88948	7008.725
2199.82001	7015.725
2202.74867	6998.825
2205.67545	7009.025
2208.60037	7004.125
2211.52341	6980.225
2214.44458	6957.025
2217.36388	6938.125
2220.28132	6923.025
2223.1969	6893.825
2226.11061	6878.525
2229.02246	6883.525
2231.93245	6855.125
2234.84058	6855.925
2237.74686	6852.525
2240.65128	6833.525
2243.55385	6798.625
2246.45456	6808.925
2249.35343	6813.425
2252.25044	6790.625
2255.14561	6776.125
2258.03893	6794.625
2260.93041	6763.025
2263.82004	6771.425
2266.70783	6757.625
2269.59378	6740.125
2272.4779	6706.225
2275.36017	6678.625
2278.24061	6680.525
2281.11922	6652.925
2283.996	6629.725
2286.87094	6634.925
2289.74405	6628.925
2292.61534	6619.825
2295.4848	6622.825
2298.35243	6603.825
2301.21824	6585.725
2304.08223	6583.025
2306.94439	6607.325
2309.80474	6575.925
2312.66327	6578.725
2315.51999	6572.325
2318.37489	6560.925
2321.22797	6539.525
2324.07925	6517.625
2326.92871	6517.725
2329.77637	6521.125
2332.62222	6494.825
2335.46626	6480.825
2338.3085	6475.525
2341.14893	6478.525
2343.98756	6499.725
2346.8244	6490.825
2349.65943	6483.925
2352.49267	6484.925
2355.32411	6467.425
2358.15376	6460.625
2360.98161	6480.425
2363.80768	6463.325
2366.63195	6458.825
2369.45444	6452.825
2372.27514	6443.425
2375.09405	6428.725
2377.91118	6413.625
2380.72652	6412.225
2383.54009	6393.225
2386.35187	6369.325
2389.16188	6358.525
2391.97011	6332.725
2394.77657	6300.325
2397.58125	6302.825
2400.38416	6295.625
2403.18529	6290.825
2405.98466	6288.025
2408.78226	6246.125
2411.57809	6247.725
2414.37216	6250.725
2417.16446	6245.325
2419.955	6250.725
2422.74378	6230.125
2425.5308	6226.525
2428.31606	6223.225
2431.09956	6206.325
2433.88131	6210.425
2436.6613	6201.225
2439.43954	6192.725
2442.21603	6202.125
2444.99077	6211.725
2447.76377	6201.025
2450.53501	6180.025
2453.30451	6184.625
2456.07226	6172.325
2458.83827	6157.425
2461.60254	6143.625
2464.36507	6126.025
2467.12586	6128.125
2469.88492	6127.825
2472.64224	6122.425
2475.39782	6117.225
2478.15167	6112.325
2480.90379	6110.525
2483.65417	6091.025
2486.40283	6112.625
2489.14976	6118.725
2491.89497	6127.425
2494.63845	6120.425
2497.3802	6111.825
2500.12024	6080.625
2502.85855	6084.025
2505.59514	6072.925
2508.33002	6065.825
2511.06318	6035.225
2513.79462	6013.925
2516.52435	6017.125
2519.25237	6014.425
2521.97867	6005.425
2524.70327	5986.725
2527.42616	5975.725
2530.14734	5967.625
2532.86681	5970.225
2535.58458	5986.525
2538.30065	5973.025
2541.01501	5990.625
2543.72768	5972.025
2546.43864	5958.125
2549.14791	5939.925
2551.85548	5940.725
2554.56136	5951.625
2557.26554	5923.825
2559.96803	5927.725
2562.66883	5907.825
2565.36794	5884.425
2568.06536	5858.425
2570.7611	5832.725
2573.45514	5833.625
2576.14751	5845.225
2578.83819	5802.925
2581.52719	5788.825
2584.21451	5793.525
2586.90015	5796.125
2589.58411	5795.225
2592.2664	5780.225
2594.94701	5743.825
2597.62594	5762.025
2600.30321	5744.725
2602.9788	5745.025
2605.65273	5766.125
2608.32498	5742.025
2610.99557	5734.925
2613.66449	5736.025
2616.33175	5704.925
2618.99734	5714.925
2621.66128	5710.125
2624.32355	5681.225
2626.98416	5674.325
2629.64311	5651.125
2632.30041	5653.925
2634.95605	5626.125
2637.61004	5634.025
2640.26238	5614.325
2642.91306	5615.225
2645.56209	5601.425
2648.20948	5603.225
2650.85521	5604.025
2653.4993	5603.325
2656.14175	5601.525
2658.78255	5590.325
2661.42171	5593.725
2664.05923	5582.325
2666.6951	5610.125
2669.32934	5609.125
2671.96194	5615.825
2674.59291	5609.425
2677.22224	5596.525
2679.84993	5601.125
2682.476	5603.825
2685.10043	5599.825
2687.72324	5588.725
2690.34441	5593.025
2692.96396	5591.525
2695.58188	5583.725
2698.19818	5568.225
2700.81285	5570.125
2703.4259	5566.225
2706.03733	5565.225
2708.64714	5542.625
2711.25533	5538.125
2713.86191	5545.625
2716.46687	5550.525
2719.07021	5556.325
2721.67194	5564.325
2724.27206	5553.225
2726.87057	5563.825
2729.46747	5538.725
2732.06276	5545.725
2734.65644	5538.225
2737.24852	5533.525
2739.83899	5523.825
2742.42786	5511.925
2745.01513	5492.325
2747.60079	5482.225
2750.18486	5458.725
2752.76733	5486.625
2755.3482	5459.225
2757.92747	5475.225
2760.50515	5441.825
2763.08123	5441.925
2765.65573	5427.225
2768.22863	5413.425
2770.79994	5400.625
2773.36967	5403.725
2775.9378	5380.125
2778.50435	5387.725
2781.06932	5369.525
2783.6327	5390.025
2786.1945	5366.025
2788.75471	5366.725
2791.31335	5334.525
2793.87041	5365.925
2796.42589	5327.225
2798.97979	5315.725
2801.53212	5302.625
2804.08288	5284.525
2806.63206	5273.525
2809.17967	5271.325
2811.72571	5264.525
2814.27018	5282.925
2816.81308	5238.525
2819.35442	5236.725
2821.89419	5238.625
2824.43239	5203.425
2826.96904	5219.625
2829.50412	5200.325
2832.03763	5165.025
2834.56959	5175.625
2837.1	5156.525
2839.62884	5145.825
2842.15613	5145.825
2844.68186	5137.825
2847.20604	5137.525
2849.72867	5118.225
2852.24974	5103.325
2854.76927	5090.125
2857.28724	5098.725
2859.80367	5080.025
2862.31855	5078.325
2864.83189	5085.425
2867.34368	5075.625
2869.85393	5085.125
2872.36264	5058.325
2874.8698	5045.925
2877.37543	5038.725
2879.87952	5045.725
2882.38207	5042.425
2884.88308	5028.125
2887.38256	5027.925
2889.88051	5034.925
2892.37692	5016.525
2894.8718	5024.825
2897.36515	5014.525
2899.85698	5026.225
2902.34727	5020.125
2904.83604	5027.625
2907.32328	5021.125
2909.809	5028.525
2912.29319	5013.925
2914.77587	5028.725
2917.25702	5031.025
2919.73665	5022.425
2922.21476	5021.725
2924.69136	5016.725
2927.16644	4988.025
2929.64	4982.825
2932.11205	4963.425
2934.58258	4942.325
2937.05161	4956.925
2939.51912	4966.425
2941.98513	4951.425
2944.44962	4952.925
2946.91261	4930.025
2949.37409	4951.425
2951.83407	4932.325
2954.29254	4921.025
2956.74951	4920.325
2959.20498	4915.125
2961.65895	4921.825
2964.11142	4902.425
2966.56239	4913.125
2969.01186	4908.725
2971.45984	4902.525
2973.90632	4890.625
2976.35131	4893.925
2978.7948	4884.525
2981.23681	4859.025
2983.67732	4860.125
2986.11635	4826.625
2988.55388	4828.125
2990.98993	4807.925
2993.4245	4821.125
2995.85758	4794.625
2998.28917	4780.025
3000.71928	4780.825
3003.14791	4757.825
3005.57506	4748.125
3008.00073	4737.125
3010.42493	4722.825
3012.84764	4710.825
3015.26888	4722.325
3017.68865	4717.725
3020.10694	4689.825
3022.52376	4677.725
3024.9391	4655.925
3027.35298	4641.425
3029.76539	4635.925
3032.17632	4635.225
3034.5858	4617.025
3036.9938	4599.425
3039.40034	4592.725
3041.80542	4573.325
3044.20903	4569.925
3046.61118	4576.925
3049.01187	4559.325
3051.4111	4563.625
3053.80888	4540.325
3056.20519	4522.925
3058.60005	4515.525
3060.99345	4508.525
3063.3854	4507.625
3065.7759	4481.525
3068.16494	4484.025
3070.55254	4453.625
3072.93868	4421.825
3075.32338	4425.625
3077.70662	4418.425
3080.08842	4415.325
3082.46878	4410.725
3084.84769	4401.625
3087.22515	4386.625
3089.60118	4378.925
3091.97576	4376.525
3094.3489	4373.825
3096.72061	4368.525
3099.09087	4362.925
3101.4597	4359.925
3103.82709	4368.125
3106.19305	4355.925
3108.55757	4353.325
3110.92066	4345.525
3113.28232	4325.525
3115.64255	4312.125
3118.00134	4313.325
3120.35871	4305.625
3122.71466	4298.625
3125.06917	4291.625
3127.42226	4262.225
3129.77393	4274.125
3132.12417	4234.525
3134.47299	4245.825
3136.82039	4226.025
3139.16636	4215.325
3141.51092	4223.525
3143.85406	4222.525
3146.19579	4237.025
3148.53609	4221.925
3150.87499	4226.125
3153.21246	4202.125
3155.54853	4239.725
3157.88318	4215.825
3160.21642	4197.725
3162.54826	4213.325
3164.87868	4209.925
3167.2077	4201.525
3169.5353	4193.225
3171.86151	4188.725
3174.18631	4174.225
3176.5097	4140.825
3178.83169	4137.925
3181.15228	4140.125
3183.47147	4127.025
3185.78926	4135.925
3188.10565	4107.425
3190.42065	4088.825
3192.73424	4098.725
3195.04645	4098.825
3197.35725	4087.425
3199.66667	4086.725
3201.97469	4085.225
3204.28132	4085.925
3206.58656	4108.625
3208.8904	4087.225
3211.19287	4080.825
3213.49394	4087.025
3215.79363	4073.925
