Data from AgNPs_UA_5uM_CRN_500uM_SU_RamanShift__265__12-13-33-193.txt Node

Date: Thu Aug 04 12:13:33 BST 2022
User: TCL
Spectrometer: QEP01345
Trigger mode: 4
Integration Time (sec): 1.000000E0
Scans to average: 10
Electric dark correction enabled: true
Nonlinearity correction enabled: false
Boxcar width: 0
XAxis mode: Raman Shifts
Number of Pixels in Spectrum: 1044
>>>>>Begin Spectral Data<<<<<
46.04893	0.575
50.45542	0.175
54.85868	-0.025
59.25871	-0.525
63.6555	-57.925
68.04907	-41.325
72.43941	-70.625
76.82654	-57.425
81.21044	-56.525
85.59113	-47.825
89.96862	-74.825
94.34289	-57.625
98.71396	-77.925
103.08183	-60.225
107.4465	-50.925
111.80798	-56.925
116.16626	-45.225
120.52136	-75.525
124.87327	-50.325
129.222	-62.225
133.56755	-51.425
137.90993	-63.125
142.24913	-51.925
146.58517	-44.925
150.91804	-39.325
155.24774	-29.525
159.57429	-14.325
163.89768	-9.825
168.21792	36.375
172.53501	55.975
176.84895	134.175
181.15975	261.475
185.46741	409.175
189.77193	582.375
194.07331	874.175
198.37157	1147.175
202.6667	1424.975
206.9587	1744.775
211.24758	2029.575
215.53334	2349.475
219.81599	2699.175
224.09553	3101.975
228.37195	3529.875
232.64527	3973.575
236.91549	4429.775
241.18261	4765.775
245.44663	5042.975
249.70755	5190.875
253.96539	5317.475
258.22014	5429.175
262.4718	5478.375
266.72039	5543.575
270.96589	5495.175
275.20832	5420.575
279.44768	5315.875
283.68397	5197.775
287.91719	5156.975
292.14735	5206.375
296.37445	5358.275
300.59849	5662.375
304.81948	6002.875
309.03742	6362.775
313.25231	6585.775
317.46415	6558.175
321.67296	6169.175
325.87872	5792.175
330.08145	5574.375
334.28114	5548.575
338.47781	5575.775
342.67145	5729.775
346.86207	5924.675
351.04966	6311.675
355.23424	6653.175
359.4158	6953.075
363.59435	6975.475
367.76989	6895.175
371.94243	6774.975
376.11196	6660.375
380.27849	6575.075
384.44203	6515.875
388.60257	6472.375
392.76012	6491.275
396.91468	6615.475
401.06626	6759.975
405.21485	6773.675
409.36047	6647.375
413.50311	6291.675
417.64277	6015.075
421.77947	5792.175
425.9132	5747.175
430.04396	5725.875
434.17176	5771.675
438.2966	5848.275
442.41849	5921.975
446.53742	6031.775
450.6534	6129.875
454.76644	6215.775
458.87653	6210.475
462.98368	6168.775
467.08789	6132.475
471.18916	6018.775
475.2875	5914.575
479.38291	5792.475
483.4754	5709.275
487.56496	5663.775
491.6516	5637.975
495.73531	5636.575
499.81612	5659.075
503.89401	5752.575
507.96899	5795.475
512.04106	5892.575
516.11023	5985.175
520.1765	6075.075
524.23987	6093.575
528.30034	6086.875
532.35792	6013.475
536.41261	5971.775
540.46441	5862.775
544.51333	5820.875
548.55936	5842.975
552.60252	5972.775
556.64279	6086.975
560.6802	6210.475
564.71473	6337.575
568.7464	6520.275
572.7752	6501.375
576.80114	6212.875
580.82422	5976.575
584.84444	5877.575
588.86181	5868.975
592.87633	5889.375
596.888	6010.575
600.89682	6381.375
604.9028	7348.575
608.90594	9433.175
612.90624	11746.375
616.90371	10881.375
620.89834	7810.775
624.89015	6477.175
628.87913	6271.175
632.86528	6432.775
636.84862	6591.375
640.82913	6460.175
644.80683	6113.275
648.78172	5921.275
652.75379	5944.375
656.72306	6182.875
660.68952	6418.175
664.65319	6325.675
668.61405	6083.175
672.57211	6032.875
676.52738	6037.175
680.47986	5933.475
684.42955	5843.075
688.37646	5781.975
692.32058	5796.775
696.26192	5879.275
700.20048	5965.475
704.13626	6014.175
708.06928	5964.075
711.99952	5927.975
715.927	5904.775
719.85171	5932.775
723.77365	5993.175
727.69284	5966.275
731.60928	5956.875
735.52295	5921.075
739.43388	5959.475
743.34206	5976.875
747.24749	6000.575
751.15017	6005.175
755.05012	6101.275
758.94733	6472.375
762.8418	7330.075
766.73354	8659.275
770.62254	9695.175
774.50882	9774.775
778.39237	9242.475
782.27321	8292.475
786.15132	7244.575
790.02671	6562.175
793.89938	6166.275
797.76935	6066.975
801.6366	5958.375
805.50115	5921.875
809.36299	5916.775
813.22213	5897.975
817.07857	5897.775
820.93231	5913.875
824.78336	5919.775
828.63172	5934.775
832.47738	5944.775
836.32036	5948.675
840.16066	5902.275
843.99827	5904.975
847.8332	5884.975
851.66546	5874.875
855.49504	5897.575
859.32195	5925.775
863.1462	5898.775
866.96777	5918.775
870.78668	5881.575
874.60293	5922.575
878.41652	5942.275
882.22745	6013.675
886.03573	6045.875
889.84136	6049.575
893.64433	6033.275
897.44466	6024.575
901.24235	6025.175
905.0374	6030.575
908.8298	5977.575
912.61957	5945.975
916.40671	5872.975
920.19121	5944.175
923.97308	6032.475
927.75233	6085.875
931.52895	6140.575
935.30295	6111.975
939.07433	5969.375
942.84309	5844.375
946.60924	5810.975
950.37278	5781.375
954.13371	5780.975
957.89203	5776.775
961.64774	5785.875
965.40086	5758.575
969.15137	5743.075
972.89929	5772.975
976.64461	5772.875
980.38733	5800.375
984.12747	5783.375
987.86502	5807.375
991.59999	5834.375
995.33237	5896.775
999.06217	5965.675
1002.78939	6031.875
1006.51404	6137.275
1010.23611	6278.575
1013.95561	6318.275
1017.67255	6320.075
1021.38692	6277.175
1025.09872	6227.075
1028.80796	6164.475
1032.51465	6141.975
1036.21877	6145.175
1039.92035	6193.875
1043.61937	6219.775
1047.31584	6271.475
1051.00976	6307.375
1054.70114	6325.075
1058.38998	6309.375
1062.07627	6322.475
1065.76003	6367.175
1069.44126	6435.675
1073.11995	6525.975
1076.79611	6633.875
1080.46974	6778.475
1084.14085	6955.575
1087.80943	7090.775
1091.47549	7138.975
1095.13903	7030.975
1098.80005	6917.175
1102.45857	6797.575
1106.11456	6779.075
1109.76805	6728.375
1113.41903	6849.275
1117.06751	7017.975
1120.71348	7281.575
1124.35696	7660.975
1127.99793	7949.375
1131.63641	7788.075
1135.2724	7383.775
1138.90589	7076.375
1142.5369	6878.275
1146.16542	6773.575
1149.79145	6655.475
1153.415	6604.175
1157.03607	6610.775
1160.65467	6713.375
1164.27079	6936.875
1167.88443	7187.275
1171.49561	7607.775
1175.10432	8241.275
1178.71056	9151.175
1182.31434	9994.775
1185.91565	10249.675
1189.51451	10074.775
1193.11091	9836.975
1196.70485	9566.975
1200.29634	9323.775
1203.88538	9021.475
1207.47197	8588.875
1211.05612	8077.475
1214.63782	7661.975
1218.21708	7389.375
1221.79391	7260.775
1225.36829	7184.375
1228.94024	7163.675
1232.50976	7235.375
1236.07685	7234.475
1239.6415	7248.675
1243.20374	7272.675
1246.76355	7309.375
1250.32093	7376.375
1253.8759	7422.475
1257.42845	7606.575
1260.97859	7815.175
1264.52631	8060.075
1268.07163	8219.075
1271.61453	8352.775
1275.15503	8404.075
1278.69312	8417.775
1282.22882	8479.975
1285.76211	8660.475
1289.29301	8921.375
1292.82151	9170.775
1296.34761	9391.375
1299.87133	9799.175
1303.39266	10516.275
1306.9116	11645.175
1310.42815	12894.275
1313.94233	13316.775
1317.45412	12549.475
1320.96354	11434.975
1324.47058	10411.275
1327.97525	9647.675
1331.47754	9229.275
1334.97747	9095.675
1338.47502	9225.675
1341.97022	9580.375
1345.46305	10340.375
1348.95352	11447.475
1352.44163	12755.675
1355.92738	14147.475
1359.41078	15881.875
1362.89183	17408.475
1366.37053	16789.875
1369.84688	13901.375
1373.32088	11180.075
1376.79254	9710.975
1380.26186	9015.275
1383.72883	8595.575
1387.19347	8173.175
1390.65578	7839.375
1394.11575	7588.075
1397.57339	7424.375
1401.0287	7290.575
1404.48168	7263.175
1407.93234	7269.475
1411.38068	7255.875
1414.82669	7349.075
1418.27039	7449.275
1421.71177	7437.575
1425.15083	7330.375
1428.58758	7245.875
1432.02203	7262.375
1435.45416	7358.675
1438.88399	7372.275
1442.31151	7339.675
1445.73673	7389.075
1449.15965	7449.975
1452.58027	7469.975
1455.9986	7464.375
1459.41463	7481.775
1462.82837	7573.675
1466.23982	7769.275
1469.64898	7976.275
1473.05586	8100.575
1476.46045	8222.775
1479.86276	8309.475
1483.26279	8422.175
1486.66054	8606.375
1490.05602	8915.375
1493.44922	9474.775
1496.84016	10379.875
1500.22882	11770.275
1503.61521	13505.775
1506.99934	15347.375
1510.38121	16556.175
1513.76081	16384.475
1517.13816	14779.875
1520.51324	12639.475
1523.88607	10926.275
1527.25665	9890.075
1530.62498	9405.175
1533.99105	9205.775
1537.35488	9083.175
1540.71647	8961.775
1544.07581	8855.275
1547.4329	8713.875
1550.78776	8578.975
1554.14038	8495.075
1557.49077	8451.075
1560.83892	8563.675
1564.18484	8770.775
1567.52853	9124.275
1570.86999	9458.975
1574.20922	9600.275
1577.54624	9509.975
1580.88103	8957.975
1584.2136	8242.775
1587.54395	7872.675
1590.87208	7796.775
1594.19801	7949.375
1597.52172	8338.975
1600.84321	8460.275
1604.16251	8334.175
1607.47959	8124.875
1610.79447	7926.475
1614.10715	7639.975
1617.41763	7356.375
1620.7259	7086.175
1624.03199	6933.275
1627.33587	6858.075
1630.63757	6904.575
1633.93707	7132.975
1637.23439	7563.575
1640.52951	8243.875
1643.82246	9232.475
1647.11321	10399.675
1650.40179	11136.975
1653.68819	10818.875
1656.97241	9562.175
1660.25446	8170.075
1663.53433	7145.475
1666.81203	6537.975
1670.08756	6184.475
1673.36092	6020.775
1676.63211	5870.975
1679.90115	5782.175
1683.16801	5695.075
1686.43272	5621.675
1689.69527	5571.275
1692.95567	5510.675
1696.2139	5492.275
1699.46999	5442.175
1702.72392	5435.875
1705.97571	5456.575
1709.22535	5437.675
1712.47284	5479.775
1715.71819	5464.775
1718.96139	5478.175
1722.20246	5443.075
1725.44139	5428.075
1728.67818	5384.575
1731.91284	5348.375
1735.14537	5312.975
1738.37576	5269.575
1741.60403	5264.875
1744.83017	5229.675
1748.05418	5240.475
1751.27607	5237.575
1754.49584	5210.075
1757.71349	5170.475
1760.92903	5180.175
1764.14244	5127.375
1767.35375	5117.875
1770.56294	5125.575
1773.77002	5093.675
1776.97499	5129.175
1780.17785	5080.175
1783.37861	5089.975
1786.57727	5107.275
1789.77382	5019.775
1792.96828	5054.475
1796.16064	5079.475
1799.3509	5025.175
1802.53907	5038.375
1805.72514	5009.075
1808.90913	5006.775
1812.09102	4989.075
1815.27083	4979.175
1818.44856	4972.875
1821.6242	4957.975
1824.79776	4948.675
1827.96924	4932.575
1831.13864	4910.675
1834.30597	4918.375
1837.47122	4895.175
1840.6344	4898.475
1843.7955	4875.375
1846.95454	4856.575
1850.11151	4869.575
1853.26642	4838.675
1856.41926	4857.475
1859.57004	4849.575
1862.71876	4835.275
1865.86542	4853.875
1869.01003	4841.375
1872.15258	4803.775
1875.29308	4830.675
1878.43152	4832.875
1881.56792	4829.575
1884.70227	4784.175
1887.83457	4809.375
1890.96482	4769.975
1894.09304	4780.975
1897.21921	4774.475
1900.34335	4771.975
1903.46544	4743.975
1906.58551	4757.275
1909.70353	4727.375
1912.81953	4745.175
1915.93349	4729.475
1919.04543	4718.275
1922.15534	4729.275
1925.26322	4698.375
1928.36908	4694.875
1931.47292	4694.975
1934.57473	4695.275
1937.67453	4668.075
1940.77232	4640.375
1943.86808	4625.675
1946.96184	4648.375
1950.05358	4583.075
1953.14331	4577.475
1956.23103	4581.175
1959.31675	4558.375
1962.40046	4498.775
1965.48217	4551.675
1968.56188	4523.075
1971.63959	4512.275
1974.7153	4517.875
1977.78901	4493.575
1980.86073	4457.675
1983.93046	4427.675
1986.99819	4376.175
1990.06394	4382.575
1993.1277	4410.775
1996.18947	4399.375
1999.24925	4349.675
2002.30706	4356.875
2005.36288	4343.375
2008.41672	4320.975
2011.46859	4292.775
2014.51848	4301.275
2017.56639	4269.675
2020.61233	4244.575
2023.6563	4258.075
2026.6983	4217.975
2029.73833	4229.175
2032.7764	4234.075
2035.8125	4175.375
2038.84664	4176.875
2041.87881	4171.075
2044.90903	4160.275
2047.93729	4173.475
2050.96359	4150.175
2053.98794	4148.675
2057.01034	4167.175
2060.03078	4130.975
2063.04927	4117.075
2066.06582	4127.675
2069.08042	4114.075
2072.09307	4121.875
2075.10378	4112.575
2078.11255	4109.675
2081.11938	4097.975
2084.12426	4089.375
2087.12722	4095.775
2090.12824	4084.575
2093.12732	4098.375
2096.12447	4096.975
2099.11969	4087.275
2102.11299	4075.275
2105.10435	4111.975
2108.09379	4097.575
2111.08131	4079.575
2114.0669	4096.175
2117.05057	4088.975
2120.03233	4059.275
2123.01216	4108.575
2125.99008	4099.475
2128.96609	4091.875
2131.94018	4117.975
2134.91236	4100.575
2137.88263	4098.375
2140.851	4101.575
2143.81746	4112.675
2146.78201	4108.675
2149.74466	4094.075
2152.7054	4115.975
2155.66425	4089.775
2158.6212	4079.175
2161.57625	4059.475
2164.52941	4048.375
2167.48067	4057.075
2170.43004	4034.375
2173.37752	4066.475
2176.32311	4056.175
2179.26681	4066.875
2182.20863	4071.275
2185.14856	4064.275
2188.08661	4056.175
2191.02278	4064.075
2193.95707	4045.975
2196.88948	4035.475
2199.82001	4037.175
2202.74867	4026.975
2205.67545	4033.775
2208.60037	4032.575
2211.52341	4025.575
2214.44458	4005.275
2217.36388	3993.675
2220.28132	3981.475
2223.1969	3950.875
2226.11061	3969.775
2229.02246	3946.575
2231.93245	3964.275
2234.84058	3915.975
2237.74686	3922.475
2240.65128	3909.275
2243.55385	3916.375
2246.45456	3897.375
2249.35343	3920.875
2252.25044	3898.075
2255.14561	3903.675
2258.03893	3902.475
2260.93041	3886.675
2263.82004	3881.075
2266.70783	3878.675
2269.59378	3846.975
2272.4779	3830.675
2275.36017	3837.675
2278.24061	3850.475
2281.11922	3800.475
2283.996	3821.275
2286.87094	3794.775
2289.74405	3789.575
2292.61534	3783.875
2295.4848	3772.475
2298.35243	3783.375
2301.21824	3768.175
2304.08223	3766.675
2306.94439	3779.275
2309.80474	3767.775
2312.66327	3762.775
2315.51999	3741.875
2318.37489	3748.575
2321.22797	3714.275
2324.07925	3715.175
2326.92871	3705.175
2329.77637	3694.575
2332.62222	3685.975
2335.46626	3667.675
2338.3085	3663.475
2341.14893	3677.475
2343.98756	3678.375
2346.8244	3661.875
2349.65943	3662.675
2352.49267	3652.275
2355.32411	3665.675
2358.15376	3672.175
2360.98161	3665.675
2363.80768	3650.775
2366.63195	3657.075
2369.45444	3657.975
2372.27514	3663.875
2375.09405	3662.775
2377.91118	3634.975
2380.72652	3620.975
2383.54009	3616.775
2386.35187	3621.075
2389.16188	3589.975
2391.97011	3596.075
2394.77657	3574.575
2397.58125	3568.075
2400.38416	3570.975
2403.18529	3562.875
2405.98466	3543.975
2408.78226	3540.775
2411.57809	3528.375
2414.37216	3528.775
2417.16446	3522.575
2419.955	3499.975
2422.74378	3516.375
2425.5308	3499.075
2428.31606	3506.575
2431.09956	3509.675
2433.88131	3490.975
2436.6613	3498.075
2439.43954	3492.575
2442.21603	3492.775
2444.99077	3466.475
2447.76377	3473.975
2450.53501	3472.975
2453.30451	3461.875
2456.07226	3464.275
2458.83827	3452.175
2461.60254	3422.375
2464.36507	3461.975
2467.12586	3437.575
2469.88492	3439.775
2472.64224	3429.675
2475.39782	3416.675
2478.15167	3439.775
2480.90379	3411.475
2483.65417	3437.175
2486.40283	3441.275
2489.14976	3453.075
2491.89497	3430.275
2494.63845	3428.275
2497.3802	3423.175
2500.12024	3421.675
2502.85855	3434.975
2505.59514	3412.975
2508.33002	3411.875
2511.06318	3383.175
2513.79462	3379.275
2516.52435	3342.575
2519.25237	3335.475
2521.97867	3334.175
2524.70327	3333.675
2527.42616	3325.975
2530.14734	3337.275
2532.86681	3322.275
2535.58458	3327.875
2538.30065	3308.875
2541.01501	3324.775
2543.72768	3290.075
2546.43864	3303.875
2549.14791	3282.375
2551.85548	3275.675
2554.56136	3273.475
2557.26554	3278.975
2559.96803	3269.775
2562.66883	3259.075
2565.36794	3242.375
2568.06536	3214.975
2570.7611	3245.675
2573.45514	3229.775
2576.14751	3230.275
2578.83819	3205.775
2581.52719	3208.475
2584.21451	3196.275
2586.90015	3178.075
2589.58411	3167.875
2592.2664	3181.775
2594.94701	3182.775
2597.62594	3178.175
2600.30321	3117.475
2602.9788	3128.975
2605.65273	3142.575
2608.32498	3122.875
2610.99557	3137.875
2613.66449	3115.775
2616.33175	3138.175
2618.99734	3126.975
2621.66128	3137.975
2624.32355	3100.775
2626.98416	3091.975
2629.64311	3093.675
2632.30041	3085.675
2634.95605	3060.775
2637.61004	3053.775
2640.26238	3031.775
2642.91306	3044.875
2645.56209	3057.175
2648.20948	3057.875
2650.85521	3030.675
2653.4993	3051.475
2656.14175	3047.375
2658.78255	3035.175
2661.42171	3001.575
2664.05923	3041.475
2666.6951	3039.775
2669.32934	3056.075
2671.96194	3058.975
2674.59291	3046.575
2677.22224	3051.675
2679.84993	3054.175
2682.476	3047.375
2685.10043	3038.375
2687.72324	3013.875
2690.34441	3029.575
2692.96396	3018.575
2695.58188	3040.075
2698.19818	3032.175
2700.81285	3010.375
2703.4259	3016.375
2706.03733	2977.275
2708.64714	2980.275
2711.25533	3018.575
2713.86191	3004.475
2716.46687	3005.275
2719.07021	2999.875
2721.67194	3012.275
2724.27206	3023.275
2726.87057	2994.475
2729.46747	3001.675
2732.06276	3007.675
2734.65644	2987.675
2737.24852	2984.775
2739.83899	2954.275
2742.42786	2979.875
2745.01513	2989.975
2747.60079	2967.775
2750.18486	2949.175
2752.76733	2958.275
2755.3482	2951.475
2757.92747	2951.375
2760.50515	2922.575
2763.08123	2919.475
2765.65573	2925.875
2768.22863	2916.275
2770.79994	2907.175
2773.36967	2897.275
2775.9378	2895.975
2778.50435	2889.275
2781.06932	2875.775
2783.6327	2879.875
2786.1945	2903.975
2788.75471	2876.175
2791.31335	2875.675
2793.87041	2872.675
2796.42589	2849.475
2798.97979	2842.375
2801.53212	2849.375
2804.08288	2872.275
2806.63206	2830.675
2809.17967	2824.775
2811.72571	2840.875
2814.27018	2835.775
2816.81308	2816.675
2819.35442	2785.675
2821.89419	2803.675
2824.43239	2795.075
2826.96904	2812.775
2829.50412	2787.075
2832.03763	2797.675
2834.56959	2798.075
2837.1	2785.375
2839.62884	2792.675
2842.15613	2777.675
2844.68186	2791.275
2847.20604	2760.875
2849.72867	2761.175
2852.24974	2763.675
2854.76927	2736.775
2857.28724	2691.275
2859.80367	2749.775
2862.31855	2746.575
2864.83189	2745.975
2867.34368	2749.675
2869.85393	2766.875
2872.36264	2722.175
2874.8698	2741.775
2877.37543	2741.375
2879.87952	2726.375
2882.38207	2713.475
2884.88308	2727.275
2887.38256	2715.375
2889.88051	2711.175
2892.37692	2710.175
2894.8718	2700.675
2897.36515	2712.975
2899.85698	2705.775
2902.34727	2691.775
2904.83604	2702.175
2907.32328	2714.175
2909.809	2715.475
2912.29319	2713.175
2914.77587	2721.175
2917.25702	2743.975
2919.73665	2730.475
2922.21476	2734.175
2924.69136	2744.375
2927.16644	2718.775
2929.64	2721.775
2932.11205	2698.375
2934.58258	2708.975
2937.05161	2696.275
2939.51912	2691.575
2941.98513	2718.675
2944.44962	2692.575
2946.91261	2657.375
2949.37409	2655.475
2951.83407	2668.775
2954.29254	2653.075
2956.74951	2662.875
2959.20498	2642.175
2961.65895	2640.175
2964.11142	2634.675
2966.56239	2625.375
2969.01186	2647.075
2971.45984	2628.775
2973.90632	2620.075
2976.35131	2634.175
2978.7948	2619.375
2981.23681	2611.875
2983.67732	2613.675
2986.11635	2617.475
2988.55388	2574.875
2990.98993	2582.275
2993.4245	2569.875
2995.85758	2557.175
2998.28917	2551.075
3000.71928	2544.775
3003.14791	2548.675
3005.57506	2528.875
3008.00073	2524.975
3010.42493	2469.375
3012.84764	2522.375
3015.26888	2517.775
3017.68865	2508.975
3020.10694	2461.775
3022.52376	2483.275
3024.9391	2474.675
3027.35298	2469.075
3029.76539	2451.975
3032.17632	2458.175
3034.5858	2451.075
3036.9938	2469.375
3039.40034	2449.375
3041.80542	2450.475
3044.20903	2423.175
3046.61118	2428.875
3049.01187	2421.075
3051.4111	2407.375
3053.80888	2405.275
3056.20519	2401.075
3058.60005	2382.775
3060.99345	2405.775
3063.3854	2373.875
3065.7759	2371.875
3068.16494	2360.075
3070.55254	2351.275
3072.93868	2370.775
3075.32338	2350.175
3077.70662	2342.975
3080.08842	2323.775
3082.46878	2325.275
3084.84769	2346.975
3087.22515	2317.575
3089.60118	2340.875
3091.97576	2304.875
3094.3489	2329.875
3096.72061	2313.975
3099.09087	2287.375
3101.4597	2321.275
3103.82709	2297.575
3106.19305	2296.875
3108.55757	2299.575
3110.92066	2281.775
3113.28232	2290.375
3115.64255	2289.975
3118.00134	2288.175
3120.35871	2270.275
3122.71466	2242.275
3125.06917	2264.475
3127.42226	2248.875
3129.77393	2230.575
3132.12417	2259.775
3134.47299	2247.775
3136.82039	2221.475
3139.16636	2204.775
3141.51092	2237.275
3143.85406	2228.775
3146.19579	2215.375
3148.53609	2212.375
3150.87499	2219.175
3153.21246	2206.475
3155.54853	2210.375
3157.88318	2222.375
3160.21642	2211.675
3162.54826	2210.175
3164.87868	2208.875
3167.2077	2178.175
3169.5353	2199.475
3171.86151	2198.575
3174.18631	2190.375
3176.5097	2185.375
3178.83169	2193.175
3181.15228	2182.175
3183.47147	2160.075
3185.78926	2143.075
3188.10565	2158.275
3190.42065	2131.175
3192.73424	2147.975
3195.04645	2138.775
3197.35725	2129.475
3199.66667	2144.275
3201.97469	2136.675
3204.28132	2116.175
3206.58656	2135.575
3208.8904	2138.475
3211.19287	2130.675
3213.49394	2126.775
3215.79363	2114.975
3218.09193	2125.575
3220.38884	2124.775
3222.68438	2118.775
3224.97853	2100.375
3227.2713	2124.875
3229.56269	2111.775
3231.8527	2106.375
3234.14133	2096.675
