Data from AgNPs_UA_5uM_CRN_500uM_SU_RamanShift__290__12-17-43-198.txt Node

Date: Thu Aug 04 12:17:43 BST 2022
User: TCL
Spectrometer: QEP01345
Trigger mode: 4
Integration Time (sec): 1.000000E0
Scans to average: 10
Electric dark correction enabled: true
Nonlinearity correction enabled: false
Boxcar width: 0
XAxis mode: Raman Shifts
Number of Pixels in Spectrum: 1044
>>>>>Begin Spectral Data<<<<<
46.04893	-1.5875
50.45542	-0.2875
54.85868	1.0125
59.25871	-0.4875
63.6555	-57.2875
68.04907	-39.5875
72.43941	-70.9875
76.82654	-56.4875
81.21044	-57.9875
85.59113	-51.2875
89.96862	-75.5875
94.34289	-57.2875
98.71396	-78.2875
103.08183	-58.1875
107.4465	-51.2875
111.80798	-56.7875
116.16626	-44.5875
120.52136	-73.9875
124.87327	-50.6875
129.222	-63.0875
133.56755	-51.5875
137.90993	-62.2875
142.24913	-50.6875
146.58517	-43.8875
150.91804	-41.3875
155.24774	-28.4875
159.57429	-10.4875
163.89768	-6.5875
168.21792	35.2125
172.53501	56.8125
176.84895	135.9125
181.15975	270.0125
185.46741	415.6125
189.77193	593.8125
194.07331	887.3125
198.37157	1171.8125
202.6667	1448.0125
206.9587	1775.2125
211.24758	2082.4125
215.53334	2407.9125
219.81599	2748.2125
224.09553	3156.8125
228.37195	3592.1125
232.64527	4048.1125
236.91549	4502.5125
241.18261	4862.0125
245.44663	5124.5125
249.70755	5291.0125
253.96539	5414.0125
258.22014	5520.8125
262.4718	5582.6125
266.72039	5634.5125
270.96589	5609.6125
275.20832	5519.9125
279.44768	5401.0125
283.68397	5310.2125
287.91719	5255.7125
292.14735	5307.3125
296.37445	5463.7125
300.59849	5750.7125
304.81948	6103.1125
309.03742	6501.6125
313.25231	6745.6125
317.46415	6694.0125
321.67296	6320.5125
325.87872	5898.1125
330.08145	5695.5125
334.28114	5638.6125
338.47781	5682.9125
342.67145	5830.8125
346.86207	6074.1125
351.04966	6418.5125
355.23424	6797.6125
359.4158	7055.0125
363.59435	7113.8125
367.76989	7015.6125
371.94243	6903.3125
376.11196	6776.8125
380.27849	6715.3125
384.44203	6642.3125
388.60257	6590.3125
392.76012	6610.9125
396.91468	6737.4125
401.06626	6873.5125
405.21485	6922.8125
409.36047	6758.3125
413.50311	6403.6125
417.64277	6119.5125
421.77947	5898.3125
425.9132	5865.8125
430.04396	5833.5125
434.17176	5868.5125
438.2966	5953.7125
442.41849	6020.8125
446.53742	6142.6125
450.6534	6258.8125
454.76644	6321.5125
458.87653	6339.0125
462.98368	6284.0125
467.08789	6223.5125
471.18916	6105.8125
475.2875	6015.8125
479.38291	5883.6125
483.4754	5777.6125
487.56496	5733.0125
491.6516	5709.6125
495.73531	5720.2125
499.81612	5773.4125
503.89401	5834.8125
507.96899	5902.0125
512.04106	5983.4125
516.11023	6086.0125
520.1765	6148.4125
524.23987	6185.6125
528.30034	6174.4125
532.35792	6093.7125
536.41261	6035.0125
540.46441	5953.8125
544.51333	5886.2125
548.55936	5951.4125
552.60252	6080.9125
556.64279	6162.7125
560.6802	6278.7125
564.71473	6431.9125
568.7464	6634.9125
572.7752	6587.7125
576.80114	6306.7125
580.82422	6075.9125
584.84444	5971.1125
588.86181	5965.7125
592.87633	5980.9125
596.888	6101.5125
600.89682	6468.4125
604.9028	7455.3125
608.90594	9588.5125
612.90624	11992.7125
616.90371	11089.8125
620.89834	7962.1125
624.89015	6556.5125
628.87913	6353.9125
632.86528	6512.6125
636.84862	6664.5125
640.82913	6551.4125
644.80683	6199.0125
648.78172	5997.4125
652.75379	6023.7125
656.72306	6264.8125
660.68952	6505.4125
664.65319	6421.0125
668.61405	6171.1125
672.57211	6096.6125
676.52738	6098.4125
680.47986	5986.7125
684.42955	5907.2125
688.37646	5848.2125
692.32058	5866.8125
696.26192	5944.8125
700.20048	6031.7125
704.13626	6071.6125
708.06928	6027.0125
711.99952	5988.6125
715.927	5958.7125
719.85171	6010.4125
723.77365	6069.3125
727.69284	6046.9125
731.60928	6015.9125
735.52295	5970.8125
739.43388	6004.4125
743.34206	6056.6125
747.24749	6064.6125
751.15017	6053.1125
755.05012	6132.0125
758.94733	6553.5125
762.8418	7435.7125
766.73354	8817.7125
770.62254	9867.3125
774.50882	9941.0125
778.39237	9404.3125
782.27321	8414.6125
786.15132	7319.0125
790.02671	6649.4125
793.89938	6244.3125
797.76935	6133.0125
801.6366	6031.5125
805.50115	5979.8125
809.36299	5957.9125
813.22213	5978.4125
817.07857	5964.6125
820.93231	5956.6125
824.78336	5989.3125
828.63172	6007.0125
832.47738	6020.1125
836.32036	5984.6125
840.16066	5942.1125
843.99827	5936.3125
847.8332	5924.6125
851.66546	5953.4125
855.49504	5961.0125
859.32195	5998.0125
863.1462	5960.8125
866.96777	5979.5125
870.78668	5950.0125
874.60293	5980.5125
878.41652	5988.4125
882.22745	6066.3125
886.03573	6100.3125
889.84136	6100.9125
893.64433	6121.0125
897.44466	6061.8125
901.24235	6074.6125
905.0374	6076.3125
908.8298	6022.1125
912.61957	5993.0125
916.40671	5954.1125
920.19121	5994.2125
923.97308	6095.8125
927.75233	6158.7125
931.52895	6213.8125
935.30295	6169.5125
939.07433	6016.1125
942.84309	5892.6125
946.60924	5865.3125
950.37278	5833.0125
954.13371	5850.8125
957.89203	5822.0125
961.64774	5843.2125
965.40086	5810.9125
969.15137	5788.5125
972.89929	5820.9125
976.64461	5831.5125
980.38733	5840.3125
984.12747	5833.2125
987.86502	5851.4125
991.59999	5869.0125
995.33237	5938.9125
999.06217	5983.1125
1002.78939	6097.6125
1006.51404	6209.7125
1010.23611	6331.2125
1013.95561	6374.8125
1017.67255	6355.6125
1021.38692	6346.1125
1025.09872	6288.6125
1028.80796	6201.1125
1032.51465	6206.7125
1036.21877	6190.4125
1039.92035	6235.8125
1043.61937	6271.8125
1047.31584	6327.5125
1051.00976	6376.4125
1054.70114	6373.7125
1058.38998	6373.9125
1062.07627	6367.4125
1065.76003	6388.8125
1069.44126	6481.3125
1073.11995	6558.1125
1076.79611	6701.4125
1080.46974	6859.3125
1084.14085	7015.9125
1087.80943	7153.5125
1091.47549	7188.3125
1095.13903	7089.6125
1098.80005	6973.3125
1102.45857	6869.8125
1106.11456	6840.8125
1109.76805	6787.0125
1113.41903	6893.7125
1117.06751	7064.5125
1120.71348	7380.6125
1124.35696	7754.1125
1127.99793	8028.7125
1131.63641	7862.8125
1135.2724	7448.7125
1138.90589	7144.9125
1142.5369	6947.4125
1146.16542	6836.1125
1149.79145	6718.0125
1153.415	6680.9125
1157.03607	6688.8125
1160.65467	6780.1125
1164.27079	7013.0125
1167.88443	7260.3125
1171.49561	7717.0125
1175.10432	8353.0125
1178.71056	9317.0125
1182.31434	10158.5125
1185.91565	10419.3125
1189.51451	10269.1125
1193.11091	9992.4125
1196.70485	9730.4125
1200.29634	9463.3125
1203.88538	9162.7125
1207.47197	8692.7125
1211.05612	8194.1125
1214.63782	7747.0125
1218.21708	7486.7125
1221.79391	7338.8125
1225.36829	7249.1125
1228.94024	7269.4125
1232.50976	7281.8125
1236.07685	7313.0125
1239.6415	7333.0125
1243.20374	7339.4125
1246.76355	7390.6125
1250.32093	7449.6125
1253.8759	7531.8125
1257.42845	7703.8125
1260.97859	7927.5125
1264.52631	8154.3125
1268.07163	8344.3125
1271.61453	8445.4125
1275.15503	8513.1125
1278.69312	8515.3125
1282.22882	8580.8125
1285.76211	8805.9125
1289.29301	9029.8125
1292.82151	9322.2125
1296.34761	9538.3125
1299.87133	9967.2125
1303.39266	10674.6125
1306.9116	11837.3125
1310.42815	13141.3125
1313.94233	13567.2125
1317.45412	12783.7125
1320.96354	11640.8125
1324.47058	10576.6125
1327.97525	9754.4125
1331.47754	9350.9125
1334.97747	9239.1125
1338.47502	9340.8125
1341.97022	9721.7125
1345.46305	10493.6125
1348.95352	11639.0125
1352.44163	13010.7125
1355.92738	14464.2125
1359.41078	16197.6125
1362.89183	17776.0125
1366.37053	17177.3125
1369.84688	14215.4125
1373.32088	11383.6125
1376.79254	9872.4125
1380.26186	9162.2125
1383.72883	8715.1125
1387.19347	8314.2125
1390.65578	7924.3125
1394.11575	7674.6125
1397.57339	7503.6125
1401.0287	7394.1125
1404.48168	7330.7125
1407.93234	7348.5125
1411.38068	7357.6125
1414.82669	7418.6125
1418.27039	7510.3125
1421.71177	7493.2125
1425.15083	7419.4125
1428.58758	7312.0125
1432.02203	7365.3125
1435.45416	7422.7125
1438.88399	7429.9125
1442.31151	7432.1125
1445.73673	7469.8125
1449.15965	7525.8125
1452.58027	7543.9125
1455.9986	7548.0125
1459.41463	7551.6125
1462.82837	7673.1125
1466.23982	7860.5125
1469.64898	8073.4125
1473.05586	8217.2125
1476.46045	8332.3125
1479.86276	8387.6125
1483.26279	8545.9125
1486.66054	8744.7125
1490.05602	9064.5125
1493.44922	9641.9125
1496.84016	10547.3125
1500.22882	11966.0125
1503.61521	13797.1125
1506.99934	15686.7125
1510.38121	16917.3125
1513.76081	16759.1125
1517.13816	15087.7125
1520.51324	12883.5125
1523.88607	11135.8125
1527.25665	10092.5125
1530.62498	9580.6125
1533.99105	9386.4125
1537.35488	9212.8125
1540.71647	9129.1125
1544.07581	9005.7125
1547.4329	8816.9125
1550.78776	8697.0125
1554.14038	8601.7125
1557.49077	8579.4125
1560.83892	8662.0125
1564.18484	8920.4125
1567.52853	9268.0125
1570.86999	9614.1125
1574.20922	9765.5125
1577.54624	9677.1125
1580.88103	9103.0125
1584.2136	8386.1125
1587.54395	7974.6125
1590.87208	7904.4125
1594.19801	8052.2125
1597.52172	8442.9125
1600.84321	8591.8125
1604.16251	8432.3125
1607.47959	8232.4125
1610.79447	8029.4125
1614.10715	7727.8125
1617.41763	7440.0125
1620.7259	7170.4125
1624.03199	6990.0125
1627.33587	6941.5125
1630.63757	6977.2125
1633.93707	7201.6125
1637.23439	7628.3125
1640.52951	8325.0125
1643.82246	9356.1125
1647.11321	10567.8125
1650.40179	11341.5125
1653.68819	10986.4125
1656.97241	9723.6125
1660.25446	8286.8125
1663.53433	7236.0125
1666.81203	6591.8125
1670.08756	6251.8125
1673.36092	6065.8125
1676.63211	5905.7125
1679.90115	5826.3125
1683.16801	5734.7125
1686.43272	5653.4125
1689.69527	5590.3125
1692.95567	5555.7125
1696.2139	5535.5125
1699.46999	5473.5125
1702.72392	5477.8125
1705.97571	5502.6125
1709.22535	5482.8125
1712.47284	5502.0125
1715.71819	5522.0125
1718.96139	5511.6125
1722.20246	5487.8125
1725.44139	5443.3125
1728.67818	5421.4125
1731.91284	5370.8125
1735.14537	5338.2125
1738.37576	5309.6125
1741.60403	5290.7125
1744.83017	5257.8125
1748.05418	5272.0125
1751.27607	5276.9125
1754.49584	5225.2125
1757.71349	5192.2125
1760.92903	5218.4125
1764.14244	5139.0125
1767.35375	5147.5125
1770.56294	5157.7125
1773.77002	5131.9125
1776.97499	5128.4125
1780.17785	5122.5125
1783.37861	5106.6125
1786.57727	5108.4125
1789.77382	5052.6125
1792.96828	5080.1125
1796.16064	5084.4125
1799.3509	5064.9125
1802.53907	5062.2125
1805.72514	5044.0125
1808.90913	5024.9125
1812.09102	5016.9125
1815.27083	4998.4125
1818.44856	4998.3125
1821.6242	4997.4125
1824.79776	4980.1125
1827.96924	4956.7125
1831.13864	4936.4125
1834.30597	4944.6125
1837.47122	4927.0125
1840.6344	4916.3125
1843.7955	4885.6125
1846.95454	4894.8125
1850.11151	4902.3125
1853.26642	4874.4125
1856.41926	4866.4125
1859.57004	4873.0125
1862.71876	4867.2125
1865.86542	4879.3125
1869.01003	4863.7125
1872.15258	4846.0125
1875.29308	4852.0125
1878.43152	4857.2125
1881.56792	4836.0125
1884.70227	4814.9125
1887.83457	4816.1125
1890.96482	4785.4125
1894.09304	4798.6125
1897.21921	4793.2125
1900.34335	4794.1125
1903.46544	4753.1125
1906.58551	4796.6125
1909.70353	4781.4125
1912.81953	4771.8125
1915.93349	4756.3125
1919.04543	4758.6125
1922.15534	4723.6125
1925.26322	4727.7125
1928.36908	4701.8125
1931.47292	4715.0125
1934.57473	4719.1125
1937.67453	4677.7125
1940.77232	4664.9125
1943.86808	4640.3125
1946.96184	4645.6125
1950.05358	4627.3125
1953.14331	4598.8125
1956.23103	4627.6125
1959.31675	4588.2125
1962.40046	4518.4125
1965.48217	4563.6125
1968.56188	4554.3125
1971.63959	4534.8125
1974.7153	4532.7125
1977.78901	4526.6125
1980.86073	4502.6125
1983.93046	4465.1125
1986.99819	4382.5125
1990.06394	4396.9125
1993.1277	4441.1125
1996.18947	4402.8125
1999.24925	4373.1125
2002.30706	4364.3125
2005.36288	4369.8125
2008.41672	4348.1125
2011.46859	4311.7125
2014.51848	4308.2125
2017.56639	4284.2125
2020.61233	4285.2125
2023.6563	4271.6125
2026.6983	4239.3125
2029.73833	4241.8125
2032.7764	4245.4125
2035.8125	4200.1125
2038.84664	4201.2125
2041.87881	4177.5125
2044.90903	4190.5125
2047.93729	4184.5125
2050.96359	4160.7125
2053.98794	4147.4125
2057.01034	4174.8125
2060.03078	4156.5125
2063.04927	4138.4125
2066.06582	4143.0125
2069.08042	4133.9125
2072.09307	4124.3125
2075.10378	4123.0125
2078.11255	4120.2125
2081.11938	4111.6125
2084.12426	4110.1125
2087.12722	4105.5125
2090.12824	4110.8125
2093.12732	4112.5125
2096.12447	4131.6125
2099.11969	4107.8125
2102.11299	4098.1125
2105.10435	4108.6125
2108.09379	4110.8125
2111.08131	4113.4125
2114.0669	4100.8125
2117.05057	4099.9125
2120.03233	4101.5125
2123.01216	4122.6125
2125.99008	4104.0125
2128.96609	4107.6125
2131.94018	4129.7125
2134.91236	4115.5125
2137.88263	4107.8125
2140.851	4105.6125
2143.81746	4130.4125
2146.78201	4120.3125
2149.74466	4113.0125
2152.7054	4116.1125
2155.66425	4111.8125
2158.6212	4092.8125
2161.57625	4069.4125
2164.52941	4067.3125
2167.48067	4062.8125
2170.43004	4089.9125
2173.37752	4096.2125
2176.32311	4088.5125
2179.26681	4076.6125
2182.20863	4080.7125
2185.14856	4082.8125
2188.08661	4073.7125
2191.02278	4083.9125
2193.95707	4050.1125
2196.88948	4037.9125
2199.82001	4069.7125
2202.74867	4036.0125
2205.67545	4046.6125
2208.60037	4053.2125
2211.52341	4027.4125
2214.44458	4020.0125
2217.36388	4020.7125
2220.28132	3997.4125
2223.1969	3976.3125
2226.11061	3972.1125
2229.02246	3957.8125
2231.93245	3967.6125
2234.84058	3935.2125
2237.74686	3939.7125
2240.65128	3929.1125
2243.55385	3941.2125
2246.45456	3907.0125
2249.35343	3929.2125
2252.25044	3905.7125
2255.14561	3922.9125
2258.03893	3913.3125
2260.93041	3896.5125
2263.82004	3887.8125
2266.70783	3913.2125
2269.59378	3876.4125
2272.4779	3853.1125
2275.36017	3868.7125
2278.24061	3838.2125
2281.11922	3805.9125
2283.996	3818.2125
2286.87094	3815.0125
2289.74405	3807.0125
2292.61534	3799.8125
2295.4848	3799.8125
2298.35243	3785.0125
2301.21824	3784.6125
2304.08223	3775.1125
2306.94439	3786.2125
2309.80474	3770.6125
2312.66327	3760.7125
2315.51999	3766.7125
2318.37489	3759.4125
2321.22797	3726.1125
2324.07925	3714.9125
2326.92871	3726.8125
2329.77637	3718.8125
2332.62222	3704.6125
2335.46626	3687.6125
2338.3085	3677.2125
2341.14893	3693.3125
2343.98756	3703.3125
2346.8244	3666.9125
2349.65943	3660.1125
2352.49267	3670.8125
2355.32411	3678.4125
2358.15376	3677.8125
2360.98161	3665.5125
2363.80768	3648.1125
2366.63195	3678.1125
2369.45444	3686.2125
2372.27514	3671.6125
2375.09405	3675.5125
2377.91118	3647.9125
2380.72652	3644.3125
2383.54009	3639.0125
2386.35187	3638.2125
2389.16188	3599.5125
2391.97011	3597.9125
2394.77657	3598.5125
2397.58125	3591.6125
2400.38416	3583.4125
2403.18529	3578.9125
2405.98466	3550.0125
2408.78226	3559.4125
2411.57809	3538.2125
2414.37216	3529.5125
2417.16446	3526.7125
2419.955	3488.5125
2422.74378	3528.2125
2425.5308	3506.9125
2428.31606	3514.7125
2431.09956	3516.2125
2433.88131	3489.3125
2436.6613	3519.9125
2439.43954	3497.0125
2442.21603	3491.6125
2444.99077	3477.3125
2447.76377	3485.0125
2450.53501	3482.9125
2453.30451	3484.4125
2456.07226	3473.1125
2458.83827	3457.5125
2461.60254	3421.8125
2464.36507	3462.6125
2467.12586	3436.5125
2469.88492	3455.3125
2472.64224	3462.7125
2475.39782	3425.8125
2478.15167	3448.8125
2480.90379	3447.9125
2483.65417	3451.7125
2486.40283	3443.3125
2489.14976	3460.8125
2491.89497	3447.8125
2494.63845	3452.6125
2497.3802	3438.5125
2500.12024	3420.6125
2502.85855	3422.3125
2505.59514	3432.6125
2508.33002	3416.5125
2511.06318	3382.1125
2513.79462	3394.6125
2516.52435	3362.8125
2519.25237	3347.4125
2521.97867	3347.2125
2524.70327	3353.5125
2527.42616	3337.4125
2530.14734	3357.3125
2532.86681	3334.6125
2535.58458	3335.3125
2538.30065	3320.3125
2541.01501	3328.4125
2543.72768	3305.8125
2546.43864	3304.2125
2549.14791	3311.8125
2551.85548	3286.0125
2554.56136	3284.1125
2557.26554	3290.6125
2559.96803	3284.0125
2562.66883	3281.0125
2565.36794	3266.6125
2568.06536	3233.1125
2570.7611	3250.8125
2573.45514	3248.9125
2576.14751	3242.0125
2578.83819	3200.1125
2581.52719	3214.3125
2584.21451	3227.8125
2586.90015	3191.2125
2589.58411	3180.6125
2592.2664	3191.0125
2594.94701	3187.3125
2597.62594	3180.8125
2600.30321	3119.4125
2602.9788	3142.6125
2605.65273	3136.6125
2608.32498	3144.2125
2610.99557	3172.1125
2613.66449	3118.4125
2616.33175	3150.1125
2618.99734	3147.9125
2621.66128	3124.6125
2624.32355	3124.7125
2626.98416	3110.6125
2629.64311	3096.5125
2632.30041	3095.1125
2634.95605	3070.7125
2637.61004	3061.2125
2640.26238	3043.2125
2642.91306	3060.8125
2645.56209	3072.3125
2648.20948	3064.4125
2650.85521	3048.3125
2653.4993	3058.9125
2656.14175	3044.5125
2658.78255	3041.5125
2661.42171	3022.1125
2664.05923	3061.3125
2666.6951	3056.7125
2669.32934	3069.4125
2671.96194	3064.1125
2674.59291	3067.9125
2677.22224	3061.6125
2679.84993	3048.2125
2682.476	3050.6125
2685.10043	3046.0125
2687.72324	3024.2125
2690.34441	3032.5125
2692.96396	3032.6125
2695.58188	3054.7125
2698.19818	3042.4125
2700.81285	3036.9125
2703.4259	3009.4125
2706.03733	2988.3125
2708.64714	2992.4125
2711.25533	3024.2125
2713.86191	3026.4125
2716.46687	3016.7125
2719.07021	3021.0125
2721.67194	3017.3125
2724.27206	3032.7125
2726.87057	3018.2125
2729.46747	3001.1125
2732.06276	3016.7125
2734.65644	2992.9125
2737.24852	2995.9125
2739.83899	2977.8125
2742.42786	2990.1125
2745.01513	2991.4125
2747.60079	2975.1125
2750.18486	2951.3125
2752.76733	2956.3125
2755.3482	2949.6125
2757.92747	2949.6125
2760.50515	2936.5125
2763.08123	2936.8125
2765.65573	2920.4125
2768.22863	2930.2125
2770.79994	2907.7125
2773.36967	2907.3125
2775.9378	2900.7125
2778.50435	2913.7125
2781.06932	2888.9125
2783.6327	2879.5125
2786.1945	2903.2125
2788.75471	2896.9125
2791.31335	2880.0125
2793.87041	2872.7125
2796.42589	2869.3125
2798.97979	2856.4125
2801.53212	2864.1125
2804.08288	2875.8125
2806.63206	2854.5125
2809.17967	2838.4125
2811.72571	2853.2125
2814.27018	2852.0125
2816.81308	2840.3125
2819.35442	2804.1125
2821.89419	2815.3125
2824.43239	2797.1125
2826.96904	2840.8125
2829.50412	2803.9125
2832.03763	2807.7125
2834.56959	2808.2125
2837.1	2801.5125
2839.62884	2796.4125
2842.15613	2786.7125
2844.68186	2810.5125
2847.20604	2772.4125
2849.72867	2757.8125
2852.24974	2783.6125
2854.76927	2752.8125
2857.28724	2694.3125
2859.80367	2772.8125
2862.31855	2754.0125
2864.83189	2746.9125
2867.34368	2769.4125
2869.85393	2776.7125
2872.36264	2751.3125
2874.8698	2737.3125
2877.37543	2750.9125
2879.87952	2754.2125
2882.38207	2720.1125
2884.88308	2733.8125
2887.38256	2735.2125
2889.88051	2731.1125
2892.37692	2725.8125
2894.8718	2700.7125
2897.36515	2726.0125
2899.85698	2722.1125
2902.34727	2714.9125
2904.83604	2726.7125
2907.32328	2730.7125
2909.809	2739.5125
2912.29319	2727.5125
2914.77587	2726.0125
2917.25702	2755.7125
2919.73665	2763.3125
2922.21476	2757.4125
2924.69136	2752.0125
2927.16644	2732.9125
2929.64	2732.1125
2932.11205	2727.5125
2934.58258	2717.8125
2937.05161	2696.6125
2939.51912	2718.1125
2941.98513	2724.0125
2944.44962	2691.5125
2946.91261	2673.3125
2949.37409	2683.6125
2951.83407	2675.9125
2954.29254	2662.3125
2956.74951	2662.6125
2959.20498	2661.0125
2961.65895	2662.4125
2964.11142	2648.6125
2966.56239	2635.6125
2969.01186	2660.6125
2971.45984	2646.8125
2973.90632	2625.1125
2976.35131	2639.8125
2978.7948	2628.6125
2981.23681	2629.4125
2983.67732	2631.7125
2986.11635	2624.3125
2988.55388	2604.1125
2990.98993	2594.4125
2993.4245	2579.1125
2995.85758	2576.4125
2998.28917	2570.7125
3000.71928	2555.3125
3003.14791	2551.4125
3005.57506	2552.3125
3008.00073	2536.3125
3010.42493	2474.7125
3012.84764	2522.1125
3015.26888	2528.6125
3017.68865	2510.3125
3020.10694	2481.9125
3022.52376	2493.4125
3024.9391	2487.0125
3027.35298	2478.9125
3029.76539	2462.4125
3032.17632	2457.8125
3034.5858	2457.2125
3036.9938	2470.6125
3039.40034	2457.2125
3041.80542	2431.9125
3044.20903	2429.4125
3046.61118	2434.6125
3049.01187	2432.2125
3051.4111	2424.9125
3053.80888	2414.5125
3056.20519	2405.6125
3058.60005	2399.3125
3060.99345	2419.7125
3063.3854	2400.1125
3065.7759	2374.6125
3068.16494	2370.7125
3070.55254	2369.1125
3072.93868	2383.1125
3075.32338	2360.7125
3077.70662	2350.3125
3080.08842	2344.7125
3082.46878	2328.6125
3084.84769	2341.3125
3087.22515	2318.8125
3089.60118	2341.9125
3091.97576	2317.7125
3094.3489	2326.2125
3096.72061	2328.3125
3099.09087	2312.3125
3101.4597	2327.1125
3103.82709	2312.7125
3106.19305	2291.4125
3108.55757	2302.6125
3110.92066	2300.3125
3113.28232	2310.9125
3115.64255	2309.2125
3118.00134	2294.2125
3120.35871	2281.7125
3122.71466	2251.5125
