Data from AgNPs_UA_20uM_CRN_500uM_SU_RamanShift__68__13-47-50-303.txt Node

Date: Thu Aug 04 13:47:50 BST 2022
User: TCL
Spectrometer: QEP01345
Trigger mode: 4
Integration Time (sec): 1.000000E0
Scans to average: 10
Electric dark correction enabled: true
Nonlinearity correction enabled: false
Boxcar width: 0
XAxis mode: Raman Shifts
Number of Pixels in Spectrum: 1044
>>>>>Begin Spectral Data<<<<<
46.04893	-1.55
50.45542	0.95
54.85868	0.85
59.25871	0.05
63.6555	11.45
68.04907	8.55
72.43941	12.75
76.82654	9.85
81.21044	10.75
85.59113	13.65
89.96862	13.45
94.34289	13.25
98.71396	14.55
103.08183	14.85
107.4465	13.15
111.80798	15.85
116.16626	17.05
120.52136	17.05
124.87327	15.55
129.222	20.45
133.56755	18.45
137.90993	20.05
142.24913	22.65
146.58517	24.95
150.91804	28.85
155.24774	34.15
159.57429	40.15
163.89768	53.65
168.21792	69.95
172.53501	96.25
176.84895	129.35
181.15975	185.45
185.46741	258.45
189.77193	353.65
194.07331	472.45
198.37157	611.25
202.6667	752.55
206.9587	894.55
211.24758	1037.15
215.53334	1170.05
219.81599	1322.95
224.09553	1482.75
228.37195	1661.15
232.64527	1864.75
236.91549	2063.45
241.18261	2261.75
245.44663	2437.95
249.70755	2588.15
253.96539	2734.75
258.22014	2845.75
262.4718	2946.45
266.72039	3016.95
270.96589	3051.55
275.20832	3040.45
279.44768	3021.55
283.68397	2974.45
287.91719	2930.45
292.14735	2924.75
296.37445	2947.05
300.59849	2988.05
304.81948	3059.05
309.03742	3109.65
313.25231	3143.35
317.46415	3097.95
321.67296	3029.95
325.87872	2968.35
330.08145	2948.95
334.28114	2959.85
338.47781	3010.45
342.67145	3049.65
346.86207	3127.95
351.04966	3211.95
355.23424	3311.55
359.4158	3383.55
363.59435	3439.85
367.76989	3490.85
371.94243	3517.95
376.11196	3533.15
380.27849	3557.75
384.44203	3596.55
388.60257	3611.05
392.76012	3635.25
396.91468	3690.45
401.06626	3742.05
405.21485	3823.95
409.36047	3809.25
413.50311	3739.35
417.64277	3673.45
421.77947	3627.05
425.9132	3625.65
430.04396	3671.35
434.17176	3762.35
438.2966	3882.75
442.41849	4073.05
446.53742	4283.85
450.6534	4514.65
454.76644	4618.75
458.87653	4604.55
462.98368	4480.65
467.08789	4295.75
471.18916	4119.65
475.2875	3944.15
479.38291	3803.25
483.4754	3715.95
487.56496	3652.05
491.6516	3589.35
495.73531	3573.35
499.81612	3558.95
503.89401	3567.55
507.96899	3588.35
512.04106	3606.45
516.11023	3638.25
520.1765	3686.75
524.23987	3701.25
528.30034	3733.45
532.35792	3719.85
536.41261	3675.35
540.46441	3625.75
544.51333	3606.95
548.55936	3648.65
552.60252	3704.35
556.64279	3743.15
560.6802	3733.75
564.71473	3720.15
568.7464	3728.15
572.7752	3738.15
576.80114	3726.55
580.82422	3753.25
584.84444	3845.15
588.86181	4019.75
592.87633	4228.35
596.888	4337.45
600.89682	4421.95
604.9028	4765.75
608.90594	5413.65
612.90624	5913.25
616.90371	5399.85
620.89834	4447.65
624.89015	4075.15
628.87913	4006.45
632.86528	3950.25
636.84862	3893.85
640.82913	3777.75
644.80683	3663.95
648.78172	3621.35
652.75379	3659.25
656.72306	3764.35
660.68952	3868.45
664.65319	3842.75
668.61405	3791.35
672.57211	3803.15
676.52738	3814.25
680.47986	3746.65
684.42955	3692.65
688.37646	3688.15
692.32058	3736.35
696.26192	3794.75
700.20048	3856.85
704.13626	3866.15
708.06928	3797.05
711.99952	3767.45
715.927	3780.95
719.85171	3794.35
723.77365	3780.95
727.69284	3736.35
731.60928	3719.35
735.52295	3735.85
739.43388	3776.15
743.34206	3810.75
747.24749	3833.55
751.15017	3858.95
755.05012	3909.25
758.94733	4023.75
762.8418	4260.45
766.73354	4594.65
770.62254	4916.75
774.50882	5042.55
778.39237	4878.75
782.27321	4504.15
786.15132	4140.95
790.02671	3919.65
793.89938	3839.05
797.76935	3803.35
801.6366	3781.15
805.50115	3768.45
809.36299	3753.75
813.22213	3741.75
817.07857	3742.95
820.93231	3733.55
824.78336	3749.85
828.63172	3756.35
832.47738	3752.85
836.32036	3759.35
840.16066	3770.75
843.99827	3771.35
847.8332	3763.75
851.66546	3761.45
855.49504	3768.35
859.32195	3758.85
863.1462	3760.75
866.96777	3735.65
870.78668	3721.05
874.60293	3740.75
878.41652	3760.85
882.22745	3775.15
886.03573	3804.05
889.84136	3786.95
893.64433	3768.45
897.44466	3749.85
901.24235	3747.45
905.0374	3734.95
908.8298	3735.15
912.61957	3725.85
916.40671	3745.65
920.19121	3778.45
923.97308	3816.35
927.75233	3847.65
931.52895	3878.65
935.30295	3823.95
939.07433	3750.95
942.84309	3705.75
946.60924	3701.35
950.37278	3684.65
954.13371	3666.35
957.89203	3649.15
961.64774	3651.45
965.40086	3631.65
969.15137	3620.65
972.89929	3623.15
976.64461	3624.05
980.38733	3637.45
984.12747	3668.95
987.86502	3683.65
991.59999	3747.05
995.33237	3838.55
999.06217	4001.35
1002.78939	4166.25
1006.51404	4213.15
1010.23611	4274.55
1013.95561	4345.35
1017.67255	4416.15
1021.38692	4358.85
1025.09872	4263.25
1028.80796	4270.05
1032.51465	4316.85
1036.21877	4366.65
1039.92035	4364.35
1043.61937	4306.25
1047.31584	4215.05
1051.00976	4132.85
1054.70114	4087.05
1058.38998	4103.55
1062.07627	4130.05
1065.76003	4148.05
1069.44126	4174.35
1073.11995	4219.25
1076.79611	4241.45
1080.46974	4287.85
1084.14085	4325.85
1087.80943	4369.65
1091.47549	4359.35
1095.13903	4289.15
1098.80005	4219.95
1102.45857	4179.85
1106.11456	4144.15
1109.76805	4177.95
1113.41903	4230.85
1117.06751	4301.85
1120.71348	4402.85
1124.35696	4478.35
1127.99793	4518.65
1131.63641	4471.75
1135.2724	4381.45
1138.90589	4299.95
1142.5369	4240.85
1146.16542	4198.95
1149.79145	4169.65
1153.415	4190.45
1157.03607	4221.85
1160.65467	4299.25
1164.27079	4396.25
1167.88443	4565.95
1171.49561	4841.05
1175.10432	5224.85
1178.71056	5730.15
1182.31434	6261.65
1185.91565	6647.65
1189.51451	6777.85
1193.11091	6620.85
1196.70485	6203.15
1200.29634	5781.25
1203.88538	5404.65
1207.47197	5121.85
1211.05612	4929.85
1214.63782	4827.25
1218.21708	4802.55
1221.79391	4852.55
1225.36829	4879.65
1228.94024	4904.65
1232.50976	4899.35
1236.07685	4958.95
1239.6415	5017.05
1243.20374	5051.55
1246.76355	5042.85
1250.32093	5099.85
1253.8759	5216.35
1257.42845	5371.25
1260.97859	5561.45
1264.52631	5734.65
1268.07163	5819.05
1271.61453	5877.05
1275.15503	5946.15
1278.69312	5998.85
1282.22882	6099.65
1285.76211	6309.15
1289.29301	6505.95
1292.82151	6708.65
1296.34761	6856.25
1299.87133	7048.85
1303.39266	7317.95
1306.9116	7700.25
1310.42815	8065.65
1313.94233	8276.85
1317.45412	8211.65
1320.96354	7991.25
1324.47058	7831.65
1327.97525	7816.85
1331.47754	7984.35
1334.97747	8223.35
1338.47502	8415.75
1341.97022	8438.95
1345.46305	8460.35
1348.95352	8575.55
1352.44163	8839.45
1355.92738	9192.95
1359.41078	9589.75
1362.89183	9699.75
1366.37053	9226.75
1369.84688	8318.35
1373.32088	7448.85
1376.79254	6923.15
1380.26186	6695.45
1383.72883	6560.55
1387.19347	6338.25
1390.65578	6067.75
1394.11575	5826.55
1397.57339	5696.85
1401.0287	5733.65
1404.48168	5902.95
1407.93234	6159.85
1411.38068	6345.75
1414.82669	6394.55
1418.27039	6277.55
1421.71177	6127.65
1425.15083	6133.75
1428.58758	6243.25
1432.02203	6408.25
1435.45416	6502.65
1438.88399	6518.85
1442.31151	6447.05
1445.73673	6386.25
1449.15965	6287.25
1452.58027	6151.95
1455.9986	6003.45
1459.41463	5979.25
1462.82837	6032.55
1466.23982	6189.15
1469.64898	6364.55
1473.05586	6495.25
1476.46045	6614.85
1479.86276	6692.85
1483.26279	6713.65
1486.66054	6715.85
1490.05602	6783.95
1493.44922	6907.35
1496.84016	7055.85
1500.22882	7298.15
1503.61521	7599.95
1506.99934	7875.75
1510.38121	7977.65
1513.76081	7799.05
1517.13816	7360.25
1520.51324	6946.15
1523.88607	6676.15
1527.25665	6604.65
1530.62498	6615.45
1533.99105	6660.75
1537.35488	6700.65
1540.71647	6705.95
1544.07581	6628.55
1547.4329	6472.05
1550.78776	6259.15
1554.14038	6017.85
1557.49077	5887.85
1560.83892	5798.55
1564.18484	5786.35
1567.52853	5820.55
1570.86999	5840.15
1574.20922	5854.05
1577.54624	5785.85
1580.88103	5665.25
1584.2136	5557.35
1587.54395	5605.35
1590.87208	5927.65
1594.19801	6468.75
1597.52172	7198.05
1600.84321	7723.95
1604.16251	7744.05
1607.47959	7271.85
1610.79447	6570.45
1614.10715	5868.95
1617.41763	5380.75
1620.7259	5060.35
1624.03199	4906.15
1627.33587	4919.25
1630.63757	5074.65
1633.93707	5362.25
1637.23439	5836.75
1640.52951	6498.55
1643.82246	7175.35
1647.11321	7574.65
1650.40179	7384.15
1653.68819	6647.25
1656.97241	5743.15
1660.25446	5012.25
1663.53433	4537.05
1666.81203	4252.95
1670.08756	4074.65
1673.36092	3972.15
1676.63211	3886.05
1679.90115	3823.15
1683.16801	3769.35
1686.43272	3725.65
1689.69527	3719.75
1692.95567	3707.45
1696.2139	3692.55
1699.46999	3669.85
1702.72392	3673.55
1705.97571	3681.05
1709.22535	3676.85
1712.47284	3657.25
1715.71819	3649.45
1718.96139	3638.95
1722.20246	3627.75
1725.44139	3627.85
1728.67818	3596.55
1731.91284	3595.65
1735.14537	3574.65
1738.37576	3554.25
1741.60403	3544.45
1744.83017	3538.15
1748.05418	3534.55
1751.27607	3532.85
1754.49584	3512.25
1757.71349	3495.75
1760.92903	3494.45
1764.14244	3485.85
1767.35375	3500.25
1770.56294	3482.65
1773.77002	3484.55
1776.97499	3484.35
1780.17785	3475.15
1783.37861	3471.75
1786.57727	3458.95
1789.77382	3471.45
1792.96828	3466.05
1796.16064	3450.15
1799.3509	3447.25
1802.53907	3440.05
1805.72514	3446.45
1808.90913	3433.65
1812.09102	3414.95
1815.27083	3411.55
1818.44856	3411.95
1821.6242	3401.45
1824.79776	3393.65
1827.96924	3387.75
1831.13864	3393.45
1834.30597	3379.95
1837.47122	3384.15
1840.6344	3367.05
1843.7955	3373.45
1846.95454	3369.15
1850.11151	3372.55
1853.26642	3361.75
1856.41926	3372.55
1859.57004	3372.45
1862.71876	3358.35
1865.86542	3360.15
1869.01003	3361.75
1872.15258	3364.45
1875.29308	3369.75
1878.43152	3364.25
1881.56792	3350.75
1884.70227	3341.85
1887.83457	3350.25
1890.96482	3360.25
1894.09304	3338.75
1897.21921	3336.85
1900.34335	3329.15
1903.46544	3333.85
1906.58551	3345.05
1909.70353	3333.25
1912.81953	3339.65
1915.93349	3334.75
1919.04543	3330.65
1922.15534	3320.75
1925.26322	3316.85
1928.36908	3309.15
1931.47292	3299.65
1934.57473	3309.15
1937.67453	3301.65
1940.77232	3301.05
1943.86808	3279.25
1946.96184	3268.35
1950.05358	3261.75
1953.14331	3273.95
1956.23103	3237.95
1959.31675	3229.05
1962.40046	3227.15
1965.48217	3208.15
1968.56188	3195.85
1971.63959	3185.85
1974.7153	3181.05
1977.78901	3174.35
1980.86073	3160.65
1983.93046	3146.05
1986.99819	3146.65
1990.06394	3129.95
1993.1277	3127.85
1996.18947	3137.15
1999.24925	3113.75
2002.30706	3105.65
2005.36288	3095.45
2008.41672	3078.75
2011.46859	3068.25
2014.51848	3066.25
2017.56639	3053.55
2020.61233	3053.25
2023.6563	3034.95
2026.6983	3032.85
2029.73833	3026.75
2032.7764	3031.85
2035.8125	3032.65
2038.84664	3000.75
2041.87881	3011.15
2044.90903	3005.35
2047.93729	2994.65
2050.96359	3004.45
2053.98794	2988.25
2057.01034	2989.75
2060.03078	2985.75
2063.04927	2974.65
2066.06582	2982.05
2069.08042	2971.35
2072.09307	2964.15
2075.10378	2969.55
2078.11255	2972.25
2081.11938	2964.45
2084.12426	2962.75
2087.12722	2948.05
2090.12824	2955.45
2093.12732	2956.95
2096.12447	2961.35
2099.11969	2959.05
2102.11299	2951.75
2105.10435	2963.75
2108.09379	2957.85
2111.08131	2952.75
2114.0669	2940.65
2117.05057	2960.95
2120.03233	2959.15
2123.01216	2949.45
2125.99008	2950.25
2128.96609	2953.35
2131.94018	2963.45
2134.91236	2956.45
2137.88263	2958.45
2140.851	2961.15
2143.81746	2955.45
2146.78201	2945.35
2149.74466	2947.25
2152.7054	2941.35
2155.66425	2946.55
2158.6212	2946.05
2161.57625	2951.95
2164.52941	2931.75
2167.48067	2941.35
2170.43004	2927.15
2173.37752	2932.65
2176.32311	2942.05
2179.26681	2948.95
2182.20863	2944.45
2185.14856	2936.75
2188.08661	2948.95
2191.02278	2929.25
2193.95707	2934.25
2196.88948	2939.45
2199.82001	2934.25
2202.74867	2944.95
2205.67545	2944.15
2208.60037	2925.55
2211.52341	2927.05
2214.44458	2922.25
2217.36388	2891.45
2220.28132	2904.45
2223.1969	2892.15
2226.11061	2888.05
2229.02246	2880.95
2231.93245	2873.05
2234.84058	2873.45
2237.74686	2864.05
2240.65128	2867.35
2243.55385	2869.45
2246.45456	2851.85
2249.35343	2855.05
2252.25044	2852.25
2255.14561	2862.25
2258.03893	2843.35
2260.93041	2852.75
2263.82004	2835.05
2266.70783	2846.75
2269.59378	2813.55
2272.4779	2825.25
2275.36017	2801.85
2278.24061	2791.15
2281.11922	2784.15
2283.996	2776.85
2286.87094	2772.85
2289.74405	2781.25
2292.61534	2774.35
2295.4848	2777.35
2298.35243	2771.25
2301.21824	2778.45
2304.08223	2752.55
2306.94439	2752.65
2309.80474	2768.25
2312.66327	2764.65
2315.51999	2757.85
2318.37489	2756.45
2321.22797	2751.45
2324.07925	2755.85
2326.92871	2748.35
2329.77637	2749.95
2332.62222	2747.25
2335.46626	2752.15
2338.3085	2740.85
2341.14893	2741.35
2343.98756	2733.65
2346.8244	2745.45
2349.65943	2740.85
2352.49267	2734.65
2355.32411	2737.85
2358.15376	2739.85
2360.98161	2733.75
2363.80768	2724.05
2366.63195	2731.65
2369.45444	2712.85
2372.27514	2714.65
2375.09405	2725.35
2377.91118	2720.15
2380.72652	2715.55
2383.54009	2692.55
2386.35187	2691.45
2389.16188	2685.25
2391.97011	2677.95
2394.77657	2684.75
2397.58125	2672.75
2400.38416	2664.65
2403.18529	2659.85
2405.98466	2654.55
2408.78226	2650.75
2411.57809	2641.55
2414.37216	2630.05
2417.16446	2641.55
2419.955	2631.05
2422.74378	2627.25
2425.5308	2626.15
2428.31606	2617.85
2431.09956	2614.15
2433.88131	2616.85
2436.6613	2608.05
2439.43954	2614.75
2442.21603	2613.35
2444.99077	2619.85
2447.76377	2606.85
2450.53501	2599.25
2453.30451	2615.55
2456.07226	2610.45
2458.83827	2595.15
2461.60254	2582.95
2464.36507	2598.05
2467.12586	2591.15
2469.88492	2589.65
2472.64224	2597.25
2475.39782	2589.85
2478.15167	2602.15
2480.90379	2587.95
2483.65417	2588.55
2486.40283	2606.15
2489.14976	2606.95
2491.89497	2595.45
2494.63845	2598.15
2497.3802	2590.55
2500.12024	2599.65
2502.85855	2589.95
2505.59514	2587.55
2508.33002	2573.25
2511.06318	2577.35
2513.79462	2569.95
2516.52435	2576.65
2519.25237	2578.15
2521.97867	2570.15
2524.70327	2563.55
2527.42616	2556.75
2530.14734	2559.85
2532.86681	2563.35
2535.58458	2556.65
2538.30065	2552.05
2541.01501	2556.45
2543.72768	2556.65
2546.43864	2561.45
2549.14791	2546.75
2551.85548	2546.85
2554.56136	2533.85
2557.26554	2539.85
2559.96803	2533.65
2562.66883	2534.15
2565.36794	2535.45
2568.06536	2512.55
2570.7611	2535.35
2573.45514	2519.35
2576.14751	2525.35
2578.83819	2512.25
2581.52719	2506.45
2584.21451	2509.35
2586.90015	2501.75
2589.58411	2498.15
2592.2664	2499.75
2594.94701	2498.75
2597.62594	2502.35
2600.30321	2490.65
2602.9788	2502.05
2605.65273	2501.85
2608.32498	2502.85
2610.99557	2488.15
2613.66449	2487.55
2616.33175	2485.65
2618.99734	2492.45
2621.66128	2492.65
2624.32355	2496.75
2626.98416	2507.35
2629.64311	2488.05
2632.30041	2487.45
2634.95605	2496.95
2637.61004	2483.25
2640.26238	2489.75
2642.91306	2491.95
2645.56209	2485.45
2648.20948	2471.35
2650.85521	2485.65
2653.4993	2474.85
2656.14175	2472.85
2658.78255	2483.15
2661.42171	2482.95
2664.05923	2488.65
2666.6951	2499.85
2669.32934	2481.95
2671.96194	2492.75
2674.59291	2500.95
2677.22224	2499.55
2679.84993	2493.15
2682.476	2498.05
2685.10043	2488.75
2687.72324	2489.15
2690.34441	2489.05
2692.96396	2482.85
2695.58188	2484.45
2698.19818	2486.25
2700.81285	2484.65
2703.4259	2485.05
2706.03733	2483.15
2708.64714	2472.55
2711.25533	2468.35
2713.86191	2476.85
2716.46687	2482.15
2719.07021	2496.75
2721.67194	2484.95
2724.27206	2488.85
2726.87057	2485.25
2729.46747	2504.35
2732.06276	2488.75
2734.65644	2482.15
2737.24852	2489.05
2739.83899	2484.25
2742.42786	2481.65
2745.01513	2478.25
2747.60079	2488.75
2750.18486	2482.05
2752.76733	2474.35
2755.3482	2471.35
2757.92747	2475.55
2760.50515	2470.85
2763.08123	2464.55
2765.65573	2464.55
2768.22863	2463.05
2770.79994	2458.35
2773.36967	2477.45
2775.9378	2464.25
2778.50435	2467.25
2781.06932	2466.85
2783.6327	2460.95
2786.1945	2469.25
2788.75471	2453.15
2791.31335	2458.95
2793.87041	2455.35
2796.42589	2444.15
2798.97979	2453.55
2801.53212	2446.55
2804.08288	2437.35
2806.63206	2429.25
2809.17967	2426.45
2811.72571	2429.05
2814.27018	2425.85
2816.81308	2424.45
2819.35442	2410.55
2821.89419	2397.15
2824.43239	2411.95
2826.96904	2408.15
2829.50412	2402.75
2832.03763	2404.15
2834.56959	2399.95
2837.1	2394.95
2839.62884	2396.45
2842.15613	2396.25
2844.68186	2394.95
2847.20604	2388.15
2849.72867	2396.65
2852.24974	2382.05
2854.76927	2368.35
2857.28724	2370.15
2859.80367	2370.05
2862.31855	2363.45
2864.83189	2346.45
2867.34368	2346.85
2869.85393	2357.75
2872.36264	2347.65
2874.8698	2352.05
2877.37543	2353.75
2879.87952	2344.85
2882.38207	2334.45
2884.88308	2328.45
2887.38256	2338.15
2889.88051	2333.35
2892.37692	2325.85
2894.8718	2328.75
2897.36515	2330.05
2899.85698	2326.05
2902.34727	2327.85
2904.83604	2336.85
2907.32328	2330.95
2909.809	2331.35
2912.29319	2332.65
2914.77587	2337.85
2917.25702	2331.95
2919.73665	2339.25
2922.21476	2335.25
2924.69136	2329.15
2927.16644	2328.15
2929.64	2318.35
2932.11205	2324.65
2934.58258	2316.85
2937.05161	2315.85
2939.51912	2322.15
2941.98513	2310.55
2944.44962	2305.05
2946.91261	2303.05
2949.37409	2313.65
2951.83407	2302.05
2954.29254	2299.15
2956.74951	2302.75
2959.20498	2286.15
2961.65895	2286.65
2964.11142	2284.05
2966.56239	2282.65
2969.01186	2274.45
2971.45984	2288.05
2973.90632	2282.55
2976.35131	2269.35
2978.7948	2260.15
2981.23681	2256.45
2983.67732	2246.05
2986.11635	2245.85
2988.55388	2247.45
2990.98993	2239.25
2993.4245	2226.55
2995.85758	2221.75
2998.28917	2206.55
3000.71928	2215.35
3003.14791	2195.25
3005.57506	2199.05
3008.00073	2192.05
3010.42493	2182.05
3012.84764	2170.95
3015.26888	2172.25
3017.68865	2164.85
3020.10694	2164.45
3022.52376	2152.25
3024.9391	2156.15
3027.35298	2139.25
3029.76539	2139.75
3032.17632	2139.95
3034.5858	2141.05
3036.9938	2138.55
3039.40034	2119.65
3041.80542	2122.05
3044.20903	2123.15
3046.61118	2118.85
3049.01187	2103.75
3051.4111	2100.05
3053.80888	2104.85
3056.20519	2097.35
3058.60005	2084.65
3060.99345	2078.95
3063.3854	2077.05
3065.7759	2069.35
3068.16494	2067.35
3070.55254	2063.75
3072.93868	2053.25
3075.32338	2051.25
3077.70662	2041.85
3080.08842	2028.05
3082.46878	2022.65
3084.84769	2016.75
3087.22515	2018.45
3089.60118	2022.15
3091.97576	2011.35
3094.3489	2009.05
3096.72061	2007.65
3099.09087	1999.65
3101.4597	1999.95
3103.82709	2001.35
3106.19305	1992.65
3108.55757	1996.45
3110.92066	1979.85
3113.28232	1979.55
3115.64255	1973.85
3118.00134	1970.85
3120.35871	1966.75
3122.71466	1958.55
3125.06917	1965.35
3127.42226	1946.65
3129.77393	1951.95
3132.12417	1952.75
3134.47299	1947.45
3136.82039	1928.85
3139.16636	1930.25
3141.51092	1940.75
3143.85406	1933.75
3146.19579	1929.45
3148.53609	1929.85
3150.87499	1940.65
3153.21246	1928.65
3155.54853	1932.25
3157.88318	1931.65
3160.21642	1937.45
3162.54826	1927.35
3164.87868	1924.75
3167.2077	1906.75
3169.5353	1916.35
3171.86151	1906.85
3174.18631	1907.55
3176.5097	1908.75
3178.83169	1899.45
3181.15228	1904.45
3183.47147	1892.55
3185.78926	1888.15
3188.10565	1884.85
3190.42065	1879.15
3192.73424	1884.05
3195.04645	1875.15
3197.35725	1877.35
3199.66667	1876.55
3201.97469	1871.85
3204.28132	1865.75
3206.58656	1873.35
3208.8904	1871.45
3211.19287	1874.25
3213.49394	1877.05
3215.79363	1872.85
3218.09193	1861.45
3220.38884	1863.85
3222.68438	1870.15
3224.97853	1871.35
3227.2713	1866.55
3229.56269	1862.65
3231.8527	1868.95
3234.14133	1857.45
3236.42858	1844.95
3238.71446	1844.85
3240.99896	1837.55
3243.28209	1825.35
3245.56384	1838.05
3247.84423	1826.15
3250.12324	1835.65
3252.40088	1821.55
3254.67715	1822.95
3256.95205	1811.35
3259.22558	1820.15
3261.49775	1812.25
3263.76855	1822.25
3266.03799	1817.95
3268.30606	1821.15
3270.57277	1813.75
3272.83812	1801.85
3275.10211	1804.45
3277.36474	1797.35
3279.62601	1805.75
3281.88593	1776.35
3284.14448	1793.65
3286.40168	1783.55
3288.65753	1787.55
3290.91202	1783.75
3293.16516	1770.25
3295.41695	1777.05
3297.66738	1761.55
3299.91647	1755.05
3302.16421	1732.25
3304.4106	1730.45
3306.65564	1729.25
3308.89933	1713.65
3311.14169	1693.95
3313.38269	1679.95
3315.62236	1670.85
3317.86068	1648.25
3320.09766	1637.95
3322.3333	1624.15
3324.5676	1618.55
3326.80056	1594.95
3329.03219	1574.95
3331.26248	1.55
3333.49143	-1.25
3335.71905	-0.35
