Data from AgNPs_UA_20uM_CRN_500uM_SU_RamanShift__57__13-46-00-302.txt Node

Date: Thu Aug 04 13:46:00 BST 2022
User: TCL
Spectrometer: QEP01345
Trigger mode: 4
Integration Time (sec): 1.000000E0
Scans to average: 10
Electric dark correction enabled: true
Nonlinearity correction enabled: false
Boxcar width: 0
XAxis mode: Raman Shifts
Number of Pixels in Spectrum: 1044
>>>>>Begin Spectral Data<<<<<
46.04893	-1.95
50.45542	0.65
54.85868	0.75
59.25871	0.05
63.6555	17.55
68.04907	15.65
72.43941	18.35
76.82654	17.35
81.21044	15.95
85.59113	17.85
89.96862	19.45
94.34289	18.55
98.71396	21.15
103.08183	22.65
107.4465	20.75
111.80798	23.25
116.16626	22.85
120.52136	26.75
124.87327	23.35
129.222	27.35
133.56755	27.85
137.90993	30.85
142.24913	32.85
146.58517	38.45
150.91804	42.15
155.24774	53.75
159.57429	69.75
163.89768	87.05
168.21792	116.35
172.53501	162.35
176.84895	222.45
181.15975	319.25
185.46741	447.35
189.77193	622.45
194.07331	830.15
198.37157	1064.75
202.6667	1328.25
206.9587	1586.35
211.24758	1827.65
215.53334	2071.35
219.81599	2340.25
224.09553	2640.25
228.37195	2962.65
232.64527	3324.05
236.91549	3684.85
241.18261	4019.85
245.44663	4299.05
249.70755	4551.05
253.96539	4773.35
258.22014	4955.35
262.4718	5119.15
266.72039	5231.85
270.96589	5280.95
275.20832	5278.65
279.44768	5215.15
283.68397	5096.85
287.91719	5058.15
292.14735	5038.25
296.37445	5099.55
300.59849	5210.45
304.81948	5344.05
309.03742	5477.75
313.25231	5501.65
317.46415	5436.85
321.67296	5281.25
325.87872	5149.85
330.08145	5063.55
334.28114	5086.35
338.47781	5157.75
342.67145	5265.95
346.86207	5402.95
351.04966	5564.55
355.23424	5751.65
359.4158	5899.05
363.59435	5991.15
367.76989	6057.55
371.94243	6104.85
376.11196	6142.25
380.27849	6151.35
384.44203	6188.35
388.60257	6228.05
392.76012	6278.75
396.91468	6344.45
401.06626	6454.25
405.21485	6502.15
409.36047	6453.75
413.50311	6312.35
417.64277	6149.15
421.77947	6031.25
425.9132	6028.85
430.04396	6030.15
434.17176	6091.55
438.2966	6220.55
442.41849	6372.65
446.53742	6596.25
450.6534	6795.55
454.76644	6927.35
458.87653	6942.75
462.98368	6889.75
467.08789	6770.15
471.18916	6608.35
475.2875	6422.85
479.38291	6298.35
483.4754	6209.25
487.56496	6139.55
491.6516	6078.55
495.73531	6049.85
499.81612	6057.05
503.89401	6089.65
507.96899	6110.85
512.04106	6156.25
516.11023	6204.35
520.1765	6258.15
524.23987	6297.05
528.30034	6257.75
532.35792	6230.15
536.41261	6167.55
540.46441	6094.95
544.51333	6070.45
548.55936	6148.05
552.60252	6203.75
556.64279	6300.35
560.6802	6344.05
564.71473	6389.05
568.7464	6413.15
572.7752	6398.75
576.80114	6336.05
580.82422	6288.05
584.84444	6307.65
588.86181	6434.15
592.87633	6601.55
596.888	6761.25
600.89682	7002.15
604.9028	7681.25
608.90594	9019.05
612.90624	10185.35
616.90371	9339.25
620.89834	7592.75
624.89015	6971.15
628.87913	6933.25
632.86528	6895.45
636.84862	6750.45
640.82913	6568.05
644.80683	6344.25
648.78172	6233.85
652.75379	6259.35
656.72306	6472.05
660.68952	6654.95
664.65319	6613.95
668.61405	6515.05
672.57211	6513.15
676.52738	6505.85
680.47986	6408.55
684.42955	6327.55
688.37646	6321.15
692.32058	6386.25
696.26192	6494.25
700.20048	6594.85
704.13626	6597.25
708.06928	6515.05
711.99952	6461.05
715.927	6458.85
719.85171	6482.65
723.77365	6459.15
727.69284	6394.15
731.60928	6358.65
735.52295	6381.45
739.43388	6426.35
743.34206	6471.55
747.24749	6496.95
751.15017	6526.05
755.05012	6600.65
758.94733	6831.35
762.8418	7267.25
766.73354	7969.55
770.62254	8559.05
774.50882	8745.65
778.39237	8435.65
782.27321	7817.35
786.15132	7188.85
790.02671	6821.65
793.89938	6642.65
797.76935	6546.35
801.6366	6535.25
805.50115	6482.45
809.36299	6472.25
813.22213	6427.35
817.07857	6423.05
820.93231	6443.45
824.78336	6434.05
828.63172	6457.05
832.47738	6471.35
836.32036	6491.85
840.16066	6526.65
843.99827	6563.15
847.8332	6544.75
851.66546	6497.95
855.49504	6510.55
859.32195	6497.85
863.1462	6487.55
866.96777	6469.55
870.78668	6457.85
874.60293	6455.05
878.41652	6488.55
882.22745	6533.95
886.03573	6548.35
889.84136	6555.15
893.64433	6524.55
897.44466	6492.75
901.24235	6510.15
905.0374	6463.15
908.8298	6435.75
912.61957	6459.05
916.40671	6475.65
920.19121	6532.65
923.97308	6649.65
927.75233	6710.95
931.52895	6751.05
935.30295	6708.85
939.07433	6555.45
942.84309	6485.85
946.60924	6446.15
950.37278	6432.85
954.13371	6400.95
957.89203	6370.95
961.64774	6326.75
965.40086	6328.35
969.15137	6311.15
972.89929	6304.55
976.64461	6326.65
980.38733	6321.45
984.12747	6367.25
987.86502	6419.65
991.59999	6507.95
995.33237	6669.65
999.06217	6903.45
1002.78939	7145.45
1006.51404	7230.85
1010.23611	7268.75
1013.95561	7329.95
1017.67255	7437.75
1021.38692	7419.35
1025.09872	7417.35
1028.80796	7561.05
1032.51465	7761.95
1036.21877	7925.75
1039.92035	7886.75
1043.61937	7742.15
1047.31584	7505.95
1051.00976	7296.35
1054.70114	7207.75
1058.38998	7171.35
1062.07627	7183.45
1065.76003	7207.95
1069.44126	7228.45
1073.11995	7305.95
1076.79611	7379.25
1080.46974	7409.15
1084.14085	7535.55
1087.80943	7591.85
1091.47549	7601.55
1095.13903	7521.75
1098.80005	7407.35
1102.45857	7339.65
1106.11456	7358.95
1109.76805	7344.35
1113.41903	7415.05
1117.06751	7494.35
1120.71348	7619.15
1124.35696	7777.05
1127.99793	7842.35
1131.63641	7735.25
1135.2724	7567.95
1138.90589	7407.55
1142.5369	7293.75
1146.16542	7207.85
1149.79145	7171.45
1153.415	7149.45
1157.03607	7183.95
1160.65467	7269.45
1164.27079	7442.95
1167.88443	7704.35
1171.49561	8089.95
1175.10432	8690.05
1178.71056	9476.65
1182.31434	10201.65
1185.91565	10617.15
1189.51451	10601.25
1193.11091	10286.15
1196.70485	9790.45
1200.29634	9355.45
1203.88538	8948.15
1207.47197	8565.75
1211.05612	8271.75
1214.63782	8052.15
1218.21708	8029.55
1221.79391	8069.45
1225.36829	8144.85
1228.94024	8134.05
1232.50976	8049.05
1236.07685	7995.55
1239.6415	8026.85
1243.20374	8022.85
1246.76355	8084.25
1250.32093	8192.65
1253.8759	8407.75
1257.42845	8624.25
1260.97859	8868.15
1264.52631	9090.25
1268.07163	9249.05
1271.61453	9398.75
1275.15503	9571.25
1278.69312	9771.75
1282.22882	9908.85
1285.76211	10049.35
1289.29301	10200.35
1292.82151	10361.25
1296.34761	10622.65
1299.87133	11008.65
1303.39266	11645.05
1306.9116	12556.55
1310.42815	13456.25
1313.94233	13835.65
1317.45412	13519.65
1320.96354	12844.75
1324.47058	12121.45
1327.97525	11580.85
1331.47754	11363.15
1334.97747	11420.45
1338.47502	11612.15
1341.97022	11919.35
1345.46305	12305.65
1348.95352	12733.35
1352.44163	13294.25
1355.92738	13976.15
1359.41078	14918.65
1362.89183	15447.55
1366.37053	14671.75
1369.84688	12921.05
1373.32088	11324.75
1376.79254	10375.65
1380.26186	9924.35
1383.72883	9679.65
1387.19347	9484.05
1390.65578	9193.35
1394.11575	8942.55
1397.57339	8817.65
1401.0287	8814.05
1404.48168	8921.85
1407.93234	9060.25
1411.38068	9261.05
1414.82669	9393.05
1418.27039	9334.15
1421.71177	9211.15
1425.15083	9132.05
1428.58758	9171.35
1432.02203	9303.25
1435.45416	9430.15
1438.88399	9443.65
1442.31151	9371.65
1445.73673	9313.05
1449.15965	9249.05
1452.58027	9152.15
1455.9986	9041.85
1459.41463	8981.25
1462.82837	9085.55
1466.23982	9230.05
1469.64898	9409.55
1473.05586	9544.75
1476.46045	9686.55
1479.86276	9762.45
1483.26279	9882.45
1486.66054	10010.95
1490.05602	10182.65
1493.44922	10500.25
1496.84016	10931.05
1500.22882	11566.65
1503.61521	12338.55
1506.99934	13055.15
1510.38121	13418.75
1513.76081	13192.95
1517.13816	12387.25
1520.51324	11453.75
1523.88607	10737.15
1527.25665	10289.75
1530.62498	10092.15
1533.99105	9937.15
1537.35488	9918.45
1540.71647	9865.65
1544.07581	9774.35
1547.4329	9638.05
1550.78776	9504.95
1554.14038	9407.35
1557.49077	9349.05
1560.83892	9327.65
1564.18484	9389.65
1567.52853	9473.25
1570.86999	9555.65
1574.20922	9552.65
1577.54624	9401.15
1580.88103	9144.85
1584.2136	8890.85
1587.54395	8861.95
1590.87208	9204.45
1594.19801	9843.95
1597.52172	10624.05
1600.84321	11080.95
1604.16251	10996.95
1607.47959	10448.25
1610.79447	9716.25
1614.10715	8996.45
1617.41763	8392.95
1620.7259	8022.75
1624.03199	7842.25
1627.33587	7869.85
1630.63757	8071.15
1633.93707	8497.05
1637.23439	9111.55
1640.52951	9931.95
1643.82246	10787.05
1647.11321	11423.95
1650.40179	11349.25
1653.68819	10504.25
1656.97241	9261.05
1660.25446	8186.25
1663.53433	7453.05
1666.81203	7065.85
1670.08756	6788.25
1673.36092	6654.15
1676.63211	6524.05
1679.90115	6428.95
1683.16801	6373.65
1686.43272	6320.95
1689.69527	6304.05
1692.95567	6253.25
1696.2139	6238.85
1699.46999	6224.85
1702.72392	6223.75
1705.97571	6222.95
1709.22535	6233.15
1712.47284	6223.35
1715.71819	6214.45
1718.96139	6195.45
1722.20246	6176.25
1725.44139	6153.35
1728.67818	6125.85
1731.91284	6107.55
1735.14537	6068.95
1738.37576	6043.45
1741.60403	6016.05
1744.83017	6041.45
1748.05418	6011.25
1751.27607	6006.85
1754.49584	5989.55
1757.71349	5964.55
1760.92903	5948.35
1764.14244	5959.35
1767.35375	5963.15
1770.56294	5931.15
1773.77002	5933.45
1776.97499	5933.55
1780.17785	5921.95
1783.37861	5910.35
1786.57727	5894.55
1789.77382	5881.65
1792.96828	5879.05
1796.16064	5878.05
1799.3509	5859.05
1802.53907	5872.15
1805.72514	5866.45
1808.90913	5828.85
1812.09102	5829.85
1815.27083	5825.75
1818.44856	5791.05
1821.6242	5791.55
1824.79776	5778.45
1827.96924	5786.45
1831.13864	5760.95
1834.30597	5761.85
1837.47122	5757.95
1840.6344	5759.25
1843.7955	5732.25
1846.95454	5730.35
1850.11151	5739.35
1853.26642	5728.25
1856.41926	5726.65
1859.57004	5743.15
1862.71876	5721.15
1865.86542	5711.75
1869.01003	5710.75
1872.15258	5701.65
1875.29308	5715.55
1878.43152	5708.35
1881.56792	5712.95
1884.70227	5680.55
1887.83457	5687.45
1890.96482	5687.65
1894.09304	5672.25
1897.21921	5652.75
1900.34335	5648.15
1903.46544	5649.75
1906.58551	5657.75
1909.70353	5655.95
1912.81953	5638.55
1915.93349	5633.95
1919.04543	5630.55
1922.15534	5617.35
1925.26322	5619.15
1928.36908	5571.55
1931.47292	5585.35
1934.57473	5593.25
1937.67453	5591.75
1940.77232	5579.75
1943.86808	5569.95
1946.96184	5553.45
1950.05358	5529.65
1953.14331	5522.95
1956.23103	5483.25
1959.31675	5458.55
1962.40046	5461.25
1965.48217	5449.45
1968.56188	5430.45
1971.63959	5404.25
1974.7153	5390.55
1977.78901	5391.95
1980.86073	5359.85
1983.93046	5338.25
1986.99819	5326.15
1990.06394	5318.05
1993.1277	5315.05
1996.18947	5285.85
1999.24925	5265.65
2002.30706	5245.85
2005.36288	5209.25
2008.41672	5216.15
2011.46859	5208.65
2014.51848	5191.55
2017.56639	5178.35
2020.61233	5165.25
2023.6563	5166.25
2026.6983	5146.45
2029.73833	5129.95
2032.7764	5121.65
2035.8125	5105.55
2038.84664	5101.05
2041.87881	5112.55
2044.90903	5095.05
2047.93729	5079.35
2050.96359	5070.75
2053.98794	5071.85
2057.01034	5078.05
2060.03078	5061.65
2063.04927	5038.05
2066.06582	5052.95
2069.08042	5035.15
2072.09307	5032.95
2075.10378	5032.85
2078.11255	5017.65
2081.11938	5022.55
2084.12426	5003.95
2087.12722	5007.85
2090.12824	4990.95
2093.12732	5018.35
2096.12447	5012.05
2099.11969	5006.45
2102.11299	4997.25
2105.10435	5013.85
2108.09379	4996.25
2111.08131	5011.55
2114.0669	5012.95
2117.05057	5010.35
2120.03233	5016.25
2123.01216	5014.75
2125.99008	5015.25
2128.96609	5024.05
2131.94018	5032.95
2134.91236	5023.15
2137.88263	5031.15
2140.851	5019.05
2143.81746	5025.85
2146.78201	5012.55
2149.74466	5017.45
2152.7054	5006.55
2155.66425	5025.95
2158.6212	5030.85
2161.57625	5026.95
2164.52941	5016.05
2167.48067	5008.75
2170.43004	4996.65
2173.37752	4997.15
2176.32311	5010.35
2179.26681	5000.45
2182.20863	4997.55
2185.14856	5012.55
2188.08661	5000.75
2191.02278	5010.65
2193.95707	5017.45
2196.88948	5019.75
2199.82001	5001.25
2202.74867	5007.65
2205.67545	5014.15
2208.60037	5001.35
2211.52341	5004.65
2214.44458	4991.05
2217.36388	4983.15
2220.28132	4958.55
2223.1969	4944.05
2226.11061	4943.15
2229.02246	4935.25
2231.93245	4926.05
2234.84058	4916.65
2237.74686	4910.15
2240.65128	4897.15
2243.55385	4884.85
2246.45456	4889.95
2249.35343	4886.55
2252.25044	4864.45
2255.14561	4876.05
2258.03893	4875.65
2260.93041	4855.65
2263.82004	4872.15
2266.70783	4841.45
2269.59378	4843.85
2272.4779	4810.25
2275.36017	4790.15
2278.24061	4782.35
2281.11922	4769.85
2283.996	4760.25
2286.87094	4745.15
2289.74405	4748.15
2292.61534	4746.65
2295.4848	4736.85
2298.35243	4752.25
2301.21824	4742.65
2304.08223	4729.75
2306.94439	4748.25
2309.80474	4762.95
2312.66327	4748.75
2315.51999	4754.65
2318.37489	4738.35
2321.22797	4753.35
2324.07925	4742.25
2326.92871	4710.75
2329.77637	4733.25
2332.62222	4724.95
2335.46626	4706.25
2338.3085	4703.95
2341.14893	4716.45
2343.98756	4722.75
2346.8244	4745.75
2349.65943	4725.95
2352.49267	4729.45
2355.32411	4720.05
2358.15376	4707.65
2360.98161	4704.55
2363.80768	4709.45
2366.63195	4698.65
2369.45444	4688.15
2372.27514	4668.95
2375.09405	4665.25
2377.91118	4659.25
2380.72652	4664.45
2383.54009	4627.15
2386.35187	4627.85
2389.16188	4623.85
2391.97011	4614.45
2394.77657	4605.05
2397.58125	4577.65
2400.38416	4583.85
2403.18529	4579.65
2405.98466	4580.35
2408.78226	4563.25
2411.57809	4531.55
2414.37216	4532.75
2417.16446	4528.35
2419.955	4510.85
2422.74378	4505.75
2425.5308	4514.85
2428.31606	4492.05
2431.09956	4494.15
2433.88131	4485.85
2436.6613	4476.85
2439.43954	4496.25
2442.21603	4487.25
2444.99077	4499.55
2447.76377	4491.45
2450.53501	4488.85
2453.30451	4466.55
2456.07226	4470.45
2458.83827	4450.65
2461.60254	4458.55
2464.36507	4451.05
2467.12586	4463.65
2469.88492	4454.35
2472.64224	4453.95
2475.39782	4450.05
2478.15167	4444.15
2480.90379	4443.65
2483.65417	4451.55
2486.40283	4462.75
2489.14976	4453.45
2491.89497	4453.15
2494.63845	4474.75
2497.3802	4465.65
2500.12024	4441.35
2502.85855	4453.15
2505.59514	4431.65
2508.33002	4424.45
2511.06318	4413.65
2513.79462	4405.05
2516.52435	4402.75
2519.25237	4402.85
2521.97867	4395.75
2524.70327	4399.25
2527.42616	4379.75
2530.14734	4372.05
2532.86681	4377.75
2535.58458	4388.65
2538.30065	4387.85
2541.01501	4383.15
2543.72768	4372.05
2546.43864	4383.95
2549.14791	4376.55
2551.85548	4377.45
2554.56136	4358.35
2557.26554	4365.45
2559.96803	4343.45
2562.66883	4344.55
2565.36794	4333.95
2568.06536	4312.45
2570.7611	4302.05
2573.45514	4308.45
2576.14751	4316.15
2578.83819	4307.95
2581.52719	4295.45
2584.21451	4289.85
2586.90015	4276.85
2589.58411	4282.05
2592.2664	4286.35
2594.94701	4279.85
2597.62594	4303.25
2600.30321	4279.85
2602.9788	4262.65
2605.65273	4269.65
2608.32498	4271.15
2610.99557	4260.65
2613.66449	4258.85
2616.33175	4243.05
2618.99734	4262.25
2621.66128	4243.45
2624.32355	4272.15
2626.98416	4268.55
2629.64311	4260.25
2632.30041	4269.25
2634.95605	4256.65
2637.61004	4245.25
2640.26238	4235.85
2642.91306	4243.75
2645.56209	4228.75
2648.20948	4215.85
2650.85521	4203.35
2653.4993	4217.55
2656.14175	4207.65
2658.78255	4206.85
2661.42171	4193.75
2664.05923	4202.95
2666.6951	4225.25
2669.32934	4229.35
2671.96194	4219.65
2674.59291	4220.45
2677.22224	4206.75
2679.84993	4215.75
2682.476	4225.15
2685.10043	4206.85
2687.72324	4204.45
2690.34441	4196.35
2692.96396	4197.05
2695.58188	4197.45
2698.19818	4185.45
2700.81285	4203.35
2703.4259	4192.85
2706.03733	4196.85
2708.64714	4182.05
2711.25533	4178.05
2713.86191	4163.05
2716.46687	4188.35
2719.07021	4186.25
2721.67194	4193.65
2724.27206	4194.95
2726.87057	4186.75
2729.46747	4183.25
2732.06276	4196.05
2734.65644	4168.45
2737.24852	4180.45
2739.83899	4188.95
2742.42786	4173.05
2745.01513	4179.25
2747.60079	4166.75
2750.18486	4153.15
2752.76733	4156.95
2755.3482	4150.45
2757.92747	4130.95
2760.50515	4136.65
2763.08123	4136.45
2765.65573	4116.85
2768.22863	4120.05
2770.79994	4116.85
2773.36967	4139.05
2775.9378	4115.85
2778.50435	4117.65
2781.06932	4113.45
2783.6327	4118.85
2786.1945	4105.25
2788.75471	4099.45
2791.31335	4092.15
2793.87041	4088.05
2796.42589	4083.25
2798.97979	4064.25
2801.53212	4066.75
2804.08288	4059.05
2806.63206	4050.65
2809.17967	4049.85
2811.72571	4028.75
2814.27018	4040.45
2816.81308	4036.65
2819.35442	4025.45
2821.89419	4004.35
2824.43239	4021.85
2826.96904	4006.55
2829.50412	4005.95
2832.03763	3986.65
2834.56959	3991.85
2837.1	3979.55
2839.62884	3983.25
2842.15613	3971.65
2844.68186	3984.25
2847.20604	3964.85
2849.72867	3967.75
2852.24974	3946.95
2854.76927	3927.45
2857.28724	3918.85
2859.80367	3906.75
2862.31855	3924.75
2864.83189	3912.15
2867.34368	3923.15
2869.85393	3904.15
2872.36264	3891.05
2874.8698	3906.65
2877.37543	3895.15
2879.87952	3894.95
2882.38207	3893.75
2884.88308	3897.75
2887.38256	3899.35
2889.88051	3881.55
2892.37692	3875.05
2894.8718	3877.05
2897.36515	3884.85
2899.85698	3882.75
2902.34727	3887.85
2904.83604	3884.95
2907.32328	3891.45
2909.809	3904.25
2912.29319	3893.35
2914.77587	3888.15
2917.25702	3899.65
2919.73665	3905.25
2922.21476	3897.05
2924.69136	3885.45
2927.16644	3886.95
2929.64	3886.85
2932.11205	3863.35
2934.58258	3844.95
2937.05161	3863.85
2939.51912	3847.85
2941.98513	3855.65
2944.44962	3839.35
2946.91261	3833.55
2949.37409	3868.65
2951.83407	3860.15
2954.29254	3831.05
2956.74951	3835.85
2959.20498	3827.65
2961.65895	3815.55
2964.11142	3821.35
2966.56239	3806.45
2969.01186	3820.75
2971.45984	3810.95
2973.90632	3807.85
2976.35131	3792.45
2978.7948	3774.15
2981.23681	3759.15
2983.67732	3769.55
2986.11635	3765.85
2988.55388	3767.35
2990.98993	3740.65
2993.4245	3735.15
2995.85758	3738.95
2998.28917	3716.45
3000.71928	3716.65
3003.14791	3701.65
3005.57506	3683.25
3008.00073	3687.05
3010.42493	3667.55
3012.84764	3655.55
3015.26888	3648.15
3017.68865	3632.65
3020.10694	3634.45
3022.52376	3620.35
3024.9391	3616.75
3027.35298	3613.05
3029.76539	3611.15
3032.17632	3587.95
3034.5858	3606.65
3036.9938	3602.45
3039.40034	3586.55
3041.80542	3574.05
3044.20903	3569.05
3046.61118	3571.45
3049.01187	3544.15
3051.4111	3545.15
3053.80888	3560.95
3056.20519	3539.85
3058.60005	3525.25
3060.99345	3504.75
3063.3854	3509.15
3065.7759	3504.95
3068.16494	3490.25
3070.55254	3482.15
3072.93868	3473.65
3075.32338	3459.55
3077.70662	3444.85
3080.08842	3442.05
3082.46878	3429.85
3084.84769	3416.75
3087.22515	3406.05
3089.60118	3406.85
3091.97576	3402.35
3094.3489	3406.25
3096.72061	3403.25
3099.09087	3406.65
3101.4597	3399.25
3103.82709	3399.95
3106.19305	3391.55
3108.55757	3379.85
3110.92066	3391.05
3113.28232	3368.85
3115.64255	3366.45
3118.00134	3357.25
3120.35871	3363.55
3122.71466	3337.35
3125.06917	3341.95
3127.42226	3329.85
3129.77393	3331.85
3132.12417	3312.05
3134.47299	3324.45
3136.82039	3305.75
3139.16636	3304.45
3141.51092	3301.65
3143.85406	3304.65
3146.19579	3296.55
3148.53609	3302.75
3150.87499	3298.45
3153.21246	3297.65
3155.54853	3285.15
3157.88318	3288.85
3160.21642	3299.65
3162.54826	3286.65
3164.87868	3276.55
3167.2077	3273.15
3169.5353	3276.95
3171.86151	3260.45
3174.18631	3269.45
3176.5097	3268.35
3178.83169	3240.15
3181.15228	3251.65
3183.47147	3245.45
3185.78926	3226.55
3188.10565	3227.15
3190.42065	3224.45
3192.73424	3222.75
3195.04645	3212.15
3197.35725	3195.05
3199.66667	3204.65
3201.97469	3207.25
3204.28132	3198.55
3206.58656	3199.35
3208.8904	3204.05
3211.19287	3206.15
3213.49394	3202.65
3215.79363	3210.75
3218.09193	3200.75
3220.38884	3204.75
3222.68438	3207.85
3224.97853	3206.95
3227.2713	3197.85
3229.56269	3191.15
3231.8527	3187.05
3234.14133	3168.75
3236.42858	3172.65
3238.71446	3170.05
3240.99896	3159.45
3243.28209	3155.35
3245.56384	3154.05
3247.84423	3148.25
3250.12324	3131.45
3252.40088	3123.45
3254.67715	3140.15
3256.95205	3131.85
3259.22558	3127.95
3261.49775	3124.65
3263.76855	3134.95
3266.03799	3125.75
3268.30606	3130.95
3270.57277	3117.45
3272.83812	3110.95
3275.10211	3111.85
3277.36474	3087.35
3279.62601	3084.85
3281.88593	3071.55
3284.14448	3086.55
3286.40168	3079.55
3288.65753	3085.85
3290.91202	3086.15
3293.16516	3061.25
3295.41695	3056.55
3297.66738	3040.75
3299.91647	3021.65
3302.16421	3008.75
3304.4106	2992.65
3306.65564	2977.05
3308.89933	2948.75
3311.14169	2921.35
3313.38269	2897.95
3315.62236	2882.75
3317.86068	2864.75
3320.09766	2850.95
3322.3333	2812.65
3324.5676	2796.35
3326.80056	2752.95
3329.03219	2737.95
3331.26248	2.45
3333.49143	-1.85
3335.71905	-2.25
