Data from AgNPs_UA_5uM_CRN_500uM_SU_RamanShift__44__11-36-43-147.txt Node

Date: Thu Aug 04 11:36:43 BST 2022
User: TCL
Spectrometer: QEP01345
Trigger mode: 4
Integration Time (sec): 1.000000E0
Scans to average: 10
Electric dark correction enabled: true
Nonlinearity correction enabled: false
Boxcar width: 0
XAxis mode: Raman Shifts
Number of Pixels in Spectrum: 1044
>>>>>Begin Spectral Data<<<<<
46.04893	0.4125
50.45542	-0.4875
54.85868	0.5125
59.25871	-0.5875
63.6555	-54.8875
68.04907	-38.3875
72.43941	-67.9875
76.82654	-53.0875
81.21044	-53.2875
85.59113	-44.1875
89.96862	-70.5875
94.34289	-49.7875
98.71396	-72.8875
103.08183	-52.8875
107.4465	-47.0875
111.80798	-50.1875
116.16626	-38.6875
120.52136	-69.4875
124.87327	-42.4875
129.222	-53.6875
133.56755	-39.9875
137.90993	-51.6875
142.24913	-38.4875
146.58517	-28.4875
150.91804	-20.9875
155.24774	-1.2875
159.57429	26.3125
163.89768	41.5125
168.21792	103.3125
172.53501	157.9125
176.84895	284.0125
181.15975	476.6125
185.46741	709.1125
189.77193	1004.5125
194.07331	1436.6125
198.37157	1884.5125
202.6667	2362.3125
206.9587	2886.8125
211.24758	3424.6125
215.53334	4056.3125
219.81599	4752.3125
224.09553	5572.2125
228.37195	6438.4125
232.64527	7248.4125
236.91549	7925.6125
241.18261	8239.4125
245.44663	8348.8125
249.70755	8301.0125
253.96539	8296.0125
258.22014	8340.7125
262.4718	8412.4125
266.72039	8415.9125
270.96589	8192.2125
275.20832	7864.0125
279.44768	7530.2125
283.68397	7275.5125
287.91719	7199.7125
292.14735	7370.6125
296.37445	7902.7125
300.59849	8889.4125
304.81948	10238.9125
309.03742	11736.2125
313.25231	12844.4125
317.46415	12682.6125
321.67296	11124.7125
325.87872	9349.1125
330.08145	8307.9125
334.28114	8080.5125
338.47781	8339.3125
342.67145	8896.5125
346.86207	9872.2125
351.04966	11300.0125
355.23424	12726.6125
359.4158	13312.9125
363.59435	12799.8125
367.76989	11943.9125
371.94243	11077.9125
376.11196	10405.8125
380.27849	9900.2125
384.44203	9515.3125
388.60257	9299.5125
392.76012	9340.3125
396.91468	9628.5125
401.06626	10040.0125
405.21485	10052.4125
409.36047	9415.9125
413.50311	8293.9125
417.64277	7309.2125
421.77947	6657.3125
425.9132	6382.9125
430.04396	6229.6125
434.17176	6215.8125
438.2966	6320.0125
442.41849	6544.1125
446.53742	6755.2125
450.6534	6892.6125
454.76644	6891.5125
458.87653	6755.7125
462.98368	6641.4125
467.08789	6473.7125
471.18916	6280.6125
475.2875	5968.1125
479.38291	5722.4125
483.4754	5579.8125
487.56496	5514.4125
491.6516	5427.1125
495.73531	5432.8125
499.81612	5505.2125
503.89401	5685.5125
507.96899	5877.6125
512.04106	6159.7125
516.11023	6432.8125
520.1765	6674.2125
524.23987	6748.3125
528.30034	6734.0125
532.35792	6577.8125
536.41261	6401.4125
540.46441	6153.1125
544.51333	5990.6125
548.55936	5977.2125
552.60252	6128.6125
556.64279	6360.3125
560.6802	6798.6125
564.71473	7728.3125
568.7464	8960.9125
572.7752	8893.4125
576.80114	7300.9125
580.82422	6016.6125
584.84444	5484.8125
588.86181	5329.7125
592.87633	5330.0125
596.888	5524.9125
600.89682	6316.2125
604.9028	8934.4125
608.90594	15712.7125
612.90624	23934.1125
616.90371	21689.8125
620.89834	11514.9125
624.89015	7073.9125
628.87913	6560.4125
632.86528	7199.0125
636.84862	7497.6125
640.82913	6747.2125
644.80683	5668.9125
648.78172	5180.0125
652.75379	5327.9125
656.72306	6106.1125
660.68952	6870.0125
664.65319	6460.5125
668.61405	5443.8125
672.57211	5001.7125
676.52738	5005.1125
680.47986	4952.8125
684.42955	4799.0125
688.37646	4717.0125
692.32058	4709.3125
696.26192	4798.9125
700.20048	4946.7125
704.13626	4967.1125
708.06928	4891.3125
711.99952	4853.1125
715.927	4909.1125
719.85171	5133.1125
723.77365	5278.7125
727.69284	5135.9125
731.60928	4974.2125
735.52295	4914.4125
739.43388	4998.7125
743.34206	5036.0125
747.24749	5032.7125
751.15017	5062.5125
755.05012	5383.6125
758.94733	6707.6125
762.8418	9706.5125
766.73354	13603.7125
770.62254	15606.4125
774.50882	14800.9125
778.39237	13294.9125
782.27321	11083.6125
786.15132	8153.8125
790.02671	6211.6125
793.89938	5309.1125
797.76935	5011.9125
801.6366	4866.1125
805.50115	4786.2125
809.36299	4723.7125
813.22213	4711.1125
817.07857	4701.4125
820.93231	4749.4125
824.78336	4842.1125
828.63172	4973.0125
832.47738	5007.5125
836.32036	4914.3125
840.16066	4712.3125
843.99827	4579.7125
847.8332	4542.1125
851.66546	4547.7125
855.49504	4499.9125
859.32195	4522.6125
863.1462	4462.7125
866.96777	4440.7125
870.78668	4425.8125
874.60293	4482.7125
878.41652	4537.5125
882.22745	4692.4125
886.03573	4788.8125
889.84136	4749.0125
893.64433	4722.1125
897.44466	4744.4125
901.24235	4737.4125
905.0374	4670.0125
908.8298	4471.4125
912.61957	4365.6125
916.40671	4262.6125
920.19121	4337.8125
923.97308	4537.3125
927.75233	4934.1125
931.52895	5349.4125
935.30295	5116.3125
939.07433	4512.5125
942.84309	4126.1125
946.60924	3978.8125
950.37278	3924.3125
954.13371	3905.8125
957.89203	3902.2125
961.64774	3918.4125
965.40086	3885.3125
969.15137	3854.4125
972.89929	3905.3125
976.64461	3865.1125
980.38733	3845.0125
984.12747	3833.4125
987.86502	3839.0125
991.59999	3866.6125
995.33237	3966.2125
999.06217	4050.8125
1002.78939	4239.4125
1006.51404	4530.9125
1010.23611	4694.4125
1013.95561	4552.9125
1017.67255	4362.2125
1021.38692	4182.3125
1025.09872	4058.2125
1028.80796	3962.9125
1032.51465	4014.4125
1036.21877	4035.1125
1039.92035	4126.7125
1043.61937	4186.3125
1047.31584	4261.8125
1051.00976	4282.3125
1054.70114	4220.3125
1058.38998	4141.6125
1062.07627	4132.4125
1065.76003	4130.0125
1069.44126	4175.4125
1073.11995	4290.1125
1076.79611	4561.2125
1080.46974	5064.4125
1084.14085	5817.4125
1087.80943	6423.5125
1091.47549	6396.8125
1095.13903	5767.7125
1098.80005	5151.8125
1102.45857	4807.3125
1106.11456	4761.2125
1109.76805	4868.1125
1113.41903	5264.8125
1117.06751	5896.8125
1120.71348	6937.2125
1124.35696	8522.6125
1127.99793	9636.3125
1131.63641	8834.9125
1135.2724	7202.3125
1138.90589	6065.4125
1142.5369	5432.2125
1146.16542	5040.4125
1149.79145	4786.4125
1153.415	4715.7125
1157.03607	4753.8125
1160.65467	4974.9125
1164.27079	5364.3125
1167.88443	5962.8125
1171.49561	6961.1125
1175.10432	8730.6125
1178.71056	11182.2125
1182.31434	12938.7125
1185.91565	12669.6125
1189.51451	11089.4125
1193.11091	9420.5125
1196.70485	8370.0125
1200.29634	7932.2125
1203.88538	7425.3125
1207.47197	6403.8125
1211.05612	5465.2125
1214.63782	4878.1125
1218.21708	4604.0125
1221.79391	4491.9125
1225.36829	4484.4125
1228.94024	4472.9125
1232.50976	4471.3125
1236.07685	4470.5125
1239.6415	4539.2125
1243.20374	4634.5125
1246.76355	4808.4125
1250.32093	5009.6125
1253.8759	5276.1125
1257.42845	5761.4125
1260.97859	6425.4125
1264.52631	7043.2125
1268.07163	7400.2125
1271.61453	7428.9125
1275.15503	7218.7125
1278.69312	6998.4125
1282.22882	7188.8125
1285.76211	8086.0125
1289.29301	9313.3125
1292.82151	10167.3125
1296.34761	10514.8125
1299.87133	11346.6125
1303.39266	13434.1125
1306.9116	17382.6125
1310.42815	22114.3125
1313.94233	23743.9125
1317.45412	20009.7125
1320.96354	14739.3125
1324.47058	10801.5125
1327.97525	8398.3125
1331.47754	7172.8125
1334.97747	6797.5125
1338.47502	6967.5125
1341.97022	7910.0125
1345.46305	9986.9125
1348.95352	13000.8125
1352.44163	16043.8125
1355.92738	19812.6125
1359.41078	26396.0125
1362.89183	33557.7125
1366.37053	32160.1125
1369.84688	22182.1125
1373.32088	13887.9125
1376.79254	10301.2125
1380.26186	8728.0125
1383.72883	7504.3125
1387.19347	6389.7125
1390.65578	5542.7125
1394.11575	5058.6125
1397.57339	4830.8125
1401.0287	4672.4125
1404.48168	4526.1125
1407.93234	4455.2125
1411.38068	4534.5125
1414.82669	4881.8125
1418.27039	5273.2125
1421.71177	5375.9125
1425.15083	5184.5125
1428.58758	5201.1125
1432.02203	5637.9125
1435.45416	6028.1125
1438.88399	5766.5125
1442.31151	5420.3125
1445.73673	5365.0125
1449.15965	5342.2125
1452.58027	5220.2125
1455.9986	5058.8125
1459.41463	4900.5125
1462.82837	4936.6125
1466.23982	5180.9125
1469.64898	5514.0125
1473.05586	5647.7125
1476.46045	5621.1125
1479.86276	5647.0125
1483.26279	5906.4125
1486.66054	6507.8125
1490.05602	7476.5125
1493.44922	9056.5125
1496.84016	11542.7125
1500.22882	15427.2125
1503.61521	20857.2125
1506.99934	27860.6125
1510.38121	34546.6125
1513.76081	36935.9125
1517.13816	32443.6125
1520.51324	24036.8125
1523.88607	16538.8125
1527.25665	11886.3125
1530.62498	9288.4125
1533.99105	7789.4125
1537.35488	6780.1125
1540.71647	6233.1125
1544.07581	6009.8125
1547.4329	6012.8125
1550.78776	6200.3125
1554.14038	6528.1125
1557.49077	6994.7125
1560.83892	7873.8125
1564.18484	9279.7125
1567.52853	10855.8125
1570.86999	11865.1125
1574.20922	11972.8125
1577.54624	11387.3125
1580.88103	9540.2125
1584.2136	7309.0125
1587.54395	5997.8125
1590.87208	5681.3125
1594.19801	6045.8125
1597.52172	6756.6125
1600.84321	6758.3125
1604.16251	5997.8125
1607.47959	5269.7125
1610.79447	4837.0125
1614.10715	4496.1125
1617.41763	4247.7125
1620.7259	4130.1125
1624.03199	4174.2125
1627.33587	4351.4125
1630.63757	4684.8125
1633.93707	5336.6125
1637.23439	6498.4125
1640.52951	8613.5125
1643.82246	12247.7125
1647.11321	17235.0125
1650.40179	21242.2125
1653.68819	20997.0125
1656.97241	16408.5125
1660.25446	11101.1125
1663.53433	7443.6125
1666.81203	5453.2125
1670.08756	4442.0125
1673.36092	3911.1125
1676.63211	3557.7125
1679.90115	3341.7125
1683.16801	3200.4125
1686.43272	3075.0125
1689.69527	3007.6125
1692.95567	2928.4125
1696.2139	2894.9125
1699.46999	2816.9125
1702.72392	2816.1125
1705.97571	2822.0125
1709.22535	2803.1125
1712.47284	2868.2125
1715.71819	2888.6125
1718.96139	2887.9125
1722.20246	2856.1125
1725.44139	2808.0125
1728.67818	2751.1125
1731.91284	2669.2125
1735.14537	2615.9125
1738.37576	2574.9125
1741.60403	2555.2125
1744.83017	2531.3125
1748.05418	2516.8125
1751.27607	2496.6125
1754.49584	2452.9125
1757.71349	2399.0125
1760.92903	2363.5125
1764.14244	2298.9125
1767.35375	2287.0125
1770.56294	2237.0125
1773.77002	2202.4125
1776.97499	2192.3125
1780.17785	2149.5125
1783.37861	2123.7125
1786.57727	2129.5125
1789.77382	2062.0125
1792.96828	2099.4125
1796.16064	2103.8125
1799.3509	2090.6125
1802.53907	2094.5125
1805.72514	2061.6125
1808.90913	2045.6125
1812.09102	2036.0125
1815.27083	2026.6125
1818.44856	2016.6125
1821.6242	2003.2125
1824.79776	1985.5125
1827.96924	1977.9125
1831.13864	1954.9125
1834.30597	1943.0125
1837.47122	1922.3125
1840.6344	1902.6125
1843.7955	1874.1125
1846.95454	1851.8125
1850.11151	1874.6125
1853.26642	1834.6125
1856.41926	1850.2125
1859.57004	1848.1125
1862.71876	1840.9125
1865.86542	1854.5125
1869.01003	1856.7125
1872.15258	1837.2125
1875.29308	1864.6125
1878.43152	1864.4125
1881.56792	1851.4125
1884.70227	1825.2125
1887.83457	1832.2125
1890.96482	1806.4125
1894.09304	1794.6125
1897.21921	1795.7125
1900.34335	1803.6125
1903.46544	1777.1125
1906.58551	1796.6125
1909.70353	1799.7125
1912.81953	1794.4125
1915.93349	1777.6125
1919.04543	1776.5125
1922.15534	1756.9125
1925.26322	1733.7125
1928.36908	1711.6125
1931.47292	1700.3125
1934.57473	1695.6125
1937.67453	1651.1125
1940.77232	1617.9125
1943.86808	1618.9125
1946.96184	1609.1125
1950.05358	1591.2125
1953.14331	1588.7125
1956.23103	1598.4125
1959.31675	1577.6125
1962.40046	1551.4125
1965.48217	1601.8125
1968.56188	1613.4125
1971.63959	1618.0125
1974.7153	1631.6125
1977.78901	1626.3125
1980.86073	1591.8125
1983.93046	1547.4125
1986.99819	1462.0125
1990.06394	1476.8125
1993.1277	1501.1125
1996.18947	1484.1125
1999.24925	1457.9125
2002.30706	1450.5125
2005.36288	1456.6125
2008.41672	1444.9125
2011.46859	1407.0125
2014.51848	1404.1125
2017.56639	1401.0125
2020.61233	1383.3125
2023.6563	1392.8125
2026.6983	1360.4125
2029.73833	1366.4125
2032.7764	1373.7125
2035.8125	1326.7125
2038.84664	1352.6125
2041.87881	1339.5125
2044.90903	1346.8125
2047.93729	1346.5125
2050.96359	1321.7125
2053.98794	1319.6125
2057.01034	1316.0125
2060.03078	1297.4125
2063.04927	1273.9125
2066.06582	1277.9125
2069.08042	1258.0125
2072.09307	1272.1125
2075.10378	1267.1125
2078.11255	1261.2125
2081.11938	1263.2125
2084.12426	1267.0125
2087.12722	1255.0125
2090.12824	1248.3125
2093.12732	1263.5125
2096.12447	1266.5125
2099.11969	1259.2125
2102.11299	1250.8125
2105.10435	1268.6125
2108.09379	1264.7125
2111.08131	1247.5125
2114.0669	1266.1125
2117.05057	1273.0125
2120.03233	1267.9125
2123.01216	1307.1125
2125.99008	1305.4125
2128.96609	1316.9125
2131.94018	1327.2125
2134.91236	1302.2125
2137.88263	1279.8125
2140.851	1269.5125
2143.81746	1275.6125
2146.78201	1249.6125
2149.74466	1231.3125
2152.7054	1226.4125
2155.66425	1199.8125
2158.6212	1194.8125
2161.57625	1176.3125
2164.52941	1149.9125
2167.48067	1180.4125
2170.43004	1171.2125
2173.37752	1194.3125
2176.32311	1192.0125
2179.26681	1198.1125
2182.20863	1204.9125
2185.14856	1201.7125
2188.08661	1193.6125
2191.02278	1192.7125
2193.95707	1163.7125
2196.88948	1151.4125
2199.82001	1162.0125
2202.74867	1137.5125
2205.67545	1143.1125
2208.60037	1162.7125
2211.52341	1144.7125
2214.44458	1145.7125
2217.36388	1147.0125
2220.28132	1123.9125
2223.1969	1114.1125
2226.11061	1117.1125
2229.02246	1103.3125
2231.93245	1108.5125
2234.84058	1100.1125
2237.74686	1091.5125
2240.65128	1091.0125
2243.55385	1101.7125
2246.45456	1076.6125
2249.35343	1113.8125
2252.25044	1112.9125
2255.14561	1141.0125
2258.03893	1159.5125
2260.93041	1170.3125
2263.82004	1185.1125
2266.70783	1194.0125
2269.59378	1174.0125
2272.4779	1161.5125
2275.36017	1176.5125
2278.24061	1170.0125
2281.11922	1143.2125
2283.996	1154.3125
2286.87094	1117.5125
2289.74405	1118.4125
2292.61534	1106.6125
2295.4848	1093.3125
2298.35243	1077.0125
2301.21824	1058.5125
2304.08223	1073.0125
2306.94439	1064.5125
2309.80474	1067.1125
2312.66327	1072.0125
2315.51999	1057.5125
2318.37489	1060.0125
2321.22797	1041.3125
2324.07925	1042.4125
2326.92871	1034.0125
2329.77637	1033.3125
2332.62222	1033.9125
2335.46626	1012.7125
2338.3085	1024.0125
2341.14893	1048.0125
2343.98756	1053.9125
2346.8244	1042.0125
2349.65943	1042.9125
2352.49267	1058.7125
2355.32411	1067.6125
2358.15376	1080.9125
2360.98161	1098.6125
2363.80768	1104.5125
2366.63195	1123.8125
2369.45444	1140.0125
2372.27514	1147.6125
2375.09405	1161.4125
2377.91118	1129.2125
2380.72652	1121.1125
2383.54009	1100.9125
2386.35187	1102.1125
2389.16188	1071.5125
2391.97011	1059.1125
2394.77657	1042.5125
2397.58125	1044.4125
2400.38416	1031.7125
2403.18529	1012.4125
2405.98466	995.9125
2408.78226	999.5125
2411.57809	987.2125
2414.37216	983.9125
2417.16446	994.4125
2419.955	977.5125
2422.74378	995.2125
2425.5308	983.0125
2428.31606	995.0125
2431.09956	1002.8125
2433.88131	992.2125
2436.6613	1015.4125
2439.43954	1017.2125
2442.21603	1015.6125
2444.99077	1023.5125
2447.76377	1034.9125
2450.53501	1037.0125
2453.30451	1034.4125
2456.07226	1056.4125
2458.83827	1037.2125
2461.60254	999.6125
2464.36507	1031.2125
2467.12586	1023.5125
2469.88492	1037.1125
2472.64224	1033.0125
2475.39782	1023.1125
2478.15167	1053.3125
2480.90379	1063.0125
2483.65417	1098.4125
2486.40283	1114.0125
2489.14976	1135.3125
2491.89497	1128.7125
2494.63845	1123.6125
2497.3802	1108.8125
2500.12024	1103.5125
2502.85855	1089.3125
2505.59514	1086.1125
2508.33002	1056.2125
2511.06318	1014.9125
2513.79462	1009.4125
2516.52435	932.1125
2519.25237	912.3125
2521.97867	906.1125
2524.70327	900.9125
2527.42616	898.8125
2530.14734	898.3125
2532.86681	878.7125
2535.58458	886.9125
2538.30065	882.8125
2541.01501	908.2125
2543.72768	901.9125
2546.43864	904.0125
2549.14791	915.8125
2551.85548	905.0125
2554.56136	905.2125
2557.26554	924.5125
2559.96803	926.1125
2562.66883	933.8125
2565.36794	922.8125
2568.06536	905.4125
2570.7611	934.1125
2573.45514	931.9125
2576.14751	924.5125
2578.83819	906.0125
2581.52719	898.9125
2584.21451	896.8125
2586.90015	875.6125
2589.58411	863.3125
2592.2664	875.5125
2594.94701	881.1125
2597.62594	877.3125
2600.30321	827.2125
2602.9788	861.5125
2605.65273	852.9125
2608.32498	860.9125
2610.99557	887.7125
2613.66449	862.8125
2616.33175	881.2125
2618.99734	882.6125
2621.66128	879.4125
2624.32355	869.9125
2626.98416	857.3125
2629.64311	844.0125
2632.30041	835.8125
2634.95605	814.3125
2637.61004	801.9125
2640.26238	783.3125
2642.91306	785.1125
2645.56209	803.5125
2648.20948	797.9125
2650.85521	783.9125
2653.4993	809.2125
2656.14175	802.4125
2658.78255	804.6125
2661.42171	781.0125
2664.05923	817.4125
2666.6951	826.6125
2669.32934	845.2125
2671.96194	857.0125
2674.59291	845.5125
2677.22224	849.2125
2679.84993	854.4125
2682.476	828.7125
2685.10043	823.0125
2687.72324	816.4125
2690.34441	813.8125
2692.96396	802.4125
2695.58188	824.2125
2698.19818	808.7125
2700.81285	793.5125
2703.4259	786.4125
2706.03733	768.6125
2708.64714	777.0125
2711.25533	802.4125
2713.86191	820.5125
2716.46687	812.5125
2719.07021	806.9125
2721.67194	811.5125
2724.27206	820.7125
2726.87057	794.4125
2729.46747	786.6125
2732.06276	785.7125
2734.65644	774.1125
2737.24852	774.1125
2739.83899	745.5125
2742.42786	756.9125
2745.01513	762.1125
2747.60079	741.7125
2750.18486	722.6125
2752.76733	724.6125
2755.3482	714.0125
2757.92747	710.8125
2760.50515	705.9125
2763.08123	692.3125
2765.65573	700.1125
2768.22863	683.8125
2770.79994	684.0125
2773.36967	680.4125
2775.9378	679.3125
2778.50435	684.1125
2781.06932	688.5125
2783.6327	677.1125
2786.1945	701.7125
2788.75471	693.9125
2791.31335	697.5125
2793.87041	704.4125
2796.42589	697.7125
2798.97979	684.4125
2801.53212	713.2125
2804.08288	734.5125
2806.63206	733.6125
2809.17967	721.6125
2811.72571	751.7125
2814.27018	762.2125
2816.81308	774.7125
2819.35442	755.3125
2821.89419	798.0125
2824.43239	788.3125
2826.96904	819.9125
2829.50412	792.9125
2832.03763	795.9125
2834.56959	790.6125
2837.1	777.4125
2839.62884	771.0125
2842.15613	760.9125
2844.68186	773.6125
2847.20604	749.0125
2849.72867	760.8125
2852.24974	776.0125
2854.76927	762.5125
2857.28724	725.8125
2859.80367	812.2125
2862.31855	833.4125
2864.83189	834.3125
2867.34368	857.6125
2869.85393	879.0125
2872.36264	868.1125
2874.8698	868.9125
2877.37543	876.7125
2879.87952	857.7125
2882.38207	831.9125
2884.88308	824.9125
2887.38256	812.4125
2889.88051	802.9125
2892.37692	795.7125
2894.8718	778.3125
2897.36515	791.8125
2899.85698	793.4125
2902.34727	794.6125
2904.83604	811.4125
2907.32328	832.1125
2909.809	851.7125
2912.29319	865.3125
2914.77587	873.5125
2917.25702	877.9125
2919.73665	881.4125
2922.21476	856.0125
2924.69136	836.6125
2927.16644	802.3125
2929.64	798.8125
2932.11205	772.7125
2934.58258	778.3125
2937.05161	764.5125
2939.51912	758.3125
2941.98513	778.7125
2944.44962	759.8125
2946.91261	743.9125
2949.37409	751.0125
2951.83407	753.8125
2954.29254	748.4125
2956.74951	767.7125
2959.20498	755.2125
2961.65895	766.5125
2964.11142	747.3125
2966.56239	745.6125
2969.01186	741.0125
2971.45984	740.6125
2973.90632	732.6125
2976.35131	746.7125
2978.7948	743.1125
2981.23681	734.3125
2983.67732	748.4125
2986.11635	750.7125
2988.55388	727.3125
2990.98993	747.1125
2993.4245	742.0125
2995.85758	726.9125
2998.28917	743.0125
3000.71928	733.7125
3003.14791	742.9125
3005.57506	734.6125
3008.00073	729.2125
3010.42493	673.7125
3012.84764	730.9125
3015.26888	728.0125
3017.68865	724.5125
3020.10694	680.7125
3022.52376	693.6125
3024.9391	695.4125
3027.35298	680.1125
3029.76539	653.9125
3032.17632	657.2125
3034.5858	638.6125
3036.9938	642.3125
3039.40034	627.7125
3041.80542	605.0125
3044.20903	595.2125
3046.61118	584.0125
3049.01187	595.3125
3051.4111	588.8125
3053.80888	576.5125
3056.20519	574.6125
3058.60005	562.1125
3060.99345	586.7125
3063.3854	566.8125
3065.7759	556.8125
3068.16494	550.0125
3070.55254	550.9125
3072.93868	552.7125
3075.32338	556.5125
3077.70662	546.3125
3080.08842	540.9125
3082.46878	531.3125
3084.84769	542.6125
3087.22515	527.6125
3089.60118	537.2125
3091.97576	518.9125
3094.3489	532.5125
3096.72061	522.6125
3099.09087	513.8125
3101.4597	526.0125
3103.82709	519.1125
3106.19305	504.6125
3108.55757	513.6125
3110.92066	504.1125
3113.28232	522.1125
3115.64255	524.8125
3118.00134	526.4125
3120.35871	510.3125
3122.71466	497.6125
3125.06917	509.4125
3127.42226	508.4125
3129.77393	494.3125
3132.12417	509.8125
3134.47299	520.0125
3136.82039	504.8125
3139.16636	480.5125
3141.51092	513.8125
3143.85406	509.6125
3146.19579	498.7125
3148.53609	497.0125
