Data from AgNPs_UA_10uM_CRN_500uM_SU_RamanShift__32__13-10-40-260.txt Node

Date: Thu Aug 04 13:10:40 BST 2022
User: TCL
Spectrometer: QEP01345
Trigger mode: 4
Integration Time (sec): 1.000000E0
Scans to average: 10
Electric dark correction enabled: true
Nonlinearity correction enabled: false
Boxcar width: 0
XAxis mode: Raman Shifts
Number of Pixels in Spectrum: 1044
>>>>>Begin Spectral Data<<<<<
46.04893	0.0125
50.45542	0.4125
54.85868	0.1125
59.25871	0.7125
63.6555	16.4125
68.04907	16.9125
72.43941	17.8125
76.82654	16.0125
81.21044	18.5125
85.59113	21.7125
89.96862	20.6125
94.34289	21.7125
98.71396	23.8125
103.08183	25.4125
107.4465	23.5125
111.80798	24.0125
116.16626	23.0125
120.52136	25.8125
124.87327	29.9125
129.222	28.1125
133.56755	31.1125
137.90993	33.4125
142.24913	36.2125
146.58517	42.0125
150.91804	48.4125
155.24774	58.9125
159.57429	74.0125
163.89768	94.7125
168.21792	130.4125
172.53501	175.2125
176.84895	248.9125
181.15975	345.6125
185.46741	490.4125
189.77193	687.6125
194.07331	933.1125
198.37157	1202.4125
202.6667	1470.4125
206.9587	1765.1125
211.24758	2043.0125
215.53334	2338.5125
219.81599	2642.6125
224.09553	2976.1125
228.37195	3359.8125
232.64527	3759.3125
236.91549	4156.9125
241.18261	4548.4125
245.44663	4859.5125
249.70755	5128.8125
253.96539	5351.0125
258.22014	5558.4125
262.4718	5707.0125
266.72039	5807.1125
270.96589	5842.2125
275.20832	5795.3125
279.44768	5721.9125
283.68397	5632.8125
287.91719	5583.1125
292.14735	5579.7125
296.37445	5618.8125
300.59849	5742.5125
304.81948	5892.7125
309.03742	6049.3125
313.25231	6140.5125
317.46415	6086.3125
321.67296	5944.6125
325.87872	5748.0125
330.08145	5669.8125
334.28114	5679.4125
338.47781	5728.7125
342.67145	5825.2125
346.86207	5982.3125
351.04966	6191.6125
355.23424	6402.4125
359.4158	6533.1125
363.59435	6605.7125
367.76989	6610.2125
371.94243	6610.0125
376.11196	6595.0125
380.27849	6616.9125
384.44203	6653.8125
388.60257	6702.9125
392.76012	6771.2125
396.91468	6865.1125
401.06626	6960.2125
405.21485	6994.8125
409.36047	6943.6125
413.50311	6814.0125
417.64277	6662.1125
421.77947	6601.6125
425.9132	6537.0125
430.04396	6533.9125
434.17176	6563.8125
438.2966	6611.2125
442.41849	6713.3125
446.53742	6827.3125
450.6534	6955.2125
454.76644	7045.4125
458.87653	7100.4125
462.98368	7123.4125
467.08789	7080.3125
471.18916	7027.7125
475.2875	6905.0125
479.38291	6812.6125
483.4754	6736.7125
487.56496	6692.7125
491.6516	6694.6125
495.73531	6695.9125
499.81612	6723.8125
503.89401	6788.4125
507.96899	6816.8125
512.04106	6844.0125
516.11023	6880.8125
520.1765	6911.4125
524.23987	6950.2125
528.30034	6926.0125
532.35792	6940.2125
536.41261	6890.9125
540.46441	6826.4125
544.51333	6823.4125
548.55936	6834.9125
552.60252	6929.7125
556.64279	7012.8125
560.6802	7099.9125
564.71473	7164.7125
568.7464	7233.6125
572.7752	7197.4125
576.80114	7061.8125
580.82422	6971.3125
584.84444	6919.7125
588.86181	6947.4125
592.87633	6986.2125
596.888	7092.4125
600.89682	7360.8125
604.9028	7981.0125
608.90594	9226.1125
612.90624	10452.7125
616.90371	9802.0125
620.89834	8086.6125
624.89015	7371.7125
628.87913	7305.2125
632.86528	7442.3125
636.84862	7501.9125
640.82913	7409.6125
644.80683	7217.6125
648.78172	7101.2125
652.75379	7114.1125
656.72306	7253.6125
660.68952	7434.0125
664.65319	7406.0125
668.61405	7347.9125
672.57211	7407.2125
676.52738	7420.3125
680.47986	7275.8125
684.42955	7176.0125
688.37646	7137.5125
692.32058	7196.9125
696.26192	7321.0125
700.20048	7390.5125
704.13626	7434.2125
708.06928	7397.0125
711.99952	7321.9125
715.927	7295.3125
719.85171	7359.6125
723.77365	7383.0125
727.69284	7335.1125
731.60928	7296.9125
735.52295	7298.4125
739.43388	7319.3125
743.34206	7334.9125
747.24749	7344.3125
751.15017	7361.1125
755.05012	7408.8125
758.94733	7605.1125
762.8418	8098.1125
766.73354	8786.5125
770.62254	9361.6125
774.50882	9477.3125
778.39237	9262.5125
782.27321	8830.2125
786.15132	8258.4125
790.02671	7835.1125
793.89938	7586.9125
797.76935	7503.8125
801.6366	7440.4125
805.50115	7394.1125
809.36299	7395.5125
813.22213	7362.4125
817.07857	7405.8125
820.93231	7382.1125
824.78336	7397.0125
828.63172	7412.3125
832.47738	7404.4125
836.32036	7404.1125
840.16066	7389.1125
843.99827	7377.8125
847.8332	7407.5125
851.66546	7411.8125
855.49504	7425.4125
859.32195	7448.5125
863.1462	7425.3125
866.96777	7425.6125
870.78668	7463.8125
874.60293	7481.1125
878.41652	7493.6125
882.22745	7570.6125
886.03573	7600.1125
889.84136	7598.3125
893.64433	7576.5125
897.44466	7557.6125
901.24235	7555.7125
905.0374	7539.1125
908.8298	7523.9125
912.61957	7557.4125
916.40671	7526.3125
920.19121	7512.6125
923.97308	7549.7125
927.75233	7607.3125
931.52895	7675.4125
935.30295	7601.7125
939.07433	7505.2125
942.84309	7480.6125
946.60924	7455.5125
950.37278	7428.2125
954.13371	7442.8125
957.89203	7438.1125
961.64774	7445.4125
965.40086	7441.8125
969.15137	7434.8125
972.89929	7437.7125
976.64461	7448.6125
980.38733	7433.9125
984.12747	7449.2125
987.86502	7470.9125
991.59999	7496.0125
995.33237	7522.1125
999.06217	7583.3125
1002.78939	7649.4125
1006.51404	7759.0125
1010.23611	7867.4125
1013.95561	7908.9125
1017.67255	7931.2125
1021.38692	7927.7125
1025.09872	7884.3125
1028.80796	7821.8125
1032.51465	7796.7125
1036.21877	7796.9125
1039.92035	7799.2125
1043.61937	7823.7125
1047.31584	7886.8125
1051.00976	7888.0125
1054.70114	7929.2125
1058.38998	7928.9125
1062.07627	7973.3125
1065.76003	8038.7125
1069.44126	8107.7125
1073.11995	8227.1125
1076.79611	8368.8125
1080.46974	8438.5125
1084.14085	8518.5125
1087.80943	8564.4125
1091.47549	8593.1125
1095.13903	8604.1125
1098.80005	8647.0125
1102.45857	8705.7125
1106.11456	8696.3125
1109.76805	8579.4125
1113.41903	8519.4125
1117.06751	8556.4125
1120.71348	8700.5125
1124.35696	8799.3125
1127.99793	8861.0125
1131.63641	8783.6125
1135.2724	8579.6125
1138.90589	8429.4125
1142.5369	8337.8125
1146.16542	8303.5125
1149.79145	8251.2125
1153.415	8197.7125
1157.03607	8157.9125
1160.65467	8213.4125
1164.27079	8342.1125
1167.88443	8559.0125
1171.49561	8829.8125
1175.10432	9241.8125
1178.71056	9794.9125
1182.31434	10284.7125
1185.91565	10467.9125
1189.51451	10470.1125
1193.11091	10392.2125
1196.70485	10282.9125
1200.29634	10142.8125
1203.88538	9948.3125
1207.47197	9673.9125
1211.05612	9384.6125
1214.63782	9101.9125
1218.21708	8913.0125
1221.79391	8788.3125
1225.36829	8710.8125
1228.94024	8708.0125
1232.50976	8710.6125
1236.07685	8748.9125
1239.6415	8775.7125
1243.20374	8814.3125
1246.76355	8843.3125
1250.32093	8924.0125
1253.8759	9004.2125
1257.42845	9164.0125
1260.97859	9366.3125
1264.52631	9527.9125
1268.07163	9680.8125
1271.61453	9765.1125
1275.15503	9750.9125
1278.69312	9740.0125
1282.22882	9756.9125
1285.76211	9789.2125
1289.29301	9891.1125
1292.82151	10052.1125
1296.34761	10208.1125
1299.87133	10411.7125
1303.39266	10829.1125
1306.9116	11403.7125
1310.42815	12050.6125
1313.94233	12259.6125
1317.45412	11964.8125
1320.96354	11478.3125
1324.47058	11041.5125
1327.97525	10665.5125
1331.47754	10448.3125
1334.97747	10364.5125
1338.47502	10451.6125
1341.97022	10747.2125
1345.46305	11236.6125
1348.95352	11966.2125
1352.44163	12779.3125
1355.92738	13493.0125
1359.41078	14254.6125
1362.89183	14760.5125
1366.37053	14144.9125
1369.84688	12600.4125
1373.32088	11153.9125
1376.79254	10311.5125
1380.26186	9917.3125
1383.72883	9673.5125
1387.19347	9418.6125
1390.65578	9187.5125
1394.11575	8966.5125
1397.57339	8807.0125
1401.0287	8751.2125
1404.48168	8739.3125
1407.93234	8800.6125
1411.38068	8889.4125
1414.82669	8968.4125
1418.27039	8987.1125
1421.71177	8944.2125
1425.15083	8903.2125
1428.58758	8820.3125
1432.02203	8818.9125
1435.45416	8821.4125
1438.88399	8832.1125
1442.31151	8827.6125
1445.73673	8825.6125
1449.15965	8868.7125
1452.58027	8852.6125
1455.9986	8865.1125
1459.41463	8867.6125
1462.82837	8921.2125
1466.23982	9061.6125
1469.64898	9227.5125
1473.05586	9356.0125
1476.46045	9481.9125
1479.86276	9537.5125
1483.26279	9636.9125
1486.66054	9772.9125
1490.05602	9976.7125
1493.44922	10280.2125
1496.84016	10777.0125
1500.22882	11492.9125
1503.61521	12317.3125
1506.99934	13133.1125
1510.38121	13573.8125
1513.76081	13383.6125
1517.13816	12563.8125
1520.51324	11521.2125
1523.88607	10691.0125
1527.25665	10215.3125
1530.62498	10012.0125
1533.99105	9907.8125
1537.35488	9847.7125
1540.71647	9781.7125
1544.07581	9708.2125
1547.4329	9633.2125
1550.78776	9554.3125
1554.14038	9441.4125
1557.49077	9406.7125
1560.83892	9495.5125
1564.18484	9614.7125
1567.52853	9803.9125
1570.86999	9964.8125
1574.20922	10010.0125
1577.54624	9910.5125
1580.88103	9640.4125
1584.2136	9268.7125
1587.54395	9066.4125
1590.87208	9088.4125
1594.19801	9268.9125
1597.52172	9529.0125
1600.84321	9625.1125
1604.16251	9559.5125
1607.47959	9439.3125
1610.79447	9280.4125
1614.10715	9002.0125
1617.41763	8695.1125
1620.7259	8474.9125
1624.03199	8301.4125
1627.33587	8245.1125
1630.63757	8288.0125
1633.93707	8462.0125
1637.23439	8806.3125
1640.52951	9289.4125
1643.82246	10034.5125
1647.11321	10723.5125
1650.40179	11056.0125
1653.68819	10688.9125
1656.97241	9835.5125
1660.25446	8934.2125
1663.53433	8320.5125
1666.81203	7939.9125
1670.08756	7719.4125
1673.36092	7568.2125
1676.63211	7488.5125
1679.90115	7403.7125
1683.16801	7332.7125
1686.43272	7282.3125
1689.69527	7237.3125
1692.95567	7222.0125
1696.2139	7199.0125
1699.46999	7181.3125
1702.72392	7158.2125
1705.97571	7157.1125
1709.22535	7162.3125
1712.47284	7160.6125
1715.71819	7170.4125
1718.96139	7165.3125
1722.20246	7153.7125
1725.44139	7139.6125
1728.67818	7110.8125
1731.91284	7072.3125
1735.14537	7025.7125
1738.37576	7027.8125
1741.60403	7019.2125
1744.83017	6978.4125
1748.05418	6997.7125
1751.27607	6952.3125
1754.49584	6938.2125
1757.71349	6952.8125
1760.92903	6950.1125
1764.14244	6908.6125
1767.35375	6900.8125
1770.56294	6904.9125
1773.77002	6907.2125
1776.97499	6882.1125
1780.17785	6834.9125
1783.37861	6828.3125
1786.57727	6822.5125
1789.77382	6835.2125
1792.96828	6816.2125
1796.16064	6795.8125
1799.3509	6775.5125
1802.53907	6803.3125
1805.72514	6767.1125
1808.90913	6741.9125
1812.09102	6729.4125
1815.27083	6717.9125
1818.44856	6711.6125
1821.6242	6694.6125
1824.79776	6665.7125
1827.96924	6676.2125
1831.13864	6657.0125
1834.30597	6657.2125
1837.47122	6606.9125
1840.6344	6604.9125
1843.7955	6610.8125
1846.95454	6614.7125
1850.11151	6611.8125
1853.26642	6603.6125
1856.41926	6614.4125
1859.57004	6630.8125
1862.71876	6609.6125
1865.86542	6604.7125
1869.01003	6585.6125
1872.15258	6590.8125
1875.29308	6577.7125
1878.43152	6571.5125
1881.56792	6543.6125
1884.70227	6534.1125
1887.83457	6528.9125
1890.96482	6508.3125
1894.09304	6496.1125
1897.21921	6481.8125
1900.34335	6490.0125
1903.46544	6463.9125
1906.58551	6471.3125
1909.70353	6470.9125
1912.81953	6465.4125
1915.93349	6445.9125
1919.04543	6433.7125
1922.15534	6431.9125
1925.26322	6431.0125
1928.36908	6385.8125
1931.47292	6385.4125
1934.57473	6374.8125
1937.67453	6371.7125
1940.77232	6337.0125
1943.86808	6306.6125
1946.96184	6307.5125
1950.05358	6282.8125
1953.14331	6275.1125
1956.23103	6264.3125
1959.31675	6241.2125
1962.40046	6225.1125
1965.48217	6190.3125
1968.56188	6185.2125
1971.63959	6158.0125
1974.7153	6156.3125
1977.78901	6143.2125
1980.86073	6134.3125
1983.93046	6102.5125
1986.99819	6059.9125
1990.06394	6065.6125
1993.1277	6035.6125
1996.18947	6017.9125
1999.24925	5977.7125
2002.30706	5971.0125
2005.36288	5960.8125
2008.41672	5951.2125
2011.46859	5932.7125
2014.51848	5896.0125
2017.56639	5864.9125
2020.61233	5863.8125
2023.6563	5848.5125
2026.6983	5827.4125
2029.73833	5817.7125
2032.7764	5803.7125
2035.8125	5776.3125
2038.84664	5785.0125
2041.87881	5749.7125
2044.90903	5756.1125
2047.93729	5753.3125
2050.96359	5726.5125
2053.98794	5717.0125
2057.01034	5712.8125
2060.03078	5706.6125
2063.04927	5708.2125
2066.06582	5686.9125
2069.08042	5685.8125
2072.09307	5688.6125
2075.10378	5675.6125
2078.11255	5674.1125
2081.11938	5663.8125
2084.12426	5649.1125
2087.12722	5641.8125
2090.12824	5641.9125
2093.12732	5638.6125
2096.12447	5661.7125
2099.11969	5664.2125
2102.11299	5662.8125
2105.10435	5663.3125
2108.09379	5642.8125
2111.08131	5654.4125
2114.0669	5648.9125
2117.05057	5670.9125
2120.03233	5664.9125
2123.01216	5664.6125
2125.99008	5660.4125
2128.96609	5652.7125
2131.94018	5681.8125
2134.91236	5678.1125
2137.88263	5667.0125
2140.851	5657.7125
2143.81746	5671.0125
2146.78201	5671.2125
2149.74466	5660.4125
2152.7054	5682.1125
2155.66425	5651.8125
2158.6212	5668.0125
2161.57625	5647.6125
2164.52941	5653.0125
2167.48067	5656.9125
2170.43004	5646.1125
2173.37752	5637.0125
2176.32311	5638.3125
2179.26681	5643.1125
2182.20863	5647.5125
2185.14856	5635.7125
2188.08661	5641.4125
2191.02278	5631.4125
2193.95707	5647.1125
2196.88948	5631.0125
2199.82001	5622.2125
2202.74867	5609.3125
2205.67545	5611.2125
2208.60037	5590.7125
2211.52341	5613.1125
2214.44458	5574.2125
2217.36388	5547.5125
2220.28132	5545.5125
2223.1969	5510.6125
2226.11061	5494.5125
2229.02246	5493.4125
2231.93245	5494.8125
2234.84058	5479.2125
2237.74686	5472.1125
2240.65128	5457.3125
2243.55385	5451.8125
2246.45456	5448.7125
2249.35343	5442.7125
2252.25044	5448.5125
2255.14561	5416.7125
2258.03893	5433.6125
2260.93041	5434.7125
2263.82004	5399.2125
2266.70783	5376.8125
2269.59378	5368.5125
2272.4779	5367.7125
2275.36017	5344.0125
2278.24061	5318.0125
2281.11922	5316.1125
2283.996	5284.5125
2286.87094	5311.2125
2289.74405	5278.7125
2292.61534	5287.1125
2295.4848	5266.9125
2298.35243	5283.6125
2301.21824	5237.3125
2304.08223	5251.5125
2306.94439	5243.2125
2309.80474	5239.0125
2312.66327	5234.9125
2315.51999	5223.8125
2318.37489	5215.5125
2321.22797	5211.8125
2324.07925	5186.7125
2326.92871	5193.5125
2329.77637	5176.3125
2332.62222	5164.8125
2335.46626	5161.0125
2338.3085	5123.6125
2341.14893	5145.1125
2343.98756	5144.4125
2346.8244	5139.4125
2349.65943	5128.6125
2352.49267	5113.4125
2355.32411	5093.9125
2358.15376	5084.2125
2360.98161	5099.5125
2363.80768	5100.3125
2366.63195	5109.9125
2369.45444	5095.7125
2372.27514	5080.2125
2375.09405	5083.3125
2377.91118	5063.4125
2380.72652	5061.1125
2383.54009	5049.6125
2386.35187	5037.8125
2389.16188	5020.6125
2391.97011	5009.4125
2394.77657	5000.6125
2397.58125	4972.2125
2400.38416	4970.7125
2403.18529	4979.1125
2405.98466	4967.9125
2408.78226	4950.6125
2411.57809	4935.0125
2414.37216	4926.5125
2417.16446	4920.1125
2419.955	4916.3125
2422.74378	4918.4125
2425.5308	4897.7125
2428.31606	4912.5125
2431.09956	4906.5125
2433.88131	4873.5125
2436.6613	4899.9125
2439.43954	4876.7125
2442.21603	4882.0125
2444.99077	4859.4125
2447.76377	4865.2125
2450.53501	4875.9125
2453.30451	4870.4125
2456.07226	4865.9125
2458.83827	4857.8125
2461.60254	4836.0125
2464.36507	4817.0125
2467.12586	4820.0125
2469.88492	4806.6125
2472.64224	4821.3125
2475.39782	4818.0125
2478.15167	4814.6125
2480.90379	4801.3125
2483.65417	4794.7125
2486.40283	4776.5125
2489.14976	4786.9125
2491.89497	4775.3125
2494.63845	4796.6125
2497.3802	4785.4125
2500.12024	4763.9125
2502.85855	4759.0125
2505.59514	4748.5125
2508.33002	4756.3125
2511.06318	4742.3125
2513.79462	4702.5125
2516.52435	4709.1125
2519.25237	4696.0125
2521.97867	4693.7125
2524.70327	4699.8125
2527.42616	4681.6125
2530.14734	4658.2125
2532.86681	4658.5125
2535.58458	4667.3125
2538.30065	4654.5125
2541.01501	4649.4125
2543.72768	4658.2125
2546.43864	4636.3125
2549.14791	4641.5125
2551.85548	4628.2125
2554.56136	4604.2125
2557.26554	4603.7125
2559.96803	4597.9125
2562.66883	4583.0125
2565.36794	4574.6125
2568.06536	4563.7125
2570.7611	4530.4125
2573.45514	4523.6125
2576.14751	4541.1125
2578.83819	4515.1125
2581.52719	4511.9125
2584.21451	4494.0125
2586.90015	4511.7125
2589.58411	4494.0125
2592.2664	4481.9125
2594.94701	4455.5125
2597.62594	4462.6125
2600.30321	4450.5125
2602.9788	4460.1125
2605.65273	4439.2125
2608.32498	4436.9125
2610.99557	4412.3125
2613.66449	4408.6125
2616.33175	4414.1125
2618.99734	4404.1125
2621.66128	4394.4125
2624.32355	4382.8125
2626.98416	4378.2125
2629.64311	4347.5125
2632.30041	4340.0125
2634.95605	4346.1125
2637.61004	4344.7125
2640.26238	4322.1125
2642.91306	4328.2125
2645.56209	4323.3125
2648.20948	4313.5125
2650.85521	4310.4125
2653.4993	4316.4125
2656.14175	4304.9125
2658.78255	4283.5125
2661.42171	4299.2125
2664.05923	4309.3125
2666.6951	4300.3125
2669.32934	4319.2125
2671.96194	4295.8125
2674.59291	4301.0125
2677.22224	4313.7125
2679.84993	4307.5125
2682.476	4287.8125
2685.10043	4290.8125
2687.72324	4299.8125
2690.34441	4294.3125
2692.96396	4268.7125
2695.58188	4284.4125
2698.19818	4276.5125
2700.81285	4266.4125
2703.4259	4270.7125
2706.03733	4258.2125
2708.64714	4268.1125
2711.25533	4258.8125
2713.86191	4250.5125
2716.46687	4261.4125
2719.07021	4255.1125
2721.67194	4254.5125
2724.27206	4259.4125
2726.87057	4273.2125
2729.46747	4250.0125
2732.06276	4246.3125
2734.65644	4242.3125
2737.24852	4226.5125
2739.83899	4222.6125
2742.42786	4229.3125
2745.01513	4209.6125
2747.60079	4194.9125
2750.18486	4191.8125
2752.76733	4198.6125
2755.3482	4191.4125
2757.92747	4171.2125
2760.50515	4153.2125
2763.08123	4164.5125
2765.65573	4155.3125
2768.22863	4132.1125
2770.79994	4122.2125
2773.36967	4123.0125
2775.9378	4117.0125
2778.50435	4111.0125
2781.06932	4095.6125
2783.6327	4110.7125
2786.1945	4092.4125
2788.75471	4087.2125
2791.31335	4082.6125
2793.87041	4067.7125
2796.42589	4055.6125
2798.97979	4043.9125
2801.53212	4043.6125
2804.08288	4031.1125
2806.63206	4017.3125
2809.17967	4036.6125
2811.72571	4013.9125
2814.27018	4004.8125
2816.81308	3986.9125
2819.35442	3979.0125
2821.89419	3975.6125
2824.43239	3958.5125
2826.96904	3952.2125
2829.50412	3960.9125
2832.03763	3940.1125
2834.56959	3928.4125
2837.1	3923.5125
2839.62884	3909.1125
2842.15613	3914.5125
2844.68186	3903.7125
2847.20604	3900.5125
2849.72867	3895.9125
2852.24974	3880.4125
2854.76927	3870.3125
2857.28724	3867.1125
2859.80367	3851.5125
2862.31855	3859.0125
2864.83189	3874.6125
2867.34368	3853.2125
2869.85393	3849.7125
2872.36264	3836.5125
2874.8698	3823.3125
2877.37543	3836.6125
2879.87952	3841.2125
2882.38207	3813.2125
2884.88308	3803.3125
2887.38256	3814.9125
2889.88051	3814.4125
2892.37692	3808.5125
2894.8718	3800.8125
2897.36515	3800.2125
2899.85698	3794.3125
2902.34727	3792.3125
2904.83604	3810.4125
2907.32328	3812.0125
2909.809	3816.1125
2912.29319	3817.0125
2914.77587	3795.9125
2917.25702	3812.2125
2919.73665	3801.9125
2922.21476	3809.8125
2924.69136	3809.7125
2927.16644	3798.5125
2929.64	3790.3125
2932.11205	3784.8125
2934.58258	3763.7125
2937.05161	3771.0125
2939.51912	3776.0125
2941.98513	3766.8125
2944.44962	3745.1125
2946.91261	3731.7125
2949.37409	3757.0125
2951.83407	3739.9125
2954.29254	3741.7125
2956.74951	3744.2125
2959.20498	3734.1125
2961.65895	3736.6125
2964.11142	3729.2125
2966.56239	3718.2125
2969.01186	3714.8125
2971.45984	3724.5125
2973.90632	3707.5125
2976.35131	3705.0125
2978.7948	3690.4125
2981.23681	3703.3125
2983.67732	3689.7125
2986.11635	3675.8125
2988.55388	3648.4125
2990.98993	3662.9125
2993.4245	3659.8125
2995.85758	3635.6125
2998.28917	3631.3125
3000.71928	3617.6125
3003.14791	3602.4125
3005.57506	3592.6125
3008.00073	3585.2125
3010.42493	3584.4125
3012.84764	3561.5125
3015.26888	3575.8125
3017.68865	3575.5125
3020.10694	3564.5125
3022.52376	3544.5125
3024.9391	3540.9125
3027.35298	3525.6125
3029.76539	3520.5125
3032.17632	3513.0125
3034.5858	3499.6125
3036.9938	3497.5125
3039.40034	3497.9125
3041.80542	3480.3125
3044.20903	3471.5125
3046.61118	3477.0125
3049.01187	3457.8125
3051.4111	3472.8125
3053.80888	3437.6125
3056.20519	3429.3125
3058.60005	3421.0125
3060.99345	3418.2125
3063.3854	3426.5125
3065.7759	3404.7125
3068.16494	3398.6125
3070.55254	3393.0125
3072.93868	3373.7125
3075.32338	3376.5125
3077.70662	3358.3125
3080.08842	3359.4125
3082.46878	3362.5125
3084.84769	3335.3125
3087.22515	3322.9125
3089.60118	3345.9125
3091.97576	3331.8125
3094.3489	3319.1125
3096.72061	3335.5125
3099.09087	3305.1125
3101.4597	3318.6125
3103.82709	3311.6125
3106.19305	3313.3125
3108.55757	3309.4125
3110.92066	3292.5125
3113.28232	3290.5125
3115.64255	3289.3125
3118.00134	3268.5125
3120.35871	3267.7125
3122.71466	3261.1125
