Data from AgNPs_UA_5uM_CRN_500uM_SU_RamanShift__236__12-08-43-187.txt Node

Date: Thu Aug 04 12:08:43 BST 2022
User: TCL
Spectrometer: QEP01345
Trigger mode: 4
Integration Time (sec): 1.000000E0
Scans to average: 10
Electric dark correction enabled: true
Nonlinearity correction enabled: false
Boxcar width: 0
XAxis mode: Raman Shifts
Number of Pixels in Spectrum: 1044
>>>>>Begin Spectral Data<<<<<
46.04893	0.35
50.45542	0.55
54.85868	-0.65
59.25871	-0.45
63.6555	-57.65
68.04907	-41.25
72.43941	-71.75
76.82654	-57.05
81.21044	-56.55
85.59113	-49.05
89.96862	-76.55
94.34289	-56.65
98.71396	-77.75
103.08183	-59.85
107.4465	-50.85
111.80798	-57.95
116.16626	-45.05
120.52136	-76.15
124.87327	-52.55
129.222	-63.65
133.56755	-51.45
137.90993	-63.95
142.24913	-52.75
146.58517	-44.95
150.91804	-42.55
155.24774	-31.25
159.57429	-13.05
163.89768	-6.25
168.21792	31.85
172.53501	53.85
176.84895	132.55
181.15975	260.95
185.46741	411.45
189.77193	587.55
194.07331	869.55
198.37157	1140.65
202.6667	1424.95
206.9587	1730.45
211.24758	2047.05
215.53334	2348.95
219.81599	2712.15
224.09553	3094.95
228.37195	3533.65
232.64527	3979.55
236.91549	4421.85
241.18261	4770.35
245.44663	5042.05
249.70755	5195.45
253.96539	5342.05
258.22014	5435.95
262.4718	5499.85
266.72039	5540.95
270.96589	5530.95
275.20832	5414.25
279.44768	5302.65
283.68397	5209.65
287.91719	5148.65
292.14735	5188.95
296.37445	5355.05
300.59849	5643.35
304.81948	5990.55
309.03742	6356.05
313.25231	6589.95
317.46415	6542.45
321.67296	6174.25
325.87872	5767.95
330.08145	5573.25
334.28114	5513.75
338.47781	5605.35
342.67145	5728.65
346.86207	5959.05
351.04966	6305.55
355.23424	6693.55
359.4158	6945.05
363.59435	6982.35
367.76989	6921.75
371.94243	6793.05
376.11196	6669.85
380.27849	6594.15
384.44203	6537.15
388.60257	6488.75
392.76012	6491.75
396.91468	6625.95
401.06626	6771.55
405.21485	6802.45
409.36047	6654.85
413.50311	6315.75
417.64277	6021.95
421.77947	5823.65
425.9132	5747.15
430.04396	5748.95
434.17176	5772.15
438.2966	5872.45
442.41849	5955.15
446.53742	6074.85
450.6534	6170.65
454.76644	6256.55
458.87653	6263.85
462.98368	6207.05
467.08789	6131.25
471.18916	6039.35
475.2875	5928.85
479.38291	5825.75
483.4754	5721.55
487.56496	5693.15
491.6516	5654.05
495.73531	5670.55
499.81612	5701.05
503.89401	5782.45
507.96899	5825.75
512.04106	5936.15
516.11023	6026.05
520.1765	6115.15
524.23987	6126.75
528.30034	6129.35
532.35792	6046.65
536.41261	5986.75
540.46441	5899.85
544.51333	5845.75
548.55936	5890.55
552.60252	6010.55
556.64279	6123.85
560.6802	6229.75
564.71473	6373.85
568.7464	6566.45
572.7752	6530.05
576.80114	6218.05
580.82422	5992.35
584.84444	5904.05
588.86181	5892.45
592.87633	5926.35
596.888	6035.95
600.89682	6399.05
604.9028	7365.25
608.90594	9439.05
612.90624	11716.95
616.90371	10880.35
620.89834	7848.95
624.89015	6516.75
628.87913	6310.15
632.86528	6453.55
636.84862	6618.75
640.82913	6481.35
644.80683	6142.65
648.78172	5960.25
652.75379	5982.65
656.72306	6233.45
660.68952	6456.85
664.65319	6385.45
668.61405	6150.25
672.57211	6077.35
676.52738	6080.75
680.47986	5963.95
684.42955	5885.95
688.37646	5841.25
692.32058	5846.15
696.26192	5917.35
700.20048	6003.65
704.13626	6048.15
708.06928	5992.95
711.99952	5970.15
715.927	5938.25
719.85171	5982.05
723.77365	6036.55
727.69284	6000.85
731.60928	5985.05
735.52295	5948.45
739.43388	5982.85
743.34206	6014.05
747.24749	6044.75
751.15017	6041.05
755.05012	6133.55
758.94733	6498.35
762.8418	7347.55
766.73354	8685.65
770.62254	9697.45
774.50882	9800.35
778.39237	9235.45
782.27321	8308.15
786.15132	7274.65
790.02671	6595.95
793.89938	6209.35
797.76935	6093.45
801.6366	6012.05
805.50115	5987.05
809.36299	5953.35
813.22213	5938.55
817.07857	5940.75
820.93231	5938.65
824.78336	5962.05
828.63172	5994.85
832.47738	5975.65
836.32036	5981.85
840.16066	5958.35
843.99827	5940.25
847.8332	5937.05
851.66546	5938.45
855.49504	5944.35
859.32195	5966.35
863.1462	5953.55
866.96777	5961.85
870.78668	5949.85
874.60293	5977.05
878.41652	6004.95
882.22745	6079.15
886.03573	6086.55
889.84136	6088.65
893.64433	6109.95
897.44466	6063.55
901.24235	6081.15
905.0374	6078.05
908.8298	6006.25
912.61957	5973.75
916.40671	5936.35
920.19121	5987.65
923.97308	6064.85
927.75233	6138.65
931.52895	6201.75
935.30295	6152.55
939.07433	6010.45
942.84309	5907.15
946.60924	5873.55
950.37278	5834.05
954.13371	5824.25
957.89203	5811.95
961.64774	5844.45
965.40086	5822.45
969.15137	5795.05
972.89929	5839.15
976.64461	5820.25
980.38733	5838.75
984.12747	5851.05
987.86502	5845.15
991.59999	5893.95
995.33237	5942.05
999.06217	6003.45
1002.78939	6104.35
1006.51404	6221.55
1010.23611	6332.15
1013.95561	6378.75
1017.67255	6368.95
1021.38692	6373.85
1025.09872	6288.35
1028.80796	6199.85
1032.51465	6198.55
1036.21877	6193.65
1039.92035	6229.15
1043.61937	6288.95
1047.31584	6321.75
1051.00976	6366.75
1054.70114	6382.25
1058.38998	6357.75
1062.07627	6364.85
1065.76003	6400.35
1069.44126	6477.95
1073.11995	6562.05
1076.79611	6692.35
1080.46974	6843.35
1084.14085	7007.95
1087.80943	7135.45
1091.47549	7168.25
1095.13903	7085.25
1098.80005	6968.25
1102.45857	6870.65
1106.11456	6825.55
1109.76805	6765.45
1113.41903	6905.95
1117.06751	7069.55
1120.71348	7326.55
1124.35696	7709.75
1127.99793	7986.55
1131.63641	7822.35
1135.2724	7447.35
1138.90589	7119.45
1142.5369	6934.25
1146.16542	6803.55
1149.79145	6716.05
1153.415	6672.95
1157.03607	6691.65
1160.65467	6779.65
1164.27079	6973.65
1167.88443	7231.55
1171.49561	7654.45
1175.10432	8285.55
1178.71056	9187.15
1182.31434	9994.45
1185.91565	10222.45
1189.51451	10093.05
1193.11091	9817.05
1196.70485	9572.85
1200.29634	9323.95
1203.88538	9051.75
1207.47197	8599.45
1211.05612	8139.25
1214.63782	7698.45
1218.21708	7463.75
1221.79391	7325.45
1225.36829	7240.35
1228.94024	7211.95
1232.50976	7248.65
1236.07685	7292.25
1239.6415	7305.35
1243.20374	7316.55
1246.76355	7336.05
1250.32093	7422.75
1253.8759	7488.25
1257.42845	7659.45
1260.97859	7860.45
1264.52631	8099.15
1268.07163	8253.65
1271.61453	8377.55
1275.15503	8429.35
1278.69312	8440.35
1282.22882	8491.25
1285.76211	8702.85
1289.29301	8949.85
1292.82151	9229.75
1296.34761	9433.45
1299.87133	9837.15
1303.39266	10531.65
1306.9116	11706.25
1310.42815	12895.55
1313.94233	13363.15
1317.45412	12561.75
1320.96354	11415.25
1324.47058	10420.55
1327.97525	9650.85
1331.47754	9255.05
1334.97747	9166.35
1338.47502	9248.45
1341.97022	9598.55
1345.46305	10355.05
1348.95352	11422.95
1352.44163	12734.85
1355.92738	14078.05
1359.41078	15794.05
1362.89183	17334.05
1366.37053	16703.35
1369.84688	13859.45
1373.32088	11132.75
1376.79254	9727.45
1380.26186	9034.15
1383.72883	8618.65
1387.19347	8236.65
1390.65578	7865.65
1394.11575	7640.55
1397.57339	7466.95
1401.0287	7347.05
1404.48168	7313.55
1407.93234	7331.75
1411.38068	7331.45
1414.82669	7417.95
1418.27039	7495.55
1421.71177	7481.95
1425.15083	7403.65
1428.58758	7306.65
1432.02203	7334.05
1435.45416	7421.85
1438.88399	7420.85
1442.31151	7414.65
1445.73673	7458.85
1449.15965	7505.85
1452.58027	7544.35
1455.9986	7531.05
1459.41463	7548.65
1462.82837	7640.05
1466.23982	7825.85
1469.64898	8044.15
1473.05586	8172.65
1476.46045	8263.05
1479.86276	8373.45
1483.26279	8460.25
1486.66054	8662.05
1490.05602	8933.45
1493.44922	9508.15
1496.84016	10383.35
1500.22882	11737.95
1503.61521	13468.15
1506.99934	15299.35
1510.38121	16477.45
1513.76081	16321.05
1517.13816	14765.15
1520.51324	12650.55
1523.88607	10933.45
1527.25665	9929.75
1530.62498	9413.25
1533.99105	9223.35
1537.35488	9115.85
1540.71647	8995.55
1544.07581	8869.35
1547.4329	8718.65
1550.78776	8614.75
1554.14038	8522.25
1557.49077	8499.95
1560.83892	8594.85
1564.18484	8806.45
1567.52853	9158.35
1570.86999	9484.85
1574.20922	9627.15
1577.54624	9508.75
1580.88103	9008.75
1584.2136	8313.65
1587.54395	7931.15
1590.87208	7843.45
1594.19801	8015.95
1597.52172	8378.25
1600.84321	8528.85
1604.16251	8383.05
1607.47959	8190.85
1610.79447	7998.55
1614.10715	7714.15
1617.41763	7417.85
1620.7259	7155.75
1624.03199	7004.75
1627.33587	6916.25
1630.63757	6984.75
1633.93707	7192.35
1637.23439	7626.75
1640.52951	8279.25
1643.82246	9272.25
1647.11321	10447.05
1650.40179	11155.15
1653.68819	10842.45
1656.97241	9590.55
1660.25446	8210.55
1663.53433	7200.35
1666.81203	6617.05
1670.08756	6278.35
1673.36092	6080.55
1676.63211	5967.65
1679.90115	5854.05
1683.16801	5768.15
1686.43272	5677.65
1689.69527	5669.95
1692.95567	5592.35
1696.2139	5563.95
1699.46999	5513.95
1702.72392	5518.85
1705.97571	5527.55
1709.22535	5515.35
1712.47284	5539.15
1715.71819	5552.95
1718.96139	5551.45
1722.20246	5528.05
1725.44139	5493.25
1728.67818	5466.65
1731.91284	5427.75
1735.14537	5398.25
1738.37576	5354.05
1741.60403	5343.65
1744.83017	5315.55
1748.05418	5303.85
1751.27607	5324.75
1754.49584	5289.15
1757.71349	5240.15
1760.92903	5256.85
1764.14244	5215.05
1767.35375	5200.75
1770.56294	5198.35
1773.77002	5170.85
1776.97499	5190.35
1780.17785	5164.05
1783.37861	5156.35
1786.57727	5153.45
1789.77382	5089.85
1792.96828	5137.85
1796.16064	5136.85
1799.3509	5125.85
1802.53907	5135.75
1805.72514	5097.15
1808.90913	5082.15
1812.09102	5071.75
1815.27083	5069.95
1818.44856	5041.95
1821.6242	5047.25
1824.79776	5015.75
1827.96924	5011.05
1831.13864	4993.55
1834.30597	5008.25
1837.47122	4965.25
1840.6344	4960.65
1843.7955	4956.05
1846.95454	4945.45
1850.11151	4967.15
1853.26642	4923.75
1856.41926	4940.35
1859.57004	4934.25
1862.71876	4913.15
1865.86542	4929.15
1869.01003	4920.45
1872.15258	4889.85
1875.29308	4913.45
1878.43152	4909.15
1881.56792	4887.85
1884.70227	4875.35
1887.83457	4869.95
1890.96482	4852.65
1894.09304	4851.85
1897.21921	4846.35
1900.34335	4849.55
1903.46544	4827.15
1906.58551	4843.15
1909.70353	4839.75
1912.81953	4824.65
1915.93349	4810.05
1919.04543	4801.65
1922.15534	4786.25
1925.26322	4785.05
1928.36908	4781.95
1931.47292	4775.55
1934.57473	4779.45
1937.67453	4746.95
1940.77232	4716.75
1943.86808	4716.35
1946.96184	4719.75
1950.05358	4682.05
1953.14331	4664.15
1956.23103	4664.85
1959.31675	4634.25
1962.40046	4610.35
1965.48217	4609.85
1968.56188	4606.95
1971.63959	4578.75
1974.7153	4593.95
1977.78901	4581.85
1980.86073	4549.05
1983.93046	4511.55
1986.99819	4436.35
1990.06394	4449.45
1993.1277	4472.25
1996.18947	4456.35
1999.24925	4422.95
2002.30706	4431.85
2005.36288	4422.75
2008.41672	4406.65
2011.46859	4363.55
2014.51848	4362.85
2017.56639	4356.65
2020.61233	4333.65
2023.6563	4317.05
2026.6983	4294.65
2029.73833	4305.15
2032.7764	4290.75
2035.8125	4265.35
2038.84664	4252.15
2041.87881	4238.95
2044.90903	4244.85
2047.93729	4232.75
2050.96359	4220.85
2053.98794	4227.45
2057.01034	4230.95
2060.03078	4193.75
2063.04927	4183.05
2066.06582	4185.85
2069.08042	4185.75
2072.09307	4184.55
2075.10378	4192.15
2078.11255	4173.65
2081.11938	4182.05
2084.12426	4174.75
2087.12722	4168.75
2090.12824	4167.05
2093.12732	4159.35
2096.12447	4173.35
2099.11969	4165.75
2102.11299	4160.05
2105.10435	4173.15
2108.09379	4166.75
2111.08131	4169.55
2114.0669	4166.15
2117.05057	4161.15
2120.03233	4143.55
2123.01216	4159.25
2125.99008	4166.25
2128.96609	4179.85
2131.94018	4186.55
2134.91236	4189.55
2137.88263	4168.45
2140.851	4169.35
2143.81746	4204.35
2146.78201	4176.85
2149.74466	4164.05
2152.7054	4174.85
2155.66425	4150.75
2158.6212	4158.85
2161.57625	4144.65
2164.52941	4122.35
2167.48067	4130.05
2170.43004	4118.45
2173.37752	4137.25
2176.32311	4131.65
2179.26681	4129.55
2182.20863	4139.75
2185.14856	4135.75
2188.08661	4127.45
2191.02278	4138.85
2193.95707	4116.45
2196.88948	4109.35
2199.82001	4121.15
2202.74867	4098.15
2205.67545	4102.05
2208.60037	4103.15
2211.52341	4086.25
2214.44458	4072.05
2217.36388	4076.75
2220.28132	4046.75
2223.1969	4036.45
2226.11061	4030.05
2229.02246	4018.95
2231.93245	4023.35
2234.84058	3999.55
2237.74686	3993.25
2240.65128	3972.25
2243.55385	3990.75
2246.45456	3943.55
2249.35343	3989.15
2252.25044	3958.05
2255.14561	3975.45
2258.03893	3958.95
2260.93041	3950.45
2263.82004	3952.35
2266.70783	3947.45
2269.59378	3926.55
2272.4779	3900.75
2275.36017	3904.75
2278.24061	3892.35
2281.11922	3856.05
2283.996	3884.05
2286.87094	3858.15
2289.74405	3859.05
2292.61534	3857.95
2295.4848	3850.15
2298.35243	3845.95
2301.21824	3828.45
2304.08223	3837.15
2306.94439	3831.65
2309.80474	3840.65
2312.66327	3837.55
2315.51999	3813.55
2318.37489	3798.15
2321.22797	3795.65
2324.07925	3771.85
2326.92871	3785.05
2329.77637	3761.55
2332.62222	3760.75
2335.46626	3742.25
2338.3085	3749.35
2341.14893	3748.35
2343.98756	3751.95
2346.8244	3725.55
2349.65943	3718.45
2352.49267	3728.85
2355.32411	3739.55
2358.15376	3730.95
2360.98161	3722.95
2363.80768	3705.95
2366.63195	3731.05
2369.45444	3721.25
2372.27514	3722.25
2375.09405	3733.15
2377.91118	3687.95
2380.72652	3692.45
2383.54009	3691.65
2386.35187	3691.65
2389.16188	3667.55
2391.97011	3653.65
2394.77657	3646.55
2397.58125	3650.95
2400.38416	3626.95
2403.18529	3623.15
2405.98466	3614.95
2408.78226	3609.65
2411.57809	3596.15
2414.37216	3589.25
2417.16446	3585.25
2419.955	3566.75
2422.74378	3585.95
2425.5308	3567.65
2428.31606	3561.45
2431.09956	3574.05
2433.88131	3552.25
2436.6613	3561.75
2439.43954	3550.45
2442.21603	3547.65
2444.99077	3541.65
2447.76377	3550.45
2450.53501	3540.75
2453.30451	3542.65
2456.07226	3533.85
2458.83827	3516.65
2461.60254	3473.75
2464.36507	3505.95
2467.12586	3500.65
2469.88492	3499.85
2472.64224	3502.45
2475.39782	3487.05
2478.15167	3499.85
2480.90379	3485.15
2483.65417	3508.45
2486.40283	3498.25
2489.14976	3521.45
2491.89497	3496.35
2494.63845	3505.15
2497.3802	3492.75
2500.12024	3483.85
2502.85855	3474.15
2505.59514	3485.15
2508.33002	3477.85
2511.06318	3439.25
2513.79462	3448.05
2516.52435	3403.75
2519.25237	3384.05
2521.97867	3387.85
2524.70327	3392.85
2527.42616	3390.25
2530.14734	3406.75
2532.86681	3373.45
2535.58458	3374.85
2538.30065	3370.45
2541.01501	3381.75
2543.72768	3374.45
2546.43864	3362.35
2549.14791	3351.85
2551.85548	3321.25
2554.56136	3334.55
2557.26554	3346.25
2559.96803	3328.05
2562.66883	3338.75
2565.36794	3310.65
2568.06536	3286.05
2570.7611	3302.15
2573.45514	3294.05
2576.14751	3290.95
2578.83819	3270.45
2581.52719	3263.85
2584.21451	3251.95
2586.90015	3239.35
2589.58411	3232.55
2592.2664	3237.55
2594.94701	3245.25
2597.62594	3228.15
2600.30321	3173.55
2602.9788	3189.25
2605.65273	3195.45
2608.32498	3184.15
2610.99557	3207.35
2613.66449	3173.05
2616.33175	3188.45
2618.99734	3202.05
2621.66128	3169.35
2624.32355	3162.75
2626.98416	3157.25
2629.64311	3140.85
2632.30041	3147.35
2634.95605	3130.75
2637.61004	3131.55
2640.26238	3097.15
2642.91306	3102.75
2645.56209	3112.85
2648.20948	3117.25
2650.85521	3090.95
2653.4993	3129.85
2656.14175	3084.65
2658.78255	3087.95
2661.42171	3059.35
2664.05923	3110.35
2666.6951	3102.65
2669.32934	3100.85
2671.96194	3127.55
2674.59291	3115.15
2677.22224	3105.15
2679.84993	3103.65
2682.476	3101.95
2685.10043	3094.55
2687.72324	3078.85
2690.34441	3083.65
2692.96396	3083.65
2695.58188	3088.15
2698.19818	3084.45
2700.81285	3070.25
2703.4259	3062.05
2706.03733	3027.25
2708.64714	3042.45
2711.25533	3072.55
2713.86191	3069.45
2716.46687	3062.25
2719.07021	3067.25
2721.67194	3066.45
2724.27206	3069.65
2726.87057	3057.35
2729.46747	3056.65
2732.06276	3059.85
2734.65644	3045.85
2737.24852	3039.35
2739.83899	3027.45
2742.42786	3032.65
2745.01513	3033.85
2747.60079	3031.25
2750.18486	2998.15
2752.76733	3007.95
2755.3482	3007.65
2757.92747	3004.55
2760.50515	2990.85
2763.08123	2976.35
2765.65573	2977.65
2768.22863	2973.85
2770.79994	2962.15
2773.36967	2962.35
2775.9378	2951.55
2778.50435	2934.55
2781.06932	2938.85
2783.6327	2931.15
2786.1945	2962.05
2788.75471	2935.85
2791.31335	2931.25
2793.87041	2930.55
2796.42589	2911.95
2798.97979	2884.15
2801.53212	2894.55
2804.08288	2919.15
2806.63206	2900.85
2809.17967	2882.85
2811.72571	2880.75
2814.27018	2884.05
2816.81308	2869.95
2819.35442	2838.35
2821.89419	2862.65
2824.43239	2830.75
2826.96904	2865.65
2829.50412	2837.35
2832.03763	2848.25
2834.56959	2853.75
2837.1	2843.05
2839.62884	2834.85
2842.15613	2826.05
2844.68186	2847.85
2847.20604	2809.35
2849.72867	2812.95
2852.24974	2806.45
2854.76927	2785.85
2857.28724	2740.15
2859.80367	2798.85
2862.31855	2812.95
2864.83189	2803.55
2867.34368	2786.65
2869.85393	2814.45
2872.36264	2774.45
2874.8698	2782.35
2877.37543	2802.45
2879.87952	2782.35
2882.38207	2755.85
2884.88308	2768.55
2887.38256	2775.05
2889.88051	2757.85
2892.37692	2756.55
2894.8718	2739.65
2897.36515	2761.35
2899.85698	2750.55
2902.34727	2743.65
2904.83604	2761.95
2907.32328	2752.55
2909.809	2766.95
2912.29319	2753.85
2914.77587	2768.75
2917.25702	2789.15
2919.73665	2777.45
2922.21476	2787.45
2924.69136	2776.95
2927.16644	2761.55
2929.64	2755.25
2932.11205	2745.75
2934.58258	2756.35
2937.05161	2733.55
2939.51912	2742.05
2941.98513	2753.05
2944.44962	2733.45
2946.91261	2713.85
2949.37409	2721.35
2951.83407	2709.85
2954.29254	2708.25
2956.74951	2702.15
2959.20498	2696.35
2961.65895	2694.75
2964.11142	2681.95
2966.56239	2677.25
2969.01186	2687.65
2971.45984	2679.85
2973.90632	2672.45
2976.35131	2676.15
2978.7948	2674.55
2981.23681	2668.05
2983.67732	2660.05
2986.11635	2652.25
2988.55388	2619.45
2990.98993	2641.65
2993.4245	2611.95
2995.85758	2608.75
2998.28917	2589.85
3000.71928	2592.65
3003.14791	2585.55
3005.57506	2592.15
3008.00073	2564.35
3010.42493	2512.65
3012.84764	2560.35
3015.26888	2553.05
3017.68865	2555.65
3020.10694	2506.85
3022.52376	2525.45
3024.9391	2520.85
3027.35298	2511.65
3029.76539	2504.45
3032.17632	2502.95
3034.5858	2492.45
3036.9938	2501.85
3039.40034	2490.35
3041.80542	2482.15
3044.20903	2461.35
3046.61118	2466.65
3049.01187	2466.85
3051.4111	2464.95
3053.80888	2446.95
3056.20519	2439.65
3058.60005	2423.35
3060.99345	2444.45
3063.3854	2422.95
3065.7759	2407.95
3068.16494	2408.45
3070.55254	2397.95
3072.93868	2412.35
3075.32338	2401.75
3077.70662	2395.05
3080.08842	2374.55
3082.46878	2372.65
3084.84769	2384.65
3087.22515	2362.35
3089.60118	2377.85
3091.97576	2348.85
3094.3489	2368.85
3096.72061	2361.55
3099.09087	2352.85
3101.4597	2358.85
3103.82709	2352.05
3106.19305	2335.55
3108.55757	2336.05
3110.92066	2332.75
3113.28232	2340.55
3115.64255	2328.25
3118.00134	2331.95
3120.35871	2313.85
3122.71466	2289.85
3125.06917	2298.65
3127.42226	2286.25
3129.77393	2269.25
3132.12417	2284.85
3134.47299	2284.75
3136.82039	2263.95
3139.16636	2245.25
3141.51092	2265.75
3143.85406	2275.95
3146.19579	2252.65
3148.53609	2249.05
3150.87499	2257.15
3153.21246	2247.65
3155.54853	2258.05
3157.88318	2261.05
3160.21642	2262.35
3162.54826	2251.35
3164.87868	2241.65
3167.2077	2209.55
3169.5353	2236.95
3171.86151	2242.15
3174.18631	2234.55
3176.5097	2215.75
3178.83169	2224.45
3181.15228	2224.05
3183.47147	2194.55
3185.78926	2183.75
3188.10565	2201.35
3190.42065	2166.45
3192.73424	2182.35
3195.04645	2186.95
3197.35725	2156.55
3199.66667	2177.85
3201.97469	2173.55
3204.28132	2161.25
3206.58656	2173.85
3208.8904	2175.65
3211.19287	2176.65
3213.49394	2147.25
3215.79363	2156.65
3218.09193	2166.25
3220.38884	2167.55
3222.68438	2165.65
3224.97853	2142.15
3227.2713	2163.35
3229.56269	2139.25
3231.8527	2150.55
3234.14133	2131.95
3236.42858	2133.05
3238.71446	2104.95
3240.99896	2122.85
3243.28209	2106.15
3245.56384	2118.35
3247.84423	2098.25
3250.12324	2100.35
3252.40088	2105.25
3254.67715	2084.95
3256.95205	2088.85
3259.22558	2087.95
3261.49775	2095.45
3263.76855	2079.75
3266.03799	2087.35
3268.30606	2089.05
3270.57277	2086.95
3272.83812	2071.95
3275.10211	2064.75
3277.36474	2071.05
3279.62601	2071.15
3281.88593	2048.35
3284.14448	2028.45
3286.40168	2049.15
3288.65753	2038.65
3290.91202	2031.75
3293.16516	2024.35
3295.41695	2042.45
3297.66738	2038.95
3299.91647	2013.25
3302.16421	2022.65
3304.4106	1968.25
3306.65564	1997.05
3308.89933	1956.95
3311.14169	1956.75
3313.38269	1947.25
3315.62236	1922.85
3317.86068	1920.05
3320.09766	1912.65
3322.3333	1869.75
3324.5676	1867.65
3326.80056	1841.35
3329.03219	1834.05
3331.26248	-0.55
3333.49143	0.05
3335.71905	0.55
