Data from AgNPs_UA_10uM_CRN_500uM_SU_RamanShift__144__13-29-20-282.txt Node

Date: Thu Aug 04 13:29:20 BST 2022
User: TCL
Spectrometer: QEP01345
Trigger mode: 4
Integration Time (sec): 1.000000E0
Scans to average: 10
Electric dark correction enabled: true
Nonlinearity correction enabled: false
Boxcar width: 0
XAxis mode: Raman Shifts
Number of Pixels in Spectrum: 1044
>>>>>Begin Spectral Data<<<<<
46.04893	-0.0625
50.45542	-0.7625
54.85868	1.1375
59.25871	-1.1625
63.6555	20.7375
68.04907	20.1375
72.43941	20.8375
76.82654	21.5375
81.21044	22.4375
85.59113	22.6375
89.96862	24.6375
94.34289	24.7375
98.71396	23.9375
103.08183	27.6375
107.4465	26.9375
111.80798	28.0375
116.16626	28.8375
120.52136	29.4375
124.87327	32.6375
129.222	33.7375
133.56755	36.3375
137.90993	40.1375
142.24913	44.4375
146.58517	48.3375
150.91804	58.0375
155.24774	72.6375
159.57429	88.6375
163.89768	117.8375
168.21792	154.9375
172.53501	216.3375
176.84895	302.1375
181.15975	429.1375
185.46741	594.6375
189.77193	828.2375
194.07331	1109.9375
198.37157	1431.6375
202.6667	1758.2375
206.9587	2102.9375
211.24758	2419.3375
215.53334	2760.2375
219.81599	3116.9375
224.09553	3505.9375
228.37195	3944.5375
232.64527	4400.9375
236.91549	4901.6375
241.18261	5359.8375
245.44663	5741.6375
249.70755	6053.8375
253.96539	6325.6375
258.22014	6564.8375
262.4718	6775.5375
266.72039	6925.4375
270.96589	6990.6375
275.20832	6966.4375
279.44768	6877.6375
283.68397	6780.9375
287.91719	6698.0375
292.14735	6701.1375
296.37445	6761.1375
300.59849	6924.8375
304.81948	7135.3375
309.03742	7291.1375
313.25231	7336.4375
317.46415	7237.2375
321.67296	7025.2375
325.87872	6814.5375
330.08145	6718.9375
334.28114	6753.0375
338.47781	6836.1375
342.67145	6983.5375
346.86207	7159.7375
351.04966	7406.8375
355.23424	7658.4375
359.4158	7842.4375
363.59435	8009.2375
367.76989	8060.0375
371.94243	8101.1375
376.11196	8151.3375
380.27849	8182.1375
384.44203	8224.1375
388.60257	8247.3375
392.76012	8289.6375
396.91468	8403.0375
401.06626	8555.6375
405.21485	8622.8375
409.36047	8550.5375
413.50311	8338.6375
417.64277	8119.2375
421.77947	7990.5375
425.9132	7959.6375
430.04396	7990.6375
434.17176	8076.5375
438.2966	8228.4375
442.41849	8455.1375
446.53742	8730.0375
450.6534	8991.3375
454.76644	9171.2375
458.87653	9185.3375
462.98368	9089.4375
467.08789	8895.1375
471.18916	8684.5375
475.2875	8455.3375
479.38291	8278.0375
483.4754	8125.5375
487.56496	8038.6375
491.6516	7993.7375
495.73531	7952.3375
499.81612	7988.3375
503.89401	8048.1375
507.96899	8087.1375
512.04106	8104.6375
516.11023	8166.3375
520.1765	8248.6375
524.23987	8265.1375
528.30034	8294.2375
532.35792	8235.5375
536.41261	8128.5375
540.46441	8033.6375
544.51333	8004.8375
548.55936	8054.8375
552.60252	8206.7375
556.64279	8310.7375
560.6802	8377.7375
564.71473	8439.2375
568.7464	8486.1375
572.7752	8506.8375
576.80114	8397.5375
580.82422	8346.1375
584.84444	8398.5375
588.86181	8566.9375
592.87633	8800.3375
596.888	8984.0375
600.89682	9309.4375
604.9028	10202.2375
608.90594	12007.4375
612.90624	13581.9375
616.90371	12462.9375
620.89834	10031.9375
624.89015	9209.4375
628.87913	9146.2375
632.86528	9102.6375
636.84862	8937.2375
640.82913	8675.4375
644.80683	8370.1375
648.78172	8172.6375
652.75379	8239.2375
656.72306	8496.6375
660.68952	8750.2375
664.65319	8686.3375
668.61405	8554.1375
672.57211	8577.0375
676.52738	8569.5375
680.47986	8427.6375
684.42955	8292.2375
688.37646	8324.3375
692.32058	8415.6375
696.26192	8545.5375
700.20048	8676.9375
704.13626	8681.9375
708.06928	8547.4375
711.99952	8463.8375
715.927	8473.6375
719.85171	8546.4375
723.77365	8516.7375
727.69284	8429.7375
731.60928	8352.3375
735.52295	8381.5375
739.43388	8472.4375
743.34206	8519.4375
747.24749	8550.5375
751.15017	8571.5375
755.05012	8716.4375
758.94733	8973.0375
762.8418	9600.4375
766.73354	10567.3375
770.62254	11424.7375
774.50882	11662.3375
778.39237	11228.8375
782.27321	10385.1375
786.15132	9551.9375
790.02671	9000.0375
793.89938	8786.5375
797.76935	8689.6375
801.6366	8601.4375
805.50115	8558.3375
809.36299	8529.3375
813.22213	8490.0375
817.07857	8464.3375
820.93231	8473.8375
824.78336	8443.4375
828.63172	8479.8375
832.47738	8518.6375
836.32036	8531.5375
840.16066	8581.0375
843.99827	8643.3375
847.8332	8604.7375
851.66546	8554.5375
855.49504	8558.7375
859.32195	8537.5375
863.1462	8541.1375
866.96777	8491.0375
870.78668	8477.8375
874.60293	8506.7375
878.41652	8555.0375
882.22745	8624.2375
886.03573	8657.4375
889.84136	8649.3375
893.64433	8602.4375
897.44466	8561.7375
901.24235	8547.2375
905.0374	8540.8375
908.8298	8522.4375
912.61957	8525.2375
916.40671	8569.3375
920.19121	8675.0375
923.97308	8750.8375
927.75233	8878.8375
931.52895	8936.1375
935.30295	8867.5375
939.07433	8698.1375
942.84309	8580.3375
946.60924	8544.2375
950.37278	8508.8375
954.13371	8446.3375
957.89203	8395.4375
961.64774	8376.0375
965.40086	8349.9375
969.15137	8317.4375
972.89929	8342.4375
976.64461	8363.3375
980.38733	8384.1375
984.12747	8407.5375
987.86502	8491.3375
991.59999	8603.5375
995.33237	8811.6375
999.06217	9157.0375
1002.78939	9506.1375
1006.51404	9618.8375
1010.23611	9678.2375
1013.95561	9770.7375
1017.67255	9890.0375
1021.38692	9905.0375
1025.09872	9928.2375
1028.80796	10076.6375
1032.51465	10418.9375
1036.21877	10630.7375
1039.92035	10600.5375
1043.61937	10359.4375
1047.31584	10032.5375
1051.00976	9712.4375
1054.70114	9581.8375
1058.38998	9575.9375
1062.07627	9540.8375
1065.76003	9548.9375
1069.44126	9562.1375
1073.11995	9668.7375
1076.79611	9777.8375
1080.46974	9909.1375
1084.14085	10004.9375
1087.80943	10107.9375
1091.47549	10069.5375
1095.13903	9958.1375
1098.80005	9850.1375
1102.45857	9788.4375
1106.11456	9797.2375
1109.76805	9801.9375
1113.41903	9861.0375
1117.06751	10004.3375
1120.71348	10193.1375
1124.35696	10363.0375
1127.99793	10445.5375
1131.63641	10329.3375
1135.2724	10098.0375
1138.90589	9925.1375
1142.5369	9736.1375
1146.16542	9620.9375
1149.79145	9576.5375
1153.415	9545.2375
1157.03607	9591.9375
1160.65467	9726.8375
1164.27079	9963.9375
1167.88443	10355.4375
1171.49561	10937.3375
1175.10432	11805.2375
1178.71056	12902.8375
1182.31434	13917.2375
1185.91565	14449.6375
1189.51451	14415.7375
1193.11091	13938.5375
1196.70485	13255.6375
1200.29634	12653.9375
1203.88538	12109.1375
1207.47197	11597.2375
1211.05612	11173.1375
1214.63782	10948.7375
1218.21708	10887.7375
1221.79391	10999.2375
1225.36829	11079.4375
1228.94024	11026.7375
1232.50976	10854.5375
1236.07685	10754.1375
1239.6415	10744.5375
1243.20374	10788.4375
1246.76355	10865.6375
1250.32093	11023.4375
1253.8759	11270.6375
1257.42845	11606.9375
1260.97859	11953.1375
1264.52631	12217.6375
1268.07163	12478.6375
1271.61453	12754.3375
1275.15503	12983.6375
1278.69312	13252.5375
1282.22882	13514.0375
1285.76211	13704.2375
1289.29301	13826.2375
1292.82151	14072.7375
1296.34761	14395.5375
1299.87133	14969.8375
1303.39266	15927.9375
1306.9116	17300.8375
1310.42815	18688.3375
1313.94233	19337.7375
1317.45412	18929.9375
1320.96354	17866.6375
1324.47058	16763.3375
1327.97525	15954.8375
1331.47754	15504.3375
1334.97747	15448.5375
1338.47502	15712.9375
1341.97022	16120.6375
1345.46305	16681.8375
1348.95352	17392.6375
1352.44163	18120.5375
1355.92738	19114.3375
1359.41078	20412.3375
1362.89183	21127.5375
1366.37053	20006.4375
1369.84688	17587.8375
1373.32088	15381.2375
1376.79254	14074.6375
1380.26186	13478.2375
1383.72883	13162.5375
1387.19347	12831.4375
1390.65578	12471.1375
1394.11575	12153.3375
1397.57339	12017.0375
1401.0287	12070.9375
1404.48168	12198.5375
1407.93234	12409.7375
1411.38068	12645.7375
1414.82669	12763.0375
1418.27039	12698.9375
1421.71177	12535.9375
1425.15083	12419.7375
1428.58758	12438.1375
1432.02203	12611.0375
1435.45416	12798.3375
1438.88399	12844.9375
1442.31151	12771.5375
1445.73673	12724.2375
1449.15965	12676.2375
1452.58027	12549.6375
1455.9986	12443.6375
1459.41463	12417.5375
1462.82837	12518.4375
1466.23982	12749.5375
1469.64898	12980.0375
1473.05586	13134.6375
1476.46045	13340.5375
1479.86276	13453.3375
1483.26279	13556.4375
1486.66054	13717.7375
1490.05602	13972.3375
1493.44922	14336.3375
1496.84016	14900.6375
1500.22882	15710.0375
1503.61521	16688.0375
1506.99934	17693.4375
1510.38121	18236.0375
1513.76081	17914.7375
1517.13816	16842.1375
1520.51324	15531.2375
1523.88607	14527.0375
1527.25665	13979.1375
1530.62498	13701.0375
1533.99105	13562.2375
1537.35488	13517.4375
1540.71647	13435.1375
1544.07581	13361.3375
1547.4329	13187.5375
1550.78776	13014.9375
1554.14038	12881.7375
1557.49077	12747.1375
1560.83892	12775.6375
1564.18484	12863.4375
1567.52853	12986.5375
1570.86999	13055.7375
1574.20922	13043.1375
1577.54624	12857.5375
1580.88103	12491.0375
1584.2136	12142.7375
1587.54395	12149.4375
1590.87208	12603.6375
1594.19801	13522.1375
1597.52172	14617.1375
1600.84321	15175.8375
1604.16251	14995.9375
1607.47959	14222.9375
1610.79447	13257.0375
1614.10715	12292.8375
1617.41763	11448.7375
1620.7259	10938.0375
1624.03199	10671.0375
1627.33587	10687.8375
1630.63757	10992.0375
1633.93707	11585.7375
1637.23439	12495.4375
1640.52951	13636.0375
1643.82246	14833.8375
1647.11321	15658.1375
1650.40179	15563.7375
1653.68819	14364.0375
1656.97241	12606.0375
1660.25446	11128.5375
1663.53433	10147.5375
1666.81203	9564.8375
1670.08756	9188.2375
1673.36092	8970.8375
1676.63211	8821.4375
1679.90115	8697.6375
1683.16801	8605.7375
1686.43272	8523.2375
1689.69527	8445.2375
1692.95567	8416.9375
1696.2139	8410.8375
1699.46999	8368.2375
1702.72392	8375.5375
1705.97571	8366.3375
1709.22535	8350.8375
1712.47284	8370.0375
1715.71819	8356.6375
1718.96139	8340.5375
1722.20246	8315.7375
1725.44139	8293.5375
1728.67818	8266.0375
1731.91284	8211.8375
1735.14537	8178.1375
1738.37576	8140.2375
1741.60403	8111.8375
1744.83017	8090.3375
1748.05418	8102.9375
1751.27607	8078.1375
1754.49584	8053.2375
1757.71349	8047.1375
1760.92903	8059.9375
1764.14244	8020.8375
1767.35375	8000.0375
1770.56294	8011.1375
1773.77002	7982.3375
1776.97499	7972.1375
1780.17785	7966.3375
1783.37861	7927.8375
1786.57727	7941.8375
1789.77382	7925.0375
1792.96828	7945.5375
1796.16064	7927.8375
1799.3509	7930.5375
1802.53907	7890.0375
1805.72514	7886.1375
1808.90913	7876.4375
1812.09102	7865.7375
1815.27083	7845.0375
1818.44856	7815.7375
1821.6242	7798.8375
1824.79776	7784.5375
1827.96924	7778.3375
1831.13864	7746.1375
1834.30597	7747.1375
1837.47122	7747.6375
1840.6344	7711.2375
1843.7955	7736.6375
1846.95454	7726.2375
1850.11151	7740.2375
1853.26642	7721.8375
1856.41926	7734.1375
1859.57004	7743.6375
1862.71876	7726.6375
1865.86542	7734.4375
1869.01003	7707.8375
1872.15258	7706.1375
1875.29308	7716.5375
1878.43152	7707.1375
1881.56792	7691.0375
1884.70227	7675.3375
1887.83457	7666.8375
1890.96482	7675.5375
1894.09304	7650.5375
1897.21921	7636.4375
1900.34335	7645.9375
1903.46544	7630.3375
1906.58551	7613.2375
1909.70353	7622.5375
1912.81953	7633.0375
1915.93349	7638.9375
1919.04543	7579.5375
1922.15534	7589.5375
1925.26322	7597.4375
1928.36908	7562.3375
1931.47292	7555.5375
1934.57473	7561.2375
1937.67453	7541.9375
1940.77232	7516.3375
1943.86808	7494.7375
1946.96184	7479.0375
1950.05358	7482.0375
1953.14331	7443.7375
1956.23103	7403.6375
1959.31675	7386.3375
1962.40046	7382.0375
1965.48217	7348.8375
1968.56188	7327.4375
1971.63959	7300.3375
1974.7153	7308.3375
1977.78901	7288.5375
1980.86073	7289.1375
1983.93046	7252.4375
1986.99819	7204.6375
1990.06394	7187.9375
1993.1277	7171.6375
1996.18947	7157.8375
1999.24925	7130.7375
2002.30706	7090.7375
2005.36288	7080.4375
2008.41672	7083.1375
2011.46859	7056.7375
2014.51848	7028.0375
2017.56639	7018.5375
2020.61233	6984.3375
2023.6563	6992.5375
2026.6983	6964.5375
2029.73833	6941.8375
2032.7764	6924.0375
2035.8125	6912.8375
2038.84664	6908.8375
2041.87881	6878.9375
2044.90903	6892.8375
2047.93729	6882.8375
2050.96359	6863.9375
2053.98794	6873.4375
2057.01034	6856.8375
2060.03078	6865.6375
2063.04927	6847.3375
2066.06582	6838.9375
2069.08042	6834.9375
2072.09307	6808.1375
2075.10378	6800.3375
2078.11255	6796.1375
2081.11938	6798.3375
2084.12426	6784.0375
2087.12722	6771.4375
2090.12824	6761.7375
2093.12732	6786.2375
2096.12447	6792.0375
2099.11969	6794.9375
2102.11299	6798.5375
2105.10435	6791.8375
2108.09379	6769.0375
2111.08131	6793.4375
2114.0669	6798.8375
2117.05057	6803.5375
2120.03233	6805.7375
2123.01216	6820.3375
2125.99008	6818.8375
2128.96609	6793.7375
2131.94018	6812.7375
2134.91236	6812.5375
2137.88263	6812.6375
2140.851	6809.9375
2143.81746	6826.2375
2146.78201	6820.3375
2149.74466	6818.5375
2152.7054	6822.6375
2155.66425	6813.2375
2158.6212	6810.5375
2161.57625	6827.6375
2164.52941	6826.0375
2167.48067	6803.6375
2170.43004	6795.1375
2173.37752	6789.1375
2176.32311	6804.8375
2179.26681	6809.3375
2182.20863	6830.1375
2185.14856	6800.9375
2188.08661	6827.2375
2191.02278	6814.2375
2193.95707	6819.1375
2196.88948	6820.3375
2199.82001	6803.6375
2202.74867	6798.4375
2205.67545	6819.2375
2208.60037	6810.4375
2211.52341	6800.0375
2214.44458	6789.2375
2217.36388	6770.8375
2220.28132	6784.0375
2223.1969	6750.2375
2226.11061	6739.2375
2229.02246	6729.5375
2231.93245	6727.9375
2234.84058	6705.9375
2237.74686	6708.0375
2240.65128	6684.3375
2243.55385	6670.0375
2246.45456	6654.0375
2249.35343	6647.4375
2252.25044	6635.2375
2255.14561	6639.2375
2258.03893	6640.6375
2260.93041	6637.4375
2263.82004	6610.9375
2266.70783	6602.9375
2269.59378	6586.2375
2272.4779	6540.4375
2275.36017	6563.0375
2278.24061	6532.3375
2281.11922	6529.3375
2283.996	6515.4375
2286.87094	6500.2375
2289.74405	6497.6375
2292.61534	6476.7375
2295.4848	6477.8375
2298.35243	6473.9375
2301.21824	6465.1375
2304.08223	6464.2375
2306.94439	6482.5375
2309.80474	6488.0375
2312.66327	6481.6375
2315.51999	6488.6375
2318.37489	6508.1375
2321.22797	6489.7375
2324.07925	6494.9375
2326.92871	6465.8375
2329.77637	6459.6375
2332.62222	6444.0375
2335.46626	6431.8375
2338.3085	6449.5375
2341.14893	6465.1375
2343.98756	6479.7375
2346.8244	6491.2375
2349.65943	6479.4375
2352.49267	6477.4375
2355.32411	6442.8375
2358.15376	6466.7375
2360.98161	6453.3375
2363.80768	6462.4375
2366.63195	6448.6375
2369.45444	6422.8375
2372.27514	6424.2375
2375.09405	6398.3375
2377.91118	6379.1375
2380.72652	6359.7375
2383.54009	6350.7375
2386.35187	6343.7375
2389.16188	6326.7375
2391.97011	6311.5375
2394.77657	6315.6375
2397.58125	6284.7375
2400.38416	6276.3375
2403.18529	6268.5375
2405.98466	6263.7375
2408.78226	6235.4375
2411.57809	6226.0375
2414.37216	6214.3375
2417.16446	6200.3375
2419.955	6188.3375
2422.74378	6183.7375
2425.5308	6188.2375
2428.31606	6194.5375
2431.09956	6168.6375
2433.88131	6165.1375
2436.6613	6165.6375
2439.43954	6158.9375
2442.21603	6174.8375
2444.99077	6159.4375
2447.76377	6167.7375
2450.53501	6156.5375
2453.30451	6170.0375
2456.07226	6136.3375
2458.83827	6139.8375
2461.60254	6128.4375
2464.36507	6097.9375
2467.12586	6109.7375
2469.88492	6112.2375
2472.64224	6119.7375
2475.39782	6121.5375
2478.15167	6117.6375
2480.90379	6112.4375
2483.65417	6110.8375
2486.40283	6107.4375
2489.14976	6135.8375
2491.89497	6135.8375
2494.63845	6127.8375
2497.3802	6141.7375
2500.12024	6102.5375
2502.85855	6134.5375
2505.59514	6116.7375
2508.33002	6121.7375
2511.06318	6094.4375
2513.79462	6064.8375
2516.52435	6057.4375
2519.25237	6086.0375
2521.97867	6049.4375
2524.70327	6036.9375
2527.42616	6047.5375
2530.14734	6024.5375
2532.86681	6035.6375
2535.58458	6059.4375
2538.30065	6034.5375
2541.01501	6059.8375
2543.72768	6057.9375
2546.43864	6017.0375
2549.14791	6019.0375
2551.85548	6007.1375
2554.56136	6002.6375
2557.26554	5990.0375
2559.96803	5989.0375
2562.66883	5995.0375
2565.36794	5966.3375
2568.06536	5951.9375
2570.7611	5950.2375
2573.45514	5939.1375
2576.14751	5936.5375
2578.83819	5947.8375
2581.52719	5927.6375
2584.21451	5922.9375
2586.90015	5930.9375
2589.58411	5944.4375
2592.2664	5925.1375
2594.94701	5905.3375
2597.62594	5917.8375
2600.30321	5922.4375
2602.9788	5916.5375
2605.65273	5907.7375
2608.32498	5912.5375
2610.99557	5901.7375
2613.66449	5889.8375
2616.33175	5898.1375
2618.99734	5909.0375
2621.66128	5904.3375
2624.32355	5890.1375
2626.98416	5895.2375
2629.64311	5909.6375
2632.30041	5893.8375
2634.95605	5889.6375
2637.61004	5890.4375
2640.26238	5851.9375
2642.91306	5851.0375
2645.56209	5849.5375
2648.20948	5855.2375
2650.85521	5842.0375
2653.4993	5835.9375
2656.14175	5825.5375
2658.78255	5822.6375
2661.42171	5812.2375
2664.05923	5813.0375
2666.6951	5822.2375
2669.32934	5838.7375
2671.96194	5855.8375
2674.59291	5852.2375
2677.22224	5845.0375
2679.84993	5854.2375
2682.476	5828.3375
2685.10043	5831.2375
2687.72324	5830.1375
2690.34441	5844.5375
2692.96396	5824.1375
2695.58188	5806.6375
2698.19818	5807.3375
2700.81285	5798.7375
2703.4259	5795.2375
2706.03733	5779.8375
2708.64714	5782.5375
2711.25533	5770.3375
2713.86191	5800.1375
2716.46687	5805.2375
2719.07021	5808.3375
2721.67194	5816.6375
2724.27206	5797.6375
2726.87057	5780.8375
2729.46747	5798.7375
2732.06276	5810.5375
2734.65644	5817.6375
2737.24852	5773.8375
2739.83899	5769.3375
2742.42786	5767.1375
2745.01513	5739.2375
2747.60079	5751.5375
2750.18486	5741.3375
2752.76733	5749.8375
2755.3482	5735.0375
2757.92747	5728.6375
2760.50515	5725.1375
2763.08123	5722.0375
2765.65573	5712.2375
2768.22863	5710.5375
2770.79994	5714.7375
2773.36967	5699.5375
2775.9378	5701.9375
2778.50435	5712.9375
2781.06932	5713.8375
2783.6327	5708.7375
2786.1945	5710.7375
2788.75471	5695.8375
2791.31335	5698.9375
2793.87041	5676.8375
2796.42589	5656.9375
2798.97979	5656.1375
2801.53212	5640.7375
2804.08288	5623.0375
2806.63206	5616.9375
2809.17967	5604.8375
2811.72571	5613.5375
2814.27018	5607.7375
2816.81308	5586.0375
2819.35442	5573.2375
2821.89419	5574.8375
2824.43239	5563.5375
2826.96904	5567.8375
2829.50412	5558.8375
2832.03763	5529.5375
2834.56959	5548.3375
2837.1	5516.4375
2839.62884	5503.4375
2842.15613	5511.7375
2844.68186	5507.3375
2847.20604	5522.7375
2849.72867	5492.4375
2852.24974	5495.7375
2854.76927	5470.6375
2857.28724	5487.3375
2859.80367	5465.3375
2862.31855	5452.2375
2864.83189	5457.4375
2867.34368	5462.6375
2869.85393	5441.1375
2872.36264	5439.5375
2874.8698	5444.2375
2877.37543	5441.3375
2879.87952	5447.3375
2882.38207	5415.2375
2884.88308	5425.9375
2887.38256	5439.6375
2889.88051	5422.7375
2892.37692	5416.7375
2894.8718	5414.1375
2897.36515	5429.5375
2899.85698	5429.8375
2902.34727	5423.3375
2904.83604	5444.3375
2907.32328	5446.8375
2909.809	5443.9375
2912.29319	5449.6375
2914.77587	5452.3375
2917.25702	5452.9375
2919.73665	5446.3375
2922.21476	5433.3375
2924.69136	5435.6375
2927.16644	5436.9375
2929.64	5416.4375
2932.11205	5393.3375
2934.58258	5378.4375
2937.05161	5378.3375
2939.51912	5376.0375
2941.98513	5377.2375
2944.44962	5377.5375
2946.91261	5363.8375
2949.37409	5377.8375
2951.83407	5369.9375
2954.29254	5367.9375
2956.74951	5361.5375
2959.20498	5363.3375
2961.65895	5359.7375
2964.11142	5342.2375
2966.56239	5331.6375
2969.01186	5337.8375
2971.45984	5336.1375
2973.90632	5324.5375
2976.35131	5296.2375
2978.7948	5284.1375
2981.23681	5283.7375
2983.67732	5281.2375
2986.11635	5255.0375
2988.55388	5257.2375
2990.98993	5219.0375
2993.4245	5205.4375
2995.85758	5202.9375
2998.28917	5187.5375
3000.71928	5197.0375
3003.14791	5163.9375
3005.57506	5153.3375
3008.00073	5131.7375
3010.42493	5123.3375
3012.84764	5114.2375
3015.26888	5119.5375
3017.68865	5112.1375
3020.10694	5096.6375
3022.52376	5075.0375
3024.9391	5065.3375
3027.35298	5026.3375
3029.76539	5034.5375
3032.17632	5039.7375
3034.5858	5027.3375
3036.9938	5028.4375
3039.40034	5027.6375
3041.80542	4998.6375
3044.20903	5007.2375
3046.61118	4994.6375
3049.01187	4976.6375
3051.4111	4976.0375
3053.80888	4960.0375
3056.20519	4948.9375
3058.60005	4919.2375
3060.99345	4935.8375
3063.3854	4899.5375
3065.7759	4895.8375
3068.16494	4866.5375
3070.55254	4853.6375
3072.93868	4831.6375
3075.32338	4840.8375
3077.70662	4832.3375
3080.08842	4817.3375
3082.46878	4810.9375
3084.84769	4781.9375
3087.22515	4775.7375
3089.60118	4787.7375
3091.97576	4775.5375
3094.3489	4766.5375
3096.72061	4768.8375
3099.09087	4759.0375
3101.4597	4768.0375
3103.82709	4759.7375
3106.19305	4761.5375
3108.55757	4743.9375
