Data from AgNPs_UA_20uM_CRN_500uM_SU_RamanShift__55__13-45-40-302.txt Node

Date: Thu Aug 04 13:45:40 BST 2022
User: TCL
Spectrometer: QEP01345
Trigger mode: 4
Integration Time (sec): 1.000000E0
Scans to average: 10
Electric dark correction enabled: true
Nonlinearity correction enabled: false
Boxcar width: 0
XAxis mode: Raman Shifts
Number of Pixels in Spectrum: 1044
>>>>>Begin Spectral Data<<<<<
46.04893	-0.3625
50.45542	-0.4625
54.85868	0.7375
59.25871	-0.7625
63.6555	15.8375
68.04907	14.7375
72.43941	18.9375
76.82654	18.2375
81.21044	18.4375
85.59113	19.4375
89.96862	20.2375
94.34289	18.3375
98.71396	19.6375
103.08183	21.2375
107.4465	21.8375
111.80798	23.6375
116.16626	25.7375
120.52136	28.0375
124.87327	26.1375
129.222	28.8375
133.56755	29.7375
137.90993	31.0375
142.24913	35.3375
146.58517	39.9375
150.91804	46.5375
155.24774	57.0375
159.57429	70.4375
163.89768	91.8375
168.21792	123.6375
172.53501	168.5375
176.84895	233.3375
181.15975	331.4375
185.46741	467.8375
189.77193	647.3375
194.07331	869.9375
198.37157	1125.1375
202.6667	1393.9375
206.9587	1657.9375
211.24758	1921.5375
215.53334	2170.2375
219.81599	2454.4375
224.09553	2767.6375
228.37195	3116.4375
232.64527	3489.0375
236.91549	3861.5375
241.18261	4228.0375
245.44663	4519.9375
249.70755	4777.6375
253.96539	4981.7375
258.22014	5191.3375
262.4718	5374.6375
266.72039	5500.4375
270.96589	5543.6375
275.20832	5528.2375
279.44768	5450.2375
283.68397	5370.5375
287.91719	5300.0375
292.14735	5287.5375
296.37445	5359.2375
300.59849	5470.5375
304.81948	5618.4375
309.03742	5742.6375
313.25231	5791.2375
317.46415	5715.2375
321.67296	5558.7375
325.87872	5398.8375
330.08145	5328.9375
334.28114	5355.4375
338.47781	5407.2375
342.67145	5529.3375
346.86207	5661.0375
351.04966	5853.6375
355.23424	6022.1375
359.4158	6177.5375
363.59435	6303.4375
367.76989	6360.7375
371.94243	6401.6375
376.11196	6415.4375
380.27849	6456.8375
384.44203	6472.6375
388.60257	6526.9375
392.76012	6577.5375
396.91468	6646.3375
401.06626	6740.4375
405.21485	6810.3375
409.36047	6732.7375
413.50311	6583.5375
417.64277	6434.1375
421.77947	6314.6375
425.9132	6297.6375
430.04396	6327.2375
434.17176	6374.5375
438.2966	6489.0375
442.41849	6658.8375
446.53742	6897.0375
450.6534	7075.1375
454.76644	7213.1375
458.87653	7230.9375
462.98368	7157.3375
467.08789	7067.7375
471.18916	6892.0375
475.2875	6698.6375
479.38291	6553.5375
483.4754	6478.6375
487.56496	6423.8375
491.6516	6349.4375
495.73531	6326.9375
499.81612	6337.6375
503.89401	6383.6375
507.96899	6395.5375
512.04106	6459.3375
516.11023	6508.4375
520.1765	6560.7375
524.23987	6595.6375
528.30034	6557.0375
532.35792	6538.2375
536.41261	6463.2375
540.46441	6378.3375
544.51333	6356.0375
548.55936	6404.2375
552.60252	6514.1375
556.64279	6599.9375
560.6802	6650.5375
564.71473	6676.6375
568.7464	6727.5375
572.7752	6717.7375
576.80114	6635.5375
580.82422	6569.7375
584.84444	6602.7375
588.86181	6717.8375
592.87633	6880.6375
596.888	7048.7375
600.89682	7308.2375
604.9028	8014.6375
608.90594	9408.7375
612.90624	10655.0375
616.90371	9822.6375
620.89834	7935.0375
624.89015	7248.3375
628.87913	7212.2375
632.86528	7177.0375
636.84862	7068.5375
640.82913	6881.1375
644.80683	6631.4375
648.78172	6520.6375
652.75379	6548.7375
656.72306	6737.4375
660.68952	6943.7375
664.65319	6903.7375
668.61405	6822.2375
672.57211	6817.2375
676.52738	6807.9375
680.47986	6716.8375
684.42955	6615.6375
688.37646	6607.6375
692.32058	6691.8375
696.26192	6790.9375
700.20048	6903.0375
704.13626	6910.0375
708.06928	6835.5375
711.99952	6752.3375
715.927	6775.4375
719.85171	6797.9375
723.77365	6771.8375
727.69284	6697.0375
731.60928	6677.8375
735.52295	6679.3375
739.43388	6725.9375
743.34206	6771.8375
747.24749	6809.9375
751.15017	6828.4375
755.05012	6912.3375
758.94733	7113.2375
762.8418	7596.7375
766.73354	8345.9375
770.62254	8975.6375
774.50882	9181.5375
778.39237	8837.2375
782.27321	8206.3375
786.15132	7544.7375
790.02671	7132.2375
793.89938	6944.9375
797.76935	6876.4375
801.6366	6811.0375
805.50115	6794.4375
809.36299	6770.7375
813.22213	6729.9375
817.07857	6743.7375
820.93231	6717.5375
824.78336	6728.5375
828.63172	6766.2375
832.47738	6774.5375
836.32036	6807.5375
840.16066	6818.8375
843.99827	6857.2375
847.8332	6831.7375
851.66546	6802.4375
855.49504	6799.5375
859.32195	6818.4375
863.1462	6805.1375
866.96777	6772.6375
870.78668	6747.8375
874.60293	6774.6375
878.41652	6788.0375
882.22745	6836.9375
886.03573	6855.3375
889.84136	6864.1375
893.64433	6812.6375
897.44466	6789.5375
901.24235	6790.3375
905.0374	6776.3375
908.8298	6764.2375
912.61957	6746.3375
916.40671	6771.3375
920.19121	6831.5375
923.97308	6921.8375
927.75233	7022.7375
931.52895	7072.2375
935.30295	7003.5375
939.07433	6882.7375
942.84309	6790.5375
946.60924	6749.0375
950.37278	6737.8375
954.13371	6692.4375
957.89203	6666.3375
961.64774	6641.5375
965.40086	6614.4375
969.15137	6598.0375
972.89929	6620.9375
976.64461	6612.7375
980.38733	6639.0375
984.12747	6677.9375
987.86502	6705.7375
991.59999	6803.1375
995.33237	6957.8375
999.06217	7196.0375
1002.78939	7438.6375
1006.51404	7538.9375
1010.23611	7565.8375
1013.95561	7642.1375
1017.67255	7732.6375
1021.38692	7736.8375
1025.09872	7734.5375
1028.80796	7833.2375
1032.51465	8070.5375
1036.21877	8224.8375
1039.92035	8192.0375
1043.61937	8022.4375
1047.31584	7813.2375
1051.00976	7609.4375
1054.70114	7523.5375
1058.38998	7486.3375
1062.07627	7494.2375
1065.76003	7522.4375
1069.44126	7546.8375
1073.11995	7636.5375
1076.79611	7717.6375
1080.46974	7794.8375
1084.14085	7878.7375
1087.80943	7948.6375
1091.47549	7952.4375
1095.13903	7857.6375
1098.80005	7741.7375
1102.45857	7705.5375
1106.11456	7679.0375
1109.76805	7705.5375
1113.41903	7739.4375
1117.06751	7862.0375
1120.71348	7980.0375
1124.35696	8119.0375
1127.99793	8208.5375
1131.63641	8097.4375
1135.2724	7905.1375
1138.90589	7748.3375
1142.5369	7627.7375
1146.16542	7544.6375
1149.79145	7504.6375
1153.415	7495.6375
1157.03607	7521.0375
1160.65467	7595.3375
1164.27079	7762.8375
1167.88443	8043.5375
1171.49561	8454.5375
1175.10432	9076.2375
1178.71056	9876.2375
1182.31434	10610.2375
1185.91565	11010.4375
1189.51451	11041.1375
1193.11091	10678.2375
1196.70485	10182.5375
1200.29634	9733.8375
1203.88538	9361.1375
1207.47197	8958.2375
1211.05612	8615.9375
1214.63782	8406.9375
1218.21708	8368.9375
1221.79391	8397.0375
1225.36829	8456.0375
1228.94024	8455.6375
1232.50976	8377.9375
1236.07685	8322.7375
1239.6415	8311.7375
1243.20374	8363.0375
1246.76355	8413.2375
1250.32093	8541.2375
1253.8759	8718.6375
1257.42845	8959.2375
1260.97859	9220.3375
1264.52631	9440.3375
1268.07163	9621.6375
1271.61453	9795.8375
1275.15503	9962.8375
1278.69312	10164.5375
1282.22882	10285.5375
1285.76211	10429.1375
1289.29301	10573.1375
1292.82151	10743.0375
1296.34761	10990.6375
1299.87133	11393.0375
1303.39266	12073.0375
1306.9116	12990.3375
1310.42815	13919.6375
1313.94233	14327.9375
1317.45412	13999.4375
1320.96354	13264.5375
1324.47058	12540.0375
1327.97525	11982.0375
1331.47754	11713.6375
1334.97747	11783.7375
1338.47502	11971.8375
1341.97022	12301.1375
1345.46305	12707.6375
1348.95352	13191.4375
1352.44163	13758.9375
1355.92738	14496.3375
1359.41078	15468.9375
1362.89183	16038.9375
1366.37053	15247.4375
1369.84688	13423.3375
1373.32088	11758.9375
1376.79254	10778.7375
1380.26186	10292.2375
1383.72883	10049.4375
1387.19347	9808.4375
1390.65578	9537.6375
1394.11575	9291.0375
1397.57339	9129.6375
1401.0287	9137.5375
1404.48168	9211.7375
1407.93234	9366.8375
1411.38068	9562.7375
1414.82669	9688.9375
1418.27039	9631.4375
1421.71177	9518.5375
1425.15083	9418.3375
1428.58758	9449.9375
1432.02203	9605.1375
1435.45416	9741.0375
1438.88399	9743.3375
1442.31151	9696.8375
1445.73673	9623.5375
1449.15965	9572.2375
1452.58027	9462.0375
1455.9986	9319.4375
1459.41463	9306.4375
1462.82837	9410.4375
1466.23982	9555.8375
1469.64898	9742.3375
1473.05586	9885.8375
1476.46045	9998.1375
1479.86276	10103.2375
1483.26279	10214.9375
1486.66054	10348.1375
1490.05602	10554.6375
1493.44922	10900.0375
1496.84016	11361.7375
1500.22882	12002.1375
1503.61521	12820.2375
1506.99934	13583.6375
1510.38121	13999.4375
1513.76081	13762.6375
1517.13816	12917.9375
1520.51324	11912.8375
1523.88607	11158.2375
1527.25665	10681.8375
1530.62498	10462.8375
1533.99105	10317.1375
1537.35488	10261.4375
1540.71647	10198.5375
1544.07581	10100.5375
1547.4329	9998.1375
1550.78776	9880.0375
1554.14038	9715.2375
1557.49077	9652.5375
1560.83892	9696.6375
1564.18484	9754.0375
1567.52853	9868.2375
1570.86999	9945.5375
1574.20922	9934.3375
1577.54624	9791.1375
1580.88103	9516.7375
1584.2136	9239.6375
1587.54395	9221.2375
1590.87208	9554.1375
1594.19801	10165.1375
1597.52172	10945.3375
1600.84321	11422.1375
1604.16251	11313.9375
1607.47959	10744.1375
1610.79447	10031.6375
1614.10715	9310.7375
1617.41763	8740.7375
1620.7259	8342.0375
1624.03199	8150.9375
1627.33587	8161.3375
1630.63757	8363.1375
1633.93707	8792.5375
1637.23439	9438.2375
1640.52951	10262.7375
1643.82246	11194.6375
1647.11321	11848.3375
1650.40179	11797.7375
1653.68819	10925.1375
1656.97241	9663.7375
1660.25446	8528.3375
1663.53433	7774.5375
1666.81203	7364.2375
1670.08756	7096.4375
1673.36092	6945.1375
1676.63211	6809.9375
1679.90115	6729.5375
1683.16801	6644.4375
1686.43272	6617.3375
1689.69527	6564.4375
1692.95567	6551.7375
1696.2139	6550.3375
1699.46999	6511.6375
1702.72392	6494.4375
1705.97571	6529.2375
1709.22535	6517.6375
1712.47284	6494.9375
1715.71819	6493.5375
1718.96139	6483.9375
1722.20246	6455.9375
1725.44139	6439.8375
1728.67818	6404.2375
1731.91284	6382.2375
1735.14537	6349.1375
1738.37576	6337.7375
1741.60403	6305.1375
1744.83017	6301.9375
1748.05418	6294.3375
1751.27607	6267.0375
1754.49584	6254.2375
1757.71349	6247.0375
1760.92903	6223.2375
1764.14244	6233.5375
1767.35375	6231.0375
1770.56294	6203.6375
1773.77002	6205.1375
1776.97499	6187.8375
1780.17785	6183.4375
1783.37861	6177.3375
1786.57727	6165.2375
1789.77382	6151.7375
1792.96828	6163.9375
1796.16064	6140.6375
1799.3509	6114.9375
1802.53907	6119.1375
1805.72514	6128.2375
1808.90913	6110.0375
1812.09102	6094.2375
1815.27083	6090.4375
1818.44856	6068.5375
1821.6242	6056.3375
1824.79776	6061.5375
1827.96924	6030.7375
1831.13864	6030.9375
1834.30597	6033.8375
1837.47122	6030.2375
1840.6344	6003.6375
1843.7955	5991.1375
1846.95454	5999.9375
1850.11151	5985.1375
1853.26642	5984.5375
1856.41926	6002.3375
1859.57004	5990.9375
1862.71876	5984.6375
1865.86542	5975.1375
1869.01003	5976.8375
1872.15258	5953.8375
1875.29308	5959.3375
1878.43152	5946.7375
1881.56792	5942.6375
1884.70227	5931.9375
1887.83457	5946.9375
1890.96482	5953.7375
1894.09304	5934.5375
1897.21921	5903.4375
1900.34335	5918.6375
1903.46544	5910.4375
1906.58551	5912.0375
1909.70353	5905.2375
1912.81953	5900.6375
1915.93349	5890.9375
1919.04543	5877.8375
1922.15534	5866.7375
1925.26322	5872.6375
1928.36908	5837.2375
1931.47292	5831.7375
1934.57473	5847.0375
1937.67453	5822.0375
1940.77232	5814.0375
1943.86808	5809.5375
1946.96184	5796.4375
1950.05358	5775.1375
1953.14331	5763.7375
1956.23103	5726.1375
1959.31675	5695.9375
1962.40046	5687.5375
1965.48217	5671.8375
1968.56188	5658.3375
1971.63959	5647.5375
1974.7153	5628.2375
1977.78901	5621.1375
1980.86073	5598.3375
1983.93046	5577.1375
1986.99819	5585.2375
1990.06394	5562.5375
1993.1277	5523.1375
1996.18947	5520.1375
1999.24925	5504.9375
2002.30706	5478.5375
2005.36288	5454.5375
2008.41672	5454.7375
2011.46859	5433.3375
2014.51848	5416.2375
2017.56639	5410.0375
2020.61233	5378.9375
2023.6563	5372.5375
2026.6983	5363.4375
2029.73833	5349.3375
2032.7764	5342.5375
2035.8125	5335.5375
2038.84664	5338.6375
2041.87881	5336.7375
2044.90903	5319.5375
2047.93729	5291.5375
2050.96359	5293.7375
2053.98794	5284.9375
2057.01034	5284.5375
2060.03078	5261.5375
2063.04927	5267.1375
2066.06582	5260.6375
2069.08042	5256.5375
2072.09307	5261.0375
2075.10378	5251.2375
2078.11255	5248.5375
2081.11938	5242.0375
2084.12426	5223.0375
2087.12722	5218.1375
2090.12824	5223.0375
2093.12732	5229.0375
2096.12447	5219.1375
2099.11969	5224.8375
2102.11299	5214.0375
2105.10435	5220.7375
2108.09379	5233.0375
2111.08131	5227.7375
2114.0669	5220.5375
2117.05057	5220.9375
2120.03233	5224.0375
2123.01216	5239.4375
2125.99008	5226.8375
2128.96609	5238.4375
2131.94018	5252.8375
2134.91236	5243.3375
2137.88263	5237.2375
2140.851	5242.0375
2143.81746	5233.9375
2146.78201	5245.0375
2149.74466	5234.1375
2152.7054	5240.4375
2155.66425	5245.1375
2158.6212	5257.9375
2161.57625	5237.5375
2164.52941	5242.8375
2167.48067	5231.6375
2170.43004	5237.5375
2173.37752	5233.2375
2176.32311	5233.8375
2179.26681	5218.3375
2182.20863	5210.4375
2185.14856	5222.5375
2188.08661	5227.6375
2191.02278	5220.9375
2193.95707	5231.2375
2196.88948	5248.0375
2199.82001	5233.1375
2202.74867	5230.2375
2205.67545	5232.3375
2208.60037	5209.4375
2211.52341	5221.6375
2214.44458	5202.1375
2217.36388	5187.1375
2220.28132	5177.1375
2223.1969	5151.3375
2226.11061	5162.1375
2229.02246	5160.3375
2231.93245	5144.6375
2234.84058	5125.2375
2237.74686	5107.0375
2240.65128	5107.5375
2243.55385	5125.8375
2246.45456	5097.2375
2249.35343	5073.8375
2252.25044	5079.8375
2255.14561	5089.3375
2258.03893	5063.1375
2260.93041	5071.3375
2263.82004	5057.2375
2266.70783	5039.1375
2269.59378	5033.3375
2272.4779	5021.8375
2275.36017	5005.1375
2278.24061	4992.9375
2281.11922	4977.3375
2283.996	4966.2375
2286.87094	4955.6375
2289.74405	4952.5375
2292.61534	4941.5375
2295.4848	4929.6375
2298.35243	4950.4375
2301.21824	4936.9375
2304.08223	4932.5375
2306.94439	4951.9375
2309.80474	4964.3375
2312.66327	4959.3375
2315.51999	4958.4375
2318.37489	4949.1375
2321.22797	4955.4375
2324.07925	4938.6375
2326.92871	4912.0375
2329.77637	4907.4375
2332.62222	4926.9375
2335.46626	4914.3375
2338.3085	4903.9375
2341.14893	4932.7375
2343.98756	4910.7375
2346.8244	4920.5375
2349.65943	4928.4375
2352.49267	4916.8375
2355.32411	4907.4375
2358.15376	4915.7375
2360.98161	4909.8375
2363.80768	4891.7375
2366.63195	4889.6375
2369.45444	4869.8375
2372.27514	4868.3375
2375.09405	4851.4375
2377.91118	4858.7375
2380.72652	4853.9375
2383.54009	4833.8375
2386.35187	4820.5375
2389.16188	4810.6375
2391.97011	4804.7375
2394.77657	4787.9375
2397.58125	4769.8375
2400.38416	4761.1375
2403.18529	4763.3375
2405.98466	4756.1375
2408.78226	4750.1375
2411.57809	4721.2375
2414.37216	4718.1375
2417.16446	4728.2375
2419.955	4701.6375
2422.74378	4700.3375
2425.5308	4691.2375
2428.31606	4691.0375
2431.09956	4671.4375
2433.88131	4675.2375
2436.6613	4679.3375
2439.43954	4692.5375
2442.21603	4670.1375
2444.99077	4691.9375
2447.76377	4689.4375
2450.53501	4679.0375
2453.30451	4661.6375
2456.07226	4661.4375
2458.83827	4641.1375
2461.60254	4653.5375
2464.36507	4636.4375
2467.12586	4636.2375
2469.88492	4633.0375
2472.64224	4649.3375
2475.39782	4635.3375
2478.15167	4635.0375
2480.90379	4630.3375
2483.65417	4634.6375
2486.40283	4642.4375
2489.14976	4640.4375
2491.89497	4638.0375
2494.63845	4644.5375
2497.3802	4651.9375
2500.12024	4647.0375
2502.85855	4617.7375
2505.59514	4612.6375
2508.33002	4608.9375
2511.06318	4582.0375
2513.79462	4594.0375
2516.52435	4582.1375
2519.25237	4570.3375
2521.97867	4579.0375
2524.70327	4574.8375
2527.42616	4564.7375
2530.14734	4559.1375
2532.86681	4558.8375
2535.58458	4570.2375
2538.30065	4552.8375
2541.01501	4558.7375
2543.72768	4562.7375
2546.43864	4549.1375
2549.14791	4540.2375
2551.85548	4557.6375
2554.56136	4540.7375
2557.26554	4529.5375
2559.96803	4530.4375
2562.66883	4526.2375
2565.36794	4511.4375
2568.06536	4492.6375
2570.7611	4476.0375
2573.45514	4472.2375
2576.14751	4477.7375
2578.83819	4473.1375
2581.52719	4468.5375
2584.21451	4453.4375
2586.90015	4448.3375
2589.58411	4440.2375
2592.2664	4469.4375
2594.94701	4453.4375
2597.62594	4448.8375
2600.30321	4447.0375
2602.9788	4441.1375
2605.65273	4418.6375
2608.32498	4431.8375
2610.99557	4408.1375
2613.66449	4439.9375
2616.33175	4424.8375
2618.99734	4425.7375
2621.66128	4414.1375
2624.32355	4421.5375
2626.98416	4434.2375
2629.64311	4419.7375
2632.30041	4430.4375
2634.95605	4419.2375
2637.61004	4429.2375
2640.26238	4406.1375
2642.91306	4385.6375
2645.56209	4387.2375
2648.20948	4384.2375
2650.85521	4380.2375
2653.4993	4379.8375
2656.14175	4369.9375
2658.78255	4383.1375
2661.42171	4364.7375
2664.05923	4389.9375
2666.6951	4401.4375
2669.32934	4387.8375
2671.96194	4385.2375
2674.59291	4368.1375
2677.22224	4370.9375
2679.84993	4382.5375
2682.476	4389.0375
2685.10043	4371.3375
2687.72324	4364.6375
2690.34441	4366.3375
2692.96396	4357.3375
2695.58188	4344.1375
2698.19818	4360.9375
2700.81285	4354.7375
2703.4259	4366.3375
2706.03733	4346.5375
2708.64714	4349.4375
2711.25533	4333.9375
2713.86191	4328.7375
2716.46687	4350.9375
2719.07021	4345.7375
2721.67194	4340.4375
2724.27206	4353.9375
2726.87057	4348.6375
2729.46747	4343.3375
2732.06276	4349.2375
2734.65644	4323.6375
2737.24852	4333.8375
2739.83899	4315.3375
2742.42786	4331.4375
2745.01513	4327.0375
2747.60079	4310.3375
2750.18486	4312.6375
2752.76733	4313.8375
2755.3482	4293.6375
2757.92747	4307.3375
2760.50515	4293.2375
2763.08123	4290.7375
2765.65573	4277.9375
2768.22863	4296.9375
2770.79994	4273.2375
2773.36967	4273.9375
2775.9378	4279.2375
2778.50435	4288.6375
2781.06932	4263.0375
2783.6327	4281.7375
2786.1945	4263.2375
2788.75471	4248.9375
2791.31335	4256.1375
2793.87041	4234.4375
2796.42589	4222.5375
2798.97979	4217.1375
2801.53212	4205.3375
2804.08288	4221.6375
2806.63206	4215.3375
2809.17967	4207.6375
2811.72571	4203.5375
2814.27018	4200.3375
2816.81308	4175.0375
2819.35442	4167.3375
2821.89419	4151.4375
2824.43239	4149.3375
2826.96904	4154.1375
2829.50412	4143.2375
2832.03763	4131.5375
2834.56959	4126.8375
2837.1	4133.9375
2839.62884	4119.9375
2842.15613	4130.0375
2844.68186	4129.8375
2847.20604	4113.9375
2849.72867	4109.7375
2852.24974	4102.8375
2854.76927	4089.0375
2857.28724	4075.1375
2859.80367	4070.7375
2862.31855	4062.4375
2864.83189	4058.4375
2867.34368	4065.6375
2869.85393	4056.6375
2872.36264	4061.3375
2874.8698	4051.4375
2877.37543	4053.4375
2879.87952	4030.0375
2882.38207	4048.7375
2884.88308	4029.4375
2887.38256	4039.5375
2889.88051	4025.0375
2892.37692	4019.8375
2894.8718	4028.0375
2897.36515	4025.1375
2899.85698	4026.0375
2902.34727	4029.3375
2904.83604	4018.5375
2907.32328	4031.5375
2909.809	4032.9375
2912.29319	4050.7375
2914.77587	4027.8375
2917.25702	4035.2375
2919.73665	4027.5375
2922.21476	4052.4375
2924.69136	4047.5375
2927.16644	4038.6375
2929.64	4028.3375
2932.11205	4018.0375
2934.58258	4012.6375
2937.05161	3989.8375
2939.51912	3992.4375
2941.98513	3988.9375
2944.44962	3981.8375
2946.91261	3985.6375
2949.37409	3984.2375
2951.83407	3990.8375
2954.29254	3973.6375
2956.74951	3971.9375
2959.20498	3966.3375
2961.65895	3953.2375
2964.11142	3962.7375
2966.56239	3950.7375
2969.01186	3947.1375
2971.45984	3957.7375
2973.90632	3937.9375
2976.35131	3926.8375
2978.7948	3918.3375
2981.23681	3903.3375
2983.67732	3908.2375
2986.11635	3892.0375
2988.55388	3882.7375
2990.98993	3883.3375
2993.4245	3860.0375
2995.85758	3870.6375
2998.28917	3862.1375
3000.71928	3841.9375
3003.14791	3830.3375
3005.57506	3816.4375
3008.00073	3818.9375
3010.42493	3786.2375
3012.84764	3789.8375
3015.26888	3781.1375
3017.68865	3775.9375
3020.10694	3779.2375
3022.52376	3757.1375
3024.9391	3761.0375
3027.35298	3748.9375
3029.76539	3731.0375
3032.17632	3736.2375
3034.5858	3731.2375
3036.9938	3719.3375
3039.40034	3714.8375
3041.80542	3696.5375
3044.20903	3703.1375
3046.61118	3697.4375
3049.01187	3667.9375
3051.4111	3683.3375
3053.80888	3664.8375
3056.20519	3663.1375
3058.60005	3648.9375
3060.99345	3636.8375
3063.3854	3649.3375
3065.7759	3619.3375
3068.16494	3626.0375
3070.55254	3609.4375
3072.93868	3589.0375
3075.32338	3581.9375
3077.70662	3561.4375
3080.08842	3547.8375
3082.46878	3555.4375
3084.84769	3539.3375
3087.22515	3545.6375
3089.60118	3551.7375
3091.97576	3546.1375
3094.3489	3525.9375
3096.72061	3519.7375
3099.09087	3524.0375
3101.4597	3532.5375
3103.82709	3520.9375
3106.19305	3504.5375
3108.55757	3512.0375
3110.92066	3503.4375
3113.28232	3499.9375
3115.64255	3485.9375
3118.00134	3475.6375
3120.35871	3467.1375
