Data from AgNPs_UA_5uM_CRN_500uM_SU_RamanShift__77__11-42-13-154.txt Node

Date: Thu Aug 04 11:42:13 BST 2022
User: TCL
Spectrometer: QEP01345
Trigger mode: 4
Integration Time (sec): 1.000000E0
Scans to average: 10
Electric dark correction enabled: true
Nonlinearity correction enabled: false
Boxcar width: 0
XAxis mode: Raman Shifts
Number of Pixels in Spectrum: 1044
>>>>>Begin Spectral Data<<<<<
46.04893	-0.95
50.45542	-0.15
54.85868	0.35
59.25871	-0.85
63.6555	-58.95
68.04907	-41.25
72.43941	-74.85
76.82654	-60.75
81.21044	-58.55
85.59113	-52.25
89.96862	-77.55
94.34289	-59.15
98.71396	-79.35
103.08183	-61.05
107.4465	-52.25
111.80798	-59.05
116.16626	-50.05
120.52136	-76.95
124.87327	-53.65
129.222	-66.55
133.56755	-52.35
137.90993	-67.65
142.24913	-55.15
146.58517	-51.65
150.91804	-49.45
155.24774	-40.25
159.57429	-24.25
163.89768	-23.45
168.21792	13.95
172.53501	25.75
176.84895	98.45
181.15975	203.55
185.46741	325.25
189.77193	462.35
194.07331	703.65
198.37157	928.45
202.6667	1154.55
206.9587	1416.35
211.24758	1667.55
215.53334	1923.85
219.81599	2227.05
224.09553	2543.05
228.37195	2889.85
232.64527	3236.05
236.91549	3597.55
241.18261	3863.65
245.44663	4101.45
249.70755	4264.15
253.96539	4434.65
258.22014	4599.95
262.4718	4713.05
266.72039	4789.35
270.96589	4781.85
275.20832	4725.05
279.44768	4609.45
283.68397	4540.65
287.91719	4475.05
292.14735	4458.35
296.37445	4574.45
300.59849	4762.35
304.81948	5021.15
309.03742	5316.15
313.25231	5554.95
317.46415	5539.15
321.67296	5212.55
325.87872	4826.85
330.08145	4628.25
334.28114	4594.35
338.47781	4686.15
342.67145	4832.45
346.86207	5054.45
351.04966	5398.15
355.23424	5753.95
359.4158	5945.85
363.59435	5870.75
367.76989	5739.95
371.94243	5605.85
376.11196	5506.15
380.27849	5437.65
384.44203	5400.15
388.60257	5375.85
392.76012	5406.45
396.91468	5533.15
401.06626	5647.35
405.21485	5656.55
409.36047	5543.35
413.50311	5311.35
417.64277	5122.75
421.77947	4968.35
425.9132	4935.55
430.04396	4905.55
434.17176	4921.35
438.2966	4998.15
442.41849	5051.15
446.53742	5150.85
450.6534	5206.25
454.76644	5246.95
458.87653	5268.65
462.98368	5282.75
467.08789	5214.75
471.18916	5179.25
475.2875	5144.25
479.38291	5093.55
483.4754	5041.45
487.56496	5049.65
491.6516	5040.15
495.73531	5045.75
499.81612	5068.85
503.89401	5132.25
507.96899	5166.85
512.04106	5254.75
516.11023	5318.45
520.1765	5378.85
524.23987	5410.95
528.30034	5430.15
532.35792	5374.95
536.41261	5363.45
540.46441	5308.05
544.51333	5273.05
548.55936	5303.85
552.60252	5375.05
556.64279	5426.25
560.6802	5566.15
564.71473	5750.05
568.7464	5991.25
572.7752	5981.75
576.80114	5644.35
580.82422	5407.25
584.84444	5292.65
588.86181	5259.65
592.87633	5306.95
596.888	5368.05
600.89682	5607.85
604.9028	6267.75
608.90594	7824.45
612.90624	9657.65
616.90371	9068.75
620.89834	6794.85
624.89015	5809.25
628.87913	5676.45
632.86528	5855.55
636.84862	5957.15
640.82913	5820.65
644.80683	5559.65
648.78172	5458.45
652.75379	5524.25
656.72306	5690.95
660.68952	5912.75
664.65319	5816.55
668.61405	5597.95
672.57211	5553.35
676.52738	5565.65
680.47986	5546.55
684.42955	5508.25
688.37646	5491.45
692.32058	5493.15
696.26192	5544.55
700.20048	5619.15
704.13626	5649.05
708.06928	5606.85
711.99952	5609.65
715.927	5625.35
719.85171	5663.95
723.77365	5741.35
727.69284	5684.05
731.60928	5673.65
735.52295	5667.35
739.43388	5699.45
743.34206	5713.55
747.24749	5753.25
751.15017	5774.15
755.05012	5823.95
758.94733	6139.15
762.8418	6773.75
766.73354	7660.05
770.62254	8176.55
774.50882	8022.35
778.39237	7715.05
782.27321	7217.45
786.15132	6578.15
790.02671	6146.55
793.89938	5882.45
797.76935	5831.05
801.6366	5782.75
805.50115	5758.45
809.36299	5767.15
813.22213	5782.05
817.07857	5789.45
820.93231	5796.45
824.78336	5818.25
828.63172	5847.95
832.47738	5862.95
836.32036	5863.35
840.16066	5833.35
843.99827	5828.65
847.8332	5810.95
851.66546	5817.75
855.49504	5808.65
859.32195	5844.25
863.1462	5820.75
866.96777	5835.25
870.78668	5836.05
874.60293	5878.95
878.41652	5892.15
882.22745	5940.85
886.03573	5984.75
889.84136	5961.45
893.64433	5979.35
897.44466	5964.85
901.24235	5956.95
905.0374	5963.75
908.8298	5927.15
912.61957	5889.25
916.40671	5859.15
920.19121	5886.15
923.97308	5929.55
927.75233	5991.95
931.52895	6078.15
935.30295	6076.75
939.07433	5940.95
942.84309	5842.75
946.60924	5818.25
950.37278	5786.15
954.13371	5780.55
957.89203	5785.85
961.64774	5805.45
965.40086	5768.75
969.15137	5749.55
972.89929	5792.35
976.64461	5785.05
980.38733	5787.85
984.12747	5761.75
987.86502	5787.05
991.59999	5803.35
995.33237	5858.05
999.06217	5882.75
1002.78939	5919.25
1006.51404	6016.45
1010.23611	6073.55
1013.95561	6065.35
1017.67255	6005.65
1021.38692	5999.95
1025.09872	5979.85
1028.80796	5921.75
1032.51465	5940.85
1036.21877	5948.35
1039.92035	5976.85
1043.61937	5997.55
1047.31584	6017.55
1051.00976	6055.45
1054.70114	6059.15
1058.38998	6035.85
1062.07627	6044.55
1065.76003	6063.15
1069.44126	6130.95
1073.11995	6147.85
1076.79611	6264.45
1080.46974	6381.35
1084.14085	6518.55
1087.80943	6632.05
1091.47549	6663.25
1095.13903	6554.85
1098.80005	6457.65
1102.45857	6370.05
1106.11456	6383.55
1109.76805	6306.25
1113.41903	6415.15
1117.06751	6550.65
1120.71348	6752.65
1124.35696	7061.75
1127.99793	7289.75
1131.63641	7129.45
1135.2724	6791.35
1138.90589	6553.95
1142.5369	6392.85
1146.16542	6307.65
1149.79145	6237.75
1153.415	6203.95
1157.03607	6209.55
1160.65467	6240.95
1164.27079	6360.65
1167.88443	6502.85
1171.49561	6750.55
1175.10432	7168.85
1178.71056	7763.35
1182.31434	8221.35
1185.91565	8231.05
1189.51451	7931.35
1193.11091	7609.85
1196.70485	7393.35
1200.29634	7258.55
1203.88538	7109.65
1207.47197	6861.35
1211.05612	6604.05
1214.63782	6437.25
1218.21708	6375.45
1221.79391	6326.05
1225.36829	6291.65
1228.94024	6312.05
1232.50976	6288.65
1236.07685	6310.85
1239.6415	6350.95
1243.20374	6379.55
1246.76355	6412.05
1250.32093	6495.95
1253.8759	6537.95
1257.42845	6692.05
1260.97859	6823.95
1264.52631	7005.85
1268.07163	7087.75
1271.61453	7141.05
1275.15503	7103.05
1278.69312	7054.45
1282.22882	7085.45
1285.76211	7249.35
1289.29301	7460.25
1292.82151	7634.35
1296.34761	7718.65
1299.87133	7914.45
1303.39266	8355.25
1306.9116	9187.65
1310.42815	10188.95
1313.94233	10610.55
1317.45412	9926.95
1320.96354	8945.05
1324.47058	8130.25
1327.97525	7558.05
1331.47754	7242.55
1334.97747	7137.25
1338.47502	7142.35
1341.97022	7361.45
1345.46305	7877.15
1348.95352	8555.15
1352.44163	9256.65
1355.92738	10012.65
1359.41078	11281.15
1362.89183	12714.85
1366.37053	12414.85
1369.84688	10346.95
1373.32088	8535.55
1376.79254	7673.95
1380.26186	7246.25
1383.72883	6987.55
1387.19347	6665.05
1390.65578	6444.05
1394.11575	6286.55
1397.57339	6237.75
1401.0287	6177.25
1404.48168	6156.95
1407.93234	6170.95
1411.38068	6180.15
1414.82669	6249.25
1418.27039	6352.55
1421.71177	6377.65
1425.15083	6298.25
1428.58758	6301.35
1432.02203	6370.05
1435.45416	6449.65
1438.88399	6376.85
1442.31151	6279.25
1445.73673	6275.65
1449.15965	6275.65
1452.58027	6242.45
1455.9986	6213.95
1459.41463	6190.55
1462.82837	6203.05
1466.23982	6268.35
1469.64898	6362.15
1473.05586	6384.95
1476.46045	6413.05
1479.86276	6450.05
1483.26279	6538.05
1486.66054	6698.05
1490.05602	6907.25
1493.44922	7273.15
1496.84016	7814.05
1500.22882	8683.05
1503.61521	9837.85
1506.99934	11230.45
1510.38121	12553.05
1513.76081	12974.25
1517.13816	12030.65
1520.51324	10350.45
1523.88607	8845.35
1527.25665	7864.15
1530.62498	7312.25
1533.99105	7002.65
1537.35488	6797.85
1540.71647	6683.55
1544.07581	6626.35
1547.4329	6629.35
1550.78776	6669.95
1554.14038	6716.85
1557.49077	6820.15
1560.83892	7008.95
1564.18484	7285.65
1567.52853	7599.05
1570.86999	7826.35
1574.20922	7846.65
1577.54624	7746.95
1580.88103	7351.25
1584.2136	6870.15
1587.54395	6627.55
1590.87208	6576.25
1594.19801	6631.25
1597.52172	6815.85
1600.84321	6861.85
1604.16251	6709.25
1607.47959	6541.75
1610.79447	6430.05
1614.10715	6296.35
1617.41763	6195.15
1620.7259	6109.95
1624.03199	6091.85
1627.33587	6098.65
1630.63757	6146.95
1633.93707	6299.75
1637.23439	6594.65
1640.52951	7099.65
1643.82246	7870.25
1647.11321	8926.35
1650.40179	9678.75
1653.68819	9531.95
1656.97241	8553.15
1660.25446	7430.85
1663.53433	6637.75
1666.81203	6200.65
1670.08756	6004.55
1673.36092	5888.85
1676.63211	5802.95
1679.90115	5748.65
1683.16801	5693.95
1686.43272	5642.55
1689.69527	5635.55
1692.95567	5572.55
1696.2139	5570.65
1699.46999	5526.65
1702.72392	5531.35
1705.97571	5562.65
1709.22535	5547.65
1712.47284	5583.35
1715.71819	5610.75
1718.96139	5603.95
1722.20246	5604.85
1725.44139	5587.05
1728.67818	5578.05
1731.91284	5549.15
1735.14537	5541.05
1738.37576	5514.65
1741.60403	5492.35
1744.83017	5473.05
1748.05418	5495.25
1751.27607	5484.45
1754.49584	5452.35
1757.71349	5430.65
1760.92903	5428.45
1764.14244	5387.15
1767.35375	5381.35
1770.56294	5373.75
1773.77002	5390.95
1776.97499	5390.85
1780.17785	5361.15
1783.37861	5356.25
1786.57727	5389.05
1789.77382	5344.55
1792.96828	5378.95
1796.16064	5368.05
1799.3509	5335.65
1802.53907	5369.65
1805.72514	5332.35
1808.90913	5311.95
1812.09102	5313.05
1815.27083	5311.85
1818.44856	5305.35
1821.6242	5285.45
1824.79776	5288.45
1827.96924	5272.65
1831.13864	5264.95
1834.30597	5272.85
1837.47122	5259.55
1840.6344	5225.05
1843.7955	5214.85
1846.95454	5218.45
1850.11151	5246.95
1853.26642	5204.65
1856.41926	5222.95
1859.57004	5211.65
1862.71876	5221.65
1865.86542	5234.65
1869.01003	5220.25
1872.15258	5200.75
1875.29308	5224.15
1878.43152	5214.45
1881.56792	5184.45
1884.70227	5172.05
1887.83457	5178.35
1890.96482	5147.45
1894.09304	5153.55
1897.21921	5144.25
1900.34335	5146.55
1903.46544	5147.15
1906.58551	5141.45
1909.70353	5127.15
1912.81953	5123.75
1915.93349	5122.65
1919.04543	5101.65
1922.15534	5099.15
1925.26322	5099.95
1928.36908	5090.25
1931.47292	5072.35
1934.57473	5080.15
1937.67453	5036.05
1940.77232	5021.85
1943.86808	5008.95
1946.96184	5021.05
1950.05358	4981.25
1953.14331	4966.75
1956.23103	4984.05
1959.31675	4943.65
1962.40046	4900.45
1965.48217	4920.55
1968.56188	4909.95
1971.63959	4916.45
1974.7153	4894.85
1977.78901	4884.95
1980.86073	4871.25
1983.93046	4832.95
1986.99819	4754.55
1990.06394	4755.35
1993.1277	4796.15
1996.18947	4776.25
1999.24925	4733.85
2002.30706	4752.85
2005.36288	4751.05
2008.41672	4736.65
2011.46859	4688.25
2014.51848	4680.65
2017.56639	4672.95
2020.61233	4646.05
2023.6563	4649.05
2026.6983	4608.65
2029.73833	4613.45
2032.7764	4627.65
2035.8125	4583.35
2038.84664	4585.95
2041.87881	4570.65
2044.90903	4588.85
2047.93729	4560.35
2050.96359	4547.05
2053.98794	4542.05
2057.01034	4561.05
2060.03078	4553.25
2063.04927	4523.05
2066.06582	4539.55
2069.08042	4521.25
2072.09307	4529.55
2075.10378	4511.55
2078.11255	4515.95
2081.11938	4508.85
2084.12426	4509.75
2087.12722	4512.05
2090.12824	4508.95
2093.12732	4517.45
2096.12447	4523.95
2099.11969	4517.35
2102.11299	4515.75
2105.10435	4534.25
2108.09379	4514.05
2111.08131	4515.65
2114.0669	4520.45
2117.05057	4504.45
2120.03233	4517.05
2123.01216	4527.35
2125.99008	4552.35
2128.96609	4538.65
2131.94018	4549.45
2134.91236	4529.15
2137.88263	4543.55
2140.851	4557.55
2143.81746	4570.05
2146.78201	4560.25
2149.74466	4535.75
2152.7054	4556.25
2155.66425	4537.95
2158.6212	4534.75
2161.57625	4509.15
2164.52941	4497.55
2167.48067	4522.55
2170.43004	4528.45
2173.37752	4524.65
2176.32311	4529.55
2179.26681	4522.05
2182.20863	4523.35
2185.14856	4525.65
2188.08661	4522.45
2191.02278	4529.15
2193.95707	4525.55
2196.88948	4499.25
2199.82001	4513.25
2202.74867	4495.45
2205.67545	4493.45
2208.60037	4512.25
2211.52341	4503.85
2214.44458	4477.05
2217.36388	4471.35
2220.28132	4459.05
2223.1969	4432.75
2226.11061	4440.95
2229.02246	4421.75
2231.93245	4437.45
2234.84058	4419.85
2237.74686	4408.45
2240.65128	4391.05
2243.55385	4402.15
2246.45456	4380.75
2249.35343	4406.65
2252.25044	4374.55
2255.14561	4397.05
2258.03893	4382.35
2260.93041	4382.75
2263.82004	4372.85
2266.70783	4363.45
2269.59378	4314.15
2272.4779	4334.15
2275.36017	4339.45
2278.24061	4313.15
2281.11922	4284.95
2283.996	4290.35
2286.87094	4276.45
2289.74405	4270.75
2292.61534	4278.95
2295.4848	4273.55
2298.35243	4267.45
2301.21824	4236.35
2304.08223	4252.05
2306.94439	4255.75
2309.80474	4265.95
2312.66327	4249.15
2315.51999	4233.15
2318.37489	4222.15
2321.22797	4196.65
2324.07925	4203.85
2326.92871	4202.25
2329.77637	4178.65
2332.62222	4173.45
2335.46626	4151.65
2338.3085	4145.45
2341.14893	4157.25
2343.98756	4170.45
2346.8244	4155.35
2349.65943	4132.55
2352.49267	4151.65
2355.32411	4137.25
2358.15376	4137.05
2360.98161	4141.65
2363.80768	4128.75
2366.63195	4123.45
2369.45444	4145.65
2372.27514	4117.65
2375.09405	4147.15
2377.91118	4109.25
2380.72652	4102.35
2383.54009	4095.75
2386.35187	4097.65
2389.16188	4064.95
2391.97011	4074.95
2394.77657	4058.85
2397.58125	4065.95
2400.38416	4036.05
2403.18529	4028.65
2405.98466	4006.35
2408.78226	4021.15
2411.57809	4009.65
2414.37216	4001.45
2417.16446	3997.35
2419.955	3982.45
2422.74378	4017.05
2425.5308	3974.65
2428.31606	3998.15
2431.09956	3986.15
2433.88131	3955.55
2436.6613	3961.95
2439.43954	3958.35
2442.21603	3963.25
2444.99077	3950.55
2447.76377	3951.45
2450.53501	3961.85
2453.30451	3950.95
2456.07226	3947.55
2458.83827	3933.35
2461.60254	3882.65
2464.36507	3920.45
2467.12586	3908.05
2469.88492	3904.35
2472.64224	3891.65
2475.39782	3880.25
2478.15167	3882.45
2480.90379	3889.55
2483.65417	3903.35
2486.40283	3901.55
2489.14976	3899.75
2491.89497	3881.35
2494.63845	3890.15
2497.3802	3876.45
2500.12024	3868.65
2502.85855	3849.55
2505.59514	3863.35
2508.33002	3854.75
2511.06318	3819.65
2513.79462	3838.45
2516.52435	3797.25
2519.25237	3768.85
2521.97867	3777.05
2524.70327	3786.95
2527.42616	3767.25
2530.14734	3788.55
2532.86681	3765.45
2535.58458	3765.55
2538.30065	3746.15
2541.01501	3758.45
2543.72768	3738.45
2546.43864	3747.65
2549.14791	3728.25
2551.85548	3714.15
2554.56136	3712.55
2557.26554	3729.85
2559.96803	3698.35
2562.66883	3712.55
2565.36794	3699.15
2568.06536	3665.35
2570.7611	3686.15
2573.45514	3665.65
2576.14751	3665.75
2578.83819	3640.95
2581.52719	3636.25
2584.21451	3625.55
2586.90015	3626.95
2589.58411	3607.55
2592.2664	3618.05
2594.94701	3617.75
2597.62594	3620.85
2600.30321	3542.05
2602.9788	3566.25
2605.65273	3568.45
2608.32498	3551.15
2610.99557	3568.35
2613.66449	3529.95
2616.33175	3548.95
2618.99734	3544.85
2621.66128	3553.05
2624.32355	3533.65
2626.98416	3514.45
2629.64311	3499.45
2632.30041	3509.95
2634.95605	3483.05
2637.61004	3474.05
2640.26238	3469.15
2642.91306	3458.15
2645.56209	3488.75
2648.20948	3480.15
2650.85521	3453.65
2653.4993	3468.85
2656.14175	3458.05
2658.78255	3444.35
2661.42171	3421.75
2664.05923	3464.85
2666.6951	3471.85
2669.32934	3474.05
2671.96194	3471.45
2674.59291	3460.05
2677.22224	3463.85
2679.84993	3463.15
2682.476	3437.75
2685.10043	3439.25
2687.72324	3441.85
2690.34441	3421.25
2692.96396	3430.75
2695.58188	3442.65
2698.19818	3449.45
2700.81285	3415.95
2703.4259	3415.05
2706.03733	3391.75
2708.64714	3394.05
2711.25533	3418.55
2713.86191	3426.75
2716.46687	3427.15
2719.07021	3414.35
2721.67194	3411.35
2724.27206	3428.65
2726.87057	3405.45
2729.46747	3408.35
2732.06276	3414.85
2734.65644	3396.35
2737.24852	3383.25
2739.83899	3377.15
2742.42786	3382.35
2745.01513	3387.95
2747.60079	3373.15
2750.18486	3354.05
2752.76733	3347.15
2755.3482	3353.85
2757.92747	3348.15
2760.50515	3328.65
2763.08123	3311.05
2765.65573	3321.85
2768.22863	3313.85
2770.79994	3300.65
2773.36967	3300.75
2775.9378	3295.05
2778.50435	3289.35
2781.06932	3288.05
2783.6327	3273.05
2786.1945	3286.15
2788.75471	3269.65
2791.31335	3252.85
2793.87041	3249.75
2796.42589	3238.95
2798.97979	3220.25
2801.53212	3223.25
2804.08288	3236.15
2806.63206	3218.15
2809.17967	3209.45
2811.72571	3215.95
2814.27018	3201.35
2816.81308	3186.85
2819.35442	3155.25
2821.89419	3177.45
2824.43239	3152.65
2826.96904	3185.45
2829.50412	3155.55
2832.03763	3181.15
2834.56959	3169.55
2837.1	3147.75
2839.62884	3156.85
2842.15613	3152.35
2844.68186	3158.85
2847.20604	3130.15
2849.72867	3123.95
2852.24974	3119.65
2854.76927	3091.45
2857.28724	3055.95
2859.80367	3115.15
2862.31855	3114.75
2864.83189	3100.05
2867.34368	3091.45
2869.85393	3105.75
2872.36264	3074.35
2874.8698	3077.75
2877.37543	3088.75
2879.87952	3091.45
2882.38207	3057.05
2884.88308	3075.15
2887.38256	3079.15
2889.88051	3061.05
2892.37692	3063.95
2894.8718	3046.95
2897.36515	3050.55
2899.85698	3050.75
2902.34727	3036.85
2904.83604	3053.35
2907.32328	3057.35
2909.809	3055.85
2912.29319	3034.35
2914.77587	3047.85
2917.25702	3064.95
2919.73665	3070.85
2922.21476	3065.85
2924.69136	3054.25
2927.16644	3045.15
2929.64	3043.55
2932.11205	3029.25
2934.58258	3029.65
2937.05161	3017.75
2939.51912	3019.15
2941.98513	3039.25
2944.44962	3027.05
2946.91261	2998.85
2949.37409	3002.65
2951.83407	3002.75
2954.29254	2996.25
2956.74951	3014.75
2959.20498	3006.55
2961.65895	3006.25
2964.11142	2995.55
2966.56239	2998.65
2969.01186	2996.25
2971.45984	2990.95
2973.90632	3001.75
2976.35131	2994.45
2978.7948	2980.95
2981.23681	2968.25
2983.67732	2980.65
2986.11635	2971.45
2988.55388	2954.35
2990.98993	2960.85
2993.4245	2943.45
2995.85758	2935.65
2998.28917	2929.55
3000.71928	2918.95
3003.14791	2915.45
3005.57506	2907.45
3008.00073	2895.65
3010.42493	2842.15
3012.84764	2899.45
3015.26888	2893.95
3017.68865	2885.15
3020.10694	2838.55
3022.52376	2854.45
3024.9391	2858.35
3027.35298	2843.75
3029.76539	2834.05
3032.17632	2837.95
3034.5858	2829.55
3036.9938	2838.85
3039.40034	2828.45
3041.80542	2818.95
3044.20903	2801.55
3046.61118	2802.55
3049.01187	2813.35
3051.4111	2789.35
3053.80888	2781.85
3056.20519	2771.05
3058.60005	2755.75
3060.99345	2781.65
3063.3854	2759.95
3065.7759	2746.75
3068.16494	2730.25
3070.55254	2735.95
3072.93868	2728.95
3075.32338	2726.95
3077.70662	2712.95
3080.08842	2716.95
3082.46878	2689.85
3084.84769	2721.45
3087.22515	2698.25
3089.60118	2716.75
3091.97576	2699.05
3094.3489	2707.05
3096.72061	2693.65
3099.09087	2697.35
3101.4597	2705.45
3103.82709	2682.85
3106.19305	2686.55
3108.55757	2687.75
3110.92066	2676.15
3113.28232	2689.75
3115.64255	2692.85
3118.00134	2683.85
3120.35871	2657.45
3122.71466	2637.05
3125.06917	2649.05
3127.42226	2642.95
3129.77393	2617.95
3132.12417	2636.45
3134.47299	2641.55
3136.82039	2614.55
3139.16636	2601.25
3141.51092	2616.75
3143.85406	2623.55
3146.19579	2607.85
3148.53609	2602.75
3150.87499	2614.85
3153.21246	2613.95
3155.54853	2617.15
3157.88318	2625.15
3160.21642	2612.25
3162.54826	2617.75
3164.87868	2612.55
3167.2077	2584.95
3169.5353	2595.65
3171.86151	2615.25
3174.18631	2593.85
3176.5097	2587.55
3178.83169	2593.85
3181.15228	2578.75
3183.47147	2576.25
3185.78926	2546.35
3188.10565	2572.25
3190.42065	2550.55
3192.73424	2557.65
3195.04645	2542.25
3197.35725	2528.85
3199.66667	2541.45
3201.97469	2550.05
3204.28132	2525.15
3206.58656	2548.95
3208.8904	2542.85
3211.19287	2537.05
3213.49394	2525.65
3215.79363	2539.65
3218.09193	2556.95
3220.38884	2551.05
3222.68438	2534.05
3224.97853	2512.25
3227.2713	2539.05
3229.56269	2526.35
3231.8527	2517.35
3234.14133	2511.75
3236.42858	2514.85
3238.71446	2492.85
3240.99896	2505.05
3243.28209	2479.95
3245.56384	2488.75
3247.84423	2472.25
3250.12324	2475.45
3252.40088	2479.55
3254.67715	2454.15
3256.95205	2457.05
3259.22558	2471.25
3261.49775	2471.45
3263.76855	2460.85
3266.03799	2470.25
3268.30606	2468.25
3270.57277	2471.55
3272.83812	2444.75
3275.10211	2452.15
3277.36474	2461.55
3279.62601	2452.65
3281.88593	2424.25
3284.14448	2412.55
3286.40168	2427.55
3288.65753	2420.15
3290.91202	2413.75
3293.16516	2396.95
3295.41695	2422.45
3297.66738	2415.15
3299.91647	2405.35
3302.16421	2378.35
3304.4106	2343.65
3306.65564	2356.05
3308.89933	2322.85
3311.14169	2304.25
3313.38269	2299.15
3315.62236	2279.65
3317.86068	2256.05
3320.09766	2265.25
3322.3333	2215.65
3324.5676	2213.55
3326.80056	2183.15
3329.03219	2167.45
3331.26248	0.85
3333.49143	-0.75
3335.71905	0.55
