Data from AgNPs_UA_5uM_CRN_500uM_SU_RamanShift__237__12-08-53-187.txt Node

Date: Thu Aug 04 12:08:53 BST 2022
User: TCL
Spectrometer: QEP01345
Trigger mode: 4
Integration Time (sec): 1.000000E0
Scans to average: 10
Electric dark correction enabled: true
Nonlinearity correction enabled: false
Boxcar width: 0
XAxis mode: Raman Shifts
Number of Pixels in Spectrum: 1044
>>>>>Begin Spectral Data<<<<<
46.04893	-1.025
50.45542	0.575
54.85868	0.075
59.25871	0.475
63.6555	-57.725
68.04907	-39.825
72.43941	-70.925
76.82654	-55.325
81.21044	-56.925
85.59113	-48.125
89.96862	-73.125
94.34289	-56.925
98.71396	-78.125
103.08183	-58.225
107.4465	-49.425
111.80798	-55.925
116.16626	-45.525
120.52136	-74.825
124.87327	-52.125
129.222	-62.225
133.56755	-50.125
137.90993	-62.725
142.24913	-51.125
146.58517	-43.925
150.91804	-42.325
155.24774	-30.425
159.57429	-10.725
163.89768	-8.025
168.21792	35.475
172.53501	54.075
176.84895	133.075
181.15975	261.875
185.46741	410.475
189.77193	581.575
194.07331	862.175
198.37157	1142.975
202.6667	1412.175
206.9587	1728.675
211.24758	2029.975
215.53334	2351.475
219.81599	2690.075
224.09553	3074.175
228.37195	3512.975
232.64527	3957.175
236.91549	4413.175
241.18261	4754.375
245.44663	5020.975
249.70755	5197.375
253.96539	5315.175
258.22014	5405.475
262.4718	5481.275
266.72039	5542.475
270.96589	5488.875
275.20832	5404.775
279.44768	5291.075
283.68397	5191.875
287.91719	5136.875
292.14735	5185.275
296.37445	5344.675
300.59849	5622.075
304.81948	5963.175
309.03742	6341.475
313.25231	6574.375
317.46415	6538.875
321.67296	6144.875
325.87872	5750.175
330.08145	5554.575
334.28114	5498.675
338.47781	5569.975
342.67145	5693.975
346.86207	5941.575
351.04966	6296.275
355.23424	6657.875
359.4158	6929.275
363.59435	6968.775
367.76989	6890.975
371.94243	6760.575
376.11196	6645.375
380.27849	6569.675
384.44203	6504.075
388.60257	6467.975
392.76012	6477.575
396.91468	6579.775
401.06626	6736.475
405.21485	6743.575
409.36047	6627.575
413.50311	6282.775
417.64277	6007.875
421.77947	5806.075
425.9132	5738.475
430.04396	5730.075
434.17176	5771.375
438.2966	5860.775
442.41849	5946.175
446.53742	6029.475
450.6534	6138.275
454.76644	6216.875
458.87653	6221.875
462.98368	6176.375
467.08789	6125.575
471.18916	6029.575
475.2875	5904.375
479.38291	5809.575
483.4754	5716.275
487.56496	5667.675
491.6516	5631.675
495.73531	5645.575
499.81612	5688.375
503.89401	5756.975
507.96899	5815.275
512.04106	5922.675
516.11023	6008.775
520.1765	6072.075
524.23987	6109.975
528.30034	6086.975
532.35792	6030.575
536.41261	5962.075
540.46441	5880.175
544.51333	5830.275
548.55936	5868.475
552.60252	5988.575
556.64279	6098.075
560.6802	6213.875
564.71473	6356.975
568.7464	6543.475
572.7752	6500.575
576.80114	6211.275
580.82422	5971.675
584.84444	5886.175
588.86181	5862.175
592.87633	5889.975
596.888	6022.075
600.89682	6377.575
604.9028	7334.575
608.90594	9406.575
612.90624	11715.275
616.90371	10853.575
620.89834	7809.675
624.89015	6499.975
628.87913	6281.875
632.86528	6433.175
636.84862	6602.475
640.82913	6477.875
644.80683	6124.975
648.78172	5931.775
652.75379	5962.075
656.72306	6202.675
660.68952	6450.675
664.65319	6335.775
668.61405	6114.275
672.57211	6057.875
676.52738	6058.775
680.47986	5954.175
684.42955	5860.075
688.37646	5800.975
692.32058	5827.975
696.26192	5886.775
700.20048	5985.375
704.13626	6014.675
708.06928	5971.075
711.99952	5948.675
715.927	5913.975
719.85171	5962.475
723.77365	6027.375
727.69284	6004.875
731.60928	5970.675
735.52295	5941.375
739.43388	5983.575
743.34206	5992.975
747.24749	6019.875
751.15017	6043.775
755.05012	6124.475
758.94733	6492.575
762.8418	7317.075
766.73354	8656.375
770.62254	9702.175
774.50882	9743.575
778.39237	9208.575
782.27321	8278.775
786.15132	7250.575
790.02671	6568.575
793.89938	6210.575
797.76935	6082.475
801.6366	5991.875
805.50115	5945.975
809.36299	5936.275
813.22213	5937.175
817.07857	5919.275
820.93231	5921.075
824.78336	5945.075
828.63172	5970.775
832.47738	5980.175
836.32036	5977.675
840.16066	5942.675
843.99827	5914.475
847.8332	5918.875
851.66546	5933.775
855.49504	5928.575
859.32195	5957.375
863.1462	5939.175
866.96777	5951.575
870.78668	5949.175
874.60293	5935.175
878.41652	5974.175
882.22745	6052.275
886.03573	6077.375
889.84136	6074.375
893.64433	6074.575
897.44466	6050.375
901.24235	6043.175
905.0374	6066.475
908.8298	6002.875
912.61957	5959.875
916.40671	5925.575
920.19121	5970.475
923.97308	6061.775
927.75233	6110.575
931.52895	6181.575
935.30295	6141.175
939.07433	6014.675
942.84309	5876.475
946.60924	5861.375
950.37278	5811.575
954.13371	5812.375
957.89203	5800.675
961.64774	5826.375
965.40086	5795.175
969.15137	5781.075
972.89929	5833.075
976.64461	5802.075
980.38733	5831.875
984.12747	5823.475
987.86502	5827.675
991.59999	5866.775
995.33237	5946.775
999.06217	5984.775
1002.78939	6091.075
1006.51404	6205.675
1010.23611	6310.875
1013.95561	6358.375
1017.67255	6344.275
1021.38692	6330.475
1025.09872	6281.275
1028.80796	6187.575
1032.51465	6199.175
1036.21877	6181.375
1039.92035	6232.175
1043.61937	6268.975
1047.31584	6306.375
1051.00976	6353.475
1054.70114	6366.775
1058.38998	6338.175
1062.07627	6375.575
1065.76003	6414.375
1069.44126	6462.175
1073.11995	6545.375
1076.79611	6665.575
1080.46974	6813.075
1084.14085	6974.375
1087.80943	7104.975
1091.47549	7144.375
1095.13903	7077.575
1098.80005	6943.875
1102.45857	6845.975
1106.11456	6812.175
1109.76805	6766.675
1113.41903	6854.575
1117.06751	7055.275
1120.71348	7292.775
1124.35696	7683.675
1127.99793	7973.975
1131.63641	7786.975
1135.2724	7400.775
1138.90589	7106.075
1142.5369	6920.275
1146.16542	6785.275
1149.79145	6699.575
1153.415	6654.975
1157.03607	6663.675
1160.65467	6741.975
1164.27079	6963.575
1167.88443	7206.175
1171.49561	7634.375
1175.10432	8227.575
1178.71056	9148.275
1182.31434	9955.275
1185.91565	10197.475
1189.51451	10041.475
1193.11091	9796.275
1196.70485	9541.875
1200.29634	9296.875
1203.88538	9044.475
1207.47197	8571.075
1211.05612	8087.675
1214.63782	7689.275
1218.21708	7433.175
1221.79391	7302.875
1225.36829	7208.975
1228.94024	7201.875
1232.50976	7236.975
1236.07685	7257.975
1239.6415	7267.475
1243.20374	7295.175
1246.76355	7335.675
1250.32093	7384.775
1253.8759	7452.575
1257.42845	7650.175
1260.97859	7823.775
1264.52631	8053.375
1268.07163	8227.175
1271.61453	8378.375
1275.15503	8416.275
1278.69312	8417.575
1282.22882	8465.775
1285.76211	8701.975
1289.29301	8928.475
1292.82151	9196.275
1296.34761	9403.675
1299.87133	9790.975
1303.39266	10505.375
1306.9116	11640.475
1310.42815	12865.375
1313.94233	13297.775
1317.45412	12527.975
1320.96354	11392.975
1324.47058	10371.375
1327.97525	9610.775
1331.47754	9226.475
1334.97747	9121.575
1338.47502	9241.275
1341.97022	9579.475
1345.46305	10325.075
1348.95352	11399.275
1352.44163	12689.575
1355.92738	14074.175
1359.41078	15736.275
1362.89183	17257.475
1366.37053	16619.375
1369.84688	13805.575
1373.32088	11120.275
1376.79254	9662.375
1380.26186	8988.375
1383.72883	8604.875
1387.19347	8193.475
1390.65578	7841.075
1394.11575	7611.975
1397.57339	7431.875
1401.0287	7322.475
1404.48168	7297.575
1407.93234	7311.375
1411.38068	7317.175
1414.82669	7388.875
1418.27039	7482.375
1421.71177	7476.375
1425.15083	7375.175
1428.58758	7310.075
1432.02203	7322.275
1435.45416	7386.075
1438.88399	7398.475
1442.31151	7364.375
1445.73673	7431.775
1449.15965	7495.675
1452.58027	7503.375
1455.9986	7498.475
1459.41463	7523.275
1462.82837	7605.975
1466.23982	7823.275
1469.64898	8022.775
1473.05586	8154.175
1476.46045	8251.275
1479.86276	8348.775
1483.26279	8436.075
1486.66054	8619.275
1490.05602	8909.875
1493.44922	9460.075
1496.84016	10340.075
1500.22882	11727.575
1503.61521	13448.475
1506.99934	15240.175
1510.38121	16450.675
1513.76081	16288.875
1517.13816	14707.375
1520.51324	12581.875
1523.88607	10892.675
1527.25665	9891.775
1530.62498	9405.775
1533.99105	9189.975
1537.35488	9087.375
1540.71647	8973.175
1544.07581	8872.075
1547.4329	8697.775
1550.78776	8563.375
1554.14038	8520.875
1557.49077	8475.475
1560.83892	8573.875
1564.18484	8788.275
1567.52853	9128.775
1570.86999	9451.675
1574.20922	9592.675
1577.54624	9497.175
1580.88103	8957.375
1584.2136	8286.475
1587.54395	7899.575
1590.87208	7826.175
1594.19801	7991.375
1597.52172	8354.075
1600.84321	8494.275
1604.16251	8336.775
1607.47959	8137.375
1610.79447	7954.575
1614.10715	7691.475
1617.41763	7380.375
1620.7259	7139.175
1624.03199	6972.175
1627.33587	6900.875
1630.63757	6961.775
1633.93707	7184.475
1637.23439	7586.975
1640.52951	8273.475
1643.82246	9251.175
1647.11321	10417.775
1650.40179	11120.575
1653.68819	10793.775
1656.97241	9566.475
1660.25446	8192.175
1663.53433	7177.175
1666.81203	6577.075
1670.08756	6260.675
1673.36092	6070.975
1676.63211	5933.575
1679.90115	5841.075
1683.16801	5753.175
1686.43272	5660.475
1689.69527	5631.575
1692.95567	5576.475
1696.2139	5545.075
1699.46999	5501.175
1702.72392	5508.375
1705.97571	5526.375
1709.22535	5490.175
1712.47284	5524.975
1715.71819	5537.775
1718.96139	5520.075
1722.20246	5500.575
1725.44139	5489.475
1728.67818	5473.775
1731.91284	5409.875
1735.14537	5373.775
1738.37576	5338.175
1741.60403	5324.575
1744.83017	5298.175
1748.05418	5302.475
1751.27607	5313.975
1754.49584	5262.275
1757.71349	5239.575
1760.92903	5233.275
1764.14244	5185.475
1767.35375	5200.875
1770.56294	5184.875
1773.77002	5153.575
1776.97499	5179.875
1780.17785	5140.475
1783.37861	5139.875
1786.57727	5161.675
1789.77382	5085.275
1792.96828	5127.475
1796.16064	5126.375
1799.3509	5093.175
1802.53907	5101.275
1805.72514	5061.575
1808.90913	5056.375
1812.09102	5056.475
1815.27083	5052.575
1818.44856	5031.375
1821.6242	5019.075
1824.79776	5008.275
1827.96924	4991.675
1831.13864	4979.075
1834.30597	5001.675
1837.47122	4975.775
1840.6344	4961.375
1843.7955	4938.675
1846.95454	4934.275
1850.11151	4950.275
1853.26642	4923.375
1856.41926	4930.075
1859.57004	4922.875
1862.71876	4913.575
1865.86542	4916.775
1869.01003	4905.575
1872.15258	4898.875
1875.29308	4901.275
1878.43152	4903.175
1881.56792	4880.775
1884.70227	4854.175
1887.83457	4849.775
1890.96482	4856.675
1894.09304	4841.675
1897.21921	4839.675
1900.34335	4834.975
1903.46544	4823.275
1906.58551	4815.575
1909.70353	4810.275
1912.81953	4814.275
1915.93349	4801.275
1919.04543	4783.075
1922.15534	4771.675
1925.26322	4772.675
1928.36908	4761.275
1931.47292	4776.675
1934.57473	4763.175
1937.67453	4719.975
1940.77232	4706.475
1943.86808	4705.875
1946.96184	4692.275
1950.05358	4661.975
1953.14331	4661.375
1956.23103	4645.575
1959.31675	4617.875
1962.40046	4568.575
1965.48217	4606.175
1968.56188	4595.975
1971.63959	4567.775
1974.7153	4572.175
1977.78901	4569.275
1980.86073	4549.275
1983.93046	4491.075
1986.99819	4428.475
1990.06394	4462.775
1993.1277	4479.175
1996.18947	4464.775
1999.24925	4421.775
2002.30706	4428.275
2005.36288	4411.975
2008.41672	4392.075
2011.46859	4354.775
2014.51848	4355.975
2017.56639	4334.275
2020.61233	4314.575
2023.6563	4331.275
2026.6983	4284.875
2029.73833	4273.175
2032.7764	4287.175
2035.8125	4238.575
2038.84664	4249.475
2041.87881	4221.875
2044.90903	4245.175
2047.93729	4213.875
2050.96359	4194.375
2053.98794	4209.775
2057.01034	4203.375
2060.03078	4193.575
2063.04927	4185.975
2066.06582	4176.275
2069.08042	4153.075
2072.09307	4185.475
2075.10378	4162.275
2078.11255	4163.775
2081.11938	4152.175
2084.12426	4150.175
2087.12722	4154.175
2090.12824	4153.175
2093.12732	4152.275
2096.12447	4170.375
2099.11969	4145.675
2102.11299	4146.275
2105.10435	4162.875
2108.09379	4151.975
2111.08131	4150.875
2114.0669	4139.375
2117.05057	4151.475
2120.03233	4128.975
2123.01216	4147.475
2125.99008	4159.375
2128.96609	4146.175
2131.94018	4179.875
2134.91236	4162.475
2137.88263	4151.375
2140.851	4172.875
2143.81746	4189.775
2146.78201	4179.675
2149.74466	4153.575
2152.7054	4166.375
2155.66425	4145.575
2158.6212	4152.875
2161.57625	4114.275
2164.52941	4110.275
2167.48067	4129.075
2170.43004	4113.575
2173.37752	4137.675
2176.32311	4113.475
2179.26681	4106.775
2182.20863	4122.675
2185.14856	4122.275
2188.08661	4120.375
2191.02278	4128.175
2193.95707	4096.375
2196.88948	4089.875
2199.82001	4099.975
2202.74867	4082.275
2205.67545	4090.775
2208.60037	4102.575
2211.52341	4078.175
2214.44458	4081.575
2217.36388	4055.175
2220.28132	4040.975
2223.1969	4024.275
2226.11061	4036.575
2229.02246	4004.175
2231.93245	4003.475
2234.84058	3976.775
2237.74686	3974.975
2240.65128	3979.575
2243.55385	3975.875
2246.45456	3953.675
2249.35343	3961.575
2252.25044	3952.875
2255.14561	3954.675
2258.03893	3953.875
2260.93041	3943.275
2263.82004	3955.475
2266.70783	3935.575
2269.59378	3920.175
2272.4779	3897.475
2275.36017	3912.875
2278.24061	3888.075
2281.11922	3864.675
2283.996	3877.475
2286.87094	3845.075
2289.74405	3853.175
2292.61534	3848.675
2295.4848	3835.875
2298.35243	3837.475
2301.21824	3832.075
2304.08223	3830.575
2306.94439	3830.075
2309.80474	3828.175
2312.66327	3806.975
2315.51999	3787.675
2318.37489	3805.875
2321.22797	3782.375
2324.07925	3779.275
2326.92871	3764.975
2329.77637	3757.575
2332.62222	3753.275
2335.46626	3726.975
2338.3085	3734.875
2341.14893	3727.275
2343.98756	3745.775
2346.8244	3724.975
2349.65943	3698.875
2352.49267	3719.575
2355.32411	3731.175
2358.15376	3722.875
2360.98161	3715.175
2363.80768	3720.875
2366.63195	3719.875
2369.45444	3716.875
2372.27514	3712.975
2375.09405	3724.175
2377.91118	3684.175
2380.72652	3688.275
2383.54009	3671.475
2386.35187	3670.275
2389.16188	3658.175
2391.97011	3652.775
2394.77657	3647.275
2397.58125	3620.175
2400.38416	3628.375
2403.18529	3617.575
2405.98466	3605.275
2408.78226	3602.775
2411.57809	3596.475
2414.37216	3588.675
2417.16446	3583.175
2419.955	3553.775
2422.74378	3588.475
2425.5308	3559.475
2428.31606	3579.875
2431.09956	3563.975
2433.88131	3540.275
2436.6613	3548.775
2439.43954	3549.175
2442.21603	3537.275
2444.99077	3531.775
2447.76377	3540.575
2450.53501	3524.575
2453.30451	3521.375
2456.07226	3515.675
2458.83827	3513.075
2461.60254	3476.375
2464.36507	3505.475
2467.12586	3484.275
2469.88492	3501.875
2472.64224	3481.675
2475.39782	3471.075
2478.15167	3479.175
2480.90379	3478.675
2483.65417	3496.875
2486.40283	3493.375
2489.14976	3494.675
2491.89497	3496.675
2494.63845	3491.075
2497.3802	3475.675
2500.12024	3471.375
2502.85855	3466.875
2505.59514	3469.975
2508.33002	3455.975
2511.06318	3433.475
2513.79462	3439.175
2516.52435	3398.375
2519.25237	3378.875
2521.97867	3385.175
2524.70327	3391.975
2527.42616	3383.975
2530.14734	3392.575
2532.86681	3357.075
2535.58458	3366.975
2538.30065	3357.875
2541.01501	3358.575
2543.72768	3348.475
2546.43864	3349.975
2549.14791	3354.775
2551.85548	3333.575
2554.56136	3327.775
2557.26554	3325.975
2559.96803	3326.075
2562.66883	3318.275
2565.36794	3306.775
2568.06536	3275.475
2570.7611	3296.575
2573.45514	3269.275
2576.14751	3284.975
2578.83819	3248.075
2581.52719	3248.975
2584.21451	3258.875
2586.90015	3233.275
2589.58411	3206.375
2592.2664	3222.075
2594.94701	3236.675
2597.62594	3231.175
2600.30321	3162.175
2602.9788	3179.075
2605.65273	3175.975
2608.32498	3186.075
2610.99557	3193.075
2613.66449	3168.475
2616.33175	3162.075
2618.99734	3188.075
2621.66128	3167.775
2624.32355	3151.475
2626.98416	3157.375
2629.64311	3138.075
2632.30041	3130.775
2634.95605	3123.475
2637.61004	3108.575
2640.26238	3087.375
2642.91306	3095.975
2645.56209	3115.275
2648.20948	3098.275
2650.85521	3084.275
2653.4993	3102.175
2656.14175	3107.975
2658.78255	3080.075
2661.42171	3050.175
2664.05923	3100.575
2666.6951	3103.775
2669.32934	3104.375
2671.96194	3113.475
2674.59291	3094.075
2677.22224	3111.175
2679.84993	3088.775
2682.476	3085.175
2685.10043	3079.175
2687.72324	3073.375
2690.34441	3066.275
2692.96396	3069.375
2695.58188	3081.375
2698.19818	3067.775
2700.81285	3057.475
2703.4259	3060.275
2706.03733	3026.575
2708.64714	3029.975
2711.25533	3066.475
2713.86191	3066.975
2716.46687	3057.475
2719.07021	3065.175
2721.67194	3052.075
2724.27206	3063.175
2726.87057	3043.175
2729.46747	3046.275
2732.06276	3052.175
2734.65644	3023.875
2737.24852	3023.975
2739.83899	3013.075
2742.42786	3019.575
2745.01513	3040.475
2747.60079	3009.975
2750.18486	3007.475
2752.76733	2998.675
2755.3482	2992.775
2757.92747	2990.875
2760.50515	2969.875
2763.08123	2976.275
2765.65573	2968.475
2768.22863	2965.175
2770.79994	2954.175
2773.36967	2941.275
2775.9378	2931.275
2778.50435	2937.375
2781.06932	2927.775
2783.6327	2916.975
2786.1945	2945.075
2788.75471	2934.575
2791.31335	2915.175
2793.87041	2920.575
2796.42589	2907.075
2798.97979	2898.075
2801.53212	2904.175
2804.08288	2904.875
2806.63206	2888.975
2809.17967	2866.275
2811.72571	2887.575
2814.27018	2874.675
2816.81308	2865.475
2819.35442	2823.775
2821.89419	2853.675
2824.43239	2833.975
2826.96904	2864.275
2829.50412	2833.975
2832.03763	2835.375
2834.56959	2839.875
2837.1	2831.075
2839.62884	2825.675
2842.15613	2826.275
2844.68186	2829.875
2847.20604	2808.775
2849.72867	2801.675
2852.24974	2802.475
2854.76927	2765.275
2857.28724	2728.775
2859.80367	2796.475
2862.31855	2802.075
2864.83189	2773.875
2867.34368	2793.375
2869.85393	2800.675
2872.36264	2779.275
2874.8698	2776.575
2877.37543	2782.175
2879.87952	2772.775
2882.38207	2751.275
2884.88308	2753.575
2887.38256	2762.075
2889.88051	2754.175
2892.37692	2756.675
2894.8718	2740.775
2897.36515	2746.075
2899.85698	2732.675
2902.34727	2734.475
2904.83604	2747.775
2907.32328	2753.875
2909.809	2773.175
2912.29319	2753.775
2914.77587	2754.875
2917.25702	2780.875
2919.73665	2771.675
2922.21476	2776.375
2924.69136	2772.875
2927.16644	2756.975
2929.64	2763.175
2932.11205	2755.775
2934.58258	2751.575
2937.05161	2739.475
2939.51912	2730.675
2941.98513	2762.875
2944.44962	2723.075
2946.91261	2698.975
2949.37409	2704.575
2951.83407	2706.775
2954.29254	2703.975
2956.74951	2701.175
2959.20498	2690.175
2961.65895	2678.975
2964.11142	2669.175
2966.56239	2675.575
2969.01186	2677.275
2971.45984	2662.975
2973.90632	2648.975
2976.35131	2669.775
2978.7948	2666.775
2981.23681	2642.375
2983.67732	2643.275
2986.11635	2645.775
2988.55388	2607.175
2990.98993	2622.275
2993.4245	2602.575
2995.85758	2604.775
2998.28917	2589.075
3000.71928	2594.575
3003.14791	2588.975
3005.57506	2566.275
3008.00073	2561.975
3010.42493	2492.475
3012.84764	2555.675
3015.26888	2541.775
3017.68865	2545.175
3020.10694	2499.275
3022.52376	2509.675
3024.9391	2521.575
3027.35298	2509.375
3029.76539	2490.775
3032.17632	2500.875
3034.5858	2478.475
3036.9938	2491.475
3039.40034	2478.575
3041.80542	2476.375
3044.20903	2462.275
3046.61118	2456.975
3049.01187	2469.275
3051.4111	2447.175
3053.80888	2440.175
3056.20519	2429.875
3058.60005	2420.875
3060.99345	2447.075
3063.3854	2414.575
3065.7759	2400.375
3068.16494	2406.775
3070.55254	2384.275
3072.93868	2393.975
3075.32338	2374.775
3077.70662	2385.675
3080.08842	2355.875
3082.46878	2360.975
3084.84769	2377.675
3087.22515	2353.275
3089.60118	2366.575
3091.97576	2346.575
3094.3489	2356.875
3096.72061	2346.575
3099.09087	2334.675
3101.4597	2352.975
3103.82709	2333.575
3106.19305	2315.975
3108.55757	2330.975
3110.92066	2322.475
3113.28232	2331.175
3115.64255	2326.575
3118.00134	2313.275
3120.35871	2301.575
3122.71466	2270.875
3125.06917	2286.675
3127.42226	2285.275
3129.77393	2263.575
3132.12417	2275.675
3134.47299	2287.975
3136.82039	2263.875
3139.16636	2228.475
3141.51092	2264.175
3143.85406	2272.175
3146.19579	2254.475
3148.53609	2244.775
3150.87499	2258.475
3153.21246	2247.375
3155.54853	2249.475
3157.88318	2247.375
3160.21642	2254.475
3162.54826	2249.475
3164.87868	2241.675
3167.2077	2204.475
3169.5353	2227.775
3171.86151	2236.175
3174.18631	2217.575
3176.5097	2221.975
3178.83169	2217.375
3181.15228	2215.275
3183.47147	2195.475
3185.78926	2173.275
3188.10565	2194.675
3190.42065	2173.475
3192.73424	2196.675
3195.04645	2169.375
3197.35725	2157.775
3199.66667	2171.175
3201.97469	2166.175
3204.28132	2158.675
3206.58656	2157.375
3208.8904	2167.875
3211.19287	2167.775
3213.49394	2154.175
3215.79363	2155.175
3218.09193	2162.175
3220.38884	2145.275
3222.68438	2152.775
3224.97853	2136.775
3227.2713	2149.575
3229.56269	2137.275
3231.8527	2140.775
3234.14133	2131.175
