Data from AgNPs_UA_5uM_CRN_500uM_SU_RamanShift__259__12-12-33-191.txt Node

Date: Thu Aug 04 12:12:33 BST 2022
User: TCL
Spectrometer: QEP01345
Trigger mode: 4
Integration Time (sec): 1.000000E0
Scans to average: 10
Electric dark correction enabled: true
Nonlinearity correction enabled: false
Boxcar width: 0
XAxis mode: Raman Shifts
Number of Pixels in Spectrum: 1044
>>>>>Begin Spectral Data<<<<<
46.04893	-0.025
50.45542	0.475
54.85868	0.275
59.25871	0.075
63.6555	-58.325
68.04907	-40.325
72.43941	-71.025
76.82654	-57.025
81.21044	-56.725
85.59113	-49.325
89.96862	-75.625
94.34289	-56.725
98.71396	-78.025
103.08183	-59.425
107.4465	-51.125
111.80798	-56.725
116.16626	-43.325
120.52136	-74.225
124.87327	-51.825
129.222	-64.325
133.56755	-50.125
137.90993	-64.625
142.24913	-51.725
146.58517	-44.825
150.91804	-42.825
155.24774	-31.125
159.57429	-11.225
163.89768	-9.125
168.21792	34.075
172.53501	49.075
176.84895	131.475
181.15975	258.975
185.46741	405.975
189.77193	579.375
194.07331	858.875
198.37157	1139.775
202.6667	1402.675
206.9587	1721.975
211.24758	2026.975
215.53334	2335.075
219.81599	2670.675
224.09553	3056.075
228.37195	3491.075
232.64527	3933.175
236.91549	4392.475
241.18261	4730.375
245.44663	5001.775
249.70755	5171.075
253.96539	5292.875
258.22014	5377.275
262.4718	5457.675
266.72039	5507.075
270.96589	5452.875
275.20832	5383.375
279.44768	5262.975
283.68397	5167.975
287.91719	5099.075
292.14735	5144.275
296.37445	5326.675
300.59849	5597.475
304.81948	5938.575
309.03742	6287.475
313.25231	6531.775
317.46415	6508.475
321.67296	6144.575
325.87872	5726.075
330.08145	5551.975
334.28114	5481.475
338.47781	5549.375
342.67145	5681.375
346.86207	5900.375
351.04966	6246.675
355.23424	6612.175
359.4158	6894.475
363.59435	6921.975
367.76989	6860.875
371.94243	6742.975
376.11196	6627.475
380.27849	6537.075
384.44203	6463.275
388.60257	6442.175
392.76012	6452.575
396.91468	6570.775
401.06626	6707.075
405.21485	6750.475
409.36047	6571.975
413.50311	6239.475
417.64277	5984.175
421.77947	5764.675
425.9132	5701.075
430.04396	5699.075
434.17176	5740.875
438.2966	5818.075
442.41849	5892.575
446.53742	5999.275
450.6534	6117.475
454.76644	6184.775
458.87653	6191.275
462.98368	6142.975
467.08789	6086.375
471.18916	5985.775
475.2875	5869.575
479.38291	5772.075
483.4754	5666.575
487.56496	5640.575
491.6516	5587.575
495.73531	5602.375
499.81612	5635.075
503.89401	5738.575
507.96899	5769.675
512.04106	5866.575
516.11023	5955.675
520.1765	6032.775
524.23987	6054.475
528.30034	6060.875
532.35792	5981.675
536.41261	5934.475
540.46441	5841.775
544.51333	5789.975
548.55936	5825.075
552.60252	5964.975
556.64279	6056.575
560.6802	6179.975
564.71473	6295.775
568.7464	6488.875
572.7752	6473.475
576.80114	6152.875
580.82422	5941.375
584.84444	5863.175
588.86181	5823.075
592.87633	5861.075
596.888	5983.875
600.89682	6354.875
604.9028	7286.075
608.90594	9378.375
612.90624	11663.975
616.90371	10844.775
620.89834	7782.075
624.89015	6458.875
628.87913	6245.975
632.86528	6376.275
636.84862	6558.475
640.82913	6424.675
644.80683	6093.075
648.78172	5901.275
652.75379	5915.975
656.72306	6155.075
660.68952	6409.075
664.65319	6303.275
668.61405	6054.875
672.57211	6007.775
676.52738	5992.175
680.47986	5896.175
684.42955	5806.275
688.37646	5749.575
692.32058	5758.675
696.26192	5840.475
700.20048	5934.375
704.13626	5970.075
708.06928	5929.975
711.99952	5917.875
715.927	5864.375
719.85171	5911.675
723.77365	5965.875
727.69284	5936.475
731.60928	5908.875
735.52295	5878.875
739.43388	5936.375
743.34206	5952.475
747.24749	5953.275
751.15017	5981.475
755.05012	6056.475
758.94733	6461.475
762.8418	7289.575
766.73354	8631.375
770.62254	9614.175
774.50882	9735.375
778.39237	9168.575
782.27321	8245.375
786.15132	7205.375
790.02671	6525.175
793.89938	6150.875
797.76935	6037.075
801.6366	5932.975
805.50115	5888.475
809.36299	5878.475
813.22213	5870.975
817.07857	5873.375
820.93231	5874.175
824.78336	5890.875
828.63172	5905.975
832.47738	5916.875
836.32036	5926.375
840.16066	5881.975
843.99827	5852.775
847.8332	5850.975
851.66546	5856.175
855.49504	5858.475
859.32195	5891.075
863.1462	5878.775
866.96777	5881.575
870.78668	5867.175
874.60293	5890.775
878.41652	5927.375
882.22745	5987.675
886.03573	6003.675
889.84136	6011.475
893.64433	6023.975
897.44466	6009.275
901.24235	5981.575
905.0374	5993.375
908.8298	5938.975
912.61957	5889.175
916.40671	5852.175
920.19121	5920.075
923.97308	6019.175
927.75233	6062.075
931.52895	6107.075
935.30295	6096.775
939.07433	5956.275
942.84309	5824.675
946.60924	5784.375
950.37278	5744.075
954.13371	5754.275
957.89203	5750.175
961.64774	5763.975
965.40086	5724.575
969.15137	5711.675
972.89929	5762.075
976.64461	5728.975
980.38733	5766.175
984.12747	5764.775
987.86502	5780.275
991.59999	5787.175
995.33237	5863.575
999.06217	5935.575
1002.78939	6004.375
1006.51404	6132.975
1010.23611	6233.075
1013.95561	6289.075
1017.67255	6293.775
1021.38692	6241.975
1025.09872	6207.275
1028.80796	6111.275
1032.51465	6127.875
1036.21877	6122.175
1039.92035	6160.775
1043.61937	6184.775
1047.31584	6234.875
1051.00976	6284.275
1054.70114	6295.675
1058.38998	6282.475
1062.07627	6293.975
1065.76003	6316.975
1069.44126	6384.275
1073.11995	6471.575
1076.79611	6596.875
1080.46974	6740.575
1084.14085	6905.075
1087.80943	7026.375
1091.47549	7076.975
1095.13903	6974.875
1098.80005	6858.075
1102.45857	6748.775
1106.11456	6736.175
1109.76805	6684.675
1113.41903	6796.075
1117.06751	6983.575
1120.71348	7234.875
1124.35696	7625.275
1127.99793	7883.875
1131.63641	7729.475
1135.2724	7328.175
1138.90589	7032.275
1142.5369	6845.775
1146.16542	6717.075
1149.79145	6608.175
1153.415	6564.775
1157.03607	6566.475
1160.65467	6702.675
1164.27079	6917.875
1167.88443	7143.475
1171.49561	7586.375
1175.10432	8189.775
1178.71056	9088.475
1182.31434	9920.575
1185.91565	10168.075
1189.51451	10046.775
1193.11091	9745.675
1196.70485	9523.875
1200.29634	9270.375
1203.88538	8962.175
1207.47197	8516.375
1211.05612	8041.975
1214.63782	7614.075
1218.21708	7360.875
1221.79391	7206.575
1225.36829	7147.975
1228.94024	7139.075
1232.50976	7157.175
1236.07685	7168.375
1239.6415	7202.975
1243.20374	7220.075
1246.76355	7246.875
1250.32093	7323.475
1253.8759	7395.575
1257.42845	7561.875
1260.97859	7768.575
1264.52631	8007.975
1268.07163	8174.375
1271.61453	8309.575
1275.15503	8344.575
1278.69312	8352.575
1282.22882	8422.075
1285.76211	8620.875
1289.29301	8867.275
1292.82151	9143.475
1296.34761	9336.875
1299.87133	9730.975
1303.39266	10435.575
1306.9116	11591.675
1310.42815	12817.875
1313.94233	13241.075
1317.45412	12453.175
1320.96354	11340.475
1324.47058	10338.875
1327.97525	9574.875
1331.47754	9169.775
1334.97747	9057.275
1338.47502	9175.475
1341.97022	9532.775
1345.46305	10264.875
1348.95352	11368.375
1352.44163	12662.475
1355.92738	14058.475
1359.41078	15753.575
1362.89183	17275.875
1366.37053	16640.475
1369.84688	13813.675
1373.32088	11078.975
1376.79254	9624.175
1380.26186	8959.575
1383.72883	8555.075
1387.19347	8123.775
1390.65578	7780.575
1394.11575	7526.975
1397.57339	7357.475
1401.0287	7259.575
1404.48168	7227.675
1407.93234	7228.475
1411.38068	7241.575
1414.82669	7316.075
1418.27039	7387.275
1421.71177	7411.775
1425.15083	7275.175
1428.58758	7208.575
1432.02203	7228.775
1435.45416	7300.475
1438.88399	7325.275
1442.31151	7304.375
1445.73673	7359.475
1449.15965	7408.575
1452.58027	7417.975
1455.9986	7410.975
1459.41463	7432.075
1462.82837	7532.475
1466.23982	7713.775
1469.64898	7936.175
1473.05586	8070.575
1476.46045	8173.975
1479.86276	8277.775
1483.26279	8349.275
1486.66054	8561.875
1490.05602	8838.775
1493.44922	9408.675
1496.84016	10304.675
1500.22882	11686.875
1503.61521	13425.575
1506.99934	15258.275
1510.38121	16418.975
1513.76081	16277.975
1517.13816	14691.575
1520.51324	12529.775
1523.88607	10852.575
1527.25665	9854.375
1530.62498	9361.975
1533.99105	9156.275
1537.35488	9039.275
1540.71647	8941.375
1544.07581	8801.775
1547.4329	8650.775
1550.78776	8525.075
1554.14038	8427.075
1557.49077	8397.875
1560.83892	8511.475
1564.18484	8728.175
1567.52853	9081.375
1570.86999	9398.475
1574.20922	9545.375
1577.54624	9444.975
1580.88103	8924.975
1584.2136	8233.375
1587.54395	7832.075
1590.87208	7752.875
1594.19801	7911.375
1597.52172	8271.175
1600.84321	8415.375
1604.16251	8269.275
1607.47959	8087.475
1610.79447	7888.575
1614.10715	7617.775
1617.41763	7323.875
1620.7259	7065.875
1624.03199	6889.275
1627.33587	6837.775
1630.63757	6884.275
1633.93707	7104.675
1637.23439	7516.475
1640.52951	8213.975
1643.82246	9162.675
1647.11321	10357.775
1650.40179	11044.375
1653.68819	10748.875
1656.97241	9486.275
1660.25446	8118.375
1663.53433	7098.075
1666.81203	6513.475
1670.08756	6158.275
1673.36092	5987.475
1676.63211	5848.275
1679.90115	5750.575
1683.16801	5674.275
1686.43272	5602.875
1689.69527	5536.675
1692.95567	5486.275
1696.2139	5483.475
1699.46999	5427.975
1702.72392	5443.175
1705.97571	5422.675
1709.22535	5409.475
1712.47284	5448.375
1715.71819	5462.575
1718.96139	5432.775
1722.20246	5423.475
1725.44139	5421.175
1728.67818	5372.275
1731.91284	5329.575
1735.14537	5296.475
1738.37576	5260.975
1741.60403	5238.675
1744.83017	5212.975
1748.05418	5221.175
1751.27607	5232.475
1754.49584	5168.375
1757.71349	5156.775
1760.92903	5145.075
1764.14244	5113.375
1767.35375	5118.975
1770.56294	5089.975
1773.77002	5063.775
1776.97499	5098.975
1780.17785	5054.775
1783.37861	5058.475
1786.57727	5070.375
1789.77382	5002.275
1792.96828	5035.275
1796.16064	5047.875
1799.3509	5025.775
1802.53907	5032.775
1805.72514	5001.975
1808.90913	4967.275
1812.09102	4968.175
1815.27083	4955.275
1818.44856	4947.875
1821.6242	4936.175
1824.79776	4916.875
1827.96924	4916.275
1831.13864	4900.475
1834.30597	4894.075
1837.47122	4874.775
1840.6344	4859.275
1843.7955	4856.375
1846.95454	4847.375
1850.11151	4879.875
1853.26642	4826.975
1856.41926	4834.875
1859.57004	4835.275
1862.71876	4812.275
1865.86542	4825.975
1869.01003	4826.475
1872.15258	4805.975
1875.29308	4826.075
1878.43152	4820.975
1881.56792	4799.275
1884.70227	4766.575
1887.83457	4778.375
1890.96482	4752.275
1894.09304	4749.775
1897.21921	4749.875
1900.34335	4749.175
1903.46544	4726.375
1906.58551	4735.975
1909.70353	4738.775
1912.81953	4726.375
1915.93349	4723.275
1919.04543	4711.175
1922.15534	4682.675
1925.26322	4686.375
1928.36908	4662.075
1931.47292	4679.575
1934.57473	4656.875
1937.67453	4643.075
1940.77232	4608.275
1943.86808	4614.575
1946.96184	4611.575
1950.05358	4581.875
1953.14331	4559.775
1956.23103	4562.275
1959.31675	4549.475
1962.40046	4489.075
1965.48217	4518.875
1968.56188	4514.975
1971.63959	4492.875
1974.7153	4492.575
1977.78901	4475.275
1980.86073	4460.175
1983.93046	4434.775
1986.99819	4358.675
1990.06394	4373.075
1993.1277	4396.375
1996.18947	4381.475
1999.24925	4322.575
2002.30706	4343.175
2005.36288	4335.475
2008.41672	4307.075
2011.46859	4279.275
2014.51848	4281.275
2017.56639	4257.075
2020.61233	4245.075
2023.6563	4239.175
2026.6983	4197.875
2029.73833	4205.975
2032.7764	4209.275
2035.8125	4172.775
2038.84664	4179.875
2041.87881	4155.075
2044.90903	4146.075
2047.93729	4145.575
2050.96359	4129.575
2053.98794	4144.375
2057.01034	4144.675
2060.03078	4126.075
2063.04927	4108.675
2066.06582	4120.375
2069.08042	4104.675
2072.09307	4102.975
2075.10378	4098.675
2078.11255	4085.175
2081.11938	4088.875
2084.12426	4075.475
2087.12722	4070.675
2090.12824	4066.575
2093.12732	4074.375
2096.12447	4073.575
2099.11969	4082.875
2102.11299	4058.175
2105.10435	4077.775
2108.09379	4079.275
2111.08131	4069.175
2114.0669	4069.075
2117.05057	4073.675
2120.03233	4066.775
2123.01216	4091.575
2125.99008	4088.975
2128.96609	4081.075
2131.94018	4093.975
2134.91236	4084.275
2137.88263	4077.075
2140.851	4089.375
2143.81746	4101.575
2146.78201	4080.775
2149.74466	4071.275
2152.7054	4101.075
2155.66425	4083.175
2158.6212	4069.075
2161.57625	4048.775
2164.52941	4029.475
2167.48067	4036.175
2170.43004	4025.675
2173.37752	4061.475
2176.32311	4033.475
2179.26681	4049.575
2182.20863	4046.775
2185.14856	4026.875
2188.08661	4023.775
2191.02278	4039.475
2193.95707	4021.675
2196.88948	4005.875
2199.82001	4019.575
2202.74867	4005.375
2205.67545	4017.675
2208.60037	4021.775
2211.52341	4003.375
2214.44458	3986.275
2217.36388	3988.575
2220.28132	3970.975
2223.1969	3928.875
2226.11061	3948.475
2229.02246	3928.375
2231.93245	3953.375
2234.84058	3908.375
2237.74686	3905.275
2240.65128	3896.475
2243.55385	3897.775
2246.45456	3870.775
2249.35343	3893.175
2252.25044	3883.875
2255.14561	3884.675
2258.03893	3882.175
2260.93041	3871.275
2263.82004	3859.875
2266.70783	3855.275
2269.59378	3835.575
2272.4779	3822.075
2275.36017	3840.675
2278.24061	3803.975
2281.11922	3764.075
2283.996	3795.375
2286.87094	3784.375
2289.74405	3770.675
2292.61534	3777.275
2295.4848	3760.875
2298.35243	3757.075
2301.21824	3739.775
2304.08223	3740.875
2306.94439	3753.975
2309.80474	3750.875
2312.66327	3744.575
2315.51999	3716.675
2318.37489	3728.675
2321.22797	3703.175
2324.07925	3693.175
2326.92871	3712.475
2329.77637	3670.975
2332.62222	3667.575
2335.46626	3654.075
2338.3085	3653.275
2341.14893	3671.275
2343.98756	3683.675
2346.8244	3655.575
2349.65943	3641.575
2352.49267	3647.775
2355.32411	3646.675
2358.15376	3646.375
2360.98161	3651.775
2363.80768	3636.075
2366.63195	3654.075
2369.45444	3647.975
2372.27514	3657.875
2375.09405	3646.875
2377.91118	3621.575
2380.72652	3606.175
2383.54009	3612.475
2386.35187	3610.175
2389.16188	3587.075
2391.97011	3588.475
2394.77657	3581.775
2397.58125	3559.975
2400.38416	3559.175
2403.18529	3537.275
2405.98466	3529.375
2408.78226	3536.275
2411.57809	3519.375
2414.37216	3514.175
2417.16446	3512.375
2419.955	3487.075
2422.74378	3510.875
2425.5308	3475.975
2428.31606	3496.075
2431.09956	3497.975
2433.88131	3478.575
2436.6613	3480.175
2439.43954	3471.975
2442.21603	3468.875
2444.99077	3458.775
2447.76377	3474.075
2450.53501	3456.575
2453.30451	3443.575
2456.07226	3463.275
2458.83827	3446.875
2461.60254	3404.275
2464.36507	3447.575
2467.12586	3432.675
2469.88492	3418.075
2472.64224	3420.975
2475.39782	3411.775
2478.15167	3416.275
2480.90379	3412.175
2483.65417	3431.975
2486.40283	3435.175
2489.14976	3446.675
2491.89497	3424.175
2494.63845	3434.675
2497.3802	3412.075
2500.12024	3400.375
2502.85855	3398.175
2505.59514	3394.375
2508.33002	3392.075
2511.06318	3357.275
2513.79462	3375.175
2516.52435	3336.975
2519.25237	3313.775
2521.97867	3303.875
2524.70327	3310.975
2527.42616	3321.375
2530.14734	3332.275
2532.86681	3295.875
2535.58458	3301.375
2538.30065	3287.275
2541.01501	3308.875
2543.72768	3283.475
2546.43864	3295.275
2549.14791	3282.475
2551.85548	3262.575
2554.56136	3251.275
2557.26554	3256.275
2559.96803	3259.875
2562.66883	3255.975
2565.36794	3238.175
2568.06536	3207.575
2570.7611	3227.575
2573.45514	3217.375
2576.14751	3196.875
2578.83819	3187.875
2581.52719	3182.675
2584.21451	3190.575
2586.90015	3165.175
2589.58411	3150.375
2592.2664	3170.575
2594.94701	3159.675
2597.62594	3172.575
2600.30321	3097.175
2602.9788	3108.375
2605.65273	3118.175
2608.32498	3117.975
2610.99557	3136.475
2613.66449	3107.875
2616.33175	3118.775
2618.99734	3109.975
2621.66128	3108.675
2624.32355	3096.475
2626.98416	3088.375
2629.64311	3081.175
2632.30041	3079.175
2634.95605	3044.875
2637.61004	3044.675
2640.26238	3031.175
2642.91306	3029.875
2645.56209	3046.075
2648.20948	3049.475
2650.85521	3031.175
2653.4993	3047.975
2656.14175	3035.175
2658.78255	3017.975
2661.42171	2994.775
2664.05923	3038.275
2666.6951	3043.675
2669.32934	3032.875
2671.96194	3056.375
2674.59291	3038.575
2677.22224	3045.775
2679.84993	3033.375
2682.476	3041.675
2685.10043	3022.775
2687.72324	2992.575
2690.34441	3016.875
2692.96396	3008.975
2695.58188	3043.375
2698.19818	3013.375
2700.81285	3002.075
2703.4259	2996.375
2706.03733	2977.475
2708.64714	2973.475
2711.25533	2999.475
2713.86191	3005.675
2716.46687	3005.075
2719.07021	2995.775
2721.67194	2997.475
2724.27206	3012.075
2726.87057	2990.075
2729.46747	2988.175
2732.06276	2990.275
2734.65644	2965.175
2737.24852	2961.975
2739.83899	2964.075
2742.42786	2964.575
2745.01513	2984.375
2747.60079	2965.875
2750.18486	2929.775
2752.76733	2949.675
2755.3482	2942.975
2757.92747	2945.275
2760.50515	2922.175
2763.08123	2913.675
2765.65573	2919.475
2768.22863	2895.175
2770.79994	2886.275
2773.36967	2876.475
2775.9378	2892.075
2778.50435	2882.975
2781.06932	2870.375
2783.6327	2867.875
2786.1945	2895.575
2788.75471	2859.175
2791.31335	2857.975
2793.87041	2854.175
2796.42589	2837.875
2798.97979	2831.775
2801.53212	2836.075
2804.08288	2845.175
2806.63206	2835.775
2809.17967	2818.875
2811.72571	2821.975
2814.27018	2814.775
2816.81308	2808.475
2819.35442	2771.975
2821.89419	2792.975
2824.43239	2777.475
2826.96904	2813.875
2829.50412	2779.875
2832.03763	2782.675
2834.56959	2786.475
2837.1	2774.275
2839.62884	2763.675
2842.15613	2772.475
2844.68186	2781.075
2847.20604	2748.175
2849.72867	2743.375
2852.24974	2748.275
2854.76927	2727.775
2857.28724	2674.275
2859.80367	2740.775
2862.31855	2753.975
2864.83189	2722.975
2867.34368	2741.775
2869.85393	2745.375
2872.36264	2717.675
2874.8698	2721.275
2877.37543	2725.975
2879.87952	2722.275
2882.38207	2697.075
2884.88308	2708.275
2887.38256	2700.575
2889.88051	2705.275
2892.37692	2699.475
2894.8718	2687.275
2897.36515	2701.075
2899.85698	2704.575
2902.34727	2689.475
2904.83604	2690.475
2907.32328	2713.875
2909.809	2706.075
2912.29319	2712.875
2914.77587	2712.575
2917.25702	2716.075
2919.73665	2737.275
2922.21476	2720.875
2924.69136	2719.875
2927.16644	2703.075
2929.64	2707.775
2932.11205	2684.875
2934.58258	2694.975
2937.05161	2678.175
2939.51912	2678.275
2941.98513	2714.775
2944.44962	2679.675
2946.91261	2655.275
2949.37409	2659.875
2951.83407	2656.575
2954.29254	2649.775
2956.74951	2644.975
2959.20498	2632.975
2961.65895	2630.475
2964.11142	2626.275
2966.56239	2621.575
2969.01186	2631.975
2971.45984	2625.775
2973.90632	2611.475
2976.35131	2622.075
2978.7948	2617.775
2981.23681	2594.175
2983.67732	2606.775
2986.11635	2600.375
2988.55388	2567.275
2990.98993	2575.675
2993.4245	2565.775
2995.85758	2560.875
2998.28917	2560.575
3000.71928	2536.975
3003.14791	2537.075
3005.57506	2515.175
3008.00073	2517.175
3010.42493	2461.975
3012.84764	2511.675
3015.26888	2507.375
3017.68865	2507.775
3020.10694	2464.175
3022.52376	2467.975
3024.9391	2481.175
3027.35298	2457.375
3029.76539	2449.075
3032.17632	2452.575
3034.5858	2434.275
3036.9938	2450.375
3039.40034	2434.475
3041.80542	2419.575
3044.20903	2405.075
3046.61118	2406.975
3049.01187	2427.875
3051.4111	2403.475
3053.80888	2393.675
3056.20519	2383.675
3058.60005	2376.675
3060.99345	2406.175
3063.3854	2373.375
3065.7759	2358.575
3068.16494	2346.175
3070.55254	2350.575
3072.93868	2355.175
3075.32338	2348.275
3077.70662	2332.975
3080.08842	2325.175
3082.46878	2311.875
3084.84769	2334.675
3087.22515	2311.375
3089.60118	2314.975
3091.97576	2304.575
3094.3489	2313.875
3096.72061	2314.975
3099.09087	2295.375
3101.4597	2305.575
3103.82709	2292.675
3106.19305	2281.475
3108.55757	2289.675
3110.92066	2282.575
3113.28232	2279.675
3115.64255	2281.975
3118.00134	2275.675
3120.35871	2247.075
3122.71466	2236.275
3125.06917	2235.375
3127.42226	2242.875
3129.77393	2224.475
3132.12417	2229.375
3134.47299	2249.275
3136.82039	2221.575
3139.16636	2198.875
3141.51092	2225.575
3143.85406	2225.675
3146.19579	2211.075
3148.53609	2205.375
3150.87499	2209.075
3153.21246	2194.875
3155.54853	2218.975
3157.88318	2206.075
3160.21642	2210.575
3162.54826	2198.675
3164.87868	2199.775
3167.2077	2161.675
3169.5353	2188.875
3171.86151	2195.275
3174.18631	2183.475
3176.5097	2183.675
3178.83169	2177.775
3181.15228	2184.175
3183.47147	2149.875
3185.78926	2130.175
3188.10565	2143.475
3190.42065	2132.975
3192.73424	2137.475
3195.04645	2136.475
3197.35725	2113.475
3199.66667	2130.075
3201.97469	2135.775
3204.28132	2118.075
3206.58656	2130.875
3208.8904	2134.575
3211.19287	2124.575
3213.49394	2112.075
3215.79363	2112.275
3218.09193	2116.975
3220.38884	2112.275
3222.68438	2110.475
3224.97853	2090.475
3227.2713	2112.875
3229.56269	2093.975
3231.8527	2097.175
3234.14133	2082.175
