Data from AgNPs_UA_5uM_CRN_500uM_SU_RamanShift__254__12-11-43-190.txt Node

Date: Thu Aug 04 12:11:43 BST 2022
User: TCL
Spectrometer: QEP01345
Trigger mode: 4
Integration Time (sec): 1.000000E0
Scans to average: 10
Electric dark correction enabled: true
Nonlinearity correction enabled: false
Boxcar width: 0
XAxis mode: Raman Shifts
Number of Pixels in Spectrum: 1044
>>>>>Begin Spectral Data<<<<<
46.04893	0.1125
50.45542	-0.9875
54.85868	1.3125
59.25871	-0.5875
63.6555	-58.1875
68.04907	-39.7875
72.43941	-71.7875
76.82654	-57.4875
81.21044	-55.8875
85.59113	-49.0875
89.96862	-74.5875
94.34289	-57.7875
98.71396	-80.3875
103.08183	-58.1875
107.4465	-52.1875
111.80798	-56.3875
116.16626	-44.7875
120.52136	-75.0875
124.87327	-51.4875
129.222	-63.9875
133.56755	-51.0875
137.90993	-64.4875
142.24913	-52.3875
146.58517	-44.4875
150.91804	-43.1875
155.24774	-30.6875
159.57429	-10.7875
163.89768	-10.4875
168.21792	34.0125
172.53501	52.9125
176.84895	133.8125
181.15975	258.0125
185.46741	408.0125
189.77193	580.4125
194.07331	868.9125
198.37157	1144.9125
202.6667	1424.4125
206.9587	1740.0125
211.24758	2026.4125
215.53334	2350.8125
219.81599	2699.3125
224.09553	3106.8125
228.37195	3536.8125
232.64527	3982.2125
236.91549	4437.9125
241.18261	4786.6125
245.44663	5056.9125
249.70755	5202.2125
253.96539	5336.5125
258.22014	5441.0125
262.4718	5519.3125
266.72039	5558.0125
270.96589	5528.9125
275.20832	5427.0125
279.44768	5332.5125
283.68397	5222.6125
287.91719	5174.5125
292.14735	5218.5125
296.37445	5376.7125
300.59849	5659.9125
304.81948	5996.7125
309.03742	6363.6125
313.25231	6610.7125
317.46415	6565.4125
321.67296	6192.4125
325.87872	5794.9125
330.08145	5585.4125
334.28114	5542.8125
338.47781	5605.5125
342.67145	5724.7125
346.86207	5953.3125
351.04966	6322.6125
355.23424	6695.8125
359.4158	6973.2125
363.59435	6989.2125
367.76989	6909.2125
371.94243	6801.9125
376.11196	6689.4125
380.27849	6612.5125
384.44203	6528.4125
388.60257	6491.0125
392.76012	6521.6125
396.91468	6626.9125
401.06626	6772.9125
405.21485	6815.0125
409.36047	6638.7125
413.50311	6350.6125
417.64277	6049.1125
421.77947	5849.5125
425.9132	5777.5125
430.04396	5758.5125
434.17176	5798.9125
438.2966	5874.5125
442.41849	5971.1125
446.53742	6072.2125
450.6534	6185.8125
454.76644	6256.8125
458.87653	6250.8125
462.98368	6217.4125
467.08789	6148.0125
471.18916	6060.6125
475.2875	5951.6125
479.38291	5825.2125
483.4754	5741.1125
487.56496	5710.8125
491.6516	5648.8125
495.73531	5672.4125
499.81612	5707.7125
503.89401	5788.1125
507.96899	5843.9125
512.04106	5923.9125
516.11023	6028.3125
520.1765	6105.0125
524.23987	6144.4125
528.30034	6118.8125
532.35792	6047.9125
536.41261	5989.5125
540.46441	5901.8125
544.51333	5842.7125
548.55936	5890.6125
552.60252	6032.9125
556.64279	6119.8125
560.6802	6217.2125
564.71473	6361.0125
568.7464	6553.3125
572.7752	6539.3125
576.80114	6242.0125
580.82422	6015.1125
584.84444	5906.5125
588.86181	5904.7125
592.87633	5935.1125
596.888	6040.5125
600.89682	6420.7125
604.9028	7364.3125
608.90594	9442.7125
612.90624	11765.9125
616.90371	10894.1125
620.89834	7845.0125
624.89015	6514.5125
628.87913	6302.7125
632.86528	6455.2125
636.84862	6628.7125
640.82913	6482.8125
644.80683	6150.3125
648.78172	5962.3125
652.75379	5990.2125
656.72306	6212.8125
660.68952	6455.7125
664.65319	6394.0125
668.61405	6130.5125
672.57211	6067.4125
676.52738	6065.8125
680.47986	5973.8125
684.42955	5882.7125
688.37646	5830.6125
692.32058	5834.5125
696.26192	5883.3125
700.20048	6000.9125
704.13626	6028.4125
708.06928	5994.5125
711.99952	5972.4125
715.927	5943.5125
719.85171	5986.7125
723.77365	6018.6125
727.69284	5994.8125
731.60928	5967.2125
735.52295	5953.8125
739.43388	5990.6125
743.34206	6006.6125
747.24749	6039.3125
751.15017	6043.5125
755.05012	6137.7125
758.94733	6508.8125
762.8418	7359.2125
766.73354	8704.2125
770.62254	9720.4125
774.50882	9803.4125
778.39237	9255.7125
782.27321	8332.7125
786.15132	7274.7125
790.02671	6605.2125
793.89938	6219.6125
797.76935	6092.7125
801.6366	6007.8125
805.50115	5957.1125
809.36299	5962.1125
813.22213	5912.1125
817.07857	5918.3125
820.93231	5930.4125
824.78336	5953.5125
828.63172	5975.4125
832.47738	5982.2125
836.32036	5978.6125
840.16066	5926.3125
843.99827	5938.4125
847.8332	5907.3125
851.66546	5923.6125
855.49504	5920.2125
859.32195	5972.4125
863.1462	5941.6125
866.96777	5942.6125
870.78668	5929.9125
874.60293	5953.3125
878.41652	5972.9125
882.22745	6032.9125
886.03573	6074.6125
889.84136	6070.5125
893.64433	6072.4125
897.44466	6065.7125
901.24235	6053.0125
905.0374	6050.1125
908.8298	5984.4125
912.61957	5974.8125
916.40671	5922.7125
920.19121	5970.1125
923.97308	6071.3125
927.75233	6120.5125
931.52895	6168.2125
935.30295	6145.6125
939.07433	6002.6125
942.84309	5882.0125
946.60924	5848.8125
950.37278	5812.2125
954.13371	5799.5125
957.89203	5803.0125
961.64774	5825.4125
965.40086	5800.4125
969.15137	5775.7125
972.89929	5836.9125
976.64461	5809.1125
980.38733	5839.3125
984.12747	5825.0125
987.86502	5829.8125
991.59999	5859.5125
995.33237	5934.5125
999.06217	5993.9125
1002.78939	6081.6125
1006.51404	6206.8125
1010.23611	6305.2125
1013.95561	6365.0125
1017.67255	6378.5125
1021.38692	6325.8125
1025.09872	6272.2125
1028.80796	6175.5125
1032.51465	6192.3125
1036.21877	6183.6125
1039.92035	6220.9125
1043.61937	6270.6125
1047.31584	6307.4125
1051.00976	6340.9125
1054.70114	6359.1125
1058.38998	6353.3125
1062.07627	6348.3125
1065.76003	6366.5125
1069.44126	6447.0125
1073.11995	6525.0125
1076.79611	6666.3125
1080.46974	6813.6125
1084.14085	6979.1125
1087.80943	7111.1125
1091.47549	7150.1125
1095.13903	7060.2125
1098.80005	6935.9125
1102.45857	6836.4125
1106.11456	6807.1125
1109.76805	6747.3125
1113.41903	6872.7125
1117.06751	7060.2125
1120.71348	7306.6125
1124.35696	7682.2125
1127.99793	7947.8125
1131.63641	7812.5125
1135.2724	7405.2125
1138.90589	7099.7125
1142.5369	6898.3125
1146.16542	6785.5125
1149.79145	6682.3125
1153.415	6651.3125
1157.03607	6648.1125
1160.65467	6736.3125
1164.27079	6934.7125
1167.88443	7216.3125
1171.49561	7631.8125
1175.10432	8282.7125
1178.71056	9165.1125
1182.31434	9971.3125
1185.91565	10251.7125
1189.51451	10080.7125
1193.11091	9839.9125
1196.70485	9587.1125
1200.29634	9324.8125
1203.88538	9058.1125
1207.47197	8589.1125
1211.05612	8101.8125
1214.63782	7668.9125
1218.21708	7426.8125
1221.79391	7311.6125
1225.36829	7214.6125
1228.94024	7209.1125
1232.50976	7233.2125
1236.07685	7254.5125
1239.6415	7261.0125
1243.20374	7300.8125
1246.76355	7327.6125
1250.32093	7408.2125
1253.8759	7467.7125
1257.42845	7639.1125
1260.97859	7846.5125
1264.52631	8087.8125
1268.07163	8246.9125
1271.61453	8383.7125
1275.15503	8435.1125
1278.69312	8434.3125
1282.22882	8502.1125
1285.76211	8696.5125
1289.29301	8947.2125
1292.82151	9202.6125
1296.34761	9436.0125
1299.87133	9850.1125
1303.39266	10522.5125
1306.9116	11660.3125
1310.42815	12914.7125
1313.94233	13332.2125
1317.45412	12577.8125
1320.96354	11437.0125
1324.47058	10409.3125
1327.97525	9652.6125
1331.47754	9264.8125
1334.97747	9137.8125
1338.47502	9262.3125
1341.97022	9608.2125
1345.46305	10336.7125
1348.95352	11437.0125
1352.44163	12753.6125
1355.92738	14140.5125
1359.41078	15829.6125
1362.89183	17380.7125
1366.37053	16764.3125
1369.84688	13918.5125
1373.32088	11191.3125
1376.79254	9730.9125
1380.26186	9034.7125
1383.72883	8605.0125
1387.19347	8219.2125
1390.65578	7861.6125
1394.11575	7609.3125
1397.57339	7428.7125
1401.0287	7312.3125
1404.48168	7286.0125
1407.93234	7301.5125
1411.38068	7304.6125
1414.82669	7384.5125
1418.27039	7464.3125
1421.71177	7459.9125
1425.15083	7370.9125
1428.58758	7276.3125
1432.02203	7293.5125
1435.45416	7390.7125
1438.88399	7389.5125
1442.31151	7362.7125
1445.73673	7432.3125
1449.15965	7482.7125
1452.58027	7503.4125
1455.9986	7495.1125
1459.41463	7514.8125
1462.82837	7610.9125
1466.23982	7779.1125
1469.64898	8018.6125
1473.05586	8160.3125
1476.46045	8258.8125
1479.86276	8348.1125
1483.26279	8461.7125
1486.66054	8646.3125
1490.05602	8932.0125
1493.44922	9505.0125
1496.84016	10388.6125
1500.22882	11760.3125
1503.61521	13532.0125
1506.99934	15345.9125
1510.38121	16565.8125
1513.76081	16379.4125
1517.13816	14808.4125
1520.51324	12627.8125
1523.88607	10933.5125
1527.25665	9939.5125
1530.62498	9430.3125
1533.99105	9237.7125
1537.35488	9099.0125
1540.71647	9015.3125
1544.07581	8891.6125
1547.4329	8730.3125
1550.78776	8597.0125
1554.14038	8504.4125
1557.49077	8480.2125
1560.83892	8562.1125
1564.18484	8806.4125
1567.52853	9124.0125
1570.86999	9463.9125
1574.20922	9628.2125
1577.54624	9530.2125
1580.88103	8976.8125
1584.2136	8307.2125
1587.54395	7914.8125
1590.87208	7824.6125
1594.19801	8000.9125
1597.52172	8349.1125
1600.84321	8509.5125
1604.16251	8358.7125
1607.47959	8161.7125
1610.79447	7950.8125
1614.10715	7692.1125
1617.41763	7409.4125
1620.7259	7139.8125
1624.03199	6970.3125
1627.33587	6911.9125
1630.63757	6927.1125
1633.93707	7179.3125
1637.23439	7588.3125
1640.52951	8284.1125
1643.82246	9263.0125
1647.11321	10398.1125
1650.40179	11162.1125
1653.68819	10812.9125
1656.97241	9585.9125
1660.25446	8190.8125
1663.53433	7163.4125
1666.81203	6564.6125
1670.08756	6217.2125
1673.36092	6049.7125
1676.63211	5891.3125
1679.90115	5818.7125
1683.16801	5715.4125
1686.43272	5648.7125
1689.69527	5599.0125
1692.95567	5554.1125
1696.2139	5531.4125
1699.46999	5482.4125
1702.72392	5463.6125
1705.97571	5482.3125
1709.22535	5475.0125
1712.47284	5499.2125
1715.71819	5513.5125
1718.96139	5498.8125
1722.20246	5475.0125
1725.44139	5456.4125
1728.67818	5426.7125
1731.91284	5376.4125
1735.14537	5347.2125
1738.37576	5314.5125
1741.60403	5282.9125
1744.83017	5264.6125
1748.05418	5263.7125
1751.27607	5286.2125
1754.49584	5225.9125
1757.71349	5196.7125
1760.92903	5202.8125
1764.14244	5160.3125
1767.35375	5152.9125
1770.56294	5129.2125
1773.77002	5120.1125
1776.97499	5134.2125
1780.17785	5114.2125
1783.37861	5101.7125
1786.57727	5121.9125
1789.77382	5053.7125
1792.96828	5098.9125
1796.16064	5081.0125
1799.3509	5085.4125
1802.53907	5081.6125
1805.72514	5044.5125
1808.90913	5020.0125
1812.09102	5031.0125
1815.27083	5025.7125
1818.44856	4978.8125
1821.6242	4990.2125
1824.79776	4971.6125
1827.96924	4953.4125
1831.13864	4935.0125
1834.30597	4946.7125
1837.47122	4940.2125
1840.6344	4917.9125
1843.7955	4907.4125
1846.95454	4909.8125
1850.11151	4915.8125
1853.26642	4883.6125
1856.41926	4881.8125
1859.57004	4886.1125
1862.71876	4879.7125
1865.86542	4880.5125
1869.01003	4868.0125
1872.15258	4844.1125
1875.29308	4859.0125
1878.43152	4889.7125
1881.56792	4842.5125
1884.70227	4822.9125
1887.83457	4828.1125
1890.96482	4800.9125
1894.09304	4797.2125
1897.21921	4792.1125
1900.34335	4807.5125
1903.46544	4779.5125
1906.58551	4808.5125
1909.70353	4782.5125
1912.81953	4771.4125
1915.93349	4758.1125
1919.04543	4751.3125
1922.15534	4732.9125
1925.26322	4729.8125
1928.36908	4722.9125
1931.47292	4706.1125
1934.57473	4741.0125
1937.67453	4694.1125
1940.77232	4679.1125
1943.86808	4661.5125
1946.96184	4646.6125
1950.05358	4628.6125
1953.14331	4611.9125
1956.23103	4626.8125
1959.31675	4576.2125
1962.40046	4532.7125
1965.48217	4554.3125
1968.56188	4557.4125
1971.63959	4537.2125
1974.7153	4545.3125
1977.78901	4535.8125
1980.86073	4513.9125
1983.93046	4466.3125
1986.99819	4409.7125
1990.06394	4423.5125
1993.1277	4436.1125
1996.18947	4423.9125
1999.24925	4378.5125
2002.30706	4386.5125
2005.36288	4373.3125
2008.41672	4360.5125
2011.46859	4323.5125
2014.51848	4326.7125
2017.56639	4309.5125
2020.61233	4289.9125
2023.6563	4281.0125
2026.6983	4244.3125
2029.73833	4239.7125
2032.7764	4264.2125
2035.8125	4208.4125
2038.84664	4210.1125
2041.87881	4187.2125
2044.90903	4198.5125
2047.93729	4201.8125
2050.96359	4173.2125
2053.98794	4177.8125
2057.01034	4195.6125
2060.03078	4160.3125
2063.04927	4151.6125
2066.06582	4156.2125
2069.08042	4148.5125
2072.09307	4136.7125
2075.10378	4129.9125
2078.11255	4140.5125
2081.11938	4127.8125
2084.12426	4118.8125
2087.12722	4124.5125
2090.12824	4107.1125
2093.12732	4124.3125
2096.12447	4130.4125
2099.11969	4119.2125
2102.11299	4107.6125
2105.10435	4133.1125
2108.09379	4114.8125
2111.08131	4112.6125
2114.0669	4125.3125
2117.05057	4111.5125
2120.03233	4102.6125
2123.01216	4129.5125
2125.99008	4132.3125
2128.96609	4124.7125
2131.94018	4150.0125
2134.91236	4144.9125
2137.88263	4127.3125
2140.851	4124.1125
2143.81746	4137.0125
2146.78201	4130.5125
2149.74466	4126.4125
2152.7054	4123.5125
2155.66425	4114.1125
2158.6212	4119.4125
2161.57625	4081.0125
2164.52941	4067.0125
2167.48067	4091.1125
2170.43004	4062.2125
2173.37752	4086.4125
2176.32311	4081.1125
2179.26681	4079.0125
2182.20863	4087.2125
2185.14856	4078.2125
2188.08661	4087.0125
2191.02278	4088.3125
2193.95707	4060.9125
2196.88948	4057.0125
2199.82001	4079.7125
2202.74867	4057.2125
2205.67545	4057.7125
2208.60037	4054.6125
2211.52341	4046.4125
2214.44458	4031.3125
2217.36388	4023.7125
2220.28132	4014.8125
2223.1969	3979.1125
2226.11061	3997.8125
2229.02246	3966.2125
2231.93245	3961.0125
2234.84058	3955.3125
2237.74686	3944.3125
2240.65128	3933.8125
2243.55385	3947.3125
2246.45456	3918.2125
2249.35343	3944.4125
2252.25044	3928.5125
2255.14561	3936.0125
2258.03893	3930.9125
2260.93041	3914.9125
2263.82004	3900.5125
2266.70783	3905.6125
2269.59378	3866.5125
2272.4779	3861.8125
2275.36017	3872.7125
2278.24061	3855.8125
2281.11922	3822.6125
2283.996	3829.1125
2286.87094	3817.4125
2289.74405	3820.8125
2292.61534	3820.6125
2295.4848	3806.8125
2298.35243	3799.9125
2301.21824	3791.5125
2304.08223	3779.0125
2306.94439	3785.8125
2309.80474	3800.6125
2312.66327	3787.7125
2315.51999	3780.4125
2318.37489	3774.4125
2321.22797	3749.6125
2324.07925	3737.2125
2326.92871	3734.1125
2329.77637	3723.9125
2332.62222	3717.2125
2335.46626	3696.4125
2338.3085	3689.7125
2341.14893	3709.4125
2343.98756	3718.9125
2346.8244	3702.3125
2349.65943	3667.0125
2352.49267	3690.4125
2355.32411	3688.1125
2358.15376	3692.2125
2360.98161	3696.9125
2363.80768	3656.8125
2366.63195	3686.6125
2369.45444	3689.4125
2372.27514	3686.0125
2375.09405	3700.8125
2377.91118	3656.2125
2380.72652	3650.3125
2383.54009	3654.3125
2386.35187	3652.2125
2389.16188	3621.4125
2391.97011	3612.7125
2394.77657	3604.4125
2397.58125	3605.9125
2400.38416	3596.2125
2403.18529	3581.0125
2405.98466	3562.2125
2408.78226	3579.1125
2411.57809	3546.3125
2414.37216	3550.6125
2417.16446	3550.0125
2419.955	3521.7125
2422.74378	3546.6125
2425.5308	3521.9125
2428.31606	3529.0125
2431.09956	3536.6125
2433.88131	3504.8125
2436.6613	3529.5125
2439.43954	3516.8125
2442.21603	3511.8125
2444.99077	3491.1125
2447.76377	3514.1125
2450.53501	3483.5125
2453.30451	3494.9125
2456.07226	3494.9125
2458.83827	3481.5125
2461.60254	3449.3125
2464.36507	3476.4125
2467.12586	3458.2125
2469.88492	3457.0125
2472.64224	3463.7125
2475.39782	3461.5125
2478.15167	3464.9125
2480.90379	3442.0125
2483.65417	3470.7125
2486.40283	3465.3125
2489.14976	3489.8125
2491.89497	3461.0125
2494.63845	3461.9125
2497.3802	3444.2125
2500.12024	3445.8125
2502.85855	3439.9125
2505.59514	3436.9125
2508.33002	3419.5125
2511.06318	3416.7125
2513.79462	3407.0125
2516.52435	3356.9125
2519.25237	3358.6125
2521.97867	3352.1125
2524.70327	3356.1125
2527.42616	3364.5125
2530.14734	3358.7125
2532.86681	3342.0125
2535.58458	3347.2125
2538.30065	3333.1125
2541.01501	3344.7125
2543.72768	3325.6125
2546.43864	3327.0125
2549.14791	3306.7125
2551.85548	3306.6125
2554.56136	3301.2125
2557.26554	3308.9125
2559.96803	3297.2125
2562.66883	3304.0125
2565.36794	3271.7125
2568.06536	3246.7125
2570.7611	3274.8125
2573.45514	3260.7125
2576.14751	3239.7125
2578.83819	3232.1125
2581.52719	3224.3125
2584.21451	3229.6125
2586.90015	3206.5125
2589.58411	3184.8125
2592.2664	3201.4125
2594.94701	3199.4125
2597.62594	3201.8125
2600.30321	3146.3125
2602.9788	3156.8125
2605.65273	3144.5125
2608.32498	3158.1125
2610.99557	3178.7125
2613.66449	3134.0125
2616.33175	3149.7125
2618.99734	3161.9125
2621.66128	3155.0125
2624.32355	3131.5125
2626.98416	3117.8125
2629.64311	3115.0125
2632.30041	3104.7125
2634.95605	3083.2125
2637.61004	3083.8125
2640.26238	3060.1125
2642.91306	3067.7125
2645.56209	3098.8125
2648.20948	3081.8125
2650.85521	3067.0125
2653.4993	3080.1125
2656.14175	3060.6125
2658.78255	3060.3125
2661.42171	3035.9125
2664.05923	3074.0125
2666.6951	3082.4125
2669.32934	3067.6125
2671.96194	3091.8125
2674.59291	3069.5125
2677.22224	3069.6125
2679.84993	3080.9125
2682.476	3063.1125
2685.10043	3059.0125
2687.72324	3049.8125
2690.34441	3041.6125
2692.96396	3025.5125
2695.58188	3053.9125
2698.19818	3059.0125
2700.81285	3045.0125
2703.4259	3027.7125
2706.03733	2995.6125
2708.64714	3009.4125
2711.25533	3023.4125
2713.86191	3031.2125
2716.46687	3030.3125
2719.07021	3040.6125
2721.67194	3018.2125
2724.27206	3043.4125
2726.87057	3014.7125
2729.46747	3006.1125
2732.06276	3019.9125
2734.65644	2997.5125
2737.24852	3006.4125
2739.83899	2980.7125
2742.42786	2993.0125
2745.01513	3003.9125
2747.60079	2990.8125
2750.18486	2966.3125
2752.76733	2976.1125
2755.3482	2974.0125
2757.92747	2973.8125
2760.50515	2951.0125
2763.08123	2955.1125
2765.65573	2932.5125
2768.22863	2936.1125
2770.79994	2927.4125
2773.36967	2913.6125
2775.9378	2923.1125
2778.50435	2917.2125
2781.06932	2903.3125
2783.6327	2911.7125
2786.1945	2919.6125
2788.75471	2910.6125
2791.31335	2891.4125
2793.87041	2897.1125
2796.42589	2862.9125
2798.97979	2863.9125
2801.53212	2865.6125
2804.08288	2888.4125
2806.63206	2875.5125
2809.17967	2851.7125
2811.72571	2860.3125
2814.27018	2867.8125
2816.81308	2835.0125
2819.35442	2816.8125
2821.89419	2823.7125
2824.43239	2809.7125
2826.96904	2827.2125
2829.50412	2813.9125
2832.03763	2816.3125
2834.56959	2825.1125
2837.1	2802.1125
2839.62884	2807.4125
2842.15613	2806.7125
2844.68186	2796.0125
2847.20604	2787.3125
2849.72867	2776.4125
2852.24974	2783.1125
2854.76927	2754.4125
2857.28724	2714.2125
2859.80367	2777.7125
2862.31855	2780.9125
2864.83189	2767.5125
2867.34368	2770.9125
2869.85393	2778.7125
2872.36264	2752.2125
2874.8698	2755.8125
2877.37543	2759.9125
2879.87952	2745.3125
2882.38207	2734.1125
2884.88308	2738.5125
2887.38256	2736.1125
2889.88051	2722.5125
2892.37692	2727.3125
2894.8718	2710.2125
2897.36515	2731.0125
2899.85698	2727.8125
2902.34727	2718.4125
2904.83604	2726.3125
2907.32328	2732.9125
2909.809	2728.9125
2912.29319	2738.3125
2914.77587	2748.6125
2917.25702	2755.7125
2919.73665	2760.6125
2922.21476	2758.6125
2924.69136	2761.2125
2927.16644	2730.6125
2929.64	2737.6125
2932.11205	2721.9125
2934.58258	2722.3125
2937.05161	2719.2125
2939.51912	2715.5125
2941.98513	2732.3125
2944.44962	2702.1125
2946.91261	2675.1125
2949.37409	2688.1125
2951.83407	2684.8125
2954.29254	2683.4125
2956.74951	2677.0125
2959.20498	2662.9125
2961.65895	2663.3125
2964.11142	2651.9125
2966.56239	2659.1125
2969.01186	2651.7125
2971.45984	2646.7125
2973.90632	2630.3125
2976.35131	2650.9125
2978.7948	2639.1125
2981.23681	2626.7125
2983.67732	2622.9125
2986.11635	2634.9125
2988.55388	2594.8125
2990.98993	2603.7125
2993.4245	2581.0125
2995.85758	2578.2125
2998.28917	2572.1125
3000.71928	2567.3125
3003.14791	2564.2125
3005.57506	2547.8125
3008.00073	2545.5125
3010.42493	2483.8125
3012.84764	2534.8125
3015.26888	2530.3125
3017.68865	2527.5125
3020.10694	2488.0125
3022.52376	2494.3125
3024.9391	2506.5125
3027.35298	2492.2125
3029.76539	2482.0125
3032.17632	2471.0125
3034.5858	2471.1125
3036.9938	2476.1125
3039.40034	2477.7125
3041.80542	2459.7125
3044.20903	2435.9125
3046.61118	2442.2125
3049.01187	2450.2125
3051.4111	2434.6125
3053.80888	2422.7125
3056.20519	2430.4125
3058.60005	2400.6125
3060.99345	2416.0125
3063.3854	2381.7125
3065.7759	2389.8125
3068.16494	2371.2125
3070.55254	2375.0125
3072.93868	2376.1125
3075.32338	2363.3125
3077.70662	2358.2125
3080.08842	2350.0125
3082.46878	2342.8125
3084.84769	2372.1125
3087.22515	2341.8125
3089.60118	2363.0125
3091.97576	2327.9125
3094.3489	2344.5125
3096.72061	2340.5125
3099.09087	2326.4125
3101.4597	2337.2125
3103.82709	2319.7125
3106.19305	2310.1125
3108.55757	2314.7125
3110.92066	2304.2125
3113.28232	2313.2125
3115.64255	2305.3125
3118.00134	2300.3125
3120.35871	2272.8125
3122.71466	2269.3125
