Data from AgNPs_UA_5uM_CRN_500uM_SU_RamanShift__11__11-31-13-140.txt Node

Date: Thu Aug 04 11:31:13 BST 2022
User: TCL
Spectrometer: QEP01345
Trigger mode: 4
Integration Time (sec): 1.000000E0
Scans to average: 10
Electric dark correction enabled: true
Nonlinearity correction enabled: false
Boxcar width: 0
XAxis mode: Raman Shifts
Number of Pixels in Spectrum: 1044
>>>>>Begin Spectral Data<<<<<
46.04893	-0.4875
50.45542	-0.0875
54.85868	0.7125
59.25871	-0.6875
63.6555	-54.9875
68.04907	-36.7875
72.43941	-68.7875
76.82654	-52.2875
81.21044	-51.4875
85.59113	-42.9875
89.96862	-69.3875
94.34289	-51.9875
98.71396	-70.0875
103.08183	-51.8875
107.4465	-44.7875
111.80798	-47.5875
116.16626	-37.6875
120.52136	-64.3875
124.87327	-40.6875
129.222	-51.5875
133.56755	-36.9875
137.90993	-48.4875
142.24913	-33.2875
146.58517	-20.3875
150.91804	-14.5875
155.24774	5.4125
159.57429	34.7125
163.89768	59.6125
168.21792	128.5125
172.53501	186.8125
176.84895	329.5125
181.15975	541.5125
185.46741	812.0125
189.77193	1135.4125
194.07331	1603.6125
198.37157	2107.5125
202.6667	2625.9125
206.9587	3202.2125
211.24758	3822.8125
215.53334	4498.8125
219.81599	5289.9125
224.09553	6202.1125
228.37195	7141.7125
232.64527	8016.5125
236.91549	8754.3125
241.18261	9101.6125
245.44663	9235.8125
249.70755	9154.4125
253.96539	9171.4125
258.22014	9257.6125
262.4718	9357.3125
266.72039	9337.3125
270.96589	9122.3125
275.20832	8731.1125
279.44768	8353.1125
283.68397	8057.8125
287.91719	7954.3125
292.14735	8164.9125
296.37445	8805.2125
300.59849	9891.9125
304.81948	11403.3125
309.03742	13119.3125
313.25231	14338.8125
317.46415	14151.0125
321.67296	12360.0125
325.87872	10323.5125
330.08145	9191.2125
334.28114	8928.8125
338.47781	9258.5125
342.67145	9913.6125
346.86207	11005.2125
351.04966	12605.4125
355.23424	14208.3125
359.4158	14797.4125
363.59435	14243.4125
367.76989	13302.8125
371.94243	12337.4125
376.11196	11555.4125
380.27849	10997.5125
384.44203	10533.1125
388.60257	10274.1125
392.76012	10295.1125
396.91468	10643.7125
401.06626	11054.4125
405.21485	11086.0125
409.36047	10334.9125
413.50311	9095.7125
417.64277	7938.4125
421.77947	7226.9125
425.9132	6873.7125
430.04396	6714.9125
434.17176	6693.7125
438.2966	6852.0125
442.41849	7061.1125
446.53742	7336.8125
450.6534	7440.1125
454.76644	7454.6125
458.87653	7309.4125
462.98368	7161.5125
467.08789	6964.9125
471.18916	6752.4125
475.2875	6406.4125
479.38291	6116.5125
483.4754	5939.1125
487.56496	5860.6125
491.6516	5776.7125
495.73531	5763.6125
499.81612	5846.9125
503.89401	6046.2125
507.96899	6276.4125
512.04106	6585.9125
516.11023	6869.1125
520.1765	7134.6125
524.23987	7237.0125
528.30034	7183.6125
532.35792	7049.9125
536.41261	6868.1125
540.46441	6611.8125
544.51333	6435.9125
548.55936	6416.7125
552.60252	6611.6125
556.64279	6859.2125
560.6802	7364.2125
564.71473	8491.3125
568.7464	9952.1125
572.7752	9882.7125
576.80114	8016.6125
580.82422	6498.4125
584.84444	5851.2125
588.86181	5631.9125
592.87633	5622.2125
596.888	5879.4125
600.89682	6802.8125
604.9028	9848.4125
608.90594	17629.2125
612.90624	27077.2125
616.90371	24393.1125
620.89834	12748.2125
624.89015	7657.4125
628.87913	7109.3125
632.86528	7840.7125
636.84862	8114.1125
640.82913	7176.7125
644.80683	5958.4125
648.78172	5428.4125
652.75379	5618.5125
656.72306	6544.0125
660.68952	7405.2125
664.65319	6904.2125
668.61405	5732.4125
672.57211	5212.4125
676.52738	5229.6125
680.47986	5162.6125
684.42955	4981.7125
688.37646	4896.8125
692.32058	4892.9125
696.26192	5005.7125
700.20048	5146.3125
704.13626	5191.0125
708.06928	5081.8125
711.99952	5045.8125
715.927	5114.4125
719.85171	5380.6125
723.77365	5546.5125
727.69284	5370.8125
731.60928	5206.4125
735.52295	5118.2125
739.43388	5202.9125
743.34206	5240.7125
747.24749	5254.2125
751.15017	5289.1125
755.05012	5668.5125
758.94733	7225.9125
762.8418	10626.0125
766.73354	15071.9125
770.62254	17306.4125
774.50882	16407.6125
778.39237	14655.3125
782.27321	11967.5125
786.15132	8665.0125
790.02671	6511.0125
793.89938	5530.8125
797.76935	5206.6125
801.6366	5028.3125
805.50115	4952.1125
809.36299	4885.3125
813.22213	4868.7125
817.07857	4872.4125
820.93231	4926.3125
824.78336	5041.3125
828.63172	5193.3125
832.47738	5234.5125
836.32036	5125.3125
840.16066	4859.6125
843.99827	4700.8125
847.8332	4646.5125
851.66546	4650.6125
855.49504	4635.4125
859.32195	4622.1125
863.1462	4558.2125
866.96777	4558.4125
870.78668	4542.5125
874.60293	4604.9125
878.41652	4678.0125
882.22745	4853.6125
886.03573	4943.9125
889.84136	4902.6125
893.64433	4865.2125
897.44466	4885.2125
901.24235	4887.4125
905.0374	4811.7125
908.8298	4583.1125
912.61957	4471.8125
916.40671	4366.4125
920.19121	4424.5125
923.97308	4651.4125
927.75233	5134.2125
931.52895	5604.2125
935.30295	5345.0125
939.07433	4651.0125
942.84309	4212.5125
946.60924	4053.3125
950.37278	3971.3125
954.13371	3968.4125
957.89203	3957.0125
961.64774	3961.0125
965.40086	3929.4125
969.15137	3896.8125
972.89929	3929.1125
976.64461	3893.3125
980.38733	3890.6125
984.12747	3867.6125
987.86502	3891.0125
991.59999	3924.9125
995.33237	4027.5125
999.06217	4141.7125
1002.78939	4348.2125
1006.51404	4694.7125
1010.23611	4874.8125
1013.95561	4682.1125
1017.67255	4460.6125
1021.38692	4272.8125
1025.09872	4111.6125
1028.80796	4015.6125
1032.51465	4072.9125
1036.21877	4111.8125
1039.92035	4205.3125
1043.61937	4263.5125
1047.31584	4356.7125
1051.00976	4380.4125
1054.70114	4296.8125
1058.38998	4224.6125
1062.07627	4180.1125
1065.76003	4189.8125
1069.44126	4251.3125
1073.11995	4377.1125
1076.79611	4680.5125
1080.46974	5256.3125
1084.14085	6097.3125
1087.80943	6761.7125
1091.47549	6721.9125
1095.13903	6011.8125
1098.80005	5289.3125
1102.45857	4911.0125
1106.11456	4864.5125
1109.76805	5019.2125
1113.41903	5495.6125
1117.06751	6240.5125
1120.71348	7430.2125
1124.35696	9214.5125
1127.99793	10393.2125
1131.63641	9455.8125
1135.2724	7583.5125
1138.90589	6345.5125
1142.5369	5648.7125
1146.16542	5205.7125
1149.79145	4941.1125
1153.415	4867.2125
1157.03607	4936.4125
1160.65467	5197.1125
1164.27079	5687.8125
1167.88443	6368.6125
1171.49561	7516.4125
1175.10432	9511.6125
1178.71056	12195.4125
1182.31434	14008.8125
1185.91565	13674.1125
1189.51451	11904.7125
1193.11091	10057.6125
1196.70485	8876.5125
1200.29634	8403.3125
1203.88538	7838.0125
1207.47197	6715.1125
1211.05612	5689.3125
1214.63782	5023.1125
1218.21708	4741.2125
1221.79391	4633.3125
1225.36829	4620.1125
1228.94024	4621.9125
1232.50976	4619.7125
1236.07685	4629.1125
1239.6415	4708.7125
1243.20374	4835.5125
1246.76355	5018.1125
1250.32093	5287.9125
1253.8759	5616.5125
1257.42845	6206.0125
1260.97859	6970.7125
1264.52631	7691.1125
1268.07163	8021.1125
1271.61453	8017.0125
1275.15503	7741.1125
1278.69312	7436.2125
1282.22882	7665.2125
1285.76211	8690.8125
1289.29301	10075.7125
1292.82151	10987.8125
1296.34761	11406.2125
1299.87133	12327.5125
1303.39266	14692.3125
1306.9116	19152.7125
1310.42815	24589.1125
1313.94233	26661.9125
1317.45412	22584.7125
1320.96354	16447.0125
1324.47058	11892.0125
1327.97525	9081.6125
1331.47754	7686.7125
1334.97747	7227.7125
1338.47502	7427.4125
1341.97022	8500.4125
1345.46305	10849.6125
1348.95352	14208.2125
1352.44163	17697.1125
1355.92738	22122.6125
1359.41078	29820.0125
1362.89183	37829.1125
1366.37053	35710.4125
1369.84688	24348.7125
1373.32088	15123.9125
1376.79254	11186.8125
1380.26186	9406.4125
1383.72883	8018.1125
1387.19347	6755.3125
1390.65578	5829.3125
1394.11575	5315.7125
1397.57339	5067.8125
1401.0287	4905.7125
1404.48168	4727.6125
1407.93234	4629.2125
1411.38068	4746.4125
1414.82669	5144.9125
1418.27039	5630.7125
1421.71177	5716.6125
1425.15083	5503.5125
1428.58758	5578.0125
1432.02203	6218.2125
1435.45416	6658.0125
1438.88399	6360.9125
1442.31151	5922.0125
1445.73673	5835.4125
1449.15965	5790.4125
1452.58027	5640.1125
1455.9986	5425.9125
1459.41463	5233.4125
1462.82837	5228.9125
1466.23982	5499.2125
1469.64898	5856.1125
1473.05586	5994.8125
1476.46045	5939.5125
1479.86276	5976.9125
1483.26279	6269.2125
1486.66054	6957.3125
1490.05602	8036.0125
1493.44922	9751.3125
1496.84016	12495.8125
1500.22882	16764.6125
1503.61521	22769.9125
1506.99934	30555.3125
1510.38121	38406.9125
1513.76081	41729.9125
1517.13816	37223.9125
1520.51324	27807.6125
1523.88607	19181.6125
1527.25665	13509.7125
1530.62498	10341.1125
1533.99105	8488.3125
1537.35488	7283.0125
1540.71647	6620.3125
1544.07581	6333.2125
1547.4329	6355.7125
1550.78776	6522.9125
1554.14038	6888.2125
1557.49077	7508.0125
1560.83892	8575.2125
1564.18484	10248.0125
1567.52853	12018.0125
1570.86999	13010.7125
1574.20922	13067.8125
1577.54624	12337.2125
1580.88103	10247.5125
1584.2136	7776.0125
1587.54395	6348.6125
1590.87208	5958.8125
1594.19801	6443.7125
1597.52172	7227.0125
1600.84321	7242.5125
1604.16251	6410.3125
1607.47959	5572.7125
1610.79447	5080.8125
1614.10715	4697.7125
1617.41763	4430.6125
1620.7259	4312.3125
1624.03199	4370.8125
1627.33587	4587.0125
1630.63757	5009.4125
1633.93707	5786.1125
1637.23439	7175.0125
1640.52951	9733.4125
1643.82246	14105.8125
1647.11321	20045.0125
1650.40179	24716.6125
1653.68819	24229.0125
1656.97241	18741.2125
1660.25446	12450.0125
1663.53433	8186.8125
1666.81203	5904.5125
1670.08756	4711.8125
1673.36092	4081.2125
1676.63211	3673.7125
1679.90115	3440.7125
1683.16801	3244.2125
1686.43272	3120.2125
1689.69527	3049.5125
1692.95567	2969.7125
1696.2139	2916.3125
1699.46999	2849.6125
1702.72392	2846.0125
1705.97571	2846.8125
1709.22535	2826.6125
1712.47284	2880.7125
1715.71819	2898.3125
1718.96139	2918.1125
1722.20246	2892.1125
1725.44139	2810.5125
1728.67818	2734.0125
1731.91284	2655.3125
1735.14537	2591.8125
1738.37576	2540.9125
1741.60403	2528.5125
1744.83017	2475.5125
1748.05418	2475.4125
1751.27607	2444.9125
1754.49584	2398.7125
1757.71349	2339.7125
1760.92903	2306.2125
1764.14244	2224.8125
1767.35375	2209.6125
1770.56294	2152.6125
1773.77002	2110.9125
1776.97499	2089.2125
1780.17785	2049.4125
1783.37861	2018.0125
1786.57727	2027.5125
1789.77382	1953.1125
1792.96828	1991.2125
1796.16064	2006.4125
1799.3509	1978.3125
1802.53907	1987.6125
1805.72514	1959.9125
1808.90913	1940.8125
1812.09102	1942.8125
1815.27083	1920.0125
1818.44856	1903.7125
1821.6242	1909.2125
1824.79776	1884.4125
1827.96924	1856.3125
1831.13864	1838.9125
1834.30597	1832.9125
1837.47122	1800.3125
1840.6344	1781.5125
1843.7955	1753.6125
1846.95454	1732.8125
1850.11151	1739.5125
1853.26642	1696.1125
1856.41926	1708.1125
1859.57004	1715.5125
1862.71876	1720.2125
1865.86542	1729.4125
1869.01003	1730.0125
1872.15258	1715.6125
1875.29308	1737.1125
1878.43152	1753.2125
1881.56792	1716.7125
1884.70227	1705.0125
1887.83457	1696.0125
1890.96482	1679.9125
1894.09304	1662.4125
1897.21921	1672.5125
1900.34335	1672.4125
1903.46544	1650.8125
1906.58551	1659.5125
1909.70353	1661.4125
1912.81953	1656.3125
1915.93349	1653.3125
1919.04543	1632.8125
1922.15534	1614.1125
1925.26322	1608.2125
1928.36908	1571.8125
1931.47292	1561.6125
1934.57473	1550.0125
1937.67453	1493.4125
1940.77232	1463.2125
1943.86808	1459.5125
1946.96184	1455.9125
1950.05358	1435.4125
1953.14331	1428.3125
1956.23103	1452.0125
1959.31675	1434.0125
1962.40046	1405.9125
1965.48217	1450.5125
1968.56188	1470.1125
1971.63959	1491.3125
1974.7153	1493.7125
1977.78901	1477.0125
1980.86073	1443.9125
1983.93046	1395.9125
1986.99819	1303.7125
1990.06394	1322.8125
1993.1277	1342.2125
1996.18947	1322.0125
1999.24925	1292.2125
2002.30706	1301.0125
2005.36288	1298.0125
2008.41672	1280.4125
2011.46859	1257.4125
2014.51848	1246.7125
2017.56639	1242.3125
2020.61233	1233.4125
2023.6563	1238.7125
2026.6983	1193.9125
2029.73833	1202.7125
2032.7764	1210.7125
2035.8125	1175.9125
2038.84664	1185.1125
2041.87881	1175.6125
2044.90903	1192.0125
2047.93729	1190.5125
2050.96359	1160.2125
2053.98794	1162.3125
2057.01034	1157.7125
2060.03078	1135.0125
2063.04927	1124.5125
2066.06582	1108.5125
2069.08042	1097.8125
2072.09307	1097.3125
2075.10378	1096.7125
2078.11255	1091.7125
2081.11938	1098.5125
2084.12426	1092.4125
2087.12722	1085.3125
2090.12824	1086.7125
2093.12732	1092.3125
2096.12447	1097.5125
2099.11969	1088.3125
2102.11299	1073.3125
2105.10435	1103.6125
2108.09379	1092.3125
2111.08131	1090.9125
2114.0669	1097.5125
2117.05057	1111.5125
2120.03233	1104.6125
2123.01216	1141.9125
2125.99008	1157.8125
2128.96609	1159.3125
2131.94018	1167.1125
2134.91236	1140.3125
2137.88263	1121.0125
2140.851	1109.4125
2143.81746	1105.1125
2146.78201	1070.1125
2149.74466	1047.2125
2152.7054	1045.8125
2155.66425	1023.1125
2158.6212	1009.4125
2161.57625	987.0125
2164.52941	971.3125
2167.48067	986.9125
2170.43004	995.9125
2173.37752	1021.2125
2176.32311	1017.5125
2179.26681	1026.1125
2182.20863	1028.6125
2185.14856	1027.0125
2188.08661	1022.2125
2191.02278	1017.8125
2193.95707	981.7125
2196.88948	966.2125
2199.82001	969.9125
2202.74867	955.8125
2205.67545	967.7125
2208.60037	974.4125
2211.52341	957.4125
2214.44458	955.3125
2217.36388	963.3125
2220.28132	943.2125
2223.1969	929.2125
2226.11061	932.7125
2229.02246	918.8125
2231.93245	920.1125
2234.84058	906.8125
2237.74686	900.9125
2240.65128	910.9125
2243.55385	919.2125
2246.45456	903.8125
2249.35343	936.9125
2252.25044	939.7125
2255.14561	970.5125
2258.03893	1001.1125
2260.93041	1017.1125
2263.82004	1026.0125
2266.70783	1047.1125
2269.59378	1017.7125
2272.4779	1006.8125
2275.36017	1027.3125
2278.24061	1007.6125
2281.11922	975.6125
2283.996	986.1125
2286.87094	956.3125
2289.74405	945.5125
2292.61534	946.2125
2295.4848	926.6125
2298.35243	906.8125
2301.21824	897.0125
2304.08223	887.4125
2306.94439	895.7125
2309.80474	893.8125
2312.66327	892.3125
2315.51999	889.4125
2318.37489	882.5125
2321.22797	861.3125
2324.07925	866.9125
2326.92871	866.3125
2329.77637	855.0125
2332.62222	862.8125
2335.46626	848.6125
2338.3085	851.7125
2341.14893	875.9125
2343.98756	880.3125
2346.8244	865.6125
2349.65943	883.7125
2352.49267	898.1125
2355.32411	907.0125
2358.15376	930.6125
2360.98161	951.0125
2363.80768	943.8125
2366.63195	975.5125
2369.45444	990.0125
2372.27514	996.3125
2375.09405	1003.9125
2377.91118	967.5125
2380.72652	961.0125
2383.54009	946.8125
2386.35187	940.9125
2389.16188	910.0125
2391.97011	896.9125
2394.77657	884.9125
2397.58125	879.0125
2400.38416	860.0125
2403.18529	846.3125
2405.98466	826.4125
2408.78226	840.9125
2411.57809	831.8125
2414.37216	826.1125
2417.16446	835.7125
2419.955	820.5125
2422.74378	840.3125
2425.5308	825.3125
2428.31606	838.2125
2431.09956	850.3125
2433.88131	847.2125
2436.6613	869.2125
2439.43954	863.8125
2442.21603	863.2125
2444.99077	874.8125
2447.76377	890.5125
2450.53501	888.3125
2453.30451	891.5125
2456.07226	905.7125
2458.83827	895.9125
2461.60254	851.5125
2464.36507	895.0125
2467.12586	877.1125
2469.88492	884.5125
2472.64224	884.8125
2475.39782	878.1125
2478.15167	912.8125
2480.90379	919.7125
2483.65417	955.9125
2486.40283	977.3125
2489.14976	990.0125
2491.89497	987.7125
2494.63845	990.4125
2497.3802	980.6125
2500.12024	969.4125
2502.85855	946.2125
2505.59514	941.7125
2508.33002	911.4125
2511.06318	865.2125
2513.79462	853.4125
2516.52435	792.6125
2519.25237	760.7125
2521.97867	753.6125
2524.70327	749.3125
2527.42616	736.4125
2530.14734	745.4125
2532.86681	723.9125
2535.58458	734.3125
2538.30065	725.4125
2541.01501	746.8125
2543.72768	744.4125
2546.43864	754.6125
2549.14791	763.6125
2551.85548	753.6125
2554.56136	762.7125
2557.26554	775.4125
2559.96803	783.8125
2562.66883	786.2125
2565.36794	780.2125
2568.06536	753.1125
2570.7611	788.9125
2573.45514	778.4125
2576.14751	775.9125
2578.83819	765.5125
2581.52719	755.4125
2584.21451	751.1125
2586.90015	727.8125
2589.58411	711.9125
2592.2664	729.7125
2594.94701	733.7125
2597.62594	734.4125
2600.30321	683.3125
2602.9788	712.6125
2605.65273	714.4125
2608.32498	723.9125
2610.99557	749.9125
2613.66449	715.4125
2616.33175	735.5125
2618.99734	739.0125
2621.66128	743.7125
2624.32355	734.6125
2626.98416	714.8125
2629.64311	707.3125
2632.30041	696.5125
2634.95605	681.4125
2637.61004	665.2125
2640.26238	654.3125
2642.91306	642.5125
2645.56209	667.1125
2648.20948	651.5125
2650.85521	647.3125
2653.4993	675.6125
2656.14175	667.6125
2658.78255	663.1125
2661.42171	643.0125
2664.05923	685.9125
2666.6951	694.6125
2669.32934	709.1125
2671.96194	734.2125
2674.59291	712.3125
2677.22224	720.0125
2679.84993	711.0125
2682.476	698.4125
2685.10043	694.4125
2687.72324	676.9125
2690.34441	676.6125
2692.96396	671.3125
2695.58188	684.3125
2698.19818	679.1125
2700.81285	662.3125
2703.4259	657.5125
2706.03733	636.3125
2708.64714	644.2125
2711.25533	674.9125
2713.86191	687.1125
2716.46687	680.5125
2719.07021	678.4125
2721.67194	671.1125
2724.27206	698.1125
2726.87057	661.0125
2729.46747	657.5125
2732.06276	657.2125
2734.65644	628.2125
2737.24852	634.3125
2739.83899	609.6125
2742.42786	618.6125
2745.01513	625.2125
2747.60079	600.7125
2750.18486	585.5125
2752.76733	590.4125
2755.3482	579.0125
2757.92747	573.3125
2760.50515	552.9125
2763.08123	558.4125
2765.65573	553.5125
2768.22863	545.6125
2770.79994	542.3125
2773.36967	545.5125
2775.9378	545.8125
2778.50435	546.6125
2781.06932	549.0125
2783.6327	543.5125
2786.1945	566.3125
2788.75471	556.9125
2791.31335	566.3125
2793.87041	571.5125
2796.42589	553.6125
2798.97979	568.2125
2801.53212	582.8125
2804.08288	611.0125
2806.63206	607.7125
2809.17967	605.0125
2811.72571	641.2125
2814.27018	646.2125
2816.81308	657.1125
2819.35442	648.0125
2821.89419	685.0125
2824.43239	689.8125
2826.96904	723.9125
2829.50412	688.1125
2832.03763	701.2125
2834.56959	687.1125
2837.1	666.3125
2839.62884	660.5125
2842.15613	654.9125
2844.68186	663.4125
2847.20604	641.1125
2849.72867	643.0125
2852.24974	666.6125
2854.76927	656.7125
2857.28724	633.1125
2859.80367	705.6125
2862.31855	738.0125
2864.83189	737.8125
2867.34368	761.2125
2869.85393	790.9125
2872.36264	769.8125
2874.8698	775.9125
2877.37543	783.8125
2879.87952	768.2125
2882.38207	736.9125
2884.88308	732.5125
2887.38256	720.1125
2889.88051	708.9125
2892.37692	692.4125
2894.8718	676.9125
2897.36515	687.0125
2899.85698	698.4125
2902.34727	695.7125
2904.83604	709.5125
2907.32328	736.2125
2909.809	751.9125
2912.29319	765.6125
2914.77587	781.7125
2917.25702	790.0125
2919.73665	776.1125
2922.21476	757.5125
2924.69136	742.2125
2927.16644	704.4125
2929.64	693.6125
2932.11205	666.6125
2934.58258	677.5125
2937.05161	656.3125
2939.51912	659.4125
2941.98513	676.2125
2944.44962	657.3125
2946.91261	639.3125
2949.37409	651.4125
2951.83407	652.7125
2954.29254	650.2125
2956.74951	664.5125
2959.20498	658.2125
2961.65895	657.5125
2964.11142	650.8125
2966.56239	651.1125
2969.01186	645.3125
2971.45984	634.7125
2973.90632	625.4125
2976.35131	646.9125
2978.7948	641.3125
2981.23681	631.7125
2983.67732	639.5125
2986.11635	647.0125
2988.55388	624.3125
2990.98993	636.5125
2993.4245	634.4125
2995.85758	633.2125
2998.28917	647.8125
3000.71928	648.8125
3003.14791	647.9125
3005.57506	634.0125
3008.00073	630.7125
3010.42493	574.2125
3012.84764	635.0125
3015.26888	636.0125
3017.68865	625.0125
3020.10694	585.2125
3022.52376	606.0125
3024.9391	603.1125
3027.35298	590.1125
3029.76539	572.5125
3032.17632	558.2125
3034.5858	540.6125
3036.9938	542.6125
3039.40034	516.8125
3041.80542	500.1125
3044.20903	482.6125
3046.61118	472.7125
3049.01187	489.2125
3051.4111	476.6125
3053.80888	468.4125
3056.20519	464.9125
3058.60005	457.9125
3060.99345	483.2125
3063.3854	460.5125
3065.7759	445.4125
3068.16494	446.9125
3070.55254	433.8125
3072.93868	453.5125
3075.32338	446.2125
3077.70662	438.3125
3080.08842	429.6125
3082.46878	415.9125
3084.84769	440.4125
3087.22515	418.1125
3089.60118	430.6125
3091.97576	411.3125
3094.3489	419.5125
3096.72061	415.5125
3099.09087	403.0125
3101.4597	409.7125
3103.82709	403.1125
3106.19305	393.4125
3108.55757	403.8125
3110.92066	396.8125
3113.28232	406.7125
3115.64255	411.9125
3118.00134	414.3125
3120.35871	401.9125
3122.71466	385.5125
3125.06917	403.3125
3127.42226	403.0125
3129.77393	385.3125
3132.12417	408.8125
3134.47299	407.6125
3136.82039	395.6125
3139.16636	374.8125
3141.51092	403.8125
3143.85406	407.3125
3146.19579	387.1125
3148.53609	388.6125
3150.87499	406.5125
3153.21246	399.1125
3155.54853	414.7125
3157.88318	412.7125
