Data from AgNPs_UA_5uM_CRN_500uM_SU_RamanShift__124__11-50-03-164.txt Node

Date: Thu Aug 04 11:50:03 BST 2022
User: TCL
Spectrometer: QEP01345
Trigger mode: 4
Integration Time (sec): 1.000000E0
Scans to average: 10
Electric dark correction enabled: true
Nonlinearity correction enabled: false
Boxcar width: 0
XAxis mode: Raman Shifts
Number of Pixels in Spectrum: 1044
>>>>>Begin Spectral Data<<<<<
46.04893	-0.75
50.45542	-0.25
54.85868	0.25
59.25871	-1.15
63.6555	-58.75
68.04907	-41.45
72.43941	-71.75
76.82654	-56.95
81.21044	-57.25
85.59113	-50.65
89.96862	-77.15
94.34289	-55.85
98.71396	-77.85
103.08183	-59.85
107.4465	-49.85
111.80798	-56.55
116.16626	-45.15
120.52136	-73.15
124.87327	-51.15
129.222	-64.15
133.56755	-50.85
137.90993	-63.85
142.24913	-52.35
146.58517	-45.85
150.91804	-44.25
155.24774	-30.45
159.57429	-14.25
163.89768	-12.75
168.21792	28.75
172.53501	44.45
176.84895	120.35
181.15975	244.75
185.46741	381.65
189.77193	546.25
194.07331	815.55
198.37157	1076.25
202.6667	1336.05
206.9587	1634.65
211.24758	1922.45
215.53334	2219.85
219.81599	2530.45
224.09553	2893.35
228.37195	3302.65
232.64527	3721.65
236.91549	4172.75
241.18261	4531.15
245.44663	4857.65
249.70755	5056.85
253.96539	5199.25
258.22014	5291.85
262.4718	5321.75
266.72039	5339.25
270.96589	5305.65
275.20832	5209.25
279.44768	5105.45
283.68397	5002.95
287.91719	4929.35
292.14735	4932.05
296.37445	5037.45
300.59849	5230.15
304.81948	5458.75
309.03742	5707.85
313.25231	5883.95
317.46415	5831.15
321.67296	5568.85
325.87872	5290.85
330.08145	5153.65
334.28114	5136.15
338.47781	5180.55
342.67145	5311.05
346.86207	5513.75
351.04966	5760.15
355.23424	6076.55
359.4158	6262.05
363.59435	6292.45
367.76989	6273.85
371.94243	6212.95
376.11196	6132.55
380.27849	6101.55
384.44203	6078.45
388.60257	6064.85
392.76012	6071.25
396.91468	6174.05
401.06626	6302.95
405.21485	6311.95
409.36047	6240.75
413.50311	6004.55
417.64277	5819.35
421.77947	5673.15
425.9132	5621.65
430.04396	5623.15
434.17176	5675.55
438.2966	5762.35
442.41849	5850.05
446.53742	5938.25
450.6534	6051.25
454.76644	6101.05
458.87653	6155.55
462.98368	6132.35
467.08789	6103.55
471.18916	6054.55
475.2875	6003.35
479.38291	5900.25
483.4754	5799.65
487.56496	5759.35
491.6516	5732.35
495.73531	5720.95
499.81612	5742.75
503.89401	5804.75
507.96899	5825.15
512.04106	5908.95
516.11023	5995.55
520.1765	6067.65
524.23987	6082.25
528.30034	6094.15
532.35792	6046.45
536.41261	6024.25
540.46441	5948.85
544.51333	5912.05
548.55936	5969.65
552.60252	6063.55
556.64279	6142.95
560.6802	6224.45
564.71473	6327.85
568.7464	6463.65
572.7752	6417.35
576.80114	6194.15
580.82422	6015.15
584.84444	5955.65
588.86181	5957.55
592.87633	5982.75
596.888	6094.55
600.89682	6364.55
604.9028	7070.25
608.90594	8599.05
612.90624	10246.05
616.90371	9606.55
620.89834	7431.75
624.89015	6494.95
628.87913	6356.95
632.86528	6477.45
636.84862	6605.15
640.82913	6508.75
644.80683	6285.25
648.78172	6185.45
652.75379	6189.55
656.72306	6350.35
660.68952	6514.85
664.65319	6487.85
668.61405	6315.35
672.57211	6263.25
676.52738	6292.65
680.47986	6232.85
684.42955	6160.35
688.37646	6115.95
692.32058	6115.45
696.26192	6165.85
700.20048	6271.65
704.13626	6291.55
708.06928	6239.45
711.99952	6246.25
715.927	6182.45
719.85171	6223.65
723.77365	6267.25
727.69284	6257.85
731.60928	6245.95
735.52295	6233.15
739.43388	6265.65
743.34206	6283.95
747.24749	6303.05
751.15017	6311.95
755.05012	6351.25
758.94733	6634.85
762.8418	7195.05
766.73354	8105.15
770.62254	8825.45
774.50882	8936.95
778.39237	8578.95
782.27321	7919.35
786.15132	7194.05
790.02671	6680.65
793.89938	6435.85
797.76935	6357.75
801.6366	6280.95
805.50115	6249.35
809.36299	6253.05
813.22213	6255.95
817.07857	6270.75
820.93231	6257.55
824.78336	6288.55
828.63172	6280.55
832.47738	6284.55
836.32036	6313.05
840.16066	6292.95
843.99827	6287.75
847.8332	6291.25
851.66546	6306.55
855.49504	6293.35
859.32195	6328.05
863.1462	6323.95
866.96777	6345.65
870.78668	6338.15
874.60293	6351.45
878.41652	6361.85
882.22745	6437.05
886.03573	6466.75
889.84136	6455.25
893.64433	6464.35
897.44466	6432.75
901.24235	6428.75
905.0374	6434.45
908.8298	6369.45
912.61957	6363.45
916.40671	6328.75
920.19121	6391.75
923.97308	6441.35
927.75233	6465.45
931.52895	6522.95
935.30295	6528.35
939.07433	6424.05
942.84309	6332.35
946.60924	6308.85
950.37278	6265.65
954.13371	6296.65
957.89203	6256.75
961.64774	6295.55
965.40086	6269.85
969.15137	6249.85
972.89929	6283.15
976.64461	6273.35
980.38733	6296.95
984.12747	6291.35
987.86502	6315.05
991.59999	6346.45
995.33237	6443.55
999.06217	6517.85
1002.78939	6592.55
1006.51404	6697.55
1010.23611	6830.75
1013.95561	6886.05
1017.67255	6894.95
1021.38692	6883.05
1025.09872	6809.75
1028.80796	6731.05
1032.51465	6736.45
1036.21877	6718.95
1039.92035	6741.75
1043.61937	6787.05
1047.31584	6803.65
1051.00976	6828.25
1054.70114	6865.75
1058.38998	6845.95
1062.07627	6858.05
1065.76003	6898.95
1069.44126	6979.85
1073.11995	7071.95
1076.79611	7182.65
1080.46974	7303.35
1084.14085	7399.65
1087.80943	7472.85
1091.47549	7519.15
1095.13903	7523.55
1098.80005	7433.35
1102.45857	7361.55
1106.11456	7282.15
1109.76805	7187.35
1113.41903	7249.75
1117.06751	7341.55
1120.71348	7529.05
1124.35696	7771.15
1127.99793	7978.95
1131.63641	7881.35
1135.2724	7610.45
1138.90589	7414.85
1142.5369	7302.35
1146.16542	7271.25
1149.79145	7204.25
1153.415	7127.65
1157.03607	7092.05
1160.65467	7141.75
1164.27079	7267.05
1167.88443	7434.95
1171.49561	7742.75
1175.10432	8150.25
1178.71056	8781.85
1182.31434	9355.55
1185.91565	9561.25
1189.51451	9487.45
1193.11091	9382.05
1196.70485	9281.55
1200.29634	9124.75
1203.88538	8977.85
1207.47197	8700.05
1211.05612	8397.15
1214.63782	8148.65
1218.21708	7960.05
1221.79391	7798.85
1225.36829	7673.85
1228.94024	7660.55
1232.50976	7638.25
1236.07685	7673.55
1239.6415	7683.95
1243.20374	7727.35
1246.76355	7746.95
1250.32093	7849.85
1253.8759	7950.15
1257.42845	8143.75
1260.97859	8322.45
1264.52631	8481.25
1268.07163	8577.65
1271.61453	8640.45
1275.15503	8662.05
1278.69312	8672.45
1282.22882	8736.65
1285.76211	8867.25
1289.29301	9002.65
1292.82151	9228.35
1296.34761	9380.45
1299.87133	9685.05
1303.39266	10189.75
1306.9116	10992.95
1310.42815	11811.05
1313.94233	12100.65
1317.45412	11576.95
1320.96354	10829.55
1324.47058	10170.05
1327.97525	9652.35
1331.47754	9376.55
1334.97747	9351.15
1338.47502	9443.85
1341.97022	9745.45
1345.46305	10303.45
1348.95352	11070.15
1352.44163	11930.95
1355.92738	12794.45
1359.41078	13828.55
1362.89183	14721.85
1366.37053	14143.95
1369.84688	12181.45
1373.32088	10352.05
1376.79254	9420.85
1380.26186	8957.05
1383.72883	8651.45
1387.19347	8389.55
1390.65578	8157.95
1394.11575	7989.45
1397.57339	7874.25
1401.0287	7785.35
1404.48168	7762.65
1407.93234	7762.55
1411.38068	7803.05
1414.82669	7878.45
1418.27039	7927.95
1421.71177	7907.25
1425.15083	7828.35
1428.58758	7758.45
1432.02203	7789.75
1435.45416	7866.45
1438.88399	7887.05
1442.31151	7897.45
1445.73673	7968.05
1449.15965	8056.15
1452.58027	8074.05
1455.9986	8074.55
1459.41463	8051.25
1462.82837	8156.75
1466.23982	8321.05
1469.64898	8473.35
1473.05586	8590.75
1476.46045	8636.75
1479.86276	8644.95
1483.26279	8709.05
1486.66054	8827.45
1490.05602	8986.65
1493.44922	9352.65
1496.84016	9965.65
1500.22882	10901.15
1503.61521	12038.55
1506.99934	13183.05
1510.38121	13918.25
1513.76081	13806.95
1517.13816	12761.05
1520.51324	11359.35
1523.88607	10261.55
1527.25665	9558.95
1530.62498	9243.35
1533.99105	9121.75
1537.35488	9080.95
1540.71647	9049.75
1544.07581	9028.45
1547.4329	8945.15
1550.78776	8827.45
1554.14038	8715.65
1557.49077	8652.55
1560.83892	8671.15
1564.18484	8783.75
1567.52853	8963.95
1570.86999	9162.95
1574.20922	9263.05
1577.54624	9158.45
1580.88103	8848.65
1584.2136	8398.85
1587.54395	8190.95
1590.87208	8180.55
1594.19801	8304.05
1597.52172	8630.85
1600.84321	8782.25
1604.16251	8766.45
1607.47959	8617.25
1610.79447	8460.95
1614.10715	8178.35
1617.41763	7880.05
1620.7259	7630.05
1624.03199	7477.45
1627.33587	7407.45
1630.63757	7447.25
1633.93707	7635.45
1637.23439	7971.35
1640.52951	8494.65
1643.82246	9208.55
1647.11321	10019.65
1650.40179	10420.75
1653.68819	10109.55
1656.97241	9208.35
1660.25446	8208.95
1663.53433	7467.95
1666.81203	7032.95
1670.08756	6804.45
1673.36092	6662.15
1676.63211	6548.45
1679.90115	6481.45
1683.16801	6403.95
1686.43272	6315.25
1689.69527	6272.75
1692.95567	6215.35
1696.2139	6184.95
1699.46999	6150.55
1702.72392	6129.75
1705.97571	6161.55
1709.22535	6134.85
1712.47284	6173.35
1715.71819	6177.45
1718.96139	6170.25
1722.20246	6153.35
1725.44139	6123.85
1728.67818	6131.85
1731.91284	6087.65
1735.14537	6053.95
1738.37576	6027.25
1741.60403	6017.15
1744.83017	5999.75
1748.05418	5995.35
1751.27607	6009.65
1754.49584	5967.95
1757.71349	5930.45
1760.92903	5956.15
1764.14244	5893.35
1767.35375	5906.15
1770.56294	5904.75
1773.77002	5883.65
1776.97499	5879.25
1780.17785	5871.55
1783.37861	5864.95
1786.57727	5879.65
1789.77382	5804.15
1792.96828	5839.45
1796.16064	5860.85
1799.3509	5822.85
1802.53907	5846.95
1805.72514	5820.05
1808.90913	5779.95
1812.09102	5802.65
1815.27083	5775.65
1818.44856	5757.85
1821.6242	5757.95
1824.79776	5723.85
1827.96924	5735.55
1831.13864	5723.55
1834.30597	5729.95
1837.47122	5695.25
1840.6344	5683.95
1843.7955	5680.55
1846.95454	5686.65
1850.11151	5685.05
1853.26642	5636.55
1856.41926	5650.05
1859.57004	5667.35
1862.71876	5645.45
1865.86542	5658.15
1869.01003	5652.85
1872.15258	5623.75
1875.29308	5639.55
1878.43152	5624.15
1881.56792	5623.15
1884.70227	5593.25
1887.83457	5593.25
1890.96482	5558.65
1894.09304	5590.15
1897.21921	5560.25
1900.34335	5585.25
1903.46544	5539.65
1906.58551	5582.75
1909.70353	5549.55
1912.81953	5546.55
1915.93349	5536.25
1919.04543	5533.65
1922.15534	5540.55
1925.26322	5511.25
1928.36908	5489.55
1931.47292	5508.25
1934.57473	5511.85
1937.67453	5467.25
1940.77232	5440.35
1943.86808	5424.75
1946.96184	5431.95
1950.05358	5402.75
1953.14331	5394.75
1956.23103	5385.15
1959.31675	5355.25
1962.40046	5304.45
1965.48217	5330.35
1968.56188	5311.05
1971.63959	5316.25
1974.7153	5297.15
1977.78901	5274.15
1980.86073	5259.85
1983.93046	5207.95
1986.99819	5144.05
1990.06394	5168.05
1993.1277	5197.85
1996.18947	5152.55
1999.24925	5148.45
2002.30706	5133.75
2005.36288	5126.85
2008.41672	5110.25
2011.46859	5081.65
2014.51848	5064.15
2017.56639	5060.95
2020.61233	5038.35
2023.6563	5016.25
2026.6983	4978.35
2029.73833	4986.15
2032.7764	4985.15
2035.8125	4953.15
2038.84664	4958.95
2041.87881	4933.35
2044.90903	4948.15
2047.93729	4935.05
2050.96359	4914.45
2053.98794	4935.05
2057.01034	4932.25
2060.03078	4905.15
2063.04927	4899.75
2066.06582	4900.65
2069.08042	4880.95
2072.09307	4896.55
2075.10378	4896.65
2078.11255	4869.05
2081.11938	4886.25
2084.12426	4863.95
2087.12722	4865.35
2090.12824	4869.25
2093.12732	4871.15
2096.12447	4875.05
2099.11969	4847.65
2102.11299	4851.05
2105.10435	4868.05
2108.09379	4858.25
2111.08131	4844.45
2114.0669	4857.75
2117.05057	4855.65
2120.03233	4841.25
2123.01216	4859.65
2125.99008	4874.95
2128.96609	4864.15
2131.94018	4885.35
2134.91236	4875.85
2137.88263	4873.85
2140.851	4870.25
2143.81746	4901.65
2146.78201	4882.55
2149.74466	4874.05
2152.7054	4888.65
2155.66425	4888.45
2158.6212	4873.95
2161.57625	4861.95
2164.52941	4820.05
2167.48067	4859.05
2170.43004	4832.15
2173.37752	4846.75
2176.32311	4846.15
2179.26681	4838.55
2182.20863	4853.85
2185.14856	4844.15
2188.08661	4848.35
2191.02278	4846.45
2193.95707	4830.25
2196.88948	4824.55
2199.82001	4835.55
2202.74867	4805.05
2205.67545	4812.05
2208.60037	4811.75
2211.52341	4798.55
2214.44458	4784.15
2217.36388	4781.45
2220.28132	4765.95
2223.1969	4744.05
2226.11061	4724.15
2229.02246	4730.75
2231.93245	4723.65
2234.84058	4728.15
2237.74686	4712.05
2240.65128	4693.55
2243.55385	4682.25
2246.45456	4666.95
2249.35343	4688.15
2252.25044	4672.55
2255.14561	4675.75
2258.03893	4676.95
2260.93041	4648.05
2263.82004	4636.55
2266.70783	4642.65
2269.59378	4617.45
2272.4779	4588.65
2275.36017	4594.35
2278.24061	4566.85
2281.11922	4554.45
2283.996	4558.25
2286.87094	4528.25
2289.74405	4557.55
2292.61534	4552.15
2295.4848	4545.35
2298.35243	4543.95
2301.21824	4529.85
2304.08223	4517.75
2306.94439	4521.15
2309.80474	4526.95
2312.66327	4515.95
2315.51999	4498.45
2318.37489	4486.15
2321.22797	4463.45
2324.07925	4464.45
2326.92871	4464.85
2329.77637	4437.95
2332.62222	4431.75
2335.46626	4426.15
2338.3085	4417.25
2341.14893	4427.25
2343.98756	4426.35
2346.8244	4403.85
2349.65943	4395.75
2352.49267	4403.75
2355.32411	4403.65
2358.15376	4393.45
2360.98161	4403.85
2363.80768	4367.95
2366.63195	4394.55
2369.45444	4398.95
2372.27514	4379.15
2375.09405	4395.45
2377.91118	4366.15
2380.72652	4375.55
2383.54009	4347.35
2386.35187	4348.85
2389.16188	4311.75
2391.97011	4329.95
2394.77657	4321.85
2397.58125	4319.05
2400.38416	4277.55
2403.18529	4272.45
2405.98466	4269.65
2408.78226	4277.25
2411.57809	4251.55
2414.37216	4249.65
2417.16446	4267.45
2419.955	4229.55
2422.74378	4250.95
2425.5308	4226.05
2428.31606	4220.65
2431.09956	4221.25
2433.88131	4203.55
2436.6613	4215.65
2439.43954	4205.25
2442.21603	4190.85
2444.99077	4179.45
2447.76377	4185.05
2450.53501	4181.35
2453.30451	4177.45
2456.07226	4201.15
2458.83827	4169.05
2461.60254	4130.05
2464.36507	4160.65
2467.12586	4128.45
2469.88492	4152.15
2472.64224	4140.45
2475.39782	4114.95
2478.15167	4139.95
2480.90379	4127.55
2483.65417	4142.05
2486.40283	4146.25
2489.14976	4142.35
2491.89497	4111.75
2494.63845	4124.15
2497.3802	4116.75
2500.12024	4104.95
2502.85855	4116.95
2505.59514	4098.85
2508.33002	4080.85
2511.06318	4071.25
2513.79462	4064.55
2516.52435	4041.35
2519.25237	4035.75
2521.97867	4048.95
2524.70327	4032.95
2527.42616	4026.35
2530.14734	4054.65
2532.86681	4020.75
2535.58458	4026.55
2538.30065	4015.65
2541.01501	4025.65
2543.72768	4004.55
2546.43864	3993.85
2549.14791	3993.85
2551.85548	3977.65
2554.56136	3973.05
2557.26554	3970.55
2559.96803	3955.75
2562.66883	3960.85
2565.36794	3937.45
2568.06536	3905.25
2570.7611	3930.45
2573.45514	3916.55
2576.14751	3914.45
2578.83819	3889.95
2581.52719	3871.75
2584.21451	3871.15
2586.90015	3866.95
2589.58411	3841.45
2592.2664	3855.75
2594.94701	3859.15
2597.62594	3855.95
2600.30321	3776.05
2602.9788	3816.05
2605.65273	3797.55
2608.32498	3804.45
2610.99557	3823.85
2613.66449	3787.05
2616.33175	3800.95
2618.99734	3789.35
2621.66128	3790.05
2624.32355	3782.85
2626.98416	3766.55
2629.64311	3753.75
2632.30041	3750.15
2634.95605	3728.25
2637.61004	3719.65
2640.26238	3711.75
2642.91306	3703.75
2645.56209	3732.45
2648.20948	3724.35
2650.85521	3696.55
2653.4993	3705.35
2656.14175	3705.75
2658.78255	3694.75
2661.42171	3662.35
2664.05923	3705.55
2666.6951	3704.75
2669.32934	3719.15
2671.96194	3733.65
2674.59291	3710.35
2677.22224	3714.25
2679.84993	3715.85
2682.476	3692.45
2685.10043	3693.85
2687.72324	3686.15
2690.34441	3687.25
2692.96396	3673.85
2695.58188	3678.05
2698.19818	3686.85
2700.81285	3666.25
2703.4259	3659.45
2706.03733	3634.55
2708.64714	3640.35
2711.25533	3660.95
2713.86191	3676.55
2716.46687	3656.55
2719.07021	3663.75
2721.67194	3668.45
2724.27206	3673.85
2726.87057	3667.85
2729.46747	3644.95
2732.06276	3652.35
2734.65644	3630.45
2737.24852	3641.35
2739.83899	3613.95
2742.42786	3626.85
2745.01513	3638.35
2747.60079	3611.15
2750.18486	3601.85
2752.76733	3606.45
2755.3482	3595.25
2757.92747	3597.75
2760.50515	3572.75
2763.08123	3554.55
2765.65573	3568.45
2768.22863	3548.25
2770.79994	3541.05
2773.36967	3536.95
2775.9378	3543.75
2778.50435	3525.45
2781.06932	3524.85
2783.6327	3513.95
2786.1945	3527.25
2788.75471	3514.65
2791.31335	3508.45
2793.87041	3514.25
2796.42589	3486.65
2798.97979	3473.35
2801.53212	3484.25
2804.08288	3499.35
2806.63206	3472.95
2809.17967	3447.65
2811.72571	3460.95
2814.27018	3450.85
2816.81308	3427.15
2819.35442	3395.05
2821.89419	3413.15
2824.43239	3395.95
2826.96904	3432.25
2829.50412	3398.25
2832.03763	3404.75
2834.56959	3399.95
2837.1	3379.25
2839.62884	3397.95
2842.15613	3380.15
2844.68186	3388.35
2847.20604	3354.65
2849.72867	3336.45
2852.24974	3364.95
2854.76927	3322.55
2857.28724	3276.85
2859.80367	3324.95
2862.31855	3337.95
2864.83189	3329.65
2867.34368	3320.15
2869.85393	3346.45
2872.36264	3294.85
2874.8698	3292.75
2877.37543	3316.25
2879.87952	3305.65
2882.38207	3273.75
2884.88308	3288.15
2887.38256	3292.25
2889.88051	3287.75
2892.37692	3287.15
2894.8718	3270.95
2897.36515	3278.05
2899.85698	3279.95
2902.34727	3261.65
2904.83604	3273.45
2907.32328	3288.85
2909.809	3288.95
2912.29319	3273.55
2914.77587	3288.65
2917.25702	3294.85
2919.73665	3296.95
2922.21476	3296.75
2924.69136	3289.35
2927.16644	3272.85
2929.64	3282.65
2932.11205	3259.35
2934.58258	3257.15
2937.05161	3252.85
2939.51912	3251.25
2941.98513	3288.55
2944.44962	3250.05
2946.91261	3222.05
2949.37409	3229.25
2951.83407	3225.65
2954.29254	3220.25
2956.74951	3221.55
2959.20498	3202.65
2961.65895	3209.25
2964.11142	3187.35
2966.56239	3200.65
2969.01186	3195.45
2971.45984	3194.95
2973.90632	3181.95
2976.35131	3185.85
2978.7948	3178.05
2981.23681	3170.55
2983.67732	3178.75
2986.11635	3170.55
2988.55388	3137.15
2990.98993	3141.35
2993.4245	3123.45
2995.85758	3101.25
2998.28917	3101.05
3000.71928	3099.65
3003.14791	3091.35
3005.57506	3083.75
3008.00073	3068.35
3010.42493	3010.35
3012.84764	3050.05
3015.26888	3050.45
3017.68865	3042.65
3020.10694	3014.65
3022.52376	3014.85
3024.9391	3021.75
3027.35298	3000.35
3029.76539	2981.55
3032.17632	2991.95
3034.5858	2988.65
3036.9938	2982.45
3039.40034	2970.65
3041.80542	2959.75
3044.20903	2952.85
3046.61118	2944.85
3049.01187	2962.75
3051.4111	2941.95
3053.80888	2926.85
3056.20519	2923.25
3058.60005	2901.75
3060.99345	2932.55
3063.3854	2905.05
3065.7759	2885.15
3068.16494	2875.55
3070.55254	2867.85
3072.93868	2876.65
3075.32338	2859.55
3077.70662	2860.25
3080.08842	2858.65
3082.46878	2827.25
3084.84769	2850.85
3087.22515	2827.05
3089.60118	2829.15
3091.97576	2828.35
3094.3489	2834.35
3096.72061	2821.95
3099.09087	2807.25
3101.4597	2829.85
3103.82709	2819.65
3106.19305	2793.15
3108.55757	2807.75
3110.92066	2792.35
3113.28232	2794.95
3115.64255	2787.85
3118.00134	2794.15
3120.35871	2763.65
3122.71466	2744.65
3125.06917	2756.75
3127.42226	2740.25
3129.77393	2724.65
3132.12417	2731.05
3134.47299	2748.25
3136.82039	2718.65
3139.16636	2699.45
3141.51092	2717.25
3143.85406	2720.95
3146.19579	2704.95
3148.53609	2703.35
3150.87499	2710.75
3153.21246	2706.05
3155.54853	2705.55
3157.88318	2712.95
3160.21642	2712.85
3162.54826	2704.15
3164.87868	2701.25
3167.2077	2667.45
3169.5353	2697.65
3171.86151	2698.05
3174.18631	2667.15
3176.5097	2666.45
3178.83169	2675.25
3181.15228	2683.65
3183.47147	2637.95
3185.78926	2617.95
3188.10565	2629.05
3190.42065	2624.95
3192.73424	2630.15
3195.04645	2615.45
3197.35725	2605.05
3199.66667	2627.75
3201.97469	2599.35
3204.28132	2596.05
3206.58656	2604.55
3208.8904	2621.85
3211.19287	2606.65
3213.49394	2592.15
3215.79363	2585.85
3218.09193	2597.95
3220.38884	2595.85
3222.68438	2599.95
3224.97853	2585.45
3227.2713	2580.05
3229.56269	2576.25
3231.8527	2569.95
3234.14133	2559.55
3236.42858	2558.75
3238.71446	2527.85
3240.99896	2557.05
3243.28209	2533.55
3245.56384	2535.55
3247.84423	2522.45
3250.12324	2526.35
3252.40088	2519.05
3254.67715	2512.85
3256.95205	2502.95
3259.22558	2519.55
3261.49775	2518.45
3263.76855	2500.05
3266.03799	2512.05
3268.30606	2511.35
3270.57277	2492.65
3272.83812	2478.45
3275.10211	2479.15
3277.36474	2488.95
3279.62601	2476.95
3281.88593	2460.45
3284.14448	2439.45
3286.40168	2461.25
3288.65753	2455.85
3290.91202	2443.45
3293.16516	2431.05
3295.41695	2453.55
3297.66738	2435.75
3299.91647	2415.65
3302.16421	2425.75
3304.4106	2363.45
3306.65564	2388.05
3308.89933	2334.85
3311.14169	2340.75
3313.38269	2323.05
3315.62236	2303.75
3317.86068	2284.65
3320.09766	2287.75
3322.3333	2248.35
3324.5676	2231.15
3326.80056	2185.85
3329.03219	2189.95
3331.26248	-0.25
3333.49143	0.35
3335.71905	0.95
