Data from AgNPs_UA_5uM_CRN_500uM_SU_RamanShift__298__12-19-03-199.txt Node

Date: Thu Aug 04 12:19:03 BST 2022
User: TCL
Spectrometer: QEP01345
Trigger mode: 4
Integration Time (sec): 1.000000E0
Scans to average: 10
Electric dark correction enabled: true
Nonlinearity correction enabled: false
Boxcar width: 0
XAxis mode: Raman Shifts
Number of Pixels in Spectrum: 1044
>>>>>Begin Spectral Data<<<<<
46.04893	-0.7625
50.45542	0.7375
54.85868	1.1375
59.25871	-0.6625
63.6555	-58.5625
68.04907	-41.6625
72.43941	-71.2625
76.82654	-57.4625
81.21044	-56.0625
85.59113	-49.8625
89.96862	-77.0625
94.34289	-55.1625
98.71396	-79.2625
103.08183	-58.6625
107.4465	-51.8625
111.80798	-56.8625
116.16626	-44.2625
120.52136	-73.2625
124.87327	-50.1625
129.222	-62.6625
133.56755	-50.2625
137.90993	-62.6625
142.24913	-50.8625
146.58517	-43.1625
150.91804	-40.3625
155.24774	-30.6625
159.57429	-8.5625
163.89768	-6.3625
168.21792	36.7375
172.53501	61.3375
176.84895	143.3375
181.15975	272.7375
185.46741	423.1375
189.77193	611.0375
194.07331	900.6375
198.37157	1190.7375
202.6667	1480.3375
206.9587	1803.2375
211.24758	2118.4375
215.53334	2442.1375
219.81599	2793.5375
224.09553	3195.9375
228.37195	3651.1375
232.64527	4119.1375
236.91549	4587.6375
241.18261	4945.9375
245.44663	5222.0375
249.70755	5380.9375
253.96539	5507.2375
258.22014	5605.7375
262.4718	5680.3375
266.72039	5719.5375
270.96589	5700.8375
275.20832	5610.0375
279.44768	5507.5375
283.68397	5394.7375
287.91719	5347.0375
292.14735	5390.2375
296.37445	5577.1375
300.59849	5869.4375
304.81948	6223.4375
309.03742	6589.2375
313.25231	6852.4375
317.46415	6800.9375
321.67296	6421.5375
325.87872	6015.7375
330.08145	5795.6375
334.28114	5747.3375
338.47781	5809.4375
342.67145	5922.3375
346.86207	6161.7375
351.04966	6536.8375
355.23424	6911.1375
359.4158	7174.6375
363.59435	7206.8375
367.76989	7147.4375
371.94243	7033.0375
376.11196	6912.9375
380.27849	6824.6375
384.44203	6760.5375
388.60257	6717.2375
392.76012	6732.2375
396.91468	6857.8375
401.06626	6978.8375
405.21485	7015.9375
409.36047	6867.6375
413.50311	6512.2375
417.64277	6230.3375
421.77947	5987.3375
425.9132	5942.3375
430.04396	5942.0375
434.17176	5965.2375
438.2966	6041.2375
442.41849	6135.4375
446.53742	6260.6375
450.6534	6366.0375
454.76644	6417.3375
458.87653	6415.1375
462.98368	6385.0375
467.08789	6298.7375
471.18916	6241.8375
475.2875	6102.4375
479.38291	5978.0375
483.4754	5869.6375
487.56496	5849.2375
491.6516	5811.9375
495.73531	5809.5375
499.81612	5852.4375
503.89401	5939.3375
507.96899	5999.1375
512.04106	6084.5375
516.11023	6170.1375
520.1765	6264.2375
524.23987	6304.6375
528.30034	6275.0375
532.35792	6206.6375
536.41261	6155.1375
540.46441	6052.6375
544.51333	6002.8375
548.55936	6041.9375
552.60252	6169.1375
556.64279	6267.8375
560.6802	6392.9375
564.71473	6535.3375
568.7464	6709.7375
572.7752	6714.0375
576.80114	6408.5375
580.82422	6161.8375
584.84444	6068.8375
588.86181	6043.1375
592.87633	6086.3375
596.888	6206.0375
600.89682	6576.9375
604.9028	7583.7375
608.90594	9732.1375
612.90624	12126.2375
616.90371	11258.5375
620.89834	8060.2375
624.89015	6691.2375
628.87913	6461.2375
632.86528	6604.8375
636.84862	6802.7375
640.82913	6651.0375
644.80683	6291.2375
648.78172	6101.5375
652.75379	6109.6375
656.72306	6369.8375
660.68952	6611.7375
664.65319	6515.9375
668.61405	6253.7375
672.57211	6185.5375
676.52738	6194.7375
680.47986	6096.0375
684.42955	5986.9375
688.37646	5951.0375
692.32058	5960.1375
696.26192	6031.1375
700.20048	6128.5375
704.13626	6160.5375
708.06928	6120.8375
711.99952	6097.6375
715.927	6070.1375
719.85171	6124.0375
723.77365	6151.4375
727.69284	6134.3375
731.60928	6096.1375
735.52295	6053.5375
739.43388	6123.3375
743.34206	6142.1375
747.24749	6169.0375
751.15017	6188.7375
755.05012	6265.3375
758.94733	6644.3375
762.8418	7548.4375
766.73354	8943.9375
770.62254	10036.0375
774.50882	10107.9375
778.39237	9511.7375
782.27321	8526.3375
786.15132	7432.3375
790.02671	6767.6375
793.89938	6353.4375
797.76935	6221.2375
801.6366	6129.0375
805.50115	6093.2375
809.36299	6054.0375
813.22213	6062.6375
817.07857	6051.9375
820.93231	6033.0375
824.78336	6061.9375
828.63172	6074.8375
832.47738	6083.4375
836.32036	6090.8375
840.16066	6057.3375
843.99827	6021.6375
847.8332	6007.9375
851.66546	6031.2375
855.49504	6041.8375
859.32195	6069.8375
863.1462	6057.5375
866.96777	6051.5375
870.78668	6032.8375
874.60293	6069.0375
878.41652	6107.0375
882.22745	6170.3375
886.03573	6187.1375
889.84136	6200.4375
893.64433	6205.0375
897.44466	6171.2375
901.24235	6178.2375
905.0374	6170.9375
908.8298	6113.1375
912.61957	6086.2375
916.40671	6043.7375
920.19121	6090.9375
923.97308	6183.5375
927.75233	6251.1375
931.52895	6281.2375
935.30295	6250.6375
939.07433	6108.6375
942.84309	5980.4375
946.60924	5950.6375
950.37278	5909.3375
954.13371	5916.8375
957.89203	5916.4375
961.64774	5918.5375
965.40086	5900.4375
969.15137	5878.0375
972.89929	5918.0375
976.64461	5891.1375
980.38733	5910.6375
984.12747	5914.0375
987.86502	5932.0375
991.59999	5955.8375
995.33237	6021.1375
999.06217	6081.1375
1002.78939	6172.3375
1006.51404	6286.1375
1010.23611	6415.6375
1013.95561	6476.8375
1017.67255	6471.5375
1021.38692	6440.4375
1025.09872	6380.1375
1028.80796	6277.9375
1032.51465	6292.0375
1036.21877	6289.8375
1039.92035	6325.7375
1043.61937	6354.2375
1047.31584	6423.7375
1051.00976	6465.8375
1054.70114	6471.4375
1058.38998	6453.2375
1062.07627	6467.8375
1065.76003	6512.0375
1069.44126	6568.7375
1073.11995	6648.5375
1076.79611	6803.0375
1080.46974	6964.6375
1084.14085	7141.3375
1087.80943	7253.7375
1091.47549	7274.9375
1095.13903	7195.0375
1098.80005	7072.7375
1102.45857	6974.3375
1106.11456	6942.2375
1109.76805	6891.8375
1113.41903	7006.3375
1117.06751	7188.8375
1120.71348	7453.8375
1124.35696	7872.0375
1127.99793	8153.5375
1131.63641	7990.9375
1135.2724	7553.1375
1138.90589	7251.7375
1142.5369	7048.5375
1146.16542	6923.1375
1149.79145	6815.5375
1153.415	6767.3375
1157.03607	6781.1375
1160.65467	6885.0375
1164.27079	7113.4375
1167.88443	7395.3375
1171.49561	7837.6375
1175.10432	8493.5375
1178.71056	9436.8375
1182.31434	10305.9375
1185.91565	10571.3375
1189.51451	10412.9375
1193.11091	10146.9375
1196.70485	9874.2375
1200.29634	9592.6375
1203.88538	9294.9375
1207.47197	8819.4375
1211.05612	8309.7375
1214.63782	7868.4375
1218.21708	7585.2375
1221.79391	7430.6375
1225.36829	7364.7375
1228.94024	7362.8375
1232.50976	7385.9375
1236.07685	7406.8375
1239.6415	7429.4375
1243.20374	7445.7375
1246.76355	7488.2375
1250.32093	7566.5375
1253.8759	7614.8375
1257.42845	7788.4375
1260.97859	8014.4375
1264.52631	8265.2375
1268.07163	8442.4375
1271.61453	8587.1375
1275.15503	8619.5375
1278.69312	8637.4375
1282.22882	8722.8375
1285.76211	8924.8375
1289.29301	9175.0375
1292.82151	9466.9375
1296.34761	9672.3375
1299.87133	10104.0375
1303.39266	10846.8375
1306.9116	12033.7375
1310.42815	13321.4375
1313.94233	13761.5375
1317.45412	12956.7375
1320.96354	11776.7375
1324.47058	10733.8375
1327.97525	9930.1375
1331.47754	9518.2375
1334.97747	9366.0375
1338.47502	9498.7375
1341.97022	9882.0375
1345.46305	10652.3375
1348.95352	11795.8375
1352.44163	13190.7375
1355.92738	14665.0375
1359.41078	16457.6375
1362.89183	18041.4375
1366.37053	17408.5375
1369.84688	14430.1375
1373.32088	11553.8375
1376.79254	10025.4375
1380.26186	9295.0375
1383.72883	8827.9375
1387.19347	8404.2375
1390.65578	8023.3375
1394.11575	7780.1375
1397.57339	7611.7375
1401.0287	7490.1375
1404.48168	7429.3375
1407.93234	7462.6375
1411.38068	7459.6375
1414.82669	7564.4375
1418.27039	7619.1375
1421.71177	7617.0375
1425.15083	7504.9375
1428.58758	7437.0375
1432.02203	7450.2375
1435.45416	7512.9375
1438.88399	7508.5375
1442.31151	7522.1375
1445.73673	7586.2375
1449.15965	7608.8375
1452.58027	7656.8375
1455.9986	7627.5375
1459.41463	7663.8375
1462.82837	7760.5375
1466.23982	7952.6375
1469.64898	8171.1375
1473.05586	8348.0375
1476.46045	8437.0375
1479.86276	8532.1375
1483.26279	8654.1375
1486.66054	8883.9375
1490.05602	9172.2375
1493.44922	9770.7375
1496.84016	10688.2375
1500.22882	12160.8375
1503.61521	13986.5375
1506.99934	15923.6375
1510.38121	17161.7375
1513.76081	16951.2375
1517.13816	15288.6375
1520.51324	13069.7375
1523.88607	11270.6375
1527.25665	10233.7375
1530.62498	9710.6375
1533.99105	9505.7375
1537.35488	9380.5375
1540.71647	9277.4375
1544.07581	9141.1375
1547.4329	8954.8375
1550.78776	8806.7375
1554.14038	8722.2375
1557.49077	8708.2375
1560.83892	8775.8375
1564.18484	9059.1375
1567.52853	9402.9375
1570.86999	9748.2375
1574.20922	9922.8375
1577.54624	9806.1375
1580.88103	9219.7375
1584.2136	8506.5375
1587.54395	8097.6375
1590.87208	8013.0375
1594.19801	8182.6375
1597.52172	8549.7375
1600.84321	8691.4375
1604.16251	8537.5375
1607.47959	8322.7375
1610.79447	8118.3375
1614.10715	7858.3375
1617.41763	7535.2375
1620.7259	7258.9375
1624.03199	7089.1375
1627.33587	7033.4375
1630.63757	7059.6375
1633.93707	7302.3375
1637.23439	7759.7375
1640.52951	8460.4375
1643.82246	9475.8375
1647.11321	10713.1375
1650.40179	11501.6375
1653.68819	11147.5375
1656.97241	9850.6375
1660.25446	8367.0375
1663.53433	7335.1375
1666.81203	6684.4375
1670.08756	6335.8375
1673.36092	6140.8375
1676.63211	5985.2375
1679.90115	5889.6375
1683.16801	5802.3375
1686.43272	5714.8375
1689.69527	5674.0375
1692.95567	5620.7375
1696.2139	5601.4375
1699.46999	5548.2375
1702.72392	5546.1375
1705.97571	5557.1375
1709.22535	5536.0375
1712.47284	5575.9375
1715.71819	5578.1375
1718.96139	5578.7375
1722.20246	5560.8375
1725.44139	5520.1375
1728.67818	5495.5375
1731.91284	5451.8375
1735.14537	5420.7375
1738.37576	5379.5375
1741.60403	5356.4375
1744.83017	5332.5375
1748.05418	5341.0375
1751.27607	5333.9375
1754.49584	5300.5375
1757.71349	5273.8375
1760.92903	5259.1375
1764.14244	5202.0375
1767.35375	5224.2375
1770.56294	5206.3375
1773.77002	5193.1375
1776.97499	5198.4375
1780.17785	5175.6375
1783.37861	5170.2375
1786.57727	5169.7375
1789.77382	5113.9375
1792.96828	5138.5375
1796.16064	5148.1375
1799.3509	5109.9375
1802.53907	5138.9375
1805.72514	5099.6375
1808.90913	5080.5375
1812.09102	5063.5375
1815.27083	5066.7375
1818.44856	5054.1375
1821.6242	5045.0375
1824.79776	5025.3375
1827.96924	5020.9375
1831.13864	4992.8375
1834.30597	4999.8375
1837.47122	4977.2375
1840.6344	4953.4375
1843.7955	4962.9375
1846.95454	4947.2375
1850.11151	4974.3375
1853.26642	4935.9375
1856.41926	4936.9375
1859.57004	4938.8375
1862.71876	4914.3375
1865.86542	4924.7375
1869.01003	4915.4375
1872.15258	4896.6375
1875.29308	4916.4375
1878.43152	4923.9375
1881.56792	4905.0375
1884.70227	4864.5375
1887.83457	4876.3375
1890.96482	4840.7375
1894.09304	4840.9375
1897.21921	4859.5375
1900.34335	4864.2375
1903.46544	4822.0375
1906.58551	4846.8375
1909.70353	4841.9375
1912.81953	4825.7375
1915.93349	4808.1375
1919.04543	4805.9375
1922.15534	4791.7375
1925.26322	4781.6375
1928.36908	4771.3375
1931.47292	4768.9375
1934.57473	4760.0375
1937.67453	4729.4375
1940.77232	4711.9375
1943.86808	4696.6375
1946.96184	4692.6375
1950.05358	4680.3375
1953.14331	4646.7375
1956.23103	4668.3375
1959.31675	4620.6375
1962.40046	4585.8375
1965.48217	4602.5375
1968.56188	4587.9375
1971.63959	4571.6375
1974.7153	4584.7375
1977.78901	4568.4375
1980.86073	4561.7375
1983.93046	4514.7375
1986.99819	4443.7375
1990.06394	4459.3375
1993.1277	4474.6375
1996.18947	4451.6375
1999.24925	4427.5375
2002.30706	4423.2375
2005.36288	4419.9375
2008.41672	4389.2375
2011.46859	4362.0375
2014.51848	4358.6375
2017.56639	4342.8375
2020.61233	4331.0375
2023.6563	4330.3375
2026.6983	4271.1375
2029.73833	4305.1375
2032.7764	4288.1375
2035.8125	4244.9375
2038.84664	4252.8375
2041.87881	4236.6375
2044.90903	4255.6375
2047.93729	4229.2375
2050.96359	4202.5375
2053.98794	4200.9375
2057.01034	4223.4375
2060.03078	4190.7375
2063.04927	4169.9375
2066.06582	4200.0375
2069.08042	4166.7375
2072.09307	4176.6375
2075.10378	4185.5375
2078.11255	4170.4375
2081.11938	4169.4375
2084.12426	4151.6375
2087.12722	4144.8375
2090.12824	4163.5375
2093.12732	4154.6375
2096.12447	4166.5375
2099.11969	4133.9375
2102.11299	4143.1375
2105.10435	4155.3375
2108.09379	4150.3375
2111.08131	4147.4375
2114.0669	4140.8375
2117.05057	4141.4375
2120.03233	4135.0375
2123.01216	4165.3375
2125.99008	4162.7375
2128.96609	4160.3375
2131.94018	4184.7375
2134.91236	4164.8375
2137.88263	4160.3375
2140.851	4168.2375
2143.81746	4178.9375
2146.78201	4169.1375
2149.74466	4157.4375
2152.7054	4185.1375
2155.66425	4141.4375
2158.6212	4162.1375
2161.57625	4127.6375
2164.52941	4108.2375
2167.48067	4124.7375
2170.43004	4110.8375
2173.37752	4135.3375
2176.32311	4111.3375
2179.26681	4116.4375
2182.20863	4123.9375
2185.14856	4116.9375
2188.08661	4123.2375
2191.02278	4130.7375
2193.95707	4094.1375
2196.88948	4085.7375
2199.82001	4111.2375
2202.74867	4089.3375
2205.67545	4081.5375
2208.60037	4089.2375
2211.52341	4069.2375
2214.44458	4065.4375
2217.36388	4048.4375
2220.28132	4023.4375
2223.1969	4020.6375
2226.11061	4027.7375
2229.02246	4005.5375
2231.93245	4007.9375
2234.84058	3998.7375
2237.74686	3966.4375
2240.65128	3966.3375
2243.55385	3972.8375
2246.45456	3963.4375
2249.35343	3962.8375
2252.25044	3965.1375
2255.14561	3951.7375
2258.03893	3961.0375
2260.93041	3960.7375
2263.82004	3950.2375
2266.70783	3938.7375
2269.59378	3899.1375
2272.4779	3893.5375
2275.36017	3909.0375
2278.24061	3897.6375
2281.11922	3842.0375
2283.996	3864.5375
2286.87094	3842.9375
2289.74405	3849.1375
2292.61534	3850.8375
2295.4848	3842.8375
2298.35243	3824.3375
2301.21824	3818.5375
2304.08223	3805.7375
2306.94439	3821.2375
2309.80474	3826.4375
2312.66327	3820.4375
2315.51999	3796.5375
2318.37489	3784.5375
2321.22797	3775.6375
2324.07925	3761.6375
2326.92871	3761.9375
2329.77637	3759.4375
2332.62222	3736.2375
2335.46626	3718.1375
2338.3085	3714.7375
2341.14893	3733.2375
2343.98756	3745.3375
2346.8244	3716.7375
2349.65943	3705.2375
2352.49267	3701.0375
2355.32411	3734.0375
2358.15376	3716.4375
2360.98161	3731.4375
2363.80768	3706.2375
2366.63195	3717.1375
2369.45444	3736.6375
2372.27514	3708.3375
2375.09405	3714.3375
2377.91118	3685.0375
2380.72652	3688.6375
2383.54009	3673.6375
2386.35187	3664.5375
2389.16188	3656.0375
2391.97011	3641.0375
2394.77657	3618.5375
2397.58125	3624.1375
2400.38416	3605.4375
2403.18529	3601.4375
2405.98466	3597.6375
2408.78226	3605.4375
2411.57809	3581.5375
2414.37216	3586.7375
2417.16446	3579.0375
2419.955	3539.6375
2422.74378	3561.3375
2425.5308	3535.0375
2428.31606	3551.5375
2431.09956	3554.8375
2433.88131	3515.7375
2436.6613	3561.7375
2439.43954	3529.2375
2442.21603	3538.9375
2444.99077	3509.2375
2447.76377	3539.9375
2450.53501	3518.9375
2453.30451	3508.2375
2456.07226	3525.0375
2458.83827	3515.0375
2461.60254	3465.8375
2464.36507	3495.9375
2467.12586	3480.0375
2469.88492	3495.3375
2472.64224	3499.6375
2475.39782	3466.5375
2478.15167	3495.4375
2480.90379	3483.7375
2483.65417	3501.5375
2486.40283	3499.3375
2489.14976	3505.9375
2491.89497	3472.5375
2494.63845	3494.4375
2497.3802	3472.7375
2500.12024	3471.0375
2502.85855	3465.1375
2505.59514	3458.4375
2508.33002	3470.3375
2511.06318	3421.0375
2513.79462	3431.5375
2516.52435	3392.9375
2519.25237	3378.8375
2521.97867	3380.9375
2524.70327	3372.3375
2527.42616	3383.7375
2530.14734	3397.9375
2532.86681	3359.0375
2535.58458	3375.8375
2538.30065	3354.1375
2541.01501	3371.3375
2543.72768	3356.2375
2546.43864	3333.0375
2549.14791	3338.8375
2551.85548	3323.2375
2554.56136	3321.3375
2557.26554	3323.5375
2559.96803	3321.9375
2562.66883	3316.8375
2565.36794	3302.5375
2568.06536	3270.1375
2570.7611	3302.2375
2573.45514	3266.4375
2576.14751	3268.6375
2578.83819	3269.1375
2581.52719	3239.4375
2584.21451	3237.3375
2586.90015	3218.5375
2589.58411	3213.3375
2592.2664	3224.5375
2594.94701	3211.1375
2597.62594	3224.3375
2600.30321	3159.1375
2602.9788	3170.6375
2605.65273	3171.4375
2608.32498	3165.0375
2610.99557	3183.9375
2613.66449	3164.9375
2616.33175	3166.4375
2618.99734	3172.9375
2621.66128	3162.1375
2624.32355	3156.2375
2626.98416	3146.9375
2629.64311	3132.0375
2632.30041	3128.4375
2634.95605	3112.4375
2637.61004	3104.6375
2640.26238	3102.3375
2642.91306	3089.6375
2645.56209	3105.2375
2648.20948	3097.6375
2650.85521	3080.1375
2653.4993	3105.8375
2656.14175	3097.8375
2658.78255	3092.9375
2661.42171	3052.7375
2664.05923	3097.5375
2666.6951	3084.1375
2669.32934	3107.3375
2671.96194	3113.4375
2674.59291	3098.6375
2677.22224	3098.1375
2679.84993	3088.3375
2682.476	3086.2375
2685.10043	3080.9375
2687.72324	3054.4375
2690.34441	3071.1375
2692.96396	3074.5375
2695.58188	3089.6375
2698.19818	3073.5375
2700.81285	3057.0375
2703.4259	3047.5375
2706.03733	3029.7375
2708.64714	3022.6375
2711.25533	3061.7375
2713.86191	3062.6375
2716.46687	3053.2375
2719.07021	3052.7375
2721.67194	3060.4375
2724.27206	3068.1375
2726.87057	3047.0375
2729.46747	3037.3375
2732.06276	3049.1375
2734.65644	3026.5375
2737.24852	3027.0375
2739.83899	3005.3375
2742.42786	3021.3375
2745.01513	3021.3375
2747.60079	3006.8375
2750.18486	2990.6375
2752.76733	2998.7375
2755.3482	2995.5375
2757.92747	2986.4375
2760.50515	2972.7375
2763.08123	2969.9375
2765.65573	2961.2375
2768.22863	2963.2375
2770.79994	2944.6375
2773.36967	2939.5375
2775.9378	2927.1375
2778.50435	2940.1375
2781.06932	2930.6375
2783.6327	2924.6375
2786.1945	2932.8375
2788.75471	2928.1375
2791.31335	2922.1375
2793.87041	2916.6375
2796.42589	2904.8375
2798.97979	2890.6375
2801.53212	2892.9375
2804.08288	2907.3375
2806.63206	2880.3375
2809.17967	2858.8375
2811.72571	2888.0375
2814.27018	2865.5375
2816.81308	2851.6375
2819.35442	2824.3375
2821.89419	2853.1375
2824.43239	2844.1375
2826.96904	2854.8375
2829.50412	2834.0375
2832.03763	2831.1375
2834.56959	2843.6375
2837.1	2835.0375
2839.62884	2841.1375
2842.15613	2827.8375
2844.68186	2836.0375
2847.20604	2799.2375
2849.72867	2796.2375
2852.24974	2799.5375
2854.76927	2768.8375
2857.28724	2736.8375
2859.80367	2796.1375
2862.31855	2798.8375
2864.83189	2780.8375
2867.34368	2790.7375
2869.85393	2804.3375
2872.36264	2776.6375
2874.8698	2779.2375
2877.37543	2781.6375
2879.87952	2777.0375
2882.38207	2759.7375
2884.88308	2767.7375
2887.38256	2759.6375
2889.88051	2754.6375
2892.37692	2758.7375
2894.8718	2735.0375
2897.36515	2755.5375
2899.85698	2748.5375
2902.34727	2742.1375
2904.83604	2758.9375
2907.32328	2766.6375
2909.809	2773.0375
2912.29319	2766.6375
2914.77587	2766.6375
2917.25702	2781.9375
2919.73665	2789.8375
2922.21476	2779.7375
2924.69136	2778.1375
2927.16644	2767.3375
2929.64	2759.2375
2932.11205	2753.8375
2934.58258	2744.4375
2937.05161	2731.4375
2939.51912	2743.4375
2941.98513	2760.0375
2944.44962	2732.8375
2946.91261	2704.3375
2949.37409	2717.3375
2951.83407	2709.4375
2954.29254	2710.1375
2956.74951	2696.3375
2959.20498	2697.6375
2961.65895	2698.7375
2964.11142	2683.5375
2966.56239	2678.9375
2969.01186	2683.6375
2971.45984	2660.4375
2973.90632	2662.7375
2976.35131	2674.2375
2978.7948	2655.0375
2981.23681	2657.7375
2983.67732	2651.1375
2986.11635	2660.7375
2988.55388	2626.3375
2990.98993	2616.8375
2993.4245	2620.4375
2995.85758	2601.0375
2998.28917	2595.8375
3000.71928	2600.7375
3003.14791	2597.3375
3005.57506	2586.5375
3008.00073	2562.7375
3010.42493	2505.9375
3012.84764	2559.9375
3015.26888	2563.7375
3017.68865	2545.2375
3020.10694	2501.7375
3022.52376	2518.6375
3024.9391	2513.4375
3027.35298	2508.4375
3029.76539	2489.0375
3032.17632	2499.6375
3034.5858	2478.7375
3036.9938	2489.0375
3039.40034	2486.4375
3041.80542	2472.3375
3044.20903	2465.9375
3046.61118	2445.2375
3049.01187	2467.9375
3051.4111	2447.2375
3053.80888	2441.1375
3056.20519	2438.9375
3058.60005	2418.1375
3060.99345	2454.8375
3063.3854	2423.4375
3065.7759	2410.4375
3068.16494	2400.8375
3070.55254	2385.7375
3072.93868	2406.9375
3075.32338	2389.8375
3077.70662	2386.9375
3080.08842	2367.6375
3082.46878	2360.9375
3084.84769	2375.2375
3087.22515	2354.0375
3089.60118	2378.8375
3091.97576	2348.1375
3094.3489	2360.7375
3096.72061	2349.2375
3099.09087	2336.6375
3101.4597	2360.7375
3103.82709	2343.4375
3106.19305	2336.4375
3108.55757	2337.7375
3110.92066	2316.8375
3113.28232	2333.6375
3115.64255	2329.4375
3118.00134	2321.2375
3120.35871	2294.6375
3122.71466	2287.9375
