Data from AgNPs_UA_5uM_CRN_500uM_SU_RamanShift__162__11-56-23-171.txt Node

Date: Thu Aug 04 11:56:23 BST 2022
User: TCL
Spectrometer: QEP01345
Trigger mode: 4
Integration Time (sec): 1.000000E0
Scans to average: 10
Electric dark correction enabled: true
Nonlinearity correction enabled: false
Boxcar width: 0
XAxis mode: Raman Shifts
Number of Pixels in Spectrum: 1044
>>>>>Begin Spectral Data<<<<<
46.04893	-0.225
50.45542	0.375
54.85868	-0.225
59.25871	0.475
63.6555	-58.925
68.04907	-39.625
72.43941	-72.025
76.82654	-56.425
81.21044	-57.125
85.59113	-49.325
89.96862	-74.925
94.34289	-56.525
98.71396	-77.625
103.08183	-57.825
107.4465	-48.825
111.80798	-55.225
116.16626	-43.125
120.52136	-74.325
124.87327	-50.325
129.222	-63.825
133.56755	-49.425
137.90993	-62.925
142.24913	-50.825
146.58517	-41.625
150.91804	-42.325
155.24774	-29.425
159.57429	-9.825
163.89768	-7.725
168.21792	35.175
172.53501	57.675
176.84895	137.475
181.15975	268.875
185.46741	418.675
189.77193	596.675
194.07331	886.375
198.37157	1166.575
202.6667	1452.375
206.9587	1777.175
211.24758	2082.275
215.53334	2397.575
219.81599	2745.475
224.09553	3147.275
228.37195	3579.875
232.64527	4034.775
236.91549	4505.475
241.18261	4862.875
245.44663	5145.475
249.70755	5333.975
253.96539	5451.075
258.22014	5564.475
262.4718	5646.275
266.72039	5677.275
270.96589	5639.375
275.20832	5544.975
279.44768	5419.475
283.68397	5311.875
287.91719	5246.675
292.14735	5281.975
296.37445	5424.275
300.59849	5724.475
304.81948	6029.875
309.03742	6400.775
313.25231	6609.475
317.46415	6559.675
321.67296	6194.475
325.87872	5800.875
330.08145	5619.575
334.28114	5575.275
338.47781	5634.675
342.67145	5786.075
346.86207	6023.975
351.04966	6380.675
355.23424	6761.775
359.4158	7048.775
363.59435	7065.675
367.76989	7004.975
371.94243	6893.475
376.11196	6769.675
380.27849	6698.675
384.44203	6629.775
388.60257	6593.875
392.76012	6583.275
396.91468	6713.775
401.06626	6874.775
405.21485	6907.375
409.36047	6730.575
413.50311	6431.875
417.64277	6172.375
421.77947	5969.475
425.9132	5899.875
430.04396	5878.475
434.17176	5924.875
438.2966	6010.275
442.41849	6104.175
446.53742	6227.575
450.6534	6332.975
454.76644	6384.875
458.87653	6416.875
462.98368	6358.975
467.08789	6302.175
471.18916	6231.275
475.2875	6135.775
479.38291	6038.675
483.4754	5928.975
487.56496	5903.975
491.6516	5842.575
495.73531	5858.075
499.81612	5894.475
503.89401	5952.575
507.96899	6008.275
512.04106	6111.075
516.11023	6193.975
520.1765	6311.375
524.23987	6325.475
528.30034	6324.075
532.35792	6254.475
536.41261	6197.175
540.46441	6109.675
544.51333	6056.575
548.55936	6108.475
552.60252	6211.275
556.64279	6320.175
560.6802	6436.475
564.71473	6580.375
568.7464	6765.075
572.7752	6741.975
576.80114	6419.175
580.82422	6191.275
584.84444	6086.575
588.86181	6068.375
592.87633	6099.975
596.888	6228.675
600.89682	6568.075
604.9028	7495.875
608.90594	9521.475
612.90624	11814.375
616.90371	10949.675
620.89834	8026.475
624.89015	6741.875
628.87913	6541.275
632.86528	6681.375
636.84862	6849.275
640.82913	6714.575
644.80683	6394.375
648.78172	6216.375
652.75379	6241.175
656.72306	6486.275
660.68952	6713.575
664.65319	6619.875
668.61405	6388.575
672.57211	6316.675
676.52738	6331.075
680.47986	6260.075
684.42955	6157.875
688.37646	6111.175
692.32058	6111.675
696.26192	6205.475
700.20048	6276.975
704.13626	6325.975
708.06928	6268.975
711.99952	6243.375
715.927	6215.275
719.85171	6240.575
723.77365	6325.075
727.69284	6281.775
731.60928	6267.875
735.52295	6245.775
739.43388	6305.475
743.34206	6307.675
747.24749	6328.675
751.15017	6350.175
755.05012	6415.075
758.94733	6743.875
762.8418	7567.775
766.73354	8812.175
770.62254	9764.075
774.50882	9868.875
778.39237	9404.175
782.27321	8515.575
786.15132	7498.775
790.02671	6868.375
793.89938	6484.175
797.76935	6371.375
801.6366	6281.075
805.50115	6269.775
809.36299	6247.575
813.22213	6246.875
817.07857	6246.875
820.93231	6263.675
824.78336	6265.175
828.63172	6283.775
832.47738	6300.175
836.32036	6301.675
840.16066	6257.975
843.99827	6253.975
847.8332	6233.575
851.66546	6270.175
855.49504	6273.075
859.32195	6296.675
863.1462	6278.975
866.96777	6275.175
870.78668	6283.875
874.60293	6300.275
878.41652	6320.675
882.22745	6394.675
886.03573	6416.475
889.84136	6413.375
893.64433	6424.875
897.44466	6404.775
901.24235	6397.475
905.0374	6406.375
908.8298	6344.275
912.61957	6312.475
916.40671	6271.975
920.19121	6319.075
923.97308	6412.075
927.75233	6457.275
931.52895	6513.775
935.30295	6511.675
939.07433	6360.975
942.84309	6245.075
946.60924	6209.975
950.37278	6186.775
954.13371	6180.275
957.89203	6170.875
961.64774	6198.075
965.40086	6187.175
969.15137	6142.675
972.89929	6183.275
976.64461	6165.975
980.38733	6198.475
984.12747	6185.575
987.86502	6211.375
991.59999	6236.275
995.33237	6298.975
999.06217	6388.475
1002.78939	6463.375
1006.51404	6590.975
1010.23611	6691.675
1013.95561	6759.075
1017.67255	6755.675
1021.38692	6748.475
1025.09872	6672.275
1028.80796	6588.975
1032.51465	6587.975
1036.21877	6563.875
1039.92035	6616.975
1043.61937	6635.475
1047.31584	6695.375
1051.00976	6721.275
1054.70114	6747.975
1058.38998	6737.575
1062.07627	6739.075
1065.76003	6771.875
1069.44126	6841.175
1073.11995	6914.675
1076.79611	7046.175
1080.46974	7216.775
1084.14085	7347.575
1087.80943	7464.775
1091.47549	7521.475
1095.13903	7426.775
1098.80005	7336.675
1102.45857	7228.675
1106.11456	7182.175
1109.76805	7123.475
1113.41903	7224.075
1117.06751	7392.675
1120.71348	7659.675
1124.35696	7993.275
1127.99793	8281.975
1131.63641	8117.075
1135.2724	7732.575
1138.90589	7460.675
1142.5369	7245.275
1146.16542	7160.475
1149.79145	7052.175
1153.415	7038.575
1157.03607	7024.075
1160.65467	7093.175
1164.27079	7268.275
1167.88443	7495.875
1171.49561	7908.075
1175.10432	8485.975
1178.71056	9333.875
1182.31434	10072.475
1185.91565	10309.075
1189.51451	10143.875
1193.11091	9931.375
1196.70485	9699.375
1200.29634	9514.375
1203.88538	9257.575
1207.47197	8849.475
1211.05612	8412.375
1214.63782	8031.375
1218.21708	7800.675
1221.79391	7664.175
1225.36829	7548.875
1228.94024	7550.375
1232.50976	7575.575
1236.07685	7582.575
1239.6415	7630.575
1243.20374	7633.975
1246.76355	7679.175
1250.32093	7743.475
1253.8759	7836.675
1257.42845	8016.275
1260.97859	8202.075
1264.52631	8425.875
1268.07163	8596.075
1271.61453	8690.075
1275.15503	8737.475
1278.69312	8737.475
1282.22882	8802.775
1285.76211	9002.875
1289.29301	9222.075
1292.82151	9472.075
1296.34761	9697.175
1299.87133	10087.075
1303.39266	10739.375
1306.9116	11832.475
1310.42815	12987.175
1313.94233	13436.775
1317.45412	12670.975
1320.96354	11546.175
1324.47058	10608.475
1327.97525	9898.875
1331.47754	9510.575
1334.97747	9424.475
1338.47502	9532.875
1341.97022	9870.475
1345.46305	10592.275
1348.95352	11585.275
1352.44163	12771.575
1355.92738	14003.675
1359.41078	15586.175
1362.89183	16996.975
1366.37053	16329.975
1369.84688	13651.275
1373.32088	11171.975
1376.79254	9868.075
1380.26186	9240.275
1383.72883	8891.275
1387.19347	8503.175
1390.65578	8161.775
1394.11575	7950.075
1397.57339	7760.175
1401.0287	7704.675
1404.48168	7656.375
1407.93234	7671.675
1411.38068	7701.175
1414.82669	7777.275
1418.27039	7862.175
1421.71177	7840.375
1425.15083	7747.675
1428.58758	7683.375
1432.02203	7722.875
1435.45416	7800.575
1438.88399	7792.275
1442.31151	7788.475
1445.73673	7874.475
1449.15965	7908.875
1452.58027	7931.675
1455.9986	7916.675
1459.41463	7914.275
1462.82837	8023.575
1466.23982	8175.075
1469.64898	8389.875
1473.05586	8507.575
1476.46045	8600.675
1479.86276	8678.275
1483.26279	8757.475
1486.66054	8937.775
1490.05602	9178.175
1493.44922	9687.775
1496.84016	10523.575
1500.22882	11778.875
1503.61521	13413.075
1506.99934	15069.175
1510.38121	16190.275
1513.76081	16133.475
1517.13816	14641.775
1520.51324	12627.875
1523.88607	11035.875
1527.25665	10042.275
1530.62498	9583.775
1533.99105	9379.075
1537.35488	9299.375
1540.71647	9186.475
1544.07581	9080.275
1547.4329	8970.775
1550.78776	8849.175
1554.14038	8799.575
1557.49077	8765.575
1560.83892	8847.075
1564.18484	9052.775
1567.52853	9365.275
1570.86999	9672.975
1574.20922	9778.975
1577.54624	9699.375
1580.88103	9204.575
1584.2136	8581.775
1587.54395	8256.075
1590.87208	8178.775
1594.19801	8340.975
1597.52172	8675.875
1600.84321	8830.775
1604.16251	8708.275
1607.47959	8546.675
1610.79447	8354.475
1614.10715	8058.575
1617.41763	7776.875
1620.7259	7521.275
1624.03199	7370.575
1627.33587	7294.075
1630.63757	7341.775
1633.93707	7563.675
1637.23439	7980.975
1640.52951	8631.675
1643.82246	9553.275
1647.11321	10651.075
1650.40179	11317.175
1653.68819	10999.975
1656.97241	9794.975
1660.25446	8476.575
1663.53433	7551.675
1666.81203	6967.175
1670.08756	6644.975
1673.36092	6489.475
1676.63211	6342.775
1679.90115	6264.975
1683.16801	6185.375
1686.43272	6082.775
1689.69527	6059.675
1692.95567	5984.075
1696.2139	5962.775
1699.46999	5901.375
1702.72392	5911.675
1705.97571	5923.875
1709.22535	5893.275
1712.47284	5918.175
1715.71819	5936.275
1718.96139	5942.575
1722.20246	5932.275
1725.44139	5889.975
1728.67818	5859.575
1731.91284	5833.675
1735.14537	5803.075
1738.37576	5766.475
1741.60403	5757.775
1744.83017	5723.475
1748.05418	5737.975
1751.27607	5734.875
1754.49584	5691.775
1757.71349	5668.075
1760.92903	5672.375
1764.14244	5628.575
1767.35375	5631.375
1770.56294	5605.175
1773.77002	5580.975
1776.97499	5590.175
1780.17785	5590.275
1783.37861	5561.475
1786.57727	5582.475
1789.77382	5526.575
1792.96828	5560.775
1796.16064	5559.175
1799.3509	5518.075
1802.53907	5543.075
1805.72514	5509.175
1808.90913	5487.675
1812.09102	5486.675
1815.27083	5493.075
1818.44856	5459.675
1821.6242	5444.075
1824.79776	5443.975
1827.96924	5419.575
1831.13864	5416.875
1834.30597	5434.075
1837.47122	5388.675
1840.6344	5377.375
1843.7955	5374.475
1846.95454	5370.575
1850.11151	5380.675
1853.26642	5324.575
1856.41926	5336.975
1859.57004	5346.275
1862.71876	5342.075
1865.86542	5330.975
1869.01003	5334.575
1872.15258	5318.575
1875.29308	5316.875
1878.43152	5321.575
1881.56792	5307.475
1884.70227	5272.875
1887.83457	5289.875
1890.96482	5253.575
1894.09304	5272.375
1897.21921	5252.175
1900.34335	5269.875
1903.46544	5237.275
1906.58551	5259.875
1909.70353	5243.875
1912.81953	5239.675
1915.93349	5224.075
1919.04543	5207.975
1922.15534	5183.475
1925.26322	5200.075
1928.36908	5177.475
1931.47292	5182.575
1934.57473	5181.875
1937.67453	5153.475
1940.77232	5132.575
1943.86808	5119.675
1946.96184	5122.775
1950.05358	5082.175
1953.14331	5066.775
1956.23103	5062.875
1959.31675	5038.875
1962.40046	4981.675
1965.48217	5012.775
1968.56188	5001.075
1971.63959	4986.875
1974.7153	4992.575
1977.78901	4972.975
1980.86073	4947.475
1983.93046	4907.675
1986.99819	4842.275
1990.06394	4857.075
1993.1277	4882.975
1996.18947	4858.075
1999.24925	4818.275
2002.30706	4837.575
2005.36288	4802.575
2008.41672	4786.175
2011.46859	4750.775
2014.51848	4766.675
2017.56639	4732.075
2020.61233	4716.775
2023.6563	4708.375
2026.6983	4677.375
2029.73833	4681.175
2032.7764	4675.775
2035.8125	4651.475
2038.84664	4653.575
2041.87881	4637.275
2044.90903	4632.475
2047.93729	4620.675
2050.96359	4595.975
2053.98794	4621.075
2057.01034	4610.975
2060.03078	4582.375
2063.04927	4581.475
2066.06582	4591.075
2069.08042	4573.575
2072.09307	4576.275
2075.10378	4556.775
2078.11255	4543.575
2081.11938	4553.175
2084.12426	4555.275
2087.12722	4546.475
2090.12824	4537.975
2093.12732	4540.175
2096.12447	4543.175
2099.11969	4553.375
2102.11299	4528.675
2105.10435	4572.475
2108.09379	4548.575
2111.08131	4536.875
2114.0669	4545.975
2117.05057	4551.075
2120.03233	4533.475
2123.01216	4542.675
2125.99008	4547.275
2128.96609	4561.475
2131.94018	4573.075
2134.91236	4575.375
2137.88263	4546.275
2140.851	4552.175
2143.81746	4592.475
2146.78201	4556.875
2149.74466	4545.075
2152.7054	4566.075
2155.66425	4553.675
2158.6212	4542.375
2161.57625	4520.575
2164.52941	4489.775
2167.48067	4523.975
2170.43004	4504.675
2173.37752	4510.975
2176.32311	4512.975
2179.26681	4535.675
2182.20863	4527.275
2185.14856	4521.575
2188.08661	4509.675
2191.02278	4522.675
2193.95707	4493.375
2196.88948	4479.775
2199.82001	4505.875
2202.74867	4491.375
2205.67545	4483.475
2208.60037	4490.875
2211.52341	4479.475
2214.44458	4463.475
2217.36388	4462.775
2220.28132	4430.675
2223.1969	4406.475
2226.11061	4416.975
2229.02246	4408.275
2231.93245	4403.775
2234.84058	4373.675
2237.74686	4378.575
2240.65128	4358.175
2243.55385	4359.275
2246.45456	4347.975
2249.35343	4356.975
2252.25044	4337.875
2255.14561	4364.975
2258.03893	4341.975
2260.93041	4332.275
2263.82004	4314.175
2266.70783	4311.275
2269.59378	4283.575
2272.4779	4269.375
2275.36017	4277.075
2278.24061	4262.375
2281.11922	4227.875
2283.996	4252.475
2286.87094	4225.575
2289.74405	4240.675
2292.61534	4225.775
2295.4848	4214.375
2298.35243	4218.075
2301.21824	4181.075
2304.08223	4194.575
2306.94439	4219.875
2309.80474	4213.475
2312.66327	4185.175
2315.51999	4178.775
2318.37489	4176.475
2321.22797	4152.875
2324.07925	4151.275
2326.92871	4129.875
2329.77637	4127.375
2332.62222	4134.875
2335.46626	4103.975
2338.3085	4093.375
2341.14893	4100.375
2343.98756	4100.175
2346.8244	4087.575
2349.65943	4075.075
2352.49267	4072.675
2355.32411	4081.675
2358.15376	4082.075
2360.98161	4093.275
2363.80768	4065.175
2366.63195	4080.775
2369.45444	4082.075
2372.27514	4074.475
2375.09405	4084.375
2377.91118	4038.575
2380.72652	4038.675
2383.54009	4033.975
2386.35187	4045.775
2389.16188	4001.775
2391.97011	4013.475
2394.77657	3988.875
2397.58125	3996.875
2400.38416	3987.075
2403.18529	3969.075
2405.98466	3960.475
2408.78226	3959.575
2411.57809	3927.075
2414.37216	3938.375
2417.16446	3936.875
2419.955	3909.875
2422.74378	3922.575
2425.5308	3911.175
2428.31606	3912.675
2431.09956	3918.675
2433.88131	3891.175
2436.6613	3906.575
2439.43954	3886.475
2442.21603	3894.575
2444.99077	3877.075
2447.76377	3891.175
2450.53501	3870.375
2453.30451	3863.275
2456.07226	3866.375
2458.83827	3864.375
2461.60254	3832.475
2464.36507	3857.075
2467.12586	3837.575
2469.88492	3830.375
2472.64224	3837.575
2475.39782	3820.675
2478.15167	3823.275
2480.90379	3819.875
2483.65417	3845.475
2486.40283	3851.375
2489.14976	3832.475
2491.89497	3824.475
2494.63845	3829.475
2497.3802	3813.175
2500.12024	3819.375
2502.85855	3823.275
2505.59514	3816.475
2508.33002	3800.175
2511.06318	3758.875
2513.79462	3781.775
2516.52435	3742.675
2519.25237	3731.575
2521.97867	3722.275
2524.70327	3720.975
2527.42616	3714.975
2530.14734	3743.975
2532.86681	3704.175
2535.58458	3717.475
2538.30065	3695.475
2541.01501	3708.575
2543.72768	3683.975
2546.43864	3699.075
2549.14791	3678.575
2551.85548	3661.675
2554.56136	3649.175
2557.26554	3671.075
2559.96803	3658.175
2562.66883	3661.575
2565.36794	3638.475
2568.06536	3596.275
2570.7611	3637.475
2573.45514	3606.275
2576.14751	3614.475
2578.83819	3597.475
2581.52719	3571.975
2584.21451	3582.175
2586.90015	3553.475
2589.58411	3534.875
2592.2664	3541.675
2594.94701	3543.675
2597.62594	3537.775
2600.30321	3485.775
2602.9788	3499.075
2605.65273	3495.775
2608.32498	3504.975
2610.99557	3512.175
2613.66449	3487.975
2616.33175	3498.075
2618.99734	3500.275
2621.66128	3505.775
2624.32355	3479.875
2626.98416	3473.575
2629.64311	3449.175
2632.30041	3458.475
2634.95605	3433.875
2637.61004	3423.775
2640.26238	3396.675
2642.91306	3408.875
2645.56209	3436.675
2648.20948	3426.175
2650.85521	3414.575
2653.4993	3418.575
2656.14175	3416.875
2658.78255	3404.075
2661.42171	3375.375
2664.05923	3411.375
2666.6951	3418.375
2669.32934	3425.775
2671.96194	3427.175
2674.59291	3410.975
2677.22224	3417.575
2679.84993	3423.275
2682.476	3393.175
2685.10043	3394.475
2687.72324	3373.875
2690.34441	3384.975
2692.96396	3386.575
2695.58188	3391.475
2698.19818	3385.075
2700.81285	3382.875
2703.4259	3376.075
2706.03733	3333.275
2708.64714	3332.875
2711.25533	3360.275
2713.86191	3371.075
2716.46687	3365.575
2719.07021	3365.475
2721.67194	3375.775
2724.27206	3376.875
2726.87057	3353.375
2729.46747	3357.475
2732.06276	3360.975
2734.65644	3348.075
2737.24852	3341.875
2739.83899	3324.375
2742.42786	3345.475
2745.01513	3349.375
2747.60079	3317.575
2750.18486	3305.575
2752.76733	3304.175
2755.3482	3302.775
2757.92747	3310.975
2760.50515	3283.375
2763.08123	3276.975
2765.65573	3276.875
2768.22863	3263.975
2770.79994	3249.175
2773.36967	3250.675
2775.9378	3238.175
2778.50435	3226.975
2781.06932	3240.075
2783.6327	3230.275
2786.1945	3263.775
2788.75471	3220.775
2791.31335	3221.975
2793.87041	3215.575
2796.42589	3192.975
2798.97979	3183.775
2801.53212	3193.175
2804.08288	3206.275
2806.63206	3194.575
2809.17967	3173.675
2811.72571	3185.175
2814.27018	3177.575
2816.81308	3169.775
2819.35442	3127.175
2821.89419	3148.075
2824.43239	3128.075
2826.96904	3144.175
2829.50412	3125.075
2832.03763	3130.575
2834.56959	3118.475
2837.1	3108.475
2839.62884	3131.775
2842.15613	3110.175
2844.68186	3123.675
2847.20604	3084.875
2849.72867	3088.475
2852.24974	3082.575
2854.76927	3056.075
2857.28724	3022.975
2859.80367	3079.275
2862.31855	3079.175
2864.83189	3063.875
2867.34368	3068.175
2869.85393	3070.375
2872.36264	3057.775
2874.8698	3037.375
2877.37543	3061.475
2879.87952	3059.275
2882.38207	3019.375
2884.88308	3043.375
2887.38256	3046.175
2889.88051	3026.475
2892.37692	3027.775
2894.8718	3002.275
2897.36515	3034.775
2899.85698	3026.875
2902.34727	3024.375
2904.83604	3010.075
2907.32328	3031.875
2909.809	3036.375
2912.29319	3030.575
2914.77587	3028.875
2917.25702	3050.875
2919.73665	3043.775
2922.21476	3036.075
2924.69136	3042.375
2927.16644	3023.575
2929.64	3034.475
2932.11205	3007.175
2934.58258	3010.475
2937.05161	2997.875
2939.51912	2995.075
2941.98513	3007.175
2944.44962	2990.575
2946.91261	2962.875
2949.37409	2987.075
2951.83407	2974.675
2954.29254	2968.775
2956.74951	2976.075
2959.20498	2955.475
2961.65895	2951.275
2964.11142	2930.975
2966.56239	2946.775
2969.01186	2945.575
2971.45984	2933.575
2973.90632	2912.075
2976.35131	2931.575
2978.7948	2929.675
2981.23681	2934.475
2983.67732	2916.475
2986.11635	2916.375
2988.55388	2890.375
2990.98993	2884.675
2993.4245	2886.875
2995.85758	2861.775
2998.28917	2858.075
3000.71928	2855.575
3003.14791	2852.475
3005.57506	2829.675
3008.00073	2820.175
3010.42493	2769.275
3012.84764	2808.675
3015.26888	2801.375
3017.68865	2801.975
3020.10694	2764.175
3022.52376	2784.275
3024.9391	2779.175
3027.35298	2758.375
3029.76539	2742.775
3032.17632	2752.675
3034.5858	2739.075
3036.9938	2748.275
3039.40034	2745.875
3041.80542	2735.675
3044.20903	2709.075
3046.61118	2709.575
3049.01187	2724.775
3051.4111	2708.275
3053.80888	2685.375
3056.20519	2680.175
3058.60005	2658.375
3060.99345	2693.475
3063.3854	2661.075
3065.7759	2640.875
3068.16494	2644.275
3070.55254	2622.875
3072.93868	2645.275
3075.32338	2636.675
3077.70662	2623.175
3080.08842	2620.575
3082.46878	2599.575
3084.84769	2621.675
3087.22515	2601.375
3089.60118	2610.175
3091.97576	2592.075
3094.3489	2601.675
3096.72061	2600.775
3099.09087	2580.775
3101.4597	2589.075
3103.82709	2587.775
3106.19305	2568.075
3108.55757	2571.075
3110.92066	2568.275
3113.28232	2577.075
3115.64255	2572.075
3118.00134	2568.175
3120.35871	2537.275
3122.71466	2526.675
3125.06917	2527.675
3127.42226	2516.475
3129.77393	2509.875
3132.12417	2520.675
3134.47299	2524.575
3136.82039	2487.475
3139.16636	2479.575
3141.51092	2496.275
3143.85406	2505.375
3146.19579	2481.375
3148.53609	2482.075
3150.87499	2486.675
3153.21246	2461.975
3155.54853	2474.275
3157.88318	2487.775
3160.21642	2479.775
3162.54826	2495.375
3164.87868	2473.675
3167.2077	2451.375
3169.5353	2464.175
3171.86151	2477.475
3174.18631	2448.675
3176.5097	2448.375
3178.83169	2446.075
3181.15228	2450.175
3183.47147	2429.075
3185.78926	2411.275
3188.10565	2414.475
3190.42065	2396.175
3192.73424	2407.575
3195.04645	2392.775
3197.35725	2382.875
3199.66667	2395.275
3201.97469	2394.975
3204.28132	2381.475
3206.58656	2385.975
3208.8904	2406.175
3211.19287	2393.275
3213.49394	2378.175
3215.79363	2368.475
3218.09193	2384.875
3220.38884	2378.075
3222.68438	2374.175
3224.97853	2357.775
3227.2713	2381.975
3229.56269	2359.375
3231.8527	2354.975
3234.14133	2346.075
