Data from AgNPs_UA_10uM_CRN_500uM_SU_RamanShift__95__13-21-10-272.txt Node

Date: Thu Aug 04 13:21:10 BST 2022
User: TCL
Spectrometer: QEP01345
Trigger mode: 4
Integration Time (sec): 1.000000E0
Scans to average: 10
Electric dark correction enabled: true
Nonlinearity correction enabled: false
Boxcar width: 0
XAxis mode: Raman Shifts
Number of Pixels in Spectrum: 1044
>>>>>Begin Spectral Data<<<<<
46.04893	-0.025
50.45542	-0.425
54.85868	0.675
59.25871	-1.125
63.6555	20.275
68.04907	20.475
72.43941	23.575
76.82654	22.275
81.21044	23.375
85.59113	24.075
89.96862	24.075
94.34289	26.475
98.71396	25.475
103.08183	28.875
107.4465	30.675
111.80798	29.475
116.16626	33.375
120.52136	30.975
124.87327	35.075
129.222	34.575
133.56755	37.975
137.90993	42.075
142.24913	45.575
146.58517	55.075
150.91804	59.875
155.24774	76.975
159.57429	94.675
163.89768	124.975
168.21792	163.275
172.53501	229.175
176.84895	321.975
181.15975	460.675
185.46741	649.775
189.77193	906.175
194.07331	1212.675
198.37157	1564.975
202.6667	1932.575
206.9587	2294.475
211.24758	2662.175
215.53334	3047.675
219.81599	3426.575
224.09553	3880.275
228.37195	4365.975
232.64527	4879.175
236.91549	5401.975
241.18261	5891.975
245.44663	6301.775
249.70755	6616.475
253.96539	6898.275
258.22014	7151.775
262.4718	7378.575
266.72039	7499.375
270.96589	7589.675
275.20832	7554.875
279.44768	7440.075
283.68397	7339.475
287.91719	7266.175
292.14735	7260.375
296.37445	7352.675
300.59849	7544.875
304.81948	7776.375
309.03742	7986.075
313.25231	8088.675
317.46415	8008.775
321.67296	7746.175
325.87872	7488.675
330.08145	7351.075
334.28114	7354.575
338.47781	7431.275
342.67145	7574.375
346.86207	7774.775
351.04966	8048.575
355.23424	8324.675
359.4158	8549.575
363.59435	8690.975
367.76989	8719.975
371.94243	8737.175
376.11196	8748.675
380.27849	8743.675
384.44203	8786.675
388.60257	8831.275
392.76012	8895.275
396.91468	9018.775
401.06626	9176.075
405.21485	9212.075
409.36047	9120.975
413.50311	8874.875
417.64277	8665.975
421.77947	8504.375
425.9132	8433.775
430.04396	8431.875
434.17176	8487.575
438.2966	8597.375
442.41849	8757.875
446.53742	8985.275
450.6534	9172.475
454.76644	9316.675
458.87653	9355.275
462.98368	9352.275
467.08789	9256.575
471.18916	9116.975
475.2875	8926.075
479.38291	8731.275
483.4754	8624.975
487.56496	8559.275
491.6516	8521.275
495.73531	8522.475
499.81612	8572.475
503.89401	8616.675
507.96899	8689.675
512.04106	8712.475
516.11023	8780.575
520.1765	8803.475
524.23987	8827.275
528.30034	8815.875
532.35792	8796.275
536.41261	8713.875
540.46441	8612.575
544.51333	8611.075
548.55936	8685.075
552.60252	8762.575
556.64279	8919.875
560.6802	9039.575
564.71473	9123.375
568.7464	9210.675
572.7752	9176.175
576.80114	8980.775
580.82422	8878.075
584.84444	8829.275
588.86181	8895.775
592.87633	8972.675
596.888	9181.975
600.89682	9543.075
604.9028	10557.275
608.90594	12522.075
612.90624	14420.675
616.90371	13280.175
620.89834	10623.575
624.89015	9570.975
628.87913	9528.875
632.86528	9624.875
636.84862	9569.975
640.82913	9327.275
644.80683	9007.575
648.78172	8818.575
652.75379	8840.975
656.72306	9087.575
660.68952	9386.375
664.65319	9319.175
668.61405	9249.975
672.57211	9292.575
676.52738	9269.275
680.47986	9098.875
684.42955	8907.475
688.37646	8896.375
692.32058	8990.175
696.26192	9141.375
700.20048	9318.775
704.13626	9322.675
708.06928	9213.675
711.99952	9086.575
715.927	9113.975
719.85171	9155.075
723.77365	9174.675
727.69284	9084.675
731.60928	9026.575
735.52295	9017.775
739.43388	9045.075
743.34206	9124.175
747.24749	9129.175
751.15017	9144.475
755.05012	9240.275
758.94733	9542.475
762.8418	10243.675
766.73354	11321.775
770.62254	12185.275
774.50882	12403.575
778.39237	11959.775
782.27321	11200.675
786.15132	10363.875
790.02671	9738.575
793.89938	9415.175
797.76935	9288.875
801.6366	9205.675
805.50115	9170.875
809.36299	9115.875
813.22213	9105.275
817.07857	9096.175
820.93231	9095.975
824.78336	9083.675
828.63172	9109.575
832.47738	9116.075
836.32036	9137.075
840.16066	9129.575
843.99827	9133.775
847.8332	9155.075
851.66546	9122.375
855.49504	9138.975
859.32195	9164.675
863.1462	9139.675
866.96777	9117.375
870.78668	9113.275
874.60293	9164.375
878.41652	9193.675
882.22745	9262.675
886.03573	9317.375
889.84136	9321.175
893.64433	9259.475
897.44466	9217.475
901.24235	9199.175
905.0374	9194.975
908.8298	9140.375
912.61957	9165.375
916.40671	9160.875
920.19121	9210.975
923.97308	9299.175
927.75233	9423.075
931.52895	9508.175
935.30295	9428.675
939.07433	9244.975
942.84309	9156.175
946.60924	9130.475
950.37278	9123.175
954.13371	9090.475
957.89203	9056.775
961.64774	9035.475
965.40086	9033.375
969.15137	9014.675
972.89929	8999.475
976.64461	9039.575
980.38733	9043.875
984.12747	9065.475
987.86502	9129.875
991.59999	9214.775
995.33237	9341.875
999.06217	9519.375
1002.78939	9765.675
1006.51404	9873.075
1010.23611	9961.275
1013.95561	10061.375
1017.67255	10137.375
1021.38692	10149.775
1025.09872	10162.575
1028.80796	10192.775
1032.51465	10357.575
1036.21877	10482.775
1039.92035	10469.375
1043.61937	10363.475
1047.31584	10234.975
1051.00976	10081.675
1054.70114	10011.475
1058.38998	10045.375
1062.07627	10078.475
1065.76003	10111.175
1069.44126	10183.675
1073.11995	10351.875
1076.79611	10483.275
1080.46974	10630.775
1084.14085	10731.575
1087.80943	10806.675
1091.47549	10829.575
1095.13903	10773.675
1098.80005	10756.975
1102.45857	10772.975
1106.11456	10791.575
1109.76805	10671.375
1113.41903	10687.675
1117.06751	10792.875
1120.71348	10986.775
1124.35696	11149.075
1127.99793	11230.175
1131.63641	11093.275
1135.2724	10845.375
1138.90589	10618.675
1142.5369	10422.075
1146.16542	10304.875
1149.79145	10215.975
1153.415	10163.075
1157.03607	10175.675
1160.65467	10250.475
1164.27079	10509.375
1167.88443	10859.775
1171.49561	11334.275
1175.10432	12121.275
1178.71056	13105.475
1182.31434	13970.375
1185.91565	14336.775
1189.51451	14348.375
1193.11091	14051.775
1196.70485	13621.475
1200.29634	13190.975
1203.88538	12738.775
1207.47197	12233.075
1211.05612	11790.775
1214.63782	11465.575
1218.21708	11294.075
1221.79391	11197.375
1225.36829	11224.075
1228.94024	11217.275
1232.50976	11145.175
1236.07685	11067.075
1239.6415	11094.575
1243.20374	11136.975
1246.76355	11207.275
1250.32093	11324.075
1253.8759	11543.575
1257.42845	11832.475
1260.97859	12167.875
1264.52631	12469.475
1268.07163	12695.275
1271.61453	12888.175
1275.15503	13051.975
1278.69312	13142.775
1282.22882	13282.675
1285.76211	13400.175
1289.29301	13542.175
1292.82151	13748.575
1296.34761	14020.275
1299.87133	14465.275
1303.39266	15314.175
1306.9116	16469.775
1310.42815	17726.475
1313.94233	18318.175
1317.45412	17904.775
1320.96354	16966.975
1324.47058	15984.175
1327.97525	15164.775
1331.47754	14671.575
1334.97747	14517.975
1338.47502	14686.675
1341.97022	15160.275
1345.46305	15857.775
1348.95352	16798.675
1352.44163	17835.375
1355.92738	18946.875
1359.41078	20207.075
1362.89183	21036.875
1366.37053	19998.575
1369.84688	17528.275
1373.32088	15257.575
1376.79254	13942.175
1380.26186	13305.475
1383.72883	12962.375
1387.19347	12627.275
1390.65578	12284.275
1394.11575	11969.675
1397.57339	11745.175
1401.0287	11677.075
1404.48168	11697.075
1407.93234	11803.275
1411.38068	12013.375
1414.82669	12183.375
1418.27039	12182.775
1421.71177	12141.975
1425.15083	12065.775
1428.58758	12005.975
1432.02203	12119.275
1435.45416	12225.475
1438.88399	12205.775
1442.31151	12158.475
1445.73673	12128.075
1449.15965	12139.675
1452.58027	12072.575
1455.9986	11984.075
1459.41463	11986.375
1462.82837	12049.675
1466.23982	12246.175
1469.64898	12433.975
1473.05586	12601.575
1476.46045	12768.675
1479.86276	12901.675
1483.26279	13033.375
1486.66054	13237.275
1490.05602	13590.775
1493.44922	14051.075
1496.84016	14800.275
1500.22882	15833.275
1503.61521	17089.875
1506.99934	18309.075
1510.38121	18983.375
1513.76081	18707.475
1517.13816	17504.675
1520.51324	15927.475
1523.88607	14674.675
1527.25665	13933.975
1530.62498	13501.075
1533.99105	13330.575
1537.35488	13221.175
1540.71647	13119.075
1544.07581	12979.875
1547.4329	12909.175
1550.78776	12744.175
1554.14038	12604.975
1557.49077	12590.975
1560.83892	12709.175
1564.18484	12937.275
1567.52853	13158.675
1570.86999	13293.575
1574.20922	13265.875
1577.54624	13100.075
1580.88103	12683.475
1584.2136	12220.475
1587.54395	12040.575
1590.87208	12253.675
1594.19801	12834.075
1597.52172	13500.775
1600.84321	13858.975
1604.16251	13682.275
1607.47959	13303.475
1610.79447	12733.375
1614.10715	12070.275
1617.41763	11435.075
1620.7259	10998.475
1624.03199	10749.675
1627.33587	10732.475
1630.63757	10924.575
1633.93707	11392.675
1637.23439	12124.375
1640.52951	13170.875
1643.82246	14353.875
1647.11321	15473.475
1650.40179	15715.875
1653.68819	14804.375
1656.97241	13137.075
1660.25446	11610.875
1663.53433	10595.475
1666.81203	9999.175
1670.08756	9632.475
1673.36092	9425.575
1676.63211	9270.075
1679.90115	9129.275
1683.16801	9045.175
1686.43272	8981.675
1689.69527	8908.775
1692.95567	8862.375
1696.2139	8859.075
1699.46999	8840.775
1702.72392	8817.175
1705.97571	8826.375
1709.22535	8815.375
1712.47284	8818.175
1715.71819	8796.975
1718.96139	8788.675
1722.20246	8804.775
1725.44139	8759.775
1728.67818	8709.075
1731.91284	8675.575
1735.14537	8622.175
1738.37576	8586.175
1741.60403	8563.575
1744.83017	8532.375
1748.05418	8520.775
1751.27607	8493.675
1754.49584	8499.275
1757.71349	8485.175
1760.92903	8473.975
1764.14244	8467.875
1767.35375	8422.775
1770.56294	8416.575
1773.77002	8421.775
1776.97499	8386.575
1780.17785	8356.675
1783.37861	8342.375
1786.57727	8347.475
1789.77382	8326.575
1792.96828	8305.475
1796.16064	8313.275
1799.3509	8296.775
1802.53907	8309.975
1805.72514	8270.175
1808.90913	8252.375
1812.09102	8234.475
1815.27083	8232.375
1818.44856	8186.775
1821.6242	8164.975
1824.79776	8149.675
1827.96924	8143.075
1831.13864	8142.475
1834.30597	8119.675
1837.47122	8106.775
1840.6344	8090.675
1843.7955	8083.075
1846.95454	8076.575
1850.11151	8089.075
1853.26642	8085.175
1856.41926	8081.375
1859.57004	8088.475
1862.71876	8088.075
1865.86542	8084.475
1869.01003	8055.575
1872.15258	8041.175
1875.29308	8042.075
1878.43152	8023.175
1881.56792	8022.775
1884.70227	8001.375
1887.83457	7987.775
1890.96482	7972.175
1894.09304	7952.475
1897.21921	7946.175
1900.34335	7934.775
1903.46544	7957.575
1906.58551	7930.675
1909.70353	7926.675
1912.81953	7947.375
1915.93349	7915.075
1919.04543	7871.575
1922.15534	7869.275
1925.26322	7879.875
1928.36908	7853.075
1931.47292	7826.775
1934.57473	7822.275
1937.67453	7803.375
1940.77232	7780.575
1943.86808	7765.275
1946.96184	7744.775
1950.05358	7718.375
1953.14331	7713.275
1956.23103	7667.175
1959.31675	7656.275
1962.40046	7627.175
1965.48217	7617.875
1968.56188	7593.075
1971.63959	7553.575
1974.7153	7564.075
1977.78901	7562.975
1980.86073	7525.375
1983.93046	7488.175
1986.99819	7462.675
1990.06394	7454.975
1993.1277	7410.075
1996.18947	7376.075
1999.24925	7344.775
2002.30706	7325.975
2005.36288	7302.375
2008.41672	7295.875
2011.46859	7272.675
2014.51848	7246.675
2017.56639	7222.875
2020.61233	7208.375
2023.6563	7180.675
2026.6983	7185.375
2029.73833	7147.175
2032.7764	7133.775
2035.8125	7132.775
2038.84664	7121.075
2041.87881	7112.075
2044.90903	7083.575
2047.93729	7069.675
2050.96359	7065.775
2053.98794	7067.875
2057.01034	7049.975
2060.03078	7005.675
2063.04927	7021.475
2066.06582	7015.175
2069.08042	6988.075
2072.09307	7002.175
2075.10378	6989.775
2078.11255	6996.275
2081.11938	6981.375
2084.12426	6966.475
2087.12722	6954.475
2090.12824	6942.175
2093.12732	6955.875
2096.12447	6970.275
2099.11969	6984.075
2102.11299	6974.375
2105.10435	6958.875
2108.09379	6964.175
2111.08131	6959.675
2114.0669	6974.075
2117.05057	6988.375
2120.03233	6991.775
2123.01216	7009.175
2125.99008	6974.075
2128.96609	6990.775
2131.94018	7004.375
2134.91236	6993.675
2137.88263	6978.975
2140.851	7014.075
2143.81746	7011.575
2146.78201	6994.575
2149.74466	6983.875
2152.7054	7007.975
2155.66425	7013.075
2158.6212	7010.175
2161.57625	6979.675
2164.52941	6976.175
2167.48067	6980.875
2170.43004	6991.175
2173.37752	6960.775
2176.32311	6980.975
2179.26681	6952.775
2182.20863	6970.575
2185.14856	6972.875
2188.08661	6958.375
2191.02278	6981.575
2193.95707	6961.375
2196.88948	6963.375
2199.82001	6953.275
2202.74867	6940.875
2205.67545	6960.875
2208.60037	6969.575
2211.52341	6949.375
2214.44458	6912.975
2217.36388	6893.275
2220.28132	6878.375
2223.1969	6864.475
2226.11061	6848.675
2229.02246	6831.975
2231.93245	6840.075
2234.84058	6812.475
2237.74686	6811.175
2240.65128	6781.275
2243.55385	6777.675
2246.45456	6767.475
2249.35343	6741.975
2252.25044	6755.475
2255.14561	6753.375
2258.03893	6763.275
2260.93041	6741.375
2263.82004	6716.675
2266.70783	6703.175
2269.59378	6682.475
2272.4779	6656.075
2275.36017	6638.875
2278.24061	6643.475
2281.11922	6612.375
2283.996	6604.075
2286.87094	6601.875
2289.74405	6603.475
2292.61534	6601.675
2295.4848	6558.375
2298.35243	6573.775
2301.21824	6568.475
2304.08223	6549.975
2306.94439	6543.375
2309.80474	6548.375
2312.66327	6533.575
2315.51999	6553.875
2318.37489	6565.275
2321.22797	6544.075
2324.07925	6510.975
2326.92871	6499.975
2329.77637	6499.075
2332.62222	6483.575
2335.46626	6488.275
2338.3085	6487.375
2341.14893	6475.475
2343.98756	6514.775
2346.8244	6480.175
2349.65943	6463.275
2352.49267	6458.475
2355.32411	6459.275
2358.15376	6456.775
2360.98161	6474.175
2363.80768	6473.075
2366.63195	6431.775
2369.45444	6436.675
2372.27514	6433.175
2375.09405	6419.775
2377.91118	6400.475
2380.72652	6384.475
2383.54009	6377.075
2386.35187	6360.675
2389.16188	6343.475
2391.97011	6303.375
2394.77657	6307.175
2397.58125	6294.375
2400.38416	6275.175
2403.18529	6289.775
2405.98466	6269.975
2408.78226	6260.575
2411.57809	6241.475
2414.37216	6234.275
2417.16446	6229.275
2419.955	6219.775
2422.74378	6229.275
2425.5308	6202.175
2428.31606	6206.375
2431.09956	6211.175
2433.88131	6179.875
2436.6613	6174.375
2439.43954	6166.375
2442.21603	6161.475
2444.99077	6169.275
2447.76377	6176.575
2450.53501	6151.575
2453.30451	6156.175
2456.07226	6135.775
2458.83827	6143.775
2461.60254	6115.275
2464.36507	6121.975
2467.12586	6115.475
2469.88492	6101.675
2472.64224	6117.275
2475.39782	6111.075
2478.15167	6100.775
2480.90379	6081.875
2483.65417	6088.175
2486.40283	6087.175
2489.14976	6106.075
2491.89497	6109.575
2494.63845	6114.475
2497.3802	6106.775
2500.12024	6068.975
2502.85855	6072.475
2505.59514	6082.575
2508.33002	6044.675
2511.06318	6051.375
2513.79462	6022.775
2516.52435	6022.075
2519.25237	6006.275
2521.97867	6000.775
2524.70327	5997.875
2527.42616	5989.875
2530.14734	5968.575
2532.86681	5965.975
2535.58458	5994.775
2538.30065	5982.775
2541.01501	5997.775
2543.72768	5966.975
2546.43864	5950.275
2549.14791	5946.775
2551.85548	5946.175
2554.56136	5931.775
2557.26554	5930.275
2559.96803	5900.475
2562.66883	5884.275
2565.36794	5870.175
2568.06536	5867.175
2570.7611	5846.275
2573.45514	5849.475
2576.14751	5849.875
2578.83819	5843.475
2581.52719	5827.375
2584.21451	5833.575
2586.90015	5844.275
2589.58411	5822.575
2592.2664	5801.075
2594.94701	5797.375
2597.62594	5794.975
2600.30321	5779.875
2602.9788	5772.475
2605.65273	5778.275
2608.32498	5760.275
2610.99557	5754.475
2613.66449	5749.875
2616.33175	5743.975
2618.99734	5758.275
2621.66128	5746.175
2624.32355	5740.375
2626.98416	5730.675
2629.64311	5722.875
2632.30041	5713.275
2634.95605	5703.475
2637.61004	5690.075
2640.26238	5686.675
2642.91306	5688.975
2645.56209	5685.975
2648.20948	5670.775
2650.85521	5657.575
2653.4993	5658.075
2656.14175	5662.675
2658.78255	5655.175
2661.42171	5642.475
2664.05923	5658.475
2666.6951	5656.675
2669.32934	5685.975
2671.96194	5671.575
2674.59291	5676.375
2677.22224	5673.075
2679.84993	5681.375
2682.476	5661.675
2685.10043	5653.475
2687.72324	5653.075
2690.34441	5648.475
2692.96396	5624.675
2695.58188	5629.475
2698.19818	5615.175
2700.81285	5625.575
2703.4259	5619.375
2706.03733	5606.675
2708.64714	5598.775
2711.25533	5613.075
2713.86191	5609.175
2716.46687	5612.975
2719.07021	5610.175
2721.67194	5618.875
2724.27206	5611.575
2726.87057	5603.675
2729.46747	5603.575
2732.06276	5606.975
2734.65644	5604.075
2737.24852	5587.175
2739.83899	5589.775
2742.42786	5571.075
2745.01513	5564.275
2747.60079	5564.375
2750.18486	5551.675
2752.76733	5549.875
2755.3482	5529.975
2757.92747	5536.975
2760.50515	5513.675
2763.08123	5511.775
2765.65573	5493.175
2768.22863	5510.975
2770.79994	5501.575
2773.36967	5478.975
2775.9378	5494.575
2778.50435	5476.275
2781.06932	5482.175
2783.6327	5478.475
2786.1945	5474.175
2788.75471	5453.875
2791.31335	5433.875
2793.87041	5421.775
2796.42589	5414.775
2798.97979	5381.775
2801.53212	5391.375
2804.08288	5400.575
2806.63206	5373.975
2809.17967	5376.775
2811.72571	5356.675
2814.27018	5353.975
2816.81308	5325.375
2819.35442	5331.775
2821.89419	5325.275
2824.43239	5289.475
2826.96904	5301.175
2829.50412	5322.075
2832.03763	5285.375
2834.56959	5275.675
2837.1	5246.675
2839.62884	5256.175
2842.15613	5250.075
2844.68186	5238.875
2847.20604	5232.775
2849.72867	5231.675
2852.24974	5237.775
2854.76927	5203.175
2857.28724	5209.175
2859.80367	5207.175
2862.31855	5180.575
2864.83189	5204.875
2867.34368	5208.875
2869.85393	5213.175
2872.36264	5179.975
2874.8698	5162.575
2877.37543	5178.275
2879.87952	5153.375
2882.38207	5161.775
2884.88308	5147.475
2887.38256	5160.975
2889.88051	5159.575
2892.37692	5139.175
2894.8718	5139.775
2897.36515	5125.575
2899.85698	5129.175
2902.34727	5157.175
2904.83604	5162.575
2907.32328	5139.775
2909.809	5149.875
2912.29319	5166.075
2914.77587	5160.275
2917.25702	5170.675
2919.73665	5174.075
2922.21476	5151.575
2924.69136	5136.975
2927.16644	5128.975
2929.64	5122.775
2932.11205	5124.075
2934.58258	5090.175
2937.05161	5113.475
2939.51912	5103.275
2941.98513	5095.875
2944.44962	5095.375
2946.91261	5085.475
2949.37409	5099.575
2951.83407	5073.475
2954.29254	5069.275
2956.74951	5070.875
2959.20498	5061.675
2961.65895	5058.075
2964.11142	5067.975
2966.56239	5058.675
2969.01186	5040.575
2971.45984	5054.475
2973.90632	5041.875
2976.35131	5022.475
2978.7948	5012.675
2981.23681	5013.975
2983.67732	5003.575
2986.11635	4977.275
2988.55388	4967.775
2990.98993	4958.275
2993.4245	4958.875
2995.85758	4936.675
2998.28917	4933.775
3000.71928	4907.875
3003.14791	4895.475
3005.57506	4883.475
3008.00073	4874.775
3010.42493	4864.575
3012.84764	4846.475
3015.26888	4848.475
3017.68865	4850.075
3020.10694	4839.175
3022.52376	4803.375
3024.9391	4815.775
3027.35298	4775.275
3029.76539	4767.175
3032.17632	4770.875
3034.5858	4738.875
3036.9938	4759.975
3039.40034	4737.175
3041.80542	4732.175
3044.20903	4709.775
3046.61118	4718.875
3049.01187	4694.275
3051.4111	4676.775
3053.80888	4691.975
3056.20519	4678.175
3058.60005	4658.875
3060.99345	4649.875
3063.3854	4643.275
3065.7759	4629.875
3068.16494	4614.875
3070.55254	4610.575
3072.93868	4572.175
3075.32338	4578.275
3077.70662	4558.975
3080.08842	4567.075
3082.46878	4556.475
3084.84769	4544.475
3087.22515	4515.575
3089.60118	4535.575
3091.97576	4519.075
3094.3489	4503.775
3096.72061	4506.575
3099.09087	4499.175
3101.4597	4505.275
3103.82709	4509.575
3106.19305	4498.975
3108.55757	4502.475
3110.92066	4469.475
3113.28232	4475.875
3115.64255	4458.875
3118.00134	4459.375
3120.35871	4459.375
3122.71466	4430.275
3125.06917	4431.775
3127.42226	4403.775
3129.77393	4415.775
3132.12417	4388.375
3134.47299	4388.575
3136.82039	4374.775
3139.16636	4394.475
3141.51092	4377.275
3143.85406	4374.375
3146.19579	4373.475
3148.53609	4374.675
3150.87499	4369.975
3153.21246	4361.575
3155.54853	4381.875
3157.88318	4354.575
3160.21642	4343.375
3162.54826	4358.975
3164.87868	4355.075
3167.2077	4332.075
3169.5353	4348.875
3171.86151	4338.375
3174.18631	4325.575
3176.5097	4304.375
3178.83169	4300.975
3181.15228	4293.075
3183.47147	4283.175
3185.78926	4277.375
3188.10565	4253.775
3190.42065	4245.375
3192.73424	4257.075
3195.04645	4263.175
3197.35725	4246.875
3199.66667	4240.075
3201.97469	4233.875
3204.28132	4240.375
3206.58656	4241.175
3208.8904	4230.875
3211.19287	4232.675
3213.49394	4235.175
3215.79363	4235.675
