Data from AgNPs_UA_20uM_CRN_500uM_SU_RamanShift__38__13-42-50-298.txt Node

Date: Thu Aug 04 13:42:50 BST 2022
User: TCL
Spectrometer: QEP01345
Trigger mode: 4
Integration Time (sec): 1.000000E0
Scans to average: 10
Electric dark correction enabled: true
Nonlinearity correction enabled: false
Boxcar width: 0
XAxis mode: Raman Shifts
Number of Pixels in Spectrum: 1044
>>>>>Begin Spectral Data<<<<<
46.04893	-1.825
50.45542	-0.925
54.85868	-0.325
59.25871	-0.125
63.6555	18.575
68.04907	16.575
72.43941	21.475
76.82654	20.175
81.21044	19.275
85.59113	20.875
89.96862	22.075
94.34289	23.175
98.71396	24.175
103.08183	25.075
107.4465	23.875
111.80798	25.875
116.16626	28.375
120.52136	28.475
124.87327	27.175
129.222	34.275
133.56755	33.075
137.90993	35.175
142.24913	40.475
146.58517	45.275
150.91804	50.675
155.24774	64.675
159.57429	80.575
163.89768	105.075
168.21792	138.875
172.53501	192.175
176.84895	271.975
181.15975	380.675
185.46741	539.775
189.77193	747.875
194.07331	1014.075
198.37157	1311.075
202.6667	1610.775
206.9587	1931.375
211.24758	2240.175
215.53334	2561.475
219.81599	2906.175
224.09553	3284.075
228.37195	3703.275
232.64527	4144.375
236.91549	4596.275
241.18261	5002.075
245.44663	5357.575
249.70755	5631.675
253.96539	5897.875
258.22014	6105.275
262.4718	6269.775
266.72039	6367.675
270.96589	6415.375
275.20832	6369.775
279.44768	6293.775
283.68397	6180.775
287.91719	6117.575
292.14735	6112.275
296.37445	6187.375
300.59849	6346.675
304.81948	6566.075
309.03742	6747.875
313.25231	6843.875
317.46415	6764.675
321.67296	6526.875
325.87872	6291.975
330.08145	6195.275
334.28114	6191.875
338.47781	6268.675
342.67145	6393.275
346.86207	6556.975
351.04966	6787.675
355.23424	7038.575
359.4158	7213.175
363.59435	7312.475
367.76989	7373.175
371.94243	7379.375
376.11196	7352.775
380.27849	7350.575
384.44203	7354.075
388.60257	7380.275
392.76012	7448.275
396.91468	7539.275
401.06626	7627.875
405.21485	7669.875
409.36047	7579.275
413.50311	7395.775
417.64277	7217.475
421.77947	7067.875
425.9132	7012.175
430.04396	7031.975
434.17176	7044.175
438.2966	7131.275
442.41849	7230.975
446.53742	7370.775
450.6534	7497.575
454.76644	7584.875
458.87653	7637.975
462.98368	7618.775
467.08789	7588.575
471.18916	7532.475
475.2875	7393.975
479.38291	7278.775
483.4754	7222.375
487.56496	7189.075
491.6516	7158.175
495.73531	7153.175
499.81612	7173.675
503.89401	7237.375
507.96899	7270.475
512.04106	7325.375
516.11023	7394.075
520.1765	7436.775
524.23987	7438.875
528.30034	7445.775
532.35792	7391.175
536.41261	7368.575
540.46441	7303.675
544.51333	7272.375
548.55936	7336.875
552.60252	7435.675
556.64279	7510.675
560.6802	7601.275
564.71473	7704.975
568.7464	7775.075
572.7752	7740.575
576.80114	7562.975
580.82422	7420.375
584.84444	7344.375
588.86181	7378.475
592.87633	7407.475
596.888	7528.775
600.89682	7860.775
604.9028	8630.175
608.90594	10225.575
612.90624	11852.675
616.90371	11025.375
620.89834	8813.875
624.89015	7872.675
628.87913	7772.675
632.86528	7923.475
636.84862	8024.175
640.82913	7914.475
644.80683	7650.775
648.78172	7505.975
652.75379	7538.775
656.72306	7722.975
660.68952	7922.775
664.65319	7878.975
668.61405	7760.775
672.57211	7821.775
676.52738	7810.275
680.47986	7707.075
684.42955	7565.575
688.37646	7520.275
692.32058	7571.475
696.26192	7700.575
700.20048	7834.175
704.13626	7853.375
708.06928	7817.475
711.99952	7735.775
715.927	7715.375
719.85171	7777.775
723.77365	7792.375
727.69284	7742.175
731.60928	7684.875
735.52295	7672.075
739.43388	7683.375
743.34206	7707.275
747.24749	7739.775
751.15017	7747.775
755.05012	7797.575
758.94733	8058.075
762.8418	8605.075
766.73354	9507.175
770.62254	10234.775
774.50882	10403.675
778.39237	10088.575
782.27321	9459.475
786.15132	8740.975
790.02671	8214.275
793.89938	7956.675
797.76935	7830.775
801.6366	7774.275
805.50115	7724.475
809.36299	7705.275
813.22213	7700.775
817.07857	7706.775
820.93231	7728.075
824.78336	7728.775
828.63172	7748.875
832.47738	7761.275
836.32036	7759.075
840.16066	7720.575
843.99827	7730.675
847.8332	7735.375
851.66546	7742.175
855.49504	7752.575
859.32195	7773.875
863.1462	7800.175
866.96777	7754.175
870.78668	7763.775
874.60293	7795.175
878.41652	7820.975
882.22745	7876.175
886.03573	7923.575
889.84136	7921.075
893.64433	7885.575
897.44466	7856.175
901.24235	7870.475
905.0374	7830.275
908.8298	7790.175
912.61957	7770.575
916.40671	7775.075
920.19121	7815.275
923.97308	7851.375
927.75233	7912.075
931.52895	7967.775
935.30295	7923.575
939.07433	7811.675
942.84309	7739.275
946.60924	7700.175
950.37278	7694.175
954.13371	7684.375
957.89203	7700.175
961.64774	7682.975
965.40086	7679.675
969.15137	7657.475
972.89929	7657.475
976.64461	7676.475
980.38733	7677.075
984.12747	7696.975
987.86502	7704.275
991.59999	7778.975
995.33237	7802.475
999.06217	7862.675
1002.78939	7936.875
1006.51404	8070.375
1010.23611	8203.875
1013.95561	8213.675
1017.67255	8243.475
1021.38692	8236.975
1025.09872	8150.975
1028.80796	8077.875
1032.51465	8049.975
1036.21877	8052.575
1039.92035	8080.875
1043.61937	8110.975
1047.31584	8162.375
1051.00976	8151.175
1054.70114	8199.875
1058.38998	8226.175
1062.07627	8230.075
1065.76003	8310.375
1069.44126	8411.675
1073.11995	8536.675
1076.79611	8693.175
1080.46974	8794.775
1084.14085	8876.975
1087.80943	8956.175
1091.47549	9019.975
1095.13903	9024.975
1098.80005	8998.975
1102.45857	9013.875
1106.11456	8964.775
1109.76805	8855.575
1113.41903	8845.475
1117.06751	8906.675
1120.71348	9065.675
1124.35696	9201.375
1127.99793	9343.375
1131.63641	9193.275
1135.2724	8956.875
1138.90589	8758.775
1142.5369	8667.875
1146.16542	8628.575
1149.79145	8594.875
1153.415	8481.075
1157.03607	8442.775
1160.65467	8464.775
1164.27079	8603.175
1167.88443	8793.275
1171.49561	9125.075
1175.10432	9628.675
1178.71056	10280.075
1182.31434	10923.575
1185.91565	11124.075
1189.51451	11041.875
1193.11091	10882.575
1196.70485	10670.675
1200.29634	10461.075
1203.88538	10218.475
1207.47197	9926.275
1211.05612	9569.275
1214.63782	9320.675
1218.21708	9145.575
1221.79391	8964.575
1225.36829	8900.575
1228.94024	8885.675
1232.50976	8863.475
1236.07685	8896.475
1239.6415	8923.875
1243.20374	8942.475
1246.76355	9027.875
1250.32093	9104.675
1253.8759	9230.275
1257.42845	9407.175
1260.97859	9658.775
1264.52631	9862.775
1268.07163	9985.775
1271.61453	10061.075
1275.15503	10087.975
1278.69312	10066.475
1282.22882	10046.175
1285.76211	10093.175
1289.29301	10255.475
1292.82151	10416.475
1296.34761	10600.775
1299.87133	10893.575
1303.39266	11406.375
1306.9116	12124.375
1310.42815	12912.675
1313.94233	13174.775
1317.45412	12741.675
1320.96354	12122.475
1324.47058	11507.675
1327.97525	10986.375
1331.47754	10626.775
1334.97747	10573.375
1338.47502	10696.375
1341.97022	11052.475
1345.46305	11629.275
1348.95352	12437.175
1352.44163	13297.575
1355.92738	14153.775
1359.41078	15161.175
1362.89183	15929.275
1366.37053	15325.175
1369.84688	13421.075
1373.32088	11651.375
1376.79254	10695.575
1380.26186	10180.975
1383.72883	9863.175
1387.19347	9643.475
1390.65578	9357.875
1394.11575	9148.675
1397.57339	8975.275
1401.0287	8871.775
1404.48168	8831.775
1407.93234	8833.175
1411.38068	8945.975
1414.82669	9033.975
1418.27039	9089.475
1421.71177	9083.675
1425.15083	9020.075
1428.58758	8942.775
1432.02203	8978.075
1435.45416	8980.175
1438.88399	9012.775
1442.31151	8995.775
1445.73673	9036.975
1449.15965	9020.975
1452.58027	9011.875
1455.9986	8965.575
1459.41463	8963.575
1462.82837	9034.875
1466.23982	9150.975
1469.64898	9315.875
1473.05586	9445.975
1476.46045	9517.875
1479.86276	9618.675
1483.26279	9731.175
1486.66054	9900.875
1490.05602	10140.675
1493.44922	10575.775
1496.84016	11224.475
1500.22882	12149.975
1503.61521	13327.375
1506.99934	14385.675
1510.38121	14979.975
1513.76081	14696.575
1517.13816	13673.275
1520.51324	12340.875
1523.88607	11269.975
1527.25665	10608.075
1530.62498	10256.475
1533.99105	10077.575
1537.35488	9984.275
1540.71647	9920.075
1544.07581	9837.275
1547.4329	9771.775
1550.78776	9703.775
1554.14038	9638.075
1557.49077	9619.275
1560.83892	9683.975
1564.18484	9881.975
1567.52853	10129.475
1570.86999	10318.675
1574.20922	10389.375
1577.54624	10288.275
1580.88103	9933.775
1584.2136	9501.375
1587.54395	9185.575
1590.87208	9197.775
1594.19801	9374.175
1597.52172	9655.475
1600.84321	9828.575
1604.16251	9771.475
1607.47959	9645.275
1610.79447	9417.875
1614.10715	9086.975
1617.41763	8745.075
1620.7259	8482.175
1624.03199	8316.775
1627.33587	8282.475
1630.63757	8342.375
1633.93707	8519.175
1637.23439	8887.975
1640.52951	9482.075
1643.82246	10313.675
1647.11321	11240.475
1650.40179	11717.675
1653.68819	11305.975
1656.97241	10287.975
1660.25446	9210.375
1663.53433	8458.175
1666.81203	8012.275
1670.08756	7752.975
1673.36092	7611.575
1676.63211	7520.575
1679.90115	7430.775
1683.16801	7376.075
1686.43272	7307.375
1689.69527	7274.675
1692.95567	7267.975
1696.2139	7238.875
1699.46999	7209.375
1702.72392	7186.375
1705.97571	7210.775
1709.22535	7179.475
1712.47284	7191.475
1715.71819	7176.375
1718.96139	7164.475
1722.20246	7147.975
1725.44139	7129.375
1728.67818	7102.975
1731.91284	7079.075
1735.14537	7027.675
1738.37576	7022.375
1741.60403	7007.875
1744.83017	6997.175
1748.05418	6964.875
1751.27607	6964.175
1754.49584	6947.075
1757.71349	6924.075
1760.92903	6923.875
1764.14244	6905.375
1767.35375	6889.175
1770.56294	6886.575
1773.77002	6872.475
1776.97499	6873.575
1780.17785	6831.175
1783.37861	6826.275
1786.57727	6803.275
1789.77382	6807.275
1792.96828	6799.175
1796.16064	6755.875
1799.3509	6760.475
1802.53907	6749.175
1805.72514	6740.575
1808.90913	6731.175
1812.09102	6714.775
1815.27083	6706.775
1818.44856	6676.575
1821.6242	6651.475
1824.79776	6662.575
1827.96924	6645.875
1831.13864	6643.575
1834.30597	6637.075
1837.47122	6616.075
1840.6344	6595.175
1843.7955	6588.375
1846.95454	6589.975
1850.11151	6583.375
1853.26642	6567.775
1856.41926	6573.575
1859.57004	6570.575
1862.71876	6557.975
1865.86542	6557.275
1869.01003	6524.375
1872.15258	6503.075
1875.29308	6521.475
1878.43152	6496.375
1881.56792	6489.275
1884.70227	6486.975
1887.83457	6477.475
1890.96482	6468.475
1894.09304	6466.675
1897.21921	6465.075
1900.34335	6441.775
1903.46544	6416.975
1906.58551	6426.575
1909.70353	6435.575
1912.81953	6436.275
1915.93349	6411.475
1919.04543	6381.975
1922.15534	6386.175
1925.26322	6360.075
1928.36908	6351.575
1931.47292	6346.975
1934.57473	6336.675
1937.67453	6340.275
1940.77232	6295.975
1943.86808	6273.675
1946.96184	6259.575
1950.05358	6234.475
1953.14331	6208.075
1956.23103	6198.475
1959.31675	6176.575
1962.40046	6156.375
1965.48217	6138.175
1968.56188	6128.275
1971.63959	6115.375
1974.7153	6093.875
1977.78901	6085.775
1980.86073	6079.075
1983.93046	6043.275
1986.99819	6032.575
1990.06394	5983.475
1993.1277	5983.075
1996.18947	5974.575
1999.24925	5944.075
2002.30706	5923.575
2005.36288	5911.575
2008.41672	5862.075
2011.46859	5865.575
2014.51848	5842.575
2017.56639	5825.075
2020.61233	5821.375
2023.6563	5792.475
2026.6983	5795.175
2029.73833	5751.175
2032.7764	5741.775
2035.8125	5740.275
2038.84664	5716.675
2041.87881	5708.975
2044.90903	5702.375
2047.93729	5701.675
2050.96359	5684.875
2053.98794	5669.075
2057.01034	5659.975
2060.03078	5653.275
2063.04927	5629.575
2066.06582	5632.075
2069.08042	5635.575
2072.09307	5614.975
2075.10378	5628.375
2078.11255	5601.375
2081.11938	5597.075
2084.12426	5615.275
2087.12722	5605.575
2090.12824	5587.675
2093.12732	5614.875
2096.12447	5614.475
2099.11969	5618.075
2102.11299	5602.075
2105.10435	5604.075
2108.09379	5601.475
2111.08131	5603.575
2114.0669	5603.375
2117.05057	5619.975
2120.03233	5585.875
2123.01216	5612.075
2125.99008	5616.775
2128.96609	5627.575
2131.94018	5618.475
2134.91236	5622.175
2137.88263	5627.575
2140.851	5614.775
2143.81746	5623.175
2146.78201	5616.075
2149.74466	5619.575
2152.7054	5618.375
2155.66425	5599.575
2158.6212	5623.875
2161.57625	5615.175
2164.52941	5612.975
2167.48067	5607.775
2170.43004	5598.375
2173.37752	5592.875
2176.32311	5611.375
2179.26681	5594.875
2182.20863	5593.075
2185.14856	5595.375
2188.08661	5586.775
2191.02278	5577.975
2193.95707	5578.475
2196.88948	5565.575
2199.82001	5560.075
2202.74867	5542.075
2205.67545	5556.475
2208.60037	5547.175
2211.52341	5534.175
2214.44458	5515.075
2217.36388	5502.975
2220.28132	5451.575
2223.1969	5461.875
2226.11061	5465.375
2229.02246	5440.975
2231.93245	5434.775
2234.84058	5420.775
2237.74686	5414.775
2240.65128	5418.475
2243.55385	5421.375
2246.45456	5424.375
2249.35343	5412.075
2252.25044	5395.075
2255.14561	5398.975
2258.03893	5363.675
2260.93041	5367.575
2263.82004	5363.175
2266.70783	5337.875
2269.59378	5327.075
2272.4779	5309.975
2275.36017	5300.275
2278.24061	5284.375
2281.11922	5265.675
2283.996	5263.275
2286.87094	5239.975
2289.74405	5236.975
2292.61534	5234.175
2295.4848	5228.275
2298.35243	5236.275
2301.21824	5223.675
2304.08223	5212.275
2306.94439	5215.175
2309.80474	5208.475
2312.66327	5202.075
2315.51999	5171.575
2318.37489	5172.475
2321.22797	5180.275
2324.07925	5165.275
2326.92871	5128.675
2329.77637	5127.475
2332.62222	5136.075
2335.46626	5113.275
2338.3085	5119.875
2341.14893	5105.775
2343.98756	5092.575
2346.8244	5101.975
2349.65943	5088.475
2352.49267	5097.575
2355.32411	5092.075
2358.15376	5087.575
2360.98161	5062.875
2363.80768	5072.575
2366.63195	5069.475
2369.45444	5062.975
2372.27514	5052.075
2375.09405	5058.875
2377.91118	5064.275
2380.72652	5052.175
2383.54009	5029.575
2386.35187	5013.975
2389.16188	4995.175
2391.97011	4987.275
2394.77657	4971.275
2397.58125	4957.075
2400.38416	4947.875
2403.18529	4933.975
2405.98466	4948.975
2408.78226	4923.175
2411.57809	4921.575
2414.37216	4904.475
2417.16446	4899.675
2419.955	4884.075
2422.74378	4897.175
2425.5308	4879.575
2428.31606	4871.775
2431.09956	4864.675
2433.88131	4876.975
2436.6613	4859.775
2439.43954	4875.975
2442.21603	4860.375
2444.99077	4851.375
2447.76377	4864.175
2450.53501	4846.275
2453.30451	4834.575
2456.07226	4838.175
2458.83827	4823.775
2461.60254	4828.375
2464.36507	4815.775
2467.12586	4809.575
2469.88492	4803.375
2472.64224	4797.875
2475.39782	4800.275
2478.15167	4794.875
2480.90379	4776.275
2483.65417	4776.475
2486.40283	4790.375
2489.14976	4780.075
2491.89497	4780.475
2494.63845	4762.975
2497.3802	4770.775
2500.12024	4766.675
2502.85855	4753.175
2505.59514	4742.075
2508.33002	4727.875
2511.06318	4705.075
2513.79462	4707.375
2516.52435	4700.875
2519.25237	4693.675
2521.97867	4677.575
2524.70327	4675.475
2527.42616	4669.175
2530.14734	4652.675
2532.86681	4641.075
2535.58458	4649.775
2538.30065	4633.075
2541.01501	4631.975
2543.72768	4627.675
2546.43864	4620.075
2549.14791	4608.375
2551.85548	4619.875
2554.56136	4615.475
2557.26554	4598.875
2559.96803	4582.975
2562.66883	4571.075
2565.36794	4572.975
2568.06536	4554.375
2570.7611	4534.475
2573.45514	4532.675
2576.14751	4537.275
2578.83819	4504.075
2581.52719	4509.875
2584.21451	4505.175
2586.90015	4466.175
2589.58411	4461.275
2592.2664	4451.475
2594.94701	4457.275
2597.62594	4463.375
2600.30321	4442.675
2602.9788	4450.375
2605.65273	4439.875
2608.32498	4419.775
2610.99557	4410.575
2613.66449	4403.075
2616.33175	4417.775
2618.99734	4382.575
2621.66128	4383.375
2624.32355	4377.075
2626.98416	4370.275
2629.64311	4352.675
2632.30041	4355.175
2634.95605	4337.275
2637.61004	4334.275
2640.26238	4318.375
2642.91306	4317.975
2645.56209	4311.975
2648.20948	4302.275
2650.85521	4320.675
2653.4993	4310.175
2656.14175	4302.975
2658.78255	4310.475
2661.42171	4313.875
2664.05923	4302.375
2666.6951	4311.175
2669.32934	4308.375
2671.96194	4307.775
2674.59291	4304.275
2677.22224	4286.075
2679.84993	4289.375
2682.476	4288.775
2685.10043	4281.575
2687.72324	4275.075
2690.34441	4267.175
2692.96396	4280.775
2695.58188	4278.875
2698.19818	4268.475
2700.81285	4277.475
2703.4259	4291.375
2706.03733	4272.975
2708.64714	4257.075
2711.25533	4261.475
2713.86191	4261.375
2716.46687	4260.075
2719.07021	4250.975
2721.67194	4248.375
2724.27206	4258.875
2726.87057	4243.175
2729.46747	4249.275
2732.06276	4261.375
2734.65644	4234.475
2737.24852	4251.375
2739.83899	4231.975
2742.42786	4235.675
2745.01513	4219.675
2747.60079	4228.775
2750.18486	4207.675
2752.76733	4203.775
2755.3482	4208.575
2757.92747	4179.875
2760.50515	4159.975
2763.08123	4181.075
2765.65573	4153.475
2768.22863	4151.675
2770.79994	4147.175
2773.36967	4141.875
2775.9378	4144.175
2778.50435	4144.375
2781.06932	4124.275
2783.6327	4117.075
2786.1945	4096.975
2788.75471	4084.375
2791.31335	4079.975
2793.87041	4086.975
2796.42589	4075.375
2798.97979	4064.975
2801.53212	4055.275
2804.08288	4054.975
2806.63206	4032.775
2809.17967	4035.875
2811.72571	4026.375
2814.27018	4039.975
2816.81308	4010.375
2819.35442	3997.275
2821.89419	3977.375
2824.43239	3979.075
2826.96904	3977.575
2829.50412	3973.675
2832.03763	3958.475
2834.56959	3946.775
2837.1	3927.675
2839.62884	3946.375
2842.15613	3932.475
2844.68186	3946.375
2847.20604	3922.175
2849.72867	3927.775
2852.24974	3899.875
2854.76927	3895.875
2857.28724	3879.875
2859.80367	3879.575
2862.31855	3881.475
2864.83189	3872.475
2867.34368	3877.075
2869.85393	3864.475
2872.36264	3860.175
2874.8698	3851.675
2877.37543	3849.675
2879.87952	3850.875
2882.38207	3835.975
2884.88308	3838.775
2887.38256	3824.975
2889.88051	3823.475
2892.37692	3814.475
2894.8718	3811.975
2897.36515	3818.775
2899.85698	3824.675
2902.34727	3807.775
2904.83604	3813.675
2907.32328	3814.175
2909.809	3819.375
2912.29319	3829.375
2914.77587	3823.975
2917.25702	3812.675
2919.73665	3820.375
2922.21476	3821.875
2924.69136	3816.975
2927.16644	3805.175
2929.64	3797.675
2932.11205	3782.675
2934.58258	3779.075
2937.05161	3778.075
2939.51912	3771.975
2941.98513	3771.175
2944.44962	3765.075
2946.91261	3755.875
2949.37409	3760.775
2951.83407	3744.075
2954.29254	3748.875
2956.74951	3741.175
2959.20498	3728.775
2961.65895	3731.175
2964.11142	3723.075
2966.56239	3736.175
2969.01186	3725.775
2971.45984	3726.075
2973.90632	3720.675
2976.35131	3720.475
2978.7948	3703.975
2981.23681	3691.475
2983.67732	3697.375
2986.11635	3694.975
2988.55388	3690.575
2990.98993	3690.275
2993.4245	3670.375
2995.85758	3660.675
2998.28917	3670.475
3000.71928	3640.875
3003.14791	3637.275
3005.57506	3629.275
3008.00073	3604.475
3010.42493	3598.475
3012.84764	3581.175
3015.26888	3576.175
3017.68865	3578.475
3020.10694	3577.475
3022.52376	3572.175
3024.9391	3565.575
3027.35298	3556.075
3029.76539	3530.075
3032.17632	3537.675
3034.5858	3538.375
3036.9938	3514.675
3039.40034	3509.875
3041.80542	3495.075
3044.20903	3506.575
3046.61118	3493.475
3049.01187	3474.075
3051.4111	3480.575
3053.80888	3474.175
3056.20519	3462.975
3058.60005	3442.975
3060.99345	3436.075
3063.3854	3430.475
3065.7759	3432.475
3068.16494	3433.375
3070.55254	3421.875
3072.93868	3407.175
3075.32338	3399.575
3077.70662	3394.975
3080.08842	3366.175
3082.46878	3374.375
3084.84769	3352.175
3087.22515	3349.675
3089.60118	3361.675
3091.97576	3348.075
3094.3489	3345.075
3096.72061	3350.675
3099.09087	3343.875
3101.4597	3331.175
3103.82709	3336.175
3106.19305	3321.275
3108.55757	3330.075
3110.92066	3336.175
3113.28232	3323.175
3115.64255	3298.275
3118.00134	3293.375
3120.35871	3285.175
3122.71466	3281.275
3125.06917	3283.175
3127.42226	3259.375
3129.77393	3260.975
3132.12417	3262.375
3134.47299	3253.475
3136.82039	3241.975
3139.16636	3234.475
3141.51092	3240.075
3143.85406	3237.975
3146.19579	3239.875
3148.53609	3231.275
3150.87499	3231.375
3153.21246	3216.675
3155.54853	3230.175
3157.88318	3231.975
3160.21642	3230.175
3162.54826	3236.175
3164.87868	3211.575
3167.2077	3206.575
3169.5353	3207.175
3171.86151	3217.475
3174.18631	3206.175
3176.5097	3199.175
3178.83169	3193.775
3181.15228	3184.875
3183.47147	3179.275
3185.78926	3181.775
3188.10565	3157.075
3190.42065	3150.475
3192.73424	3156.375
3195.04645	3145.175
3197.35725	3140.475
3199.66667	3135.475
3201.97469	3128.275
3204.28132	3136.075
3206.58656	3124.075
3208.8904	3125.675
3211.19287	3126.575
3213.49394	3153.675
3215.79363	3128.675
3218.09193	3130.275
3220.38884	3120.675
3222.68438	3114.375
3224.97853	3111.775
3227.2713	3121.575
3229.56269	3107.675
3231.8527	3105.175
