Data from AgNPs_UA_5uM_CRN_500uM_SU_RamanShift__270__12-14-23-194.txt Node

Date: Thu Aug 04 12:14:23 BST 2022
User: TCL
Spectrometer: QEP01345
Trigger mode: 4
Integration Time (sec): 1.000000E0
Scans to average: 10
Electric dark correction enabled: true
Nonlinearity correction enabled: false
Boxcar width: 0
XAxis mode: Raman Shifts
Number of Pixels in Spectrum: 1044
>>>>>Begin Spectral Data<<<<<
46.04893	0.4125
50.45542	-0.3875
54.85868	0.0125
59.25871	-0.4875
63.6555	-58.6875
68.04907	-39.3875
72.43941	-72.6875
76.82654	-56.1875
81.21044	-56.0875
85.59113	-50.4875
89.96862	-75.9875
94.34289	-55.3875
98.71396	-77.9875
103.08183	-59.0875
107.4465	-49.8875
111.80798	-57.0875
116.16626	-44.5875
120.52136	-75.4875
124.87327	-49.6875
129.222	-63.6875
133.56755	-51.6875
137.90993	-63.8875
142.24913	-51.6875
146.58517	-43.1875
150.91804	-41.2875
155.24774	-29.3875
159.57429	-10.7875
163.89768	-6.9875
168.21792	36.9125
172.53501	56.7125
176.84895	137.4125
181.15975	267.6125
185.46741	412.7125
189.77193	597.0125
194.07331	889.2125
198.37157	1169.5125
202.6667	1444.9125
206.9587	1762.4125
211.24758	2075.3125
215.53334	2395.5125
219.81599	2754.7125
224.09553	3159.6125
228.37195	3596.1125
232.64527	4053.2125
236.91549	4527.4125
241.18261	4848.4125
245.44663	5126.0125
249.70755	5297.9125
253.96539	5417.7125
258.22014	5530.4125
262.4718	5592.3125
266.72039	5627.6125
270.96589	5609.4125
275.20832	5520.7125
279.44768	5404.6125
283.68397	5292.2125
287.91719	5254.0125
292.14735	5300.2125
296.37445	5459.6125
300.59849	5763.1125
304.81948	6100.8125
309.03742	6473.0125
313.25231	6726.2125
317.46415	6677.9125
321.67296	6284.7125
325.87872	5894.8125
330.08145	5679.0125
334.28114	5624.8125
338.47781	5700.9125
342.67145	5826.3125
346.86207	6068.4125
351.04966	6422.8125
355.23424	6814.4125
359.4158	7062.1125
363.59435	7107.6125
367.76989	7049.9125
371.94243	6930.2125
376.11196	6800.0125
380.27849	6721.1125
384.44203	6645.9125
388.60257	6606.8125
392.76012	6615.4125
396.91468	6735.7125
401.06626	6899.9125
405.21485	6919.0125
409.36047	6757.8125
413.50311	6433.2125
417.64277	6136.5125
421.77947	5917.7125
425.9132	5865.9125
430.04396	5863.2125
434.17176	5872.9125
438.2966	5982.8125
442.41849	6043.8125
446.53742	6158.0125
450.6534	6269.3125
454.76644	6341.9125
458.87653	6342.3125
462.98368	6289.9125
467.08789	6238.0125
471.18916	6147.5125
475.2875	6003.1125
479.38291	5914.6125
483.4754	5808.7125
487.56496	5775.1125
491.6516	5744.9125
495.73531	5749.6125
499.81612	5792.2125
503.89401	5867.4125
507.96899	5908.4125
512.04106	6024.5125
516.11023	6108.9125
520.1765	6187.1125
524.23987	6229.9125
528.30034	6193.4125
532.35792	6108.4125
536.41261	6059.9125
540.46441	5983.2125
544.51333	5926.8125
548.55936	5973.0125
552.60252	6102.3125
556.64279	6191.5125
560.6802	6312.1125
564.71473	6457.6125
568.7464	6655.2125
572.7752	6616.6125
576.80114	6320.0125
580.82422	6108.0125
584.84444	6003.3125
588.86181	5975.3125
592.87633	6011.2125
596.888	6133.6125
600.89682	6488.0125
604.9028	7468.1125
608.90594	9620.3125
612.90624	11971.3125
616.90371	11099.6125
620.89834	7971.6125
624.89015	6607.5125
628.87913	6387.4125
632.86528	6532.1125
636.84862	6703.0125
640.82913	6589.7125
644.80683	6218.8125
648.78172	6025.9125
652.75379	6060.9125
656.72306	6327.0125
660.68952	6548.8125
664.65319	6458.2125
668.61405	6207.3125
672.57211	6133.0125
676.52738	6141.0125
680.47986	6036.7125
684.42955	5946.2125
688.37646	5898.9125
692.32058	5892.1125
696.26192	5964.2125
700.20048	6068.5125
704.13626	6126.0125
708.06928	6066.0125
711.99952	6032.7125
715.927	5996.7125
719.85171	6062.1125
723.77365	6099.5125
727.69284	6068.3125
731.60928	6050.1125
735.52295	6008.2125
739.43388	6054.5125
743.34206	6078.7125
747.24749	6113.5125
751.15017	6124.3125
755.05012	6180.1125
758.94733	6605.7125
762.8418	7465.2125
766.73354	8840.9125
770.62254	9898.7125
774.50882	9964.1125
778.39237	9411.5125
782.27321	8455.9125
786.15132	7362.4125
790.02671	6665.3125
793.89938	6299.4125
797.76935	6164.1125
801.6366	6082.3125
805.50115	6029.0125
809.36299	6009.7125
813.22213	5998.8125
817.07857	5999.5125
820.93231	6006.8125
824.78336	6028.4125
828.63172	6035.4125
832.47738	6053.6125
836.32036	6046.5125
840.16066	6015.3125
843.99827	5974.1125
847.8332	5983.6125
851.66546	5986.2125
855.49504	5995.4125
859.32195	6027.2125
863.1462	6012.2125
866.96777	6026.1125
870.78668	6007.8125
874.60293	6013.9125
878.41652	6043.6125
882.22745	6132.2125
886.03573	6156.9125
889.84136	6135.0125
893.64433	6152.6125
897.44466	6118.2125
901.24235	6128.8125
905.0374	6124.1125
908.8298	6067.3125
912.61957	6034.4125
916.40671	5972.7125
920.19121	6038.4125
923.97308	6142.0125
927.75233	6182.6125
931.52895	6260.3125
935.30295	6221.1125
939.07433	6046.2125
942.84309	5936.1125
946.60924	5916.7125
950.37278	5866.0125
954.13371	5870.5125
957.89203	5859.6125
961.64774	5886.3125
965.40086	5864.7125
969.15137	5843.3125
972.89929	5891.0125
976.64461	5867.5125
980.38733	5884.2125
984.12747	5869.3125
987.86502	5896.9125
991.59999	5906.4125
995.33237	5984.4125
999.06217	6059.4125
1002.78939	6123.2125
1006.51404	6247.3125
1010.23611	6366.3125
1013.95561	6439.4125
1017.67255	6410.5125
1021.38692	6392.1125
1025.09872	6323.5125
1028.80796	6247.5125
1032.51465	6244.1125
1036.21877	6241.8125
1039.92035	6287.9125
1043.61937	6328.4125
1047.31584	6379.8125
1051.00976	6433.7125
1054.70114	6423.5125
1058.38998	6424.2125
1062.07627	6428.3125
1065.76003	6446.4125
1069.44126	6518.2125
1073.11995	6596.6125
1076.79611	6742.9125
1080.46974	6896.1125
1084.14085	7056.2125
1087.80943	7193.3125
1091.47549	7234.1125
1095.13903	7127.1125
1098.80005	7018.0125
1102.45857	6928.4125
1106.11456	6874.7125
1109.76805	6831.0125
1113.41903	6942.2125
1117.06751	7107.9125
1120.71348	7399.8125
1124.35696	7794.9125
1127.99793	8077.7125
1131.63641	7921.7125
1135.2724	7491.5125
1138.90589	7203.1125
1142.5369	6980.7125
1146.16542	6867.8125
1149.79145	6754.6125
1153.415	6710.9125
1157.03607	6731.6125
1160.65467	6826.0125
1164.27079	7048.9125
1167.88443	7314.1125
1171.49561	7752.6125
1175.10432	8400.9125
1178.71056	9314.8125
1182.31434	10161.8125
1185.91565	10416.1125
1189.51451	10263.0125
1193.11091	9996.5125
1196.70485	9742.0125
1200.29634	9478.9125
1203.88538	9187.3125
1207.47197	8708.8125
1211.05612	8219.2125
1214.63782	7791.4125
1218.21708	7522.2125
1221.79391	7371.5125
1225.36829	7297.7125
1228.94024	7292.8125
1232.50976	7313.4125
1236.07685	7343.0125
1239.6415	7359.8125
1243.20374	7391.6125
1246.76355	7426.2125
1250.32093	7501.6125
1253.8759	7550.1125
1257.42845	7747.2125
1260.97859	7934.8125
1264.52631	8196.2125
1268.07163	8341.7125
1271.61453	8488.3125
1275.15503	8543.2125
1278.69312	8558.6125
1282.22882	8627.5125
1285.76211	8820.6125
1289.29301	9059.1125
1292.82151	9344.5125
1296.34761	9556.3125
1299.87133	9975.7125
1303.39266	10702.3125
1306.9116	11862.7125
1310.42815	13126.6125
1313.94233	13567.6125
1317.45412	12763.2125
1320.96354	11591.2125
1324.47058	10579.8125
1327.97525	9801.6125
1331.47754	9381.9125
1334.97747	9265.2125
1338.47502	9356.1125
1341.97022	9759.3125
1345.46305	10526.8125
1348.95352	11638.3125
1352.44163	12988.7125
1355.92738	14442.1125
1359.41078	16183.1125
1362.89183	17690.9125
1366.37053	17060.3125
1369.84688	14151.4125
1373.32088	11395.0125
1376.79254	9880.9125
1380.26186	9176.2125
1383.72883	8753.0125
1387.19347	8312.1125
1390.65578	7948.7125
1394.11575	7706.4125
1397.57339	7543.7125
1401.0287	7422.4125
1404.48168	7376.9125
1407.93234	7398.3125
1411.38068	7408.2125
1414.82669	7468.2125
1418.27039	7554.8125
1421.71177	7554.4125
1425.15083	7439.3125
1428.58758	7359.5125
1432.02203	7387.3125
1435.45416	7488.0125
1438.88399	7463.4125
1442.31151	7457.3125
1445.73673	7540.5125
1449.15965	7567.5125
1452.58027	7598.1125
1455.9986	7569.2125
1459.41463	7606.0125
1462.82837	7706.4125
1466.23982	7877.6125
1469.64898	8113.6125
1473.05586	8265.0125
1476.46045	8354.6125
1479.86276	8443.4125
1483.26279	8547.2125
1486.66054	8766.0125
1490.05602	9057.6125
1493.44922	9651.3125
1496.84016	10543.0125
1500.22882	11963.9125
1503.61521	13744.9125
1506.99934	15632.2125
1510.38121	16862.8125
1513.76081	16703.7125
1517.13816	15059.2125
1520.51324	12864.6125
1523.88607	11109.3125
1527.25665	10067.2125
1530.62498	9582.8125
1533.99105	9380.7125
1537.35488	9257.8125
1540.71647	9159.1125
1544.07581	9002.7125
1547.4329	8833.8125
1550.78776	8707.3125
1554.14038	8601.6125
1557.49077	8582.7125
1560.83892	8686.3125
1564.18484	8936.3125
1567.52853	9281.7125
1570.86999	9635.5125
1574.20922	9780.7125
1577.54624	9653.2125
1580.88103	9125.4125
1584.2136	8401.5125
1587.54395	8002.6125
1590.87208	7905.5125
1594.19801	8074.6125
1597.52172	8445.2125
1600.84321	8584.7125
1604.16251	8444.7125
1607.47959	8233.7125
1610.79447	8051.7125
1614.10715	7781.3125
1617.41763	7490.4125
1620.7259	7191.8125
1624.03199	7024.7125
1627.33587	6984.2125
1630.63757	7007.7125
1633.93707	7262.1125
1637.23439	7662.4125
1640.52951	8370.1125
1643.82246	9389.4125
1647.11321	10573.6125
1650.40179	11346.1125
1653.68819	11011.3125
1656.97241	9725.7125
1660.25446	8316.7125
1663.53433	7267.1125
1666.81203	6629.8125
1670.08756	6276.0125
1673.36092	6109.8125
1676.63211	5961.2125
1679.90115	5863.7125
1683.16801	5769.1125
1686.43272	5698.8125
1689.69527	5658.3125
1692.95567	5601.7125
1696.2139	5572.8125
1699.46999	5532.5125
1702.72392	5537.9125
1705.97571	5540.5125
1709.22535	5524.7125
1712.47284	5556.6125
1715.71819	5570.4125
1718.96139	5556.0125
1722.20246	5534.5125
1725.44139	5491.1125
1728.67818	5476.4125
1731.91284	5436.1125
1735.14537	5417.4125
1738.37576	5359.2125
1741.60403	5355.2125
1744.83017	5319.5125
1748.05418	5313.8125
1751.27607	5319.9125
1754.49584	5285.3125
1757.71349	5233.4125
1760.92903	5274.5125
1764.14244	5208.5125
1767.35375	5206.5125
1770.56294	5192.0125
1773.77002	5167.1125
1776.97499	5190.5125
1780.17785	5155.4125
1783.37861	5156.9125
1786.57727	5161.3125
1789.77382	5103.3125
1792.96828	5122.6125
1796.16064	5123.4125
1799.3509	5123.8125
1802.53907	5133.9125
1805.72514	5092.5125
1808.90913	5070.6125
1812.09102	5070.0125
1815.27083	5055.1125
1818.44856	5040.9125
1821.6242	5021.8125
1824.79776	5026.8125
1827.96924	5004.8125
1831.13864	4978.6125
1834.30597	4995.7125
1837.47122	4979.6125
1840.6344	4964.7125
1843.7955	4956.4125
1846.95454	4940.4125
1850.11151	4952.7125
1853.26642	4916.4125
1856.41926	4928.1125
1859.57004	4916.0125
1862.71876	4917.1125
1865.86542	4920.9125
1869.01003	4916.1125
1872.15258	4868.4125
1875.29308	4914.5125
1878.43152	4906.0125
1881.56792	4872.1125
1884.70227	4854.8125
1887.83457	4852.0125
1890.96482	4827.4125
1894.09304	4840.6125
1897.21921	4838.6125
1900.34335	4832.4125
1903.46544	4809.0125
1906.58551	4836.0125
1909.70353	4821.6125
1912.81953	4805.8125
1915.93349	4795.1125
1919.04543	4783.1125
1922.15534	4760.6125
1925.26322	4772.8125
1928.36908	4778.0125
1931.47292	4762.3125
1934.57473	4763.9125
1937.67453	4739.1125
1940.77232	4695.5125
1943.86808	4684.4125
1946.96184	4694.9125
1950.05358	4660.4125
1953.14331	4642.8125
1956.23103	4670.1125
1959.31675	4625.1125
1962.40046	4577.0125
1965.48217	4590.7125
1968.56188	4587.5125
1971.63959	4563.2125
1974.7153	4566.1125
1977.78901	4564.4125
1980.86073	4539.9125
1983.93046	4506.7125
1986.99819	4430.3125
1990.06394	4460.0125
1993.1277	4473.7125
1996.18947	4456.9125
1999.24925	4419.9125
2002.30706	4423.7125
2005.36288	4414.7125
2008.41672	4386.1125
2011.46859	4350.8125
2014.51848	4352.8125
2017.56639	4329.0125
2020.61233	4316.2125
2023.6563	4315.1125
2026.6983	4265.9125
2029.73833	4286.5125
2032.7764	4268.5125
2035.8125	4234.4125
2038.84664	4247.1125
2041.87881	4226.9125
2044.90903	4233.8125
2047.93729	4227.3125
2050.96359	4199.3125
2053.98794	4207.1125
2057.01034	4226.0125
2060.03078	4199.8125
2063.04927	4187.0125
2066.06582	4182.3125
2069.08042	4179.3125
2072.09307	4184.8125
2075.10378	4171.2125
2078.11255	4162.5125
2081.11938	4169.0125
2084.12426	4145.3125
2087.12722	4137.9125
2090.12824	4138.9125
2093.12732	4139.9125
2096.12447	4154.3125
2099.11969	4146.8125
2102.11299	4150.4125
2105.10435	4151.6125
2108.09379	4145.5125
2111.08131	4139.7125
2114.0669	4130.0125
2117.05057	4131.0125
2120.03233	4129.8125
2123.01216	4151.1125
2125.99008	4174.8125
2128.96609	4152.8125
2131.94018	4171.2125
2134.91236	4180.4125
2137.88263	4159.0125
2140.851	4171.3125
2143.81746	4187.9125
2146.78201	4166.6125
2149.74466	4152.7125
2152.7054	4169.5125
2155.66425	4147.4125
2158.6212	4132.3125
2161.57625	4115.4125
2164.52941	4101.8125
2167.48067	4114.0125
2170.43004	4104.9125
2173.37752	4124.5125
2176.32311	4101.0125
2179.26681	4101.9125
2182.20863	4101.3125
2185.14856	4111.1125
2188.08661	4115.9125
2191.02278	4115.7125
2193.95707	4096.0125
2196.88948	4086.5125
2199.82001	4095.9125
2202.74867	4070.5125
2205.67545	4087.1125
2208.60037	4080.4125
2211.52341	4069.0125
2214.44458	4048.8125
2217.36388	4043.0125
2220.28132	4044.2125
2223.1969	4003.2125
2226.11061	4014.5125
2229.02246	4002.3125
2231.93245	4002.0125
2234.84058	3978.2125
2237.74686	3963.9125
2240.65128	3975.0125
2243.55385	3961.9125
2246.45456	3938.5125
2249.35343	3953.1125
2252.25044	3940.6125
2255.14561	3962.7125
2258.03893	3955.1125
2260.93041	3938.4125
2263.82004	3951.5125
2266.70783	3924.8125
2269.59378	3916.7125
2272.4779	3895.9125
2275.36017	3896.2125
2278.24061	3876.2125
2281.11922	3854.5125
2283.996	3877.9125
2286.87094	3847.7125
2289.74405	3848.6125
2292.61534	3837.1125
2295.4848	3831.7125
2298.35243	3830.5125
2301.21824	3810.3125
2304.08223	3808.2125
2306.94439	3829.9125
2309.80474	3806.7125
2312.66327	3808.7125
2315.51999	3794.2125
2318.37489	3785.0125
2321.22797	3784.5125
2324.07925	3781.1125
2326.92871	3764.2125
2329.77637	3750.3125
2332.62222	3738.7125
2335.46626	3720.7125
2338.3085	3727.6125
2341.14893	3731.9125
2343.98756	3737.9125
2346.8244	3714.5125
2349.65943	3706.2125
2352.49267	3711.5125
2355.32411	3710.2125
2358.15376	3714.9125
2360.98161	3710.6125
2363.80768	3697.2125
2366.63195	3707.7125
2369.45444	3724.1125
2372.27514	3709.4125
2375.09405	3730.3125
2377.91118	3680.6125
2380.72652	3680.8125
2383.54009	3679.7125
2386.35187	3676.9125
2389.16188	3649.1125
2391.97011	3645.4125
2394.77657	3634.3125
2397.58125	3628.7125
2400.38416	3615.5125
2403.18529	3607.0125
2405.98466	3591.2125
2408.78226	3589.5125
2411.57809	3575.3125
2414.37216	3570.7125
2417.16446	3581.5125
2419.955	3551.2125
2422.74378	3561.5125
2425.5308	3549.6125
2428.31606	3562.6125
2431.09956	3552.8125
2433.88131	3521.1125
2436.6613	3536.2125
2439.43954	3536.4125
2442.21603	3526.5125
2444.99077	3507.5125
2447.76377	3535.7125
2450.53501	3506.0125
2453.30451	3512.1125
2456.07226	3513.1125
2458.83827	3500.7125
2461.60254	3477.7125
2464.36507	3490.8125
2467.12586	3477.3125
2469.88492	3491.2125
2472.64224	3487.7125
2475.39782	3456.0125
2478.15167	3478.0125
2480.90379	3472.4125
2483.65417	3481.9125
2486.40283	3478.3125
2489.14976	3509.4125
2491.89497	3482.8125
2494.63845	3486.7125
2497.3802	3471.0125
2500.12024	3474.8125
2502.85855	3453.5125
2505.59514	3467.6125
2508.33002	3453.6125
2511.06318	3420.3125
2513.79462	3432.5125
2516.52435	3407.8125
2519.25237	3366.8125
2521.97867	3382.0125
2524.70327	3385.6125
2527.42616	3382.7125
2530.14734	3390.4125
2532.86681	3368.1125
2535.58458	3361.3125
2538.30065	3350.7125
2541.01501	3353.8125
2543.72768	3340.8125
2546.43864	3339.0125
2549.14791	3338.4125
2551.85548	3319.9125
2554.56136	3308.0125
2557.26554	3330.5125
2559.96803	3309.2125
2562.66883	3315.8125
2565.36794	3292.4125
2568.06536	3255.6125
2570.7611	3291.0125
2573.45514	3278.6125
2576.14751	3267.6125
2578.83819	3251.9125
2581.52719	3244.5125
2584.21451	3227.4125
2586.90015	3221.3125
2589.58411	3213.3125
2592.2664	3226.4125
2594.94701	3228.7125
2597.62594	3221.3125
2600.30321	3150.9125
2602.9788	3169.1125
2605.65273	3165.0125
2608.32498	3172.6125
2610.99557	3192.9125
2613.66449	3154.4125
2616.33175	3168.8125
2618.99734	3177.3125
2621.66128	3171.0125
2624.32355	3149.6125
2626.98416	3120.1125
2629.64311	3129.9125
2632.30041	3120.6125
2634.95605	3108.7125
2637.61004	3094.2125
2640.26238	3095.4125
2642.91306	3088.4125
2645.56209	3098.1125
2648.20948	3100.5125
2650.85521	3073.5125
2653.4993	3097.1125
2656.14175	3089.6125
2658.78255	3079.5125
2661.42171	3046.3125
2664.05923	3090.3125
2666.6951	3087.9125
2669.32934	3110.6125
2671.96194	3107.2125
2674.59291	3092.1125
2677.22224	3090.4125
2679.84993	3092.7125
2682.476	3073.1125
2685.10043	3084.0125
2687.72324	3068.9125
2690.34441	3063.2125
2692.96396	3053.4125
2695.58188	3077.7125
2698.19818	3063.1125
2700.81285	3045.9125
2703.4259	3041.4125
2706.03733	3005.6125
2708.64714	3025.1125
2711.25533	3050.1125
2713.86191	3051.8125
2716.46687	3056.2125
2719.07021	3048.1125
2721.67194	3042.8125
2724.27206	3053.0125
2726.87057	3036.1125
2729.46747	3032.6125
2732.06276	3038.5125
2734.65644	3020.3125
2737.24852	3025.4125
2739.83899	2995.1125
2742.42786	3013.8125
2745.01513	3016.0125
2747.60079	3003.3125
2750.18486	2969.1125
2752.76733	3004.4125
2755.3482	2986.6125
2757.92747	2987.9125
2760.50515	2954.4125
2763.08123	2954.6125
2765.65573	2959.1125
2768.22863	2953.0125
2770.79994	2945.7125
2773.36967	2938.0125
2775.9378	2924.2125
2778.50435	2933.6125
2781.06932	2916.6125
2783.6327	2916.0125
2786.1945	2936.8125
2788.75471	2921.5125
2791.31335	2915.9125
2793.87041	2918.1125
2796.42589	2884.1125
2798.97979	2881.2125
2801.53212	2887.3125
2804.08288	2906.0125
2806.63206	2877.1125
2809.17967	2861.1125
2811.72571	2870.6125
2814.27018	2863.8125
2816.81308	2853.7125
2819.35442	2827.6125
2821.89419	2836.1125
2824.43239	2820.5125
2826.96904	2857.6125
2829.50412	2822.1125
2832.03763	2827.8125
2834.56959	2833.5125
2837.1	2821.0125
2839.62884	2820.9125
2842.15613	2816.3125
2844.68186	2834.7125
2847.20604	2781.1125
2849.72867	2803.5125
2852.24974	2808.0125
2854.76927	2758.3125
2857.28724	2720.3125
2859.80367	2793.3125
2862.31855	2794.5125
2864.83189	2768.6125
2867.34368	2792.4125
2869.85393	2781.2125
2872.36264	2766.8125
2874.8698	2768.7125
2877.37543	2779.6125
2879.87952	2765.4125
2882.38207	2735.9125
2884.88308	2752.5125
2887.38256	2753.2125
2889.88051	2748.4125
2892.37692	2739.9125
2894.8718	2723.4125
2897.36515	2742.5125
2899.85698	2745.6125
2902.34727	2738.5125
2904.83604	2744.3125
2907.32328	2759.0125
2909.809	2760.3125
2912.29319	2740.5125
2914.77587	2764.2125
2917.25702	2769.7125
2919.73665	2770.4125
2922.21476	2774.3125
2924.69136	2777.8125
2927.16644	2750.3125
2929.64	2747.8125
2932.11205	2735.4125
2934.58258	2742.6125
2937.05161	2728.5125
2939.51912	2728.4125
2941.98513	2745.4125
2944.44962	2722.5125
2946.91261	2694.7125
2949.37409	2705.6125
2951.83407	2704.0125
2954.29254	2695.1125
2956.74951	2692.7125
2959.20498	2673.7125
2961.65895	2666.8125
2964.11142	2660.7125
2966.56239	2670.8125
2969.01186	2674.9125
2971.45984	2666.2125
2973.90632	2652.5125
2976.35131	2660.2125
2978.7948	2643.8125
2981.23681	2646.6125
2983.67732	2659.1125
2986.11635	2637.1125
2988.55388	2619.0125
2990.98993	2622.9125
2993.4245	2610.4125
2995.85758	2605.5125
2998.28917	2590.3125
3000.71928	2585.9125
3003.14791	2577.4125
3005.57506	2566.6125
3008.00073	2545.7125
3010.42493	2508.5125
3012.84764	2545.7125
3015.26888	2553.3125
3017.68865	2551.5125
3020.10694	2498.6125
3022.52376	2510.9125
3024.9391	2517.6125
3027.35298	2501.0125
3029.76539	2490.5125
3032.17632	2495.9125
3034.5858	2472.8125
3036.9938	2479.6125
3039.40034	2481.2125
3041.80542	2470.1125
3044.20903	2449.8125
3046.61118	2451.6125
3049.01187	2464.1125
3051.4111	2448.7125
3053.80888	2439.6125
3056.20519	2424.9125
3058.60005	2411.1125
3060.99345	2433.5125
3063.3854	2406.7125
3065.7759	2389.0125
3068.16494	2385.8125
3070.55254	2371.8125
3072.93868	2391.1125
3075.32338	2386.0125
3077.70662	2369.8125
3080.08842	2371.6125
3082.46878	2350.5125
3084.84769	2377.2125
3087.22515	2347.7125
3089.60118	2373.6125
3091.97576	2344.2125
3094.3489	2348.0125
3096.72061	2334.3125
3099.09087	2322.0125
3101.4597	2340.8125
3103.82709	2322.7125
3106.19305	2324.9125
3108.55757	2325.4125
3110.92066	2315.4125
3113.28232	2322.4125
3115.64255	2315.8125
3118.00134	2306.0125
3120.35871	2295.9125
3122.71466	2279.6125
