Data from AgNPs_UA_10uM_CRN_500uM_SU_RamanShift__112__13-24-00-276.txt Node

Date: Thu Aug 04 13:24:00 BST 2022
User: TCL
Spectrometer: QEP01345
Trigger mode: 4
Integration Time (sec): 1.000000E0
Scans to average: 10
Electric dark correction enabled: true
Nonlinearity correction enabled: false
Boxcar width: 0
XAxis mode: Raman Shifts
Number of Pixels in Spectrum: 1044
>>>>>Begin Spectral Data<<<<<
46.04893	1.4375
50.45542	-1.0625
54.85868	-0.2625
59.25871	0.5375
63.6555	22.2375
68.04907	21.8375
72.43941	22.6375
76.82654	22.6375
81.21044	22.8375
85.59113	26.4375
89.96862	27.0375
94.34289	26.5375
98.71396	28.1375
103.08183	28.5375
107.4465	28.4375
111.80798	30.3375
116.16626	33.2375
120.52136	35.3375
124.87327	34.7375
129.222	39.7375
133.56755	37.8375
137.90993	43.4375
142.24913	47.9375
146.58517	57.1375
150.91804	64.1375
155.24774	79.1375
159.57429	98.3375
163.89768	132.3375
168.21792	176.5375
172.53501	238.2375
176.84895	337.4375
181.15975	473.9375
185.46741	674.8375
189.77193	933.5375
194.07331	1265.7375
198.37157	1626.8375
202.6667	2011.8375
206.9587	2396.3375
211.24758	2785.0375
215.53334	3183.9375
219.81599	3585.1375
224.09553	4052.2375
228.37195	4596.0375
232.64527	5143.3375
236.91549	5709.4375
241.18261	6223.4375
245.44663	6611.9375
249.70755	6941.7375
253.96539	7227.5375
258.22014	7466.8375
262.4718	7695.4375
266.72039	7812.3375
270.96589	7855.2375
275.20832	7824.0375
279.44768	7724.9375
283.68397	7599.4375
287.91719	7527.3375
292.14735	7524.2375
296.37445	7654.7375
300.59849	7846.3375
304.81948	8163.2375
309.03742	8380.6375
313.25231	8504.8375
317.46415	8432.7375
321.67296	8142.6375
325.87872	7823.4375
330.08145	7676.4375
334.28114	7672.2375
338.47781	7737.0375
342.67145	7890.9375
346.86207	8094.9375
351.04966	8425.8375
355.23424	8729.1375
359.4158	8954.5375
363.59435	9072.5375
367.76989	9145.5375
371.94243	9105.4375
376.11196	9080.3375
380.27849	9100.0375
384.44203	9076.3375
388.60257	9140.4375
392.76012	9219.4375
396.91468	9348.9375
401.06626	9476.6375
405.21485	9539.5375
409.36047	9439.3375
413.50311	9140.2375
417.64277	8889.8375
421.77947	8729.1375
425.9132	8626.6375
430.04396	8623.8375
434.17176	8681.8375
438.2966	8767.6375
442.41849	8931.2375
446.53742	9122.3375
450.6534	9336.8375
454.76644	9441.5375
458.87653	9491.2375
462.98368	9498.1375
467.08789	9427.7375
471.18916	9303.3375
475.2875	9094.1375
479.38291	8944.7375
483.4754	8823.0375
487.56496	8750.5375
491.6516	8708.7375
495.73531	8723.8375
499.81612	8748.8375
503.89401	8844.2375
507.96899	8885.8375
512.04106	8919.0375
516.11023	8988.4375
520.1765	9034.8375
524.23987	9064.6375
528.30034	9079.1375
532.35792	9058.4375
536.41261	8988.5375
540.46441	8848.1375
544.51333	8814.2375
548.55936	8881.0375
552.60252	9016.6375
556.64279	9169.5375
560.6802	9316.6375
564.71473	9382.9375
568.7464	9506.3375
572.7752	9484.6375
576.80114	9239.1375
580.82422	9055.7375
584.84444	9020.3375
588.86181	9053.8375
592.87633	9129.4375
596.888	9291.9375
600.89682	9707.7375
604.9028	10768.7375
608.90594	12949.3375
612.90624	15057.8375
616.90371	13864.8375
620.89834	10908.3375
624.89015	9728.2375
628.87913	9611.5375
632.86528	9783.2375
636.84862	9832.8375
640.82913	9596.8375
644.80683	9249.1375
648.78172	9076.1375
652.75379	9084.0375
656.72306	9327.9375
660.68952	9642.3375
664.65319	9544.5375
668.61405	9405.4375
672.57211	9463.5375
676.52738	9451.7375
680.47986	9276.7375
684.42955	9092.9375
688.37646	9066.3375
692.32058	9145.5375
696.26192	9316.0375
700.20048	9475.4375
704.13626	9498.8375
708.06928	9400.0375
711.99952	9262.6375
715.927	9266.8375
719.85171	9351.0375
723.77365	9348.2375
727.69284	9298.7375
731.60928	9196.0375
735.52295	9175.8375
739.43388	9244.4375
743.34206	9275.9375
747.24749	9303.0375
751.15017	9285.1375
755.05012	9397.4375
758.94733	9713.7375
762.8418	10515.6375
766.73354	11685.8375
770.62254	12653.2375
774.50882	12832.2375
778.39237	12393.9375
782.27321	11562.5375
786.15132	10608.9375
790.02671	9952.4375
793.89938	9576.7375
797.76935	9434.9375
801.6366	9346.7375
805.50115	9279.6375
809.36299	9251.5375
813.22213	9213.4375
817.07857	9240.7375
820.93231	9206.5375
824.78336	9208.3375
828.63172	9236.5375
832.47738	9271.1375
836.32036	9250.8375
840.16066	9232.5375
843.99827	9236.5375
847.8332	9242.2375
851.66546	9236.8375
855.49504	9264.5375
859.32195	9277.8375
863.1462	9239.5375
866.96777	9235.6375
870.78668	9252.0375
874.60293	9299.9375
878.41652	9304.6375
882.22745	9399.5375
886.03573	9449.1375
889.84136	9456.1375
893.64433	9390.1375
897.44466	9388.9375
901.24235	9353.9375
905.0374	9306.7375
908.8298	9271.7375
912.61957	9295.6375
916.40671	9290.9375
920.19121	9303.8375
923.97308	9414.8375
927.75233	9501.9375
931.52895	9583.9375
935.30295	9513.7375
939.07433	9353.2375
942.84309	9267.9375
946.60924	9218.1375
950.37278	9201.5375
954.13371	9172.6375
957.89203	9150.3375
961.64774	9162.4375
965.40086	9151.4375
969.15137	9145.8375
972.89929	9133.6375
976.64461	9127.7375
980.38733	9150.0375
984.12747	9182.0375
987.86502	9225.6375
991.59999	9309.3375
995.33237	9396.9375
999.06217	9560.5375
1002.78939	9759.7375
1006.51404	9975.8375
1010.23611	10100.4375
1013.95561	10195.7375
1017.67255	10251.7375
1021.38692	10232.9375
1025.09872	10173.1375
1028.80796	10145.2375
1032.51465	10174.6375
1036.21877	10244.7375
1039.92035	10274.5375
1043.61937	10238.5375
1047.31584	10163.0375
1051.00976	10119.7375
1054.70114	10077.2375
1058.38998	10092.3375
1062.07627	10123.1375
1065.76003	10188.3375
1069.44126	10270.0375
1073.11995	10500.5375
1076.79611	10733.0375
1080.46974	10890.1375
1084.14085	10981.2375
1087.80943	11083.5375
1091.47549	11154.8375
1095.13903	11143.7375
1098.80005	11166.0375
1102.45857	11142.3375
1106.11456	11043.7375
1109.76805	10870.6375
1113.41903	10832.3375
1117.06751	10961.1375
1120.71348	11184.8375
1124.35696	11403.2375
1127.99793	11503.4375
1131.63641	11356.8375
1135.2724	11061.2375
1138.90589	10780.0375
1142.5369	10635.2375
1146.16542	10595.1375
1149.79145	10537.8375
1153.415	10424.6375
1157.03607	10350.8375
1160.65467	10387.3375
1164.27079	10631.7375
1167.88443	10925.8375
1171.49561	11431.9375
1175.10432	12175.3375
1178.71056	13171.4375
1182.31434	14064.6375
1185.91565	14446.1375
1189.51451	14349.2375
1193.11091	14114.2375
1196.70485	13760.0375
1200.29634	13419.3375
1203.88538	13081.0375
1207.47197	12615.3375
1211.05612	12250.0375
1214.63782	11893.0375
1218.21708	11621.7375
1221.79391	11412.2375
1225.36829	11341.9375
1228.94024	11279.6375
1232.50976	11191.3375
1236.07685	11161.5375
1239.6415	11172.4375
1243.20374	11215.0375
1246.76355	11306.7375
1250.32093	11483.9375
1253.8759	11708.7375
1257.42845	12087.3375
1260.97859	12448.3375
1264.52631	12742.6375
1268.07163	12982.2375
1271.61453	13158.7375
1275.15503	13241.4375
1278.69312	13283.2375
1282.22882	13337.7375
1285.76211	13418.5375
1289.29301	13582.8375
1292.82151	13795.0375
1296.34761	14064.4375
1299.87133	14543.0375
1303.39266	15351.5375
1306.9116	16570.4375
1310.42815	17817.6375
1313.94233	18341.3375
1317.45412	17838.0375
1320.96354	16875.5375
1324.47058	15975.1375
1327.97525	15080.0375
1331.47754	14513.3375
1334.97747	14387.7375
1338.47502	14525.1375
1341.97022	14990.1375
1345.46305	15778.6375
1348.95352	16921.3375
1352.44163	18093.9375
1355.92738	19251.1375
1359.41078	20617.2375
1362.89183	21579.9375
1366.37053	20561.2375
1369.84688	17850.3375
1373.32088	15415.1375
1376.79254	14027.7375
1380.26186	13386.0375
1383.72883	13009.6375
1387.19347	12655.3375
1390.65578	12268.9375
1394.11575	11923.4375
1397.57339	11697.8375
1401.0287	11617.6375
1404.48168	11598.8375
1407.93234	11701.8375
1411.38068	11875.4375
1414.82669	12000.8375
1418.27039	12016.5375
1421.71177	11978.6375
1425.15083	11924.7375
1428.58758	11881.5375
1432.02203	11948.8375
1435.45416	12046.3375
1438.88399	12098.9375
1442.31151	12075.5375
1445.73673	12098.8375
1449.15965	12100.7375
1452.58027	12041.5375
1455.9986	11954.4375
1459.41463	11958.1375
1462.82837	12064.3375
1466.23982	12238.4375
1469.64898	12455.9375
1473.05586	12637.2375
1476.46045	12751.7375
1479.86276	12860.4375
1483.26279	12991.9375
1486.66054	13200.6375
1490.05602	13522.0375
1493.44922	14054.3375
1496.84016	14834.4375
1500.22882	16048.6375
1503.61521	17524.9375
1506.99934	18921.1375
1510.38121	19732.9375
1513.76081	19429.3375
1517.13816	18086.3375
1520.51324	16305.0375
1523.88607	14892.3375
1527.25665	14038.2375
1530.62498	13596.0375
1533.99105	13365.2375
1537.35488	13244.9375
1540.71647	13155.3375
1544.07581	13096.3375
1547.4329	13004.9375
1550.78776	12858.1375
1554.14038	12743.3375
1557.49077	12658.2375
1560.83892	12731.3375
1564.18484	12978.1375
1567.52853	13264.4375
1570.86999	13440.7375
1574.20922	13474.9375
1577.54624	13321.9375
1580.88103	12817.3375
1584.2136	12262.9375
1587.54395	11989.9375
1590.87208	12168.0375
1594.19801	12619.7375
1597.52172	13219.5375
1600.84321	13507.6375
1604.16251	13445.3375
1607.47959	13143.8375
1610.79447	12687.8375
1614.10715	12010.9375
1617.41763	11375.4375
1620.7259	10937.3375
1624.03199	10687.3375
1627.33587	10629.9375
1630.63757	10796.4375
1633.93707	11212.6375
1637.23439	11888.8375
1640.52951	12939.6375
1643.82246	14275.9375
1647.11321	15533.5375
1650.40179	15973.8375
1653.68819	15142.9375
1656.97241	13461.8375
1660.25446	11815.6375
1663.53433	10743.3375
1666.81203	10061.4375
1670.08756	9681.1375
1673.36092	9451.2375
1676.63211	9303.2375
1679.90115	9163.8375
1683.16801	9049.8375
1686.43272	8976.7375
1689.69527	8921.5375
1692.95567	8896.7375
1696.2139	8849.6375
1699.46999	8821.9375
1702.72392	8811.2375
1705.97571	8806.4375
1709.22535	8808.3375
1712.47284	8811.7375
1715.71819	8834.9375
1718.96139	8811.7375
1722.20246	8770.1375
1725.44139	8775.4375
1728.67818	8712.9375
1731.91284	8658.7375
1735.14537	8615.8375
1738.37576	8586.3375
1741.60403	8531.8375
1744.83017	8552.1375
1748.05418	8520.8375
1751.27607	8505.0375
1754.49584	8483.9375
1757.71349	8487.2375
1760.92903	8463.6375
1764.14244	8444.2375
1767.35375	8394.0375
1770.56294	8407.3375
1773.77002	8389.1375
1776.97499	8360.6375
1780.17785	8329.5375
1783.37861	8321.9375
1786.57727	8336.2375
1789.77382	8316.8375
1792.96828	8286.7375
1796.16064	8268.9375
1799.3509	8264.5375
1802.53907	8257.7375
1805.72514	8240.9375
1808.90913	8217.8375
1812.09102	8193.8375
1815.27083	8177.0375
1818.44856	8149.2375
1821.6242	8144.9375
1824.79776	8123.9375
1827.96924	8107.4375
1831.13864	8115.4375
1834.30597	8083.0375
1837.47122	8063.9375
1840.6344	8032.6375
1843.7955	8048.7375
1846.95454	8052.5375
1850.11151	8039.3375
1853.26642	8036.7375
1856.41926	8043.9375
1859.57004	8035.5375
1862.71876	8030.5375
1865.86542	8015.5375
1869.01003	8021.7375
1872.15258	7975.2375
1875.29308	7989.7375
1878.43152	7979.7375
1881.56792	7986.5375
1884.70227	7927.8375
1887.83457	7912.8375
1890.96482	7914.9375
1894.09304	7895.8375
1897.21921	7887.9375
1900.34335	7886.1375
1903.46544	7878.1375
1906.58551	7873.8375
1909.70353	7870.0375
1912.81953	7857.8375
1915.93349	7844.7375
1919.04543	7819.3375
1922.15534	7828.0375
1925.26322	7823.4375
1928.36908	7771.9375
1931.47292	7778.3375
1934.57473	7745.5375
1937.67453	7736.9375
1940.77232	7730.5375
1943.86808	7681.0375
1946.96184	7670.5375
1950.05358	7634.8375
1953.14331	7626.0375
1956.23103	7593.9375
1959.31675	7576.9375
1962.40046	7551.4375
1965.48217	7531.0375
1968.56188	7496.4375
1971.63959	7488.2375
1974.7153	7475.7375
1977.78901	7478.1375
1980.86073	7458.7375
1983.93046	7417.5375
1986.99819	7386.0375
1990.06394	7361.6375
1993.1277	7344.1375
1996.18947	7316.7375
1999.24925	7313.6375
2002.30706	7252.3375
2005.36288	7222.3375
2008.41672	7205.3375
2011.46859	7171.1375
2014.51848	7171.7375
2017.56639	7145.0375
2020.61233	7118.1375
2023.6563	7143.8375
2026.6983	7075.4375
2029.73833	7057.0375
2032.7764	7064.0375
2035.8125	7030.2375
2038.84664	7014.6375
2041.87881	7023.1375
2044.90903	7016.7375
2047.93729	6983.1375
2050.96359	6985.9375
2053.98794	6972.2375
2057.01034	6965.6375
2060.03078	6950.9375
2063.04927	6943.6375
2066.06582	6937.3375
2069.08042	6907.4375
2072.09307	6907.6375
2075.10378	6912.4375
2078.11255	6896.1375
2081.11938	6883.6375
2084.12426	6875.8375
2087.12722	6889.2375
2090.12824	6875.7375
2093.12732	6879.7375
2096.12447	6875.2375
2099.11969	6896.1375
2102.11299	6892.7375
2105.10435	6894.0375
2108.09379	6874.6375
2111.08131	6885.1375
2114.0669	6912.3375
2117.05057	6907.9375
2120.03233	6917.6375
2123.01216	6904.0375
2125.99008	6914.1375
2128.96609	6906.4375
2131.94018	6925.5375
2134.91236	6920.0375
2137.88263	6902.4375
2140.851	6912.4375
2143.81746	6908.3375
2146.78201	6898.2375
2149.74466	6900.8375
2152.7054	6919.2375
2155.66425	6888.1375
2158.6212	6911.0375
2161.57625	6897.7375
2164.52941	6892.2375
2167.48067	6888.5375
2170.43004	6883.7375
2173.37752	6872.3375
2176.32311	6891.5375
2179.26681	6871.4375
2182.20863	6892.7375
2185.14856	6873.2375
2188.08661	6879.6375
2191.02278	6880.8375
2193.95707	6886.4375
2196.88948	6855.6375
2199.82001	6864.8375
2202.74867	6861.6375
2205.67545	6874.0375
2208.60037	6856.2375
2211.52341	6827.7375
2214.44458	6809.1375
2217.36388	6808.2375
2220.28132	6778.2375
2223.1969	6755.5375
2226.11061	6751.7375
2229.02246	6741.9375
2231.93245	6736.8375
2234.84058	6725.6375
2237.74686	6708.5375
2240.65128	6702.3375
2243.55385	6705.2375
2246.45456	6663.2375
2249.35343	6661.9375
2252.25044	6648.1375
2255.14561	6620.7375
2258.03893	6660.4375
2260.93041	6622.5375
2263.82004	6619.8375
2266.70783	6602.9375
2269.59378	6593.1375
2272.4779	6556.9375
2275.36017	6543.1375
2278.24061	6537.8375
2281.11922	6532.6375
2283.996	6507.3375
2286.87094	6490.6375
2289.74405	6510.0375
2292.61534	6480.0375
2295.4848	6483.1375
2298.35243	6463.7375
2301.21824	6440.6375
2304.08223	6445.1375
2306.94439	6455.2375
2309.80474	6446.0375
2312.66327	6462.2375
2315.51999	6429.9375
2318.37489	6442.8375
2321.22797	6409.9375
2324.07925	6419.7375
2326.92871	6402.6375
2329.77637	6388.4375
2332.62222	6362.4375
2335.46626	6366.4375
2338.3085	6354.0375
2341.14893	6372.8375
2343.98756	6364.1375
2346.8244	6360.4375
2349.65943	6364.8375
2352.49267	6357.2375
2355.32411	6342.1375
2358.15376	6327.7375
2360.98161	6346.2375
2363.80768	6358.0375
2366.63195	6346.0375
2369.45444	6323.9375
2372.27514	6313.5375
2375.09405	6322.5375
2377.91118	6294.6375
2380.72652	6290.0375
2383.54009	6274.8375
2386.35187	6254.7375
2389.16188	6236.1375
2391.97011	6218.8375
2394.77657	6201.8375
2397.58125	6172.2375
2400.38416	6185.8375
2403.18529	6175.5375
2405.98466	6182.9375
2408.78226	6134.1375
2411.57809	6141.2375
2414.37216	6113.9375
2417.16446	6128.6375
2419.955	6109.0375
2422.74378	6098.0375
2425.5308	6102.6375
2428.31606	6114.9375
2431.09956	6097.5375
2433.88131	6086.2375
2436.6613	6087.5375
2439.43954	6081.6375
2442.21603	6071.2375
2444.99077	6078.9375
2447.76377	6075.7375
2450.53501	6083.4375
2453.30451	6056.6375
2456.07226	6066.0375
2458.83827	6033.1375
2461.60254	6030.0375
2464.36507	6009.8375
2467.12586	5997.5375
2469.88492	6006.0375
2472.64224	6023.7375
2475.39782	6022.8375
2478.15167	6002.9375
2480.90379	6012.0375
2483.65417	6008.9375
2486.40283	5988.3375
2489.14976	6014.1375
2491.89497	6000.5375
2494.63845	6011.1375
2497.3802	6005.6375
2500.12024	5972.1375
2502.85855	5977.1375
2505.59514	5965.6375
2508.33002	5964.0375
2511.06318	5932.4375
2513.79462	5933.6375
2516.52435	5926.9375
2519.25237	5905.2375
2521.97867	5898.6375
2524.70327	5896.1375
2527.42616	5888.0375
2530.14734	5873.4375
2532.86681	5870.4375
2535.58458	5882.4375
2538.30065	5889.0375
2541.01501	5869.8375
2543.72768	5868.0375
2546.43864	5850.1375
2549.14791	5848.6375
2551.85548	5853.5375
2554.56136	5834.1375
2557.26554	5836.8375
2559.96803	5824.3375
2562.66883	5801.6375
2565.36794	5778.2375
2568.06536	5772.8375
2570.7611	5757.9375
2573.45514	5740.3375
2576.14751	5741.8375
2578.83819	5726.7375
2581.52719	5693.2375
2584.21451	5711.6375
2586.90015	5708.4375
2589.58411	5710.7375
2592.2664	5679.9375
2594.94701	5689.3375
2597.62594	5673.9375
2600.30321	5660.0375
2602.9788	5657.1375
2605.65273	5640.6375
2608.32498	5647.6375
2610.99557	5645.4375
2613.66449	5655.2375
2616.33175	5626.4375
2618.99734	5635.8375
2621.66128	5623.6375
2624.32355	5618.2375
2626.98416	5580.0375
2629.64311	5589.0375
2632.30041	5585.2375
2634.95605	5570.3375
2637.61004	5544.7375
2640.26238	5537.5375
2642.91306	5551.5375
2645.56209	5545.3375
2648.20948	5556.1375
2650.85521	5527.0375
2653.4993	5523.9375
2656.14175	5520.9375
2658.78255	5516.9375
2661.42171	5505.2375
2664.05923	5525.9375
2666.6951	5542.3375
2669.32934	5542.1375
2671.96194	5544.0375
2674.59291	5529.9375
2677.22224	5527.8375
2679.84993	5528.9375
2682.476	5539.1375
2685.10043	5526.8375
2687.72324	5531.2375
2690.34441	5525.2375
2692.96396	5515.5375
2695.58188	5511.2375
2698.19818	5501.0375
2700.81285	5505.7375
2703.4259	5494.4375
2706.03733	5483.0375
2708.64714	5501.2375
2711.25533	5478.3375
2713.86191	5480.4375
2716.46687	5498.0375
2719.07021	5494.5375
2721.67194	5490.9375
2724.27206	5480.3375
2726.87057	5485.5375
2729.46747	5478.3375
2732.06276	5461.7375
2734.65644	5472.5375
2737.24852	5470.3375
2739.83899	5455.5375
2742.42786	5451.1375
2745.01513	5441.8375
2747.60079	5408.1375
2750.18486	5422.1375
2752.76733	5418.7375
2755.3482	5403.8375
2757.92747	5390.4375
2760.50515	5393.6375
2763.08123	5374.7375
2765.65573	5367.3375
2768.22863	5361.0375
2770.79994	5365.0375
2773.36967	5342.4375
2775.9378	5334.8375
2778.50435	5319.5375
2781.06932	5325.6375
2783.6327	5343.6375
2786.1945	5332.8375
2788.75471	5336.1375
2791.31335	5300.8375
2793.87041	5271.4375
2796.42589	5259.8375
2798.97979	5260.1375
2801.53212	5253.2375
2804.08288	5230.2375
2806.63206	5230.6375
2809.17967	5231.0375
2811.72571	5223.1375
2814.27018	5218.1375
2816.81308	5184.3375
2819.35442	5187.8375
2821.89419	5181.6375
2824.43239	5179.9375
2826.96904	5174.1375
2829.50412	5161.1375
2832.03763	5137.5375
2834.56959	5132.0375
2837.1	5099.6375
2839.62884	5109.3375
2842.15613	5095.4375
2844.68186	5112.5375
2847.20604	5099.3375
2849.72867	5080.8375
2852.24974	5065.1375
2854.76927	5069.5375
2857.28724	5054.0375
2859.80367	5049.9375
2862.31855	5035.3375
2864.83189	5051.6375
2867.34368	5038.0375
2869.85393	5040.6375
2872.36264	5016.8375
2874.8698	4999.2375
2877.37543	5019.2375
2879.87952	5011.3375
2882.38207	5002.4375
2884.88308	4998.1375
2887.38256	5012.8375
2889.88051	4993.9375
2892.37692	4987.5375
2894.8718	4968.1375
2897.36515	4977.6375
2899.85698	4964.8375
2902.34727	4969.3375
2904.83604	4986.9375
2907.32328	4998.1375
2909.809	4997.7375
2912.29319	4998.4375
2914.77587	5003.8375
2917.25702	4998.1375
2919.73665	4987.6375
2922.21476	4973.3375
2924.69136	4981.5375
2927.16644	4965.6375
2929.64	4947.4375
2932.11205	4958.3375
2934.58258	4919.8375
2937.05161	4942.3375
2939.51912	4929.0375
2941.98513	4931.3375
2944.44962	4922.9375
2946.91261	4906.6375
2949.37409	4916.4375
2951.83407	4906.9375
2954.29254	4908.0375
2956.74951	4895.3375
2959.20498	4902.6375
2961.65895	4903.6375
2964.11142	4899.0375
2966.56239	4886.1375
2969.01186	4882.7375
2971.45984	4883.9375
2973.90632	4881.8375
2976.35131	4855.8375
2978.7948	4854.0375
2981.23681	4839.4375
2983.67732	4829.8375
2986.11635	4814.6375
2988.55388	4816.5375
2990.98993	4806.6375
2993.4245	4776.2375
2995.85758	4780.7375
2998.28917	4764.4375
3000.71928	4747.4375
3003.14791	4728.0375
3005.57506	4723.7375
3008.00073	4712.5375
3010.42493	4712.1375
3012.84764	4689.8375
3015.26888	4701.0375
3017.68865	4681.7375
3020.10694	4680.2375
3022.52376	4659.1375
3024.9391	4646.5375
3027.35298	4625.0375
3029.76539	4610.2375
3032.17632	4627.1375
3034.5858	4603.7375
3036.9938	4576.9375
3039.40034	4581.7375
3041.80542	4572.6375
3044.20903	4563.5375
3046.61118	4551.3375
3049.01187	4550.1375
3051.4111	4534.3375
3053.80888	4522.7375
3056.20519	4515.1375
3058.60005	4496.7375
3060.99345	4494.0375
3063.3854	4475.0375
3065.7759	4476.0375
3068.16494	4461.8375
3070.55254	4443.6375
3072.93868	4430.8375
3075.32338	4409.0375
3077.70662	4408.0375
3080.08842	4383.3375
3082.46878	4393.4375
3084.84769	4384.9375
3087.22515	4382.1375
3089.60118	4382.5375
3091.97576	4380.6375
3094.3489	4372.1375
3096.72061	4366.6375
3099.09087	4352.6375
3101.4597	4345.8375
3103.82709	4347.5375
3106.19305	4355.6375
