Data from AgNPs_UA_5uM_CRN_500uM_SU_RamanShift__251__12-11-13-190.txt Node

Date: Thu Aug 04 12:11:13 BST 2022
User: TCL
Spectrometer: QEP01345
Trigger mode: 4
Integration Time (sec): 1.000000E0
Scans to average: 10
Electric dark correction enabled: true
Nonlinearity correction enabled: false
Boxcar width: 0
XAxis mode: Raman Shifts
Number of Pixels in Spectrum: 1044
>>>>>Begin Spectral Data<<<<<
46.04893	-0.975
50.45542	0.525
54.85868	-0.175
59.25871	0.025
63.6555	-58.775
68.04907	-40.975
72.43941	-71.475
76.82654	-57.375
81.21044	-57.375
85.59113	-49.675
89.96862	-77.075
94.34289	-55.575
98.71396	-77.675
103.08183	-59.075
107.4465	-48.875
111.80798	-56.275
116.16626	-44.375
120.52136	-75.075
124.87327	-49.775
129.222	-61.475
133.56755	-50.875
137.90993	-64.575
142.24913	-53.775
146.58517	-44.675
150.91804	-41.375
155.24774	-29.775
159.57429	-10.575
163.89768	-7.975
168.21792	37.025
172.53501	56.025
176.84895	136.825
181.15975	269.025
185.46741	411.425
189.77193	587.225
194.07331	869.325
198.37157	1154.725
202.6667	1430.825
206.9587	1749.725
211.24758	2056.425
215.53334	2372.025
219.81599	2720.425
224.09553	3130.225
228.37195	3566.925
232.64527	4012.025
236.91549	4466.825
241.18261	4818.725
245.44663	5087.625
249.70755	5259.225
253.96539	5374.625
258.22014	5483.425
262.4718	5550.325
266.72039	5603.625
270.96589	5558.125
275.20832	5479.925
279.44768	5357.825
283.68397	5267.725
287.91719	5203.825
292.14735	5249.325
296.37445	5414.225
300.59849	5702.925
304.81948	6063.225
309.03742	6418.125
313.25231	6660.025
317.46415	6628.425
321.67296	6256.025
325.87872	5842.125
330.08145	5629.825
334.28114	5588.325
338.47781	5642.125
342.67145	5798.325
346.86207	6011.725
351.04966	6373.825
355.23424	6744.225
359.4158	7012.825
363.59435	7044.725
367.76989	6992.425
371.94243	6866.225
376.11196	6733.525
380.27849	6647.125
384.44203	6576.725
388.60257	6552.825
392.76012	6575.425
396.91468	6681.725
401.06626	6824.725
405.21485	6876.325
409.36047	6685.925
413.50311	6382.125
417.64277	6078.225
421.77947	5896.825
425.9132	5809.925
430.04396	5798.425
434.17176	5833.425
438.2966	5918.525
442.41849	5997.225
446.53742	6117.425
450.6534	6233.725
454.76644	6315.725
458.87653	6318.125
462.98368	6242.425
467.08789	6182.825
471.18916	6100.025
475.2875	5978.425
479.38291	5881.125
483.4754	5791.925
487.56496	5735.925
491.6516	5713.425
495.73531	5725.625
499.81612	5755.725
503.89401	5833.325
507.96899	5879.225
512.04106	5975.825
516.11023	6073.825
520.1765	6163.225
524.23987	6170.525
528.30034	6168.325
532.35792	6093.025
536.41261	6041.525
540.46441	5946.025
544.51333	5897.025
548.55936	5939.925
552.60252	6054.225
556.64279	6173.425
560.6802	6287.025
564.71473	6415.225
568.7464	6597.625
572.7752	6578.325
576.80114	6296.625
580.82422	6053.425
584.84444	5958.825
588.86181	5946.525
592.87633	5963.125
596.888	6098.525
600.89682	6462.725
604.9028	7441.325
608.90594	9534.425
612.90624	11869.525
616.90371	11012.525
620.89834	7916.225
624.89015	6592.825
628.87913	6377.525
632.86528	6523.325
636.84862	6688.725
640.82913	6546.225
644.80683	6195.925
648.78172	6010.325
652.75379	6040.225
656.72306	6279.125
660.68952	6512.025
664.65319	6439.025
668.61405	6189.825
672.57211	6132.325
676.52738	6113.425
680.47986	6021.725
684.42955	5911.525
688.37646	5880.525
692.32058	5870.525
696.26192	5973.925
700.20048	6047.925
704.13626	6088.525
708.06928	6033.625
711.99952	6018.225
715.927	5995.425
719.85171	6015.025
723.77365	6092.625
727.69284	6061.225
731.60928	6015.125
735.52295	6004.825
739.43388	6064.425
743.34206	6072.325
747.24749	6081.225
751.15017	6109.525
755.05012	6165.825
758.94733	6566.225
762.8418	7429.725
766.73354	8761.125
770.62254	9779.625
774.50882	9877.425
778.39237	9315.225
782.27321	8405.825
786.15132	7336.125
790.02671	6655.725
793.89938	6294.125
797.76935	6152.725
801.6366	6076.325
805.50115	6018.625
809.36299	6004.025
813.22213	5983.625
817.07857	5987.625
820.93231	5995.425
824.78336	6015.225
828.63172	6031.425
832.47738	6046.225
836.32036	6040.525
840.16066	5992.425
843.99827	5984.325
847.8332	5965.125
851.66546	5983.325
855.49504	5983.525
859.32195	6030.125
863.1462	5992.125
866.96777	6009.025
870.78668	5990.925
874.60293	6032.025
878.41652	6026.025
882.22745	6105.825
886.03573	6138.725
889.84136	6141.525
893.64433	6123.125
897.44466	6117.825
901.24235	6124.725
905.0374	6108.925
908.8298	6047.425
912.61957	6030.925
916.40671	5976.925
920.19121	6028.325
923.97308	6129.025
927.75233	6179.925
931.52895	6257.525
935.30295	6204.825
939.07433	6042.825
942.84309	5946.525
946.60924	5905.725
950.37278	5867.925
954.13371	5877.425
957.89203	5870.325
961.64774	5872.525
965.40086	5863.025
969.15137	5846.425
972.89929	5861.925
976.64461	5851.225
980.38733	5892.225
984.12747	5881.225
987.86502	5887.425
991.59999	5905.725
995.33237	5979.725
999.06217	6035.625
1002.78939	6123.425
1006.51404	6253.825
1010.23611	6366.825
1013.95561	6426.725
1017.67255	6421.625
1021.38692	6382.325
1025.09872	6317.725
1028.80796	6244.925
1032.51465	6247.225
1036.21877	6220.425
1039.92035	6279.225
1043.61937	6329.625
1047.31584	6373.225
1051.00976	6381.725
1054.70114	6392.525
1058.38998	6408.125
1062.07627	6394.925
1065.76003	6439.825
1069.44126	6504.725
1073.11995	6602.725
1076.79611	6738.825
1080.46974	6884.525
1084.14085	7044.525
1087.80943	7178.525
1091.47549	7210.725
1095.13903	7123.725
1098.80005	6993.925
1102.45857	6927.325
1106.11456	6861.625
1109.76805	6812.125
1113.41903	6928.625
1117.06751	7110.725
1120.71348	7388.625
1124.35696	7753.025
1127.99793	8046.925
1131.63641	7880.725
1135.2724	7455.625
1138.90589	7173.925
1142.5369	6952.725
1146.16542	6867.425
1149.79145	6740.325
1153.415	6699.825
1157.03607	6714.525
1160.65467	6816.825
1164.27079	7027.225
1167.88443	7281.425
1171.49561	7712.225
1175.10432	8336.225
1178.71056	9274.425
1182.31434	10072.225
1185.91565	10342.425
1189.51451	10192.825
1193.11091	9891.525
1196.70485	9659.925
1200.29634	9423.125
1203.88538	9144.525
1207.47197	8687.125
1211.05612	8178.525
1214.63782	7748.325
1218.21708	7495.025
1221.79391	7344.825
1225.36829	7274.125
1228.94024	7256.325
1232.50976	7295.825
1236.07685	7325.625
1239.6415	7371.325
1243.20374	7360.925
1246.76355	7414.825
1250.32093	7475.525
1253.8759	7559.825
1257.42845	7725.325
1260.97859	7918.125
1264.52631	8147.425
1268.07163	8314.625
1271.61453	8461.525
1275.15503	8507.725
1278.69312	8529.325
1282.22882	8569.325
1285.76211	8786.025
1289.29301	9017.625
1292.82151	9290.125
1296.34761	9520.325
1299.87133	9921.825
1303.39266	10628.625
1306.9116	11800.925
1310.42815	13047.625
1313.94233	13459.525
1317.45412	12708.725
1320.96354	11532.025
1324.47058	10514.525
1327.97525	9740.625
1331.47754	9331.425
1334.97747	9231.025
1338.47502	9334.225
1341.97022	9704.825
1345.46305	10460.025
1348.95352	11560.825
1352.44163	12890.025
1355.92738	14297.425
1359.41078	15990.625
1362.89183	17549.225
1366.37053	16902.625
1369.84688	14033.625
1373.32088	11267.225
1376.79254	9817.125
1380.26186	9123.625
1383.72883	8689.925
1387.19347	8272.125
1390.65578	7911.725
1394.11575	7689.825
1397.57339	7503.325
1401.0287	7400.825
1404.48168	7347.525
1407.93234	7368.125
1411.38068	7396.625
1414.82669	7450.125
1418.27039	7522.225
1421.71177	7544.025
1425.15083	7424.525
1428.58758	7333.925
1432.02203	7377.525
1435.45416	7453.625
1438.88399	7467.125
1442.31151	7432.225
1445.73673	7510.825
1449.15965	7552.725
1452.58027	7581.625
1455.9986	7575.825
1459.41463	7570.025
1462.82837	7687.425
1466.23982	7864.925
1469.64898	8083.225
1473.05586	8246.925
1476.46045	8328.025
1479.86276	8413.925
1483.26279	8525.625
1486.66054	8724.425
1490.05602	9020.225
1493.44922	9579.025
1496.84016	10477.225
1500.22882	11885.325
1503.61521	13612.625
1506.99934	15486.025
1510.38121	16677.925
1513.76081	16513.125
1517.13816	14913.725
1520.51324	12776.325
1523.88607	11045.625
1527.25665	10035.625
1530.62498	9520.225
1533.99105	9331.225
1537.35488	9202.825
1540.71647	9083.325
1544.07581	8966.625
1547.4329	8799.425
1550.78776	8658.325
1554.14038	8590.125
1557.49077	8565.125
1560.83892	8635.625
1564.18484	8895.225
1567.52853	9241.925
1570.86999	9546.825
1574.20922	9723.125
1577.54624	9606.925
1580.88103	9082.725
1584.2136	8374.325
1587.54395	7975.125
1590.87208	7907.225
1594.19801	8082.125
1597.52172	8454.125
1600.84321	8588.925
1604.16251	8437.225
1607.47959	8246.525
1610.79447	8033.925
1614.10715	7753.025
1617.41763	7469.625
1620.7259	7202.025
1624.03199	7035.925
1627.33587	6975.925
1630.63757	7031.425
1633.93707	7251.425
1637.23439	7655.825
1640.52951	8358.125
1643.82246	9331.325
1647.11321	10525.025
1650.40179	11259.525
1653.68819	10962.125
1656.97241	9665.725
1660.25446	8255.425
1663.53433	7249.825
1666.81203	6639.725
1670.08756	6288.525
1673.36092	6112.125
1676.63211	5971.025
1679.90115	5874.725
1683.16801	5790.625
1686.43272	5708.625
1689.69527	5658.225
1692.95567	5601.525
1696.2139	5570.425
1699.46999	5529.925
1702.72392	5530.525
1705.97571	5553.225
1709.22535	5512.025
1712.47284	5546.125
1715.71819	5569.725
1718.96139	5552.125
1722.20246	5561.025
1725.44139	5510.125
1728.67818	5478.925
1731.91284	5439.125
1735.14537	5400.925
1738.37576	5372.725
1741.60403	5350.425
1744.83017	5328.125
1748.05418	5327.325
1751.27607	5337.925
1754.49584	5304.025
1757.71349	5261.125
1760.92903	5264.025
1764.14244	5230.625
1767.35375	5213.325
1770.56294	5206.125
1773.77002	5170.325
1776.97499	5200.025
1780.17785	5189.625
1783.37861	5166.125
1786.57727	5165.325
1789.77382	5101.725
1792.96828	5146.925
1796.16064	5151.325
1799.3509	5132.025
1802.53907	5150.125
1805.72514	5096.525
1808.90913	5071.325
1812.09102	5084.225
1815.27083	5069.425
1818.44856	5055.925
1821.6242	5051.125
1824.79776	5037.125
1827.96924	5022.825
1831.13864	4993.025
1834.30597	5009.925
1837.47122	4987.725
1840.6344	4966.225
1843.7955	4956.925
1846.95454	4958.125
1850.11151	4975.125
1853.26642	4935.725
1856.41926	4949.025
1859.57004	4940.125
1862.71876	4921.525
1865.86542	4942.125
1869.01003	4919.925
1872.15258	4909.925
1875.29308	4915.025
1878.43152	4906.925
1881.56792	4893.325
1884.70227	4872.225
1887.83457	4869.625
1890.96482	4851.225
1894.09304	4855.425
1897.21921	4832.025
1900.34335	4848.025
1903.46544	4830.025
1906.58551	4859.325
1909.70353	4844.725
1912.81953	4835.225
1915.93349	4832.225
1919.04543	4810.825
1922.15534	4792.125
1925.26322	4790.325
1928.36908	4755.325
1931.47292	4776.025
1934.57473	4770.425
1937.67453	4761.125
1940.77232	4703.325
1943.86808	4718.125
1946.96184	4698.725
1950.05358	4689.025
1953.14331	4675.425
1956.23103	4689.125
1959.31675	4645.225
1962.40046	4591.225
1965.48217	4606.525
1968.56188	4599.725
1971.63959	4596.125
1974.7153	4595.225
1977.78901	4575.025
1980.86073	4554.525
1983.93046	4520.425
1986.99819	4444.325
1990.06394	4462.625
1993.1277	4484.425
1996.18947	4463.425
1999.24925	4428.325
2002.30706	4429.425
2005.36288	4422.625
2008.41672	4399.925
2011.46859	4381.525
2014.51848	4356.925
2017.56639	4339.025
2020.61233	4346.025
2023.6563	4320.825
2026.6983	4296.625
2029.73833	4295.825
2032.7764	4305.025
2035.8125	4261.125
2038.84664	4253.225
2041.87881	4235.425
2044.90903	4255.625
2047.93729	4241.725
2050.96359	4214.425
2053.98794	4219.925
2057.01034	4232.825
2060.03078	4213.925
2063.04927	4188.525
2066.06582	4207.925
2069.08042	4186.125
2072.09307	4183.825
2075.10378	4185.425
2078.11255	4186.525
2081.11938	4182.325
2084.12426	4159.525
2087.12722	4150.625
2090.12824	4158.025
2093.12732	4162.925
2096.12447	4174.025
2099.11969	4156.825
2102.11299	4130.725
2105.10435	4166.125
2108.09379	4173.625
2111.08131	4153.525
2114.0669	4163.925
2117.05057	4147.625
2120.03233	4151.325
2123.01216	4171.825
2125.99008	4178.025
2128.96609	4171.625
2131.94018	4180.025
2134.91236	4180.425
2137.88263	4183.525
2140.851	4179.625
2143.81746	4185.825
2146.78201	4183.025
2149.74466	4164.625
2152.7054	4188.725
2155.66425	4164.725
2158.6212	4170.325
2161.57625	4131.125
2164.52941	4107.825
2167.48067	4132.125
2170.43004	4111.925
2173.37752	4128.525
2176.32311	4136.225
2179.26681	4143.025
2182.20863	4138.425
2185.14856	4128.825
2188.08661	4116.525
2191.02278	4132.125
2193.95707	4115.825
2196.88948	4084.425
2199.82001	4108.425
2202.74867	4103.825
2205.67545	4094.525
2208.60037	4101.525
2211.52341	4082.125
2214.44458	4069.025
2217.36388	4054.625
2220.28132	4044.025
2223.1969	4023.725
2226.11061	4022.225
2229.02246	4018.825
2231.93245	4017.925
2234.84058	4008.425
2237.74686	3992.425
2240.65128	3974.625
2243.55385	3988.525
2246.45456	3957.625
2249.35343	3968.525
2252.25044	3968.525
2255.14561	3967.925
2258.03893	3948.325
2260.93041	3962.825
2263.82004	3945.225
2266.70783	3953.825
2269.59378	3925.925
2272.4779	3904.125
2275.36017	3913.025
2278.24061	3881.925
2281.11922	3859.425
2283.996	3884.525
2286.87094	3855.325
2289.74405	3849.125
2292.61534	3864.125
2295.4848	3865.925
2298.35243	3851.525
2301.21824	3822.425
2304.08223	3831.825
2306.94439	3824.925
2309.80474	3835.825
2312.66327	3817.325
2315.51999	3807.625
2318.37489	3807.625
2321.22797	3793.225
2324.07925	3777.625
2326.92871	3770.125
2329.77637	3767.225
2332.62222	3761.925
2335.46626	3740.725
2338.3085	3735.725
2341.14893	3748.825
2343.98756	3755.925
2346.8244	3727.825
2349.65943	3712.825
2352.49267	3731.325
2355.32411	3722.925
2358.15376	3730.225
2360.98161	3719.125
2363.80768	3703.725
2366.63195	3722.125
2369.45444	3722.025
2372.27514	3731.125
2375.09405	3738.425
2377.91118	3688.325
2380.72652	3683.025
2383.54009	3685.125
2386.35187	3691.325
2389.16188	3655.025
2391.97011	3658.425
2394.77657	3652.525
2397.58125	3636.425
2400.38416	3640.525
2403.18529	3622.725
2405.98466	3594.125
2408.78226	3604.125
2411.57809	3598.125
2414.37216	3575.025
2417.16446	3592.625
2419.955	3562.125
2422.74378	3581.225
2425.5308	3565.225
2428.31606	3551.725
2431.09956	3576.525
2433.88131	3542.725
2436.6613	3553.225
2439.43954	3547.025
2442.21603	3537.825
2444.99077	3537.525
2447.76377	3547.725
2450.53501	3540.225
2453.30451	3512.525
2456.07226	3538.625
2458.83827	3517.725
2461.60254	3482.525
2464.36507	3518.925
2467.12586	3492.225
2469.88492	3498.525
2472.64224	3496.825
2475.39782	3474.525
2478.15167	3504.025
2480.90379	3478.125
2483.65417	3497.525
2486.40283	3502.525
2489.14976	3511.125
2491.89497	3490.825
2494.63845	3502.425
2497.3802	3487.625
2500.12024	3478.025
2502.85855	3478.325
2505.59514	3478.425
2508.33002	3456.725
2511.06318	3437.025
2513.79462	3443.025
2516.52435	3399.325
2519.25237	3387.725
2521.97867	3388.225
2524.70327	3388.825
2527.42616	3395.025
2530.14734	3386.325
2532.86681	3384.625
2535.58458	3370.425
2538.30065	3371.825
2541.01501	3385.325
2543.72768	3367.625
2546.43864	3365.025
2549.14791	3345.725
2551.85548	3332.425
2554.56136	3320.625
2557.26554	3345.725
2559.96803	3339.725
2562.66883	3319.925
2565.36794	3312.625
2568.06536	3279.725
2570.7611	3303.725
2573.45514	3281.125
2576.14751	3282.325
2578.83819	3254.025
2581.52719	3263.925
2584.21451	3255.825
2586.90015	3234.625
2589.58411	3219.525
2592.2664	3228.425
2594.94701	3229.925
2597.62594	3240.625
2600.30321	3166.325
2602.9788	3185.125
2605.65273	3174.725
2608.32498	3193.025
2610.99557	3197.425
2613.66449	3174.625
2616.33175	3196.525
2618.99734	3182.125
2621.66128	3174.725
2624.32355	3167.225
2626.98416	3149.125
2629.64311	3137.725
2632.30041	3141.925
2634.95605	3119.425
2637.61004	3105.925
2640.26238	3098.125
2642.91306	3102.625
2645.56209	3113.125
2648.20948	3118.025
2650.85521	3092.725
2653.4993	3112.425
2656.14175	3106.225
2658.78255	3088.925
2661.42171	3069.225
2664.05923	3106.525
2666.6951	3112.825
2669.32934	3102.925
2671.96194	3114.825
2674.59291	3104.025
2677.22224	3096.625
2679.84993	3104.125
2682.476	3096.225
2685.10043	3079.825
2687.72324	3081.025
2690.34441	3079.825
2692.96396	3073.125
2695.58188	3095.625
2698.19818	3086.225
2700.81285	3071.525
2703.4259	3064.725
2706.03733	3046.525
2708.64714	3039.225
2711.25533	3070.025
2713.86191	3078.425
2716.46687	3061.025
2719.07021	3068.825
2721.67194	3054.925
2724.27206	3073.825
2726.87057	3047.525
2729.46747	3040.725
2732.06276	3055.925
2734.65644	3037.125
2737.24852	3029.125
2739.83899	3014.225
2742.42786	3028.525
2745.01513	3041.825
2747.60079	3014.825
2750.18486	2995.125
2752.76733	3005.025
2755.3482	2997.025
2757.92747	3001.025
2760.50515	2973.525
2763.08123	2965.525
2765.65573	2978.625
2768.22863	2968.225
2770.79994	2952.925
2773.36967	2948.725
2775.9378	2940.325
2778.50435	2951.625
2781.06932	2951.425
2783.6327	2930.025
2786.1945	2952.025
2788.75471	2930.125
2791.31335	2927.725
2793.87041	2926.725
2796.42589	2905.225
2798.97979	2887.325
2801.53212	2895.425
2804.08288	2909.925
2806.63206	2881.725
2809.17967	2874.625
2811.72571	2881.825
2814.27018	2882.525
2816.81308	2865.925
2819.35442	2837.125
2821.89419	2862.825
2824.43239	2840.225
2826.96904	2863.425
2829.50412	2844.825
2832.03763	2843.025
2834.56959	2853.025
2837.1	2825.125
2839.62884	2836.225
2842.15613	2831.925
2844.68186	2837.225
2847.20604	2810.925
2849.72867	2822.925
2852.24974	2801.125
2854.76927	2787.725
2857.28724	2744.825
2859.80367	2797.725
2862.31855	2815.025
2864.83189	2786.025
2867.34368	2791.725
2869.85393	2801.425
2872.36264	2771.825
2874.8698	2784.025
2877.37543	2792.225
2879.87952	2779.025
2882.38207	2755.025
2884.88308	2766.825
2887.38256	2775.225
2889.88051	2761.825
2892.37692	2754.725
2894.8718	2740.625
2897.36515	2754.825
2899.85698	2753.425
2902.34727	2750.525
2904.83604	2751.025
2907.32328	2777.025
2909.809	2764.525
2912.29319	2763.425
2914.77587	2772.025
2917.25702	2800.225
2919.73665	2790.425
2922.21476	2789.225
2924.69136	2776.925
2927.16644	2767.825
2929.64	2765.325
2932.11205	2753.425
2934.58258	2750.225
2937.05161	2753.625
2939.51912	2742.425
2941.98513	2760.125
2944.44962	2725.025
2946.91261	2698.325
2949.37409	2710.525
2951.83407	2709.225
2954.29254	2697.625
2956.74951	2699.825
2959.20498	2688.625
2961.65895	2683.425
2964.11142	2679.625
2966.56239	2671.225
2969.01186	2685.225
2971.45984	2680.625
2973.90632	2663.425
2976.35131	2673.425
2978.7948	2655.725
2981.23681	2662.725
2983.67732	2666.725
2986.11635	2644.625
2988.55388	2612.625
2990.98993	2631.125
2993.4245	2610.425
2995.85758	2602.925
2998.28917	2606.025
3000.71928	2591.825
3003.14791	2595.325
3005.57506	2586.125
3008.00073	2562.825
3010.42493	2511.725
3012.84764	2565.025
3015.26888	2572.025
3017.68865	2546.325
3020.10694	2520.525
3022.52376	2530.625
3024.9391	2510.325
3027.35298	2511.725
3029.76539	2505.625
3032.17632	2495.925
3034.5858	2493.025
3036.9938	2492.625
3039.40034	2498.925
3041.80542	2476.525
3044.20903	2463.225
3046.61118	2466.425
3049.01187	2478.925
3051.4111	2466.425
3053.80888	2451.925
3056.20519	2437.525
3058.60005	2417.925
3060.99345	2450.025
3063.3854	2416.225
3065.7759	2410.325
3068.16494	2409.725
3070.55254	2383.925
3072.93868	2405.425
3075.32338	2392.625
3077.70662	2389.625
3080.08842	2368.725
3082.46878	2356.625
3084.84769	2373.325
3087.22515	2359.225
3089.60118	2377.025
3091.97576	2361.325
3094.3489	2365.325
3096.72061	2365.825
3099.09087	2353.325
3101.4597	2360.325
3103.82709	2345.525
3106.19305	2319.725
3108.55757	2341.625
3110.92066	2332.925
3113.28232	2339.925
3115.64255	2321.225
3118.00134	2322.725
3120.35871	2307.725
3122.71466	2285.625
3125.06917	2292.925
3127.42226	2288.425
3129.77393	2271.025
3132.12417	2283.325
3134.47299	2293.825
3136.82039	2268.425
3139.16636	2241.825
3141.51092	2270.025
3143.85406	2259.225
3146.19579	2250.825
3148.53609	2259.225
3150.87499	2246.425
3153.21246	2246.825
3155.54853	2261.625
3157.88318	2259.225
3160.21642	2247.725
3162.54826	2259.325
3164.87868	2254.925
3167.2077	2216.725
3169.5353	2234.625
3171.86151	2235.925
3174.18631	2223.625
3176.5097	2218.125
3178.83169	2225.225
3181.15228	2223.525
3183.47147	2198.725
3185.78926	2173.325
3188.10565	2204.325
3190.42065	2176.525
3192.73424	2183.825
3195.04645	2177.425
3197.35725	2152.625
3199.66667	2175.225
3201.97469	2169.225
3204.28132	2162.525
3206.58656	2171.125
3208.8904	2168.825
3211.19287	2162.825
3213.49394	2153.225
3215.79363	2155.725
3218.09193	2157.825
3220.38884	2159.525
3222.68438	2159.225
3224.97853	2137.825
3227.2713	2165.325
3229.56269	2139.325
3231.8527	2141.425
3234.14133	2130.925
