Data from AgNPs_UA_50uM_CRN_500uM_SU_RamanShift__84__14-09-50-330.txt Node

Date: Thu Aug 04 14:09:50 BST 2022
User: TCL
Spectrometer: QEP01345
Trigger mode: 4
Integration Time (sec): 1.000000E0
Scans to average: 10
Electric dark correction enabled: true
Nonlinearity correction enabled: false
Boxcar width: 0
XAxis mode: Raman Shifts
Number of Pixels in Spectrum: 1044
>>>>>Begin Spectral Data<<<<<
46.04893	1.5
50.45542	-0.8
54.85868	0
59.25871	-1.8
63.6555	13.6
68.04907	11.4
72.43941	12.9
76.82654	14.1
81.21044	15.3
85.59113	14.9
89.96862	16.9
94.34289	18.3
98.71396	16.6
103.08183	17.8
107.4465	16.3
111.80798	16.3
116.16626	19.2
120.52136	20.4
124.87327	20
129.222	22.6
133.56755	23.8
137.90993	25.8
142.24913	26.3
146.58517	31.7
150.91804	35.8
155.24774	43
159.57429	56.2
163.89768	70.7
168.21792	93
172.53501	126.6
176.84895	180.2
181.15975	251.6
185.46741	353.3
189.77193	486.8
194.07331	647
198.37157	833.7
202.6667	1024.5
206.9587	1226.5
211.24758	1414.6
215.53334	1614.8
219.81599	1822
224.09553	2054.3
228.37195	2314.9
232.64527	2579.3
236.91549	2861.2
241.18261	3115
245.44663	3331
249.70755	3534.3
253.96539	3704.5
258.22014	3849.5
262.4718	3977.5
266.72039	4084.1
270.96589	4130.6
275.20832	4112.1
279.44768	4068.5
283.68397	4007.7
287.91719	3951.9
292.14735	3960
296.37445	3999.6
300.59849	4108.1
304.81948	4224.8
309.03742	4347.5
313.25231	4371.6
317.46415	4308.5
321.67296	4162.7
325.87872	4044.2
330.08145	3983.2
334.28114	4014.3
338.47781	4071.2
342.67145	4148.5
346.86207	4262.7
351.04966	4415.6
355.23424	4570
359.4158	4689.7
363.59435	4771.4
367.76989	4794
371.94243	4848.7
376.11196	4849.1
380.27849	4871.5
384.44203	4887.3
388.60257	4893.3
392.76012	4940.3
396.91468	4994.2
401.06626	5091.6
405.21485	5167.9
409.36047	5108.2
413.50311	4972.8
417.64277	4843.4
421.77947	4755.8
425.9132	4773.7
430.04396	4817.9
434.17176	4952.1
438.2966	5123.3
442.41849	5354.4
446.53742	5651.2
450.6534	5926.4
454.76644	6088.1
458.87653	6040.1
462.98368	5866.8
467.08789	5645.2
471.18916	5406.7
475.2875	5152.7
479.38291	4961.2
483.4754	4836.6
487.56496	4750.9
491.6516	4697.1
495.73531	4649.5
499.81612	4633.9
503.89401	4684.4
507.96899	4673.1
512.04106	4730
516.11023	4790.3
520.1765	4854.7
524.23987	4910.6
528.30034	4936.6
532.35792	4922.1
536.41261	4850.7
540.46441	4762.3
544.51333	4730.4
548.55936	4787
552.60252	4843.7
556.64279	4930
560.6802	4930.5
564.71473	4924.1
568.7464	4949.8
572.7752	4963.5
576.80114	4903.7
580.82422	4926.4
584.84444	5036.9
588.86181	5284.5
592.87633	5548.3
596.888	5703.6
600.89682	5818.7
604.9028	6315.7
608.90594	7405.1
612.90624	8304.7
616.90371	7533.7
620.89834	6000.7
624.89015	5411.9
628.87913	5339.5
632.86528	5231.6
636.84862	5112.9
640.82913	4961
644.80683	4770.9
648.78172	4702.8
652.75379	4749.7
656.72306	4888.9
660.68952	5062.9
664.65319	5003.1
668.61405	4913.3
672.57211	4898.2
676.52738	4882.6
680.47986	4811
684.42955	4740.3
688.37646	4763.1
692.32058	4823
696.26192	4889.6
700.20048	4992
704.13626	4988
708.06928	4901.7
711.99952	4869.9
715.927	4876.7
719.85171	4915.5
723.77365	4883.1
727.69284	4849.4
731.60928	4823.3
735.52295	4842.9
739.43388	4884.6
743.34206	4925.3
747.24749	4973
751.15017	4982.7
755.05012	5058.1
758.94733	5257.4
762.8418	5611
766.73354	6183.8
770.62254	6720.6
774.50882	6918.3
778.39237	6624.6
782.27321	6017.9
786.15132	5442.5
790.02671	5130.6
793.89938	4960.9
797.76935	4927.1
801.6366	4901.1
805.50115	4890.8
809.36299	4869.6
813.22213	4841.4
817.07857	4817.6
820.93231	4800.7
824.78336	4825.7
828.63172	4844.1
832.47738	4856.8
836.32036	4851.8
840.16066	4879.8
843.99827	4910.7
847.8332	4872.8
851.66546	4846.9
855.49504	4844.7
859.32195	4861.7
863.1462	4822.5
866.96777	4814.7
870.78668	4824.7
874.60293	4842.6
878.41652	4858.6
882.22745	4876.3
886.03573	4907.8
889.84136	4878
893.64433	4863.4
897.44466	4839.5
901.24235	4843.7
905.0374	4815.2
908.8298	4808
912.61957	4797.9
916.40671	4850.4
920.19121	4900.3
923.97308	4957
927.75233	5028.5
931.52895	5032.7
935.30295	4978
939.07433	4853.3
942.84309	4795.6
946.60924	4776.5
950.37278	4761.5
954.13371	4735.7
957.89203	4696.6
961.64774	4675.2
965.40086	4659.9
969.15137	4647.9
972.89929	4636.8
976.64461	4636.8
980.38733	4668.6
984.12747	4696.8
987.86502	4751
991.59999	4809.8
995.33237	4968.7
999.06217	5204.9
1002.78939	5434.5
1006.51404	5517.6
1010.23611	5563.2
1013.95561	5663.7
1017.67255	5731.9
1021.38692	5680.8
1025.09872	5582.3
1028.80796	5631.8
1032.51465	5758.3
1036.21877	5877.6
1039.92035	5860.9
1043.61937	5741.1
1047.31584	5562.6
1051.00976	5405.2
1054.70114	5335.8
1058.38998	5300.6
1062.07627	5310.5
1065.76003	5330.5
1069.44126	5358.3
1073.11995	5413.2
1076.79611	5445
1080.46974	5520.7
1084.14085	5594.7
1087.80943	5665.1
1091.47549	5639.2
1095.13903	5536.7
1098.80005	5409.2
1102.45857	5342.5
1106.11456	5346.6
1109.76805	5399.1
1113.41903	5477
1117.06751	5605.6
1120.71348	5729.2
1124.35696	5894.1
1127.99793	5975.2
1131.63641	5874.3
1135.2724	5721
1138.90589	5597.5
1142.5369	5513.7
1146.16542	5433
1149.79145	5406.2
1153.415	5419.5
1157.03607	5452.6
1160.65467	5533.4
1164.27079	5689.8
1167.88443	5964.3
1171.49561	6353.3
1175.10432	6957.7
1178.71056	7745.6
1182.31434	8502.4
1185.91565	8958.5
1189.51451	9019.9
1193.11091	8657.6
1196.70485	8067.1
1200.29634	7491.7
1203.88538	7011.8
1207.47197	6620.6
1211.05612	6356.9
1214.63782	6228.9
1218.21708	6240.4
1221.79391	6291.1
1225.36829	6357.6
1228.94024	6343.7
1232.50976	6300
1236.07685	6326
1239.6415	6375.4
1243.20374	6413.6
1246.76355	6436.5
1250.32093	6501.4
1253.8759	6666.4
1257.42845	6918
1260.97859	7184
1264.52631	7374.5
1268.07163	7511.4
1271.61453	7638.3
1275.15503	7730.4
1278.69312	7857.8
1282.22882	8031.3
1285.76211	8275.7
1289.29301	8546.5
1292.82151	8788.6
1296.34761	9017.5
1299.87133	9357
1303.39266	9857.1
1306.9116	10577.1
1310.42815	11347.7
1313.94233	11676.5
1317.45412	11444.6
1320.96354	10936.8
1324.47058	10435.1
1327.97525	10133.2
1331.47754	10172.8
1334.97747	10420.5
1338.47502	10609.2
1341.97022	10761.5
1345.46305	10868.3
1348.95352	11152.1
1352.44163	11611.6
1355.92738	12255.7
1359.41078	13060.8
1362.89183	13385.1
1366.37053	12665.1
1369.84688	11223.3
1373.32088	9869
1376.79254	9029.5
1380.26186	8656
1383.72883	8416.3
1387.19347	8117.6
1390.65578	7766.9
1394.11575	7461.5
1397.57339	7328.3
1401.0287	7393.4
1404.48168	7594.7
1407.93234	7886.8
1411.38068	8123.6
1414.82669	8177.1
1418.27039	8004.7
1421.71177	7820.2
1425.15083	7748
1428.58758	7860.4
1432.02203	8084.6
1435.45416	8258.4
1438.88399	8262.6
1442.31151	8209
1445.73673	8143.2
1449.15965	8059.6
1452.58027	7887.4
1455.9986	7680.7
1459.41463	7631.6
1462.82837	7714.3
1466.23982	7918.6
1469.64898	8164.4
1473.05586	8363.1
1476.46045	8525.8
1479.86276	8636.2
1483.26279	8699.2
1486.66054	8717.5
1490.05602	8821.3
1493.44922	8966.3
1496.84016	9208.8
1500.22882	9590.7
1503.61521	10185.9
1506.99934	10745.3
1510.38121	10973.2
1513.76081	10733.4
1517.13816	10062.1
1520.51324	9310
1523.88607	8785.8
1527.25665	8547.2
1530.62498	8508.6
1533.99105	8534.8
1537.35488	8589.6
1540.71647	8566.6
1544.07581	8522.7
1547.4329	8342.5
1550.78776	8067.7
1554.14038	7808.2
1557.49077	7654.2
1560.83892	7553.7
1564.18484	7553.8
1567.52853	7640.3
1570.86999	7691.5
1574.20922	7702.7
1577.54624	7614.2
1580.88103	7385
1584.2136	7216.8
1587.54395	7264.8
1590.87208	7664.7
1594.19801	8447.1
1597.52172	9395.2
1600.84321	10056.5
1604.16251	10007.2
1607.47959	9325
1610.79447	8360.4
1614.10715	7497.7
1617.41763	6844.3
1620.7259	6449.1
1624.03199	6280.9
1627.33587	6297.3
1630.63757	6487
1633.93707	6904.9
1637.23439	7582.6
1640.52951	8421.5
1643.82246	9353.6
1647.11321	9972.5
1650.40179	9805.8
1653.68819	8850
1656.97241	7621.9
1660.25446	6612
1663.53433	5931.1
1666.81203	5524.1
1670.08756	5289.1
1673.36092	5103.5
1676.63211	4997.5
1679.90115	4912.9
1683.16801	4866.6
1686.43272	4818.2
1689.69527	4781.1
1692.95567	4745.6
1696.2139	4734.3
1699.46999	4711.4
1702.72392	4723.1
1705.97571	4714.1
1709.22535	4713.3
1712.47284	4698.8
1715.71819	4701.7
1718.96139	4686
1722.20246	4674.8
1725.44139	4662.5
1728.67818	4636.3
1731.91284	4603.6
1735.14537	4583.4
1738.37576	4571.6
1741.60403	4550.5
1744.83017	4529.3
1748.05418	4541
1751.27607	4529.4
1754.49584	4505.4
1757.71349	4487.7
1760.92903	4499.1
1764.14244	4499.9
1767.35375	4503.3
1770.56294	4484.7
1773.77002	4485.4
1776.97499	4469.9
1780.17785	4470.5
1783.37861	4437.2
1786.57727	4442.2
1789.77382	4443.1
1792.96828	4434
1796.16064	4435.8
1799.3509	4436.9
1802.53907	4425.8
1805.72514	4419.3
1808.90913	4405.8
1812.09102	4402.6
1815.27083	4373.6
1818.44856	4379.3
1821.6242	4381.6
1824.79776	4361.1
1827.96924	4359.2
1831.13864	4347.3
1834.30597	4343.7
1837.47122	4336.9
1840.6344	4332.6
1843.7955	4331.7
1846.95454	4322.8
1850.11151	4336.7
1853.26642	4333
1856.41926	4336.7
1859.57004	4347.5
1862.71876	4329
1865.86542	4332.1
1869.01003	4344.1
1872.15258	4338.5
1875.29308	4338.4
1878.43152	4326.2
1881.56792	4315.8
1884.70227	4334.5
1887.83457	4327.1
1890.96482	4311.2
1894.09304	4303.3
1897.21921	4309.6
1900.34335	4299.3
1903.46544	4280.4
1906.58551	4277.7
1909.70353	4275.1
1912.81953	4279.4
1915.93349	4261.9
1919.04543	4279.1
1922.15534	4263.6
1925.26322	4274.5
1928.36908	4262.3
1931.47292	4258.6
1934.57473	4254.2
1937.67453	4258.1
1940.77232	4238.2
1943.86808	4234.2
1946.96184	4223.1
1950.05358	4220.8
1953.14331	4183.4
1956.23103	4172.6
1959.31675	4166.1
1962.40046	4151.5
1965.48217	4143
1968.56188	4118.9
1971.63959	4110.6
1974.7153	4109.1
1977.78901	4106.3
1980.86073	4079.1
1983.93046	4067.8
1986.99819	4057.3
1990.06394	4045.8
1993.1277	4023.9
1996.18947	4020.5
1999.24925	4026.7
2002.30706	3985.7
2005.36288	3974.9
2008.41672	3970.6
2011.46859	3961.1
2014.51848	3948.5
2017.56639	3928.4
2020.61233	3943.2
2023.6563	3924.3
2026.6983	3912.4
2029.73833	3904.4
2032.7764	3890.3
2035.8125	3882.4
2038.84664	3867.4
2041.87881	3876
2044.90903	3866.4
2047.93729	3867.6
2050.96359	3861.8
2053.98794	3867.2
2057.01034	3853.6
2060.03078	3841.8
2063.04927	3854.9
2066.06582	3857.9
2069.08042	3852.1
2072.09307	3843.8
2075.10378	3825.1
2078.11255	3827
2081.11938	3822.2
2084.12426	3831.6
2087.12722	3820.8
2090.12824	3827.1
2093.12732	3819
2096.12447	3827.1
2099.11969	3824.7
2102.11299	3818.8
2105.10435	3823.5
2108.09379	3819.6
2111.08131	3811.7
2114.0669	3816.7
2117.05057	3817.8
2120.03233	3814.1
2123.01216	3808.7
2125.99008	3830.5
2128.96609	3830.6
2131.94018	3820.6
2134.91236	3818.2
2137.88263	3821.4
2140.851	3829.3
2143.81746	3822.1
2146.78201	3819.7
2149.74466	3809.7
2152.7054	3814.6
2155.66425	3815.5
2158.6212	3809.6
2161.57625	3821.2
2164.52941	3819
2167.48067	3817.3
2170.43004	3804.1
2173.37752	3792.9
2176.32311	3814.6
2179.26681	3812.6
2182.20863	3816.3
2185.14856	3813
2188.08661	3808.4
2191.02278	3803.7
2193.95707	3806.5
2196.88948	3795.5
2199.82001	3813.5
2202.74867	3809.9
2205.67545	3809.2
2208.60037	3811
2211.52341	3815.5
2214.44458	3807
2217.36388	3791.2
2220.28132	3800.5
2223.1969	3776.3
2226.11061	3768.9
2229.02246	3757.8
2231.93245	3764.5
2234.84058	3753.7
2237.74686	3738.1
2240.65128	3734.8
2243.55385	3725
2246.45456	3715.8
2249.35343	3723.3
2252.25044	3704.4
2255.14561	3706.3
2258.03893	3704.9
2260.93041	3704.6
2263.82004	3697.9
2266.70783	3690.1
2269.59378	3664.5
2272.4779	3659.9
2275.36017	3652.9
2278.24061	3626.7
2281.11922	3634.2
2283.996	3626.7
2286.87094	3622.6
2289.74405	3617.3
2292.61534	3613.9
2295.4848	3615.5
2298.35243	3620.8
2301.21824	3623.6
2304.08223	3623.6
2306.94439	3613.9
2309.80474	3617.1
2312.66327	3618.9
2315.51999	3632.8
2318.37489	3625.2
2321.22797	3613.8
2324.07925	3597.2
2326.92871	3605.7
2329.77637	3603.8
2332.62222	3584.1
2335.46626	3577.7
2338.3085	3593.1
2341.14893	3596.5
2343.98756	3587
2346.8244	3604.8
2349.65943	3598.6
2352.49267	3595.8
2355.32411	3601.8
2358.15376	3591
2360.98161	3597.8
2363.80768	3571.4
2366.63195	3583.7
2369.45444	3567.4
2372.27514	3582.4
2375.09405	3580.7
2377.91118	3555.5
2380.72652	3545.6
2383.54009	3516.9
2386.35187	3547.3
2389.16188	3535.5
2391.97011	3521.8
2394.77657	3507.2
2397.58125	3492.3
2400.38416	3502.1
2403.18529	3481.3
2405.98466	3489.3
2408.78226	3484.5
2411.57809	3464
2414.37216	3454.1
2417.16446	3435.1
2419.955	3440.4
2422.74378	3454.4
2425.5308	3438.2
2428.31606	3446.8
2431.09956	3444.1
2433.88131	3433.6
2436.6613	3435.6
2439.43954	3436
2442.21603	3429.7
2444.99077	3433.8
2447.76377	3427.1
2450.53501	3413.2
2453.30451	3419.2
2456.07226	3424.8
2458.83827	3415.1
2461.60254	3418.6
2464.36507	3409.3
2467.12586	3416.3
2469.88492	3411.4
2472.64224	3401.1
2475.39782	3413.9
2478.15167	3400.6
2480.90379	3406.2
2483.65417	3412.8
2486.40283	3420.4
2489.14976	3440.4
2491.89497	3420.7
2494.63845	3422.5
2497.3802	3428.1
2500.12024	3417
2502.85855	3412.3
2505.59514	3425.4
2508.33002	3406.7
2511.06318	3406
2513.79462	3400.1
2516.52435	3393.4
2519.25237	3383.4
2521.97867	3375.4
2524.70327	3389.6
2527.42616	3387.5
2530.14734	3375.5
2532.86681	3377.7
2535.58458	3389.9
2538.30065	3402.2
2541.01501	3376.2
2543.72768	3381.6
2546.43864	3368
2549.14791	3368.4
2551.85548	3366.6
2554.56136	3351.2
2557.26554	3363.8
2559.96803	3342.2
2562.66883	3330.9
2565.36794	3343.4
2568.06536	3343.8
2570.7611	3330.3
2573.45514	3320.3
2576.14751	3335
2578.83819	3315
2581.52719	3325.2
2584.21451	3315.9
2586.90015	3326.1
2589.58411	3311.7
2592.2664	3317.2
2594.94701	3310
2597.62594	3318.9
2600.30321	3314.3
2602.9788	3322.2
2605.65273	3307.1
2608.32498	3295.8
2610.99557	3299.7
2613.66449	3305.6
2616.33175	3297.2
2618.99734	3312.4
2621.66128	3312.4
2624.32355	3314
2626.98416	3319.9
2629.64311	3306.5
2632.30041	3316.9
2634.95605	3309.3
2637.61004	3290.3
2640.26238	3300.3
2642.91306	3289.2
2645.56209	3288.1
2648.20948	3308.3
2650.85521	3279.1
2653.4993	3286.5
2656.14175	3281.7
2658.78255	3282.4
2661.42171	3288.1
2664.05923	3274.5
2666.6951	3279.6
2669.32934	3294.4
2671.96194	3289.2
2674.59291	3295.1
2677.22224	3295.4
2679.84993	3290.6
2682.476	3288.9
2685.10043	3292
2687.72324	3281.6
2690.34441	3282
2692.96396	3256.7
2695.58188	3264.4
2698.19818	3260.6
2700.81285	3276
2703.4259	3274.2
2706.03733	3277.6
2708.64714	3266.9
2711.25533	3268.8
2713.86191	3255
2716.46687	3268.9
2719.07021	3269.2
2721.67194	3267
2724.27206	3263.4
2726.87057	3283
2729.46747	3274.5
2732.06276	3271.7
2734.65644	3296.5
2737.24852	3271.6
2739.83899	3275.4
2742.42786	3281.5
2745.01513	3258.3
2747.60079	3256.5
2750.18486	3259
2752.76733	3261.9
2755.3482	3264.3
2757.92747	3242
2760.50515	3246.4
2763.08123	3248.9
2765.65573	3251.6
2768.22863	3234.1
2770.79994	3229.2
2773.36967	3238.7
2775.9378	3250.6
2778.50435	3243.5
2781.06932	3244.7
2783.6327	3237.2
2786.1945	3239.7
2788.75471	3240.5
2791.31335	3230.9
2793.87041	3243.4
2796.42589	3239.9
2798.97979	3222.6
2801.53212	3216.9
2804.08288	3212.6
2806.63206	3214.2
2809.17967	3192
2811.72571	3188.5
2814.27018	3186.3
2816.81308	3184.5
2819.35442	3180.7
2821.89419	3165.7
2824.43239	3166.7
2826.96904	3161.7
2829.50412	3172.1
2832.03763	3167.3
2834.56959	3154.8
2837.1	3145.7
2839.62884	3149.4
2842.15613	3152.8
2844.68186	3146.4
2847.20604	3147.9
2849.72867	3126.5
2852.24974	3129.3
2854.76927	3128.6
2857.28724	3116.9
2859.80367	3119.3
2862.31855	3118.2
2864.83189	3113.8
2867.34368	3109.3
2869.85393	3109.2
2872.36264	3096.7
2874.8698	3095.5
2877.37543	3088.4
2879.87952	3079.5
2882.38207	3076.8
2884.88308	3082.6
2887.38256	3085
2889.88051	3085.6
2892.37692	3058.7
2894.8718	3084.3
2897.36515	3082.6
2899.85698	3073.3
2902.34727	3075.1
2904.83604	3078.8
2907.32328	3082.8
2909.809	3081.8
2912.29319	3089.5
2914.77587	3098.9
2917.25702	3088.2
2919.73665	3087.9
2922.21476	3088.9
2924.69136	3076.7
2927.16644	3067.5
2929.64	3071.8
2932.11205	3071.3
2934.58258	3050.4
2937.05161	3056.5
2939.51912	3074.8
2941.98513	3062
2944.44962	3046.1
2946.91261	3032.3
2949.37409	3032.3
2951.83407	3053.5
2954.29254	3054.2
2956.74951	3033.2
2959.20498	3040.1
2961.65895	3027.6
2964.11142	3021.3
2966.56239	3015.4
2969.01186	3029.7
2971.45984	3011.6
2973.90632	3014.7
2976.35131	3004.3
2978.7948	2987.2
2981.23681	3000
2983.67732	2994.2
2986.11635	2982
2988.55388	2973.1
2990.98993	2965.9
2993.4245	2951.2
2995.85758	2950.5
2998.28917	2938.6
3000.71928	2939.2
3003.14791	2920.5
3005.57506	2910.9
3008.00073	2915.2
3010.42493	2899.9
3012.84764	2898.8
3015.26888	2897.5
3017.68865	2877.9
3020.10694	2876.2
3022.52376	2867.7
3024.9391	2872.3
3027.35298	2839.1
3029.76539	2840.8
3032.17632	2842.1
3034.5858	2829.5
3036.9938	2824.2
3039.40034	2821.2
3041.80542	2832.4
3044.20903	2825.1
3046.61118	2822.8
3049.01187	2801.3
3051.4111	2810.7
3053.80888	2788.6
3056.20519	2801.2
3058.60005	2778.4
3060.99345	2777.6
3063.3854	2781.3
3065.7759	2759.7
3068.16494	2753.9
3070.55254	2735.9
3072.93868	2728.4
3075.32338	2707.8
3077.70662	2716.3
3080.08842	2697.9
3082.46878	2706.3
3084.84769	2687.2
3087.22515	2688.9
3089.60118	2689.9
3091.97576	2682.7
3094.3489	2687.8
3096.72061	2695.6
3099.09087	2671.5
3101.4597	2671.1
3103.82709	2658.3
3106.19305	2661.3
3108.55757	2661.3
3110.92066	2648.4
3113.28232	2650.9
3115.64255	2640.6
3118.00134	2628.6
3120.35871	2623.2
3122.71466	2617.4
3125.06917	2620.7
3127.42226	2602.1
3129.77393	2608.7
3132.12417	2603.1
3134.47299	2606.9
3136.82039	2586.1
3139.16636	2602
3141.51092	2598.4
3143.85406	2589.6
3146.19579	2589
3148.53609	2579.4
3150.87499	2584.4
3153.21246	2580.1
3155.54853	2588.8
3157.88318	2582.2
3160.21642	2567.9
3162.54826	2587.9
3164.87868	2573.4
3167.2077	2557.6
3169.5353	2570.3
3171.86151	2560
3174.18631	2567
3176.5097	2561.7
3178.83169	2562.6
3181.15228	2549.7
3183.47147	2543.8
3185.78926	2539.6
3188.10565	2528.8
3190.42065	2522.3
3192.73424	2525.9
3195.04645	2532.4
3197.35725	2504.8
3199.66667	2528.5
3201.97469	2518.3
3204.28132	2531.9
3206.58656	2507
3208.8904	2519.7
3211.19287	2510.7
3213.49394	2521.2
3215.79363	2526.3
3218.09193	2511.3
3220.38884	2511.6
3222.68438	2519.9
3224.97853	2496.9
3227.2713	2496
3229.56269	2491.5
3231.8527	2489.5
3234.14133	2492.3
3236.42858	2489.3
3238.71446	2481.1
3240.99896	2481.3
3243.28209	2461.1
3245.56384	2475.6
3247.84423	2476.2
3250.12324	2473.5
3252.40088	2472.4
3254.67715	2456
3256.95205	2447.9
3259.22558	2457.5
3261.49775	2458
3263.76855	2449.9
3266.03799	2446.4
3268.30606	2447.9
3270.57277	2447.8
3272.83812	2445.1
3275.10211	2428.9
3277.36474	2428.4
3279.62601	2425
3281.88593	2411.3
3284.14448	2408.8
3286.40168	2409.8
3288.65753	2411.7
3290.91202	2398.6
3293.16516	2397.5
3295.41695	2393.5
3297.66738	2389.8
3299.91647	2366.9
3302.16421	2351
3304.4106	2337.4
3306.65564	2331.9
3308.89933	2299.7
3311.14169	2294.6
3313.38269	2266.8
3315.62236	2261.3
3317.86068	2236.1
3320.09766	2214.3
3322.3333	2207.5
3324.5676	2192.2
3326.80056	2156.9
3329.03219	2138.9
3331.26248	1.2
3333.49143	0.1
3335.71905	-0.1
