Data from AgNPs_UA_10uM_CRN_500uM_SU_RamanShift__137__13-28-10-281.txt Node

Date: Thu Aug 04 13:28:10 BST 2022
User: TCL
Spectrometer: QEP01345
Trigger mode: 4
Integration Time (sec): 1.000000E0
Scans to average: 10
Electric dark correction enabled: true
Nonlinearity correction enabled: false
Boxcar width: 0
XAxis mode: Raman Shifts
Number of Pixels in Spectrum: 1044
>>>>>Begin Spectral Data<<<<<
46.04893	0.8375
50.45542	-1.3625
54.85868	-0.0625
59.25871	0.5375
63.6555	20.2375
68.04907	20.6375
72.43941	21.5375
76.82654	24.3375
81.21044	21.8375
85.59113	26.5375
89.96862	27.6375
94.34289	24.8375
98.71396	26.7375
103.08183	27.9375
107.4465	27.6375
111.80798	29.5375
116.16626	29.0375
120.52136	32.2375
124.87327	33.9375
129.222	38.2375
133.56755	37.8375
137.90993	41.5375
142.24913	46.1375
146.58517	53.4375
150.91804	61.6375
155.24774	77.7375
159.57429	95.1375
163.89768	123.8375
168.21792	167.6375
172.53501	225.8375
176.84895	314.9375
181.15975	452.0375
185.46741	636.7375
189.77193	888.2375
194.07331	1188.5375
198.37157	1538.5375
202.6667	1888.9375
206.9587	2251.9375
211.24758	2594.0375
215.53334	2973.7375
219.81599	3337.6375
224.09553	3794.3375
228.37195	4263.6375
232.64527	4760.8375
236.91549	5286.1375
241.18261	5744.6375
245.44663	6156.0375
249.70755	6472.1375
253.96539	6769.9375
258.22014	7026.4375
262.4718	7270.4375
266.72039	7400.8375
270.96589	7457.2375
275.20832	7436.9375
279.44768	7328.5375
283.68397	7221.1375
287.91719	7129.3375
292.14735	7143.9375
296.37445	7224.6375
300.59849	7413.0375
304.81948	7663.7375
309.03742	7835.4375
313.25231	7901.6375
317.46415	7793.8375
321.67296	7550.1375
325.87872	7290.7375
330.08145	7183.5375
334.28114	7199.4375
338.47781	7287.5375
342.67145	7440.6375
346.86207	7624.6375
351.04966	7915.0375
355.23424	8188.2375
359.4158	8433.3375
363.59435	8562.4375
367.76989	8626.1375
371.94243	8670.5375
376.11196	8677.8375
380.27849	8690.9375
384.44203	8711.4375
388.60257	8749.9375
392.76012	8814.5375
396.91468	8919.5375
401.06626	9053.0375
405.21485	9122.6375
409.36047	9043.0375
413.50311	8766.4375
417.64277	8526.6375
421.77947	8386.3375
425.9132	8336.6375
430.04396	8354.7375
434.17176	8446.1375
438.2966	8565.9375
442.41849	8784.7375
446.53742	9067.9375
450.6534	9328.1375
454.76644	9446.4375
458.87653	9503.7375
462.98368	9400.5375
467.08789	9260.7375
471.18916	9048.1375
475.2875	8830.5375
479.38291	8642.2375
483.4754	8492.9375
487.56496	8416.7375
491.6516	8360.9375
495.73531	8336.9375
499.81612	8370.2375
503.89401	8459.3375
507.96899	8498.6375
512.04106	8522.8375
516.11023	8610.9375
520.1765	8653.5375
524.23987	8709.4375
528.30034	8687.6375
532.35792	8659.0375
536.41261	8541.3375
540.46441	8438.0375
544.51333	8414.7375
548.55936	8469.5375
552.60252	8616.7375
556.64279	8726.4375
560.6802	8859.7375
564.71473	8907.8375
568.7464	8995.9375
572.7752	8988.4375
576.80114	8839.4375
580.82422	8755.7375
584.84444	8768.9375
588.86181	8922.2375
592.87633	9099.1375
596.888	9324.1375
600.89682	9636.7375
604.9028	10596.0375
608.90594	12634.0375
612.90624	14486.8375
616.90371	13281.7375
620.89834	10559.9375
624.89015	9577.1375
628.87913	9485.7375
632.86528	9487.2375
636.84862	9394.0375
640.82913	9126.1375
644.80683	8791.2375
648.78172	8591.6375
652.75379	8640.9375
656.72306	8911.1375
660.68952	9179.2375
664.65319	9102.5375
668.61405	8971.0375
672.57211	9000.2375
676.52738	8978.6375
680.47986	8837.1375
684.42955	8696.7375
688.37646	8692.8375
692.32058	8803.8375
696.26192	8934.3375
700.20048	9073.7375
704.13626	9101.2375
708.06928	8973.2375
711.99952	8883.6375
715.927	8852.2375
719.85171	8942.0375
723.77365	8972.0375
727.69284	8838.8375
731.60928	8778.9375
735.52295	8796.9375
739.43388	8866.4375
743.34206	8915.1375
747.24749	8939.2375
751.15017	8945.0375
755.05012	9067.0375
758.94733	9419.7375
762.8418	10103.7375
766.73354	11209.0375
770.62254	12120.1375
774.50882	12391.1375
778.39237	11894.4375
782.27321	10958.9375
786.15132	10058.8375
790.02671	9483.7375
793.89938	9198.9375
797.76935	9098.3375
801.6366	9007.4375
805.50115	8944.5375
809.36299	8914.5375
813.22213	8889.4375
817.07857	8883.0375
820.93231	8845.1375
824.78336	8845.4375
828.63172	8894.0375
832.47738	8904.4375
836.32036	8911.7375
840.16066	8976.8375
843.99827	8975.8375
847.8332	8943.3375
851.66546	8935.3375
855.49504	8936.9375
859.32195	8942.4375
863.1462	8937.3375
866.96777	8889.2375
870.78668	8877.2375
874.60293	8895.7375
878.41652	8944.0375
882.22745	9031.9375
886.03573	9066.5375
889.84136	9055.7375
893.64433	9020.5375
897.44466	8988.5375
901.24235	8946.6375
905.0374	8941.6375
908.8298	8914.4375
912.61957	8915.0375
916.40671	8965.0375
920.19121	9033.0375
923.97308	9159.7375
927.75233	9225.5375
931.52895	9307.8375
935.30295	9253.2375
939.07433	9058.9375
942.84309	8950.7375
946.60924	8916.0375
950.37278	8891.5375
954.13371	8839.3375
957.89203	8793.3375
961.64774	8769.9375
965.40086	8731.5375
969.15137	8748.9375
972.89929	8737.0375
976.64461	8721.5375
980.38733	8776.1375
984.12747	8794.5375
987.86502	8867.7375
991.59999	8975.3375
995.33237	9144.3375
999.06217	9465.5375
1002.78939	9747.7375
1006.51404	9885.5375
1010.23611	9963.6375
1013.95561	10074.3375
1017.67255	10140.2375
1021.38692	10165.1375
1025.09872	10209.5375
1028.80796	10328.4375
1032.51465	10614.6375
1036.21877	10778.4375
1039.92035	10745.3375
1043.61937	10565.6375
1047.31584	10275.3375
1051.00976	10016.5375
1054.70114	9910.2375
1058.38998	9910.5375
1062.07627	9890.7375
1065.76003	9912.9375
1069.44126	9926.4375
1073.11995	10028.4375
1076.79611	10171.0375
1080.46974	10311.1375
1084.14085	10406.3375
1087.80943	10527.3375
1091.47549	10520.3375
1095.13903	10404.8375
1098.80005	10308.2375
1102.45857	10267.0375
1106.11456	10297.7375
1109.76805	10274.0375
1113.41903	10322.8375
1117.06751	10510.0375
1120.71348	10658.2375
1124.35696	10882.5375
1127.99793	10956.9375
1131.63641	10823.9375
1135.2724	10568.7375
1138.90589	10314.7375
1142.5369	10164.0375
1146.16542	10043.7375
1149.79145	9952.4375
1153.415	9934.4375
1157.03607	9982.7375
1160.65467	10096.0375
1164.27079	10368.2375
1167.88443	10753.4375
1171.49561	11372.4375
1175.10432	12242.0375
1178.71056	13420.8375
1182.31434	14402.2375
1185.91565	14858.1375
1189.51451	14771.2375
1193.11091	14256.3375
1196.70485	13616.4375
1200.29634	13046.2375
1203.88538	12519.4375
1207.47197	11999.5375
1211.05612	11579.7375
1214.63782	11280.1375
1218.21708	11195.4375
1221.79391	11243.0375
1225.36829	11332.4375
1228.94024	11308.4375
1232.50976	11142.4375
1236.07685	11047.3375
1239.6415	11011.8375
1243.20374	11061.3375
1246.76355	11139.1375
1250.32093	11275.2375
1253.8759	11527.7375
1257.42845	11861.5375
1260.97859	12204.5375
1264.52631	12495.1375
1268.07163	12782.2375
1271.61453	13042.6375
1275.15503	13248.1375
1278.69312	13470.9375
1282.22882	13713.6375
1285.76211	13866.3375
1289.29301	14029.4375
1292.82151	14251.8375
1296.34761	14555.6375
1299.87133	15160.0375
1303.39266	16127.2375
1306.9116	17560.5375
1310.42815	19007.0375
1313.94233	19694.4375
1317.45412	19270.2375
1320.96354	18117.2375
1324.47058	16973.3375
1327.97525	16017.9375
1331.47754	15539.0375
1334.97747	15422.7375
1338.47502	15630.4375
1341.97022	16017.1375
1345.46305	16653.7375
1348.95352	17507.9375
1352.44163	18420.6375
1355.92738	19579.5375
1359.41078	21009.8375
1362.89183	21902.3375
1366.37053	20780.9375
1369.84688	18112.8375
1373.32088	15752.5375
1376.79254	14358.5375
1380.26186	13726.9375
1383.72883	13366.5375
1387.19347	13019.6375
1390.65578	12636.4375
1394.11575	12339.2375
1397.57339	12185.1375
1401.0287	12207.3375
1404.48168	12293.7375
1407.93234	12463.6375
1411.38068	12653.6375
1414.82669	12805.1375
1418.27039	12728.2375
1421.71177	12620.9375
1425.15083	12463.1375
1428.58758	12459.9375
1432.02203	12643.1375
1435.45416	12841.7375
1438.88399	12881.5375
1442.31151	12810.1375
1445.73673	12777.1375
1449.15965	12755.1375
1452.58027	12638.4375
1455.9986	12539.3375
1459.41463	12516.2375
1462.82837	12621.4375
1466.23982	12850.3375
1469.64898	13085.0375
1473.05586	13270.3375
1476.46045	13443.3375
1479.86276	13575.7375
1483.26279	13698.3375
1486.66054	13890.4375
1490.05602	14166.9375
1493.44922	14574.3375
1496.84016	15246.3375
1500.22882	16162.1375
1503.61521	17316.3375
1506.99934	18436.5375
1510.38121	19155.9375
1513.76081	18897.9375
1517.13816	17662.3375
1520.51324	16161.1375
1523.88607	14956.3375
1527.25665	14262.4375
1530.62498	13878.8375
1533.99105	13703.9375
1537.35488	13642.2375
1540.71647	13524.6375
1544.07581	13426.2375
1547.4329	13302.6375
1550.78776	13135.1375
1554.14038	13016.2375
1557.49077	12951.3375
1560.83892	13029.4375
1564.18484	13185.5375
1567.52853	13365.7375
1570.86999	13465.0375
1574.20922	13453.8375
1577.54624	13253.3375
1580.88103	12843.7375
1584.2136	12429.3375
1587.54395	12355.0375
1590.87208	12740.5375
1594.19801	13574.6375
1597.52172	14545.3375
1600.84321	15043.5375
1604.16251	14787.4375
1607.47959	14149.0375
1610.79447	13273.0375
1614.10715	12365.1375
1617.41763	11628.9375
1620.7259	11101.0375
1624.03199	10871.7375
1627.33587	10910.2375
1630.63757	11161.9375
1633.93707	11737.2375
1637.23439	12637.8375
1640.52951	13823.8375
1643.82246	15031.8375
1647.11321	16037.0375
1650.40179	16111.6375
1653.68819	14962.6375
1656.97241	13138.4375
1660.25446	11569.4375
1663.53433	10525.4375
1666.81203	9903.7375
1670.08756	9516.2375
1673.36092	9295.0375
1676.63211	9115.4375
1679.90115	8990.1375
1683.16801	8918.1375
1686.43272	8827.7375
1689.69527	8787.0375
1692.95567	8726.1375
1696.2139	8730.2375
1699.46999	8693.3375
1702.72392	8681.4375
1705.97571	8675.4375
1709.22535	8677.7375
1712.47284	8684.9375
1715.71819	8680.1375
1718.96139	8658.4375
1722.20246	8642.6375
1725.44139	8605.8375
1728.67818	8555.4375
1731.91284	8511.5375
1735.14537	8480.4375
1738.37576	8424.0375
1741.60403	8414.6375
1744.83017	8379.4375
1748.05418	8396.0375
1751.27607	8369.6375
1754.49584	8349.1375
1757.71349	8346.9375
1760.92903	8349.3375
1764.14244	8312.7375
1767.35375	8312.2375
1770.56294	8296.5375
1773.77002	8289.0375
1776.97499	8255.9375
1780.17785	8227.6375
1783.37861	8220.3375
1786.57727	8230.8375
1789.77382	8218.3375
1792.96828	8208.0375
1796.16064	8200.9375
1799.3509	8195.8375
1802.53907	8179.9375
1805.72514	8174.1375
1808.90913	8120.0375
1812.09102	8091.0375
1815.27083	8101.7375
1818.44856	8077.5375
1821.6242	8050.5375
1824.79776	8048.0375
1827.96924	8061.1375
1831.13864	8035.2375
1834.30597	8038.8375
1837.47122	8022.2375
1840.6344	7965.3375
1843.7955	8000.3375
1846.95454	7996.5375
1850.11151	7992.1375
1853.26642	7992.6375
1856.41926	7999.5375
1859.57004	7998.7375
1862.71876	7976.4375
1865.86542	7989.2375
1869.01003	7981.1375
1872.15258	7955.0375
1875.29308	7941.2375
1878.43152	7941.7375
1881.56792	7945.8375
1884.70227	7922.4375
1887.83457	7909.1375
1890.96482	7884.9375
1894.09304	7895.5375
1897.21921	7877.2375
1900.34335	7886.2375
1903.46544	7872.9375
1906.58551	7858.3375
1909.70353	7851.3375
1912.81953	7862.7375
1915.93349	7863.1375
1919.04543	7818.8375
1922.15534	7846.0375
1925.26322	7811.2375
1928.36908	7796.8375
1931.47292	7769.7375
1934.57473	7762.4375
1937.67453	7758.8375
1940.77232	7753.2375
1943.86808	7729.8375
1946.96184	7711.9375
1950.05358	7692.3375
1953.14331	7658.0375
1956.23103	7639.9375
1959.31675	7606.5375
1962.40046	7605.3375
1965.48217	7576.1375
1968.56188	7552.3375
1971.63959	7524.6375
1974.7153	7518.7375
1977.78901	7512.6375
1980.86073	7490.1375
1983.93046	7440.4375
1986.99819	7413.4375
1990.06394	7417.2375
1993.1277	7379.6375
1996.18947	7376.6375
1999.24925	7324.5375
2002.30706	7307.5375
2005.36288	7264.5375
2008.41672	7252.6375
2011.46859	7235.4375
2014.51848	7228.9375
2017.56639	7194.1375
2020.61233	7180.9375
2023.6563	7172.8375
2026.6983	7167.9375
2029.73833	7139.2375
2032.7764	7118.2375
2035.8125	7104.9375
2038.84664	7105.0375
2041.87881	7090.1375
2044.90903	7077.5375
2047.93729	7071.9375
2050.96359	7030.9375
2053.98794	7026.9375
2057.01034	7023.4375
2060.03078	7041.7375
2063.04927	7034.6375
2066.06582	7024.2375
2069.08042	7007.5375
2072.09307	7003.7375
2075.10378	6990.4375
2078.11255	6979.9375
2081.11938	6955.0375
2084.12426	6967.7375
2087.12722	6958.3375
2090.12824	6951.5375
2093.12732	6960.1375
2096.12447	6971.6375
2099.11969	6974.7375
2102.11299	6988.1375
2105.10435	6983.3375
2108.09379	6991.4375
2111.08131	6979.1375
2114.0669	6986.0375
2117.05057	7003.0375
2120.03233	7014.4375
2123.01216	6999.4375
2125.99008	7002.2375
2128.96609	6984.5375
2131.94018	7004.3375
2134.91236	7013.7375
2137.88263	7004.6375
2140.851	7007.5375
2143.81746	7026.9375
2146.78201	7025.1375
2149.74466	7005.7375
2152.7054	7002.3375
2155.66425	7000.8375
2158.6212	6990.7375
2161.57625	6989.4375
2164.52941	7000.5375
2167.48067	6978.8375
2170.43004	6978.4375
2173.37752	6981.2375
2176.32311	6969.3375
2179.26681	7004.6375
2182.20863	6998.6375
2185.14856	6989.0375
2188.08661	6997.9375
2191.02278	6994.1375
2193.95707	6989.8375
2196.88948	6981.9375
2199.82001	6987.2375
2202.74867	6967.1375
2205.67545	6986.2375
2208.60037	6980.0375
2211.52341	6982.5375
2214.44458	6952.2375
2217.36388	6919.4375
2220.28132	6941.0375
2223.1969	6909.6375
2226.11061	6906.3375
2229.02246	6898.5375
2231.93245	6867.5375
2234.84058	6873.8375
2237.74686	6851.1375
2240.65128	6831.5375
2243.55385	6834.5375
2246.45456	6820.1375
2249.35343	6810.5375
2252.25044	6806.1375
2255.14561	6796.7375
2258.03893	6807.1375
2260.93041	6778.8375
2263.82004	6780.8375
2266.70783	6753.3375
2269.59378	6747.7375
2272.4779	6710.1375
2275.36017	6677.7375
2278.24061	6685.0375
2281.11922	6670.0375
2283.996	6651.4375
2286.87094	6664.9375
2289.74405	6629.5375
2292.61534	6652.6375
2295.4848	6625.0375
2298.35243	6625.4375
2301.21824	6624.0375
2304.08223	6594.8375
2306.94439	6629.4375
2309.80474	6623.9375
2312.66327	6639.3375
2315.51999	6642.1375
2318.37489	6632.6375
2321.22797	6604.7375
2324.07925	6606.8375
2326.92871	6596.3375
2329.77637	6595.4375
2332.62222	6591.5375
2335.46626	6580.0375
2338.3085	6584.0375
2341.14893	6586.4375
2343.98756	6598.1375
2346.8244	6604.3375
2349.65943	6602.4375
2352.49267	6597.7375
2355.32411	6570.4375
2358.15376	6591.2375
2360.98161	6571.9375
2363.80768	6574.6375
2366.63195	6550.8375
2369.45444	6558.0375
2372.27514	6545.7375
2375.09405	6525.0375
2377.91118	6512.8375
2380.72652	6475.6375
2383.54009	6482.5375
2386.35187	6453.8375
2389.16188	6445.4375
2391.97011	6434.9375
2394.77657	6433.4375
2397.58125	6412.4375
2400.38416	6414.6375
2403.18529	6384.7375
2405.98466	6389.3375
2408.78226	6347.9375
2411.57809	6353.2375
2414.37216	6350.6375
2417.16446	6319.1375
2419.955	6318.2375
2422.74378	6304.0375
2425.5308	6317.1375
2428.31606	6325.2375
2431.09956	6303.1375
2433.88131	6276.4375
2436.6613	6290.9375
2439.43954	6294.5375
2442.21603	6290.9375
2444.99077	6274.1375
2447.76377	6276.3375
2450.53501	6285.5375
2453.30451	6277.0375
2456.07226	6254.1375
2458.83827	6249.4375
2461.60254	6244.6375
2464.36507	6220.5375
2467.12586	6236.2375
2469.88492	6240.6375
2472.64224	6245.0375
2475.39782	6215.7375
2478.15167	6227.4375
2480.90379	6240.3375
2483.65417	6234.5375
2486.40283	6235.7375
2489.14976	6242.1375
2491.89497	6252.8375
2494.63845	6242.2375
2497.3802	6236.2375
2500.12024	6228.8375
2502.85855	6227.4375
2505.59514	6230.2375
2508.33002	6201.2375
2511.06318	6188.7375
2513.79462	6169.4375
2516.52435	6168.5375
2519.25237	6173.1375
2521.97867	6159.6375
2524.70327	6165.1375
2527.42616	6142.2375
2530.14734	6130.9375
2532.86681	6115.5375
2535.58458	6152.6375
2538.30065	6138.8375
2541.01501	6135.4375
2543.72768	6143.9375
2546.43864	6116.9375
2549.14791	6095.2375
2551.85548	6117.9375
2554.56136	6098.2375
2557.26554	6099.1375
2559.96803	6069.2375
2562.66883	6056.2375
2565.36794	6050.3375
2568.06536	6054.8375
2570.7611	6033.8375
2573.45514	6030.9375
2576.14751	6020.5375
2578.83819	6008.9375
2581.52719	6003.7375
2584.21451	6010.1375
2586.90015	6001.5375
2589.58411	6000.7375
2592.2664	5992.2375
2594.94701	5988.4375
2597.62594	5974.6375
2600.30321	5994.7375
2602.9788	5973.8375
2605.65273	5983.1375
2608.32498	5985.8375
2610.99557	5961.5375
2613.66449	5949.9375
2616.33175	5971.0375
2618.99734	5972.1375
2621.66128	5954.9375
2624.32355	5963.6375
2626.98416	5943.9375
2629.64311	5945.2375
2632.30041	5950.2375
2634.95605	5951.9375
2637.61004	5934.0375
2640.26238	5923.8375
2642.91306	5912.6375
2645.56209	5925.7375
2648.20948	5914.9375
2650.85521	5894.4375
2653.4993	5911.5375
2656.14175	5879.9375
2658.78255	5882.2375
2661.42171	5865.2375
2664.05923	5874.8375
2666.6951	5905.8375
2669.32934	5920.7375
2671.96194	5888.4375
2674.59291	5907.4375
2677.22224	5892.4375
2679.84993	5889.6375
2682.476	5883.8375
2685.10043	5890.6375
2687.72324	5895.0375
2690.34441	5892.7375
2692.96396	5870.2375
2695.58188	5863.9375
2698.19818	5872.1375
2700.81285	5857.9375
2703.4259	5858.9375
2706.03733	5832.9375
2708.64714	5818.5375
2711.25533	5847.1375
2713.86191	5833.1375
2716.46687	5858.0375
2719.07021	5868.7375
2721.67194	5841.9375
2724.27206	5853.1375
2726.87057	5853.9375
2729.46747	5832.2375
2732.06276	5836.5375
2734.65644	5847.6375
2737.24852	5830.6375
2739.83899	5801.7375
2742.42786	5816.9375
2745.01513	5804.2375
2747.60079	5786.1375
2750.18486	5798.1375
2752.76733	5792.4375
2755.3482	5780.0375
2757.92747	5765.5375
2760.50515	5766.8375
2763.08123	5754.9375
2765.65573	5764.1375
2768.22863	5758.5375
2770.79994	5734.4375
2773.36967	5739.5375
2775.9378	5739.5375
2778.50435	5724.1375
2781.06932	5736.6375
2783.6327	5736.8375
2786.1945	5739.2375
2788.75471	5730.5375
2791.31335	5712.7375
2793.87041	5708.7375
2796.42589	5681.9375
2798.97979	5678.3375
2801.53212	5667.9375
2804.08288	5648.8375
2806.63206	5631.7375
2809.17967	5639.5375
2811.72571	5635.6375
2814.27018	5626.0375
2816.81308	5608.5375
2819.35442	5605.9375
2821.89419	5602.7375
2824.43239	5595.2375
2826.96904	5584.2375
2829.50412	5573.6375
2832.03763	5574.4375
2834.56959	5560.6375
2837.1	5540.5375
2839.62884	5547.8375
2842.15613	5529.1375
2844.68186	5536.4375
2847.20604	5541.2375
2849.72867	5521.9375
2852.24974	5516.3375
2854.76927	5507.6375
2857.28724	5472.9375
2859.80367	5492.0375
2862.31855	5472.7375
2864.83189	5479.1375
2867.34368	5483.7375
2869.85393	5473.1375
2872.36264	5463.4375
2874.8698	5458.4375
2877.37543	5457.4375
2879.87952	5457.4375
2882.38207	5442.9375
2884.88308	5445.2375
2887.38256	5443.0375
2889.88051	5433.6375
2892.37692	5433.7375
2894.8718	5431.0375
2897.36515	5440.9375
2899.85698	5433.5375
2902.34727	5442.0375
2904.83604	5453.8375
2907.32328	5455.8375
2909.809	5460.9375
2912.29319	5470.5375
2914.77587	5477.1375
2917.25702	5479.2375
2919.73665	5454.7375
2922.21476	5445.1375
2924.69136	5445.0375
2927.16644	5431.1375
2929.64	5413.2375
2932.11205	5417.7375
2934.58258	5386.0375
2937.05161	5395.9375
2939.51912	5401.8375
2941.98513	5405.2375
2944.44962	5380.5375
2946.91261	5363.9375
2949.37409	5394.5375
2951.83407	5383.0375
2954.29254	5380.7375
2956.74951	5380.6375
2959.20498	5366.2375
2961.65895	5348.4375
2964.11142	5357.4375
2966.56239	5356.6375
2969.01186	5362.6375
2971.45984	5343.9375
2973.90632	5341.6375
2976.35131	5314.2375
2978.7948	5304.0375
2981.23681	5292.2375
2983.67732	5287.0375
2986.11635	5254.4375
2988.55388	5248.9375
2990.98993	5232.9375
2993.4245	5233.0375
2995.85758	5212.7375
2998.28917	5190.5375
3000.71928	5190.3375
3003.14791	5174.0375
3005.57506	5167.7375
3008.00073	5154.9375
3010.42493	5133.3375
3012.84764	5116.6375
3015.26888	5139.9375
3017.68865	5125.5375
3020.10694	5116.4375
3022.52376	5082.6375
3024.9391	5083.6375
3027.35298	5056.5375
3029.76539	5054.5375
3032.17632	5057.2375
3034.5858	5059.3375
3036.9938	5034.3375
3039.40034	5037.2375
3041.80542	5007.7375
3044.20903	4997.3375
3046.61118	5019.2375
3049.01187	4983.4375
3051.4111	4984.7375
3053.80888	4964.9375
3056.20519	4948.1375
3058.60005	4935.1375
3060.99345	4937.3375
3063.3854	4915.2375
3065.7759	4906.6375
3068.16494	4873.9375
3070.55254	4866.5375
3072.93868	4866.3375
3075.32338	4845.7375
3077.70662	4830.4375
3080.08842	4821.5375
3082.46878	4831.1375
3084.84769	4790.3375
3087.22515	4805.1375
3089.60118	4790.6375
3091.97576	4802.4375
3094.3489	4788.5375
3096.72061	4778.8375
3099.09087	4776.3375
3101.4597	4771.0375
3103.82709	4786.1375
3106.19305	4765.4375
