Data from AgNPs_UA_10uM_CRN_500uM_SU_RamanShift__126__13-26-20-279.txt Node

Date: Thu Aug 04 13:26:20 BST 2022
User: TCL
Spectrometer: QEP01345
Trigger mode: 4
Integration Time (sec): 1.000000E0
Scans to average: 10
Electric dark correction enabled: true
Nonlinearity correction enabled: false
Boxcar width: 0
XAxis mode: Raman Shifts
Number of Pixels in Spectrum: 1044
>>>>>Begin Spectral Data<<<<<
46.04893	-0.8875
50.45542	-0.6875
54.85868	1.1125
59.25871	-1.0875
63.6555	22.9125
68.04907	21.7125
72.43941	24.8125
76.82654	25.1125
81.21044	24.9125
85.59113	27.7125
89.96862	29.0125
94.34289	25.9125
98.71396	26.4125
103.08183	30.1125
107.4465	30.0125
111.80798	32.2125
116.16626	33.6125
120.52136	34.2125
124.87327	37.7125
129.222	38.9125
133.56755	41.0125
137.90993	45.8125
142.24913	50.0125
146.58517	57.6125
150.91804	66.6125
155.24774	83.6125
159.57429	100.8125
163.89768	131.9125
168.21792	179.7125
172.53501	248.0125
176.84895	349.1125
181.15975	497.9125
185.46741	695.7125
189.77193	967.2125
194.07331	1306.8125
198.37157	1679.3125
202.6667	2063.3125
206.9587	2465.7125
211.24758	2849.2125
215.53334	3266.9125
219.81599	3706.2125
224.09553	4165.5125
228.37195	4700.4125
232.64527	5265.1125
236.91549	5822.8125
241.18261	6338.3125
245.44663	6740.2125
249.70755	7078.7125
253.96539	7377.5125
258.22014	7629.6125
262.4718	7854.9125
266.72039	8000.4125
270.96589	8072.8125
275.20832	8035.8125
279.44768	7919.7125
283.68397	7792.4125
287.91719	7720.1125
292.14735	7720.0125
296.37445	7837.2125
300.59849	8059.6125
304.81948	8349.6125
309.03742	8599.2125
313.25231	8754.4125
317.46415	8632.6125
321.67296	8328.7125
325.87872	8024.0125
330.08145	7843.2125
334.28114	7817.4125
338.47781	7917.4125
342.67145	8076.0125
346.86207	8280.8125
351.04966	8612.0125
355.23424	8962.5125
359.4158	9207.8125
363.59435	9346.3125
367.76989	9356.7125
371.94243	9376.9125
376.11196	9352.9125
380.27849	9324.1125
384.44203	9363.4125
388.60257	9391.0125
392.76012	9468.2125
396.91468	9597.6125
401.06626	9710.4125
405.21485	9804.3125
409.36047	9675.0125
413.50311	9372.1125
417.64277	9108.8125
421.77947	8933.0125
425.9132	8837.1125
430.04396	8861.3125
434.17176	8932.2125
438.2966	9013.8125
442.41849	9200.7125
446.53742	9473.8125
450.6534	9691.2125
454.76644	9832.1125
458.87653	9848.6125
462.98368	9855.4125
467.08789	9731.5125
471.18916	9509.8125
475.2875	9330.7125
479.38291	9128.9125
483.4754	9004.7125
487.56496	8927.5125
491.6516	8884.8125
495.73531	8897.1125
499.81612	8919.5125
503.89401	8994.5125
507.96899	9065.6125
512.04106	9074.0125
516.11023	9152.0125
520.1765	9208.5125
524.23987	9244.0125
528.30034	9225.5125
532.35792	9199.9125
536.41261	9119.3125
540.46441	9003.8125
544.51333	8960.1125
548.55936	9026.7125
552.60252	9163.3125
556.64279	9327.8125
560.6802	9457.7125
564.71473	9545.3125
568.7464	9668.9125
572.7752	9655.1125
576.80114	9433.5125
580.82422	9272.7125
584.84444	9227.0125
588.86181	9298.4125
592.87633	9431.5125
596.888	9610.2125
600.89682	10032.6125
604.9028	11153.5125
608.90594	13470.0125
612.90624	15654.1125
616.90371	14386.9125
620.89834	11251.6125
624.89015	9986.0125
628.87913	9914.0125
632.86528	10028.7125
636.84862	9990.0125
640.82913	9706.9125
644.80683	9329.9125
648.78172	9131.0125
652.75379	9157.8125
656.72306	9462.4125
660.68952	9763.7125
664.65319	9689.0125
668.61405	9530.8125
672.57211	9583.7125
676.52738	9571.5125
680.47986	9389.6125
684.42955	9196.3125
688.37646	9203.2125
692.32058	9274.4125
696.26192	9467.8125
700.20048	9621.6125
704.13626	9648.0125
708.06928	9501.6125
711.99952	9374.1125
715.927	9398.3125
719.85171	9473.9125
723.77365	9472.5125
727.69284	9394.9125
731.60928	9304.6125
735.52295	9286.1125
739.43388	9341.3125
743.34206	9431.3125
747.24749	9412.9125
751.15017	9449.7125
755.05012	9564.0125
758.94733	9930.4125
762.8418	10773.1125
766.73354	12012.6125
770.62254	13036.3125
774.50882	13238.6125
778.39237	12695.6125
782.27321	11754.3125
786.15132	10740.8125
790.02671	10048.0125
793.89938	9718.2125
797.76935	9578.8125
801.6366	9497.0125
805.50115	9441.7125
809.36299	9385.9125
813.22213	9374.9125
817.07857	9353.0125
820.93231	9343.6125
824.78336	9363.7125
828.63172	9378.7125
832.47738	9382.0125
836.32036	9379.2125
840.16066	9391.8125
843.99827	9381.8125
847.8332	9376.1125
851.66546	9373.9125
855.49504	9383.9125
859.32195	9390.2125
863.1462	9388.0125
866.96777	9360.7125
870.78668	9352.0125
874.60293	9379.0125
878.41652	9413.6125
882.22745	9519.4125
886.03573	9583.7125
889.84136	9565.6125
893.64433	9520.3125
897.44466	9471.8125
901.24235	9445.9125
905.0374	9417.1125
908.8298	9396.8125
912.61957	9385.3125
916.40671	9398.1125
920.19121	9458.1125
923.97308	9559.9125
927.75233	9681.3125
931.52895	9768.6125
935.30295	9669.9125
939.07433	9487.4125
942.84309	9388.4125
946.60924	9338.0125
950.37278	9298.1125
954.13371	9300.4125
957.89203	9263.1125
961.64774	9222.4125
965.40086	9190.4125
969.15137	9181.8125
972.89929	9201.9125
976.64461	9215.6125
980.38733	9254.6125
984.12747	9292.3125
987.86502	9331.7125
991.59999	9425.6125
995.33237	9560.6125
999.06217	9779.9125
1002.78939	10010.3125
1006.51404	10178.6125
1010.23611	10275.0125
1013.95561	10369.9125
1017.67255	10429.9125
1021.38692	10442.0125
1025.09872	10420.9125
1028.80796	10476.3125
1032.51465	10648.2125
1036.21877	10805.3125
1039.92035	10781.3125
1043.61937	10674.7125
1047.31584	10514.4125
1051.00976	10350.7125
1054.70114	10295.3125
1058.38998	10293.9125
1062.07627	10344.3125
1065.76003	10360.9125
1069.44126	10417.3125
1073.11995	10561.8125
1076.79611	10744.3125
1080.46974	10901.8125
1084.14085	11002.0125
1087.80943	11135.1125
1091.47549	11129.7125
1095.13903	11063.1125
1098.80005	10980.1125
1102.45857	10988.9125
1106.11456	10961.5125
1109.76805	10882.1125
1113.41903	10959.5125
1117.06751	11087.0125
1120.71348	11295.5125
1124.35696	11548.7125
1127.99793	11685.0125
1131.63641	11510.9125
1135.2724	11160.4125
1138.90589	10890.6125
1142.5369	10696.5125
1146.16542	10577.1125
1149.79145	10497.9125
1153.415	10425.0125
1157.03607	10454.0125
1160.65467	10577.4125
1164.27079	10840.1125
1167.88443	11207.0125
1171.49561	11787.9125
1175.10432	12698.2125
1178.71056	13826.3125
1182.31434	14816.6125
1185.91565	15214.4125
1189.51451	15083.1125
1193.11091	14682.7125
1196.70485	14170.9125
1200.29634	13673.4125
1203.88538	13157.2125
1207.47197	12620.0125
1211.05612	12110.3125
1214.63782	11724.3125
1218.21708	11536.7125
1221.79391	11538.1125
1225.36829	11573.5125
1228.94024	11553.2125
1232.50976	11475.0125
1236.07685	11376.4125
1239.6415	11375.3125
1243.20374	11409.2125
1246.76355	11517.9125
1250.32093	11630.7125
1253.8759	11865.8125
1257.42845	12209.0125
1260.97859	12548.9125
1264.52631	12896.6125
1268.07163	13177.3125
1271.61453	13412.5125
1275.15503	13527.0125
1278.69312	13666.6125
1282.22882	13794.3125
1285.76211	13950.2125
1289.29301	14166.6125
1292.82151	14413.9125
1296.34761	14758.8125
1299.87133	15317.7125
1303.39266	16260.1125
1306.9116	17666.5125
1310.42815	19100.4125
1313.94233	19791.3125
1317.45412	19211.4125
1320.96354	18109.2125
1324.47058	16934.2125
1327.97525	15959.7125
1331.47754	15394.0125
1334.97747	15234.2125
1338.47502	15404.7125
1341.97022	15854.1125
1345.46305	16627.0125
1348.95352	17636.5125
1352.44163	18794.8125
1355.92738	20088.7125
1359.41078	21697.7125
1362.89183	22806.5125
1366.37053	21658.7125
1369.84688	18766.1125
1373.32088	16126.0125
1376.79254	14657.6125
1380.26186	13929.5125
1383.72883	13556.7125
1387.19347	13189.5125
1390.65578	12779.9125
1394.11575	12415.0125
1397.57339	12208.2125
1401.0287	12136.8125
1404.48168	12185.2125
1407.93234	12289.8125
1411.38068	12513.6125
1414.82669	12684.2125
1418.27039	12698.0125
1421.71177	12604.5125
1425.15083	12539.8125
1428.58758	12494.2125
1432.02203	12628.8125
1435.45416	12792.9125
1438.88399	12788.4125
1442.31151	12702.2125
1445.73673	12685.3125
1449.15965	12665.9125
1452.58027	12572.3125
1455.9986	12501.5125
1459.41463	12453.2125
1462.82837	12546.5125
1466.23982	12771.6125
1469.64898	12982.8125
1473.05586	13181.5125
1476.46045	13325.9125
1479.86276	13466.6125
1483.26279	13667.1125
1486.66054	13842.5125
1490.05602	14194.5125
1493.44922	14752.6125
1496.84016	15569.6125
1500.22882	16750.9125
1503.61521	18194.6125
1506.99934	19661.7125
1510.38121	20553.9125
1513.76081	20323.4125
1517.13816	18891.6125
1520.51324	17034.9125
1523.88607	15523.4125
1527.25665	14611.7125
1530.62498	14136.6125
1533.99105	13908.8125
1537.35488	13772.9125
1540.71647	13620.0125
1544.07581	13506.1125
1547.4329	13390.7125
1550.78776	13227.6125
1554.14038	13130.5125
1557.49077	13126.0125
1560.83892	13276.9125
1564.18484	13556.0125
1567.52853	13829.7125
1570.86999	13959.0125
1574.20922	13976.4125
1577.54624	13755.4125
1580.88103	13241.9125
1584.2136	12705.7125
1587.54395	12497.4125
1590.87208	12756.0125
1594.19801	13429.3125
1597.52172	14173.5125
1600.84321	14501.6125
1604.16251	14351.2125
1607.47959	13881.4125
1610.79447	13203.9125
1614.10715	12468.3125
1617.41763	11796.6125
1620.7259	11327.8125
1624.03199	11069.7125
1627.33587	11060.8125
1630.63757	11317.5125
1633.93707	11829.2125
1637.23439	12668.2125
1640.52951	13876.9125
1643.82246	15274.3125
1647.11321	16555.3125
1650.40179	16915.8125
1653.68819	15847.7125
1656.97241	13926.5125
1660.25446	12160.4125
1663.53433	11004.4125
1666.81203	10292.9125
1670.08756	9878.7125
1673.36092	9617.4125
1676.63211	9456.6125
1679.90115	9316.0125
1683.16801	9216.1125
1686.43272	9143.2125
1689.69527	9101.1125
1692.95567	9038.6125
1696.2139	9024.5125
1699.46999	8982.5125
1702.72392	8971.9125
1705.97571	8951.8125
1709.22535	8955.0125
1712.47284	8965.5125
1715.71819	8962.2125
1718.96139	8934.5125
1722.20246	8929.2125
1725.44139	8899.3125
1728.67818	8831.1125
1731.91284	8794.9125
1735.14537	8755.1125
1738.37576	8717.5125
1741.60403	8692.3125
1744.83017	8666.1125
1748.05418	8645.8125
1751.27607	8638.6125
1754.49584	8626.7125
1757.71349	8618.8125
1760.92903	8591.2125
1764.14244	8577.0125
1767.35375	8550.9125
1770.56294	8538.1125
1773.77002	8540.7125
1776.97499	8507.3125
1780.17785	8456.9125
1783.37861	8459.9125
1786.57727	8467.6125
1789.77382	8460.4125
1792.96828	8441.1125
1796.16064	8424.8125
1799.3509	8427.0125
1802.53907	8410.1125
1805.72514	8386.0125
1808.90913	8365.7125
1812.09102	8354.5125
1815.27083	8322.6125
1818.44856	8281.8125
1821.6242	8272.7125
1824.79776	8266.3125
1827.96924	8236.0125
1831.13864	8222.5125
1834.30597	8228.5125
1837.47122	8212.3125
1840.6344	8188.9125
1843.7955	8204.5125
1846.95454	8214.4125
1850.11151	8204.0125
1853.26642	8206.2125
1856.41926	8193.8125
1859.57004	8192.8125
1862.71876	8186.6125
1865.86542	8168.4125
1869.01003	8166.8125
1872.15258	8165.4125
1875.29308	8129.6125
1878.43152	8140.3125
1881.56792	8139.0125
1884.70227	8094.5125
1887.83457	8086.0125
1890.96482	8077.7125
1894.09304	8056.6125
1897.21921	8055.6125
1900.34335	8069.0125
1903.46544	8029.5125
1906.58551	8031.4125
1909.70353	8039.6125
1912.81953	8024.9125
1915.93349	8026.0125
1919.04543	8012.4125
1922.15534	7988.6125
1925.26322	7974.4125
1928.36908	7968.1125
1931.47292	7932.4125
1934.57473	7933.8125
1937.67453	7916.1125
1940.77232	7904.3125
1943.86808	7869.4125
1946.96184	7833.4125
1950.05358	7832.8125
1953.14331	7814.3125
1956.23103	7780.4125
1959.31675	7766.3125
1962.40046	7730.0125
1965.48217	7714.9125
1968.56188	7679.9125
1971.63959	7673.0125
1974.7153	7658.6125
1977.78901	7646.4125
1980.86073	7623.1125
1983.93046	7588.0125
1986.99819	7565.8125
1990.06394	7542.4125
1993.1277	7535.9125
1996.18947	7480.1125
1999.24925	7446.0125
2002.30706	7427.5125
2005.36288	7402.3125
2008.41672	7393.2125
2011.46859	7377.5125
2014.51848	7334.6125
2017.56639	7328.9125
2020.61233	7327.0125
2023.6563	7296.3125
2026.6983	7282.5125
2029.73833	7238.0125
2032.7764	7228.0125
2035.8125	7201.1125
2038.84664	7205.8125
2041.87881	7203.9125
2044.90903	7188.0125
2047.93729	7190.9125
2050.96359	7164.2125
2053.98794	7134.8125
2057.01034	7140.9125
2060.03078	7133.8125
2063.04927	7118.7125
2066.06582	7112.5125
2069.08042	7117.0125
2072.09307	7091.7125
2075.10378	7098.8125
2078.11255	7074.5125
2081.11938	7077.2125
2084.12426	7058.5125
2087.12722	7062.8125
2090.12824	7045.5125
2093.12732	7066.7125
2096.12447	7070.3125
2099.11969	7053.2125
2102.11299	7091.9125
2105.10435	7065.3125
2108.09379	7078.9125
2111.08131	7063.5125
2114.0669	7071.4125
2117.05057	7094.3125
2120.03233	7114.4125
2123.01216	7093.9125
2125.99008	7091.2125
2128.96609	7096.6125
2131.94018	7128.8125
2134.91236	7115.0125
2137.88263	7113.5125
2140.851	7116.7125
2143.81746	7115.5125
2146.78201	7086.8125
2149.74466	7104.2125
2152.7054	7092.6125
2155.66425	7107.6125
2158.6212	7087.8125
2161.57625	7086.4125
2164.52941	7077.3125
2167.48067	7057.7125
2170.43004	7055.9125
2173.37752	7048.0125
2176.32311	7055.9125
2179.26681	7057.3125
2182.20863	7075.1125
2185.14856	7087.9125
2188.08661	7069.5125
2191.02278	7077.2125
2193.95707	7076.5125
2196.88948	7052.9125
2199.82001	7046.3125
2202.74867	7055.7125
2205.67545	7077.9125
2208.60037	7038.1125
2211.52341	7046.7125
2214.44458	7014.1125
2217.36388	6997.7125
2220.28132	6998.8125
2223.1969	6986.5125
2226.11061	6974.7125
2229.02246	6929.8125
2231.93245	6934.4125
2234.84058	6925.6125
2237.74686	6925.0125
2240.65128	6899.1125
2243.55385	6893.5125
2246.45456	6882.0125
2249.35343	6859.1125
2252.25044	6854.5125
2255.14561	6858.9125
2258.03893	6862.0125
2260.93041	6845.6125
2263.82004	6820.6125
2266.70783	6819.4125
2269.59378	6795.9125
2272.4779	6767.0125
2275.36017	6748.7125
2278.24061	6765.4125
2281.11922	6732.1125
2283.996	6707.2125
2286.87094	6695.7125
2289.74405	6700.4125
2292.61534	6688.4125
2295.4848	6668.8125
2298.35243	6656.9125
2301.21824	6665.4125
2304.08223	6663.7125
2306.94439	6670.9125
2309.80474	6656.0125
2312.66327	6657.8125
2315.51999	6650.4125
2318.37489	6669.4125
2321.22797	6653.1125
2324.07925	6634.7125
2326.92871	6620.9125
2329.77637	6619.5125
2332.62222	6611.7125
2335.46626	6600.4125
2338.3085	6586.8125
2341.14893	6601.7125
2343.98756	6601.7125
2346.8244	6611.8125
2349.65943	6591.6125
2352.49267	6587.9125
2355.32411	6582.2125
2358.15376	6578.1125
2360.98161	6584.2125
2363.80768	6585.9125
2366.63195	6540.6125
2369.45444	6574.5125
2372.27514	6551.9125
2375.09405	6543.9125
2377.91118	6513.7125
2380.72652	6511.0125
2383.54009	6485.5125
2386.35187	6483.4125
2389.16188	6475.6125
2391.97011	6441.8125
2394.77657	6443.0125
2397.58125	6425.2125
2400.38416	6397.9125
2403.18529	6401.1125
2405.98466	6398.5125
2408.78226	6373.2125
2411.57809	6360.3125
2414.37216	6330.3125
2417.16446	6340.5125
2419.955	6338.5125
2422.74378	6349.0125
2425.5308	6312.0125
2428.31606	6324.6125
2431.09956	6331.8125
2433.88131	6293.7125
2436.6613	6294.2125
2439.43954	6279.9125
2442.21603	6294.1125
2444.99077	6293.6125
2447.76377	6300.5125
2450.53501	6272.4125
2453.30451	6281.9125
2456.07226	6291.4125
2458.83827	6245.6125
2461.60254	6243.1125
2464.36507	6237.2125
2467.12586	6225.0125
2469.88492	6238.8125
2472.64224	6247.4125
2475.39782	6241.3125
2478.15167	6232.9125
2480.90379	6216.9125
2483.65417	6220.2125
2486.40283	6221.4125
2489.14976	6238.2125
2491.89497	6248.4125
2494.63845	6225.2125
2497.3802	6218.7125
2500.12024	6210.7125
2502.85855	6207.3125
2505.59514	6209.2125
2508.33002	6196.8125
2511.06318	6179.9125
2513.79462	6159.4125
2516.52435	6156.6125
2519.25237	6147.5125
2521.97867	6136.3125
2524.70327	6125.3125
2527.42616	6116.5125
2530.14734	6099.9125
2532.86681	6110.4125
2535.58458	6117.9125
2538.30065	6115.6125
2541.01501	6104.9125
2543.72768	6075.1125
2546.43864	6092.2125
2549.14791	6079.1125
2551.85548	6081.8125
2554.56136	6074.2125
2557.26554	6058.4125
2559.96803	6050.7125
2562.66883	6047.3125
2565.36794	6005.3125
2568.06536	6001.2125
2570.7611	5985.4125
2573.45514	5985.4125
2576.14751	5976.4125
2578.83819	5960.2125
2581.52719	5962.6125
2584.21451	5966.2125
2586.90015	5973.8125
2589.58411	5951.7125
2592.2664	5936.4125
2594.94701	5938.3125
2597.62594	5931.9125
2600.30321	5910.2125
2602.9788	5910.6125
2605.65273	5919.6125
2608.32498	5906.0125
2610.99557	5893.0125
2613.66449	5895.4125
2616.33175	5898.0125
2618.99734	5896.4125
2621.66128	5909.5125
2624.32355	5880.2125
2626.98416	5860.2125
2629.64311	5873.5125
2632.30041	5869.8125
2634.95605	5852.9125
2637.61004	5838.9125
2640.26238	5833.0125
2642.91306	5824.4125
2645.56209	5821.8125
2648.20948	5821.3125
2650.85521	5811.6125
2653.4993	5823.4125
2656.14175	5810.1125
2658.78255	5790.1125
2661.42171	5808.9125
2664.05923	5811.3125
2666.6951	5816.9125
2669.32934	5818.7125
2671.96194	5828.0125
2674.59291	5802.6125
2677.22224	5818.1125
2679.84993	5822.0125
2682.476	5808.8125
2685.10043	5800.7125
2687.72324	5808.4125
2690.34441	5811.7125
2692.96396	5789.7125
2695.58188	5784.3125
2698.19818	5781.9125
2700.81285	5783.7125
2703.4259	5759.2125
2706.03733	5753.5125
2708.64714	5754.4125
2711.25533	5756.5125
2713.86191	5743.2125
2716.46687	5762.3125
2719.07021	5777.6125
2721.67194	5783.7125
2724.27206	5757.8125
2726.87057	5759.5125
2729.46747	5763.2125
2732.06276	5749.6125
2734.65644	5744.3125
2737.24852	5744.4125
2739.83899	5735.6125
2742.42786	5738.8125
2745.01513	5699.2125
2747.60079	5704.5125
2750.18486	5702.3125
2752.76733	5703.5125
2755.3482	5677.7125
2757.92747	5678.7125
2760.50515	5673.8125
2763.08123	5674.8125
2765.65573	5658.2125
2768.22863	5671.1125
2770.79994	5639.8125
2773.36967	5646.0125
2775.9378	5649.2125
2778.50435	5640.2125
2781.06932	5628.6125
2783.6327	5628.3125
2786.1945	5631.8125
2788.75471	5630.9125
2791.31335	5614.0125
2793.87041	5604.1125
2796.42589	5573.2125
2798.97979	5552.5125
2801.53212	5546.7125
2804.08288	5534.3125
2806.63206	5527.1125
2809.17967	5532.1125
2811.72571	5522.1125
2814.27018	5516.6125
2816.81308	5485.0125
2819.35442	5489.1125
2821.89419	5495.7125
2824.43239	5489.9125
2826.96904	5480.1125
2829.50412	5479.5125
2832.03763	5439.8125
2834.56959	5450.1125
2837.1	5432.8125
2839.62884	5413.3125
2842.15613	5408.9125
2844.68186	5417.7125
2847.20604	5403.7125
2849.72867	5396.4125
2852.24974	5390.5125
2854.76927	5380.7125
2857.28724	5369.5125
2859.80367	5368.6125
2862.31855	5358.1125
2864.83189	5356.1125
2867.34368	5353.1125
2869.85393	5347.2125
2872.36264	5357.9125
2874.8698	5326.4125
2877.37543	5343.1125
2879.87952	5332.0125
2882.38207	5327.7125
2884.88308	5297.0125
2887.38256	5319.6125
2889.88051	5313.2125
2892.37692	5307.1125
2894.8718	5304.3125
2897.36515	5313.0125
2899.85698	5307.2125
2902.34727	5297.4125
2904.83604	5322.1125
2907.32328	5331.4125
2909.809	5334.2125
2912.29319	5325.6125
2914.77587	5335.3125
2917.25702	5328.4125
2919.73665	5339.1125
2922.21476	5336.6125
2924.69136	5305.5125
2927.16644	5312.2125
2929.64	5302.8125
2932.11205	5279.5125
2934.58258	5259.5125
2937.05161	5282.5125
2939.51912	5276.0125
2941.98513	5264.1125
2944.44962	5251.3125
2946.91261	5250.2125
2949.37409	5244.6125
2951.83407	5248.3125
2954.29254	5233.3125
2956.74951	5245.3125
2959.20498	5235.2125
2961.65895	5234.3125
2964.11142	5240.2125
2966.56239	5219.7125
2969.01186	5227.4125
2971.45984	5222.3125
2973.90632	5202.6125
2976.35131	5192.8125
2978.7948	5199.2125
2981.23681	5165.7125
2983.67732	5169.8125
2986.11635	5149.8125
2988.55388	5136.8125
2990.98993	5105.8125
2993.4245	5114.2125
2995.85758	5096.2125
2998.28917	5084.2125
3000.71928	5073.8125
3003.14791	5050.4125
3005.57506	5058.7125
3008.00073	5037.4125
3010.42493	5017.9125
3012.84764	5011.1125
3015.26888	5023.4125
3017.68865	5018.0125
3020.10694	4996.1125
3022.52376	4970.7125
3024.9391	4965.3125
3027.35298	4939.9125
3029.76539	4941.0125
3032.17632	4928.4125
3034.5858	4927.0125
3036.9938	4914.6125
3039.40034	4900.9125
3041.80542	4881.3125
3044.20903	4859.0125
3046.61118	4870.6125
3049.01187	4854.6125
3051.4111	4859.7125
3053.80888	4842.6125
3056.20519	4840.9125
3058.60005	4821.5125
3060.99345	4812.9125
3063.3854	4800.6125
3065.7759	4785.3125
3068.16494	4775.0125
3070.55254	4748.5125
3072.93868	4720.9125
3075.32338	4725.4125
3077.70662	4720.8125
3080.08842	4710.1125
3082.46878	4689.2125
3084.84769	4682.9125
3087.22515	4688.9125
3089.60118	4687.3125
3091.97576	4671.2125
3094.3489	4668.5125
3096.72061	4676.6125
3099.09087	4655.1125
3101.4597	4656.9125
3103.82709	4648.8125
3106.19305	4663.0125
