Data from AgNPs_UA_50uM_CRN_500uM_SU_RamanShift__78__14-08-50-328.txt Node

Date: Thu Aug 04 14:08:50 BST 2022
User: TCL
Spectrometer: QEP01345
Trigger mode: 4
Integration Time (sec): 1.000000E0
Scans to average: 10
Electric dark correction enabled: true
Nonlinearity correction enabled: false
Boxcar width: 0
XAxis mode: Raman Shifts
Number of Pixels in Spectrum: 1044
>>>>>Begin Spectral Data<<<<<
46.04893	0.4125
50.45542	0.2125
54.85868	-0.0875
59.25871	-0.9875
63.6555	15.8125
68.04907	14.1125
72.43941	18.1125
76.82654	17.7125
81.21044	18.0125
85.59113	21.2125
89.96862	19.7125
94.34289	21.1125
98.71396	19.4125
103.08183	20.5125
107.4465	20.7125
111.80798	20.3125
116.16626	22.6125
120.52136	24.4125
124.87327	24.5125
129.222	27.6125
133.56755	29.7125
137.90993	31.6125
142.24913	32.7125
146.58517	39.4125
150.91804	46.4125
155.24774	56.2125
159.57429	68.6125
163.89768	89.4125
168.21792	118.8125
172.53501	165.2125
176.84895	230.8125
181.15975	325.4125
185.46741	454.2125
189.77193	634.7125
194.07331	846.0125
198.37157	1094.8125
202.6667	1348.4125
206.9587	1602.9125
211.24758	1860.9125
215.53334	2130.2125
219.81599	2386.2125
224.09553	2687.3125
228.37195	3051.7125
232.64527	3399.7125
236.91549	3791.2125
241.18261	4129.9125
245.44663	4406.7125
249.70755	4641.6125
253.96539	4834.3125
258.22014	5027.2125
262.4718	5186.7125
266.72039	5307.3125
270.96589	5379.1125
275.20832	5342.1125
279.44768	5278.1125
283.68397	5176.8125
287.91719	5117.6125
292.14735	5125.8125
296.37445	5201.7125
300.59849	5343.2125
304.81948	5519.0125
309.03742	5664.6125
313.25231	5713.7125
317.46415	5626.4125
321.67296	5435.7125
325.87872	5230.5125
330.08145	5146.4125
334.28114	5175.3125
338.47781	5242.6125
342.67145	5367.4125
346.86207	5521.1125
351.04966	5742.0125
355.23424	5956.1125
359.4158	6095.2125
363.59435	6212.9125
367.76989	6252.9125
371.94243	6301.8125
376.11196	6307.3125
380.27849	6316.6125
384.44203	6349.4125
388.60257	6353.9125
392.76012	6378.9125
396.91468	6467.8125
401.06626	6573.3125
405.21485	6641.6125
409.36047	6570.4125
413.50311	6383.7125
417.64277	6181.0125
421.77947	6061.2125
425.9132	6032.4125
430.04396	6091.9125
434.17176	6194.3125
438.2966	6325.1125
442.41849	6571.2125
446.53742	6821.8125
450.6534	7076.0125
454.76644	7254.9125
458.87653	7252.1125
462.98368	7150.5125
467.08789	6952.8125
471.18916	6713.7125
475.2875	6472.7125
479.38291	6295.6125
483.4754	6172.6125
487.56496	6095.6125
491.6516	6020.3125
495.73531	5982.4125
499.81612	5990.6125
503.89401	6023.9125
507.96899	6054.6125
512.04106	6094.8125
516.11023	6156.4125
520.1765	6240.9125
524.23987	6305.4125
528.30034	6291.3125
532.35792	6247.8125
536.41261	6157.5125
540.46441	6040.7125
544.51333	6018.1125
548.55936	6093.1125
552.60252	6178.5125
556.64279	6279.9125
560.6802	6297.4125
564.71473	6317.1125
568.7464	6375.7125
572.7752	6410.3125
576.80114	6313.0125
580.82422	6255.0125
584.84444	6326.4125
588.86181	6517.8125
592.87633	6759.1125
596.888	6954.2125
600.89682	7186.9125
604.9028	7900.7125
608.90594	9439.5125
612.90624	10793.5125
616.90371	9832.2125
620.89834	7765.2125
624.89015	7074.9125
628.87913	7037.5125
632.86528	6909.2125
636.84862	6690.3125
640.82913	6452.2125
644.80683	6200.3125
648.78172	6055.4125
652.75379	6119.6125
656.72306	6331.3125
660.68952	6525.4125
664.65319	6504.3125
668.61405	6362.8125
672.57211	6336.9125
676.52738	6276.8125
680.47986	6209.2125
684.42955	6144.4125
688.37646	6152.0125
692.32058	6233.3125
696.26192	6329.8125
700.20048	6430.5125
704.13626	6416.2125
708.06928	6306.9125
711.99952	6255.0125
715.927	6274.4125
719.85171	6321.4125
723.77365	6280.1125
727.69284	6206.5125
731.60928	6174.2125
735.52295	6195.2125
739.43388	6260.2125
743.34206	6309.9125
747.24749	6360.8125
751.15017	6379.4125
755.05012	6463.1125
758.94733	6732.7125
762.8418	7249.6125
766.73354	8039.1125
770.62254	8728.6125
774.50882	8960.9125
778.39237	8550.3125
782.27321	7773.6125
786.15132	7064.3125
790.02671	6632.3125
793.89938	6453.6125
797.76935	6385.7125
801.6366	6351.8125
805.50115	6309.2125
809.36299	6283.8125
813.22213	6232.2125
817.07857	6238.1125
820.93231	6233.8125
824.78336	6222.5125
828.63172	6247.0125
832.47738	6284.0125
836.32036	6304.1125
840.16066	6343.2125
843.99827	6385.2125
847.8332	6340.0125
851.66546	6301.2125
855.49504	6273.5125
859.32195	6275.3125
863.1462	6264.9125
866.96777	6226.2125
870.78668	6223.5125
874.60293	6215.4125
878.41652	6260.1125
882.22745	6306.1125
886.03573	6322.1125
889.84136	6287.3125
893.64433	6253.9125
897.44466	6245.0125
901.24235	6245.8125
905.0374	6210.2125
908.8298	6199.8125
912.61957	6195.9125
916.40671	6241.0125
920.19121	6343.5125
923.97308	6459.5125
927.75233	6586.7125
931.52895	6619.6125
935.30295	6524.4125
939.07433	6373.3125
942.84309	6263.8125
946.60924	6230.8125
950.37278	6191.4125
954.13371	6151.5125
957.89203	6084.6125
961.64774	6057.9125
965.40086	6037.2125
969.15137	6008.1125
972.89929	6003.8125
976.64461	6009.2125
980.38733	6022.6125
984.12747	6061.7125
987.86502	6118.9125
991.59999	6238.8125
995.33237	6473.4125
999.06217	6799.3125
1002.78939	7109.9125
1006.51404	7226.2125
1010.23611	7227.8125
1013.95561	7309.3125
1017.67255	7423.5125
1021.38692	7411.9125
1025.09872	7421.3125
1028.80796	7619.8125
1032.51465	7967.4125
1036.21877	8162.9125
1039.92035	8093.9125
1043.61937	7841.6125
1047.31584	7506.8125
1051.00976	7204.5125
1054.70114	7035.5125
1058.38998	6998.9125
1062.07627	6983.9125
1065.76003	6955.5125
1069.44126	6958.0125
1073.11995	7015.7125
1076.79611	7055.3125
1080.46974	7170.3125
1084.14085	7273.4125
1087.80943	7360.1125
1091.47549	7334.6125
1095.13903	7211.0125
1098.80005	7040.1125
1102.45857	6980.5125
1106.11456	6970.0125
1109.76805	7048.5125
1113.41903	7118.9125
1117.06751	7290.7125
1120.71348	7438.8125
1124.35696	7628.3125
1127.99793	7720.1125
1131.63641	7608.4125
1135.2724	7410.1125
1138.90589	7224.5125
1142.5369	7071.0125
1146.16542	6989.1125
1149.79145	6932.4125
1153.415	6975.5125
1157.03607	6984.9125
1160.65467	7104.6125
1164.27079	7282.4125
1167.88443	7602.9125
1171.49561	8113.2125
1175.10432	8880.9125
1178.71056	9862.9125
1182.31434	10784.8125
1185.91565	11240.6125
1189.51451	11148.8125
1193.11091	10628.9125
1196.70485	9907.9125
1200.29634	9307.7125
1203.88538	8824.9125
1207.47197	8384.9125
1211.05612	8065.7125
1214.63782	7919.9125
1218.21708	7940.7125
1221.79391	8054.0125
1225.36829	8140.9125
1228.94024	8106.7125
1232.50976	8002.6125
1236.07685	7900.6125
1239.6415	7887.5125
1243.20374	7917.7125
1246.76355	7993.3125
1250.32093	8113.3125
1253.8759	8328.9125
1257.42845	8619.3125
1260.97859	8903.6125
1264.52631	9128.1125
1268.07163	9357.9125
1271.61453	9545.3125
1275.15503	9742.8125
1278.69312	10014.2125
1282.22882	10250.5125
1285.76211	10491.4125
1289.29301	10652.9125
1292.82151	10868.7125
1296.34761	11145.7125
1299.87133	11671.8125
1303.39266	12491.2125
1306.9116	13631.1125
1310.42815	14833.4125
1313.94233	15368.5125
1317.45412	14900.6125
1320.96354	14003.5125
1324.47058	13037.2125
1327.97525	12361.0125
1331.47754	12100.6125
1334.97747	12135.6125
1338.47502	12322.5125
1341.97022	12636.1125
1345.46305	12952.5125
1348.95352	13399.3125
1352.44163	14055.8125
1355.92738	14980.2125
1359.41078	16163.6125
1362.89183	16833.6125
1366.37053	15900.8125
1369.84688	13865.3125
1373.32088	12010.9125
1376.79254	10852.7125
1380.26186	10324.9125
1383.72883	10044.2125
1387.19347	9777.4125
1390.65578	9403.9125
1394.11575	9130.4125
1397.57339	9008.5125
1401.0287	9051.6125
1404.48168	9187.3125
1407.93234	9400.8125
1411.38068	9624.2125
1414.82669	9717.8125
1418.27039	9627.9125
1421.71177	9427.6125
1425.15083	9316.1125
1428.58758	9355.5125
1432.02203	9565.5125
1435.45416	9727.2125
1438.88399	9766.3125
1442.31151	9705.1125
1445.73673	9657.6125
1449.15965	9593.8125
1452.58027	9438.9125
1455.9986	9238.9125
1459.41463	9187.2125
1462.82837	9270.8125
1466.23982	9496.4125
1469.64898	9707.4125
1473.05586	9891.5125
1476.46045	10038.6125
1479.86276	10190.0125
1483.26279	10279.7125
1486.66054	10391.2125
1490.05602	10550.5125
1493.44922	10847.1125
1496.84016	11277.7125
1500.22882	11952.0125
1503.61521	12786.0125
1506.99934	13628.4125
1510.38121	14089.0125
1513.76081	13865.9125
1517.13816	12947.4125
1520.51324	11842.4125
1523.88607	11056.1125
1527.25665	10625.4125
1530.62498	10389.4125
1533.99105	10301.5125
1537.35488	10246.1125
1540.71647	10229.9125
1544.07581	10146.8125
1547.4329	9985.6125
1550.78776	9778.3125
1554.14038	9592.9125
1557.49077	9483.3125
1560.83892	9432.8125
1564.18484	9492.0125
1567.52853	9603.2125
1570.86999	9720.6125
1574.20922	9707.5125
1577.54624	9525.6125
1580.88103	9216.2125
1584.2136	8954.7125
1587.54395	8992.4125
1590.87208	9448.4125
1594.19801	10353.2125
1597.52172	11382.5125
1600.84321	12032.9125
1604.16251	11820.2125
1607.47959	11054.7125
1610.79447	10049.8125
1614.10715	9133.6125
1617.41763	8432.5125
1620.7259	7989.9125
1624.03199	7833.2125
1627.33587	7860.1125
1630.63757	8106.6125
1633.93707	8622.0125
1637.23439	9366.7125
1640.52951	10322.9125
1643.82246	11323.8125
1647.11321	12030.3125
1650.40179	11905.0125
1653.68819	10895.0125
1656.97241	9456.2125
1660.25446	8241.9125
1663.53433	7435.2125
1666.81203	6939.6125
1670.08756	6637.2125
1673.36092	6463.5125
1676.63211	6327.5125
1679.90115	6238.2125
1683.16801	6150.5125
1686.43272	6099.9125
1689.69527	6063.7125
1692.95567	6033.5125
1696.2139	6016.1125
1699.46999	5999.1125
1702.72392	6003.8125
1705.97571	6001.4125
1709.22535	5992.5125
1712.47284	6004.2125
1715.71819	5989.2125
1718.96139	5976.3125
1722.20246	5950.6125
1725.44139	5953.2125
1728.67818	5905.5125
1731.91284	5854.7125
1735.14537	5848.1125
1738.37576	5824.3125
1741.60403	5805.5125
1744.83017	5800.9125
1748.05418	5788.6125
1751.27607	5775.4125
1754.49584	5735.5125
1757.71349	5742.8125
1760.92903	5737.2125
1764.14244	5738.6125
1767.35375	5726.5125
1770.56294	5724.5125
1773.77002	5732.9125
1776.97499	5709.2125
1780.17785	5685.2125
1783.37861	5691.6125
1786.57727	5665.0125
1789.77382	5659.2125
1792.96828	5658.9125
1796.16064	5639.0125
1799.3509	5650.8125
1802.53907	5643.2125
1805.72514	5643.6125
1808.90913	5606.0125
1812.09102	5609.2125
1815.27083	5603.5125
1818.44856	5577.2125
1821.6242	5575.1125
1824.79776	5557.4125
1827.96924	5545.4125
1831.13864	5535.8125
1834.30597	5538.0125
1837.47122	5521.6125
1840.6344	5508.3125
1843.7955	5528.3125
1846.95454	5528.3125
1850.11151	5528.4125
1853.26642	5504.3125
1856.41926	5519.1125
1859.57004	5520.6125
1862.71876	5526.0125
1865.86542	5499.1125
1869.01003	5505.6125
1872.15258	5510.5125
1875.29308	5503.3125
1878.43152	5497.1125
1881.56792	5496.3125
1884.70227	5496.4125
1887.83457	5498.4125
1890.96482	5503.6125
1894.09304	5472.8125
1897.21921	5472.8125
1900.34335	5471.0125
1903.46544	5456.4125
1906.58551	5448.6125
1909.70353	5448.8125
1912.81953	5438.7125
1915.93349	5442.8125
1919.04543	5443.2125
1922.15534	5430.6125
1925.26322	5417.0125
1928.36908	5420.6125
1931.47292	5430.9125
1934.57473	5431.5125
1937.67453	5405.4125
1940.77232	5385.5125
1943.86808	5370.0125
1946.96184	5368.4125
1950.05358	5327.5125
1953.14331	5332.9125
1956.23103	5301.4125
1959.31675	5282.2125
1962.40046	5289.1125
1965.48217	5264.5125
1968.56188	5239.4125
1971.63959	5242.4125
1974.7153	5224.2125
1977.78901	5215.8125
1980.86073	5203.3125
1983.93046	5188.3125
1986.99819	5162.5125
1990.06394	5168.5125
1993.1277	5135.3125
1996.18947	5120.3125
1999.24925	5099.7125
2002.30706	5079.0125
2005.36288	5060.8125
2008.41672	5043.6125
2011.46859	5043.7125
2014.51848	5040.0125
2017.56639	5011.6125
2020.61233	5007.7125
2023.6563	4988.0125
2026.6983	4974.4125
2029.73833	4959.8125
2032.7764	4957.9125
2035.8125	4950.3125
2038.84664	4935.0125
2041.87881	4951.7125
2044.90903	4927.8125
2047.93729	4933.7125
2050.96359	4916.5125
2053.98794	4913.8125
2057.01034	4910.8125
2060.03078	4915.1125
2063.04927	4924.9125
2066.06582	4922.9125
2069.08042	4878.5125
2072.09307	4874.6125
2075.10378	4859.1125
2078.11255	4861.2125
2081.11938	4880.0125
2084.12426	4853.3125
2087.12722	4866.4125
2090.12824	4862.7125
2093.12732	4860.6125
2096.12447	4840.4125
2099.11969	4864.9125
2102.11299	4855.5125
2105.10435	4852.8125
2108.09379	4864.2125
2111.08131	4864.0125
2114.0669	4867.4125
2117.05057	4874.4125
2120.03233	4867.5125
2123.01216	4861.5125
2125.99008	4866.1125
2128.96609	4880.0125
2131.94018	4874.1125
2134.91236	4858.0125
2137.88263	4860.5125
2140.851	4878.6125
2143.81746	4872.1125
2146.78201	4890.7125
2149.74466	4877.6125
2152.7054	4885.3125
2155.66425	4878.3125
2158.6212	4888.6125
2161.57625	4862.7125
2164.52941	4866.1125
2167.48067	4866.5125
2170.43004	4881.0125
2173.37752	4870.2125
2176.32311	4847.9125
2179.26681	4857.6125
2182.20863	4861.8125
2185.14856	4877.2125
2188.08661	4863.4125
2191.02278	4884.8125
2193.95707	4858.0125
2196.88948	4859.4125
2199.82001	4870.1125
2202.74867	4862.9125
2205.67545	4860.8125
2208.60037	4878.5125
2211.52341	4879.9125
2214.44458	4857.6125
2217.36388	4872.2125
2220.28132	4859.3125
2223.1969	4833.7125
2226.11061	4815.5125
2229.02246	4822.7125
2231.93245	4830.7125
2234.84058	4812.8125
2237.74686	4791.6125
2240.65128	4776.6125
2243.55385	4777.6125
2246.45456	4771.7125
2249.35343	4752.5125
2252.25044	4755.0125
2255.14561	4750.4125
2258.03893	4756.8125
2260.93041	4748.2125
2263.82004	4736.5125
2266.70783	4725.4125
2269.59378	4699.6125
2272.4779	4699.3125
2275.36017	4662.2125
2278.24061	4653.8125
2281.11922	4655.4125
2283.996	4651.1125
2286.87094	4655.6125
2289.74405	4642.0125
2292.61534	4653.6125
2295.4848	4630.2125
2298.35243	4644.1125
2301.21824	4643.1125
2304.08223	4638.0125
2306.94439	4651.5125
2309.80474	4646.5125
2312.66327	4656.3125
2315.51999	4662.5125
2318.37489	4675.5125
2321.22797	4660.2125
2324.07925	4646.7125
2326.92871	4639.7125
2329.77637	4634.2125
2332.62222	4645.3125
2335.46626	4640.1125
2338.3085	4642.6125
2341.14893	4635.1125
2343.98756	4658.3125
2346.8244	4665.5125
2349.65943	4661.2125
2352.49267	4654.3125
2355.32411	4659.5125
2358.15376	4675.5125
2360.98161	4642.9125
2363.80768	4649.2125
2366.63195	4628.4125
2369.45444	4617.8125
2372.27514	4617.7125
2375.09405	4586.3125
2377.91118	4589.9125
2380.72652	4570.0125
2383.54009	4557.9125
2386.35187	4555.4125
2389.16188	4547.7125
2391.97011	4551.2125
2394.77657	4539.8125
2397.58125	4516.4125
2400.38416	4492.2125
2403.18529	4500.3125
2405.98466	4495.7125
2408.78226	4481.3125
2411.57809	4470.3125
2414.37216	4446.2125
2417.16446	4447.2125
2419.955	4444.7125
2422.74378	4441.4125
2425.5308	4423.0125
2428.31606	4425.2125
2431.09956	4438.8125
2433.88131	4434.5125
2436.6613	4420.9125
2439.43954	4424.3125
2442.21603	4415.2125
2444.99077	4412.2125
2447.76377	4406.1125
2450.53501	4411.5125
2453.30451	4392.4125
2456.07226	4408.6125
2458.83827	4400.7125
2461.60254	4396.7125
2464.36507	4391.5125
2467.12586	4398.0125
2469.88492	4397.0125
2472.64224	4391.1125
2475.39782	4382.9125
2478.15167	4381.4125
2480.90379	4400.4125
2483.65417	4411.3125
2486.40283	4408.4125
2489.14976	4427.8125
2491.89497	4424.7125
2494.63845	4422.8125
2497.3802	4419.1125
2500.12024	4403.8125
2502.85855	4402.8125
2505.59514	4404.7125
2508.33002	4400.2125
2511.06318	4391.0125
2513.79462	4376.4125
2516.52435	4360.9125
2519.25237	4349.8125
2521.97867	4353.5125
2524.70327	4349.4125
2527.42616	4352.3125
2530.14734	4349.7125
2532.86681	4364.0125
2535.58458	4381.5125
2538.30065	4362.2125
2541.01501	4363.1125
2543.72768	4358.1125
2546.43864	4344.9125
2549.14791	4355.2125
2551.85548	4360.1125
2554.56136	4355.2125
2557.26554	4324.3125
2559.96803	4338.6125
2562.66883	4321.3125
2565.36794	4300.8125
2568.06536	4302.0125
2570.7611	4302.1125
2573.45514	4299.5125
2576.14751	4292.4125
2578.83819	4279.6125
2581.52719	4281.6125
2584.21451	4277.0125
2586.90015	4293.7125
2589.58411	4287.7125
2592.2664	4292.1125
2594.94701	4278.6125
2597.62594	4283.4125
2600.30321	4291.1125
2602.9788	4274.2125
2605.65273	4264.5125
2608.32498	4283.2125
2610.99557	4268.5125
2613.66449	4280.8125
2616.33175	4289.2125
2618.99734	4286.6125
2621.66128	4287.2125
2624.32355	4276.2125
2626.98416	4299.0125
2629.64311	4298.0125
2632.30041	4274.9125
2634.95605	4266.3125
2637.61004	4264.4125
2640.26238	4271.7125
2642.91306	4255.8125
2645.56209	4256.4125
2648.20948	4276.6125
2650.85521	4231.2125
2653.4993	4236.0125
2656.14175	4239.5125
2658.78255	4235.7125
2661.42171	4231.3125
2664.05923	4238.2125
2666.6951	4236.3125
2669.32934	4239.4125
2671.96194	4248.2125
2674.59291	4234.4125
2677.22224	4233.1125
2679.84993	4250.3125
2682.476	4213.8125
2685.10043	4232.2125
2687.72324	4222.0125
2690.34441	4231.0125
2692.96396	4208.3125
2695.58188	4204.0125
2698.19818	4192.9125
2700.81285	4216.6125
2703.4259	4196.0125
2706.03733	4206.1125
2708.64714	4205.0125
2711.25533	4187.8125
2713.86191	4191.7125
2716.46687	4198.6125
2719.07021	4197.0125
2721.67194	4207.7125
2724.27206	4208.0125
2726.87057	4185.3125
2729.46747	4193.1125
2732.06276	4198.8125
2734.65644	4192.8125
2737.24852	4191.4125
2739.83899	4188.2125
2742.42786	4175.4125
2745.01513	4176.6125
2747.60079	4181.4125
2750.18486	4182.3125
2752.76733	4166.4125
2755.3482	4166.6125
2757.92747	4150.5125
2760.50515	4172.1125
2763.08123	4158.6125
2765.65573	4155.4125
2768.22863	4135.7125
2770.79994	4128.2125
2773.36967	4152.1125
2775.9378	4143.4125
2778.50435	4159.6125
2781.06932	4158.6125
2783.6327	4149.8125
2786.1945	4139.2125
2788.75471	4132.8125
2791.31335	4132.8125
2793.87041	4128.0125
2796.42589	4120.2125
2798.97979	4113.4125
2801.53212	4097.8125
2804.08288	4084.6125
2806.63206	4096.0125
2809.17967	4078.8125
2811.72571	4061.8125
2814.27018	4075.2125
2816.81308	4063.6125
2819.35442	4059.0125
2821.89419	4052.6125
2824.43239	4036.6125
2826.96904	4037.6125
2829.50412	4042.3125
2832.03763	4044.8125
2834.56959	4018.0125
2837.1	4022.9125
2839.62884	4019.9125
2842.15613	4015.2125
2844.68186	4002.0125
2847.20604	4006.8125
2849.72867	4002.6125
2852.24974	4004.3125
2854.76927	3982.2125
2857.28724	3970.0125
2859.80367	3983.9125
2862.31855	3962.8125
2864.83189	3975.1125
2867.34368	3965.4125
2869.85393	3964.0125
2872.36264	3949.9125
2874.8698	3961.8125
2877.37543	3948.8125
2879.87952	3956.2125
2882.38207	3946.8125
2884.88308	3943.1125
2887.38256	3943.8125
2889.88051	3945.5125
2892.37692	3935.1125
2894.8718	3943.0125
2897.36515	3930.3125
2899.85698	3930.8125
2902.34727	3932.1125
2904.83604	3948.5125
2907.32328	3952.4125
2909.809	3957.6125
2912.29319	3957.9125
2914.77587	3974.3125
2917.25702	3973.4125
2919.73665	3965.0125
2922.21476	3958.4125
2924.69136	3939.8125
2927.16644	3948.7125
2929.64	3938.5125
2932.11205	3931.9125
2934.58258	3931.1125
2937.05161	3931.2125
2939.51912	3921.4125
2941.98513	3905.6125
2944.44962	3909.4125
2946.91261	3887.8125
2949.37409	3908.4125
2951.83407	3902.7125
2954.29254	3910.9125
2956.74951	3884.0125
2959.20498	3897.6125
2961.65895	3883.2125
2964.11142	3875.8125
2966.56239	3863.0125
2969.01186	3859.5125
2971.45984	3852.8125
2973.90632	3858.3125
2976.35131	3834.0125
2978.7948	3828.8125
2981.23681	3825.8125
2983.67732	3822.7125
2986.11635	3816.1125
2988.55388	3797.2125
2990.98993	3770.4125
2993.4245	3783.4125
2995.85758	3772.3125
2998.28917	3760.1125
3000.71928	3764.4125
3003.14791	3751.8125
3005.57506	3743.9125
3008.00073	3718.2125
3010.42493	3726.4125
3012.84764	3718.8125
3015.26888	3718.2125
3017.68865	3688.3125
3020.10694	3675.9125
3022.52376	3672.7125
3024.9391	3661.4125
3027.35298	3646.9125
3029.76539	3642.1125
3032.17632	3653.2125
3034.5858	3636.8125
3036.9938	3644.7125
3039.40034	3628.4125
3041.80542	3611.9125
3044.20903	3615.8125
3046.61118	3621.6125
3049.01187	3597.6125
3051.4111	3593.8125
3053.80888	3590.1125
3056.20519	3578.2125
3058.60005	3582.6125
3060.99345	3576.3125
3063.3854	3558.1125
3065.7759	3545.0125
3068.16494	3535.9125
3070.55254	3529.4125
3072.93868	3503.1125
3075.32338	3501.8125
3077.70662	3486.7125
3080.08842	3488.8125
3082.46878	3460.0125
3084.84769	3462.4125
3087.22515	3460.1125
3089.60118	3465.6125
3091.97576	3455.7125
3094.3489	3451.0125
3096.72061	3460.3125
3099.09087	3454.2125
3101.4597	3452.2125
3103.82709	3445.4125
3106.19305	3424.9125
3108.55757	3431.9125
3110.92066	3422.1125
3113.28232	3432.0125
3115.64255	3406.0125
3118.00134	3413.6125
3120.35871	3399.2125
