Data from AgNPs_UA_50uM_CRN_500uM_SU_RamanShift__22__13-59-30-318.txt Node

Date: Thu Aug 04 13:59:30 BST 2022
User: TCL
Spectrometer: QEP01345
Trigger mode: 4
Integration Time (sec): 1.000000E0
Scans to average: 10
Electric dark correction enabled: true
Nonlinearity correction enabled: false
Boxcar width: 0
XAxis mode: Raman Shifts
Number of Pixels in Spectrum: 1044
>>>>>Begin Spectral Data<<<<<
46.04893	0.275
50.45542	-0.925
54.85868	-1.025
59.25871	-0.025
63.6555	14.975
68.04907	12.575
72.43941	14.475
76.82654	15.175
81.21044	16.175
85.59113	18.675
89.96862	17.975
94.34289	18.175
98.71396	18.975
103.08183	19.275
107.4465	17.575
111.80798	18.275
116.16626	20.875
120.52136	22.875
124.87327	23.575
129.222	25.875
133.56755	28.375
137.90993	29.375
142.24913	31.975
146.58517	36.075
150.91804	40.675
155.24774	53.675
159.57429	65.975
163.89768	85.375
168.21792	114.075
172.53501	159.275
176.84895	221.475
181.15975	318.575
185.46741	445.975
189.77193	622.675
194.07331	834.075
198.37157	1080.575
202.6667	1337.675
206.9587	1605.975
211.24758	1870.275
215.53334	2152.175
219.81599	2454.775
224.09553	2791.475
228.37195	3168.375
232.64527	3576.275
236.91549	3947.275
241.18261	4263.475
245.44663	4516.775
249.70755	4683.475
253.96539	4832.475
258.22014	4937.375
262.4718	5043.675
266.72039	5124.375
270.96589	5115.375
275.20832	5064.875
279.44768	4973.875
283.68397	4908.675
287.91719	4841.175
292.14735	4857.275
296.37445	4984.875
300.59849	5212.675
304.81948	5501.575
309.03742	5792.775
313.25231	5973.575
317.46415	5912.775
321.67296	5636.875
325.87872	5278.975
330.08145	5080.875
334.28114	5068.275
338.47781	5126.575
342.67145	5239.375
346.86207	5453.275
351.04966	5708.175
355.23424	5998.975
359.4158	6172.875
363.59435	6236.375
367.76989	6199.875
371.94243	6131.675
376.11196	6026.575
380.27849	5976.475
384.44203	5927.075
388.60257	5907.975
392.76012	5954.775
396.91468	6027.575
401.06626	6138.775
405.21485	6167.275
409.36047	6032.775
413.50311	5740.775
417.64277	5496.575
421.77947	5345.075
425.9132	5295.575
430.04396	5300.475
434.17176	5321.775
438.2966	5400.175
442.41849	5490.275
446.53742	5598.075
450.6534	5708.475
454.76644	5745.075
458.87653	5753.775
462.98368	5724.175
467.08789	5661.675
471.18916	5586.375
475.2875	5449.375
479.38291	5352.975
483.4754	5274.975
487.56496	5234.675
491.6516	5220.075
495.73531	5226.775
499.81612	5226.275
503.89401	5268.275
507.96899	5330.175
512.04106	5386.575
516.11023	5465.375
520.1765	5515.975
524.23987	5553.675
528.30034	5524.975
532.35792	5504.775
536.41261	5448.975
540.46441	5326.575
544.51333	5312.475
548.55936	5348.275
552.60252	5443.075
556.64279	5536.775
560.6802	5580.475
564.71473	5724.875
568.7464	5874.275
572.7752	5832.275
576.80114	5628.975
580.82422	5446.875
584.84444	5379.275
588.86181	5350.975
592.87633	5372.075
596.888	5472.475
600.89682	5805.675
604.9028	6616.075
608.90594	8412.675
612.90624	10322.975
616.90371	9482.575
620.89834	6873.675
624.89015	5753.475
628.87913	5610.275
632.86528	5760.875
636.84862	5869.875
640.82913	5735.475
644.80683	5479.575
648.78172	5320.075
652.75379	5347.475
656.72306	5531.775
660.68952	5742.675
664.65319	5659.575
668.61405	5459.875
672.57211	5415.075
676.52738	5400.775
680.47986	5345.975
684.42955	5246.975
688.37646	5209.375
692.32058	5256.175
696.26192	5330.975
700.20048	5388.875
704.13626	5450.075
708.06928	5400.475
711.99952	5342.175
715.927	5360.075
719.85171	5387.275
723.77365	5394.675
727.69284	5375.975
731.60928	5322.075
735.52295	5309.075
739.43388	5309.375
743.34206	5326.575
747.24749	5339.275
751.15017	5351.075
755.05012	5434.975
758.94733	5716.375
762.8418	6431.575
766.73354	7509.475
770.62254	8327.275
774.50882	8384.775
778.39237	7882.675
782.27321	7075.575
786.15132	6249.875
790.02671	5720.875
793.89938	5460.075
797.76935	5340.575
801.6366	5273.475
805.50115	5246.575
809.36299	5232.075
813.22213	5217.575
817.07857	5191.975
820.93231	5218.475
824.78336	5231.675
828.63172	5247.575
832.47738	5255.575
836.32036	5235.275
840.16066	5201.975
843.99827	5184.475
847.8332	5181.775
851.66546	5186.075
855.49504	5204.675
859.32195	5200.075
863.1462	5208.575
866.96777	5212.275
870.78668	5195.875
874.60293	5226.075
878.41652	5258.075
882.22745	5300.975
886.03573	5309.875
889.84136	5303.775
893.64433	5289.875
897.44466	5292.275
901.24235	5282.375
905.0374	5253.875
908.8298	5235.375
912.61957	5193.075
916.40671	5212.375
920.19121	5227.775
923.97308	5291.575
927.75233	5368.575
931.52895	5388.775
935.30295	5343.075
939.07433	5205.375
942.84309	5120.675
946.60924	5077.575
950.37278	5075.775
954.13371	5073.975
957.89203	5069.875
961.64774	5047.575
965.40086	5049.075
969.15137	5041.575
972.89929	5034.275
976.64461	5025.775
980.38733	5024.475
984.12747	5046.275
987.86502	5074.275
991.59999	5109.775
995.33237	5132.275
999.06217	5198.775
1002.78939	5295.175
1006.51404	5423.175
1010.23611	5528.875
1013.95561	5569.275
1017.67255	5540.275
1021.38692	5511.875
1025.09872	5412.975
1028.80796	5331.375
1032.51465	5312.875
1036.21877	5322.275
1039.92035	5360.875
1043.61937	5391.975
1047.31584	5424.475
1051.00976	5432.375
1054.70114	5423.575
1058.38998	5422.375
1062.07627	5444.275
1065.76003	5483.275
1069.44126	5574.375
1073.11995	5688.975
1076.79611	5806.375
1080.46974	5940.775
1084.14085	6050.975
1087.80943	6138.075
1091.47549	6172.375
1095.13903	6129.575
1098.80005	6028.475
1102.45857	5933.175
1106.11456	5844.675
1109.76805	5802.575
1113.41903	5846.775
1117.06751	5968.075
1120.71348	6180.875
1124.35696	6463.575
1127.99793	6643.375
1131.63641	6498.975
1135.2724	6212.875
1138.90589	5987.575
1142.5369	5888.975
1146.16542	5831.575
1149.79145	5801.475
1153.415	5701.475
1157.03607	5666.375
1160.65467	5707.075
1164.27079	5837.875
1167.88443	6015.275
1171.49561	6356.975
1175.10432	6896.975
1178.71056	7658.775
1182.31434	8246.775
1185.91565	8414.075
1189.51451	8220.975
1193.11091	7963.675
1196.70485	7700.075
1200.29634	7491.275
1203.88538	7277.875
1207.47197	6960.075
1211.05612	6645.975
1214.63782	6428.275
1218.21708	6249.275
1221.79391	6127.375
1225.36829	6050.375
1228.94024	5998.175
1232.50976	5981.075
1236.07685	6002.675
1239.6415	6022.775
1243.20374	6061.875
1246.76355	6084.375
1250.32093	6171.675
1253.8759	6313.475
1257.42845	6527.575
1260.97859	6724.075
1264.52631	6900.275
1268.07163	7028.275
1271.61453	7105.075
1275.15503	7123.675
1278.69312	7106.175
1282.22882	7145.175
1285.76211	7264.975
1289.29301	7482.675
1292.82151	7648.275
1296.34761	7824.675
1299.87133	8139.575
1303.39266	8700.075
1306.9116	9568.375
1310.42815	10480.175
1313.94233	10722.175
1317.45412	10127.575
1320.96354	9272.075
1324.47058	8514.375
1327.97525	7923.475
1331.47754	7591.375
1334.97747	7501.475
1338.47502	7629.975
1341.97022	7957.875
1345.46305	8508.275
1348.95352	9364.975
1352.44163	10295.875
1355.92738	11333.075
1359.41078	12685.875
1362.89183	13834.675
1366.37053	13193.875
1369.84688	11070.675
1373.32088	9046.475
1376.79254	7916.375
1380.26186	7408.975
1383.72883	7102.775
1387.19347	6809.975
1390.65578	6532.475
1394.11575	6337.575
1397.57339	6187.875
1401.0287	6077.875
1404.48168	6045.375
1407.93234	6034.675
1411.38068	6088.875
1414.82669	6174.175
1418.27039	6203.475
1421.71177	6172.275
1425.15083	6095.875
1428.58758	6054.075
1432.02203	6095.975
1435.45416	6158.975
1438.88399	6206.075
1442.31151	6227.575
1445.73673	6266.275
1449.15965	6297.075
1452.58027	6288.675
1455.9986	6210.675
1459.41463	6201.575
1462.82837	6259.275
1466.23982	6374.475
1469.64898	6534.875
1473.05586	6658.375
1476.46045	6735.175
1479.86276	6793.675
1483.26279	6891.575
1486.66054	7087.975
1490.05602	7317.375
1493.44922	7740.275
1496.84016	8409.375
1500.22882	9466.375
1503.61521	10795.275
1506.99934	12148.375
1510.38121	12995.975
1513.76081	12793.775
1517.13816	11589.875
1520.51324	10008.175
1523.88607	8747.575
1527.25665	7988.375
1530.62498	7588.075
1533.99105	7413.275
1537.35488	7310.875
1540.71647	7226.375
1544.07581	7154.175
1547.4329	7065.575
1550.78776	6998.075
1554.14038	6921.875
1557.49077	6910.075
1560.83892	7009.575
1564.18484	7236.275
1567.52853	7525.375
1570.86999	7783.375
1574.20922	7840.075
1577.54624	7742.675
1580.88103	7282.775
1584.2136	6777.675
1587.54395	6474.675
1590.87208	6397.175
1594.19801	6632.175
1597.52172	6908.875
1600.84321	7019.075
1604.16251	6937.075
1607.47959	6782.475
1610.79447	6562.075
1614.10715	6258.675
1617.41763	5936.575
1620.7259	5726.375
1624.03199	5604.575
1627.33587	5574.875
1630.63757	5635.575
1633.93707	5812.075
1637.23439	6162.675
1640.52951	6742.475
1643.82246	7586.175
1647.11321	8559.175
1650.40179	9174.775
1653.68819	8872.775
1656.97241	7815.675
1660.25446	6689.575
1663.53433	5890.975
1666.81203	5411.275
1670.08756	5133.975
1673.36092	4976.475
1676.63211	4852.975
1679.90115	4790.175
1683.16801	4726.275
1686.43272	4674.275
1689.69527	4669.575
1692.95567	4608.575
1696.2139	4601.675
1699.46999	4575.475
1702.72392	4580.975
1705.97571	4590.675
1709.22535	4578.175
1712.47284	4580.475
1715.71819	4585.375
1718.96139	4561.975
1722.20246	4560.075
1725.44139	4522.375
1728.67818	4514.775
1731.91284	4489.375
1735.14537	4450.375
1738.37576	4434.975
1741.60403	4424.075
1744.83017	4404.075
1748.05418	4405.875
1751.27607	4382.875
1754.49584	4373.675
1757.71349	4371.075
1760.92903	4359.975
1764.14244	4347.475
1767.35375	4359.875
1770.56294	4333.975
1773.77002	4315.975
1776.97499	4297.375
1780.17785	4284.075
1783.37861	4269.675
1786.57727	4246.275
1789.77382	4233.175
1792.96828	4239.575
1796.16064	4221.675
1799.3509	4231.875
1802.53907	4228.675
1805.72514	4217.175
1808.90913	4197.075
1812.09102	4173.875
1815.27083	4178.875
1818.44856	4171.375
1821.6242	4162.175
1824.79776	4153.675
1827.96924	4128.875
1831.13864	4124.975
1834.30597	4110.875
1837.47122	4105.475
1840.6344	4092.275
1843.7955	4110.275
1846.95454	4094.575
1850.11151	4115.875
1853.26642	4084.975
1856.41926	4094.775
1859.57004	4088.175
1862.71876	4087.475
1865.86542	4077.675
1869.01003	4071.975
1872.15258	4077.375
1875.29308	4061.875
1878.43152	4054.575
1881.56792	4057.575
1884.70227	4056.875
1887.83457	4049.975
1890.96482	4040.175
1894.09304	4029.975
1897.21921	4018.775
1900.34335	4001.975
1903.46544	3994.975
1906.58551	4006.175
1909.70353	3979.775
1912.81953	3992.475
1915.93349	3988.475
1919.04543	3973.475
1922.15534	3957.675
1925.26322	3949.275
1928.36908	3958.975
1931.47292	3950.275
1934.57473	3939.275
1937.67453	3921.075
1940.77232	3903.275
1943.86808	3889.175
1946.96184	3884.075
1950.05358	3867.375
1953.14331	3859.775
1956.23103	3843.875
1959.31675	3826.175
1962.40046	3835.675
1965.48217	3823.375
1968.56188	3808.275
1971.63959	3799.775
1974.7153	3796.075
1977.78901	3775.475
1980.86073	3770.275
1983.93046	3767.575
1986.99819	3736.675
1990.06394	3725.775
1993.1277	3715.375
1996.18947	3703.275
1999.24925	3698.475
2002.30706	3666.575
2005.36288	3665.175
2008.41672	3650.875
2011.46859	3636.475
2014.51848	3628.575
2017.56639	3605.575
2020.61233	3610.675
2023.6563	3607.275
2026.6983	3580.675
2029.73833	3551.875
2032.7764	3548.475
2035.8125	3551.175
2038.84664	3546.375
2041.87881	3537.575
2044.90903	3539.375
2047.93729	3520.875
2050.96359	3520.575
2053.98794	3498.775
2057.01034	3494.375
2060.03078	3500.475
2063.04927	3498.375
2066.06582	3496.275
2069.08042	3488.175
2072.09307	3467.075
2075.10378	3453.575
2078.11255	3466.075
2081.11938	3481.575
2084.12426	3474.175
2087.12722	3486.475
2090.12824	3493.475
2093.12732	3476.475
2096.12447	3462.975
2099.11969	3474.375
2102.11299	3486.675
2105.10435	3482.475
2108.09379	3483.075
2111.08131	3481.075
2114.0669	3467.575
2117.05057	3463.975
2120.03233	3483.475
2123.01216	3478.375
2125.99008	3484.275
2128.96609	3487.375
2131.94018	3488.475
2134.91236	3486.375
2137.88263	3486.675
2140.851	3496.475
2143.81746	3485.675
2146.78201	3489.875
2149.74466	3491.575
2152.7054	3474.975
2155.66425	3474.975
2158.6212	3491.175
2161.57625	3467.275
2164.52941	3461.875
2167.48067	3460.375
2170.43004	3467.475
2173.37752	3471.275
2176.32311	3476.375
2179.26681	3469.875
2182.20863	3473.075
2185.14856	3458.175
2188.08661	3461.575
2191.02278	3455.175
2193.95707	3439.375
2196.88948	3445.075
2199.82001	3436.375
2202.74867	3440.375
2205.67545	3424.975
2208.60037	3430.975
2211.52341	3441.275
2214.44458	3411.375
2217.36388	3405.475
2220.28132	3417.775
2223.1969	3397.175
2226.11061	3373.275
2229.02246	3380.075
2231.93245	3366.475
2234.84058	3379.675
2237.74686	3371.775
2240.65128	3359.675
2243.55385	3357.775
2246.45456	3354.275
2249.35343	3343.575
2252.25044	3341.375
2255.14561	3337.675
2258.03893	3336.775
2260.93041	3340.375
2263.82004	3329.275
2266.70783	3334.175
2269.59378	3304.775
2272.4779	3301.875
2275.36017	3298.375
2278.24061	3282.575
2281.11922	3277.775
2283.996	3271.375
2286.87094	3276.575
2289.74405	3257.775
2292.61534	3262.475
2295.4848	3252.075
2298.35243	3253.075
2301.21824	3236.775
2304.08223	3251.775
2306.94439	3245.575
2309.80474	3231.075
2312.66327	3236.175
2315.51999	3235.175
2318.37489	3227.875
2321.22797	3222.875
2324.07925	3209.675
2326.92871	3192.475
2329.77637	3195.775
2332.62222	3190.875
2335.46626	3180.175
2338.3085	3176.175
2341.14893	3192.375
2343.98756	3181.275
2346.8244	3175.375
2349.65943	3162.875
2352.49267	3174.875
2355.32411	3182.775
2358.15376	3174.575
2360.98161	3177.175
2363.80768	3182.475
2366.63195	3169.275
2369.45444	3171.975
2372.27514	3172.375
2375.09405	3170.475
2377.91118	3165.075
2380.72652	3141.675
2383.54009	3145.575
2386.35187	3149.275
2389.16188	3126.075
2391.97011	3136.675
2394.77657	3104.175
2397.58125	3104.975
2400.38416	3097.275
2403.18529	3080.775
2405.98466	3081.875
2408.78226	3086.175
2411.57809	3062.675
2414.37216	3053.475
2417.16446	3064.775
2419.955	3066.675
2422.74378	3056.475
2425.5308	3058.775
2428.31606	3052.875
2431.09956	3057.475
2433.88131	3049.875
2436.6613	3067.075
2439.43954	3039.175
2442.21603	3048.775
2444.99077	3054.975
2447.76377	3044.775
2450.53501	3038.375
2453.30451	3033.875
2456.07226	3037.475
2458.83827	3038.275
2461.60254	3029.075
2464.36507	3024.375
2467.12586	3028.975
2469.88492	3020.675
2472.64224	3032.075
2475.39782	3022.475
2478.15167	3022.075
2480.90379	3015.275
2483.65417	3030.575
2486.40283	3016.575
2489.14976	3030.675
2491.89497	3033.375
2494.63845	3017.475
2497.3802	3019.975
2500.12024	3006.175
2502.85855	3012.775
2505.59514	2999.375
2508.33002	2989.975
2511.06318	2974.375
2513.79462	2973.975
2516.52435	2960.575
2519.25237	2949.875
2521.97867	2943.675
2524.70327	2939.775
2527.42616	2938.075
2530.14734	2939.075
2532.86681	2928.875
2535.58458	2940.175
2538.30065	2922.475
2541.01501	2930.775
2543.72768	2927.975
2546.43864	2934.275
2549.14791	2927.275
2551.85548	2922.375
2554.56136	2920.075
2557.26554	2928.575
2559.96803	2912.875
2562.66883	2910.175
2565.36794	2891.475
2568.06536	2875.275
2570.7611	2877.775
2573.45514	2875.575
2576.14751	2861.375
2578.83819	2841.475
2581.52719	2839.975
2584.21451	2850.075
2586.90015	2840.475
2589.58411	2834.075
2592.2664	2831.675
2594.94701	2827.675
2597.62594	2828.575
2600.30321	2823.175
2602.9788	2814.875
2605.65273	2808.375
2608.32498	2820.875
2610.99557	2806.975
2613.66449	2814.775
2616.33175	2817.575
2618.99734	2796.275
2621.66128	2790.275
2624.32355	2796.375
2626.98416	2785.775
2629.64311	2764.775
2632.30041	2752.875
2634.95605	2752.975
2637.61004	2744.175
2640.26238	2744.675
2642.91306	2740.575
2645.56209	2744.775
2648.20948	2744.075
2650.85521	2742.475
2653.4993	2747.475
2656.14175	2740.775
2658.78255	2748.375
2661.42171	2734.275
2664.05923	2739.475
2666.6951	2735.975
2669.32934	2752.175
2671.96194	2743.175
2674.59291	2727.275
2677.22224	2737.375
2679.84993	2741.775
2682.476	2734.275
2685.10043	2733.475
2687.72324	2728.975
2690.34441	2719.175
2692.96396	2720.175
2695.58188	2729.275
2698.19818	2728.775
2700.81285	2733.375
2703.4259	2725.075
2706.03733	2727.475
2708.64714	2718.275
2711.25533	2706.975
2713.86191	2710.875
2716.46687	2722.775
2719.07021	2711.575
2721.67194	2713.475
2724.27206	2726.375
2726.87057	2707.575
2729.46747	2704.875
2732.06276	2713.975
2734.65644	2702.275
2737.24852	2707.675
2739.83899	2704.075
2742.42786	2699.275
2745.01513	2701.275
2747.60079	2698.175
2750.18486	2697.575
2752.76733	2679.675
2755.3482	2674.575
2757.92747	2676.975
2760.50515	2654.675
2763.08123	2656.775
2765.65573	2662.975
2768.22863	2647.475
2770.79994	2636.175
2773.36967	2654.275
2775.9378	2637.175
2778.50435	2633.875
2781.06932	2630.175
2783.6327	2623.075
2786.1945	2614.575
2788.75471	2628.075
2791.31335	2619.675
2793.87041	2609.975
2796.42589	2613.575
2798.97979	2609.975
2801.53212	2606.975
2804.08288	2611.175
2806.63206	2597.175
2809.17967	2586.675
2811.72571	2576.875
2814.27018	2582.175
2816.81308	2574.475
2819.35442	2575.775
2821.89419	2573.075
2824.43239	2551.475
2826.96904	2559.575
2829.50412	2544.175
2832.03763	2534.775
2834.56959	2546.375
2837.1	2530.875
2839.62884	2522.175
2842.15613	2527.475
2844.68186	2512.375
2847.20604	2521.175
2849.72867	2517.175
2852.24974	2517.975
2854.76927	2506.675
2857.28724	2500.275
2859.80367	2502.875
2862.31855	2500.675
2864.83189	2496.975
2867.34368	2507.675
2869.85393	2504.675
2872.36264	2492.875
2874.8698	2507.675
2877.37543	2503.575
2879.87952	2496.775
2882.38207	2489.275
2884.88308	2488.975
2887.38256	2472.175
2889.88051	2480.475
2892.37692	2463.175
2894.8718	2470.775
2897.36515	2455.375
2899.85698	2454.375
2902.34727	2463.375
2904.83604	2473.575
2907.32328	2477.775
2909.809	2475.975
2912.29319	2486.875
2914.77587	2480.675
2917.25702	2476.075
2919.73665	2479.875
2922.21476	2478.975
2924.69136	2471.175
2927.16644	2459.275
2929.64	2466.875
2932.11205	2463.775
2934.58258	2460.075
2937.05161	2450.575
2939.51912	2460.475
2941.98513	2438.275
2944.44962	2434.175
2946.91261	2434.775
2949.37409	2441.075
2951.83407	2438.275
2954.29254	2432.975
2956.74951	2421.775
2959.20498	2417.275
2961.65895	2404.775
2964.11142	2420.375
2966.56239	2400.175
2969.01186	2408.775
2971.45984	2412.075
2973.90632	2403.975
2976.35131	2412.675
2978.7948	2404.675
2981.23681	2404.075
2983.67732	2389.575
2986.11635	2389.575
2988.55388	2385.275
2990.98993	2380.775
2993.4245	2369.075
2995.85758	2376.475
2998.28917	2361.875
3000.71928	2355.475
3003.14791	2350.575
3005.57506	2350.075
3008.00073	2344.775
3010.42493	2341.175
3012.84764	2336.975
3015.26888	2332.075
3017.68865	2320.775
3020.10694	2313.875
3022.52376	2307.675
3024.9391	2300.775
3027.35298	2299.875
3029.76539	2287.375
3032.17632	2289.075
3034.5858	2276.675
3036.9938	2277.575
3039.40034	2276.975
3041.80542	2260.775
3044.20903	2267.575
3046.61118	2259.175
3049.01187	2231.275
3051.4111	2244.175
3053.80888	2245.575
3056.20519	2239.175
3058.60005	2241.175
3060.99345	2239.575
3063.3854	2229.175
3065.7759	2219.675
3068.16494	2213.675
3070.55254	2210.975
3072.93868	2204.675
3075.32338	2194.675
3077.70662	2189.975
3080.08842	2191.075
3082.46878	2177.275
3084.84769	2166.975
3087.22515	2169.775
3089.60118	2165.275
3091.97576	2168.475
3094.3489	2167.175
3096.72061	2168.675
3099.09087	2167.275
3101.4597	2165.275
3103.82709	2162.075
3106.19305	2147.975
3108.55757	2154.875
3110.92066	2150.575
3113.28232	2146.575
3115.64255	2135.575
3118.00134	2135.475
3120.35871	2127.675
3122.71466	2123.675
3125.06917	2109.975
3127.42226	2111.175
3129.77393	2118.175
3132.12417	2119.675
3134.47299	2116.175
3136.82039	2109.575
3139.16636	2113.975
3141.51092	2101.975
3143.85406	2103.875
3146.19579	2094.375
3148.53609	2090.475
3150.87499	2101.875
3153.21246	2099.575
3155.54853	2108.575
3157.88318	2093.475
3160.21642	2102.675
3162.54826	2092.075
3164.87868	2098.675
3167.2077	2086.775
3169.5353	2080.775
3171.86151	2079.675
3174.18631	2079.975
3176.5097	2087.775
3178.83169	2080.175
3181.15228	2075.175
3183.47147	2066.175
3185.78926	2059.375
3188.10565	2048.375
3190.42065	2050.475
3192.73424	2051.975
3195.04645	2048.175
3197.35725	2044.575
3199.66667	2031.575
3201.97469	2046.975
3204.28132	2041.375
3206.58656	2053.375
3208.8904	2043.375
3211.19287	2040.775
3213.49394	2047.275
3215.79363	2045.175
3218.09193	2041.675
3220.38884	2043.575
3222.68438	2046.075
3224.97853	2033.375
3227.2713	2021.075
3229.56269	2018.875
3231.8527	2016.975
3234.14133	2019.275
3236.42858	2007.075
3238.71446	2008.675
