Data from AgNPs_UA_50uM_CRN_500uM_SU_RamanShift__44__14-03-10-322.txt Node

Date: Thu Aug 04 14:03:10 BST 2022
User: TCL
Spectrometer: QEP01345
Trigger mode: 4
Integration Time (sec): 1.000000E0
Scans to average: 10
Electric dark correction enabled: true
Nonlinearity correction enabled: false
Boxcar width: 0
XAxis mode: Raman Shifts
Number of Pixels in Spectrum: 1044
>>>>>Begin Spectral Data<<<<<
46.04893	1.15
50.45542	0.95
54.85868	-1.15
59.25871	0.35
63.6555	14.75
68.04907	13.85
72.43941	16.15
76.82654	17.95
81.21044	17.05
85.59113	21.05
89.96862	19.65
94.34289	19.95
98.71396	21.85
103.08183	21.95
107.4465	20.95
111.80798	21.05
116.16626	21.25
120.52136	24.85
124.87327	27.25
129.222	27.35
133.56755	30.55
137.90993	33.45
142.24913	34.55
146.58517	42.05
150.91804	47.95
155.24774	60.15
159.57429	76.25
163.89768	97.85
168.21792	127.65
172.53501	180.85
176.84895	256.15
181.15975	364.45
185.46741	513.55
189.77193	720.65
194.07331	954.25
198.37157	1243.35
202.6667	1542.65
206.9587	1845.65
211.24758	2149.55
215.53334	2463.85
219.81599	2786.05
224.09553	3176.55
228.37195	3594.35
232.64527	4024.55
236.91549	4475.35
241.18261	4824.05
245.44663	5124.15
249.70755	5358.95
253.96539	5541.05
258.22014	5704.25
262.4718	5854.15
266.72039	5953.65
270.96589	6006.35
275.20832	5945.45
279.44768	5846.95
283.68397	5739.45
287.91719	5665.85
292.14735	5667.95
296.37445	5788.75
300.59849	6015.35
304.81948	6274.55
309.03742	6534.95
313.25231	6691.95
317.46415	6617.85
321.67296	6315.65
325.87872	5980.65
330.08145	5801.65
334.28114	5791.45
338.47781	5881.65
342.67145	6008.15
346.86207	6216.35
351.04966	6499.25
355.23424	6804.05
359.4158	6989.65
363.59435	7075.05
367.76989	7054.95
371.94243	7002.95
376.11196	6932.65
380.27849	6902.35
384.44203	6876.65
388.60257	6884.05
392.76012	6943.05
396.91468	7025.75
401.06626	7134.25
405.21485	7196.95
409.36047	7039.25
413.50311	6791.25
417.64277	6530.25
421.77947	6372.25
425.9132	6308.25
430.04396	6282.45
434.17176	6310.25
438.2966	6376.15
442.41849	6490.05
446.53742	6595.15
450.6534	6739.35
454.76644	6813.35
458.87653	6849.75
462.98368	6860.05
467.08789	6815.35
471.18916	6692.05
475.2875	6552.75
479.38291	6443.75
483.4754	6364.95
487.56496	6339.05
491.6516	6296.35
495.73531	6295.25
499.81612	6309.45
503.89401	6357.55
507.96899	6419.15
512.04106	6454.75
516.11023	6522.45
520.1765	6569.85
524.23987	6578.65
528.30034	6582.35
532.35792	6539.95
536.41261	6491.95
540.46441	6402.55
544.51333	6355.85
548.55936	6405.55
552.60252	6508.65
556.64279	6626.55
560.6802	6706.95
564.71473	6817.75
568.7464	6947.55
572.7752	6911.05
576.80114	6671.45
580.82422	6460.95
584.84444	6384.95
588.86181	6357.05
592.87633	6391.05
596.888	6504.15
600.89682	6869.85
604.9028	7749.95
608.90594	9649.75
612.90624	11646.55
616.90371	10685.55
620.89834	8010.15
624.89015	6875.85
628.87913	6723.75
632.86528	6917.15
636.84862	7014.15
640.82913	6853.95
644.80683	6572.25
648.78172	6406.25
652.75379	6434.05
656.72306	6649.25
660.68952	6893.85
664.65319	6806.35
668.61405	6660.25
672.57211	6680.75
676.52738	6678.45
680.47986	6551.25
684.42955	6399.25
688.37646	6355.45
692.32058	6406.45
696.26192	6530.65
700.20048	6657.95
704.13626	6687.05
708.06928	6584.25
711.99952	6541.95
715.927	6511.85
719.85171	6557.85
723.77365	6567.05
727.69284	6530.75
731.60928	6457.35
735.52295	6440.85
739.43388	6439.95
743.34206	6479.95
747.24749	6484.05
751.15017	6492.25
755.05012	6557.65
758.94733	6865.25
762.8418	7565.75
766.73354	8612.85
770.62254	9398.85
774.50882	9526.65
778.39237	9142.35
782.27321	8420.85
786.15132	7589.35
790.02671	6979.05
793.89938	6687.05
797.76935	6550.95
801.6366	6472.25
805.50115	6423.85
809.36299	6401.25
813.22213	6385.85
817.07857	6388.95
820.93231	6381.45
824.78336	6408.05
828.63172	6439.35
832.47738	6422.55
836.32036	6416.85
840.16066	6393.95
843.99827	6356.05
847.8332	6364.15
851.66546	6357.65
855.49504	6368.85
859.32195	6386.65
863.1462	6374.15
866.96777	6375.25
870.78668	6391.65
874.60293	6395.95
878.41652	6422.05
882.22745	6474.35
886.03573	6501.85
889.84136	6505.35
893.64433	6468.75
897.44466	6454.75
901.24235	6443.05
905.0374	6432.95
908.8298	6398.45
912.61957	6357.25
916.40671	6365.75
920.19121	6386.95
923.97308	6437.65
927.75233	6522.55
931.52895	6564.35
935.30295	6529.95
939.07433	6399.75
942.84309	6307.35
946.60924	6260.55
950.37278	6253.15
954.13371	6235.65
957.89203	6243.75
961.64774	6231.95
965.40086	6209.25
969.15137	6209.55
972.89929	6204.85
976.64461	6206.05
980.38733	6194.35
984.12747	6201.25
987.86502	6235.05
991.59999	6282.15
995.33237	6319.85
999.06217	6383.45
1002.78939	6475.15
1006.51404	6594.85
1010.23611	6713.55
1013.95561	6772.95
1017.67255	6778.35
1021.38692	6757.85
1025.09872	6642.55
1028.80796	6555.75
1032.51465	6521.85
1036.21877	6534.95
1039.92035	6570.45
1043.61937	6602.55
1047.31584	6639.75
1051.00976	6635.65
1054.70114	6662.55
1058.38998	6679.15
1062.07627	6691.95
1065.76003	6718.15
1069.44126	6822.75
1073.11995	6970.65
1076.79611	7121.15
1080.46974	7247.45
1084.14085	7366.25
1087.80943	7469.45
1091.47549	7518.35
1095.13903	7511.75
1098.80005	7459.45
1102.45857	7449.45
1106.11456	7393.45
1109.76805	7304.25
1113.41903	7307.05
1117.06751	7400.95
1120.71348	7566.95
1124.35696	7804.75
1127.99793	7967.75
1131.63641	7789.35
1135.2724	7503.15
1138.90589	7241.95
1142.5369	7140.25
1146.16542	7075.45
1149.79145	7035.05
1153.415	6929.15
1157.03607	6902.15
1160.65467	6910.55
1164.27079	7051.35
1167.88443	7279.45
1171.49561	7629.45
1175.10432	8181.85
1178.71056	8942.95
1182.31434	9569.35
1185.91565	9707.55
1189.51451	9551.15
1193.11091	9315.65
1196.70485	9045.05
1200.29634	8810.55
1203.88538	8580.75
1207.47197	8239.25
1211.05612	7943.25
1214.63782	7712.05
1218.21708	7507.55
1221.79391	7338.15
1225.36829	7245.75
1228.94024	7212.85
1232.50976	7219.55
1236.07685	7227.35
1239.6415	7257.45
1243.20374	7278.25
1246.76355	7340.15
1250.32093	7413.25
1253.8759	7564.15
1257.42845	7772.05
1260.97859	8043.05
1264.52631	8241.65
1268.07163	8401.65
1271.61453	8466.05
1275.15503	8486.75
1278.69312	8454.65
1282.22882	8407.15
1285.76211	8540.95
1289.29301	8694.35
1292.82151	8893.25
1296.34761	9052.35
1299.87133	9393.35
1303.39266	9940.15
1306.9116	10827.45
1310.42815	11765.05
1313.94233	12032.85
1317.45412	11510.35
1320.96354	10643.65
1324.47058	9918.95
1327.97525	9330.55
1331.47754	8966.05
1334.97747	8826.35
1338.47502	8912.95
1341.97022	9305.45
1345.46305	9950.15
1348.95352	10822.05
1352.44163	11810.75
1355.92738	12825.95
1359.41078	14064.35
1362.89183	15075.55
1366.37053	14381.65
1369.84688	12179.65
1373.32088	10215.75
1376.79254	9111.95
1380.26186	8606.05
1383.72883	8261.95
1387.19347	7963.55
1390.65578	7688.05
1394.11575	7448.65
1397.57339	7288.55
1401.0287	7191.55
1404.48168	7124.55
1407.93234	7192.45
1411.38068	7305.85
1414.82669	7431.05
1418.27039	7478.15
1421.71177	7441.55
1425.15083	7392.35
1428.58758	7304.25
1432.02203	7331.65
1435.45416	7368.95
1438.88399	7376.35
1442.31151	7378.75
1445.73673	7401.45
1449.15965	7431.05
1452.58027	7413.55
1455.9986	7320.45
1459.41463	7285.55
1462.82837	7347.65
1466.23982	7512.75
1469.64898	7660.75
1473.05586	7776.05
1476.46045	7844.75
1479.86276	7913.45
1483.26279	8041.55
1486.66054	8250.95
1490.05602	8538.45
1493.44922	8988.45
1496.84016	9700.15
1500.22882	10730.25
1503.61521	12054.85
1506.99934	13345.85
1510.38121	14112.55
1513.76081	13931.85
1517.13816	12744.45
1520.51324	11174.05
1523.88607	9866.75
1527.25665	9067.45
1530.62498	8627.35
1533.99105	8414.25
1537.35488	8267.75
1540.71647	8188.05
1544.07581	8108.75
1547.4329	8038.45
1550.78776	7965.35
1554.14038	7930.35
1557.49077	7962.45
1560.83892	8078.35
1564.18484	8328.95
1567.52853	8607.15
1570.86999	8865.75
1574.20922	8933.15
1577.54624	8748.75
1580.88103	8310.35
1584.2136	7826.15
1587.54395	7518.55
1590.87208	7491.65
1594.19801	7681.15
1597.52172	7982.25
1600.84321	8055.75
1604.16251	8019.75
1607.47959	7840.55
1610.79447	7607.85
1614.10715	7288.55
1617.41763	6962.15
1620.7259	6727.95
1624.03199	6602.05
1627.33587	6592.85
1630.63757	6640.95
1633.93707	6864.15
1637.23439	7256.15
1640.52951	7880.65
1643.82246	8853.85
1647.11321	9889.95
1650.40179	10488.05
1653.68819	10089.05
1656.97241	8933.85
1660.25446	7752.25
1663.53433	6927.85
1666.81203	6424.65
1670.08756	6147.95
1673.36092	5962.55
1676.63211	5849.45
1679.90115	5786.45
1683.16801	5734.25
1686.43272	5665.55
1689.69527	5643.65
1692.95567	5604.85
1696.2139	5593.35
1699.46999	5553.55
1702.72392	5563.05
1705.97571	5540.55
1709.22535	5544.65
1712.47284	5557.65
1715.71819	5552.35
1718.96139	5547.15
1722.20246	5540.15
1725.44139	5511.55
1728.67818	5469.85
1731.91284	5433.65
1735.14537	5426.95
1738.37576	5394.45
1741.60403	5384.25
1744.83017	5359.55
1748.05418	5344.15
1751.27607	5327.15
1754.49584	5322.85
1757.71349	5295.75
1760.92903	5299.45
1764.14244	5296.35
1767.35375	5280.15
1770.56294	5270.45
1773.77002	5259.55
1776.97499	5238.85
1780.17785	5217.15
1783.37861	5198.95
1786.57727	5187.45
1789.77382	5171.85
1792.96828	5159.15
1796.16064	5154.35
1799.3509	5137.25
1802.53907	5125.05
1805.72514	5123.35
1808.90913	5112.25
1812.09102	5096.85
1815.27083	5082.45
1818.44856	5068.05
1821.6242	5060.15
1824.79776	5046.65
1827.96924	5034.75
1831.13864	5002.95
1834.30597	5012.45
1837.47122	4992.25
1840.6344	4987.75
1843.7955	4997.05
1846.95454	4965.35
1850.11151	4973.65
1853.26642	4973.25
1856.41926	4963.05
1859.57004	4970.25
1862.71876	4969.95
1865.86542	4954.25
1869.01003	4950.35
1872.15258	4950.15
1875.29308	4938.35
1878.43152	4926.55
1881.56792	4922.65
1884.70227	4915.65
1887.83457	4897.65
1890.96482	4899.95
1894.09304	4890.85
1897.21921	4888.25
1900.34335	4868.65
1903.46544	4858.45
1906.58551	4845.95
1909.70353	4830.05
1912.81953	4817.75
1915.93349	4835.25
1919.04543	4818.05
1922.15534	4799.45
1925.26322	4783.45
1928.36908	4783.85
1931.47292	4774.85
1934.57473	4751.95
1937.67453	4736.25
1940.77232	4713.05
1943.86808	4699.75
1946.96184	4701.45
1950.05358	4685.15
1953.14331	4667.65
1956.23103	4643.25
1959.31675	4637.05
1962.40046	4630.45
1965.48217	4608.75
1968.56188	4593.15
1971.63959	4574.25
1974.7153	4579.65
1977.78901	4562.35
1980.86073	4550.45
1983.93046	4529.75
1986.99819	4520.25
1990.06394	4495.65
1993.1277	4494.35
1996.18947	4451.45
1999.24925	4452.95
2002.30706	4410.65
2005.36288	4397.75
2008.41672	4391.75
2011.46859	4379.25
2014.51848	4358.85
2017.56639	4345.15
2020.61233	4346.95
2023.6563	4322.45
2026.6983	4304.05
2029.73833	4292.65
2032.7764	4291.35
2035.8125	4256.25
2038.84664	4263.95
2041.87881	4261.75
2044.90903	4232.75
2047.93729	4210.35
2050.96359	4213.15
2053.98794	4219.55
2057.01034	4210.35
2060.03078	4211.35
2063.04927	4199.45
2066.06582	4205.75
2069.08042	4196.65
2072.09307	4178.65
2075.10378	4163.25
2078.11255	4173.35
2081.11938	4172.75
2084.12426	4167.95
2087.12722	4178.65
2090.12824	4158.45
2093.12732	4163.55
2096.12447	4166.45
2099.11969	4175.55
2102.11299	4164.15
2105.10435	4159.55
2108.09379	4177.35
2111.08131	4165.45
2114.0669	4159.95
2117.05057	4173.55
2120.03233	4163.85
2123.01216	4170.05
2125.99008	4156.05
2128.96609	4182.55
2131.94018	4171.35
2134.91236	4174.05
2137.88263	4161.45
2140.851	4176.45
2143.81746	4165.45
2146.78201	4166.55
2149.74466	4171.45
2152.7054	4145.35
2155.66425	4137.75
2158.6212	4155.85
2161.57625	4145.25
2164.52941	4149.85
2167.48067	4134.25
2170.43004	4144.95
2173.37752	4134.55
2176.32311	4129.15
2179.26681	4135.85
2182.20863	4135.95
2185.14856	4139.35
2188.08661	4119.35
2191.02278	4114.85
2193.95707	4116.25
2196.88948	4110.25
2199.82001	4107.15
2202.74867	4088.95
2205.67545	4102.35
2208.60037	4089.05
2211.52341	4101.85
2214.44458	4076.65
2217.36388	4064.35
2220.28132	4051.15
2223.1969	4022.05
2226.11061	4011.25
2229.02246	4021.05
2231.93245	4014.35
2234.84058	4005.25
2237.74686	3997.75
2240.65128	3983.45
2243.55385	3981.75
2246.45456	3964.65
2249.35343	3981.75
2252.25044	3972.45
2255.14561	3962.05
2258.03893	3965.25
2260.93041	3960.25
2263.82004	3940.05
2266.70783	3953.05
2269.59378	3927.65
2272.4779	3913.35
2275.36017	3901.15
2278.24061	3881.95
2281.11922	3866.75
2283.996	3885.55
2286.87094	3861.25
2289.74405	3870.55
2292.61534	3856.85
2295.4848	3849.05
2298.35243	3865.15
2301.21824	3836.85
2304.08223	3821.55
2306.94439	3831.35
2309.80474	3839.45
2312.66327	3833.65
2315.51999	3840.15
2318.37489	3820.65
2321.22797	3810.85
2324.07925	3787.85
2326.92871	3783.85
2329.77637	3775.05
2332.62222	3763.05
2335.46626	3753.05
2338.3085	3741.45
2341.14893	3745.45
2343.98756	3765.15
2346.8244	3748.35
2349.65943	3746.05
2352.49267	3734.45
2355.32411	3734.85
2358.15376	3734.15
2360.98161	3732.65
2363.80768	3737.05
2366.63195	3735.75
2369.45444	3724.25
2372.27514	3731.65
2375.09405	3724.85
2377.91118	3720.25
2380.72652	3720.75
2383.54009	3697.45
2386.35187	3681.65
2389.16188	3667.55
2391.97011	3654.95
2394.77657	3649.65
2397.58125	3634.05
2400.38416	3631.25
2403.18529	3626.15
2405.98466	3626.15
2408.78226	3614.15
2411.57809	3610.65
2414.37216	3596.15
2417.16446	3588.25
2419.955	3582.65
2422.74378	3589.35
2425.5308	3578.95
2428.31606	3590.35
2431.09956	3575.85
2433.88131	3571.55
2436.6613	3576.75
2439.43954	3558.75
2442.21603	3587.35
2444.99077	3574.85
2447.76377	3558.25
2450.53501	3554.95
2453.30451	3555.35
2456.07226	3550.05
2458.83827	3544.65
2461.60254	3530.95
2464.36507	3537.85
2467.12586	3548.05
2469.88492	3528.35
2472.64224	3526.45
2475.39782	3520.05
2478.15167	3516.25
2480.90379	3502.75
2483.65417	3522.15
2486.40283	3523.05
2489.14976	3528.05
2491.89497	3516.95
2494.63845	3513.45
2497.3802	3503.05
2500.12024	3501.95
2502.85855	3489.35
2505.59514	3497.25
2508.33002	3492.05
2511.06318	3467.15
2513.79462	3461.15
2516.52435	3443.05
2519.25237	3442.45
2521.97867	3434.35
2524.70327	3413.05
2527.42616	3417.75
2530.14734	3426.95
2532.86681	3410.35
2535.58458	3414.55
2538.30065	3412.15
2541.01501	3410.05
2543.72768	3392.95
2546.43864	3392.95
2549.14791	3384.95
2551.85548	3393.85
2554.56136	3396.65
2557.26554	3384.85
2559.96803	3374.05
2562.66883	3354.15
2565.36794	3346.15
2568.06536	3350.75
2570.7611	3332.75
2573.45514	3328.45
2576.14751	3312.45
2578.83819	3305.05
2581.52719	3296.85
2584.21451	3286.35
2586.90015	3288.75
2589.58411	3283.05
2592.2664	3282.15
2594.94701	3274.75
2597.62594	3262.05
2600.30321	3258.65
2602.9788	3264.35
2605.65273	3258.55
2608.32498	3240.65
2610.99557	3243.65
2613.66449	3248.05
2616.33175	3233.65
2618.99734	3222.35
2621.66128	3215.65
2624.32355	3199.45
2626.98416	3203.25
2629.64311	3193.75
2632.30041	3187.75
2634.95605	3169.75
2637.61004	3163.05
2640.26238	3164.45
2642.91306	3154.55
2645.56209	3167.25
2648.20948	3150.65
2650.85521	3147.05
2653.4993	3152.55
2656.14175	3157.85
2658.78255	3158.55
2661.42171	3135.65
2664.05923	3148.75
2666.6951	3163.45
2669.32934	3150.45
2671.96194	3142.05
2674.59291	3149.75
2677.22224	3141.15
2679.84993	3135.25
2682.476	3127.95
2685.10043	3136.75
2687.72324	3140.55
2690.34441	3135.35
2692.96396	3108.85
2695.58188	3123.25
2698.19818	3108.55
2700.81285	3141.75
2703.4259	3127.85
2706.03733	3123.65
2708.64714	3113.95
2711.25533	3118.65
2713.86191	3112.55
2716.46687	3106.45
2719.07021	3115.85
2721.67194	3115.85
2724.27206	3116.55
2726.87057	3094.95
2729.46747	3103.05
2732.06276	3113.85
2734.65644	3100.75
2737.24852	3099.95
2739.83899	3085.05
2742.42786	3086.55
2745.01513	3068.05
2747.60079	3088.55
2750.18486	3072.05
2752.76733	3074.15
2755.3482	3061.05
2757.92747	3061.35
2760.50515	3032.75
2763.08123	3043.75
2765.65573	3028.15
2768.22863	3019.95
2770.79994	3014.05
2773.36967	3015.65
2775.9378	3006.45
2778.50435	3008.95
2781.06932	3004.25
2783.6327	3002.45
2786.1945	2984.25
2788.75471	2992.05
2791.31335	2970.75
2793.87041	2976.25
2796.42589	2969.25
2798.97979	2976.65
2801.53212	2971.85
2804.08288	2950.15
2806.63206	2954.55
2809.17967	2935.85
2811.72571	2932.25
2814.27018	2927.75
2816.81308	2933.15
2819.35442	2921.35
2821.89419	2908.05
2824.43239	2908.55
2826.96904	2894.85
2829.50412	2901.65
2832.03763	2891.55
2834.56959	2885.85
2837.1	2872.15
2839.62884	2879.15
2842.15613	2862.25
2844.68186	2862.65
2847.20604	2861.05
2849.72867	2847.05
2852.24974	2853.85
2854.76927	2846.65
2857.28724	2831.05
2859.80367	2830.85
2862.31855	2825.65
2864.83189	2830.45
2867.34368	2832.05
2869.85393	2833.45
2872.36264	2813.85
2874.8698	2819.75
2877.37543	2814.55
2879.87952	2813.15
2882.38207	2798.25
2884.88308	2808.15
2887.38256	2789.15
2889.88051	2784.35
2892.37692	2789.35
2894.8718	2782.65
2897.36515	2777.95
2899.85698	2777.95
2902.34727	2780.85
2904.83604	2772.35
2907.32328	2786.45
2909.809	2794.45
2912.29319	2784.25
2914.77587	2779.45
2917.25702	2801.45
2919.73665	2788.45
2922.21476	2779.55
2924.69136	2781.65
2927.16644	2774.35
2929.64	2760.55
2932.11205	2763.45
2934.58258	2755.65
2937.05161	2764.35
2939.51912	2756.85
2941.98513	2738.85
2944.44962	2739.05
2946.91261	2730.65
2949.37409	2735.85
2951.83407	2727.35
2954.29254	2734.05
2956.74951	2732.75
2959.20498	2720.85
2961.65895	2714.05
2964.11142	2712.05
2966.56239	2709.65
2969.01186	2712.65
2971.45984	2712.65
2973.90632	2705.65
2976.35131	2706.95
2978.7948	2699.85
2981.23681	2691.25
2983.67732	2689.25
2986.11635	2688.65
2988.55388	2676.55
2990.98993	2670.45
2993.4245	2657.55
2995.85758	2654.15
2998.28917	2656.45
3000.71928	2646.35
3003.14791	2641.35
3005.57506	2630.15
3008.00073	2626.15
3010.42493	2622.95
3012.84764	2613.35
3015.26888	2604.35
3017.68865	2610.35
3020.10694	2595.75
3022.52376	2591.95
3024.9391	2576.95
3027.35298	2567.15
3029.76539	2563.75
3032.17632	2560.25
3034.5858	2543.85
3036.9938	2545.35
3039.40034	2543.75
3041.80542	2538.25
3044.20903	2536.25
3046.61118	2527.65
3049.01187	2521.95
3051.4111	2499.95
3053.80888	2507.05
3056.20519	2493.45
3058.60005	2494.95
3060.99345	2496.65
3063.3854	2487.85
3065.7759	2480.95
3068.16494	2461.65
3070.55254	2465.05
3072.93868	2461.05
3075.32338	2452.35
3077.70662	2434.95
3080.08842	2443.35
3082.46878	2430.95
3084.84769	2425.25
3087.22515	2422.15
3089.60118	2419.35
3091.97576	2416.15
3094.3489	2418.15
3096.72061	2425.45
3099.09087	2421.25
3101.4597	2417.35
3103.82709	2398.45
3106.19305	2393.55
3108.55757	2402.95
3110.92066	2395.25
3113.28232	2394.45
3115.64255	2380.45
3118.00134	2376.55
3120.35871	2373.75
3122.71466	2360.75
3125.06917	2364.65
3127.42226	2349.15
3129.77393	2366.65
3132.12417	2352.95
3134.47299	2342.15
3136.82039	2338.65
3139.16636	2336.75
3141.51092	2339.15
3143.85406	2338.25
3146.19579	2329.25
3148.53609	2332.25
3150.87499	2327.55
3153.21246	2336.95
3155.54853	2335.45
3157.88318	2340.95
3160.21642	2338.35
3162.54826	2330.45
3164.87868	2337.85
3167.2077	2324.65
3169.5353	2309.95
3171.86151	2305.35
3174.18631	2310.35
3176.5097	2308.05
3178.83169	2295.65
3181.15228	2304.15
3183.47147	2297.35
3185.78926	2291.25
3188.10565	2272.85
3190.42065	2276.95
3192.73424	2273.45
3195.04645	2263.25
3197.35725	2269.35
3199.66667	2259.65
3201.97469	2266.75
3204.28132	2258.55
3206.58656	2250.85
3208.8904	2263.35
3211.19287	2262.95
3213.49394	2272.15
3215.79363	2259.95
3218.09193	2257.55
3220.38884	2249.65
3222.68438	2256.75
3224.97853	2240.35
3227.2713	2244.05
3229.56269	2242.75
3231.8527	2234.55
3234.14133	2220.45
3236.42858	2226.95
3238.71446	2226.35
3240.99896	2216.45
3243.28209	2208.25
3245.56384	2203.55
3247.84423	2205.95
3250.12324	2200.25
3252.40088	2191.25
3254.67715	2195.05
3256.95205	2182.95
3259.22558	2188.55
3261.49775	2183.45
3263.76855	2184.55
3266.03799	2186.15
3268.30606	2185.75
3270.57277	2165.55
3272.83812	2170.35
3275.10211	2157.75
3277.36474	2156.05
3279.62601	2162.65
3281.88593	2160.85
3284.14448	2150.15
3286.40168	2148.15
3288.65753	2153.25
3290.91202	2139.15
3293.16516	2137.75
3295.41695	2138.05
3297.66738	2129.05
3299.91647	2114.95
3302.16421	2088.95
3304.4106	2091.65
3306.65564	2080.35
3308.89933	2055.35
3311.14169	2035.55
3313.38269	2028.65
3315.62236	2013.05
3317.86068	1995.15
3320.09766	1979.55
3322.3333	1965.45
3324.5676	1951.95
3326.80056	1924.35
3329.03219	1910.45
3331.26248	-0.75
3333.49143	0.35
3335.71905	-0.45
