Data from AgNPs_UA_10uM_CRN_500uM_SU_RamanShift__132__13-27-20-280.txt Node

Date: Thu Aug 04 13:27:20 BST 2022
User: TCL
Spectrometer: QEP01345
Trigger mode: 4
Integration Time (sec): 1.000000E0
Scans to average: 10
Electric dark correction enabled: true
Nonlinearity correction enabled: false
Boxcar width: 0
XAxis mode: Raman Shifts
Number of Pixels in Spectrum: 1044
>>>>>Begin Spectral Data<<<<<
46.04893	0.375
50.45542	-0.625
54.85868	-0.025
59.25871	-0.325
63.6555	21.575
68.04907	20.675
72.43941	22.175
76.82654	22.475
81.21044	22.875
85.59113	24.475
89.96862	24.175
94.34289	24.775
98.71396	25.975
103.08183	28.975
107.4465	29.075
111.80798	30.975
116.16626	29.475
120.52136	32.275
124.87327	35.375
129.222	34.175
133.56755	37.575
137.90993	40.775
142.24913	45.875
146.58517	53.675
150.91804	63.775
155.24774	76.975
159.57429	95.875
163.89768	128.275
168.21792	171.575
172.53501	234.175
176.84895	326.575
181.15975	468.375
185.46741	658.175
189.77193	913.375
194.07331	1224.175
198.37157	1591.475
202.6667	1960.475
206.9587	2328.675
211.24758	2696.775
215.53334	3084.775
219.81599	3490.375
224.09553	3939.075
228.37195	4430.475
232.64527	4946.075
236.91549	5487.975
241.18261	5958.875
245.44663	6355.875
249.70755	6666.475
253.96539	6970.975
258.22014	7183.475
262.4718	7445.475
266.72039	7602.675
270.96589	7624.775
275.20832	7603.475
279.44768	7497.275
283.68397	7371.575
287.91719	7286.975
292.14735	7302.775
296.37445	7394.975
300.59849	7611.175
304.81948	7890.375
309.03742	8151.875
313.25231	8239.175
317.46415	8110.775
321.67296	7836.475
325.87872	7566.575
330.08145	7391.775
334.28114	7416.575
338.47781	7512.575
342.67145	7631.975
346.86207	7846.075
351.04966	8150.075
355.23424	8467.975
359.4158	8702.575
363.59435	8794.875
367.76989	8840.675
371.94243	8884.075
376.11196	8848.375
380.27849	8845.175
384.44203	8851.075
388.60257	8894.075
392.76012	8972.675
396.91468	9076.375
401.06626	9234.775
405.21485	9287.875
409.36047	9177.775
413.50311	8876.475
417.64277	8623.275
421.77947	8487.075
425.9132	8394.175
430.04396	8430.275
434.17176	8474.075
438.2966	8625.175
442.41849	8833.075
446.53742	9061.575
450.6534	9279.975
454.76644	9434.675
458.87653	9439.475
462.98368	9395.475
467.08789	9279.075
471.18916	9100.075
475.2875	8879.575
479.38291	8675.775
483.4754	8563.975
487.56496	8464.575
491.6516	8436.975
495.73531	8424.775
499.81612	8467.475
503.89401	8512.075
507.96899	8570.875
512.04106	8635.475
516.11023	8688.575
520.1765	8736.975
524.23987	8784.575
528.30034	8781.075
532.35792	8752.475
536.41261	8646.075
540.46441	8553.475
544.51333	8502.475
548.55936	8578.275
552.60252	8699.775
556.64279	8850.675
560.6802	8975.475
564.71473	9064.575
568.7464	9169.975
572.7752	9171.975
576.80114	8992.075
580.82422	8824.775
584.84444	8837.775
588.86181	8931.575
592.87633	9081.975
596.888	9288.475
600.89682	9651.375
604.9028	10671.275
608.90594	12832.775
612.90624	14853.775
616.90371	13612.075
620.89834	10676.075
624.89015	9571.375
628.87913	9498.975
632.86528	9547.675
636.84862	9507.175
640.82913	9214.675
644.80683	8841.675
648.78172	8676.675
652.75379	8702.375
656.72306	9004.375
660.68952	9267.975
664.65319	9212.975
668.61405	9050.575
672.57211	9110.375
676.52738	9081.275
680.47986	8911.775
684.42955	8761.475
688.37646	8774.275
692.32058	8850.875
696.26192	9001.275
700.20048	9134.275
704.13626	9177.575
708.06928	9035.275
711.99952	8934.975
715.927	8966.075
719.85171	9019.675
723.77365	9033.975
727.69284	8948.675
731.60928	8870.175
735.52295	8870.175
739.43388	8926.475
743.34206	8982.675
747.24749	8985.675
751.15017	9012.275
755.05012	9113.675
758.94733	9489.975
762.8418	10242.575
766.73354	11436.975
770.62254	12401.275
774.50882	12591.375
778.39237	12033.575
782.27321	11147.175
786.15132	10210.575
790.02671	9595.175
793.89938	9265.475
797.76935	9159.275
801.6366	9070.475
805.50115	9014.175
809.36299	8957.475
813.22213	8946.975
817.07857	8916.375
820.93231	8899.375
824.78336	8916.475
828.63172	8950.675
832.47738	8971.675
836.32036	8972.575
840.16066	9001.075
843.99827	8996.675
847.8332	9003.975
851.66546	8977.475
855.49504	8992.475
859.32195	8986.575
863.1462	8980.775
866.96777	8956.575
870.78668	8941.075
874.60293	8980.275
878.41652	9019.875
882.22745	9082.675
886.03573	9133.875
889.84136	9114.075
893.64433	9089.375
897.44466	9040.075
901.24235	9022.675
905.0374	9004.675
908.8298	8983.475
912.61957	8964.875
916.40671	9007.675
920.19121	9040.175
923.97308	9166.275
927.75233	9277.075
931.52895	9368.375
935.30295	9277.975
939.07433	9084.675
942.84309	8989.375
946.60924	8962.775
950.37278	8920.575
954.13371	8886.275
957.89203	8826.275
961.64774	8804.775
965.40086	8788.175
969.15137	8797.075
972.89929	8807.875
976.64461	8806.275
980.38733	8800.675
984.12747	8866.175
987.86502	8919.575
991.59999	9018.275
995.33237	9177.175
999.06217	9428.875
1002.78939	9666.975
1006.51404	9822.475
1010.23611	9902.475
1013.95561	9993.175
1017.67255	10054.975
1021.38692	10062.275
1025.09872	10059.075
1028.80796	10171.575
1032.51465	10401.975
1036.21877	10561.075
1039.92035	10535.775
1043.61937	10413.375
1047.31584	10179.375
1051.00976	9980.275
1054.70114	9885.175
1058.38998	9894.375
1062.07627	9900.475
1065.76003	9895.375
1069.44126	9965.775
1073.11995	10087.975
1076.79611	10246.875
1080.46974	10360.375
1084.14085	10480.775
1087.80943	10615.775
1091.47549	10624.175
1095.13903	10506.375
1098.80005	10429.675
1102.45857	10442.775
1106.11456	10407.375
1109.76805	10388.875
1113.41903	10399.175
1117.06751	10565.575
1120.71348	10782.875
1124.35696	10978.175
1127.99793	11129.375
1131.63641	10953.275
1135.2724	10658.075
1138.90589	10414.075
1142.5369	10218.175
1146.16542	10089.975
1149.79145	10020.975
1153.415	9965.575
1157.03607	10023.175
1160.65467	10131.675
1164.27079	10363.775
1167.88443	10766.275
1171.49561	11357.275
1175.10432	12230.975
1178.71056	13393.375
1182.31434	14327.775
1185.91565	14732.475
1189.51451	14638.575
1193.11091	14140.875
1196.70485	13615.075
1200.29634	13074.075
1203.88538	12597.575
1207.47197	12068.775
1211.05612	11599.675
1214.63782	11277.875
1218.21708	11115.475
1221.79391	11148.475
1225.36829	11211.975
1228.94024	11188.575
1232.50976	11064.675
1236.07685	10964.875
1239.6415	10947.275
1243.20374	10976.075
1246.76355	11072.575
1250.32093	11228.975
1253.8759	11428.075
1257.42845	11754.675
1260.97859	12103.075
1264.52631	12423.575
1268.07163	12700.075
1271.61453	12922.775
1275.15503	13105.075
1278.69312	13277.175
1282.22882	13441.475
1285.76211	13634.275
1289.29301	13783.075
1292.82151	14031.275
1296.34761	14360.375
1299.87133	14897.175
1303.39266	15846.675
1306.9116	17264.675
1310.42815	18708.875
1313.94233	19425.875
1317.45412	18939.975
1320.96354	17773.575
1324.47058	16620.575
1327.97525	15629.775
1331.47754	15091.375
1334.97747	14922.975
1338.47502	15075.375
1341.97022	15515.275
1345.46305	16217.875
1348.95352	17134.275
1352.44163	18149.675
1355.92738	19370.275
1359.41078	20936.275
1362.89183	21987.275
1366.37053	20885.175
1369.84688	18142.575
1373.32088	15606.475
1376.79254	14176.075
1380.26186	13504.175
1383.72883	13144.475
1387.19347	12797.275
1390.65578	12413.575
1394.11575	12114.275
1397.57339	11929.775
1401.0287	11894.075
1404.48168	11949.575
1407.93234	12063.075
1411.38068	12251.175
1414.82669	12392.875
1418.27039	12405.475
1421.71177	12295.875
1425.15083	12196.575
1428.58758	12179.075
1432.02203	12329.775
1435.45416	12490.175
1438.88399	12529.975
1442.31151	12445.875
1445.73673	12439.975
1449.15965	12407.075
1452.58027	12298.875
1455.9986	12245.275
1459.41463	12199.575
1462.82837	12279.775
1466.23982	12516.475
1469.64898	12728.275
1473.05586	12895.775
1476.46045	13043.875
1479.86276	13188.375
1483.26279	13317.175
1486.66054	13501.575
1490.05602	13836.775
1493.44922	14331.675
1496.84016	15067.575
1500.22882	16112.775
1503.61521	17436.675
1506.99934	18742.175
1510.38121	19601.975
1513.76081	19383.175
1517.13816	18090.875
1520.51324	16396.375
1523.88607	15008.875
1527.25665	14196.175
1530.62498	13711.775
1533.99105	13497.675
1537.35488	13369.275
1540.71647	13251.275
1544.07581	13131.375
1547.4329	13016.675
1550.78776	12875.675
1554.14038	12762.175
1557.49077	12742.775
1560.83892	12844.775
1564.18484	13105.075
1567.52853	13320.175
1570.86999	13464.575
1574.20922	13462.775
1577.54624	13238.875
1580.88103	12752.375
1584.2136	12285.275
1587.54395	12170.175
1590.87208	12448.175
1594.19801	13182.175
1597.52172	14035.375
1600.84321	14389.975
1604.16251	14161.975
1607.47959	13611.275
1610.79447	12936.875
1614.10715	12141.175
1617.41763	11443.375
1620.7259	10960.075
1624.03199	10745.175
1627.33587	10725.175
1630.63757	11013.675
1633.93707	11541.675
1637.23439	12414.575
1640.52951	13577.075
1643.82246	14903.775
1647.11321	16011.575
1650.40179	16234.275
1653.68819	15207.275
1656.97241	13352.075
1660.25446	11679.275
1663.53433	10569.475
1666.81203	9914.775
1670.08756	9530.775
1673.36092	9290.175
1676.63211	9126.075
1679.90115	8991.575
1683.16801	8889.675
1686.43272	8803.375
1689.69527	8765.975
1692.95567	8706.875
1696.2139	8696.375
1699.46999	8643.575
1702.72392	8674.575
1705.97571	8648.675
1709.22535	8641.375
1712.47284	8635.875
1715.71819	8627.575
1718.96139	8630.875
1722.20246	8612.275
1725.44139	8584.075
1728.67818	8545.475
1731.91284	8479.575
1735.14537	8442.275
1738.37576	8431.175
1741.60403	8386.675
1744.83017	8369.375
1748.05418	8349.475
1751.27607	8339.175
1754.49584	8328.875
1757.71349	8308.475
1760.92903	8307.175
1764.14244	8288.275
1767.35375	8254.175
1770.56294	8270.175
1773.77002	8252.375
1776.97499	8210.175
1780.17785	8195.375
1783.37861	8165.575
1786.57727	8181.075
1789.77382	8179.875
1792.96828	8169.575
1796.16064	8134.075
1799.3509	8128.175
1802.53907	8143.675
1805.72514	8116.575
1808.90913	8097.475
1812.09102	8074.275
1815.27083	8049.975
1818.44856	8027.375
1821.6242	8007.175
1824.79776	7999.475
1827.96924	7980.575
1831.13864	7993.575
1834.30597	7967.275
1837.47122	7947.875
1840.6344	7921.875
1843.7955	7937.975
1846.95454	7941.675
1850.11151	7936.475
1853.26642	7918.375
1856.41926	7939.975
1859.57004	7930.775
1862.71876	7937.975
1865.86542	7922.275
1869.01003	7919.475
1872.15258	7896.175
1875.29308	7896.575
1878.43152	7891.575
1881.56792	7871.075
1884.70227	7855.575
1887.83457	7843.175
1890.96482	7834.675
1894.09304	7813.375
1897.21921	7836.075
1900.34335	7797.175
1903.46544	7808.075
1906.58551	7788.575
1909.70353	7790.675
1912.81953	7796.875
1915.93349	7776.375
1919.04543	7737.075
1922.15534	7761.575
1925.26322	7736.375
1928.36908	7711.775
1931.47292	7720.175
1934.57473	7710.775
1937.67453	7674.375
1940.77232	7675.275
1943.86808	7650.275
1946.96184	7601.675
1950.05358	7620.775
1953.14331	7580.975
1956.23103	7552.875
1959.31675	7523.575
1962.40046	7519.275
1965.48217	7487.075
1968.56188	7460.575
1971.63959	7443.775
1974.7153	7422.675
1977.78901	7419.375
1980.86073	7403.875
1983.93046	7365.575
1986.99819	7326.175
1990.06394	7327.475
1993.1277	7312.875
1996.18947	7264.475
1999.24925	7260.975
2002.30706	7230.975
2005.36288	7192.575
2008.41672	7178.475
2011.46859	7166.975
2014.51848	7146.875
2017.56639	7106.975
2020.61233	7089.475
2023.6563	7097.875
2026.6983	7071.975
2029.73833	7052.975
2032.7764	7017.575
2035.8125	7031.975
2038.84664	7026.275
2041.87881	7016.075
2044.90903	7001.775
2047.93729	6958.575
2050.96359	6972.275
2053.98794	6946.675
2057.01034	6962.975
2060.03078	6923.575
2063.04927	6928.275
2066.06582	6944.475
2069.08042	6920.175
2072.09307	6911.775
2075.10378	6904.775
2078.11255	6902.175
2081.11938	6877.475
2084.12426	6889.475
2087.12722	6885.775
2090.12824	6869.275
2093.12732	6871.175
2096.12447	6875.375
2099.11969	6881.775
2102.11299	6908.075
2105.10435	6875.575
2108.09379	6889.975
2111.08131	6890.875
2114.0669	6898.775
2117.05057	6897.975
2120.03233	6918.375
2123.01216	6908.475
2125.99008	6906.075
2128.96609	6918.675
2131.94018	6924.875
2134.91236	6922.875
2137.88263	6927.375
2140.851	6914.175
2143.81746	6925.075
2146.78201	6918.275
2149.74466	6897.875
2152.7054	6918.075
2155.66425	6921.975
2158.6212	6906.375
2161.57625	6896.075
2164.52941	6910.975
2167.48067	6912.475
2170.43004	6872.075
2173.37752	6884.275
2176.32311	6898.975
2179.26681	6912.575
2182.20863	6884.775
2185.14856	6907.575
2188.08661	6905.775
2191.02278	6902.175
2193.95707	6895.275
2196.88948	6896.475
2199.82001	6892.775
2202.74867	6884.375
2205.67545	6896.275
2208.60037	6890.675
2211.52341	6862.975
2214.44458	6866.375
2217.36388	6839.275
2220.28132	6824.675
2223.1969	6815.175
2226.11061	6806.175
2229.02246	6765.575
2231.93245	6772.275
2234.84058	6770.475
2237.74686	6757.675
2240.65128	6735.875
2243.55385	6725.675
2246.45456	6710.875
2249.35343	6694.775
2252.25044	6714.575
2255.14561	6696.975
2258.03893	6711.675
2260.93041	6692.075
2263.82004	6695.575
2266.70783	6657.975
2269.59378	6634.975
2272.4779	6633.575
2275.36017	6612.375
2278.24061	6577.975
2281.11922	6572.575
2283.996	6562.775
2286.87094	6569.375
2289.74405	6556.575
2292.61534	6536.975
2295.4848	6531.675
2298.35243	6534.875
2301.21824	6532.775
2304.08223	6522.275
2306.94439	6509.075
2309.80474	6526.575
2312.66327	6507.675
2315.51999	6529.075
2318.37489	6516.875
2321.22797	6505.475
2324.07925	6517.975
2326.92871	6506.675
2329.77637	6507.075
2332.62222	6464.675
2335.46626	6474.875
2338.3085	6475.175
2341.14893	6457.375
2343.98756	6488.175
2346.8244	6501.575
2349.65943	6486.675
2352.49267	6474.875
2355.32411	6461.575
2358.15376	6440.275
2360.98161	6451.075
2363.80768	6484.175
2366.63195	6459.375
2369.45444	6431.675
2372.27514	6422.875
2375.09405	6418.775
2377.91118	6386.975
2380.72652	6384.575
2383.54009	6375.975
2386.35187	6347.775
2389.16188	6331.575
2391.97011	6332.175
2394.77657	6293.575
2397.58125	6305.075
2400.38416	6294.975
2403.18529	6285.975
2405.98466	6262.575
2408.78226	6236.975
2411.57809	6233.875
2414.37216	6231.375
2417.16446	6230.275
2419.955	6220.275
2422.74378	6201.375
2425.5308	6206.275
2428.31606	6194.475
2431.09956	6203.475
2433.88131	6170.875
2436.6613	6181.375
2439.43954	6171.875
2442.21603	6192.975
2444.99077	6168.975
2447.76377	6172.875
2450.53501	6179.075
2453.30451	6167.775
2456.07226	6155.575
2458.83827	6132.275
2461.60254	6125.875
2464.36507	6111.175
2467.12586	6119.175
2469.88492	6102.475
2472.64224	6114.975
2475.39782	6149.375
2478.15167	6113.075
2480.90379	6118.075
2483.65417	6107.975
2486.40283	6108.075
2489.14976	6127.275
2491.89497	6124.475
2494.63845	6132.075
2497.3802	6119.675
2500.12024	6118.675
2502.85855	6106.875
2505.59514	6092.975
2508.33002	6105.275
2511.06318	6069.075
2513.79462	6049.575
2516.52435	6050.475
2519.25237	6028.875
2521.97867	6014.075
2524.70327	6039.875
2527.42616	6008.975
2530.14734	6013.375
2532.86681	6001.775
2535.58458	6029.175
2538.30065	6013.875
2541.01501	6025.775
2543.72768	6014.275
2546.43864	6000.875
2549.14791	5981.775
2551.85548	5981.875
2554.56136	5983.175
2557.26554	5978.675
2559.96803	5972.975
2562.66883	5945.775
2565.36794	5929.975
2568.06536	5903.375
2570.7611	5898.775
2573.45514	5894.575
2576.14751	5889.375
2578.83819	5884.175
2581.52719	5877.375
2584.21451	5852.475
2586.90015	5892.375
2589.58411	5864.375
2592.2664	5882.275
2594.94701	5848.975
2597.62594	5858.475
2600.30321	5864.975
2602.9788	5838.675
2605.65273	5834.875
2608.32498	5850.875
2610.99557	5820.975
2613.66449	5823.175
2616.33175	5841.775
2618.99734	5816.875
2621.66128	5812.775
2624.32355	5807.375
2626.98416	5785.075
2629.64311	5802.775
2632.30041	5811.375
2634.95605	5784.075
2637.61004	5779.575
2640.26238	5774.975
2642.91306	5782.775
2645.56209	5769.375
2648.20948	5759.275
2650.85521	5743.875
2653.4993	5754.875
2656.14175	5750.375
2658.78255	5735.175
2661.42171	5735.575
2664.05923	5735.775
2666.6951	5761.275
2669.32934	5770.575
2671.96194	5751.475
2674.59291	5775.775
2677.22224	5753.875
2679.84993	5757.675
2682.476	5739.075
2685.10043	5750.375
2687.72324	5751.575
2690.34441	5726.675
2692.96396	5732.275
2695.58188	5725.575
2698.19818	5718.975
2700.81285	5723.375
2703.4259	5701.075
2706.03733	5693.675
2708.64714	5685.575
2711.25533	5683.275
2713.86191	5705.175
2716.46687	5704.975
2719.07021	5702.475
2721.67194	5728.275
2724.27206	5693.175
2726.87057	5713.875
2729.46747	5707.275
2732.06276	5700.975
2734.65644	5695.675
2737.24852	5695.375
2739.83899	5680.375
2742.42786	5667.575
2745.01513	5654.475
2747.60079	5638.275
2750.18486	5644.575
2752.76733	5644.775
2755.3482	5627.175
2757.92747	5615.975
2760.50515	5617.675
2763.08123	5615.975
2765.65573	5616.775
2768.22863	5598.575
2770.79994	5596.175
2773.36967	5587.975
2775.9378	5593.775
2778.50435	5585.275
2781.06932	5600.275
2783.6327	5576.875
2786.1945	5587.075
2788.75471	5576.375
2791.31335	5553.675
2793.87041	5553.975
2796.42589	5539.175
2798.97979	5517.775
2801.53212	5504.575
2804.08288	5485.075
2806.63206	5488.975
2809.17967	5484.975
2811.72571	5483.375
2814.27018	5476.475
2816.81308	5465.375
2819.35442	5449.375
2821.89419	5443.775
2824.43239	5428.775
2826.96904	5426.975
2829.50412	5423.475
2832.03763	5409.875
2834.56959	5414.375
2837.1	5373.875
2839.62884	5390.075
2842.15613	5367.875
2844.68186	5382.475
2847.20604	5368.175
2849.72867	5360.575
2852.24974	5366.575
2854.76927	5340.975
2857.28724	5334.475
2859.80367	5334.675
2862.31855	5324.875
2864.83189	5338.975
2867.34368	5325.775
2869.85393	5318.575
2872.36264	5299.775
2874.8698	5303.575
2877.37543	5324.875
2879.87952	5305.575
2882.38207	5293.375
2884.88308	5285.475
2887.38256	5285.775
2889.88051	5291.675
2892.37692	5284.775
2894.8718	5273.175
2897.36515	5272.075
2899.85698	5269.275
2902.34727	5275.175
2904.83604	5307.675
2907.32328	5301.275
2909.809	5305.275
2912.29319	5308.875
2914.77587	5298.775
2917.25702	5307.375
2919.73665	5303.875
2922.21476	5306.175
2924.69136	5294.975
2927.16644	5286.975
2929.64	5280.475
2932.11205	5255.575
2934.58258	5223.475
2937.05161	5228.875
2939.51912	5246.675
2941.98513	5249.075
2944.44962	5209.375
2946.91261	5209.775
2949.37409	5230.575
2951.83407	5226.275
2954.29254	5218.375
2956.74951	5192.975
2959.20498	5218.275
2961.65895	5206.975
2964.11142	5200.075
2966.56239	5199.575
2969.01186	5208.475
2971.45984	5199.175
2973.90632	5179.375
2976.35131	5155.075
2978.7948	5152.175
2981.23681	5154.075
2983.67732	5150.475
2986.11635	5128.275
2988.55388	5121.075
2990.98993	5093.975
2993.4245	5073.075
2995.85758	5081.475
2998.28917	5056.875
3000.71928	5039.375
3003.14791	5046.975
3005.57506	5014.475
3008.00073	5003.475
3010.42493	5013.675
3012.84764	4984.675
3015.26888	4989.875
3017.68865	4992.975
3020.10694	4974.875
3022.52376	4955.475
3024.9391	4937.575
3027.35298	4919.375
3029.76539	4914.775
3032.17632	4932.675
3034.5858	4912.075
3036.9938	4904.075
3039.40034	4881.175
3041.80542	4873.675
3044.20903	4857.675
3046.61118	4859.175
3049.01187	4845.175
3051.4111	4824.675
3053.80888	4810.575
3056.20519	4823.475
3058.60005	4790.475
3060.99345	4795.775
3063.3854	4767.975
3065.7759	4769.375
3068.16494	4751.675
3070.55254	4719.675
3072.93868	4711.475
3075.32338	4702.875
3077.70662	4697.175
3080.08842	4703.875
3082.46878	4693.975
3084.84769	4682.175
3087.22515	4664.375
3089.60118	4660.275
3091.97576	4668.375
3094.3489	4658.575
3096.72061	4655.975
3099.09087	4638.875
3101.4597	4644.375
3103.82709	4633.875
3106.19305	4651.375
3108.55757	4638.575
3110.92066	4611.675
3113.28232	4607.575
3115.64255	4607.975
3118.00134	4601.175
3120.35871	4588.375
3122.71466	4583.075
3125.06917	4567.575
3127.42226	4555.875
3129.77393	4561.075
3132.12417	4539.575
3134.47299	4528.675
3136.82039	4537.375
3139.16636	4528.275
3141.51092	4541.975
3143.85406	4520.375
3146.19579	4522.975
3148.53609	4518.075
3150.87499	4519.975
3153.21246	4514.275
3155.54853	4501.975
3157.88318	4515.975
3160.21642	4516.575
3162.54826	4486.675
3164.87868	4500.575
3167.2077	4492.375
3169.5353	4473.975
3171.86151	4481.175
3174.18631	4461.775
3176.5097	4459.475
3178.83169	4420.875
3181.15228	4448.375
3183.47147	4423.775
3185.78926	4420.175
3188.10565	4423.175
3190.42065	4391.075
3192.73424	4405.575
3195.04645	4406.575
3197.35725	4382.075
3199.66667	4394.875
3201.97469	4379.775
3204.28132	4390.975
3206.58656	4401.875
3208.8904	4393.775
3211.19287	4376.875
3213.49394	4377.675
3215.79363	4382.175
3218.09193	4396.575
