Data from AgNPs_UA_5uM_CRN_500uM_SU_RamanShift__10__11-31-03-140.txt Node

Date: Thu Aug 04 11:31:03 BST 2022
User: TCL
Spectrometer: QEP01345
Trigger mode: 4
Integration Time (sec): 1.000000E0
Scans to average: 10
Electric dark correction enabled: true
Nonlinearity correction enabled: false
Boxcar width: 0
XAxis mode: Raman Shifts
Number of Pixels in Spectrum: 1044
>>>>>Begin Spectral Data<<<<<
46.04893	-0.325
50.45542	1.175
54.85868	0.475
59.25871	-1.525
63.6555	-54.425
68.04907	-35.025
72.43941	-69.325
76.82654	-52.025
81.21044	-53.525
85.59113	-45.825
89.96862	-71.325
94.34289	-51.625
98.71396	-73.425
103.08183	-53.125
107.4465	-44.925
111.80798	-51.325
116.16626	-38.125
120.52136	-69.125
124.87327	-42.025
129.222	-53.025
133.56755	-38.325
137.90993	-49.725
142.24913	-35.125
146.58517	-25.125
150.91804	-19.125
155.24774	1.875
159.57429	31.075
163.89768	49.375
168.21792	116.575
172.53501	173.175
176.84895	303.775
181.15975	504.175
185.46741	756.875
189.77193	1063.975
194.07331	1518.875
198.37157	1984.475
202.6667	2485.475
206.9587	3041.675
211.24758	3620.375
215.53334	4273.175
219.81599	5003.275
224.09553	5872.375
228.37195	6753.675
232.64527	7611.375
236.91549	8288.975
241.18261	8625.575
245.44663	8729.475
249.70755	8657.575
253.96539	8660.775
258.22014	8718.475
262.4718	8772.075
266.72039	8754.075
270.96589	8581.075
275.20832	8200.275
279.44768	7832.275
283.68397	7580.775
287.91719	7489.675
292.14735	7697.175
296.37445	8277.775
300.59849	9308.175
304.81948	10753.475
309.03742	12374.275
313.25231	13580.675
317.46415	13421.175
321.67296	11742.775
325.87872	9807.675
330.08145	8679.375
334.28114	8424.375
338.47781	8738.775
342.67145	9355.175
346.86207	10373.175
351.04966	11939.675
355.23424	13488.875
359.4158	14049.675
363.59435	13544.975
367.76989	12588.475
371.94243	11681.875
376.11196	10908.675
380.27849	10358.475
384.44203	9929.575
388.60257	9691.475
392.76012	9695.475
396.91468	10034.175
401.06626	10479.575
405.21485	10483.875
409.36047	9787.075
413.50311	8614.575
417.64277	7515.375
421.77947	6838.675
425.9132	6525.375
430.04396	6366.875
434.17176	6332.575
438.2966	6480.375
442.41849	6685.675
446.53742	6913.975
450.6534	7045.675
454.76644	7030.775
458.87653	6921.475
462.98368	6740.975
467.08789	6602.675
471.18916	6366.175
475.2875	6050.875
479.38291	5797.375
483.4754	5632.775
487.56496	5576.175
491.6516	5478.875
495.73531	5472.775
499.81612	5542.175
503.89401	5737.875
507.96899	5943.275
512.04106	6228.075
516.11023	6543.875
520.1765	6776.575
524.23987	6887.175
528.30034	6832.175
532.35792	6661.775
536.41261	6501.475
540.46441	6263.075
544.51333	6087.075
548.55936	6079.075
552.60252	6231.875
556.64279	6471.075
560.6802	6956.275
564.71473	8021.475
568.7464	9358.775
572.7752	9331.175
576.80114	7552.475
580.82422	6140.675
584.84444	5518.575
588.86181	5335.975
592.87633	5348.775
596.888	5570.275
600.89682	6417.275
604.9028	9282.075
608.90594	16601.475
612.90624	25456.775
616.90371	23021.175
620.89834	12057.475
624.89015	7224.775
628.87913	6704.975
632.86528	7405.775
636.84862	7678.275
640.82913	6839.975
644.80683	5678.375
648.78172	5155.175
652.75379	5339.075
656.72306	6186.675
660.68952	7016.575
664.65319	6555.175
668.61405	5450.175
672.57211	4968.275
676.52738	4946.975
680.47986	4907.575
684.42955	4741.075
688.37646	4648.075
692.32058	4657.275
696.26192	4752.275
700.20048	4900.975
704.13626	4921.975
708.06928	4849.575
711.99952	4799.475
715.927	4856.475
719.85171	5094.975
723.77365	5267.075
727.69284	5100.175
731.60928	4931.475
735.52295	4864.475
739.43388	4944.175
743.34206	4981.875
747.24749	4987.275
751.15017	5040.675
755.05012	5390.975
758.94733	6819.775
762.8418	10064.275
766.73354	14258.675
770.62254	16391.175
774.50882	15484.375
778.39237	13858.475
782.27321	11420.675
786.15132	8277.975
790.02671	6229.575
793.89938	5262.075
797.76935	4965.875
801.6366	4795.375
805.50115	4728.775
809.36299	4652.375
813.22213	4623.275
817.07857	4643.575
820.93231	4689.275
824.78336	4782.675
828.63172	4920.075
832.47738	4988.375
836.32036	4879.875
840.16066	4623.175
843.99827	4487.975
847.8332	4433.875
851.66546	4427.275
855.49504	4413.875
859.32195	4407.075
863.1462	4365.575
866.96777	4336.875
870.78668	4337.075
874.60293	4375.075
878.41652	4451.375
882.22745	4623.875
886.03573	4708.975
889.84136	4673.675
893.64433	4642.875
897.44466	4651.575
901.24235	4660.375
905.0374	4568.975
908.8298	4375.475
912.61957	4252.575
916.40671	4153.375
920.19121	4205.675
923.97308	4433.975
927.75233	4872.675
931.52895	5329.275
935.30295	5087.575
939.07433	4409.475
942.84309	4003.675
946.60924	3849.075
950.37278	3789.075
954.13371	3767.575
957.89203	3766.475
961.64774	3775.475
965.40086	3739.875
969.15137	3712.675
972.89929	3743.575
976.64461	3712.575
980.38733	3701.575
984.12747	3692.375
987.86502	3710.075
991.59999	3749.775
995.33237	3809.775
999.06217	3923.875
1002.78939	4134.975
1006.51404	4451.175
1010.23611	4612.475
1013.95561	4461.975
1017.67255	4245.475
1021.38692	4048.975
1025.09872	3899.075
1028.80796	3810.875
1032.51465	3871.775
1036.21877	3909.875
1039.92035	4000.675
1043.61937	4077.775
1047.31584	4150.175
1051.00976	4151.975
1054.70114	4082.675
1058.38998	4010.775
1062.07627	3975.975
1065.76003	3980.275
1069.44126	4043.375
1073.11995	4147.775
1076.79611	4437.975
1080.46974	4993.075
1084.14085	5760.175
1087.80943	6417.375
1091.47549	6392.475
1095.13903	5697.075
1098.80005	5037.375
1102.45857	4663.775
1106.11456	4623.675
1109.76805	4741.175
1113.41903	5203.475
1117.06751	5886.575
1120.71348	7016.375
1124.35696	8698.975
1127.99793	9915.975
1131.63641	9018.275
1135.2724	7228.675
1138.90589	6039.975
1142.5369	5383.875
1146.16542	4960.575
1149.79145	4690.175
1153.415	4619.375
1157.03607	4672.175
1160.65467	4908.375
1164.27079	5344.675
1167.88443	5987.375
1171.49561	7059.875
1175.10432	8926.175
1178.71056	11508.775
1182.31434	13290.775
1185.91565	12959.875
1189.51451	11291.475
1193.11091	9539.475
1196.70485	8426.675
1200.29634	7977.875
1203.88538	7445.275
1207.47197	6360.275
1211.05612	5397.675
1214.63782	4762.075
1218.21708	4484.075
1221.79391	4388.475
1225.36829	4361.975
1228.94024	4375.275
1232.50976	4348.075
1236.07685	4369.475
1239.6415	4440.975
1243.20374	4538.775
1246.76355	4711.975
1250.32093	4956.375
1253.8759	5264.675
1257.42845	5795.275
1260.97859	6503.275
1264.52631	7191.075
1268.07163	7514.275
1271.61453	7543.975
1275.15503	7265.175
1278.69312	7027.875
1282.22882	7214.075
1285.76211	8197.375
1289.29301	9537.975
1292.82151	10400.875
1296.34761	10793.475
1299.87133	11646.075
1303.39266	13859.275
1306.9116	18062.175
1310.42815	23256.575
1313.94233	25100.175
1317.45412	21199.075
1320.96354	15467.075
1324.47058	11144.275
1327.97525	8510.875
1331.47754	7207.375
1334.97747	6788.375
1338.47502	7001.075
1341.97022	7989.375
1345.46305	10218.775
1348.95352	13391.375
1352.44163	16668.475
1355.92738	20755.375
1359.41078	27914.375
1362.89183	35639.475
1366.37053	33914.675
1369.84688	23174.675
1373.32088	14343.775
1376.79254	10553.375
1380.26186	8891.175
1383.72883	7577.475
1387.19347	6367.675
1390.65578	5491.975
1394.11575	4989.375
1397.57339	4756.275
1401.0287	4593.975
1404.48168	4430.675
1407.93234	4346.875
1411.38068	4440.375
1414.82669	4838.475
1418.27039	5264.975
1421.71177	5368.875
1425.15083	5140.375
1428.58758	5209.775
1432.02203	5736.775
1435.45416	6161.175
1438.88399	5868.875
1442.31151	5490.775
1445.73673	5413.375
1449.15965	5381.775
1452.58027	5247.675
1455.9986	5054.175
1459.41463	4883.075
1462.82837	4897.875
1466.23982	5150.275
1469.64898	5512.275
1473.05586	5635.075
1476.46045	5592.775
1479.86276	5592.775
1483.26279	5875.575
1486.66054	6523.175
1490.05602	7517.375
1493.44922	9172.075
1496.84016	11789.275
1500.22882	15847.075
1503.61521	21574.275
1506.99934	28924.175
1510.38121	36347.675
1513.76081	39372.475
1517.13816	34994.275
1520.51324	26064.875
1523.88607	17898.575
1527.25665	12649.875
1530.62498	9698.975
1533.99105	7960.575
1537.35488	6873.375
1540.71647	6233.175
1544.07581	5990.975
1547.4329	5993.375
1550.78776	6182.875
1554.14038	6507.975
1557.49077	7055.275
1560.83892	8041.175
1564.18484	9558.775
1567.52853	11271.075
1570.86999	12295.175
1574.20922	12380.075
1577.54624	11731.675
1580.88103	9760.375
1584.2136	7374.375
1587.54395	5996.775
1590.87208	5641.275
1594.19801	6054.375
1597.52172	6819.375
1600.84321	6833.575
1604.16251	5997.475
1607.47959	5215.875
1610.79447	4747.275
1614.10715	4389.775
1617.41763	4152.375
1620.7259	4023.075
1624.03199	4072.975
1627.33587	4294.275
1630.63757	4674.475
1633.93707	5382.975
1637.23439	6643.375
1640.52951	8985.075
1643.82246	12944.275
1647.11321	18438.475
1650.40179	22848.475
1653.68819	22578.075
1656.97241	17518.675
1660.25446	11717.175
1663.53433	7711.475
1666.81203	5553.775
1670.08756	4439.575
1673.36092	3824.975
1676.63211	3443.875
1679.90115	3237.775
1683.16801	3066.475
1686.43272	2933.275
1689.69527	2850.675
1692.95567	2780.775
1696.2139	2732.175
1699.46999	2665.175
1702.72392	2658.475
1705.97571	2671.375
1709.22535	2649.675
1712.47284	2710.775
1715.71819	2730.475
1718.96139	2730.075
1722.20246	2709.175
1725.44139	2646.075
1728.67818	2586.275
1731.91284	2491.475
1735.14537	2437.375
1738.37576	2394.475
1741.60403	2378.275
1744.83017	2349.575
1748.05418	2340.575
1751.27607	2322.775
1754.49584	2263.875
1757.71349	2207.275
1760.92903	2175.175
1764.14244	2108.675
1767.35375	2092.975
1770.56294	2037.475
1773.77002	1986.375
1776.97499	1971.975
1780.17785	1942.775
1783.37861	1916.275
1786.57727	1927.875
1789.77382	1853.875
1792.96828	1890.475
1796.16064	1903.275
1799.3509	1886.975
1802.53907	1888.675
1805.72514	1857.475
1808.90913	1831.075
1812.09102	1824.775
1815.27083	1818.475
1818.44856	1807.475
1821.6242	1813.775
1824.79776	1791.075
1827.96924	1774.475
1831.13864	1734.075
1834.30597	1740.075
1837.47122	1709.675
1840.6344	1686.275
1843.7955	1656.575
1846.95454	1632.375
1850.11151	1654.075
1853.26642	1609.875
1856.41926	1616.875
1859.57004	1614.075
1862.71876	1614.075
1865.86542	1632.575
1869.01003	1627.275
1872.15258	1617.775
1875.29308	1646.075
1878.43152	1643.675
1881.56792	1624.875
1884.70227	1603.275
1887.83457	1608.175
1890.96482	1574.275
1894.09304	1576.475
1897.21921	1573.875
1900.34335	1573.775
1903.46544	1559.375
1906.58551	1582.975
1909.70353	1568.975
1912.81953	1563.975
1915.93349	1550.175
1919.04543	1550.375
1922.15534	1519.375
1925.26322	1508.575
1928.36908	1490.675
1931.47292	1482.475
1934.57473	1466.675
1937.67453	1419.475
1940.77232	1385.575
1943.86808	1383.575
1946.96184	1379.375
1950.05358	1352.975
1953.14331	1349.675
1956.23103	1370.975
1959.31675	1352.875
1962.40046	1333.775
1965.48217	1379.575
1968.56188	1401.975
1971.63959	1401.175
1974.7153	1410.675
1977.78901	1396.375
1980.86073	1362.375
1983.93046	1312.075
1986.99819	1229.275
1990.06394	1241.075
1993.1277	1273.075
1996.18947	1255.075
1999.24925	1218.675
2002.30706	1230.775
2005.36288	1229.875
2008.41672	1207.375
2011.46859	1185.575
2014.51848	1181.875
2017.56639	1174.775
2020.61233	1159.675
2023.6563	1169.675
2026.6983	1131.075
2029.73833	1146.675
2032.7764	1148.275
2035.8125	1118.175
2038.84664	1128.275
2041.87881	1115.675
2044.90903	1135.175
2047.93729	1129.075
2050.96359	1088.375
2053.98794	1103.175
2057.01034	1100.075
2060.03078	1069.275
2063.04927	1068.475
2066.06582	1062.275
2069.08042	1037.575
2072.09307	1047.775
2075.10378	1043.975
2078.11255	1041.375
2081.11938	1046.675
2084.12426	1036.375
2087.12722	1033.775
2090.12824	1031.075
2093.12732	1038.075
2096.12447	1043.075
2099.11969	1035.975
2102.11299	1019.875
2105.10435	1046.075
2108.09379	1033.475
2111.08131	1034.975
2114.0669	1043.175
2117.05057	1057.475
2120.03233	1044.675
2123.01216	1084.275
2125.99008	1099.075
2128.96609	1101.375
2131.94018	1109.175
2134.91236	1088.175
2137.88263	1066.075
2140.851	1051.575
2143.81746	1049.675
2146.78201	1016.675
2149.74466	998.875
2152.7054	992.975
2155.66425	970.575
2158.6212	963.375
2161.57625	940.675
2164.52941	926.075
2167.48067	943.875
2170.43004	945.875
2173.37752	970.375
2176.32311	962.575
2179.26681	974.875
2182.20863	977.075
2185.14856	975.175
2188.08661	971.275
2191.02278	961.375
2193.95707	935.075
2196.88948	921.275
2199.82001	927.175
2202.74867	905.875
2205.67545	915.675
2208.60037	925.475
2211.52341	922.075
2214.44458	913.175
2217.36388	908.375
2220.28132	896.475
2223.1969	883.775
2226.11061	888.675
2229.02246	872.675
2231.93245	877.075
2234.84058	866.075
2237.74686	858.375
2240.65128	854.875
2243.55385	878.975
2246.45456	859.375
2249.35343	893.075
2252.25044	900.375
2255.14561	931.575
2258.03893	948.475
2260.93041	962.675
2263.82004	976.875
2266.70783	981.575
2269.59378	966.375
2272.4779	955.475
2275.36017	970.375
2278.24061	957.575
2281.11922	927.775
2283.996	938.575
2286.87094	909.075
2289.74405	903.875
2292.61534	901.675
2295.4848	876.175
2298.35243	862.375
2301.21824	853.575
2304.08223	842.575
2306.94439	853.375
2309.80474	860.275
2312.66327	863.475
2315.51999	846.875
2318.37489	836.075
2321.22797	828.075
2324.07925	825.575
2326.92871	827.075
2329.77637	816.575
2332.62222	824.175
2335.46626	805.975
2338.3085	813.575
2341.14893	830.275
2343.98756	844.875
2346.8244	833.075
2349.65943	826.775
2352.49267	844.175
2355.32411	862.375
2358.15376	869.775
2360.98161	906.075
2363.80768	904.175
2366.63195	931.675
2369.45444	944.875
2372.27514	946.375
2375.09405	961.375
2377.91118	919.575
2380.72652	914.475
2383.54009	906.875
2386.35187	903.075
2389.16188	867.875
2391.97011	860.775
2394.77657	841.575
2397.58125	843.275
2400.38416	823.975
2403.18529	816.475
2405.98466	795.475
2408.78226	796.675
2411.57809	795.975
2414.37216	788.975
2417.16446	793.375
2419.955	776.075
2422.74378	792.675
2425.5308	779.475
2428.31606	799.375
2431.09956	809.275
2433.88131	801.375
2436.6613	818.375
2439.43954	821.475
2442.21603	821.875
2444.99077	820.675
2447.76377	845.075
2450.53501	840.475
2453.30451	852.475
2456.07226	860.075
2458.83827	850.975
2461.60254	813.475
2464.36507	846.975
2467.12586	831.075
2469.88492	840.975
2472.64224	847.675
2475.39782	835.075
2478.15167	865.775
2480.90379	874.475
2483.65417	913.975
2486.40283	930.775
2489.14976	945.975
2491.89497	942.475
2494.63845	946.275
2497.3802	930.575
2500.12024	922.775
2502.85855	911.775
2505.59514	894.575
2508.33002	867.975
2511.06318	830.675
2513.79462	811.975
2516.52435	758.075
2519.25237	726.975
2521.97867	718.575
2524.70327	709.875
2527.42616	704.375
2530.14734	703.875
2532.86681	687.575
2535.58458	692.675
2538.30065	689.375
2541.01501	713.275
2543.72768	703.175
2546.43864	723.175
2549.14791	724.475
2551.85548	723.275
2554.56136	726.775
2557.26554	739.175
2559.96803	748.475
2562.66883	755.375
2565.36794	736.975
2568.06536	723.175
2570.7611	753.275
2573.45514	742.175
2576.14751	734.375
2578.83819	725.975
2581.52719	714.675
2584.21451	722.675
2586.90015	702.675
2589.58411	679.975
2592.2664	693.775
2594.94701	707.175
2597.62594	703.775
2600.30321	646.475
2602.9788	677.275
2605.65273	676.775
2608.32498	683.475
2610.99557	710.475
2613.66449	679.275
2616.33175	703.175
2618.99734	711.575
2621.66128	711.375
2624.32355	697.175
2626.98416	683.475
2629.64311	674.575
2632.30041	662.375
2634.95605	644.475
2637.61004	632.075
2640.26238	612.475
2642.91306	613.675
2645.56209	631.175
2648.20948	621.375
2650.85521	605.675
2653.4993	634.775
2656.14175	632.775
2658.78255	624.775
2661.42171	610.075
2664.05923	652.775
2666.6951	659.575
2669.32934	674.375
2671.96194	688.275
2674.59291	676.775
2677.22224	684.375
2679.84993	676.175
2682.476	662.375
2685.10043	654.575
2687.72324	644.375
2690.34441	642.175
2692.96396	642.175
2695.58188	660.475
2698.19818	639.675
2700.81285	625.975
2703.4259	620.175
2706.03733	600.975
2708.64714	607.075
2711.25533	637.675
2713.86191	650.075
2716.46687	646.975
2719.07021	643.575
2721.67194	642.075
2724.27206	653.975
2726.87057	629.075
2729.46747	622.675
2732.06276	619.475
2734.65644	601.075
2737.24852	602.575
2739.83899	574.575
2742.42786	587.175
2745.01513	595.975
2747.60079	578.075
2750.18486	552.375
2752.76733	558.975
2755.3482	546.575
2757.92747	546.375
2760.50515	529.175
2763.08123	523.175
2765.65573	526.975
2768.22863	525.675
2770.79994	513.975
2773.36967	515.175
2775.9378	516.475
2778.50435	518.275
2781.06932	516.675
2783.6327	516.175
2786.1945	534.175
2788.75471	524.475
2791.31335	532.475
2793.87041	536.875
2796.42589	526.775
2798.97979	528.175
2801.53212	548.475
2804.08288	578.975
2806.63206	568.375
2809.17967	573.875
2811.72571	606.975
2814.27018	607.575
2816.81308	617.575
2819.35442	603.775
2821.89419	644.075
2824.43239	648.275
2826.96904	675.875
2829.50412	647.375
2832.03763	648.875
2834.56959	647.475
2837.1	633.575
2839.62884	626.175
2842.15613	619.475
2844.68186	622.475
2847.20604	604.175
2849.72867	609.075
2852.24974	631.975
2854.76927	612.075
2857.28724	590.475
2859.80367	664.475
2862.31855	690.775
2864.83189	695.675
2867.34368	725.275
2869.85393	740.375
2872.36264	727.075
2874.8698	739.175
2877.37543	737.375
2879.87952	724.275
2882.38207	692.375
2884.88308	693.775
2887.38256	682.375
2889.88051	664.575
2892.37692	653.575
2894.8718	640.275
2897.36515	656.075
2899.85698	649.775
2902.34727	650.275
2904.83604	672.675
2907.32328	698.675
2909.809	711.875
2912.29319	727.175
2914.77587	743.175
2917.25702	746.575
2919.73665	737.375
2922.21476	719.875
2924.69136	702.875
2927.16644	675.075
2929.64	655.575
2932.11205	640.275
2934.58258	637.875
2937.05161	627.075
2939.51912	619.875
2941.98513	643.775
2944.44962	628.675
2946.91261	605.475
2949.37409	617.675
2951.83407	619.575
2954.29254	622.975
2956.74951	627.475
2959.20498	612.275
2961.65895	624.475
2964.11142	614.375
2966.56239	612.475
2969.01186	611.175
2971.45984	600.775
2973.90632	596.875
2976.35131	614.075
2978.7948	607.575
2981.23681	599.575
2983.67732	609.675
2986.11635	618.775
2988.55388	592.575
2990.98993	605.575
2993.4245	605.375
2995.85758	603.275
2998.28917	615.275
3000.71928	602.675
3003.14791	611.775
3005.57506	601.675
3008.00073	600.875
3010.42493	538.375
3012.84764	598.275
3015.26888	596.975
3017.68865	591.375
3020.10694	548.575
3022.52376	568.275
3024.9391	563.675
3027.35298	552.575
3029.76539	533.675
3032.17632	527.075
3034.5858	508.975
3036.9938	507.475
3039.40034	493.475
3041.80542	477.175
3044.20903	461.575
3046.61118	450.075
3049.01187	458.975
3051.4111	446.575
3053.80888	441.975
3056.20519	439.175
3058.60005	428.875
3060.99345	457.475
3063.3854	438.175
3065.7759	421.375
3068.16494	420.575
3070.55254	413.275
3072.93868	424.575
3075.32338	418.375
3077.70662	415.075
3080.08842	404.075
3082.46878	389.175
3084.84769	421.275
3087.22515	400.475
3089.60118	404.675
3091.97576	390.775
3094.3489	395.575
3096.72061	393.575
3099.09087	372.775
3101.4597	390.675
3103.82709	382.775
3106.19305	375.875
3108.55757	379.575
3110.92066	376.875
3113.28232	387.975
3115.64255	389.075
3118.00134	392.875
3120.35871	371.675
3122.71466	362.675
3125.06917	386.775
3127.42226	378.275
3129.77393	365.775
3132.12417	384.375
3134.47299	393.575
3136.82039	375.175
3139.16636	356.175
3141.51092	382.475
3143.85406	388.875
3146.19579	372.275
3148.53609	372.875
3150.87499	381.975
3153.21246	379.275
3155.54853	387.375
3157.88318	396.875
3160.21642	392.875
3162.54826	382.875
3164.87868	392.775
3167.2077	348.675
3169.5353	373.775
3171.86151	370.875
3174.18631	358.275
3176.5097	348.875
3178.83169	351.875
3181.15228	347.375
3183.47147	322.075
3185.78926	307.975
3188.10565	323.275
3190.42065	303.375
3192.73424	322.475
3195.04645	314.975
3197.35725	304.475
3199.66667	322.775
3201.97469	314.375
3204.28132	306.575
3206.58656	328.575
3208.8904	333.475
3211.19287	329.575
3213.49394	317.775
3215.79363	321.575
3218.09193	335.375
3220.38884	328.175
3222.68438	328.375
3224.97853	316.875
3227.2713	335.075
3229.56269	323.275
3231.8527	325.175
3234.14133	313.575
3236.42858	308.975
3238.71446	289.475
3240.99896	310.775
3243.28209	296.275
3245.56384	305.675
3247.84423	297.475
3250.12324	306.775
3252.40088	306.775
3254.67715	299.075
3256.95205	287.875
3259.22558	298.875
3261.49775	298.175
3263.76855	296.475
3266.03799	304.175
3268.30606	305.275
3270.57277	305.575
3272.83812	294.075
3275.10211	309.575
3277.36474	329.975
3279.62601	329.075
