Data from AgNPs_UA_5uM_CRN_500uM_SU_RamanShift__131__11-51-13-150.txt Node

Date: Thu Aug 04 11:51:13 BST 2022
User: TCL
Spectrometer: QEP01345
Trigger mode: 4
Integration Time (sec): 1.000000E0
Scans to average: 10
Electric dark correction enabled: true
Nonlinearity correction enabled: false
Boxcar width: 0
XAxis mode: Raman Shifts
Number of Pixels in Spectrum: 1044
>>>>>Begin Spectral Data<<<<<
46.04893	0.35
50.45542	0.45
54.85868	-0.25
59.25871	-1.15
63.6555	-57.45
68.04907	-40.15
72.43941	-71.15
76.82654	-56.65
81.21044	-54.55
85.59113	-50.75
89.96862	-75.35
94.34289	-53.65
98.71396	-77.75
103.08183	-59.45
107.4465	-51.15
111.80798	-56.15
116.16626	-45.85
120.52136	-74.65
124.87327	-50.55
129.222	-63.35
133.56755	-51.95
137.90993	-63.05
142.24913	-52.05
146.58517	-44.75
150.91804	-41.85
155.24774	-32.45
159.57429	-11.75
163.89768	-7.25
168.21792	33.25
172.53501	52.75
176.84895	130.25
181.15975	260.85
185.46741	402.95
189.77193	576.05
194.07331	858.05
198.37157	1139.65
202.6667	1407.55
206.9587	1727.25
211.24758	2023.45
215.53334	2335.15
219.81599	2663.95
224.09553	3064.45
228.37195	3477.05
232.64527	3917.45
236.91549	4383.85
241.18261	4756.25
245.44663	5058.45
249.70755	5255.75
253.96539	5422.75
258.22014	5504.05
262.4718	5565.45
266.72039	5580.25
270.96589	5525.55
275.20832	5428.65
279.44768	5328.35
283.68397	5202.15
287.91719	5153.65
292.14735	5158.75
296.37445	5285.35
300.59849	5503.35
304.81948	5793.85
309.03742	6076.95
313.25231	6282.55
317.46415	6220.25
321.67296	5917.95
325.87872	5577.85
330.08145	5418.35
334.28114	5398.05
338.47781	5445.95
342.67145	5593.55
346.86207	5788.65
351.04966	6103.65
355.23424	6441.25
359.4158	6675.95
363.59435	6710.75
367.76989	6674.75
371.94243	6560.65
376.11196	6500.75
380.27849	6446.55
384.44203	6394.85
388.60257	6372.25
392.76012	6387.35
396.91468	6490.25
401.06626	6636.95
405.21485	6684.65
409.36047	6550.25
413.50311	6290.95
417.64277	6039.05
421.77947	5891.65
425.9132	5826.35
430.04396	5834.15
434.17176	5869.85
438.2966	5985.65
442.41849	6064.45
446.53742	6157.25
450.6534	6244.45
454.76644	6326.45
458.87653	6352.45
462.98368	6348.35
467.08789	6285.55
471.18916	6253.05
475.2875	6157.15
479.38291	6068.05
483.4754	5958.85
487.56496	5919.65
491.6516	5874.15
495.73531	5878.25
499.81612	5889.95
503.89401	5983.75
507.96899	6027.35
512.04106	6101.05
516.11023	6204.45
520.1765	6261.55
524.23987	6302.65
528.30034	6311.45
532.35792	6240.85
536.41261	6205.65
540.46441	6107.65
544.51333	6097.35
548.55936	6122.45
552.60252	6227.55
556.64279	6325.55
560.6802	6436.25
564.71473	6547.95
568.7464	6699.05
572.7752	6684.55
576.80114	6389.25
580.82422	6181.45
584.84444	6098.95
588.86181	6099.55
592.87633	6132.35
596.888	6251.85
600.89682	6550.85
604.9028	7348.65
608.90594	9072.55
612.90624	11013.15
616.90371	10293.65
620.89834	7780.95
624.89015	6705.35
628.87913	6525.05
632.86528	6679.45
636.84862	6823.75
640.82913	6713.35
644.80683	6444.05
648.78172	6290.95
652.75379	6331.45
656.72306	6522.05
660.68952	6723.35
664.65319	6669.15
668.61405	6461.25
672.57211	6431.05
676.52738	6424.95
680.47986	6361.05
684.42955	6280.45
688.37646	6241.35
692.32058	6237.15
696.26192	6299.05
700.20048	6398.85
704.13626	6416.95
708.06928	6392.05
711.99952	6363.15
715.927	6311.05
719.85171	6353.25
723.77365	6391.35
727.69284	6372.95
731.60928	6378.25
735.52295	6362.65
739.43388	6409.55
743.34206	6392.55
747.24749	6424.75
751.15017	6450.45
755.05012	6502.75
758.94733	6789.55
762.8418	7484.95
766.73354	8545.65
770.62254	9340.95
774.50882	9418.05
778.39237	9025.35
782.27321	8288.65
786.15132	7440.15
790.02671	6877.45
793.89938	6577.25
797.76935	6478.85
801.6366	6405.15
805.50115	6378.45
809.36299	6395.35
813.22213	6373.05
817.07857	6383.05
820.93231	6361.95
824.78336	6388.65
828.63172	6423.15
832.47738	6428.45
836.32036	6444.35
840.16066	6407.25
843.99827	6386.05
847.8332	6404.65
851.66546	6399.15
855.49504	6411.35
859.32195	6440.75
863.1462	6424.45
866.96777	6459.45
870.78668	6437.05
874.60293	6456.05
878.41652	6496.45
882.22745	6551.55
886.03573	6564.85
889.84136	6564.15
893.64433	6561.95
897.44466	6547.05
901.24235	6553.85
905.0374	6551.95
908.8298	6501.05
912.61957	6466.55
916.40671	6421.95
920.19121	6476.45
923.97308	6550.35
927.75233	6592.45
931.52895	6661.65
935.30295	6650.75
939.07433	6516.55
942.84309	6416.55
946.60924	6420.45
950.37278	6385.15
954.13371	6367.75
957.89203	6367.95
961.64774	6390.65
965.40086	6342.35
969.15137	6331.75
972.89929	6365.95
976.64461	6365.45
980.38733	6383.45
984.12747	6384.85
987.86502	6396.35
991.59999	6439.25
995.33237	6512.05
999.06217	6564.15
1002.78939	6656.85
1006.51404	6794.75
1010.23611	6919.85
1013.95561	6952.15
1017.67255	6974.45
1021.38692	6968.75
1025.09872	6891.75
1028.80796	6809.05
1032.51465	6789.75
1036.21877	6783.25
1039.92035	6829.35
1043.61937	6852.45
1047.31584	6892.15
1051.00976	6922.95
1054.70114	6958.25
1058.38998	6935.55
1062.07627	6920.65
1065.76003	6978.25
1069.44126	7058.65
1073.11995	7148.85
1076.79611	7276.85
1080.46974	7390.25
1084.14085	7522.15
1087.80943	7610.05
1091.47549	7655.05
1095.13903	7609.85
1098.80005	7532.05
1102.45857	7448.65
1106.11456	7388.65
1109.76805	7302.65
1113.41903	7386.75
1117.06751	7507.25
1120.71348	7720.15
1124.35696	8017.55
1127.99793	8226.45
1131.63641	8145.35
1135.2724	7800.95
1138.90589	7584.35
1142.5369	7422.35
1146.16542	7375.05
1149.79145	7275.45
1153.415	7231.45
1157.03607	7194.65
1160.65467	7247.65
1164.27079	7385.55
1167.88443	7598.95
1171.49561	7934.45
1175.10432	8413.75
1178.71056	9126.35
1182.31434	9764.55
1185.91565	9954.05
1189.51451	9874.45
1193.11091	9737.65
1196.70485	9556.95
1200.29634	9428.95
1203.88538	9233.25
1207.47197	8875.85
1211.05612	8536.75
1214.63782	8234.45
1218.21708	8034.55
1221.79391	7879.25
1225.36829	7781.65
1228.94024	7734.65
1232.50976	7743.55
1236.07685	7783.95
1239.6415	7804.05
1243.20374	7828.85
1246.76355	7858.15
1250.32093	7924.95
1253.8759	8039.55
1257.42845	8211.75
1260.97859	8403.55
1264.52631	8606.75
1268.07163	8718.45
1271.61453	8783.85
1275.15503	8826.25
1278.69312	8826.25
1282.22882	8871.85
1285.76211	9042.35
1289.29301	9233.45
1292.82151	9474.55
1296.34761	9651.05
1299.87133	9993.75
1303.39266	10552.65
1306.9116	11476.55
1310.42815	12429.25
1313.94233	12763.45
1317.45412	12158.45
1320.96354	11246.25
1324.47058	10462.25
1327.97525	9886.55
1331.47754	9566.95
1334.97747	9497.05
1338.47502	9608.75
1341.97022	9961.95
1345.46305	10562.85
1348.95352	11407.15
1352.44163	12402.95
1355.92738	13427.35
1359.41078	14682.95
1362.89183	15744.05
1366.37053	15162.05
1369.84688	12875.35
1373.32088	10798.95
1376.79254	9714.55
1380.26186	9187.75
1383.72883	8886.75
1387.19347	8575.65
1390.65578	8285.45
1394.11575	8099.15
1397.57339	7967.15
1401.0287	7874.75
1404.48168	7825.45
1407.93234	7848.35
1411.38068	7900.75
1414.82669	7966.75
1418.27039	8013.65
1421.71177	8023.05
1425.15083	7904.35
1428.58758	7872.15
1432.02203	7891.85
1435.45416	7968.55
1438.88399	7984.55
1442.31151	8009.65
1445.73673	8055.25
1449.15965	8105.65
1452.58027	8136.55
1455.9986	8152.95
1459.41463	8138.35
1462.82837	8213.95
1466.23982	8376.45
1469.64898	8564.65
1473.05586	8675.75
1476.46045	8748.95
1479.86276	8795.75
1483.26279	8870.15
1486.66054	8994.35
1490.05602	9179.75
1493.44922	9622.75
1496.84016	10303.05
1500.22882	11382.75
1503.61521	12729.15
1506.99934	14057.65
1510.38121	14958.45
1513.76081	14858.95
1517.13816	13667.55
1520.51324	11998.15
1523.88607	10680.65
1527.25665	9889.25
1530.62498	9506.95
1533.99105	9337.85
1537.35488	9264.75
1540.71647	9199.95
1544.07581	9155.45
1547.4329	9075.75
1550.78776	8978.15
1554.14038	8851.85
1557.49077	8799.45
1560.83892	8869.65
1564.18484	9009.05
1567.52853	9256.75
1570.86999	9503.25
1574.20922	9580.05
1577.54624	9500.55
1580.88103	9106.75
1584.2136	8583.75
1587.54395	8334.65
1590.87208	8314.05
1594.19801	8451.85
1597.52172	8780.55
1600.84321	8928.05
1604.16251	8879.75
1607.47959	8720.65
1610.79447	8549.45
1614.10715	8262.05
1617.41763	7970.55
1620.7259	7706.45
1624.03199	7571.45
1627.33587	7490.65
1630.63757	7536.35
1633.93707	7742.85
1637.23439	8083.25
1640.52951	8659.65
1643.82246	9483.25
1647.11321	10383.25
1650.40179	10915.25
1653.68819	10596.55
1656.97241	9568.15
1660.25446	8450.45
1663.53433	7649.15
1666.81203	7140.45
1670.08756	6872.15
1673.36092	6725.85
1676.63211	6598.75
1679.90115	6520.75
1683.16801	6443.65
1686.43272	6352.55
1689.69527	6311.25
1692.95567	6244.25
1696.2139	6229.95
1699.46999	6178.45
1702.72392	6177.35
1705.97571	6192.85
1709.22535	6153.75
1712.47284	6206.35
1715.71819	6207.05
1718.96139	6200.15
1722.20246	6186.15
1725.44139	6173.85
1728.67818	6160.75
1731.91284	6100.75
1735.14537	6079.85
1738.37576	6049.85
1741.60403	6039.65
1744.83017	6003.75
1748.05418	5991.75
1751.27607	6009.35
1754.49584	5981.75
1757.71349	5953.15
1760.92903	5967.15
1764.14244	5909.25
1767.35375	5914.55
1770.56294	5896.45
1773.77002	5870.05
1776.97499	5888.65
1780.17785	5871.15
1783.37861	5858.85
1786.57727	5877.95
1789.77382	5814.25
1792.96828	5848.95
1796.16064	5853.15
1799.3509	5829.75
1802.53907	5848.75
1805.72514	5798.15
1808.90913	5772.75
1812.09102	5804.65
1815.27083	5774.35
1818.44856	5756.85
1821.6242	5759.75
1824.79776	5734.25
1827.96924	5739.65
1831.13864	5721.85
1834.30597	5711.55
1837.47122	5692.35
1840.6344	5671.65
1843.7955	5651.85
1846.95454	5660.35
1850.11151	5681.45
1853.26642	5635.05
1856.41926	5661.25
1859.57004	5635.75
1862.71876	5645.25
1865.86542	5646.15
1869.01003	5656.75
1872.15258	5613.55
1875.29308	5630.75
1878.43152	5636.35
1881.56792	5595.75
1884.70227	5584.25
1887.83457	5582.95
1890.96482	5556.85
1894.09304	5561.85
1897.21921	5562.45
1900.34335	5556.75
1903.46544	5548.55
1906.58551	5546.25
1909.70353	5543.65
1912.81953	5543.35
1915.93349	5525.95
1919.04543	5515.55
1922.15534	5499.15
1925.26322	5493.85
1928.36908	5485.15
1931.47292	5479.45
1934.57473	5501.55
1937.67453	5445.85
1940.77232	5422.75
1943.86808	5429.15
1946.96184	5415.25
1950.05358	5389.15
1953.14331	5374.25
1956.23103	5365.95
1959.31675	5349.15
1962.40046	5301.15
1965.48217	5326.55
1968.56188	5288.15
1971.63959	5288.05
1974.7153	5286.75
1977.78901	5272.65
1980.86073	5243.95
1983.93046	5222.55
1986.99819	5134.35
1990.06394	5147.55
1993.1277	5168.25
1996.18947	5151.35
1999.24925	5106.15
2002.30706	5109.85
2005.36288	5090.05
2008.41672	5093.55
2011.46859	5060.05
2014.51848	5053.25
2017.56639	5036.55
2020.61233	5023.55
2023.6563	5013.55
2026.6983	4965.95
2029.73833	4951.95
2032.7764	4987.35
2035.8125	4931.75
2038.84664	4928.35
2041.87881	4918.05
2044.90903	4912.45
2047.93729	4917.35
2050.96359	4894.25
2053.98794	4883.15
2057.01034	4901.25
2060.03078	4867.65
2063.04927	4837.35
2066.06582	4863.95
2069.08042	4852.55
2072.09307	4863.35
2075.10378	4856.25
2078.11255	4841.75
2081.11938	4842.75
2084.12426	4838.85
2087.12722	4826.75
2090.12824	4829.45
2093.12732	4841.15
2096.12447	4847.15
2099.11969	4842.25
2102.11299	4828.15
2105.10435	4840.85
2108.09379	4848.05
2111.08131	4832.65
2114.0669	4832.45
2117.05057	4823.65
2120.03233	4819.15
2123.01216	4848.15
2125.99008	4858.45
2128.96609	4836.65
2131.94018	4866.55
2134.91236	4844.25
2137.88263	4839.35
2140.851	4853.95
2143.81746	4871.15
2146.78201	4856.65
2149.74466	4835.75
2152.7054	4863.55
2155.66425	4839.55
2158.6212	4828.75
2161.57625	4809.15
2164.52941	4788.85
2167.48067	4817.55
2170.43004	4818.55
2173.37752	4829.05
2176.32311	4796.55
2179.26681	4806.55
2182.20863	4810.75
2185.14856	4808.75
2188.08661	4811.95
2191.02278	4824.35
2193.95707	4792.75
2196.88948	4773.35
2199.82001	4784.85
2202.74867	4779.45
2205.67545	4794.25
2208.60037	4783.15
2211.52341	4765.25
2214.44458	4739.95
2217.36388	4737.85
2220.28132	4713.85
2223.1969	4700.55
2226.11061	4722.15
2229.02246	4694.65
2231.93245	4707.55
2234.84058	4671.35
2237.74686	4683.95
2240.65128	4649.55
2243.55385	4654.75
2246.45456	4637.05
2249.35343	4656.55
2252.25044	4640.75
2255.14561	4621.65
2258.03893	4627.55
2260.93041	4619.65
2263.82004	4617.65
2266.70783	4614.05
2269.59378	4587.25
2272.4779	4559.05
2275.36017	4547.65
2278.24061	4540.85
2281.11922	4532.05
2283.996	4534.15
2286.87094	4514.85
2289.74405	4524.85
2292.61534	4526.05
2295.4848	4495.45
2298.35243	4489.85
2301.21824	4474.15
2304.08223	4488.75
2306.94439	4482.35
2309.80474	4479.35
2312.66327	4475.85
2315.51999	4445.55
2318.37489	4448.85
2321.22797	4442.85
2324.07925	4425.95
2326.92871	4433.15
2329.77637	4421.55
2332.62222	4401.55
2335.46626	4370.95
2338.3085	4377.45
2341.14893	4377.25
2343.98756	4396.85
2346.8244	4368.95
2349.65943	4365.65
2352.49267	4371.95
2355.32411	4370.95
2358.15376	4351.15
2360.98161	4357.35
2363.80768	4341.35
2366.63195	4350.05
2369.45444	4359.45
2372.27514	4361.55
2375.09405	4353.75
2377.91118	4303.95
2380.72652	4314.75
2383.54009	4304.35
2386.35187	4313.45
2389.16188	4291.05
2391.97011	4282.15
2394.77657	4273.65
2397.58125	4269.65
2400.38416	4265.05
2403.18529	4237.95
2405.98466	4238.05
2408.78226	4234.75
2411.57809	4215.45
2414.37216	4204.75
2417.16446	4204.65
2419.955	4195.65
2422.74378	4199.35
2425.5308	4181.35
2428.31606	4192.75
2431.09956	4197.85
2433.88131	4165.25
2436.6613	4179.75
2439.43954	4150.05
2442.21603	4150.85
2444.99077	4148.15
2447.76377	4142.15
2450.53501	4142.65
2453.30451	4162.05
2456.07226	4151.85
2458.83827	4128.05
2461.60254	4106.35
2464.36507	4125.25
2467.12586	4100.85
2469.88492	4095.45
2472.64224	4115.45
2475.39782	4100.55
2478.15167	4104.75
2480.90379	4080.15
2483.65417	4096.65
2486.40283	4092.65
2489.14976	4106.75
2491.89497	4087.05
2494.63845	4088.95
2497.3802	4072.85
2500.12024	4069.85
2502.85855	4060.85
2505.59514	4077.15
2508.33002	4055.75
2511.06318	4028.35
2513.79462	4037.45
2516.52435	3999.25
2519.25237	3990.95
2521.97867	3984.35
2524.70327	4001.95
2527.42616	3989.15
2530.14734	3995.75
2532.86681	3974.75
2535.58458	3985.25
2538.30065	3963.95
2541.01501	3981.05
2543.72768	3958.25
2546.43864	3958.25
2549.14791	3961.75
2551.85548	3932.15
2554.56136	3936.15
2557.26554	3933.75
2559.96803	3923.35
2562.66883	3923.05
2565.36794	3894.45
2568.06536	3878.85
2570.7611	3879.65
2573.45514	3866.05
2576.14751	3866.45
2578.83819	3854.95
2581.52719	3826.05
2584.21451	3836.15
2586.90015	3818.25
2589.58411	3795.65
2592.2664	3820.25
2594.94701	3807.45
2597.62594	3812.25
2600.30321	3740.25
2602.9788	3759.25
2605.65273	3752.15
2608.32498	3762.75
2610.99557	3770.75
2613.66449	3740.95
2616.33175	3752.65
2618.99734	3756.15
2621.66128	3757.75
2624.32355	3741.25
2626.98416	3715.05
2629.64311	3712.25
2632.30041	3695.75
2634.95605	3693.05
2637.61004	3691.75
2640.26238	3659.55
2642.91306	3669.95
2645.56209	3684.05
2648.20948	3680.25
2650.85521	3652.75
2653.4993	3677.45
2656.14175	3668.05
2658.78255	3642.75
2661.42171	3621.45
2664.05923	3663.35
2666.6951	3662.55
2669.32934	3677.85
2671.96194	3671.55
2674.59291	3663.15
2677.22224	3674.95
2679.84993	3678.25
2682.476	3645.35
2685.10043	3653.45
2687.72324	3640.35
2690.34441	3636.05
2692.96396	3623.45
2695.58188	3651.95
2698.19818	3647.05
2700.81285	3640.85
2703.4259	3625.85
2706.03733	3589.85
2708.64714	3581.25
2711.25533	3619.25
2713.86191	3632.95
2716.46687	3621.25
2719.07021	3621.85
2721.67194	3612.85
2724.27206	3642.35
2726.87057	3616.25
2729.46747	3602.95
2732.06276	3601.05
2734.65644	3594.95
2737.24852	3598.05
2739.83899	3577.65
2742.42786	3581.95
2745.01513	3587.25
2747.60079	3569.55
2750.18486	3549.75
2752.76733	3567.75
2755.3482	3547.75
2757.92747	3543.95
2760.50515	3529.95
2763.08123	3523.35
2765.65573	3515.45
2768.22863	3515.05
2770.79994	3514.25
2773.36967	3505.85
2775.9378	3488.15
2778.50435	3492.45
2781.06932	3480.15
2783.6327	3478.25
2786.1945	3494.85
2788.75471	3469.55
2791.31335	3456.05
2793.87041	3459.05
2796.42589	3444.95
2798.97979	3439.45
2801.53212	3454.55
2804.08288	3442.85
2806.63206	3424.95
2809.17967	3398.35
2811.72571	3413.95
2814.27018	3391.45
2816.81308	3402.35
2819.35442	3344.15
2821.89419	3369.25
2824.43239	3353.15
2826.96904	3379.45
2829.50412	3353.05
2832.03763	3359.15
2834.56959	3354.55
2837.1	3341.15
2839.62884	3347.65
2842.15613	3337.95
2844.68186	3355.15
2847.20604	3310.35
2849.72867	3314.25
2852.24974	3313.05
2854.76927	3277.45
2857.28724	3242.05
2859.80367	3293.95
2862.31855	3297.45
2864.83189	3277.25
2867.34368	3284.45
2869.85393	3295.95
2872.36264	3264.55
2874.8698	3263.35
2877.37543	3271.25
2879.87952	3268.45
2882.38207	3250.55
2884.88308	3253.35
2887.38256	3263.15
2889.88051	3255.95
2892.37692	3238.25
2894.8718	3231.15
2897.36515	3252.55
2899.85698	3224.85
2902.34727	3229.95
2904.83604	3243.25
2907.32328	3246.45
2909.809	3245.95
2912.29319	3245.05
2914.77587	3250.65
2917.25702	3256.55
2919.73665	3263.55
2922.21476	3265.35
2924.69136	3253.65
2927.16644	3245.25
2929.64	3238.15
2932.11205	3237.75
2934.58258	3226.05
2937.05161	3214.95
2939.51912	3223.85
2941.98513	3225.35
2944.44962	3224.95
2946.91261	3179.15
2949.37409	3199.45
2951.83407	3187.55
2954.29254	3188.75
2956.74951	3191.05
2959.20498	3172.25
2961.65895	3167.75
2964.11142	3151.45
2966.56239	3158.45
2969.01186	3151.55
2971.45984	3150.05
2973.90632	3126.85
2976.35131	3157.75
2978.7948	3136.65
2981.23681	3139.55
2983.67732	3135.35
2986.11635	3128.95
2988.55388	3095.65
2990.98993	3118.95
2993.4245	3083.75
2995.85758	3069.85
2998.28917	3070.35
3000.71928	3062.15
3003.14791	3055.55
3005.57506	3042.85
3008.00073	3027.35
3010.42493	2969.75
3012.84764	3011.95
3015.26888	3022.65
3017.68865	3012.25
3020.10694	2969.05
3022.52376	2981.25
3024.9391	2977.45
3027.35298	2957.85
3029.76539	2960.75
3032.17632	2958.85
3034.5858	2936.55
3036.9938	2950.15
3039.40034	2945.25
3041.80542	2934.35
3044.20903	2906.65
3046.61118	2901.95
3049.01187	2929.55
3051.4111	2914.95
3053.80888	2897.15
3056.20519	2890.35
3058.60005	2859.15
3060.99345	2887.15
3063.3854	2861.05
3065.7759	2844.35
3068.16494	2834.55
3070.55254	2826.85
3072.93868	2846.75
3075.32338	2827.45
3077.70662	2823.25
3080.08842	2802.05
3082.46878	2789.25
3084.84769	2805.45
3087.22515	2790.35
3089.60118	2802.65
3091.97576	2788.95
3094.3489	2798.45
3096.72061	2780.55
3099.09087	2778.95
3101.4597	2783.55
3103.82709	2776.75
3106.19305	2755.55
3108.55757	2763.45
3110.92066	2757.25
3113.28232	2771.15
3115.64255	2760.75
3118.00134	2765.25
3120.35871	2733.55
3122.71466	2716.65
3125.06917	2720.65
3127.42226	2713.65
3129.77393	2687.35
3132.12417	2711.35
3134.47299	2705.05
3136.82039	2683.15
3139.16636	2652.55
3141.51092	2681.55
3143.85406	2680.35
3146.19579	2666.95
3148.53609	2658.75
3150.87499	2661.05
3153.21246	2665.35
3155.54853	2678.75
3157.88318	2682.25
3160.21642	2666.35
3162.54826	2670.55
3164.87868	2680.55
3167.2077	2632.25
3169.5353	2660.35
3171.86151	2660.35
3174.18631	2646.15
3176.5097	2632.85
3178.83169	2642.95
3181.15228	2641.25
3183.47147	2617.65
3185.78926	2585.55
3188.10565	2615.15
3190.42065	2594.35
3192.73424	2594.95
3195.04645	2589.75
3197.35725	2577.55
3199.66667	2580.95
3201.97469	2575.05
3204.28132	2558.85
3206.58656	2574.55
3208.8904	2584.15
3211.19287	2568.15
3213.49394	2564.95
3215.79363	2553.35
3218.09193	2560.15
3220.38884	2550.75
3222.68438	2559.05
3224.97853	2536.05
3227.2713	2554.85
3229.56269	2547.45
3231.8527	2540.55
3234.14133	2522.95
3236.42858	2523.45
3238.71446	2494.15
3240.99896	2518.85
3243.28209	2502.15
3245.56384	2506.75
3247.84423	2483.65
3250.12324	2488.45
3252.40088	2485.15
3254.67715	2470.15
3256.95205	2479.65
3259.22558	2486.45
3261.49775	2477.35
3263.76855	2463.05
3266.03799	2484.05
3268.30606	2480.85
3270.57277	2467.15
3272.83812	2446.85
3275.10211	2449.85
3277.36474	2453.45
3279.62601	2455.45
3281.88593	2421.75
3284.14448	2403.85
3286.40168	2415.45
3288.65753	2412.25
3290.91202	2427.45
3293.16516	2397.45
3295.41695	2409.55
3297.66738	2406.95
3299.91647	2377.85
3302.16421	2387.75
3304.4106	2347.15
3306.65564	2360.25
3308.89933	2321.25
3311.14169	2309.65
3313.38269	2286.35
3315.62236	2273.15
3317.86068	2262.55
3320.09766	2248.05
3322.3333	2205.15
3324.5676	2203.85
3326.80056	2171.35
3329.03219	2152.85
3331.26248	-0.55
3333.49143	-0.45
3335.71905	1.05
