Data from AgNPs_UA_10uM_CRN_500uM_SU_RamanShift__109__13-23-30-275.txt Node

Date: Thu Aug 04 13:23:30 BST 2022
User: TCL
Spectrometer: QEP01345
Trigger mode: 4
Integration Time (sec): 1.000000E0
Scans to average: 10
Electric dark correction enabled: true
Nonlinearity correction enabled: false
Boxcar width: 0
XAxis mode: Raman Shifts
Number of Pixels in Spectrum: 1044
>>>>>Begin Spectral Data<<<<<
46.04893	0.475
50.45542	-1.025
54.85868	1.075
59.25871	0.275
63.6555	22.175
68.04907	21.275
72.43941	21.375
76.82654	22.375
81.21044	23.075
85.59113	28.075
89.96862	26.475
94.34289	27.975
98.71396	27.375
103.08183	28.475
107.4465	27.175
111.80798	28.775
116.16626	29.175
120.52136	35.175
124.87327	36.575
129.222	36.475
133.56755	39.375
137.90993	43.375
142.24913	48.075
146.58517	52.875
150.91804	61.075
155.24774	78.475
159.57429	97.075
163.89768	128.275
168.21792	171.675
172.53501	234.975
176.84895	334.475
181.15975	469.175
185.46741	662.375
189.77193	925.675
194.07331	1240.475
198.37157	1607.475
202.6667	1990.675
206.9587	2358.575
211.24758	2734.275
215.53334	3124.375
219.81599	3529.675
224.09553	3991.175
228.37195	4505.375
232.64527	5033.875
236.91549	5568.875
241.18261	6081.075
245.44663	6466.975
249.70755	6807.375
253.96539	7070.675
258.22014	7368.875
262.4718	7574.675
266.72039	7697.175
270.96589	7767.575
275.20832	7726.975
279.44768	7621.075
283.68397	7527.875
287.91719	7441.875
292.14735	7422.775
296.37445	7536.575
300.59849	7734.275
304.81948	7996.375
309.03742	8227.075
313.25231	8331.075
317.46415	8261.475
321.67296	7979.175
325.87872	7683.375
330.08145	7543.575
334.28114	7543.375
338.47781	7628.275
342.67145	7780.975
346.86207	7981.275
351.04966	8273.175
355.23424	8559.475
359.4158	8818.975
363.59435	8947.475
367.76989	8965.975
371.94243	9006.775
376.11196	8979.675
380.27849	8983.575
384.44203	9001.875
388.60257	9043.075
392.76012	9113.575
396.91468	9222.275
401.06626	9403.775
405.21485	9451.075
409.36047	9330.575
413.50311	9058.875
417.64277	8823.375
421.77947	8635.275
425.9132	8566.975
430.04396	8560.675
434.17176	8630.075
438.2966	8741.475
442.41849	8918.875
446.53742	9109.275
450.6534	9334.275
454.76644	9476.275
458.87653	9518.775
462.98368	9526.875
467.08789	9401.275
471.18916	9235.475
475.2875	9058.575
479.38291	8896.375
483.4754	8756.675
487.56496	8691.575
491.6516	8658.075
495.73531	8653.675
499.81612	8696.475
503.89401	8774.175
507.96899	8799.375
512.04106	8847.575
516.11023	8913.775
520.1765	8963.475
524.23987	8952.275
528.30034	8952.975
532.35792	8944.375
536.41261	8861.375
540.46441	8747.575
544.51333	8720.275
548.55936	8776.775
552.60252	8901.275
556.64279	9055.575
560.6802	9187.275
564.71473	9266.775
568.7464	9376.375
572.7752	9382.675
576.80114	9147.275
580.82422	9010.575
584.84444	8951.775
588.86181	9015.775
592.87633	9103.075
596.888	9308.275
600.89682	9715.375
604.9028	10760.675
608.90594	12896.275
612.90624	14906.175
616.90371	13713.575
620.89834	10835.475
624.89015	9701.975
628.87913	9640.575
632.86528	9762.475
636.84862	9723.175
640.82913	9481.675
644.80683	9118.375
648.78172	8925.275
652.75379	8977.675
656.72306	9243.475
660.68952	9525.875
664.65319	9451.675
668.61405	9346.075
672.57211	9394.375
676.52738	9382.675
680.47986	9192.875
684.42955	9021.975
688.37646	9009.575
692.32058	9094.075
696.26192	9255.575
700.20048	9428.275
704.13626	9454.375
708.06928	9338.875
711.99952	9197.675
715.927	9198.175
719.85171	9266.875
723.77365	9270.675
727.69284	9212.875
731.60928	9133.775
735.52295	9119.275
739.43388	9165.875
743.34206	9224.875
747.24749	9232.275
751.15017	9264.075
755.05012	9350.075
758.94733	9688.275
762.8418	10433.675
766.73354	11579.875
770.62254	12506.775
774.50882	12707.475
778.39237	12261.475
782.27321	11403.775
786.15132	10509.175
790.02671	9863.275
793.89938	9564.075
797.76935	9376.275
801.6366	9314.175
805.50115	9238.075
809.36299	9219.775
813.22213	9198.475
817.07857	9194.175
820.93231	9171.575
824.78336	9167.975
828.63172	9182.975
832.47738	9220.875
836.32036	9200.975
840.16066	9203.375
843.99827	9223.375
847.8332	9215.975
851.66546	9233.775
855.49504	9242.275
859.32195	9238.575
863.1462	9225.875
866.96777	9218.675
870.78668	9217.275
874.60293	9222.475
878.41652	9271.475
882.22745	9354.175
886.03573	9391.875
889.84136	9402.075
893.64433	9368.475
897.44466	9304.575
901.24235	9281.475
905.0374	9287.075
908.8298	9240.475
912.61957	9252.675
916.40671	9273.975
920.19121	9293.175
923.97308	9385.175
927.75233	9480.275
931.52895	9579.975
935.30295	9495.975
939.07433	9355.175
942.84309	9227.575
946.60924	9194.975
950.37278	9168.975
954.13371	9137.975
957.89203	9120.875
961.64774	9098.375
965.40086	9102.175
969.15137	9081.975
972.89929	9065.275
976.64461	9095.975
980.38733	9088.975
984.12747	9139.375
987.86502	9198.275
991.59999	9268.775
995.33237	9382.375
999.06217	9570.175
1002.78939	9771.675
1006.51404	9931.975
1010.23611	10032.275
1013.95561	10146.275
1017.67255	10204.575
1021.38692	10204.575
1025.09872	10190.775
1028.80796	10214.775
1032.51465	10354.075
1036.21877	10463.375
1039.92035	10471.675
1043.61937	10406.275
1047.31584	10262.875
1051.00976	10157.575
1054.70114	10118.275
1058.38998	10126.975
1062.07627	10138.075
1065.76003	10173.275
1069.44126	10259.775
1073.11995	10424.175
1076.79611	10582.775
1080.46974	10705.475
1084.14085	10832.675
1087.80943	10922.375
1091.47549	10933.675
1095.13903	10866.375
1098.80005	10831.575
1102.45857	10874.175
1106.11456	10847.575
1109.76805	10723.475
1113.41903	10752.075
1117.06751	10885.875
1120.71348	11076.875
1124.35696	11260.775
1127.99793	11392.275
1131.63641	11250.975
1135.2724	10929.075
1138.90589	10694.175
1142.5369	10519.075
1146.16542	10404.975
1149.79145	10289.975
1153.415	10239.575
1157.03607	10253.075
1160.65467	10347.375
1164.27079	10573.975
1167.88443	10924.875
1171.49561	11451.375
1175.10432	12241.275
1178.71056	13281.175
1182.31434	14154.875
1185.91565	14554.875
1189.51451	14511.075
1193.11091	14151.375
1196.70485	13715.975
1200.29634	13276.175
1203.88538	12829.275
1207.47197	12342.475
1211.05612	11889.875
1214.63782	11512.375
1218.21708	11320.375
1221.79391	11233.375
1225.36829	11268.475
1228.94024	11233.075
1232.50976	11164.575
1236.07685	11118.375
1239.6415	11138.875
1243.20374	11209.375
1246.76355	11263.975
1250.32093	11392.675
1253.8759	11585.975
1257.42845	11895.875
1260.97859	12241.275
1264.52631	12547.975
1268.07163	12820.975
1271.61453	12963.775
1275.15503	13120.375
1278.69312	13234.075
1282.22882	13333.675
1285.76211	13469.175
1289.29301	13642.975
1292.82151	13880.275
1296.34761	14183.075
1299.87133	14671.175
1303.39266	15550.775
1306.9116	16761.475
1310.42815	18033.975
1313.94233	18610.275
1317.45412	18114.875
1320.96354	17110.275
1324.47058	16075.675
1327.97525	15241.375
1331.47754	14731.175
1334.97747	14613.975
1338.47502	14772.475
1341.97022	15277.075
1345.46305	15974.275
1348.95352	16959.675
1352.44163	18043.475
1355.92738	19195.575
1359.41078	20606.175
1362.89183	21551.975
1366.37053	20493.075
1369.84688	17821.575
1373.32088	15466.975
1376.79254	14112.475
1380.26186	13462.375
1383.72883	13071.975
1387.19347	12725.875
1390.65578	12353.975
1394.11575	12042.775
1397.57339	11794.375
1401.0287	11720.075
1404.48168	11751.275
1407.93234	11850.275
1411.38068	12052.975
1414.82669	12253.075
1418.27039	12263.475
1421.71177	12216.875
1425.15083	12145.075
1428.58758	12103.175
1432.02203	12233.175
1435.45416	12330.675
1438.88399	12313.275
1442.31151	12256.875
1445.73673	12226.275
1449.15965	12172.275
1452.58027	12139.575
1455.9986	12042.475
1459.41463	12042.875
1462.82837	12114.875
1466.23982	12296.175
1469.64898	12508.075
1473.05586	12668.975
1476.46045	12844.475
1479.86276	12976.675
1483.26279	13115.975
1486.66054	13338.075
1490.05602	13706.175
1493.44922	14219.275
1496.84016	14977.175
1500.22882	16109.975
1503.61521	17466.075
1506.99934	18785.075
1510.38121	19579.575
1513.76081	19287.175
1517.13816	17984.675
1520.51324	16270.475
1523.88607	14915.075
1527.25665	14056.175
1530.62498	13660.875
1533.99105	13411.675
1537.35488	13304.575
1540.71647	13186.975
1544.07581	13094.875
1547.4329	12971.375
1550.78776	12844.775
1554.14038	12734.575
1557.49077	12685.875
1560.83892	12824.075
1564.18484	13080.375
1567.52853	13340.975
1570.86999	13475.175
1574.20922	13492.275
1577.54624	13320.175
1580.88103	12812.375
1584.2136	12314.175
1587.54395	12136.375
1590.87208	12330.575
1594.19801	12907.275
1597.52172	13576.575
1600.84321	13883.475
1604.16251	13744.375
1607.47959	13370.175
1610.79447	12809.575
1614.10715	12147.175
1617.41763	11489.375
1620.7259	11037.875
1624.03199	10817.475
1627.33587	10788.175
1630.63757	10998.275
1633.93707	11450.575
1637.23439	12224.675
1640.52951	13304.875
1643.82246	14595.275
1647.11321	15770.175
1650.40179	16126.275
1653.68819	15145.075
1656.97241	13383.075
1660.25446	11777.375
1663.53433	10679.775
1666.81203	10080.775
1670.08756	9696.275
1673.36092	9453.975
1676.63211	9311.175
1679.90115	9179.075
1683.16801	9074.875
1686.43272	9007.575
1689.69527	8949.975
1692.95567	8912.775
1696.2139	8850.775
1699.46999	8856.975
1702.72392	8829.075
1705.97571	8836.075
1709.22535	8844.475
1712.47284	8836.075
1715.71819	8854.675
1718.96139	8845.175
1722.20246	8807.475
1725.44139	8790.975
1728.67818	8726.575
1731.91284	8682.175
1735.14537	8633.975
1738.37576	8602.675
1741.60403	8584.075
1744.83017	8565.975
1748.05418	8542.575
1751.27607	8531.875
1754.49584	8494.575
1757.71349	8505.475
1760.92903	8499.575
1764.14244	8467.575
1767.35375	8452.275
1770.56294	8442.975
1773.77002	8441.275
1776.97499	8409.975
1780.17785	8370.675
1783.37861	8358.475
1786.57727	8359.475
1789.77382	8339.675
1792.96828	8331.675
1796.16064	8305.675
1799.3509	8304.475
1802.53907	8313.975
1805.72514	8296.875
1808.90913	8266.675
1812.09102	8231.875
1815.27083	8214.875
1818.44856	8196.775
1821.6242	8161.875
1824.79776	8171.375
1827.96924	8162.275
1831.13864	8136.175
1834.30597	8146.575
1837.47122	8127.075
1840.6344	8103.275
1843.7955	8095.775
1846.95454	8118.075
1850.11151	8097.275
1853.26642	8090.775
1856.41926	8092.775
1859.57004	8110.875
1862.71876	8098.975
1865.86542	8091.075
1869.01003	8065.675
1872.15258	8076.675
1875.29308	8049.675
1878.43152	8024.375
1881.56792	8044.775
1884.70227	7992.375
1887.83457	7997.675
1890.96482	7984.275
1894.09304	7953.875
1897.21921	7954.175
1900.34335	7939.575
1903.46544	7945.375
1906.58551	7936.575
1909.70353	7908.675
1912.81953	7922.275
1915.93349	7916.275
1919.04543	7898.275
1922.15534	7898.775
1925.26322	7888.075
1928.36908	7860.975
1931.47292	7821.075
1934.57473	7821.575
1937.67453	7804.475
1940.77232	7788.875
1943.86808	7765.575
1946.96184	7732.175
1950.05358	7737.175
1953.14331	7706.675
1956.23103	7681.575
1959.31675	7651.975
1962.40046	7643.075
1965.48217	7615.575
1968.56188	7585.975
1971.63959	7562.975
1974.7153	7569.275
1977.78901	7540.275
1980.86073	7519.475
1983.93046	7509.475
1986.99819	7457.175
1990.06394	7450.575
1993.1277	7422.675
1996.18947	7390.775
1999.24925	7365.075
2002.30706	7362.175
2005.36288	7318.275
2008.41672	7281.875
2011.46859	7256.475
2014.51848	7251.875
2017.56639	7223.075
2020.61233	7206.375
2023.6563	7196.375
2026.6983	7174.275
2029.73833	7150.475
2032.7764	7118.375
2035.8125	7114.475
2038.84664	7102.475
2041.87881	7078.375
2044.90903	7077.975
2047.93729	7062.975
2050.96359	7063.275
2053.98794	7043.175
2057.01034	7036.175
2060.03078	7038.875
2063.04927	7023.075
2066.06582	7017.875
2069.08042	7009.175
2072.09307	6999.875
2075.10378	6997.375
2078.11255	6996.875
2081.11938	6989.975
2084.12426	6962.375
2087.12722	6959.775
2090.12824	6977.375
2093.12732	6957.875
2096.12447	6970.475
2099.11969	6989.475
2102.11299	6964.875
2105.10435	6970.075
2108.09379	6966.375
2111.08131	6974.975
2114.0669	6986.175
2117.05057	6991.775
2120.03233	7004.275
2123.01216	6992.375
2125.99008	6985.775
2128.96609	7020.575
2131.94018	7010.275
2134.91236	6997.075
2137.88263	6999.375
2140.851	6993.075
2143.81746	7004.875
2146.78201	6989.375
2149.74466	6981.075
2152.7054	6988.175
2155.66425	6991.675
2158.6212	6994.875
2161.57625	6972.375
2164.52941	6977.775
2167.48067	6975.975
2170.43004	6978.775
2173.37752	6968.175
2176.32311	6960.375
2179.26681	6970.875
2182.20863	6980.775
2185.14856	6982.375
2188.08661	6977.575
2191.02278	6971.975
2193.95707	6975.475
2196.88948	6947.275
2199.82001	6968.175
2202.74867	6946.775
2205.67545	6953.275
2208.60037	6941.675
2211.52341	6927.975
2214.44458	6911.175
2217.36388	6908.175
2220.28132	6895.575
2223.1969	6862.975
2226.11061	6843.575
2229.02246	6814.175
2231.93245	6820.775
2234.84058	6793.075
2237.74686	6795.975
2240.65128	6784.675
2243.55385	6747.975
2246.45456	6761.275
2249.35343	6755.675
2252.25044	6736.975
2255.14561	6755.075
2258.03893	6742.375
2260.93041	6733.375
2263.82004	6737.675
2266.70783	6710.275
2269.59378	6710.375
2272.4779	6661.075
2275.36017	6645.675
2278.24061	6638.875
2281.11922	6608.075
2283.996	6609.075
2286.87094	6600.875
2289.74405	6598.075
2292.61534	6572.775
2295.4848	6570.975
2298.35243	6555.475
2301.21824	6547.975
2304.08223	6552.075
2306.94439	6548.475
2309.80474	6561.775
2312.66327	6552.575
2315.51999	6538.675
2318.37489	6543.175
2321.22797	6552.375
2324.07925	6531.275
2326.92871	6503.075
2329.77637	6498.875
2332.62222	6480.875
2335.46626	6474.775
2338.3085	6479.975
2341.14893	6487.675
2343.98756	6496.775
2346.8244	6511.375
2349.65943	6457.075
2352.49267	6461.275
2355.32411	6466.375
2358.15376	6460.275
2360.98161	6461.975
2363.80768	6451.675
2366.63195	6445.475
2369.45444	6439.775
2372.27514	6439.075
2375.09405	6426.175
2377.91118	6388.075
2380.72652	6397.675
2383.54009	6365.975
2386.35187	6362.775
2389.16188	6345.075
2391.97011	6333.275
2394.77657	6306.575
2397.58125	6311.075
2400.38416	6294.275
2403.18529	6275.075
2405.98466	6270.375
2408.78226	6244.475
2411.57809	6227.475
2414.37216	6229.075
2417.16446	6239.375
2419.955	6214.175
2422.74378	6209.675
2425.5308	6189.675
2428.31606	6218.975
2431.09956	6190.775
2433.88131	6192.175
2436.6613	6183.875
2439.43954	6161.975
2442.21603	6185.375
2444.99077	6194.275
2447.76377	6166.275
2450.53501	6187.675
2453.30451	6164.875
2456.07226	6147.275
2458.83827	6143.375
2461.60254	6148.975
2464.36507	6132.675
2467.12586	6109.075
2469.88492	6121.775
2472.64224	6128.275
2475.39782	6125.075
2478.15167	6111.275
2480.90379	6113.975
2483.65417	6107.575
2486.40283	6105.875
2489.14976	6119.675
2491.89497	6105.775
2494.63845	6105.275
2497.3802	6111.475
2500.12024	6086.875
2502.85855	6093.175
2505.59514	6089.475
2508.33002	6066.875
2511.06318	6055.275
2513.79462	6033.975
2516.52435	6031.875
2519.25237	6019.675
2521.97867	6001.875
2524.70327	6002.875
2527.42616	5988.775
2530.14734	5986.175
2532.86681	5961.675
2535.58458	5991.175
2538.30065	6006.575
2541.01501	5964.275
2543.72768	5963.675
2546.43864	5969.575
2549.14791	5957.075
2551.85548	5964.275
2554.56136	5937.875
2557.26554	5932.075
2559.96803	5918.475
2562.66883	5913.475
2565.36794	5904.675
2568.06536	5869.675
2570.7611	5860.075
2573.45514	5841.575
2576.14751	5860.775
2578.83819	5824.475
2581.52719	5835.675
2584.21451	5826.375
2586.90015	5818.375
2589.58411	5819.075
2592.2664	5813.875
2594.94701	5801.075
2597.62594	5797.175
2600.30321	5788.375
2602.9788	5798.175
2605.65273	5789.875
2608.32498	5778.575
2610.99557	5776.275
2613.66449	5767.575
2616.33175	5753.375
2618.99734	5746.475
2621.66128	5742.575
2624.32355	5741.675
2626.98416	5746.575
2629.64311	5716.975
2632.30041	5720.975
2634.95605	5720.975
2637.61004	5705.175
2640.26238	5697.675
2642.91306	5694.875
2645.56209	5689.775
2648.20948	5688.175
2650.85521	5675.975
2653.4993	5654.275
2656.14175	5671.175
2658.78255	5651.675
2661.42171	5657.075
2664.05923	5673.375
2666.6951	5672.475
2669.32934	5688.475
2671.96194	5677.075
2674.59291	5679.275
2677.22224	5673.075
2679.84993	5677.975
2682.476	5671.075
2685.10043	5666.675
2687.72324	5657.475
2690.34441	5670.775
2692.96396	5655.675
2695.58188	5652.575
2698.19818	5636.175
2700.81285	5646.275
2703.4259	5624.575
2706.03733	5620.375
2708.64714	5609.875
2711.25533	5617.675
2713.86191	5617.275
2716.46687	5628.175
2719.07021	5632.875
2721.67194	5640.175
2724.27206	5624.775
2726.87057	5616.975
2729.46747	5627.775
2732.06276	5637.775
2734.65644	5616.175
2737.24852	5601.275
2739.83899	5601.775
2742.42786	5592.575
2745.01513	5583.175
2747.60079	5574.975
2750.18486	5587.175
2752.76733	5548.275
2755.3482	5562.575
2757.92747	5539.575
2760.50515	5533.775
2763.08123	5538.275
2765.65573	5518.175
2768.22863	5516.875
2770.79994	5493.575
2773.36967	5517.375
2775.9378	5494.275
2778.50435	5492.275
2781.06932	5491.775
2783.6327	5485.375
2786.1945	5501.275
2788.75471	5454.475
2791.31335	5449.375
2793.87041	5465.775
2796.42589	5431.875
2798.97979	5414.175
2801.53212	5410.875
2804.08288	5390.975
2806.63206	5393.875
2809.17967	5385.075
2811.72571	5365.375
2814.27018	5369.375
2816.81308	5353.375
2819.35442	5353.875
2821.89419	5341.375
2824.43239	5330.075
2826.96904	5327.375
2829.50412	5307.275
2832.03763	5301.875
2834.56959	5296.875
2837.1	5275.275
2839.62884	5278.475
2842.15613	5268.975
2844.68186	5268.975
2847.20604	5264.475
2849.72867	5265.275
2852.24974	5243.875
2854.76927	5221.575
2857.28724	5227.375
2859.80367	5222.975
2862.31855	5220.975
2864.83189	5205.575
2867.34368	5226.675
2869.85393	5199.375
2872.36264	5205.175
2874.8698	5187.375
2877.37543	5198.075
2879.87952	5179.775
2882.38207	5180.875
2884.88308	5173.375
2887.38256	5168.675
2889.88051	5165.375
2892.37692	5153.875
2894.8718	5149.875
2897.36515	5154.275
2899.85698	5143.675
2902.34727	5153.675
2904.83604	5170.075
2907.32328	5175.175
2909.809	5159.375
2912.29319	5187.175
2914.77587	5163.875
2917.25702	5187.075
2919.73665	5186.775
2922.21476	5175.475
2924.69136	5174.675
2927.16644	5162.875
2929.64	5160.775
2932.11205	5121.875
2934.58258	5117.475
2937.05161	5128.375
2939.51912	5117.475
2941.98513	5122.275
2944.44962	5096.275
2946.91261	5072.875
2949.37409	5113.675
2951.83407	5106.575
2954.29254	5086.575
2956.74951	5094.275
2959.20498	5070.375
2961.65895	5082.675
2964.11142	5087.075
2966.56239	5073.375
2969.01186	5070.475
2971.45984	5063.575
2973.90632	5063.875
2976.35131	5057.375
2978.7948	5040.075
2981.23681	5033.975
2983.67732	5011.975
2986.11635	4992.075
2988.55388	4994.875
2990.98993	4984.975
2993.4245	4971.375
2995.85758	4953.075
2998.28917	4938.275
3000.71928	4925.775
3003.14791	4911.775
3005.57506	4905.775
3008.00073	4883.375
3010.42493	4883.575
3012.84764	4870.475
3015.26888	4873.075
3017.68865	4872.175
3020.10694	4845.275
3022.52376	4822.075
3024.9391	4826.575
3027.35298	4796.875
3029.76539	4784.775
3032.17632	4792.175
3034.5858	4780.175
3036.9938	4784.775
3039.40034	4763.975
3041.80542	4741.875
3044.20903	4740.375
3046.61118	4756.175
3049.01187	4714.675
3051.4111	4709.375
3053.80888	4693.675
3056.20519	4672.875
3058.60005	4671.575
3060.99345	4673.375
3063.3854	4654.275
3065.7759	4659.675
3068.16494	4626.375
3070.55254	4614.475
3072.93868	4585.375
3075.32338	4596.275
3077.70662	4583.375
3080.08842	4572.075
3082.46878	4558.475
3084.84769	4562.475
3087.22515	4532.375
3089.60118	4551.875
3091.97576	4548.475
3094.3489	4536.775
3096.72061	4530.675
3099.09087	4520.175
3101.4597	4533.575
3103.82709	4524.075
3106.19305	4531.875
3108.55757	4519.675
3110.92066	4501.575
3113.28232	4484.175
3115.64255	4480.475
3118.00134	4480.175
3120.35871	4478.875
3122.71466	4461.575
3125.06917	4450.175
3127.42226	4437.575
3129.77393	4430.475
3132.12417	4400.375
3134.47299	4413.975
3136.82039	4389.475
3139.16636	4408.975
3141.51092	4409.875
3143.85406	4401.075
3146.19579	4398.575
3148.53609	4400.575
3150.87499	4388.475
3153.21246	4392.875
3155.54853	4388.275
3157.88318	4378.375
3160.21642	4376.775
3162.54826	4382.075
3164.87868	4385.775
3167.2077	4350.775
3169.5353	4349.775
3171.86151	4345.975
3174.18631	4334.275
3176.5097	4330.075
3178.83169	4324.475
3181.15228	4322.775
3183.47147	4310.075
3185.78926	4291.375
3188.10565	4284.375
3190.42065	4277.475
3192.73424	4280.175
3195.04645	4257.175
3197.35725	4270.175
3199.66667	4252.475
3201.97469	4254.075
3204.28132	4260.275
3206.58656	4259.875
3208.8904	4266.675
3211.19287	4268.475
3213.49394	4267.475
3215.79363	4262.675
