Data from AgNPs_UA_10uM_CRN_500uM_SU_RamanShift__78__13-18-20-269.txt Node

Date: Thu Aug 04 13:18:20 BST 2022
User: TCL
Spectrometer: QEP01345
Trigger mode: 4
Integration Time (sec): 1.000000E0
Scans to average: 10
Electric dark correction enabled: true
Nonlinearity correction enabled: false
Boxcar width: 0
XAxis mode: Raman Shifts
Number of Pixels in Spectrum: 1044
>>>>>Begin Spectral Data<<<<<
46.04893	-0.6875
50.45542	-1.2875
54.85868	1.6125
59.25871	0.1125
63.6555	22.5125
68.04907	22.5125
72.43941	23.4125
76.82654	23.9125
81.21044	24.0125
85.59113	26.4125
89.96862	26.7125
94.34289	27.8125
98.71396	28.9125
103.08183	29.3125
107.4465	29.6125
111.80798	32.5125
116.16626	31.6125
120.52136	34.6125
124.87327	36.6125
129.222	36.8125
133.56755	41.0125
137.90993	42.2125
142.24913	49.8125
146.58517	53.8125
150.91804	64.1125
155.24774	79.1125
159.57429	101.7125
163.89768	129.6125
168.21792	177.5125
172.53501	238.2125
176.84895	337.1125
181.15975	475.9125
185.46741	675.7125
189.77193	940.6125
194.07331	1262.0125
198.37157	1635.4125
202.6667	2022.4125
206.9587	2401.1125
211.24758	2796.2125
215.53334	3169.9125
219.81599	3590.9125
224.09553	4039.0125
228.37195	4536.9125
232.64527	5084.7125
236.91549	5641.3125
241.18261	6137.7125
245.44663	6589.0125
249.70755	6939.0125
253.96539	7242.2125
258.22014	7554.7125
262.4718	7772.9125
266.72039	7913.1125
270.96589	8001.6125
275.20832	7957.0125
279.44768	7854.9125
283.68397	7728.2125
287.91719	7664.4125
292.14735	7655.5125
296.37445	7728.8125
300.59849	7902.3125
304.81948	8100.5125
309.03742	8285.3125
313.25231	8358.5125
317.46415	8296.3125
321.67296	8066.8125
325.87872	7831.1125
330.08145	7744.4125
334.28114	7750.3125
338.47781	7825.5125
342.67145	7945.9125
346.86207	8144.0125
351.04966	8403.0125
355.23424	8684.2125
359.4158	8893.7125
363.59435	9020.5125
367.76989	9081.0125
371.94243	9111.8125
376.11196	9135.4125
380.27849	9172.1125
384.44203	9212.8125
388.60257	9315.6125
392.76012	9388.2125
396.91468	9507.0125
401.06626	9629.6125
405.21485	9698.8125
409.36047	9626.4125
413.50311	9430.2125
417.64277	9205.4125
421.77947	9060.3125
425.9132	9004.1125
430.04396	9008.7125
434.17176	9042.6125
438.2966	9146.2125
442.41849	9300.3125
446.53742	9498.1125
450.6534	9721.7125
454.76644	9866.6125
458.87653	9941.2125
462.98368	9972.7125
467.08789	9874.5125
471.18916	9730.7125
475.2875	9521.6125
479.38291	9365.6125
483.4754	9260.1125
487.56496	9166.2125
491.6516	9147.9125
495.73531	9139.3125
499.81612	9164.9125
503.89401	9246.4125
507.96899	9293.3125
512.04106	9311.3125
516.11023	9366.8125
520.1765	9385.0125
524.23987	9435.7125
528.30034	9399.1125
532.35792	9402.8125
536.41261	9332.8125
540.46441	9232.0125
544.51333	9226.5125
548.55936	9288.2125
552.60252	9402.6125
556.64279	9543.6125
560.6802	9661.6125
564.71473	9728.4125
568.7464	9768.9125
572.7752	9710.4125
576.80114	9562.3125
580.82422	9414.2125
584.84444	9427.7125
588.86181	9453.4125
592.87633	9550.4125
596.888	9710.9125
600.89682	10126.6125
604.9028	11139.7125
608.90594	13045.2125
612.90624	14791.9125
616.90371	13683.0125
620.89834	11121.1125
624.89015	10159.9125
628.87913	10115.7125
632.86528	10215.6125
636.84862	10227.4125
640.82913	9979.3125
644.80683	9684.8125
648.78172	9487.3125
652.75379	9494.7125
656.72306	9757.1125
660.68952	10039.1125
664.65319	9991.8125
668.61405	9944.1125
672.57211	10063.0125
676.52738	10059.3125
680.47986	9814.5125
684.42955	9616.5125
688.37646	9567.9125
692.32058	9664.7125
696.26192	9884.0125
700.20048	10038.6125
704.13626	10082.4125
708.06928	9935.6125
711.99952	9828.2125
715.927	9822.6125
719.85171	9854.6125
723.77365	9870.7125
727.69284	9779.7125
731.60928	9708.3125
735.52295	9710.1125
739.43388	9753.6125
743.34206	9826.1125
747.24749	9803.0125
751.15017	9826.8125
755.05012	9938.4125
758.94733	10207.2125
762.8418	10863.2125
766.73354	11845.1125
770.62254	12689.4125
774.50882	12919.1125
778.39237	12621.0125
782.27321	11942.3125
786.15132	11105.6125
790.02671	10496.1125
793.89938	10161.4125
797.76935	10004.4125
801.6366	9905.4125
805.50115	9839.5125
809.36299	9838.1125
813.22213	9793.2125
817.07857	9806.4125
820.93231	9814.0125
824.78336	9817.0125
828.63172	9825.6125
832.47738	9837.6125
836.32036	9832.5125
840.16066	9858.1125
843.99827	9842.9125
847.8332	9838.6125
851.66546	9858.3125
855.49504	9854.5125
859.32195	9882.7125
863.1462	9865.3125
866.96777	9840.1125
870.78668	9873.7125
874.60293	9875.1125
878.41652	9940.7125
882.22745	10015.0125
886.03573	10062.5125
889.84136	10039.2125
893.64433	10006.8125
897.44466	9980.1125
901.24235	9957.2125
905.0374	9935.6125
908.8298	9919.7125
912.61957	9907.9125
916.40671	9913.2125
920.19121	9939.0125
923.97308	10015.4125
927.75233	10070.9125
931.52895	10171.3125
935.30295	10124.9125
939.07433	9974.8125
942.84309	9899.4125
946.60924	9832.4125
950.37278	9845.1125
954.13371	9795.2125
957.89203	9808.5125
961.64774	9785.2125
965.40086	9776.3125
969.15137	9753.5125
972.89929	9761.9125
976.64461	9765.0125
980.38733	9791.9125
984.12747	9826.3125
987.86502	9894.8125
991.59999	9932.8125
995.33237	10030.6125
999.06217	10188.5125
1002.78939	10377.7125
1006.51404	10534.1125
1010.23611	10663.0125
1013.95561	10784.9125
1017.67255	10834.3125
1021.38692	10845.8125
1025.09872	10796.2125
1028.80796	10795.2125
1032.51465	10888.9125
1036.21877	10969.0125
1039.92035	10949.8125
1043.61937	10921.8125
1047.31584	10859.4125
1051.00976	10781.3125
1054.70114	10737.7125
1058.38998	10800.9125
1062.07627	10857.3125
1065.76003	10915.7125
1069.44126	11024.0125
1073.11995	11198.8125
1076.79611	11352.0125
1080.46974	11494.3125
1084.14085	11565.0125
1087.80943	11615.6125
1091.47549	11642.9125
1095.13903	11643.6125
1098.80005	11679.5125
1102.45857	11775.5125
1106.11456	11774.9125
1109.76805	11621.6125
1113.41903	11579.0125
1117.06751	11650.8125
1120.71348	11800.3125
1124.35696	11927.3125
1127.99793	12003.9125
1131.63641	11858.2125
1135.2724	11610.5125
1138.90589	11384.6125
1142.5369	11227.0125
1146.16542	11126.5125
1149.79145	11047.0125
1153.415	10936.7125
1157.03607	10954.3125
1160.65467	11036.1125
1164.27079	11270.9125
1167.88443	11621.9125
1171.49561	12097.5125
1175.10432	12790.9125
1178.71056	13675.0125
1182.31434	14510.7125
1185.91565	14921.7125
1189.51451	15023.7125
1193.11091	14847.7125
1196.70485	14557.7125
1200.29634	14152.2125
1203.88538	13680.1125
1207.47197	13216.0125
1211.05612	12732.9125
1214.63782	12338.6125
1218.21708	12109.3125
1221.79391	11966.6125
1225.36829	11975.3125
1228.94024	11955.4125
1232.50976	11914.5125
1236.07685	11924.9125
1239.6415	11958.5125
1243.20374	11983.4125
1246.76355	12098.6125
1250.32093	12187.2125
1253.8759	12356.8125
1257.42845	12654.9125
1260.97859	13002.1125
1264.52631	13286.8125
1268.07163	13522.0125
1271.61453	13681.5125
1275.15503	13770.5125
1278.69312	13841.9125
1282.22882	13924.6125
1285.76211	14035.0125
1289.29301	14149.3125
1292.82151	14370.3125
1296.34761	14619.8125
1299.87133	15055.0125
1303.39266	15758.0125
1306.9116	16777.8125
1310.42815	17856.4125
1313.94233	18372.6125
1317.45412	18027.8125
1320.96354	17220.5125
1324.47058	16429.2125
1327.97525	15725.5125
1331.47754	15323.9125
1334.97747	15244.5125
1338.47502	15480.7125
1341.97022	16001.7125
1345.46305	16767.3125
1348.95352	17764.5125
1352.44163	18774.3125
1355.92738	19800.3125
1359.41078	20901.1125
1362.89183	21411.0125
1366.37053	20320.3125
1369.84688	17992.1125
1373.32088	15837.5125
1376.79254	14646.0125
1380.26186	14024.5125
1383.72883	13665.2125
1387.19347	13357.0125
1390.65578	13003.3125
1394.11575	12674.1125
1397.57339	12417.4125
1401.0287	12338.8125
1404.48168	12397.2125
1407.93234	12546.7125
1411.38068	12767.1125
1414.82669	12985.3125
1418.27039	13006.7125
1421.71177	12912.5125
1425.15083	12831.0125
1428.58758	12806.3125
1432.02203	12862.5125
1435.45416	12929.7125
1438.88399	12896.9125
1442.31151	12832.5125
1445.73673	12827.5125
1449.15965	12797.1125
1452.58027	12749.4125
1455.9986	12684.5125
1459.41463	12656.8125
1462.82837	12783.7125
1466.23982	12981.9125
1469.64898	13223.3125
1473.05586	13384.8125
1476.46045	13552.9125
1479.86276	13662.3125
1483.26279	13829.5125
1486.66054	14052.9125
1490.05602	14402.5125
1493.44922	14907.7125
1496.84016	15668.2125
1500.22882	16712.8125
1503.61521	17893.5125
1506.99934	18957.8125
1510.38121	19462.7125
1513.76081	19143.8125
1517.13816	17976.6125
1520.51324	16494.9125
1523.88607	15324.8125
1527.25665	14614.9125
1530.62498	14278.7125
1533.99105	14101.9125
1537.35488	14012.3125
1540.71647	13915.4125
1544.07581	13800.3125
1547.4329	13661.9125
1550.78776	13533.7125
1554.14038	13379.2125
1557.49077	13331.8125
1560.83892	13450.7125
1564.18484	13640.7125
1567.52853	13862.7125
1570.86999	14002.1125
1574.20922	13976.0125
1577.54624	13828.9125
1580.88103	13394.7125
1584.2136	12951.7125
1587.54395	12756.6125
1590.87208	12919.1125
1594.19801	13425.3125
1597.52172	14061.5125
1600.84321	14358.9125
1604.16251	14289.7125
1607.47959	13968.1125
1610.79447	13493.6125
1614.10715	12838.0125
1617.41763	12230.4125
1620.7259	11751.2125
1624.03199	11493.3125
1627.33587	11452.8125
1630.63757	11612.7125
1633.93707	12037.5125
1637.23439	12730.8125
1640.52951	13751.8125
1643.82246	14956.8125
1647.11321	16010.1125
1650.40179	16226.1125
1653.68819	15298.2125
1656.97241	13690.3125
1660.25446	12239.9125
1663.53433	11279.3125
1666.81203	10694.9125
1670.08756	10350.4125
1673.36092	10135.2125
1676.63211	9997.8125
1679.90115	9851.9125
1683.16801	9772.9125
1686.43272	9701.8125
1689.69527	9630.7125
1692.95567	9581.3125
1696.2139	9569.2125
1699.46999	9545.9125
1702.72392	9516.2125
1705.97571	9504.8125
1709.22535	9502.5125
1712.47284	9512.6125
1715.71819	9521.7125
1718.96139	9493.4125
1722.20246	9475.8125
1725.44139	9472.6125
1728.67818	9415.1125
1731.91284	9364.0125
1735.14537	9316.3125
1738.37576	9270.0125
1741.60403	9239.2125
1744.83017	9230.3125
1748.05418	9210.0125
1751.27607	9189.9125
1754.49584	9158.7125
1757.71349	9169.1125
1760.92903	9173.4125
1764.14244	9123.9125
1767.35375	9117.1125
1770.56294	9127.5125
1773.77002	9109.6125
1776.97499	9068.2125
1780.17785	9020.2125
1783.37861	9020.9125
1786.57727	8993.2125
1789.77382	9006.1125
1792.96828	9001.2125
1796.16064	8977.0125
1799.3509	8944.8125
1802.53907	8956.8125
1805.72514	8950.6125
1808.90913	8910.6125
1812.09102	8889.3125
1815.27083	8865.8125
1818.44856	8853.5125
1821.6242	8849.8125
1824.79776	8817.9125
1827.96924	8800.2125
1831.13864	8791.5125
1834.30597	8785.2125
1837.47122	8741.4125
1840.6344	8742.4125
1843.7955	8739.4125
1846.95454	8723.6125
1850.11151	8743.2125
1853.26642	8706.7125
1856.41926	8709.9125
1859.57004	8719.0125
1862.71876	8735.0125
1865.86542	8699.5125
1869.01003	8724.7125
1872.15258	8676.9125
1875.29308	8690.2125
1878.43152	8668.2125
1881.56792	8667.2125
1884.70227	8648.9125
1887.83457	8613.3125
1890.96482	8616.1125
1894.09304	8600.9125
1897.21921	8574.8125
1900.34335	8582.2125
1903.46544	8556.7125
1906.58551	8564.8125
1909.70353	8571.8125
1912.81953	8536.4125
1915.93349	8547.6125
1919.04543	8521.9125
1922.15534	8490.2125
1925.26322	8482.8125
1928.36908	8484.9125
1931.47292	8444.4125
1934.57473	8418.6125
1937.67453	8437.1125
1940.77232	8430.9125
1943.86808	8384.5125
1946.96184	8331.6125
1950.05358	8317.7125
1953.14331	8302.4125
1956.23103	8288.5125
1959.31675	8264.2125
1962.40046	8208.3125
1965.48217	8196.7125
1968.56188	8168.8125
1971.63959	8146.5125
1974.7153	8139.7125
1977.78901	8121.8125
1980.86073	8113.2125
1983.93046	8070.2125
1986.99819	8030.6125
1990.06394	8020.3125
1993.1277	7971.7125
1996.18947	7954.3125
1999.24925	7934.4125
2002.30706	7892.0125
2005.36288	7867.2125
2008.41672	7836.5125
2011.46859	7827.5125
2014.51848	7795.3125
2017.56639	7760.1125
2020.61233	7755.6125
2023.6563	7721.1125
2026.6983	7712.9125
2029.73833	7695.9125
2032.7764	7659.0125
2035.8125	7648.6125
2038.84664	7655.6125
2041.87881	7631.1125
2044.90903	7610.1125
2047.93729	7607.6125
2050.96359	7590.3125
2053.98794	7583.7125
2057.01034	7546.9125
2060.03078	7567.4125
2063.04927	7549.0125
2066.06582	7538.0125
2069.08042	7520.4125
2072.09307	7520.9125
2075.10378	7516.8125
2078.11255	7512.0125
2081.11938	7493.2125
2084.12426	7485.9125
2087.12722	7475.8125
2090.12824	7480.2125
2093.12732	7474.3125
2096.12447	7488.2125
2099.11969	7500.7125
2102.11299	7492.9125
2105.10435	7490.3125
2108.09379	7500.1125
2111.08131	7496.9125
2114.0669	7489.5125
2117.05057	7518.6125
2120.03233	7496.6125
2123.01216	7509.9125
2125.99008	7508.2125
2128.96609	7526.6125
2131.94018	7514.1125
2134.91236	7514.0125
2137.88263	7498.2125
2140.851	7509.5125
2143.81746	7508.1125
2146.78201	7495.4125
2149.74466	7493.3125
2152.7054	7506.2125
2155.66425	7500.0125
2158.6212	7503.3125
2161.57625	7482.6125
2164.52941	7494.6125
2167.48067	7499.5125
2170.43004	7469.1125
2173.37752	7433.4125
2176.32311	7471.9125
2179.26681	7486.5125
2182.20863	7470.1125
2185.14856	7481.8125
2188.08661	7456.1125
2191.02278	7475.5125
2193.95707	7470.3125
2196.88948	7463.1125
2199.82001	7456.9125
2202.74867	7424.0125
2205.67545	7450.9125
2208.60037	7464.2125
2211.52341	7439.1125
2214.44458	7410.4125
2217.36388	7371.5125
2220.28132	7374.0125
2223.1969	7362.6125
2226.11061	7328.5125
2229.02246	7307.6125
2231.93245	7309.8125
2234.84058	7272.3125
2237.74686	7274.7125
2240.65128	7256.0125
2243.55385	7240.2125
2246.45456	7229.2125
2249.35343	7223.7125
2252.25044	7231.2125
2255.14561	7220.7125
2258.03893	7221.4125
2260.93041	7194.6125
2263.82004	7160.4125
2266.70783	7151.6125
2269.59378	7137.1125
2272.4779	7126.4125
2275.36017	7100.3125
2278.24061	7093.8125
2281.11922	7070.3125
2283.996	7056.2125
2286.87094	7042.2125
2289.74405	7042.2125
2292.61534	7015.7125
2295.4848	6998.3125
2298.35243	7007.9125
2301.21824	7005.3125
2304.08223	6984.3125
2306.94439	6986.2125
2309.80474	6978.5125
2312.66327	6979.9125
2315.51999	6970.4125
2318.37489	6976.6125
2321.22797	6958.1125
2324.07925	6924.0125
2326.92871	6945.1125
2329.77637	6936.5125
2332.62222	6896.1125
2335.46626	6890.4125
2338.3085	6884.9125
2341.14893	6886.8125
2343.98756	6876.9125
2346.8244	6890.5125
2349.65943	6874.6125
2352.49267	6858.4125
2355.32411	6866.9125
2358.15376	6870.0125
2360.98161	6848.4125
2363.80768	6848.7125
2366.63195	6840.3125
2369.45444	6825.2125
2372.27514	6824.0125
2375.09405	6806.9125
2377.91118	6800.2125
2380.72652	6780.0125
2383.54009	6777.2125
2386.35187	6748.2125
2389.16188	6727.1125
2391.97011	6701.5125
2394.77657	6706.7125
2397.58125	6669.2125
2400.38416	6662.6125
2403.18529	6657.8125
2405.98466	6640.8125
2408.78226	6641.1125
2411.57809	6631.8125
2414.37216	6635.0125
2417.16446	6601.8125
2419.955	6596.5125
2422.74378	6597.6125
2425.5308	6586.8125
2428.31606	6580.6125
2431.09956	6579.0125
2433.88131	6555.1125
2436.6613	6557.7125
2439.43954	6548.4125
2442.21603	6554.1125
2444.99077	6544.4125
2447.76377	6533.9125
2450.53501	6561.5125
2453.30451	6528.3125
2456.07226	6509.9125
2458.83827	6514.0125
2461.60254	6498.4125
2464.36507	6483.9125
2467.12586	6479.6125
2469.88492	6486.2125
2472.64224	6477.9125
2475.39782	6472.4125
2478.15167	6458.2125
2480.90379	6453.4125
2483.65417	6430.3125
2486.40283	6450.7125
2489.14976	6460.0125
2491.89497	6459.1125
2494.63845	6459.8125
2497.3802	6430.8125
2500.12024	6429.9125
2502.85855	6433.8125
2505.59514	6424.6125
2508.33002	6402.1125
2511.06318	6400.0125
2513.79462	6398.1125
2516.52435	6377.9125
2519.25237	6355.0125
2521.97867	6337.6125
2524.70327	6344.9125
2527.42616	6319.5125
2530.14734	6297.3125
2532.86681	6300.2125
2535.58458	6307.0125
2538.30065	6318.0125
2541.01501	6310.7125
2543.72768	6293.9125
2546.43864	6288.9125
2549.14791	6261.0125
2551.85548	6272.4125
2554.56136	6248.3125
2557.26554	6252.8125
2559.96803	6249.0125
2562.66883	6220.9125
2565.36794	6201.3125
2568.06536	6189.8125
2570.7611	6143.6125
2573.45514	6147.6125
2576.14751	6169.5125
2578.83819	6133.8125
2581.52719	6136.4125
2584.21451	6137.4125
2586.90015	6118.9125
2589.58411	6115.9125
2592.2664	6107.9125
2594.94701	6113.2125
2597.62594	6095.5125
2600.30321	6089.3125
2602.9788	6079.0125
2605.65273	6057.9125
2608.32498	6067.8125
2610.99557	6047.9125
2613.66449	6044.7125
2616.33175	6021.5125
2618.99734	6030.4125
2621.66128	6014.0125
2624.32355	5997.3125
2626.98416	6004.5125
2629.64311	6003.2125
2632.30041	5986.5125
2634.95605	5989.8125
2637.61004	5963.1125
2640.26238	5952.7125
2642.91306	5960.9125
2645.56209	5951.1125
2648.20948	5946.6125
2650.85521	5943.1125
2653.4993	5913.8125
2656.14175	5933.4125
2658.78255	5924.7125
2661.42171	5907.7125
2664.05923	5930.2125
2666.6951	5945.6125
2669.32934	5936.2125
2671.96194	5953.8125
2674.59291	5927.8125
2677.22224	5925.7125
2679.84993	5936.6125
2682.476	5949.6125
2685.10043	5924.2125
2687.72324	5918.2125
2690.34441	5919.2125
2692.96396	5908.8125
2695.58188	5916.2125
2698.19818	5907.3125
2700.81285	5927.0125
2703.4259	5895.1125
2706.03733	5872.9125
2708.64714	5878.0125
2711.25533	5883.8125
2713.86191	5878.3125
2716.46687	5882.5125
2719.07021	5901.8125
2721.67194	5907.9125
2724.27206	5883.0125
2726.87057	5872.6125
2729.46747	5877.2125
2732.06276	5882.7125
2734.65644	5879.6125
2737.24852	5860.7125
2739.83899	5845.3125
2742.42786	5850.3125
2745.01513	5827.6125
2747.60079	5812.8125
2750.18486	5790.2125
2752.76733	5812.2125
2755.3482	5798.3125
2757.92747	5783.3125
2760.50515	5770.3125
2763.08123	5773.4125
2765.65573	5766.6125
2768.22863	5754.8125
2770.79994	5742.3125
2773.36967	5741.4125
2775.9378	5733.7125
2778.50435	5723.8125
2781.06932	5721.4125
2783.6327	5716.5125
2786.1945	5723.1125
2788.75471	5714.8125
2791.31335	5681.1125
2793.87041	5683.3125
2796.42589	5650.7125
2798.97979	5650.2125
2801.53212	5636.2125
2804.08288	5635.3125
2806.63206	5603.2125
2809.17967	5603.8125
2811.72571	5604.9125
2814.27018	5589.4125
2816.81308	5578.4125
2819.35442	5578.2125
2821.89419	5560.4125
2824.43239	5550.9125
2826.96904	5549.0125
2829.50412	5531.5125
2832.03763	5524.6125
2834.56959	5511.4125
2837.1	5493.5125
2839.62884	5485.6125
2842.15613	5478.0125
2844.68186	5494.8125
2847.20604	5472.1125
2849.72867	5476.4125
2852.24974	5450.7125
2854.76927	5434.7125
2857.28724	5423.6125
2859.80367	5427.1125
2862.31855	5417.0125
2864.83189	5425.3125
2867.34368	5411.8125
2869.85393	5408.7125
2872.36264	5385.8125
2874.8698	5395.3125
2877.37543	5387.4125
2879.87952	5389.1125
2882.38207	5368.2125
2884.88308	5372.8125
2887.38256	5374.7125
2889.88051	5361.2125
2892.37692	5358.4125
2894.8718	5325.9125
2897.36515	5345.8125
2899.85698	5340.7125
2902.34727	5346.2125
2904.83604	5358.5125
2907.32328	5364.8125
2909.809	5366.7125
2912.29319	5369.6125
2914.77587	5358.6125
2917.25702	5380.6125
2919.73665	5360.8125
2922.21476	5363.5125
2924.69136	5344.1125
2927.16644	5348.8125
2929.64	5326.9125
2932.11205	5313.6125
2934.58258	5285.7125
2937.05161	5300.9125
2939.51912	5296.2125
2941.98513	5305.2125
2944.44962	5279.8125
2946.91261	5262.9125
2949.37409	5276.0125
2951.83407	5272.9125
2954.29254	5271.7125
2956.74951	5247.2125
2959.20498	5246.0125
2961.65895	5248.2125
2964.11142	5247.5125
2966.56239	5240.6125
2969.01186	5241.8125
2971.45984	5239.7125
2973.90632	5223.7125
2976.35131	5218.8125
2978.7948	5195.2125
2981.23681	5192.3125
2983.67732	5187.8125
2986.11635	5170.5125
2988.55388	5167.6125
2990.98993	5153.0125
2993.4245	5131.3125
2995.85758	5135.1125
2998.28917	5108.5125
3000.71928	5094.5125
3003.14791	5074.0125
3005.57506	5067.9125
3008.00073	5059.2125
3010.42493	5061.7125
3012.84764	5045.9125
3015.26888	5041.6125
3017.68865	5025.6125
3020.10694	5005.6125
3022.52376	4988.7125
3024.9391	4973.0125
3027.35298	4941.5125
3029.76539	4959.5125
3032.17632	4948.2125
3034.5858	4938.8125
3036.9938	4929.6125
3039.40034	4918.7125
3041.80542	4897.2125
3044.20903	4895.9125
3046.61118	4886.1125
3049.01187	4866.4125
3051.4111	4855.1125
3053.80888	4846.7125
3056.20519	4832.3125
3058.60005	4823.9125
3060.99345	4825.9125
3063.3854	4798.4125
3065.7759	4791.3125
3068.16494	4783.6125
3070.55254	4761.7125
3072.93868	4748.5125
3075.32338	4739.4125
3077.70662	4729.4125
3080.08842	4711.2125
3082.46878	4712.8125
3084.84769	4692.6125
3087.22515	4685.1125
3089.60118	4683.0125
3091.97576	4680.6125
3094.3489	4674.7125
3096.72061	4655.4125
3099.09087	4668.1125
3101.4597	4649.4125
3103.82709	4675.2125
