Data from AgNPs_UA_5uM_CRN_500uM_SU_RamanShift__228__12-07-23-185.txt Node

Date: Thu Aug 04 12:07:23 BST 2022
User: TCL
Spectrometer: QEP01345
Trigger mode: 4
Integration Time (sec): 1.000000E0
Scans to average: 10
Electric dark correction enabled: true
Nonlinearity correction enabled: false
Boxcar width: 0
XAxis mode: Raman Shifts
Number of Pixels in Spectrum: 1044
>>>>>Begin Spectral Data<<<<<
46.04893	0.3125
50.45542	0.4125
54.85868	-0.3875
59.25871	-0.5875
63.6555	-57.8875
68.04907	-40.0875
72.43941	-70.3875
76.82654	-57.6875
81.21044	-56.1875
85.59113	-49.7875
89.96862	-75.6875
94.34289	-55.6875
98.71396	-78.8875
103.08183	-60.3875
107.4465	-50.4875
111.80798	-57.1875
116.16626	-44.9875
120.52136	-75.7875
124.87327	-50.5875
129.222	-65.0875
133.56755	-50.1875
137.90993	-65.4875
142.24913	-51.8875
146.58517	-43.1875
150.91804	-43.3875
155.24774	-30.8875
159.57429	-11.4875
163.89768	-6.8875
168.21792	37.2125
172.53501	58.0125
176.84895	134.8125
181.15975	266.2125
185.46741	409.6125
189.77193	588.4125
194.07331	866.4125
198.37157	1155.1125
202.6667	1446.1125
206.9587	1739.7125
211.24758	2053.6125
215.53334	2372.1125
219.81599	2731.4125
224.09553	3114.5125
228.37195	3550.2125
232.64527	4001.0125
236.91549	4464.1125
241.18261	4813.2125
245.44663	5085.1125
249.70755	5248.3125
253.96539	5390.7125
258.22014	5475.9125
262.4718	5546.9125
266.72039	5584.5125
270.96589	5553.3125
275.20832	5478.0125
279.44768	5369.8125
283.68397	5234.9125
287.91719	5193.7125
292.14735	5229.7125
296.37445	5402.2125
300.59849	5689.4125
304.81948	6038.8125
309.03742	6398.7125
313.25231	6639.8125
317.46415	6587.0125
321.67296	6204.4125
325.87872	5819.6125
330.08145	5607.6125
334.28114	5563.7125
338.47781	5632.7125
342.67145	5755.9125
346.86207	5981.8125
351.04966	6349.9125
355.23424	6717.5125
359.4158	6999.4125
363.59435	7027.2125
367.76989	6973.0125
371.94243	6842.0125
376.11196	6711.0125
380.27849	6627.8125
384.44203	6571.9125
388.60257	6554.7125
392.76012	6549.9125
396.91468	6658.0125
401.06626	6801.1125
405.21485	6840.0125
409.36047	6684.1125
413.50311	6349.9125
417.64277	6059.0125
421.77947	5865.0125
425.9132	5799.1125
430.04396	5780.6125
434.17176	5819.4125
438.2966	5901.5125
442.41849	5995.2125
446.53742	6105.7125
450.6534	6204.6125
454.76644	6293.9125
458.87653	6290.0125
462.98368	6247.3125
467.08789	6185.2125
471.18916	6095.1125
475.2875	5987.2125
479.38291	5862.8125
483.4754	5784.1125
487.56496	5755.8125
491.6516	5702.1125
495.73531	5705.6125
499.81612	5732.7125
503.89401	5822.5125
507.96899	5887.5125
512.04106	5971.6125
516.11023	6056.8125
520.1765	6143.2125
524.23987	6153.2125
528.30034	6163.3125
532.35792	6082.7125
536.41261	6046.5125
540.46441	5936.1125
544.51333	5862.8125
548.55936	5932.2125
552.60252	6051.7125
556.64279	6164.7125
560.6802	6282.7125
564.71473	6424.9125
568.7464	6602.5125
572.7752	6600.3125
576.80114	6264.9125
580.82422	6028.4125
584.84444	5967.3125
588.86181	5928.9125
592.87633	5954.1125
596.888	6071.7125
600.89682	6448.6125
604.9028	7400.7125
608.90594	9482.5125
612.90624	11826.7125
616.90371	10971.5125
620.89834	7924.9125
624.89015	6570.2125
628.87913	6376.1125
632.86528	6501.4125
636.84862	6655.6125
640.82913	6556.5125
644.80683	6204.4125
648.78172	6023.6125
652.75379	6047.1125
656.72306	6262.7125
660.68952	6513.5125
664.65319	6420.1125
668.61405	6194.9125
672.57211	6127.2125
676.52738	6133.6125
680.47986	6031.6125
684.42955	5934.0125
688.37646	5874.4125
692.32058	5901.4125
696.26192	5947.5125
700.20048	6042.2125
704.13626	6081.6125
708.06928	6040.4125
711.99952	6029.5125
715.927	6002.5125
719.85171	6036.7125
723.77365	6097.6125
727.69284	6042.7125
731.60928	6026.2125
735.52295	6026.0125
739.43388	6058.9125
743.34206	6063.4125
747.24749	6097.0125
751.15017	6120.0125
755.05012	6183.0125
758.94733	6570.6125
762.8418	7390.0125
766.73354	8721.2125
770.62254	9755.0125
774.50882	9838.5125
778.39237	9313.2125
782.27321	8385.4125
786.15132	7333.4125
790.02671	6646.1125
793.89938	6261.7125
797.76935	6159.0125
801.6366	6057.2125
805.50115	6013.6125
809.36299	5994.5125
813.22213	6015.4125
817.07857	6001.0125
820.93231	6003.8125
824.78336	6028.0125
828.63172	6043.4125
832.47738	6050.9125
836.32036	6056.9125
840.16066	6014.7125
843.99827	6004.6125
847.8332	5995.5125
851.66546	6005.0125
855.49504	5993.5125
859.32195	6037.3125
863.1462	6000.4125
866.96777	6025.4125
870.78668	6010.3125
874.60293	6025.7125
878.41652	6040.2125
882.22745	6126.9125
886.03573	6144.0125
889.84136	6141.9125
893.64433	6162.2125
897.44466	6136.0125
901.24235	6142.3125
905.0374	6119.2125
908.8298	6073.0125
912.61957	6039.2125
916.40671	6000.1125
920.19121	6055.1125
923.97308	6131.4125
927.75233	6202.8125
931.52895	6256.5125
935.30295	6224.5125
939.07433	6075.4125
942.84309	5960.1125
946.60924	5933.1125
950.37278	5873.6125
954.13371	5902.4125
957.89203	5894.5125
961.64774	5896.1125
965.40086	5875.2125
969.15137	5855.4125
972.89929	5902.8125
976.64461	5883.4125
980.38733	5900.6125
984.12747	5902.4125
987.86502	5928.7125
991.59999	5946.7125
995.33237	6018.0125
999.06217	6078.1125
1002.78939	6158.8125
1006.51404	6276.7125
1010.23611	6397.7125
1013.95561	6439.3125
1017.67255	6443.9125
1021.38692	6429.6125
1025.09872	6355.0125
1028.80796	6277.5125
1032.51465	6272.0125
1036.21877	6248.3125
1039.92035	6308.8125
1043.61937	6339.3125
1047.31584	6396.2125
1051.00976	6439.6125
1054.70114	6435.2125
1058.38998	6425.7125
1062.07627	6438.6125
1065.76003	6472.6125
1069.44126	6535.7125
1073.11995	6618.3125
1076.79611	6763.9125
1080.46974	6913.9125
1084.14085	7071.9125
1087.80943	7228.9125
1091.47549	7238.4125
1095.13903	7147.3125
1098.80005	7024.8125
1102.45857	6943.8125
1106.11456	6880.9125
1109.76805	6861.6125
1113.41903	6947.2125
1117.06751	7124.9125
1120.71348	7384.3125
1124.35696	7769.2125
1127.99793	8068.2125
1131.63641	7910.1125
1135.2724	7504.4125
1138.90589	7202.6125
1142.5369	6999.0125
1146.16542	6877.7125
1149.79145	6773.4125
1153.415	6746.1125
1157.03607	6715.9125
1160.65467	6836.2125
1164.27079	7060.1125
1167.88443	7299.7125
1171.49561	7722.0125
1175.10432	8337.9125
1178.71056	9236.4125
1182.31434	10018.7125
1185.91565	10316.7125
1189.51451	10142.2125
1193.11091	9895.8125
1196.70485	9647.5125
1200.29634	9415.2125
1203.88538	9104.6125
1207.47197	8679.7125
1211.05612	8192.5125
1214.63782	7770.8125
1218.21708	7523.2125
1221.79391	7369.1125
1225.36829	7300.5125
1228.94024	7279.8125
1232.50976	7299.2125
1236.07685	7354.4125
1239.6415	7379.6125
1243.20374	7384.8125
1246.76355	7418.4125
1250.32093	7488.2125
1253.8759	7561.9125
1257.42845	7725.7125
1260.97859	7953.9125
1264.52631	8167.7125
1268.07163	8317.9125
1271.61453	8441.6125
1275.15503	8502.6125
1278.69312	8503.5125
1282.22882	8574.7125
1285.76211	8775.2125
1289.29301	9027.2125
1292.82151	9287.2125
1296.34761	9503.3125
1299.87133	9899.2125
1303.39266	10625.7125
1306.9116	11736.0125
1310.42815	12992.1125
1313.94233	13433.2125
1317.45412	12641.1125
1320.96354	11516.0125
1324.47058	10482.7125
1327.97525	9730.8125
1331.47754	9329.4125
1334.97747	9217.1125
1338.47502	9346.2125
1341.97022	9695.6125
1345.46305	10436.0125
1348.95352	11520.8125
1352.44163	12806.5125
1355.92738	14209.1125
1359.41078	15857.4125
1362.89183	17379.6125
1366.37053	16781.6125
1369.84688	13908.8125
1373.32088	11248.4125
1376.79254	9776.3125
1380.26186	9092.3125
1383.72883	8685.8125
1387.19347	8287.8125
1390.65578	7932.3125
1394.11575	7688.8125
1397.57339	7523.5125
1401.0287	7417.3125
1404.48168	7382.5125
1407.93234	7407.1125
1411.38068	7423.9125
1414.82669	7488.3125
1418.27039	7561.5125
1421.71177	7572.9125
1425.15083	7466.7125
1428.58758	7395.2125
1432.02203	7414.8125
1435.45416	7484.5125
1438.88399	7495.9125
1442.31151	7467.1125
1445.73673	7549.4125
1449.15965	7592.1125
1452.58027	7590.4125
1455.9986	7618.7125
1459.41463	7624.3125
1462.82837	7706.0125
1466.23982	7902.3125
1469.64898	8106.6125
1473.05586	8254.1125
1476.46045	8355.2125
1479.86276	8443.4125
1483.26279	8523.0125
1486.66054	8707.8125
1490.05602	9001.3125
1493.44922	9578.0125
1496.84016	10441.9125
1500.22882	11816.6125
1503.61521	13590.6125
1506.99934	15366.0125
1510.38121	16577.1125
1513.76081	16431.5125
1517.13816	14866.8125
1520.51324	12715.6125
1523.88607	10998.6125
1527.25665	10030.3125
1530.62498	9500.0125
1533.99105	9288.3125
1537.35488	9168.9125
1540.71647	9078.5125
1544.07581	8954.3125
1547.4329	8810.2125
1550.78776	8671.0125
1554.14038	8581.2125
1557.49077	8572.8125
1560.83892	8648.7125
1564.18484	8916.5125
1567.52853	9233.1125
1570.86999	9552.1125
1574.20922	9708.0125
1577.54624	9601.8125
1580.88103	9069.8125
1584.2136	8411.4125
1587.54395	8001.0125
1590.87208	7918.1125
1594.19801	8087.2125
1597.52172	8452.2125
1600.84321	8603.9125
1604.16251	8462.3125
1607.47959	8252.2125
1610.79447	8072.2125
1614.10715	7792.0125
1617.41763	7496.0125
1620.7259	7232.2125
1624.03199	7072.4125
1627.33587	7005.3125
1630.63757	7049.3125
1633.93707	7271.6125
1637.23439	7690.6125
1640.52951	8356.2125
1643.82246	9352.3125
1647.11321	10504.3125
1650.40179	11251.4125
1653.68819	10938.1125
1656.97241	9697.2125
1660.25446	8317.4125
1663.53433	7298.6125
1666.81203	6698.4125
1670.08756	6330.6125
1673.36092	6157.9125
1676.63211	6034.0125
1679.90115	5940.0125
1683.16801	5855.8125
1686.43272	5755.3125
1689.69527	5716.2125
1692.95567	5660.7125
1696.2139	5637.6125
1699.46999	5580.9125
1702.72392	5590.3125
1705.97571	5599.8125
1709.22535	5586.5125
1712.47284	5606.9125
1715.71819	5611.0125
1718.96139	5615.4125
1722.20246	5602.1125
1725.44139	5566.8125
1728.67818	5536.7125
1731.91284	5478.4125
1735.14537	5474.6125
1738.37576	5424.2125
1741.60403	5421.9125
1744.83017	5391.3125
1748.05418	5382.8125
1751.27607	5399.8125
1754.49584	5330.3125
1757.71349	5303.7125
1760.92903	5323.6125
1764.14244	5252.3125
1767.35375	5271.9125
1770.56294	5262.6125
1773.77002	5236.2125
1776.97499	5262.9125
1780.17785	5232.2125
1783.37861	5213.5125
1786.57727	5225.8125
1789.77382	5158.5125
1792.96828	5201.9125
1796.16064	5212.9125
1799.3509	5184.2125
1802.53907	5203.5125
1805.72514	5166.7125
1808.90913	5130.7125
1812.09102	5143.2125
1815.27083	5124.8125
1818.44856	5113.2125
1821.6242	5101.4125
1824.79776	5086.8125
1827.96924	5076.2125
1831.13864	5050.3125
1834.30597	5068.1125
1837.47122	5063.8125
1840.6344	5025.5125
1843.7955	5018.4125
1846.95454	5001.0125
1850.11151	5024.3125
1853.26642	4997.0125
1856.41926	4992.9125
1859.57004	5000.0125
1862.71876	5001.3125
1865.86542	4995.8125
1869.01003	4992.7125
1872.15258	4961.6125
1875.29308	4975.3125
1878.43152	4962.0125
1881.56792	4944.6125
1884.70227	4938.0125
1887.83457	4928.5125
1890.96482	4904.0125
1894.09304	4909.7125
1897.21921	4904.9125
1900.34335	4926.8125
1903.46544	4886.3125
1906.58551	4906.2125
1909.70353	4906.0125
1912.81953	4873.6125
1915.93349	4873.7125
1919.04543	4854.3125
1922.15534	4846.4125
1925.26322	4854.6125
1928.36908	4835.6125
1931.47292	4833.8125
1934.57473	4843.9125
1937.67453	4790.7125
1940.77232	4789.2125
1943.86808	4776.1125
1946.96184	4756.8125
1950.05358	4739.6125
1953.14331	4720.5125
1956.23103	4743.4125
1959.31675	4695.9125
1962.40046	4644.7125
1965.48217	4669.3125
1968.56188	4670.2125
1971.63959	4659.6125
1974.7153	4643.7125
1977.78901	4626.5125
1980.86073	4618.5125
1983.93046	4571.6125
1986.99819	4492.2125
1990.06394	4524.1125
1993.1277	4545.4125
1996.18947	4521.5125
1999.24925	4487.9125
2002.30706	4496.2125
2005.36288	4472.1125
2008.41672	4470.9125
2011.46859	4423.8125
2014.51848	4431.8125
2017.56639	4405.4125
2020.61233	4395.6125
2023.6563	4386.8125
2026.6983	4340.3125
2029.73833	4359.6125
2032.7764	4355.2125
2035.8125	4311.7125
2038.84664	4312.2125
2041.87881	4311.6125
2044.90903	4307.4125
2047.93729	4299.5125
2050.96359	4267.2125
2053.98794	4261.5125
2057.01034	4289.5125
2060.03078	4260.4125
2063.04927	4236.7125
2066.06582	4256.1125
2069.08042	4236.5125
2072.09307	4252.7125
2075.10378	4245.8125
2078.11255	4246.3125
2081.11938	4225.9125
2084.12426	4218.9125
2087.12722	4223.5125
2090.12824	4218.7125
2093.12732	4228.6125
2096.12447	4217.8125
2099.11969	4219.1125
2102.11299	4210.4125
2105.10435	4233.2125
2108.09379	4227.6125
2111.08131	4207.8125
2114.0669	4218.2125
2117.05057	4212.3125
2120.03233	4202.4125
2123.01216	4234.6125
2125.99008	4224.7125
2128.96609	4225.1125
2131.94018	4237.9125
2134.91236	4229.5125
2137.88263	4228.3125
2140.851	4239.4125
2143.81746	4247.3125
2146.78201	4229.9125
2149.74466	4215.8125
2152.7054	4215.9125
2155.66425	4223.7125
2158.6212	4206.6125
2161.57625	4190.3125
2164.52941	4165.8125
2167.48067	4182.3125
2170.43004	4189.4125
2173.37752	4190.3125
2176.32311	4175.9125
2179.26681	4175.8125
2182.20863	4192.0125
2185.14856	4184.2125
2188.08661	4193.4125
2191.02278	4199.5125
2193.95707	4161.8125
2196.88948	4154.6125
2199.82001	4169.7125
2202.74867	4153.0125
2205.67545	4154.9125
2208.60037	4158.8125
2211.52341	4148.4125
2214.44458	4130.8125
2217.36388	4108.6125
2220.28132	4105.8125
2223.1969	4080.9125
2226.11061	4085.2125
2229.02246	4061.7125
2231.93245	4069.7125
2234.84058	4047.6125
2237.74686	4042.2125
2240.65128	4029.6125
2243.55385	4039.3125
2246.45456	4010.9125
2249.35343	4026.4125
2252.25044	4017.9125
2255.14561	4027.4125
2258.03893	4023.9125
2260.93041	3998.7125
2263.82004	4004.4125
2266.70783	4003.1125
2269.59378	3972.7125
2272.4779	3967.3125
2275.36017	3960.5125
2278.24061	3943.0125
2281.11922	3929.0125
2283.996	3934.4125
2286.87094	3916.1125
2289.74405	3917.0125
2292.61534	3908.7125
2295.4848	3892.5125
2298.35243	3899.7125
2301.21824	3889.1125
2304.08223	3871.3125
2306.94439	3884.7125
2309.80474	3872.9125
2312.66327	3856.1125
2315.51999	3858.9125
2318.37489	3848.3125
2321.22797	3835.1125
2324.07925	3834.1125
2326.92871	3830.2125
2329.77637	3802.0125
2332.62222	3793.2125
2335.46626	3769.5125
2338.3085	3773.6125
2341.14893	3804.6125
2343.98756	3796.3125
2346.8244	3778.8125
2349.65943	3767.2125
2352.49267	3765.6125
2355.32411	3778.9125
2358.15376	3779.9125
2360.98161	3785.4125
2363.80768	3761.6125
2366.63195	3775.1125
2369.45444	3768.1125
2372.27514	3771.7125
2375.09405	3780.2125
2377.91118	3730.1125
2380.72652	3748.8125
2383.54009	3721.5125
2386.35187	3732.5125
2389.16188	3709.2125
2391.97011	3706.5125
2394.77657	3693.7125
2397.58125	3690.6125
2400.38416	3682.7125
2403.18529	3671.3125
2405.98466	3657.6125
2408.78226	3652.9125
2411.57809	3650.5125
2414.37216	3626.0125
2417.16446	3639.0125
2419.955	3611.7125
2422.74378	3625.5125
2425.5308	3599.7125
2428.31606	3616.7125
2431.09956	3621.6125
2433.88131	3581.7125
2436.6613	3611.8125
2439.43954	3602.6125
2442.21603	3581.6125
2444.99077	3570.1125
2447.76377	3589.6125
2450.53501	3578.6125
2453.30451	3564.2125
2456.07226	3582.0125
2458.83827	3577.1125
2461.60254	3528.4125
2464.36507	3572.5125
2467.12586	3545.2125
2469.88492	3541.1125
2472.64224	3549.3125
2475.39782	3524.0125
2478.15167	3545.2125
2480.90379	3530.6125
2483.65417	3535.7125
2486.40283	3528.6125
2489.14976	3555.7125
2491.89497	3533.0125
2494.63845	3541.2125
2497.3802	3514.9125
2500.12024	3525.8125
2502.85855	3518.2125
2505.59514	3516.3125
2508.33002	3503.7125
2511.06318	3479.9125
2513.79462	3485.8125
2516.52435	3442.6125
2519.25237	3422.7125
2521.97867	3444.2125
2524.70327	3428.8125
2527.42616	3430.1125
2530.14734	3440.1125
2532.86681	3411.7125
2535.58458	3418.4125
2538.30065	3401.0125
2541.01501	3410.8125
2543.72768	3404.9125
2546.43864	3395.3125
2549.14791	3389.3125
2551.85548	3373.0125
2554.56136	3368.0125
2557.26554	3379.8125
2559.96803	3378.3125
2562.66883	3358.6125
2565.36794	3350.8125
2568.06536	3320.2125
2570.7611	3338.6125
2573.45514	3319.1125
2576.14751	3311.2125
2578.83819	3298.5125
2581.52719	3298.9125
2584.21451	3301.0125
2586.90015	3284.8125
2589.58411	3262.8125
2592.2664	3271.0125
2594.94701	3274.3125
2597.62594	3266.0125
2600.30321	3206.8125
2602.9788	3229.8125
2605.65273	3229.1125
2608.32498	3230.6125
2610.99557	3241.5125
2613.66449	3211.0125
2616.33175	3227.0125
2618.99734	3225.8125
2621.66128	3224.8125
2624.32355	3207.7125
2626.98416	3197.6125
2629.64311	3188.8125
2632.30041	3179.4125
2634.95605	3161.9125
2637.61004	3154.0125
2640.26238	3124.9125
2642.91306	3125.0125
2645.56209	3163.4125
2648.20948	3153.7125
2650.85521	3134.3125
2653.4993	3160.0125
2656.14175	3145.8125
2658.78255	3128.7125
2661.42171	3100.2125
2664.05923	3131.0125
2666.6951	3149.9125
2669.32934	3149.3125
2671.96194	3159.5125
2674.59291	3152.7125
2677.22224	3148.8125
2679.84993	3148.6125
2682.476	3132.6125
2685.10043	3132.6125
2687.72324	3122.8125
2690.34441	3118.6125
2692.96396	3123.6125
2695.58188	3138.9125
2698.19818	3125.0125
2700.81285	3114.7125
2703.4259	3104.9125
2706.03733	3075.8125
2708.64714	3080.6125
2711.25533	3110.7125
2713.86191	3096.3125
2716.46687	3091.1125
2719.07021	3118.6125
2721.67194	3094.4125
2724.27206	3111.9125
2726.87057	3106.7125
2729.46747	3087.4125
2732.06276	3099.8125
2734.65644	3089.9125
2737.24852	3072.9125
2739.83899	3056.3125
2742.42786	3054.6125
2745.01513	3081.5125
2747.60079	3049.3125
2750.18486	3045.3125
2752.76733	3039.1125
2755.3482	3040.0125
2757.92747	3033.9125
2760.50515	3021.6125
2763.08123	3024.6125
2765.65573	3018.0125
2768.22863	2999.7125
2770.79994	2995.1125
2773.36967	2992.1125
2775.9378	2979.5125
2778.50435	2983.4125
2781.06932	2979.0125
2783.6327	2983.1125
2786.1945	2989.4125
2788.75471	2973.8125
2791.31335	2961.4125
2793.87041	2965.5125
2796.42589	2941.5125
2798.97979	2947.6125
2801.53212	2932.4125
2804.08288	2946.3125
2806.63206	2920.5125
2809.17967	2909.3125
2811.72571	2936.4125
2814.27018	2916.2125
2816.81308	2906.2125
2819.35442	2875.8125
2821.89419	2888.4125
2824.43239	2875.4125
2826.96904	2903.9125
2829.50412	2876.2125
2832.03763	2889.1125
2834.56959	2873.8125
2837.1	2865.7125
2839.62884	2868.9125
2842.15613	2864.9125
2844.68186	2876.6125
2847.20604	2843.9125
2849.72867	2839.5125
2852.24974	2845.5125
2854.76927	2814.5125
2857.28724	2784.5125
2859.80367	2831.6125
2862.31855	2844.2125
2864.83189	2817.6125
2867.34368	2823.1125
2869.85393	2834.1125
2872.36264	2813.0125
2874.8698	2825.4125
2877.37543	2823.1125
2879.87952	2813.3125
2882.38207	2786.3125
2884.88308	2807.2125
2887.38256	2807.0125
2889.88051	2796.7125
2892.37692	2782.7125
2894.8718	2770.0125
2897.36515	2790.7125
2899.85698	2784.7125
2902.34727	2775.3125
2904.83604	2793.2125
2907.32328	2799.9125
2909.809	2803.3125
2912.29319	2789.6125
2914.77587	2804.6125
2917.25702	2819.1125
2919.73665	2825.4125
2922.21476	2825.5125
2924.69136	2817.0125
2927.16644	2805.6125
2929.64	2806.9125
2932.11205	2777.8125
2934.58258	2782.8125
2937.05161	2769.6125
2939.51912	2773.3125
2941.98513	2784.2125
2944.44962	2773.4125
2946.91261	2728.7125
2949.37409	2741.2125
2951.83407	2750.5125
2954.29254	2743.9125
2956.74951	2735.0125
2959.20498	2721.6125
2961.65895	2718.8125
2964.11142	2705.4125
2966.56239	2711.8125
2969.01186	2719.1125
2971.45984	2699.8125
2973.90632	2698.6125
2976.35131	2721.7125
2978.7948	2701.4125
2981.23681	2690.4125
2983.67732	2689.5125
2986.11635	2686.9125
2988.55388	2647.9125
2990.98993	2659.2125
2993.4245	2654.6125
2995.85758	2636.2125
2998.28917	2641.3125
3000.71928	2635.2125
3003.14791	2619.4125
3005.57506	2609.5125
3008.00073	2605.6125
3010.42493	2548.8125
3012.84764	2596.8125
3015.26888	2587.6125
3017.68865	2585.2125
3020.10694	2538.6125
3022.52376	2562.2125
3024.9391	2559.8125
3027.35298	2536.0125
3029.76539	2523.2125
3032.17632	2549.4125
3034.5858	2513.3125
3036.9938	2539.0125
3039.40034	2530.6125
3041.80542	2519.8125
3044.20903	2495.5125
3046.61118	2497.3125
3049.01187	2492.4125
3051.4111	2484.8125
3053.80888	2475.4125
3056.20519	2482.7125
3058.60005	2457.7125
3060.99345	2475.1125
3063.3854	2443.1125
3065.7759	2441.2125
3068.16494	2435.1125
3070.55254	2418.1125
3072.93868	2438.1125
3075.32338	2414.6125
3077.70662	2416.8125
3080.08842	2402.0125
3082.46878	2395.9125
3084.84769	2408.6125
3087.22515	2387.9125
3089.60118	2405.5125
3091.97576	2386.5125
3094.3489	2393.3125
3096.72061	2384.8125
3099.09087	2364.1125
3101.4597	2389.3125
3103.82709	2381.8125
3106.19305	2353.3125
3108.55757	2371.7125
3110.92066	2352.1125
3113.28232	2355.3125
3115.64255	2340.0125
3118.00134	2364.8125
3120.35871	2331.9125
3122.71466	2307.5125
