Data from AgNPs_UA_20uM_CRN_500uM_SU_RamanShift__36__13-42-30-298.txt Node

Date: Thu Aug 04 13:42:30 BST 2022
User: TCL
Spectrometer: QEP01345
Trigger mode: 4
Integration Time (sec): 1.000000E0
Scans to average: 10
Electric dark correction enabled: true
Nonlinearity correction enabled: false
Boxcar width: 0
XAxis mode: Raman Shifts
Number of Pixels in Spectrum: 1044
>>>>>Begin Spectral Data<<<<<
46.04893	-0.875
50.45542	0.125
54.85868	0.425
59.25871	-0.275
63.6555	16.425
68.04907	14.725
72.43941	19.825
76.82654	17.725
81.21044	19.025
85.59113	19.525
89.96862	20.025
94.34289	20.225
98.71396	21.525
103.08183	24.125
107.4465	21.525
111.80798	25.125
116.16626	24.925
120.52136	27.125
124.87327	26.325
129.222	31.725
133.56755	28.125
137.90993	33.425
142.24913	35.425
146.58517	41.625
150.91804	45.525
155.24774	59.025
159.57429	76.225
163.89768	94.525
168.21792	127.425
172.53501	174.225
176.84895	244.425
181.15975	344.725
185.46741	487.125
189.77193	675.825
194.07331	913.425
198.37157	1175.725
202.6667	1458.925
206.9587	1742.625
211.24758	2028.125
215.53334	2309.525
219.81599	2609.125
224.09553	2959.025
228.37195	3335.225
232.64527	3732.525
236.91549	4137.425
241.18261	4526.925
245.44663	4849.825
249.70755	5131.825
253.96539	5368.525
258.22014	5547.925
262.4718	5707.725
266.72039	5811.325
270.96589	5852.825
275.20832	5810.725
279.44768	5739.225
283.68397	5644.025
287.91719	5588.125
292.14735	5570.625
296.37445	5644.025
300.59849	5753.325
304.81948	5914.825
309.03742	6073.725
313.25231	6158.725
317.46415	6120.425
321.67296	5911.825
325.87872	5713.425
330.08145	5656.725
334.28114	5634.325
338.47781	5713.925
342.67145	5832.625
346.86207	5978.325
351.04966	6163.725
355.23424	6380.225
359.4158	6520.225
363.59435	6622.525
367.76989	6662.025
371.94243	6670.125
376.11196	6646.725
380.27849	6687.225
384.44203	6677.525
388.60257	6694.025
392.76012	6759.525
396.91468	6851.925
401.06626	6939.325
405.21485	6991.225
409.36047	6890.625
413.50311	6760.525
417.64277	6596.625
421.77947	6500.225
425.9132	6461.825
430.04396	6465.725
434.17176	6508.925
438.2966	6576.425
442.41849	6646.125
446.53742	6778.225
450.6534	6910.825
454.76644	6964.525
458.87653	6987.625
462.98368	6993.225
467.08789	6983.625
471.18916	6921.325
475.2875	6805.225
479.38291	6743.625
483.4754	6673.325
487.56496	6660.325
491.6516	6626.325
495.73531	6642.425
499.81612	6641.125
503.89401	6697.225
507.96899	6743.825
512.04106	6793.925
516.11023	6839.825
520.1765	6866.425
524.23987	6895.925
528.30034	6881.825
532.35792	6869.725
536.41261	6857.825
540.46441	6783.325
544.51333	6762.925
548.55936	6804.425
552.60252	6887.825
556.64279	6975.225
560.6802	7038.625
564.71473	7120.825
568.7464	7197.125
572.7752	7164.225
576.80114	7018.525
580.82422	6926.225
584.84444	6891.325
588.86181	6890.325
592.87633	6940.925
596.888	7061.625
600.89682	7303.225
604.9028	7949.525
608.90594	9267.525
612.90624	10602.025
616.90371	9938.625
620.89834	8096.225
624.89015	7281.225
628.87913	7216.025
632.86528	7351.225
636.84862	7457.625
640.82913	7378.325
644.80683	7172.125
648.78172	7053.025
652.75379	7053.725
656.72306	7232.825
660.68952	7391.225
664.65319	7336.325
668.61405	7261.025
672.57211	7281.825
676.52738	7287.525
680.47986	7225.825
684.42955	7107.925
688.37646	7072.825
692.32058	7110.625
696.26192	7216.225
700.20048	7332.825
704.13626	7367.125
708.06928	7318.825
711.99952	7273.325
715.927	7279.925
719.85171	7299.225
723.77365	7330.025
727.69284	7298.325
731.60928	7237.125
735.52295	7233.625
739.43388	7260.025
743.34206	7293.425
747.24749	7323.525
751.15017	7305.525
755.05012	7373.225
758.94733	7567.525
762.8418	8044.725
766.73354	8809.425
770.62254	9424.425
774.50882	9579.325
778.39237	9292.925
782.27321	8796.025
786.15132	8145.825
790.02671	7733.325
793.89938	7491.525
797.76935	7404.225
801.6366	7353.425
805.50115	7333.125
809.36299	7314.925
813.22213	7312.625
817.07857	7315.425
820.93231	7334.925
824.78336	7346.925
828.63172	7350.725
832.47738	7356.925
836.32036	7346.825
840.16066	7328.025
843.99827	7332.825
847.8332	7340.225
851.66546	7358.025
855.49504	7375.925
859.32195	7408.125
863.1462	7410.525
866.96777	7404.225
870.78668	7407.025
874.60293	7421.825
878.41652	7461.525
882.22745	7508.125
886.03573	7542.225
889.84136	7525.625
893.64433	7526.825
897.44466	7510.125
901.24235	7504.925
905.0374	7474.925
908.8298	7447.825
912.61957	7435.025
916.40671	7426.225
920.19121	7447.325
923.97308	7495.125
927.75233	7545.725
931.52895	7585.625
935.30295	7546.225
939.07433	7451.625
942.84309	7393.025
946.60924	7346.025
950.37278	7354.025
954.13371	7376.325
957.89203	7355.225
961.64774	7351.925
965.40086	7342.625
969.15137	7338.625
972.89929	7340.425
976.64461	7331.525
980.38733	7359.125
984.12747	7370.525
987.86502	7405.725
991.59999	7420.925
995.33237	7453.225
999.06217	7496.125
1002.78939	7600.025
1006.51404	7686.425
1010.23611	7810.425
1013.95561	7837.125
1017.67255	7866.425
1021.38692	7818.825
1025.09872	7770.625
1028.80796	7696.325
1032.51465	7667.225
1036.21877	7677.225
1039.92035	7705.725
1043.61937	7779.225
1047.31584	7770.525
1051.00976	7801.225
1054.70114	7777.225
1058.38998	7789.825
1062.07627	7851.625
1065.76003	7902.325
1069.44126	7978.525
1073.11995	8115.025
1076.79611	8258.425
1080.46974	8327.025
1084.14085	8404.625
1087.80943	8457.825
1091.47549	8544.125
1095.13903	8550.325
1098.80005	8506.525
1102.45857	8486.425
1106.11456	8413.825
1109.76805	8357.425
1113.41903	8340.725
1117.06751	8391.325
1120.71348	8527.825
1124.35696	8665.125
1127.99793	8764.525
1131.63641	8670.725
1135.2724	8476.925
1138.90589	8334.525
1142.5369	8229.025
1146.16542	8210.325
1149.79145	8182.625
1153.415	8093.225
1157.03607	8064.625
1160.65467	8078.425
1164.27079	8192.325
1167.88443	8365.425
1171.49561	8651.525
1175.10432	9077.125
1178.71056	9671.825
1182.31434	10205.225
1185.91565	10355.025
1189.51451	10314.725
1193.11091	10186.625
1196.70485	9986.525
1200.29634	9807.025
1203.88538	9604.025
1207.47197	9363.925
1211.05612	9095.725
1214.63782	8885.025
1218.21708	8717.125
1221.79391	8583.925
1225.36829	8510.225
1228.94024	8507.625
1232.50976	8477.125
1236.07685	8487.125
1239.6415	8530.925
1243.20374	8558.525
1246.76355	8613.825
1250.32093	8693.125
1253.8759	8808.325
1257.42845	8988.825
1260.97859	9171.325
1264.52631	9326.425
1268.07163	9435.325
1271.61453	9534.325
1275.15503	9554.225
1278.69312	9552.125
1282.22882	9512.825
1285.76211	9587.825
1289.29301	9670.125
1292.82151	9830.025
1296.34761	9993.925
1299.87133	10222.425
1303.39266	10657.125
1306.9116	11290.025
1310.42815	11913.025
1313.94233	12127.825
1317.45412	11797.525
1320.96354	11259.025
1324.47058	10744.525
1327.97525	10323.225
1331.47754	10036.425
1334.97747	9980.925
1338.47502	10092.825
1341.97022	10358.625
1345.46305	10872.925
1348.95352	11538.025
1352.44163	12275.325
1355.92738	13000.625
1359.41078	13859.625
1362.89183	14510.825
1366.37053	14039.825
1369.84688	12465.925
1373.32088	10937.225
1376.79254	10071.725
1380.26186	9648.525
1383.72883	9382.725
1387.19347	9142.725
1390.65578	8938.925
1394.11575	8765.725
1397.57339	8591.925
1401.0287	8524.825
1404.48168	8480.625
1407.93234	8480.025
1411.38068	8550.025
1414.82669	8627.225
1418.27039	8641.725
1421.71177	8628.125
1425.15083	8558.025
1428.58758	8531.125
1432.02203	8544.225
1435.45416	8567.825
1438.88399	8635.425
1442.31151	8610.625
1445.73673	8628.125
1449.15965	8670.325
1452.58027	8649.325
1455.9986	8608.825
1459.41463	8610.825
1462.82837	8671.425
1466.23982	8800.025
1469.64898	8941.325
1473.05586	9046.525
1476.46045	9123.825
1479.86276	9196.725
1483.26279	9277.225
1486.66054	9424.725
1490.05602	9622.225
1493.44922	9962.925
1496.84016	10482.525
1500.22882	11288.725
1503.61521	12214.725
1506.99934	13117.925
1510.38121	13585.325
1513.76081	13365.225
1517.13816	12488.625
1520.51324	11414.425
1523.88607	10511.125
1527.25665	9975.425
1530.62498	9724.625
1533.99105	9598.825
1537.35488	9532.325
1540.71647	9463.325
1544.07581	9410.425
1547.4329	9345.325
1550.78776	9267.825
1554.14038	9187.625
1557.49077	9186.425
1560.83892	9236.225
1564.18484	9370.125
1567.52853	9585.925
1570.86999	9744.125
1574.20922	9843.125
1577.54624	9750.125
1580.88103	9425.125
1584.2136	9062.025
1587.54395	8823.125
1590.87208	8824.125
1594.19801	8983.125
1597.52172	9258.725
1600.84321	9409.225
1604.16251	9345.125
1607.47959	9235.625
1610.79447	9007.425
1614.10715	8701.625
1617.41763	8447.525
1620.7259	8190.025
1624.03199	8046.025
1627.33587	8006.525
1630.63757	8045.325
1633.93707	8203.525
1637.23439	8516.425
1640.52951	9006.525
1643.82246	9706.225
1647.11321	10449.225
1650.40179	10837.025
1653.68819	10533.225
1656.97241	9657.525
1660.25446	8758.225
1663.53433	8141.725
1666.81203	7755.125
1670.08756	7547.225
1673.36092	7430.625
1676.63211	7356.025
1679.90115	7262.625
1683.16801	7189.925
1686.43272	7154.725
1689.69527	7120.225
1692.95567	7097.025
1696.2139	7088.325
1699.46999	7056.225
1702.72392	7054.625
1705.97571	7050.225
1709.22535	7047.025
1712.47284	7046.125
1715.71819	7032.525
1718.96139	7016.825
1722.20246	7017.325
1725.44139	6992.525
1728.67818	6983.525
1731.91284	6920.925
1735.14537	6931.525
1738.37576	6882.825
1741.60403	6877.925
1744.83017	6878.325
1748.05418	6856.225
1751.27607	6838.225
1754.49584	6833.325
1757.71349	6814.925
1760.92903	6794.025
1764.14244	6787.425
1767.35375	6806.725
1770.56294	6797.325
1773.77002	6774.425
1776.97499	6759.725
1780.17785	6750.925
1783.37861	6747.725
1786.57727	6713.425
1789.77382	6685.125
1792.96828	6683.825
1796.16064	6671.125
1799.3509	6665.925
1802.53907	6661.025
1805.72514	6657.225
1808.90913	6640.425
1812.09102	6632.025
1815.27083	6598.425
1818.44856	6571.425
1821.6242	6575.925
1824.79776	6566.325
1827.96924	6550.425
1831.13864	6544.625
1834.30597	6539.525
1837.47122	6547.425
1840.6344	6518.825
1843.7955	6511.625
1846.95454	6515.425
1850.11151	6502.925
1853.26642	6502.025
1856.41926	6520.525
1859.57004	6507.325
1862.71876	6485.325
1865.86542	6476.725
1869.01003	6470.225
1872.15258	6465.125
1875.29308	6452.025
1878.43152	6441.725
1881.56792	6444.325
1884.70227	6421.525
1887.83457	6416.525
1890.96482	6444.825
1894.09304	6391.625
1897.21921	6376.125
1900.34335	6385.825
1903.46544	6377.225
1906.58551	6364.325
1909.70353	6372.025
1912.81953	6370.625
1915.93349	6343.625
1919.04543	6337.425
1922.15534	6329.725
1925.26322	6330.025
1928.36908	6294.525
1931.47292	6288.125
1934.57473	6291.725
1937.67453	6280.125
1940.77232	6260.125
1943.86808	6240.725
1946.96184	6226.925
1950.05358	6213.125
1953.14331	6190.025
1956.23103	6157.925
1959.31675	6131.525
1962.40046	6129.025
1965.48217	6105.625
1968.56188	6092.125
1971.63959	6071.125
1974.7153	6051.425
1977.78901	6051.425
1980.86073	6019.725
1983.93046	6019.825
1986.99819	5996.325
1990.06394	5971.325
1993.1277	5941.225
1996.18947	5930.225
1999.24925	5918.225
2002.30706	5904.925
2005.36288	5881.925
2008.41672	5839.525
2011.46859	5840.925
2014.51848	5822.025
2017.56639	5805.325
2020.61233	5784.125
2023.6563	5770.425
2026.6983	5753.225
2029.73833	5735.725
2032.7764	5732.925
2035.8125	5722.925
2038.84664	5717.325
2041.87881	5702.125
2044.90903	5695.025
2047.93729	5686.225
2050.96359	5666.925
2053.98794	5655.825
2057.01034	5658.525
2060.03078	5640.325
2063.04927	5619.125
2066.06582	5627.025
2069.08042	5621.025
2072.09307	5630.025
2075.10378	5625.925
2078.11255	5612.525
2081.11938	5619.125
2084.12426	5598.725
2087.12722	5594.125
2090.12824	5584.825
2093.12732	5617.725
2096.12447	5607.325
2099.11969	5606.125
2102.11299	5603.025
2105.10435	5612.125
2108.09379	5596.825
2111.08131	5607.125
2114.0669	5613.825
2117.05057	5603.225
2120.03233	5609.925
2123.01216	5590.825
2125.99008	5608.825
2128.96609	5625.325
2131.94018	5642.225
2134.91236	5631.825
2137.88263	5623.825
2140.851	5620.225
2143.81746	5634.925
2146.78201	5630.725
2149.74466	5613.225
2152.7054	5624.625
2155.66425	5624.725
2158.6212	5616.025
2161.57625	5640.325
2164.52941	5624.425
2167.48067	5620.325
2170.43004	5601.225
2173.37752	5599.925
2176.32311	5592.925
2179.26681	5604.325
2182.20863	5601.225
2185.14856	5603.425
2188.08661	5595.225
2191.02278	5595.925
2193.95707	5575.025
2196.88948	5590.325
2199.82001	5587.525
2202.74867	5576.025
2205.67545	5578.225
2208.60037	5566.625
2211.52341	5548.825
2214.44458	5543.325
2217.36388	5520.725
2220.28132	5498.725
2223.1969	5481.325
2226.11061	5488.025
2229.02246	5456.125
2231.93245	5458.025
2234.84058	5441.325
2237.74686	5427.425
2240.65128	5445.925
2243.55385	5437.325
2246.45456	5440.225
2249.35343	5405.625
2252.25044	5409.225
2255.14561	5412.425
2258.03893	5408.225
2260.93041	5401.325
2263.82004	5396.025
2266.70783	5361.925
2269.59378	5352.825
2272.4779	5346.225
2275.36017	5332.425
2278.24061	5304.925
2281.11922	5302.525
2283.996	5282.525
2286.87094	5272.425
2289.74405	5276.925
2292.61534	5278.825
2295.4848	5253.725
2298.35243	5258.825
2301.21824	5245.825
2304.08223	5240.925
2306.94439	5255.525
2309.80474	5240.025
2312.66327	5216.825
2315.51999	5221.925
2318.37489	5218.325
2321.22797	5209.025
2324.07925	5196.925
2326.92871	5172.425
2329.77637	5170.225
2332.62222	5170.425
2335.46626	5144.825
2338.3085	5148.025
2341.14893	5138.225
2343.98756	5132.825
2346.8244	5120.325
2349.65943	5134.025
2352.49267	5116.325
2355.32411	5112.925
2358.15376	5087.725
2360.98161	5115.225
2363.80768	5114.325
2366.63195	5103.525
2369.45444	5098.725
2372.27514	5089.925
2375.09405	5074.825
2377.91118	5084.125
2380.72652	5076.625
2383.54009	5051.825
2386.35187	5070.725
2389.16188	5028.725
2391.97011	5017.825
2394.77657	5013.825
2397.58125	4994.225
2400.38416	4995.925
2403.18529	4985.325
2405.98466	4985.125
2408.78226	4953.625
2411.57809	4957.225
2414.37216	4952.825
2417.16446	4958.625
2419.955	4942.925
2422.74378	4944.025
2425.5308	4925.925
2428.31606	4909.225
2431.09956	4903.525
2433.88131	4907.425
2436.6613	4898.925
2439.43954	4917.725
2442.21603	4905.825
2444.99077	4889.925
2447.76377	4892.125
2450.53501	4879.825
2453.30451	4876.625
2456.07226	4867.125
2458.83827	4861.525
2461.60254	4853.625
2464.36507	4841.525
2467.12586	4832.925
2469.88492	4838.425
2472.64224	4851.125
2475.39782	4838.925
2478.15167	4832.925
2480.90379	4802.625
2483.65417	4830.325
2486.40283	4825.825
2489.14976	4823.925
2491.89497	4810.125
2494.63845	4818.725
2497.3802	4810.825
2500.12024	4813.525
2502.85855	4768.325
2505.59514	4775.125
2508.33002	4764.225
2511.06318	4749.625
2513.79462	4731.825
2516.52435	4728.625
2519.25237	4739.525
2521.97867	4739.125
2524.70327	4720.225
2527.42616	4712.825
2530.14734	4714.125
2532.86681	4704.825
2535.58458	4693.125
2538.30065	4679.825
2541.01501	4679.425
2543.72768	4693.725
2546.43864	4672.625
2549.14791	4664.625
2551.85548	4668.425
2554.56136	4674.225
2557.26554	4654.225
2559.96803	4641.125
2562.66883	4629.725
2565.36794	4607.425
2568.06536	4586.325
2570.7611	4578.525
2573.45514	4585.725
2576.14751	4559.125
2578.83819	4554.425
2581.52719	4538.525
2584.21451	4539.125
2586.90015	4530.825
2589.58411	4513.225
2592.2664	4529.125
2594.94701	4505.225
2597.62594	4503.525
2600.30321	4488.825
2602.9788	4490.725
2605.65273	4471.825
2608.32498	4460.825
2610.99557	4453.625
2613.66449	4444.725
2616.33175	4436.125
2618.99734	4444.725
2621.66128	4423.925
2624.32355	4419.425
2626.98416	4419.125
2629.64311	4399.125
2632.30041	4391.825
2634.95605	4386.725
2637.61004	4382.225
2640.26238	4387.725
2642.91306	4358.125
2645.56209	4354.825
2648.20948	4348.025
2650.85521	4366.825
2653.4993	4354.425
2656.14175	4336.525
2658.78255	4359.325
2661.42171	4355.225
2664.05923	4357.125
2666.6951	4369.325
2669.32934	4371.525
2671.96194	4348.725
2674.59291	4343.425
2677.22224	4343.125
2679.84993	4365.825
2682.476	4339.325
2685.10043	4334.425
2687.72324	4316.225
2690.34441	4324.625
2692.96396	4329.225
2695.58188	4335.425
2698.19818	4324.725
2700.81285	4312.025
2703.4259	4323.525
2706.03733	4299.925
2708.64714	4289.825
2711.25533	4307.725
2713.86191	4308.225
2716.46687	4299.825
2719.07021	4316.725
2721.67194	4317.225
2724.27206	4311.925
2726.87057	4303.925
2729.46747	4307.425
2732.06276	4307.725
2734.65644	4282.225
2737.24852	4281.025
2739.83899	4272.825
2742.42786	4295.525
2745.01513	4284.925
2747.60079	4275.225
2750.18486	4251.825
2752.76733	4256.725
2755.3482	4262.925
2757.92747	4245.825
2760.50515	4241.125
2763.08123	4227.325
2765.65573	4215.725
2768.22863	4202.225
2770.79994	4203.625
2773.36967	4199.025
2775.9378	4184.325
2778.50435	4185.725
2781.06932	4178.825
2783.6327	4174.325
2786.1945	4145.025
2788.75471	4143.225
2791.31335	4145.525
2793.87041	4123.725
2796.42589	4117.425
2798.97979	4118.725
2801.53212	4125.325
2804.08288	4102.425
2806.63206	4096.525
2809.17967	4102.225
2811.72571	4070.425
2814.27018	4076.625
2816.81308	4066.825
2819.35442	4047.625
2821.89419	4039.225
2824.43239	4028.025
2826.96904	4017.925
2829.50412	4018.025
2832.03763	4008.025
2834.56959	4006.425
2837.1	3984.025
2839.62884	3982.725
2842.15613	3993.425
2844.68186	3983.825
2847.20604	3989.425
2849.72867	3961.025
2852.24974	3954.625
2854.76927	3935.225
2857.28724	3931.525
2859.80367	3934.325
2862.31855	3922.825
2864.83189	3932.025
2867.34368	3928.925
2869.85393	3905.225
2872.36264	3906.825
2874.8698	3907.925
2877.37543	3883.325
2879.87952	3882.925
2882.38207	3894.425
2884.88308	3892.325
2887.38256	3882.325
2889.88051	3878.625
2892.37692	3868.825
2894.8718	3871.525
2897.36515	3881.725
2899.85698	3883.125
2902.34727	3863.925
2904.83604	3862.825
2907.32328	3882.725
2909.809	3879.425
2912.29319	3871.925
2914.77587	3870.025
2917.25702	3869.025
2919.73665	3866.225
2922.21476	3872.525
2924.69136	3871.525
2927.16644	3857.125
2929.64	3856.825
2932.11205	3851.125
2934.58258	3845.325
2937.05161	3840.125
2939.51912	3831.125
2941.98513	3822.125
2944.44962	3834.725
2946.91261	3800.525
2949.37409	3826.325
2951.83407	3820.225
2954.29254	3817.925
2956.74951	3791.225
2959.20498	3799.325
2961.65895	3781.525
2964.11142	3782.725
2966.56239	3790.025
2969.01186	3794.625
2971.45984	3809.325
2973.90632	3793.425
2976.35131	3777.225
2978.7948	3769.625
2981.23681	3757.625
2983.67732	3743.525
2986.11635	3743.025
2988.55388	3760.125
2990.98993	3734.925
2993.4245	3735.625
2995.85758	3731.525
2998.28917	3718.025
3000.71928	3701.225
3003.14791	3688.325
3005.57506	3694.125
3008.00073	3667.225
3010.42493	3651.125
3012.84764	3649.725
3015.26888	3646.125
3017.68865	3641.625
3020.10694	3645.025
3022.52376	3623.725
3024.9391	3615.025
3027.35298	3606.625
3029.76539	3592.525
3032.17632	3589.625
3034.5858	3599.025
3036.9938	3586.525
3039.40034	3581.625
3041.80542	3573.625
3044.20903	3556.325
3046.61118	3562.025
3049.01187	3540.925
3051.4111	3530.225
3053.80888	3528.425
3056.20519	3519.825
3058.60005	3527.825
3060.99345	3502.125
3063.3854	3490.625
3065.7759	3501.625
3068.16494	3499.125
3070.55254	3479.925
3072.93868	3489.525
3075.32338	3459.225
3077.70662	3451.925
3080.08842	3439.525
3082.46878	3432.225
3084.84769	3419.325
3087.22515	3416.525
3089.60118	3421.225
3091.97576	3416.925
3094.3489	3424.425
3096.72061	3401.025
3099.09087	3407.625
3101.4597	3398.525
3103.82709	3399.425
3106.19305	3394.725
3108.55757	3401.925
3110.92066	3383.325
3113.28232	3375.725
3115.64255	3371.125
3118.00134	3361.025
3120.35871	3351.825
3122.71466	3354.425
3125.06917	3362.225
3127.42226	3332.625
3129.77393	3343.225
3132.12417	3323.325
3134.47299	3315.725
3136.82039	3308.325
3139.16636	3299.325
3141.51092	3294.925
3143.85406	3308.325
3146.19579	3298.425
3148.53609	3309.825
3150.87499	3299.225
3153.21246	3293.525
3155.54853	3306.925
3157.88318	3309.925
3160.21642	3304.825
3162.54826	3295.225
3164.87868	3282.925
3167.2077	3280.425
3169.5353	3277.225
3171.86151	3289.625
3174.18631	3285.925
3176.5097	3278.525
3178.83169	3262.225
3181.15228	3254.625
3183.47147	3246.725
3185.78926	3243.825
3188.10565	3240.525
3190.42065	3216.025
3192.73424	3213.225
3195.04645	3212.125
3197.35725	3209.825
3199.66667	3207.825
3201.97469	3198.425
3204.28132	3208.925
3206.58656	3209.025
3208.8904	3205.925
3211.19287	3201.325
3213.49394	3208.025
3215.79363	3209.725
3218.09193	3201.425
3220.38884	3193.425
3222.68438	3191.125
3224.97853	3189.225
3227.2713	3201.425
3229.56269	3189.825
3231.8527	3184.725
3234.14133	3179.625
3236.42858	3165.925
