Data from AgNPs_UA_5uM_CRN_500uM_SU_RamanShift__7__11-30-33-139.txt Node

Date: Thu Aug 04 11:30:33 BST 2022
User: TCL
Spectrometer: QEP01345
Trigger mode: 4
Integration Time (sec): 1.000000E0
Scans to average: 10
Electric dark correction enabled: true
Nonlinearity correction enabled: false
Boxcar width: 0
XAxis mode: Raman Shifts
Number of Pixels in Spectrum: 1044
>>>>>Begin Spectral Data<<<<<
46.04893	-0.45
50.45542	0.25
54.85868	0.25
59.25871	-0.95
63.6555	-57.45
68.04907	-36.35
72.43941	-68.15
76.82654	-55.05
81.21044	-55.15
85.59113	-46.15
89.96862	-71.95
94.34289	-50.65
98.71396	-73.65
103.08183	-54.15
107.4465	-45.55
111.80798	-53.85
116.16626	-40.95
120.52136	-67.05
124.87327	-43.05
129.222	-54.95
133.56755	-40.65
137.90993	-53.85
142.24913	-39.35
146.58517	-26.85
150.91804	-22.25
155.24774	-3.95
159.57429	23.45
163.89768	40.65
168.21792	105.05
172.53501	154.95
176.84895	283.05
181.15975	472.75
185.46741	709.45
189.77193	994.75
194.07331	1427.25
198.37157	1876.65
202.6667	2341.75
206.9587	2869.45
211.24758	3416.65
215.53334	4020.05
219.81599	4737.25
224.09553	5569.25
228.37195	6419.05
232.64527	7232.35
236.91549	7865.55
241.18261	8189.15
245.44663	8255.75
249.70755	8209.65
253.96539	8198.75
258.22014	8246.05
262.4718	8303.05
266.72039	8275.85
270.96589	8064.35
275.20832	7716.05
279.44768	7370.45
283.68397	7103.05
287.91719	7070.15
292.14735	7239.85
296.37445	7785.15
300.59849	8747.65
304.81948	10149.45
309.03742	11713.65
313.25231	12840.65
317.46415	12710.25
321.67296	11139.85
325.87872	9288.65
330.08145	8192.65
334.28114	7931.45
338.47781	8235.25
342.67145	8824.75
346.86207	9786.45
351.04966	11273.55
355.23424	12780.35
359.4158	13380.35
363.59435	12826.55
367.76989	11933.25
371.94243	11035.35
376.11196	10296.05
380.27849	9788.55
384.44203	9358.45
388.60257	9126.25
392.76012	9151.65
396.91468	9453.95
401.06626	9864.45
405.21485	9877.05
409.36047	9241.95
413.50311	8135.95
417.64277	7092.85
421.77947	6422.55
425.9132	6145.65
430.04396	6005.85
434.17176	5987.25
438.2966	6105.85
442.41849	6310.85
446.53742	6513.35
450.6534	6648.55
454.76644	6625.95
458.87653	6522.85
462.98368	6364.25
467.08789	6219.55
471.18916	6007.55
475.2875	5705.85
479.38291	5470.75
483.4754	5321.35
487.56496	5240.45
491.6516	5166.45
495.73531	5157.15
499.81612	5228.65
503.89401	5414.45
507.96899	5614.05
512.04106	5905.35
516.11023	6198.55
520.1765	6413.45
524.23987	6497.95
528.30034	6484.15
532.35792	6311.15
536.41261	6130.05
540.46441	5888.85
544.51333	5712.75
548.55936	5715.25
552.60252	5878.35
556.64279	6101.55
560.6802	6532.75
564.71473	7538.85
568.7464	8837.25
572.7752	8739.35
576.80114	7094.65
580.82422	5778.45
584.84444	5201.75
588.86181	5020.85
592.87633	5030.55
596.888	5236.65
600.89682	6040.45
604.9028	8731.95
608.90594	15603.55
612.90624	24044.15
616.90371	21782.45
620.89834	11397.75
624.89015	6826.05
628.87913	6299.55
632.86528	6933.95
636.84862	7255.55
640.82913	6471.75
644.80683	5367.45
648.78172	4868.65
652.75379	5038.55
656.72306	5836.85
660.68952	6607.05
664.65319	6196.75
668.61405	5131.05
672.57211	4703.35
676.52738	4668.35
680.47986	4629.25
684.42955	4470.35
688.37646	4395.75
692.32058	4400.85
696.26192	4484.95
700.20048	4605.05
704.13626	4634.95
708.06928	4563.95
711.99952	4530.75
715.927	4593.95
719.85171	4818.15
723.77365	4962.75
727.69284	4807.75
731.60928	4660.45
735.52295	4591.15
739.43388	4668.45
743.34206	4706.15
747.24749	4712.95
751.15017	4740.65
755.05012	5071.75
758.94733	6417.85
762.8418	9500.05
766.73354	13498.15
770.62254	15493.85
774.50882	14645.95
778.39237	13137.75
782.27321	10863.05
786.15132	7876.35
790.02671	5913.15
793.89938	4969.25
797.76935	4676.35
801.6366	4533.25
805.50115	4441.65
809.36299	4412.95
813.22213	4385.15
817.07857	4367.05
820.93231	4419.75
824.78336	4517.45
828.63172	4644.65
832.47738	4693.45
836.32036	4594.55
840.16066	4372.15
843.99827	4238.95
847.8332	4196.45
851.66546	4193.55
855.49504	4160.45
859.32195	4168.25
863.1462	4095.15
866.96777	4110.55
870.78668	4091.25
874.60293	4128.85
878.41652	4198.45
882.22745	4344.75
886.03573	4425.75
889.84136	4409.15
893.64433	4388.95
897.44466	4390.95
901.24235	4398.45
905.0374	4329.45
908.8298	4121.55
912.61957	4011.35
916.40671	3910.75
920.19121	3978.95
923.97308	4180.85
927.75233	4592.65
931.52895	5017.95
935.30295	4785.05
939.07433	4181.25
942.84309	3776.45
946.60924	3621.75
950.37278	3565.25
954.13371	3549.85
957.89203	3564.65
961.64774	3566.55
965.40086	3528.55
969.15137	3497.95
972.89929	3523.15
976.64461	3499.05
980.38733	3510.85
984.12747	3492.55
987.86502	3494.05
991.59999	3509.55
995.33237	3598.75
999.06217	3714.15
1002.78939	3891.65
1006.51404	4197.45
1010.23611	4355.35
1013.95561	4195.95
1017.67255	3990.25
1021.38692	3819.05
1025.09872	3689.45
1028.80796	3597.05
1032.51465	3647.65
1036.21877	3684.25
1039.92035	3760.75
1043.61937	3833.65
1047.31584	3898.45
1051.00976	3924.45
1054.70114	3842.35
1058.38998	3779.25
1062.07627	3769.35
1065.76003	3751.35
1069.44126	3801.25
1073.11995	3895.45
1076.79611	4172.05
1080.46974	4713.75
1084.14085	5464.15
1087.80943	6088.25
1091.47549	6064.85
1095.13903	5386.65
1098.80005	4752.75
1102.45857	4401.25
1106.11456	4365.95
1109.76805	4462.45
1113.41903	4877.65
1117.06751	5546.85
1120.71348	6607.65
1124.35696	8235.35
1127.99793	9381.05
1131.63641	8596.65
1135.2724	6872.65
1138.90589	5723.55
1142.5369	5093.35
1146.16542	4686.65
1149.79145	4418.45
1153.415	4346.85
1157.03607	4397.45
1160.65467	4642.45
1164.27079	5042.35
1167.88443	5605.15
1171.49561	6632.35
1175.10432	8376.15
1178.71056	10850.65
1182.31434	12615.75
1185.91565	12351.15
1189.51451	10739.45
1193.11091	9033.15
1196.70485	7950.05
1200.29634	7542.85
1203.88538	7048.75
1207.47197	6019.35
1211.05612	5101.95
1214.63782	4479.25
1218.21708	4208.85
1221.79391	4107.75
1225.36829	4097.65
1228.94024	4107.65
1232.50976	4104.95
1236.07685	4099.05
1239.6415	4163.35
1243.20374	4270.45
1246.76355	4433.85
1250.32093	4626.95
1253.8759	4917.65
1257.42845	5421.25
1260.97859	6063.85
1264.52631	6707.55
1268.07163	7035.75
1271.61453	7083.55
1275.15503	6868.25
1278.69312	6600.05
1282.22882	6788.05
1285.76211	7735.35
1289.29301	8981.45
1292.82151	9854.15
1296.34761	10177.35
1299.87133	10987.55
1303.39266	13099.45
1306.9116	17093.85
1310.42815	21988.35
1313.94233	23750.25
1317.45412	19960.05
1320.96354	14530.45
1324.47058	10473.85
1327.97525	7998.55
1331.47754	6786.45
1334.97747	6383.85
1338.47502	6571.55
1341.97022	7519.35
1345.46305	9629.95
1348.95352	12634.75
1352.44163	15738.15
1355.92738	19533.25
1359.41078	26270.85
1362.89183	33686.65
1366.37053	32286.95
1369.84688	22082.55
1373.32088	13606.45
1376.79254	9990.15
1380.26186	8401.15
1383.72883	7162.65
1387.19347	6008.25
1390.65578	5162.05
1394.11575	4695.55
1397.57339	4468.95
1401.0287	4321.05
1404.48168	4159.75
1407.93234	4081.25
1411.38068	4166.55
1414.82669	4517.85
1418.27039	4942.35
1421.71177	5037.95
1425.15083	4822.95
1428.58758	4863.55
1432.02203	5341.45
1435.45416	5711.65
1438.88399	5447.35
1442.31151	5100.75
1445.73673	5044.35
1449.15965	5024.05
1452.58027	4890.15
1455.9986	4720.95
1459.41463	4570.05
1462.82837	4581.25
1466.23982	4830.25
1469.64898	5177.35
1473.05586	5287.55
1476.46045	5253.95
1479.86276	5276.35
1483.26279	5508.95
1486.66054	6128.45
1490.05602	7086.45
1493.44922	8623.95
1496.84016	11110.25
1500.22882	14978.75
1503.61521	20434.05
1506.99934	27467.65
1510.38121	34526.55
1513.76081	37233.25
1517.13816	33006.65
1520.51324	24497.95
1523.88607	16811.05
1527.25665	11876.55
1530.62498	9099.25
1533.99105	7492.75
1537.35488	6467.25
1540.71647	5877.65
1544.07581	5655.35
1547.4329	5656.05
1550.78776	5819.75
1554.14038	6152.55
1557.49077	6672.25
1560.83892	7552.15
1564.18484	8978.05
1567.52853	10615.15
1570.86999	11606.55
1574.20922	11802.45
1577.54624	11186.35
1580.88103	9282.35
1584.2136	7006.75
1587.54395	5667.35
1590.87208	5309.85
1594.19801	5714.45
1597.52172	6384.95
1600.84321	6427.55
1604.16251	5642.75
1607.47959	4889.15
1610.79447	4461.15
1614.10715	4131.75
1617.41763	3892.45
1620.7259	3768.25
1624.03199	3821.05
1627.33587	4009.35
1630.63757	4364.55
1633.93707	5028.05
1637.23439	6181.05
1640.52951	8327.65
1643.82246	12036.35
1647.11321	17100.05
1650.40179	21286.35
1653.68819	21082.05
1656.97241	16506.35
1660.25446	11017.35
1663.53433	7262.25
1666.81203	5209.75
1670.08756	4164.45
1673.36092	3582.95
1676.63211	3229.95
1679.90115	3018.05
1683.16801	2866.35
1686.43272	2743.95
1689.69527	2676.35
1692.95567	2598.55
1696.2139	2565.95
1699.46999	2492.85
1702.72392	2504.75
1705.97571	2488.55
1709.22535	2484.95
1712.47284	2536.95
1715.71819	2550.45
1718.96139	2568.35
1722.20246	2534.85
1725.44139	2489.95
1728.67818	2420.85
1731.91284	2335.75
1735.14537	2295.95
1738.37576	2255.85
1741.60403	2235.75
1744.83017	2212.35
1748.05418	2203.25
1751.27607	2182.05
1754.49584	2125.05
1757.71349	2064.65
1760.92903	2051.55
1764.14244	1980.35
1767.35375	1960.85
1770.56294	1917.55
1773.77002	1877.85
1776.97499	1859.65
1780.17785	1821.75
1783.37861	1812.85
1786.57727	1792.15
1789.77382	1737.15
1792.96828	1770.85
1796.16064	1787.85
1799.3509	1766.75
1802.53907	1781.15
1805.72514	1747.35
1808.90913	1718.05
1812.09102	1725.35
1815.27083	1711.75
1818.44856	1702.85
1821.6242	1696.95
1824.79776	1667.65
1827.96924	1664.55
1831.13864	1635.95
1834.30597	1629.45
1837.47122	1598.95
1840.6344	1579.35
1843.7955	1546.55
1846.95454	1533.85
1850.11151	1543.15
1853.26642	1504.55
1856.41926	1511.15
1859.57004	1516.95
1862.71876	1522.65
1865.86542	1534.65
1869.01003	1531.55
1872.15258	1517.05
1875.29308	1537.35
1878.43152	1542.05
1881.56792	1523.35
1884.70227	1507.75
1887.83457	1516.65
1890.96482	1481.35
1894.09304	1481.55
1897.21921	1471.05
1900.34335	1488.15
1903.46544	1467.25
1906.58551	1486.45
1909.70353	1476.85
1912.81953	1473.15
1915.93349	1462.45
1919.04543	1458.85
1922.15534	1429.25
1925.26322	1422.85
1928.36908	1401.05
1931.47292	1384.65
1934.57473	1378.75
1937.67453	1346.75
1940.77232	1303.15
1943.86808	1298.45
1946.96184	1301.55
1950.05358	1282.85
1953.14331	1267.55
1956.23103	1289.75
1959.31675	1270.25
1962.40046	1247.35
1965.48217	1294.45
1968.56188	1308.65
1971.63959	1311.25
1974.7153	1330.65
1977.78901	1324.55
1980.86073	1287.35
1983.93046	1244.25
1986.99819	1164.85
1990.06394	1181.25
1993.1277	1199.05
1996.18947	1176.05
1999.24925	1146.45
2002.30706	1159.45
2005.36288	1152.25
2008.41672	1136.95
2011.46859	1119.75
2014.51848	1108.35
2017.56639	1106.75
2020.61233	1097.05
2023.6563	1101.65
2026.6983	1071.75
2029.73833	1079.75
2032.7764	1092.55
2035.8125	1046.65
2038.84664	1054.35
2041.87881	1050.05
2044.90903	1067.15
2047.93729	1057.05
2050.96359	1024.95
2053.98794	1034.65
2057.01034	1032.75
2060.03078	1013.75
2063.04927	997.45
2066.06582	998.45
2069.08042	978.85
2072.09307	983.65
2075.10378	992.35
2078.11255	975.25
2081.11938	980.25
2084.12426	977.25
2087.12722	980.45
2090.12824	977.25
2093.12732	983.15
2096.12447	973.05
2099.11969	971.95
2102.11299	961.15
2105.10435	987.45
2108.09379	977.25
2111.08131	969.45
2114.0669	987.05
2117.05057	986.75
2120.03233	976.85
2123.01216	1017.85
2125.99008	1027.55
2128.96609	1041.15
2131.94018	1047.25
2134.91236	1019.35
2137.88263	1000.35
2140.851	996.65
2143.81746	991.65
2146.78201	969.35
2149.74466	937.15
2152.7054	945.05
2155.66425	917.75
2158.6212	911.95
2161.57625	892.05
2164.52941	867.05
2167.48067	889.15
2170.43004	885.95
2173.37752	916.75
2176.32311	910.45
2179.26681	920.75
2182.20863	926.85
2185.14856	920.65
2188.08661	912.25
2191.02278	911.55
2193.95707	884.65
2196.88948	867.85
2199.82001	866.95
2202.74867	862.35
2205.67545	866.65
2208.60037	879.15
2211.52341	867.05
2214.44458	858.95
2217.36388	862.15
2220.28132	841.45
2223.1969	827.65
2226.11061	837.65
2229.02246	822.55
2231.93245	835.35
2234.84058	819.65
2237.74686	811.45
2240.65128	820.45
2243.55385	833.85
2246.45456	807.85
2249.35343	835.45
2252.25044	835.25
2255.14561	867.85
2258.03893	893.95
2260.93041	909.25
2263.82004	919.95
2266.70783	931.75
2269.59378	915.95
2272.4779	897.45
2275.36017	919.95
2278.24061	905.15
2281.11922	874.85
2283.996	881.65
2286.87094	861.15
2289.74405	855.45
2292.61534	849.05
2295.4848	826.95
2298.35243	810.65
2301.21824	801.85
2304.08223	798.25
2306.94439	806.15
2309.80474	809.85
2312.66327	804.25
2315.51999	799.35
2318.37489	795.05
2321.22797	777.95
2324.07925	780.35
2326.92871	778.45
2329.77637	771.15
2332.62222	776.05
2335.46626	760.35
2338.3085	769.45
2341.14893	787.05
2343.98756	799.15
2346.8244	783.35
2349.65943	788.05
2352.49267	804.15
2355.32411	818.35
2358.15376	832.65
2360.98161	844.55
2363.80768	845.15
2366.63195	874.85
2369.45444	890.45
2372.27514	888.25
2375.09405	909.25
2377.91118	876.15
2380.72652	872.65
2383.54009	858.85
2386.35187	851.45
2389.16188	823.05
2391.97011	812.95
2394.77657	801.55
2397.58125	790.45
2400.38416	781.65
2403.18529	760.05
2405.98466	742.95
2408.78226	759.85
2411.57809	746.35
2414.37216	739.85
2417.16446	752.25
2419.955	727.75
2422.74378	754.95
2425.5308	734.45
2428.31606	754.45
2431.09956	764.15
2433.88131	756.15
2436.6613	773.95
2439.43954	776.65
2442.21603	773.75
2444.99077	778.15
2447.76377	792.65
2450.53501	796.95
2453.30451	796.25
2456.07226	812.75
2458.83827	802.05
2461.60254	764.75
2464.36507	808.65
2467.12586	777.85
2469.88492	795.65
2472.64224	794.85
2475.39782	784.65
2478.15167	818.55
2480.90379	829.35
2483.65417	859.35
2486.40283	879.45
2489.14976	901.25
2491.89497	887.75
2494.63845	893.25
2497.3802	880.85
2500.12024	874.05
2502.85855	858.45
2505.59514	846.65
2508.33002	825.65
2511.06318	781.45
2513.79462	769.15
2516.52435	703.75
2519.25237	682.55
2521.97867	676.85
2524.70327	668.35
2527.42616	657.75
2530.14734	669.15
2532.86681	650.15
2535.58458	650.15
2538.30065	651.35
2541.01501	671.85
2543.72768	663.35
2546.43864	679.45
2549.14791	679.05
2551.85548	682.65
2554.56136	695.25
2557.26554	699.15
2559.96803	698.95
2562.66883	705.35
2565.36794	703.25
2568.06536	677.35
2570.7611	715.35
2573.45514	697.45
2576.14751	699.55
2578.83819	687.15
2581.52719	676.85
2584.21451	668.15
2586.90015	657.05
2589.58411	648.75
2592.2664	657.85
2594.94701	663.95
2597.62594	666.35
2600.30321	608.65
2602.9788	638.85
2605.65273	638.35
2608.32498	646.95
2610.99557	671.25
2613.66449	643.45
2616.33175	664.75
2618.99734	670.85
2621.66128	673.35
2624.32355	658.15
2626.98416	644.95
2629.64311	634.65
2632.30041	624.45
2634.95605	607.45
2637.61004	593.45
2640.26238	577.65
2642.91306	576.05
2645.56209	599.65
2648.20948	588.35
2650.85521	575.65
2653.4993	600.45
2656.14175	595.35
2658.78255	590.45
2661.42171	567.95
2664.05923	609.65
2666.6951	623.05
2669.32934	634.25
2671.96194	653.65
2674.59291	635.35
2677.22224	645.05
2679.84993	638.25
2682.476	622.15
2685.10043	615.65
2687.72324	604.35
2690.34441	606.75
2692.96396	600.05
2695.58188	608.45
2698.19818	604.25
2700.81285	587.05
2703.4259	582.15
2706.03733	563.15
2708.64714	566.65
2711.25533	602.15
2713.86191	612.75
2716.46687	605.55
2719.07021	613.45
2721.67194	611.75
2724.27206	617.85
2726.87057	597.75
2729.46747	579.75
2732.06276	588.25
2734.65644	570.75
2737.24852	567.85
2739.83899	547.75
2742.42786	553.55
2745.01513	563.95
2747.60079	532.15
2750.18486	516.95
2752.76733	519.65
2755.3482	512.55
2757.92747	515.25
2760.50515	494.55
2763.08123	492.75
2765.65573	494.45
2768.22863	491.35
2770.79994	479.95
2773.36967	483.55
2775.9378	476.55
2778.50435	490.55
2781.06932	484.95
2783.6327	471.95
2786.1945	509.45
2788.75471	497.35
2791.31335	500.45
2793.87041	510.45
2796.42589	494.95
2798.97979	495.85
2801.53212	516.65
2804.08288	543.85
2806.63206	527.95
2809.17967	535.35
2811.72571	571.15
2814.27018	581.75
2816.81308	587.35
2819.35442	566.65
2821.89419	607.05
2824.43239	606.45
2826.96904	634.85
2829.50412	604.75
2832.03763	613.45
2834.56959	607.85
2837.1	593.15
2839.62884	582.45
2842.15613	581.65
2844.68186	584.85
2847.20604	565.95
2849.72867	575.35
2852.24974	595.95
2854.76927	576.35
2857.28724	548.85
2859.80367	623.25
2862.31855	646.05
2864.83189	657.15
2867.34368	675.65
2869.85393	701.55
2872.36264	680.05
2874.8698	690.15
2877.37543	693.85
2879.87952	680.75
2882.38207	645.15
2884.88308	649.85
2887.38256	632.35
2889.88051	620.75
2892.37692	615.95
2894.8718	593.25
2897.36515	617.45
2899.85698	610.55
2902.34727	621.45
2904.83604	627.15
2907.32328	657.75
2909.809	678.35
2912.29319	684.45
2914.77587	702.05
2917.25702	709.75
2919.73665	702.55
2922.21476	679.95
2924.69136	672.15
2927.16644	632.55
2929.64	618.25
2932.11205	599.25
2934.58258	604.05
2937.05161	589.35
2939.51912	582.95
2941.98513	604.25
2944.44962	584.25
2946.91261	568.55
2949.37409	577.55
2951.83407	584.65
2954.29254	577.45
2956.74951	585.85
2959.20498	580.95
2961.65895	588.35
2964.11142	574.95
2966.56239	578.15
2969.01186	571.65
2971.45984	563.95
2973.90632	553.95
2976.35131	586.05
2978.7948	572.25
2981.23681	564.25
2983.67732	576.25
2986.11635	579.85
2988.55388	559.85
2990.98993	570.85
2993.4245	567.75
2995.85758	566.95
2998.28917	572.75
3000.71928	567.45
3003.14791	577.95
3005.57506	568.45
3008.00073	565.45
3010.42493	504.85
3012.84764	566.75
3015.26888	554.55
3017.68865	555.65
3020.10694	512.55
3022.52376	532.55
3024.9391	530.45
3027.35298	516.95
3029.76539	496.85
3032.17632	495.15
3034.5858	480.45
3036.9938	476.95
3039.40034	462.35
3041.80542	441.05
3044.20903	428.15
3046.61118	421.55
3049.01187	438.15
3051.4111	419.75
3053.80888	416.95
3056.20519	412.35
3058.60005	401.55
3060.99345	427.95
3063.3854	405.65
3065.7759	397.75
3068.16494	395.75
3070.55254	390.25
3072.93868	404.15
3075.32338	392.55
3077.70662	388.75
3080.08842	384.15
3082.46878	369.55
3084.84769	394.45
3087.22515	367.75
3089.60118	381.85
3091.97576	367.85
3094.3489	376.05
3096.72061	369.95
3099.09087	356.85
3101.4597	367.55
3103.82709	362.35
3106.19305	343.75
3108.55757	356.45
3110.92066	351.25
3113.28232	369.85
3115.64255	364.15
3118.00134	373.85
3120.35871	354.45
3122.71466	343.15
3125.06917	355.15
3127.42226	359.15
3129.77393	339.85
3132.12417	358.45
3134.47299	368.65
3136.82039	351.55
3139.16636	334.05
3141.51092	360.65
3143.85406	363.45
3146.19579	350.45
3148.53609	349.55
3150.87499	360.85
3153.21246	357.35
3155.54853	361.25
3157.88318	370.65
3160.21642	366.85
3162.54826	365.55
3164.87868	365.65
3167.2077	334.35
3169.5353	346.55
3171.86151	353.55
3174.18631	337.45
3176.5097	329.45
3178.83169	332.45
3181.15228	329.55
3183.47147	306.15
3185.78926	287.95
3188.10565	308.75
3190.42065	286.05
3192.73424	299.75
3195.04645	295.15
3197.35725	285.25
3199.66667	299.65
3201.97469	294.75
3204.28132	293.35
3206.58656	306.85
3208.8904	310.35
3211.19287	306.05
3213.49394	302.35
3215.79363	301.65
3218.09193	319.35
3220.38884	306.65
3222.68438	313.85
3224.97853	289.25
3227.2713	313.55
3229.56269	296.25
3231.8527	301.35
3234.14133	287.65
3236.42858	290.95
3238.71446	277.05
3240.99896	292.95
3243.28209	276.65
3245.56384	285.05
3247.84423	279.45
3250.12324	291.45
3252.40088	288.95
3254.67715	274.15
3256.95205	261.05
3259.22558	282.35
3261.49775	280.55
3263.76855	275.75
3266.03799	286.85
3268.30606	285.45
3270.57277	287.45
3272.83812	276.15
3275.10211	285.45
3277.36474	308.75
3279.62601	309.85
3281.88593	292.95
3284.14448	287.15
3286.40168	313.95
3288.65753	309.45
3290.91202	322.95
3293.16516	313.05
3295.41695	351.45
3297.66738	357.25
3299.91647	349.25
3302.16421	368.15
3304.4106	337.05
3306.65564	372.05
3308.89933	341.05
3311.14169	359.95
3313.38269	363.15
3315.62236	354.45
3317.86068	361.25
3320.09766	373.85
3322.3333	355.95
3324.5676	366.15
3326.80056	367.95
3329.03219	377.55
3331.26248	0.05
3333.49143	-0.45
3335.71905	0.85
