Data from AgNPs_UA_20uM_CRN_500uM_SU_RamanShift__37__13-42-40-298.txt Node

Date: Thu Aug 04 13:42:40 BST 2022
User: TCL
Spectrometer: QEP01345
Trigger mode: 4
Integration Time (sec): 1.000000E0
Scans to average: 10
Electric dark correction enabled: true
Nonlinearity correction enabled: false
Boxcar width: 0
XAxis mode: Raman Shifts
Number of Pixels in Spectrum: 1044
>>>>>Begin Spectral Data<<<<<
46.04893	-1.825
50.45542	-0.225
54.85868	0.475
59.25871	-1.125
63.6555	17.275
68.04907	15.875
72.43941	19.275
76.82654	17.875
81.21044	19.775
85.59113	18.875
89.96862	20.975
94.34289	20.375
98.71396	23.575
103.08183	24.875
107.4465	22.375
111.80798	24.575
116.16626	27.175
120.52136	28.275
124.87327	25.675
129.222	33.675
133.56755	31.275
137.90993	32.975
142.24913	39.075
146.58517	43.275
150.91804	49.575
155.24774	61.775
159.57429	77.075
163.89768	101.475
168.21792	135.075
172.53501	184.375
176.84895	255.575
181.15975	366.375
185.46741	512.175
189.77193	709.375
194.07331	955.575
198.37157	1246.175
202.6667	1536.675
206.9587	1836.175
211.24758	2135.175
215.53334	2439.175
219.81599	2767.775
224.09553	3126.975
228.37195	3512.675
232.64527	3949.975
236.91549	4359.475
241.18261	4761.475
245.44663	5111.175
249.70755	5385.175
253.96539	5624.675
258.22014	5805.175
262.4718	5969.075
266.72039	6084.575
270.96589	6135.475
275.20832	6091.975
279.44768	6024.575
283.68397	5909.675
287.91719	5838.775
292.14735	5815.575
296.37445	5910.375
300.59849	6054.475
304.81948	6232.675
309.03742	6404.075
313.25231	6492.975
317.46415	6408.075
321.67296	6225.975
325.87872	6017.875
330.08145	5897.375
334.28114	5914.375
338.47781	5964.275
342.67145	6093.675
346.86207	6258.975
351.04966	6475.375
355.23424	6701.975
359.4158	6889.575
363.59435	6987.175
367.76989	6988.975
371.94243	7018.275
376.11196	7007.075
380.27849	7016.475
384.44203	7007.575
388.60257	7035.075
392.76012	7093.775
396.91468	7202.175
401.06626	7289.475
405.21485	7316.575
409.36047	7234.875
413.50311	7060.275
417.64277	6900.275
421.77947	6776.375
425.9132	6742.975
430.04396	6754.575
434.17176	6772.275
438.2966	6831.375
442.41849	6946.375
446.53742	7065.375
450.6534	7175.475
454.76644	7288.475
458.87653	7296.075
462.98368	7300.775
467.08789	7269.975
471.18916	7209.375
475.2875	7119.975
479.38291	7000.775
483.4754	6958.175
487.56496	6906.175
491.6516	6890.175
495.73531	6895.475
499.81612	6900.575
503.89401	6956.175
507.96899	6990.275
512.04106	7061.475
516.11023	7104.475
520.1765	7151.975
524.23987	7166.675
528.30034	7166.875
532.35792	7130.175
536.41261	7092.675
540.46441	7033.475
544.51333	7021.975
548.55936	7082.875
552.60252	7138.675
556.64279	7241.875
560.6802	7347.575
564.71473	7413.675
568.7464	7479.975
572.7752	7460.275
576.80114	7317.275
580.82422	7174.175
584.84444	7120.675
588.86181	7120.375
592.87633	7163.275
596.888	7286.775
600.89682	7574.675
604.9028	8282.275
608.90594	9748.275
612.90624	11212.475
616.90371	10497.575
620.89834	8449.975
624.89015	7590.475
628.87913	7476.475
632.86528	7615.475
636.84862	7739.175
640.82913	7644.175
644.80683	7425.275
648.78172	7289.575
652.75379	7308.875
656.72306	7481.575
660.68952	7666.575
664.65319	7618.875
668.61405	7513.475
672.57211	7551.175
676.52738	7561.975
680.47986	7474.375
684.42955	7337.575
688.37646	7306.275
692.32058	7358.875
696.26192	7464.875
700.20048	7561.975
704.13626	7621.275
708.06928	7580.475
711.99952	7503.875
715.927	7499.375
719.85171	7538.275
723.77365	7572.275
727.69284	7542.275
731.60928	7470.375
735.52295	7464.675
739.43388	7501.075
743.34206	7500.075
747.24749	7529.575
751.15017	7522.875
755.05012	7596.375
758.94733	7814.775
762.8418	8338.375
766.73354	9180.375
770.62254	9859.575
774.50882	10007.775
778.39237	9713.775
782.27321	9138.075
786.15132	8468.775
790.02671	7991.675
793.89938	7732.875
797.76935	7622.975
801.6366	7583.075
805.50115	7524.675
809.36299	7527.975
813.22213	7503.575
817.07857	7529.775
820.93231	7533.175
824.78336	7541.275
828.63172	7553.675
832.47738	7564.675
836.32036	7560.175
840.16066	7520.075
843.99827	7539.075
847.8332	7554.675
851.66546	7560.275
855.49504	7571.575
859.32195	7598.075
863.1462	7616.775
866.96777	7601.175
870.78668	7588.775
874.60293	7631.975
878.41652	7657.775
882.22745	7702.175
886.03573	7740.475
889.84136	7744.375
893.64433	7701.075
897.44466	7705.575
901.24235	7695.175
905.0374	7653.575
908.8298	7652.575
912.61957	7636.075
916.40671	7627.675
920.19121	7645.475
923.97308	7695.175
927.75233	7737.075
931.52895	7790.775
935.30295	7773.975
939.07433	7652.275
942.84309	7583.075
946.60924	7545.975
950.37278	7522.075
954.13371	7524.875
957.89203	7552.875
961.64774	7543.075
965.40086	7541.475
969.15137	7532.975
972.89929	7500.675
976.64461	7526.675
980.38733	7528.475
984.12747	7529.175
987.86502	7567.675
991.59999	7616.075
995.33237	7643.075
999.06217	7701.675
1002.78939	7785.475
1006.51404	7889.175
1010.23611	8008.475
1013.95561	8063.075
1017.67255	8068.175
1021.38692	8030.975
1025.09872	7981.475
1028.80796	7903.075
1032.51465	7872.575
1036.21877	7892.375
1039.92035	7891.075
1043.61937	7957.075
1047.31584	7974.275
1051.00976	7993.175
1054.70114	8006.075
1058.38998	8039.375
1062.07627	8057.875
1065.76003	8151.775
1069.44126	8208.675
1073.11995	8342.375
1076.79611	8474.875
1080.46974	8598.275
1084.14085	8675.075
1087.80943	8729.675
1091.47549	8787.475
1095.13903	8840.275
1098.80005	8798.475
1102.45857	8776.975
1106.11456	8724.475
1109.76805	8629.375
1113.41903	8612.975
1117.06751	8683.075
1120.71348	8815.775
1124.35696	8987.875
1127.99793	9073.675
1131.63641	8971.675
1135.2724	8730.775
1138.90589	8563.075
1142.5369	8480.975
1146.16542	8436.575
1149.79145	8377.975
1153.415	8348.175
1157.03607	8263.075
1160.65467	8291.375
1164.27079	8420.575
1167.88443	8601.875
1171.49561	8901.975
1175.10432	9358.375
1178.71056	10009.275
1182.31434	10568.875
1185.91565	10765.075
1189.51451	10681.975
1193.11091	10520.275
1196.70485	10358.575
1200.29634	10151.675
1203.88538	9949.975
1207.47197	9650.175
1211.05612	9360.675
1214.63782	9133.375
1218.21708	8942.175
1221.79391	8813.875
1225.36829	8734.875
1228.94024	8699.175
1232.50976	8709.175
1236.07685	8719.175
1239.6415	8740.175
1243.20374	8776.675
1246.76355	8813.875
1250.32093	8914.075
1253.8759	9013.675
1257.42845	9211.875
1260.97859	9425.375
1264.52631	9615.275
1268.07163	9765.875
1271.61453	9807.475
1275.15503	9831.375
1278.69312	9835.775
1282.22882	9836.475
1285.76211	9862.575
1289.29301	9952.375
1292.82151	10116.375
1296.34761	10322.075
1299.87133	10591.775
1303.39266	11048.275
1306.9116	11702.775
1310.42815	12419.475
1313.94233	12670.075
1317.45412	12281.975
1320.96354	11700.175
1324.47058	11134.475
1327.97525	10654.775
1331.47754	10346.075
1334.97747	10255.675
1338.47502	10367.975
1341.97022	10662.475
1345.46305	11233.375
1348.95352	12004.675
1352.44163	12825.675
1355.92738	13590.575
1359.41078	14498.575
1362.89183	15264.275
1366.37053	14715.075
1369.84688	12970.675
1373.32088	11308.375
1376.79254	10382.175
1380.26186	9933.475
1383.72883	9663.175
1387.19347	9414.875
1390.65578	9149.475
1394.11575	8948.175
1397.57339	8783.775
1401.0287	8694.275
1404.48168	8660.375
1407.93234	8676.075
1411.38068	8741.375
1414.82669	8829.575
1418.27039	8853.575
1421.71177	8836.275
1425.15083	8792.475
1428.58758	8741.075
1432.02203	8740.075
1435.45416	8782.475
1438.88399	8808.975
1442.31151	8822.475
1445.73673	8817.175
1449.15965	8840.375
1452.58027	8820.575
1455.9986	8785.175
1459.41463	8807.175
1462.82837	8861.775
1466.23982	8990.875
1469.64898	9128.375
1473.05586	9256.975
1476.46045	9325.575
1479.86276	9405.075
1483.26279	9538.675
1486.66054	9664.375
1490.05602	9912.875
1493.44922	10274.575
1496.84016	10851.975
1500.22882	11718.975
1503.61521	12805.475
1506.99934	13782.975
1510.38121	14320.675
1513.76081	14052.175
1517.13816	13118.075
1520.51324	11905.075
1523.88607	10889.475
1527.25665	10298.575
1530.62498	9997.075
1533.99105	9854.975
1537.35488	9780.775
1540.71647	9701.275
1544.07581	9656.775
1547.4329	9579.275
1550.78776	9486.275
1554.14038	9417.575
1557.49077	9402.275
1560.83892	9457.475
1564.18484	9653.475
1567.52853	9846.975
1570.86999	10055.775
1574.20922	10145.275
1577.54624	10048.675
1580.88103	9669.175
1584.2136	9280.475
1587.54395	9015.875
1590.87208	9027.575
1594.19801	9190.675
1597.52172	9473.675
1600.84321	9593.975
1604.16251	9559.975
1607.47959	9442.375
1610.79447	9220.875
1614.10715	8896.775
1617.41763	8574.875
1620.7259	8350.475
1624.03199	8203.475
1627.33587	8178.475
1630.63757	8222.275
1633.93707	8371.075
1637.23439	8690.375
1640.52951	9244.175
1643.82246	9995.475
1647.11321	10825.075
1650.40179	11255.375
1653.68819	10947.875
1656.97241	9993.775
1660.25446	9015.075
1663.53433	8311.875
1666.81203	7906.375
1670.08756	7677.475
1673.36092	7564.275
1676.63211	7465.675
1679.90115	7385.875
1683.16801	7324.375
1686.43272	7292.775
1689.69527	7230.875
1692.95567	7204.875
1696.2139	7164.975
1699.46999	7127.075
1702.72392	7149.375
1705.97571	7170.075
1709.22535	7137.475
1712.47284	7137.575
1715.71819	7142.975
1718.96139	7112.575
1722.20246	7092.975
1725.44139	7094.375
1728.67818	7063.075
1731.91284	7029.075
1735.14537	7002.775
1738.37576	6957.975
1741.60403	6961.775
1744.83017	6959.975
1748.05418	6961.975
1751.27607	6929.875
1754.49584	6907.875
1757.71349	6894.275
1760.92903	6870.975
1764.14244	6874.375
1767.35375	6861.575
1770.56294	6847.875
1773.77002	6858.075
1776.97499	6837.675
1780.17785	6827.475
1783.37861	6780.075
1786.57727	6778.475
1789.77382	6783.175
1792.96828	6769.875
1796.16064	6738.675
1799.3509	6731.875
1802.53907	6723.075
1805.72514	6703.375
1808.90913	6690.875
1812.09102	6694.575
1815.27083	6664.175
1818.44856	6659.775
1821.6242	6650.675
1824.79776	6652.675
1827.96924	6637.275
1831.13864	6613.175
1834.30597	6602.275
1837.47122	6600.075
1840.6344	6570.675
1843.7955	6551.475
1846.95454	6559.875
1850.11151	6572.575
1853.26642	6553.275
1856.41926	6564.775
1859.57004	6555.475
1862.71876	6540.575
1865.86542	6537.775
1869.01003	6530.775
1872.15258	6511.575
1875.29308	6508.175
1878.43152	6510.775
1881.56792	6489.875
1884.70227	6490.175
1887.83457	6501.775
1890.96482	6491.475
1894.09304	6454.475
1897.21921	6440.575
1900.34335	6434.575
1903.46544	6439.975
1906.58551	6437.075
1909.70353	6433.675
1912.81953	6409.075
1915.93349	6393.775
1919.04543	6378.575
1922.15534	6391.275
1925.26322	6374.675
1928.36908	6334.475
1931.47292	6335.475
1934.57473	6330.975
1937.67453	6310.175
1940.77232	6291.175
1943.86808	6278.875
1946.96184	6248.775
1950.05358	6246.675
1953.14331	6228.375
1956.23103	6195.975
1959.31675	6168.075
1962.40046	6167.675
1965.48217	6141.175
1968.56188	6124.875
1971.63959	6119.575
1974.7153	6106.275
1977.78901	6070.575
1980.86073	6066.475
1983.93046	6029.475
1986.99819	6022.075
1990.06394	6014.675
1993.1277	5974.475
1996.18947	5957.575
1999.24925	5975.475
2002.30706	5929.575
2005.36288	5896.075
2008.41672	5871.775
2011.46859	5878.575
2014.51848	5868.075
2017.56639	5857.875
2020.61233	5837.375
2023.6563	5803.175
2026.6983	5803.775
2029.73833	5774.875
2032.7764	5775.975
2035.8125	5757.875
2038.84664	5735.875
2041.87881	5726.675
2044.90903	5724.175
2047.93729	5718.175
2050.96359	5689.675
2053.98794	5685.575
2057.01034	5682.375
2060.03078	5661.275
2063.04927	5654.475
2066.06582	5662.875
2069.08042	5662.675
2072.09307	5642.475
2075.10378	5647.975
2078.11255	5627.075
2081.11938	5622.075
2084.12426	5619.575
2087.12722	5617.075
2090.12824	5621.575
2093.12732	5617.175
2096.12447	5636.875
2099.11969	5617.075
2102.11299	5605.575
2105.10435	5633.775
2108.09379	5620.775
2111.08131	5623.075
2114.0669	5625.975
2117.05057	5624.875
2120.03233	5612.975
2123.01216	5606.575
2125.99008	5627.275
2128.96609	5650.975
2131.94018	5654.975
2134.91236	5642.175
2137.88263	5637.675
2140.851	5640.975
2143.81746	5640.775
2146.78201	5648.675
2149.74466	5634.575
2152.7054	5621.975
2155.66425	5629.975
2158.6212	5624.075
2161.57625	5649.575
2164.52941	5643.875
2167.48067	5629.275
2170.43004	5615.175
2173.37752	5600.075
2176.32311	5610.775
2179.26681	5607.675
2182.20863	5614.075
2185.14856	5605.875
2188.08661	5612.475
2191.02278	5594.675
2193.95707	5590.175
2196.88948	5598.575
2199.82001	5603.875
2202.74867	5581.875
2205.67545	5602.275
2208.60037	5587.175
2211.52341	5571.075
2214.44458	5546.775
2217.36388	5512.975
2220.28132	5508.875
2223.1969	5477.075
2226.11061	5491.875
2229.02246	5464.075
2231.93245	5454.075
2234.84058	5458.375
2237.74686	5451.575
2240.65128	5445.975
2243.55385	5451.075
2246.45456	5442.675
2249.35343	5430.375
2252.25044	5427.375
2255.14561	5424.775
2258.03893	5411.875
2260.93041	5392.275
2263.82004	5395.875
2266.70783	5376.675
2269.59378	5366.175
2272.4779	5357.675
2275.36017	5333.275
2278.24061	5321.975
2281.11922	5306.375
2283.996	5283.475
2286.87094	5296.875
2289.74405	5276.675
2292.61534	5263.375
2295.4848	5264.475
2298.35243	5247.775
2301.21824	5268.975
2304.08223	5264.575
2306.94439	5232.075
2309.80474	5236.475
2312.66327	5226.875
2315.51999	5211.275
2318.37489	5219.775
2321.22797	5207.075
2324.07925	5180.075
2326.92871	5171.875
2329.77637	5164.775
2332.62222	5169.975
2335.46626	5141.475
2338.3085	5145.475
2341.14893	5115.275
2343.98756	5121.975
2346.8244	5121.675
2349.65943	5137.975
2352.49267	5121.975
2355.32411	5108.675
2358.15376	5105.775
2360.98161	5104.775
2363.80768	5102.375
2366.63195	5108.175
2369.45444	5099.075
2372.27514	5077.875
2375.09405	5095.675
2377.91118	5107.175
2380.72652	5068.175
2383.54009	5041.975
2386.35187	5035.075
2389.16188	5026.475
2391.97011	5008.175
2394.77657	5016.075
2397.58125	5012.775
2400.38416	4991.475
2403.18529	4986.675
2405.98466	4984.375
2408.78226	4971.475
2411.57809	4963.275
2414.37216	4928.275
2417.16446	4944.975
2419.955	4932.975
2422.74378	4935.975
2425.5308	4921.175
2428.31606	4911.475
2431.09956	4915.575
2433.88131	4893.975
2436.6613	4898.875
2439.43954	4917.575
2442.21603	4891.975
2444.99077	4898.775
2447.76377	4882.575
2450.53501	4890.575
2453.30451	4894.175
2456.07226	4849.475
2458.83827	4856.375
2461.60254	4863.475
2464.36507	4854.875
2467.12586	4832.175
2469.88492	4846.175
2472.64224	4837.875
2475.39782	4852.875
2478.15167	4831.675
2480.90379	4820.475
2483.65417	4810.675
2486.40283	4819.975
2489.14976	4816.775
2491.89497	4820.575
2494.63845	4809.075
2497.3802	4799.675
2500.12024	4798.375
2502.85855	4786.875
2505.59514	4772.575
2508.33002	4756.875
2511.06318	4755.375
2513.79462	4724.875
2516.52435	4724.175
2519.25237	4732.275
2521.97867	4717.075
2524.70327	4706.175
2527.42616	4706.175
2530.14734	4701.175
2532.86681	4682.775
2535.58458	4686.275
2538.30065	4675.575
2541.01501	4670.075
2543.72768	4670.975
2546.43864	4663.275
2549.14791	4652.875
2551.85548	4638.975
2554.56136	4646.275
2557.26554	4654.975
2559.96803	4627.975
2562.66883	4624.875
2565.36794	4616.975
2568.06536	4584.375
2570.7611	4572.875
2573.45514	4566.875
2576.14751	4566.275
2578.83819	4551.475
2581.52719	4542.675
2584.21451	4528.175
2586.90015	4513.475
2589.58411	4499.075
2592.2664	4494.775
2594.94701	4498.175
2597.62594	4475.975
2600.30321	4479.575
2602.9788	4461.775
2605.65273	4469.775
2608.32498	4462.275
2610.99557	4439.975
2613.66449	4458.475
2616.33175	4426.775
2618.99734	4429.075
2621.66128	4416.975
2624.32355	4418.275
2626.98416	4416.675
2629.64311	4396.375
2632.30041	4381.875
2634.95605	4373.175
2637.61004	4363.675
2640.26238	4357.775
2642.91306	4345.075
2645.56209	4345.875
2648.20948	4349.575
2650.85521	4342.775
2653.4993	4336.675
2656.14175	4336.975
2658.78255	4343.675
2661.42171	4336.075
2664.05923	4343.975
2666.6951	4359.775
2669.32934	4345.975
2671.96194	4343.375
2674.59291	4331.075
2677.22224	4341.475
2679.84993	4342.075
2682.476	4329.975
2685.10043	4321.775
2687.72324	4304.275
2690.34441	4310.075
2692.96396	4313.675
2695.58188	4309.375
2698.19818	4304.175
2700.81285	4299.875
2703.4259	4310.775
2706.03733	4304.275
2708.64714	4286.175
2711.25533	4284.875
2713.86191	4275.075
2716.46687	4294.475
2719.07021	4278.975
2721.67194	4307.475
2724.27206	4295.975
2726.87057	4292.375
2729.46747	4289.575
2732.06276	4283.475
2734.65644	4280.975
2737.24852	4279.075
2739.83899	4265.675
2742.42786	4277.175
2745.01513	4264.375
2747.60079	4255.475
2750.18486	4247.775
2752.76733	4253.075
2755.3482	4234.475
2757.92747	4222.475
2760.50515	4199.775
2763.08123	4204.675
2765.65573	4199.175
2768.22863	4198.975
2770.79994	4186.375
2773.36967	4186.975
2775.9378	4170.775
2778.50435	4178.875
2781.06932	4144.775
2783.6327	4157.975
2786.1945	4146.175
2788.75471	4112.575
2791.31335	4132.175
2793.87041	4119.575
2796.42589	4114.575
2798.97979	4104.175
2801.53212	4104.475
2804.08288	4073.475
2806.63206	4084.075
2809.17967	4079.475
2811.72571	4070.075
2814.27018	4067.875
2816.81308	4049.675
2819.35442	4044.475
2821.89419	4014.575
2824.43239	4018.475
2826.96904	3994.975
2829.50412	4013.375
2832.03763	4011.675
2834.56959	3976.875
2837.1	3981.475
2839.62884	3976.575
2842.15613	3971.975
2844.68186	3954.675
2847.20604	3953.075
2849.72867	3939.075
2852.24974	3931.975
2854.76927	3922.375
2857.28724	3922.475
2859.80367	3913.575
2862.31855	3902.475
2864.83189	3907.475
2867.34368	3893.375
2869.85393	3908.975
2872.36264	3895.375
2874.8698	3885.775
2877.37543	3877.975
2879.87952	3871.675
2882.38207	3875.275
2884.88308	3870.775
2887.38256	3869.075
2889.88051	3862.675
2892.37692	3870.275
2894.8718	3851.875
2897.36515	3855.375
2899.85698	3847.975
2902.34727	3861.675
2904.83604	3855.975
2907.32328	3863.875
2909.809	3850.875
2912.29319	3862.275
2914.77587	3855.375
2917.25702	3865.175
2919.73665	3855.875
2922.21476	3854.775
2924.69136	3858.075
2927.16644	3852.075
2929.64	3834.175
2932.11205	3821.675
2934.58258	3810.175
2937.05161	3815.975
2939.51912	3817.575
2941.98513	3803.175
2944.44962	3794.575
2946.91261	3789.175
2949.37409	3800.575
2951.83407	3785.775
2954.29254	3782.475
2956.74951	3777.875
2959.20498	3787.175
2961.65895	3777.575
2964.11142	3769.075
2966.56239	3758.275
2969.01186	3774.575
2971.45984	3755.775
2973.90632	3756.875
2976.35131	3754.475
2978.7948	3753.275
2981.23681	3727.275
2983.67732	3729.075
2986.11635	3720.375
2988.55388	3713.275
2990.98993	3714.275
2993.4245	3712.075
2995.85758	3694.175
2998.28917	3697.175
3000.71928	3679.475
3003.14791	3675.775
3005.57506	3660.975
3008.00073	3643.075
3010.42493	3639.275
3012.84764	3636.075
3015.26888	3623.075
3017.68865	3630.275
3020.10694	3615.675
3022.52376	3612.175
3024.9391	3610.175
3027.35298	3577.875
3029.76539	3566.275
3032.17632	3579.375
3034.5858	3567.675
3036.9938	3565.675
3039.40034	3556.675
3041.80542	3540.075
3044.20903	3534.575
3046.61118	3535.175
3049.01187	3506.875
3051.4111	3523.175
3053.80888	3520.575
3056.20519	3504.775
3058.60005	3478.275
3060.99345	3493.575
3063.3854	3480.075
3065.7759	3486.575
3068.16494	3484.075
3070.55254	3456.375
3072.93868	3446.675
3075.32338	3431.775
3077.70662	3423.675
3080.08842	3401.275
3082.46878	3410.075
3084.84769	3396.075
3087.22515	3392.775
3089.60118	3393.775
3091.97576	3389.175
3094.3489	3399.675
3096.72061	3380.875
3099.09087	3374.975
3101.4597	3390.475
3103.82709	3377.775
3106.19305	3366.975
3108.55757	3369.775
3110.92066	3359.875
3113.28232	3350.575
3115.64255	3347.075
3118.00134	3335.475
3120.35871	3329.575
3122.71466	3315.075
3125.06917	3329.375
3127.42226	3322.575
3129.77393	3314.975
3132.12417	3291.275
3134.47299	3289.375
3136.82039	3279.475
3139.16636	3271.275
3141.51092	3274.775
3143.85406	3287.275
3146.19579	3280.075
3148.53609	3279.875
3150.87499	3273.775
3153.21246	3274.975
3155.54853	3268.275
3157.88318	3262.375
3160.21642	3280.875
3162.54826	3271.775
3164.87868	3273.775
3167.2077	3256.575
3169.5353	3253.075
3171.86151	3246.675
3174.18631	3249.375
3176.5097	3249.275
3178.83169	3232.175
3181.15228	3236.075
3183.47147	3215.675
3185.78926	3228.575
3188.10565	3215.075
3190.42065	3199.775
3192.73424	3199.075
3195.04645	3187.175
3197.35725	3185.075
3199.66667	3177.275
3201.97469	3171.075
3204.28132	3167.375
3206.58656	3174.875
3208.8904	3180.875
3211.19287	3182.075
3213.49394	3174.275
3215.79363	3175.875
3218.09193	3172.375
3220.38884	3162.675
3222.68438	3175.975
3224.97853	3168.375
3227.2713	3166.975
3229.56269	3165.875
3231.8527	3140.175
3234.14133	3137.375
