Data from AgNPs_UA_5uM_CRN_500uM_SU_RamanShift__193__12-01-33-178.txt Node

Date: Thu Aug 04 12:01:33 BST 2022
User: TCL
Spectrometer: QEP01345
Trigger mode: 4
Integration Time (sec): 1.000000E0
Scans to average: 10
Electric dark correction enabled: true
Nonlinearity correction enabled: false
Boxcar width: 0
XAxis mode: Raman Shifts
Number of Pixels in Spectrum: 1044
>>>>>Begin Spectral Data<<<<<
46.04893	0.075
50.45542	-0.425
54.85868	0.275
59.25871	-0.825
63.6555	-56.625
68.04907	-39.625
72.43941	-72.125
76.82654	-58.025
81.21044	-56.725
85.59113	-48.125
89.96862	-75.125
94.34289	-54.925
98.71396	-75.925
103.08183	-57.525
107.4465	-50.625
111.80798	-56.025
116.16626	-44.425
120.52136	-74.125
124.87327	-50.725
129.222	-63.625
133.56755	-52.825
137.90993	-62.325
142.24913	-52.225
146.58517	-42.925
150.91804	-40.825
155.24774	-28.225
159.57429	-8.325
163.89768	-5.825
168.21792	39.175
172.53501	58.575
176.84895	141.475
181.15975	274.775
185.46741	423.775
189.77193	608.875
194.07331	899.575
198.37157	1187.175
202.6667	1472.575
206.9587	1793.775
211.24758	2109.075
215.53334	2435.075
219.81599	2792.675
224.09553	3204.975
228.37195	3652.175
232.64527	4113.475
236.91549	4566.875
241.18261	4928.075
245.44663	5214.775
249.70755	5397.675
253.96539	5537.775
258.22014	5629.475
262.4718	5706.875
266.72039	5755.075
270.96589	5712.675
275.20832	5624.375
279.44768	5513.275
283.68397	5392.475
287.91719	5333.475
292.14735	5386.575
296.37445	5544.375
300.59849	5834.575
304.81948	6177.275
309.03742	6550.175
313.25231	6800.375
317.46415	6745.075
321.67296	6327.975
325.87872	5950.975
330.08145	5744.475
334.28114	5700.175
338.47781	5754.475
342.67145	5900.475
346.86207	6139.875
351.04966	6517.875
355.23424	6911.475
359.4158	7189.775
363.59435	7222.675
367.76989	7145.175
371.94243	7030.175
376.11196	6904.475
380.27849	6827.175
384.44203	6744.175
388.60257	6695.975
392.76012	6734.475
396.91468	6847.675
401.06626	6988.075
405.21485	7007.675
409.36047	6882.775
413.50311	6545.975
417.64277	6254.675
421.77947	6040.075
425.9132	5963.475
430.04396	5972.975
434.17176	5988.775
438.2966	6099.675
442.41849	6197.975
446.53742	6310.475
450.6534	6398.475
454.76644	6465.975
458.87653	6486.975
462.98368	6453.775
467.08789	6383.975
471.18916	6291.975
475.2875	6182.875
479.38291	6079.275
483.4754	5968.475
487.56496	5940.775
491.6516	5904.275
495.73531	5899.575
499.81612	5936.275
503.89401	6038.675
507.96899	6085.475
512.04106	6175.375
516.11023	6274.075
520.1765	6352.475
524.23987	6392.275
528.30034	6378.975
532.35792	6297.775
536.41261	6246.175
540.46441	6145.375
544.51333	6098.975
548.55936	6133.875
552.60252	6267.175
556.64279	6378.075
560.6802	6499.275
564.71473	6641.775
568.7464	6838.675
572.7752	6803.975
576.80114	6485.475
580.82422	6257.075
584.84444	6146.875
588.86181	6131.075
592.87633	6150.975
596.888	6299.675
600.89682	6658.375
604.9028	7618.175
608.90594	9715.575
612.90624	12106.675
616.90371	11246.375
620.89834	8143.475
624.89015	6807.475
628.87913	6590.675
632.86528	6746.675
636.84862	6917.775
640.82913	6765.175
644.80683	6434.175
648.78172	6265.875
652.75379	6259.975
656.72306	6503.775
660.68952	6759.375
664.65319	6648.375
668.61405	6436.675
672.57211	6360.175
676.52738	6342.175
680.47986	6260.775
684.42955	6175.275
688.37646	6123.475
692.32058	6126.875
696.26192	6190.675
700.20048	6314.575
704.13626	6332.775
708.06928	6285.575
711.99952	6268.775
715.927	6223.175
719.85171	6268.375
723.77365	6338.575
727.69284	6284.275
731.60928	6288.475
735.52295	6260.275
739.43388	6307.275
743.34206	6329.175
747.24749	6341.575
751.15017	6346.875
755.05012	6401.775
758.94733	6792.575
762.8418	7660.275
766.73354	8988.275
770.62254	9997.475
774.50882	10070.475
778.39237	9566.075
782.27321	8631.975
786.15132	7581.975
790.02671	6904.075
793.89938	6508.475
797.76935	6393.575
801.6366	6317.875
805.50115	6252.075
809.36299	6257.575
813.22213	6257.175
817.07857	6272.775
820.93231	6248.075
824.78336	6264.375
828.63172	6303.675
832.47738	6287.575
836.32036	6304.475
840.16066	6273.775
843.99827	6250.975
847.8332	6238.575
851.66546	6259.075
855.49504	6242.675
859.32195	6292.975
863.1462	6271.875
866.96777	6265.475
870.78668	6248.575
874.60293	6293.875
878.41652	6310.475
882.22745	6378.775
886.03573	6418.075
889.84136	6404.275
893.64433	6417.675
897.44466	6421.875
901.24235	6402.375
905.0374	6385.475
908.8298	6317.375
912.61957	6296.775
916.40671	6242.275
920.19121	6307.475
923.97308	6406.275
927.75233	6453.775
931.52895	6541.775
935.30295	6506.975
939.07433	6347.675
942.84309	6213.175
946.60924	6195.975
950.37278	6151.775
954.13371	6152.275
957.89203	6148.475
961.64774	6184.375
965.40086	6136.875
969.15137	6131.175
972.89929	6172.175
976.64461	6152.075
980.38733	6166.675
984.12747	6166.175
987.86502	6173.275
991.59999	6202.275
995.33237	6293.675
999.06217	6359.175
1002.78939	6415.175
1006.51404	6567.575
1010.23611	6687.675
1013.95561	6729.375
1017.67255	6730.575
1021.38692	6690.875
1025.09872	6625.875
1028.80796	6555.475
1032.51465	6555.575
1036.21877	6541.175
1039.92035	6585.075
1043.61937	6627.275
1047.31584	6682.675
1051.00976	6700.275
1054.70114	6727.675
1058.38998	6712.675
1062.07627	6698.475
1065.76003	6729.475
1069.44126	6828.275
1073.11995	6903.475
1076.79611	7030.375
1080.46974	7202.075
1084.14085	7349.375
1087.80943	7482.375
1091.47549	7508.975
1095.13903	7433.675
1098.80005	7304.575
1102.45857	7223.175
1106.11456	7184.275
1109.76805	7100.775
1113.41903	7236.475
1117.06751	7400.475
1120.71348	7675.175
1124.35696	8050.875
1127.99793	8346.675
1131.63641	8190.475
1135.2724	7768.975
1138.90589	7459.475
1142.5369	7273.075
1146.16542	7162.675
1149.79145	7047.475
1153.415	7023.375
1157.03607	7007.575
1160.65467	7105.875
1164.27079	7296.475
1167.88443	7547.075
1171.49561	7977.675
1175.10432	8576.075
1178.71056	9498.475
1182.31434	10290.075
1185.91565	10524.275
1189.51451	10365.975
1193.11091	10131.675
1196.70485	9885.375
1200.29634	9652.975
1203.88538	9370.875
1207.47197	8934.075
1211.05612	8469.375
1214.63782	8079.075
1218.21708	7804.275
1221.79391	7673.475
1225.36829	7602.875
1228.94024	7567.175
1232.50976	7590.275
1236.07685	7616.375
1239.6415	7634.975
1243.20374	7667.975
1246.76355	7693.075
1250.32093	7762.075
1253.8759	7846.375
1257.42845	8020.375
1260.97859	8228.275
1264.52631	8463.175
1268.07163	8622.775
1271.61453	8751.875
1275.15503	8797.875
1278.69312	8787.375
1282.22882	8854.875
1285.76211	9056.975
1289.29301	9317.375
1292.82151	9581.275
1296.34761	9805.775
1299.87133	10194.675
1303.39266	10891.975
1306.9116	12050.275
1310.42815	13310.075
1313.94233	13755.875
1317.45412	12916.475
1320.96354	11790.775
1324.47058	10762.775
1327.97525	10017.775
1331.47754	9595.775
1334.97747	9500.675
1338.47502	9629.575
1341.97022	10001.275
1345.46305	10715.775
1348.95352	11802.975
1352.44163	13100.675
1355.92738	14428.075
1359.41078	16107.875
1362.89183	17615.475
1366.37053	16931.575
1369.84688	14103.975
1373.32088	11433.775
1376.79254	10026.775
1380.26186	9353.975
1383.72883	8977.175
1387.19347	8546.175
1390.65578	8222.675
1394.11575	7954.675
1397.57339	7797.775
1401.0287	7693.075
1404.48168	7650.975
1407.93234	7665.675
1411.38068	7693.075
1414.82669	7771.775
1418.27039	7861.175
1421.71177	7866.375
1425.15083	7754.475
1428.58758	7665.775
1432.02203	7674.875
1435.45416	7786.275
1438.88399	7781.175
1442.31151	7782.375
1445.73673	7846.375
1449.15965	7882.775
1452.58027	7918.375
1455.9986	7907.175
1459.41463	7915.275
1462.82837	8008.075
1466.23982	8194.375
1469.64898	8426.975
1473.05586	8542.775
1476.46045	8662.075
1479.86276	8710.075
1483.26279	8804.275
1486.66054	9025.975
1490.05602	9279.675
1493.44922	9828.275
1496.84016	10711.475
1500.22882	12068.875
1503.61521	13788.475
1506.99934	15582.275
1510.38121	16809.175
1513.76081	16688.475
1517.13816	15145.375
1520.51324	12970.275
1523.88607	11283.875
1527.25665	10268.075
1530.62498	9724.675
1533.99105	9536.775
1537.35488	9409.675
1540.71647	9310.475
1544.07581	9187.375
1547.4329	9060.875
1550.78776	8940.375
1554.14038	8860.275
1557.49077	8829.875
1560.83892	8929.075
1564.18484	9147.975
1567.52853	9499.175
1570.86999	9799.675
1574.20922	9951.575
1577.54624	9848.575
1580.88103	9332.975
1584.2136	8644.075
1587.54395	8279.975
1590.87208	8207.875
1594.19801	8377.975
1597.52172	8732.475
1600.84321	8886.775
1604.16251	8728.175
1607.47959	8554.575
1610.79447	8378.075
1614.10715	8066.775
1617.41763	7783.075
1620.7259	7505.275
1624.03199	7344.775
1627.33587	7281.575
1630.63757	7322.375
1633.93707	7556.675
1637.23439	7976.075
1640.52951	8691.075
1643.82246	9651.275
1647.11321	10802.175
1650.40179	11521.875
1653.68819	11213.875
1656.97241	9971.475
1660.25446	8561.175
1663.53433	7563.175
1666.81203	6940.675
1670.08756	6595.775
1673.36092	6423.175
1676.63211	6287.675
1679.90115	6190.475
1683.16801	6119.075
1686.43272	6027.975
1689.69527	5971.775
1692.95567	5915.975
1696.2139	5897.275
1699.46999	5853.975
1702.72392	5826.175
1705.97571	5865.575
1709.22535	5832.475
1712.47284	5884.075
1715.71819	5874.475
1718.96139	5870.575
1722.20246	5862.775
1725.44139	5821.075
1728.67818	5817.475
1731.91284	5733.875
1735.14537	5718.975
1738.37576	5667.875
1741.60403	5671.175
1744.83017	5648.575
1748.05418	5640.275
1751.27607	5648.875
1754.49584	5615.075
1757.71349	5563.975
1760.92903	5567.675
1764.14244	5528.975
1767.35375	5536.775
1770.56294	5525.075
1773.77002	5501.675
1776.97499	5493.975
1780.17785	5489.075
1783.37861	5492.275
1786.57727	5497.975
1789.77382	5445.675
1792.96828	5463.575
1796.16064	5449.875
1799.3509	5439.775
1802.53907	5465.175
1805.72514	5419.975
1808.90913	5393.675
1812.09102	5390.875
1815.27083	5390.875
1818.44856	5379.575
1821.6242	5356.275
1824.79776	5344.575
1827.96924	5339.075
1831.13864	5325.075
1834.30597	5322.475
1837.47122	5297.575
1840.6344	5296.175
1843.7955	5275.075
1846.95454	5271.175
1850.11151	5296.275
1853.26642	5255.675
1856.41926	5263.075
1859.57004	5254.975
1862.71876	5250.175
1865.86542	5257.175
1869.01003	5225.975
1872.15258	5225.475
1875.29308	5232.875
1878.43152	5232.075
1881.56792	5212.775
1884.70227	5192.575
1887.83457	5176.675
1890.96482	5160.375
1894.09304	5155.675
1897.21921	5162.075
1900.34335	5163.475
1903.46544	5136.875
1906.58551	5168.875
1909.70353	5144.875
1912.81953	5151.375
1915.93349	5144.075
1919.04543	5128.875
1922.15534	5089.775
1925.26322	5095.575
1928.36908	5093.275
1931.47292	5086.675
1934.57473	5090.075
1937.67453	5055.975
1940.77232	5029.875
1943.86808	5028.875
1946.96184	5014.175
1950.05358	4995.175
1953.14331	4977.875
1956.23103	4977.175
1959.31675	4946.675
1962.40046	4903.275
1965.48217	4910.275
1968.56188	4916.875
1971.63959	4896.175
1974.7153	4898.875
1977.78901	4896.175
1980.86073	4868.675
1983.93046	4812.375
1986.99819	4748.675
1990.06394	4768.875
1993.1277	4780.375
1996.18947	4769.375
1999.24925	4727.875
2002.30706	4740.475
2005.36288	4706.175
2008.41672	4683.475
2011.46859	4667.075
2014.51848	4661.875
2017.56639	4649.575
2020.61233	4620.875
2023.6563	4630.175
2026.6983	4570.875
2029.73833	4606.375
2032.7764	4585.975
2035.8125	4527.875
2038.84664	4556.075
2041.87881	4525.975
2044.90903	4533.475
2047.93729	4530.775
2050.96359	4500.775
2053.98794	4520.475
2057.01034	4506.275
2060.03078	4488.875
2063.04927	4480.575
2066.06582	4473.575
2069.08042	4479.475
2072.09307	4488.575
2075.10378	4462.875
2078.11255	4471.175
2081.11938	4439.075
2084.12426	4446.875
2087.12722	4453.975
2090.12824	4443.875
2093.12732	4447.175
2096.12447	4470.175
2099.11969	4448.875
2102.11299	4435.875
2105.10435	4461.475
2108.09379	4458.175
2111.08131	4430.875
2114.0669	4450.475
2117.05057	4441.775
2120.03233	4424.575
2123.01216	4468.075
2125.99008	4459.075
2128.96609	4459.075
2131.94018	4484.275
2134.91236	4478.775
2137.88263	4454.275
2140.851	4474.775
2143.81746	4477.775
2146.78201	4460.975
2149.74466	4468.675
2152.7054	4469.975
2155.66425	4464.675
2158.6212	4441.275
2161.57625	4420.775
2164.52941	4406.775
2167.48067	4414.475
2170.43004	4413.375
2173.37752	4427.775
2176.32311	4402.275
2179.26681	4423.875
2182.20863	4419.375
2185.14856	4433.475
2188.08661	4421.875
2191.02278	4422.475
2193.95707	4403.575
2196.88948	4388.675
2199.82001	4389.075
2202.74867	4380.075
2205.67545	4381.975
2208.60037	4397.475
2211.52341	4364.375
2214.44458	4355.275
2217.36388	4348.775
2220.28132	4330.075
2223.1969	4312.975
2226.11061	4312.875
2229.02246	4295.575
2231.93245	4301.475
2234.84058	4274.175
2237.74686	4269.275
2240.65128	4268.275
2243.55385	4270.075
2246.45456	4264.375
2249.35343	4252.575
2252.25044	4241.375
2255.14561	4253.375
2258.03893	4257.675
2260.93041	4230.875
2263.82004	4227.075
2266.70783	4232.675
2269.59378	4200.575
2272.4779	4186.475
2275.36017	4183.975
2278.24061	4163.575
2281.11922	4140.375
2283.996	4153.975
2286.87094	4139.175
2289.74405	4143.975
2292.61534	4133.675
2295.4848	4123.675
2298.35243	4107.075
2301.21824	4109.575
2304.08223	4089.875
2306.94439	4087.475
2309.80474	4100.775
2312.66327	4098.575
2315.51999	4065.575
2318.37489	4059.875
2321.22797	4049.575
2324.07925	4057.775
2326.92871	4044.375
2329.77637	4035.275
2332.62222	4026.375
2335.46626	3998.875
2338.3085	4002.975
2341.14893	4023.375
2343.98756	4020.775
2346.8244	3986.575
2349.65943	3980.275
2352.49267	3982.875
2355.32411	3999.675
2358.15376	3988.775
2360.98161	4000.075
2363.80768	3982.275
2366.63195	3979.875
2369.45444	3996.675
2372.27514	3991.475
2375.09405	4003.575
2377.91118	3947.675
2380.72652	3959.575
2383.54009	3936.575
2386.35187	3948.475
2389.16188	3927.675
2391.97011	3925.775
2394.77657	3892.375
2397.58125	3915.175
2400.38416	3900.075
2403.18529	3881.075
2405.98466	3859.275
2408.78226	3870.075
2411.57809	3839.675
2414.37216	3836.175
2417.16446	3844.575
2419.955	3816.475
2422.74378	3850.975
2425.5308	3819.175
2428.31606	3824.375
2431.09956	3833.475
2433.88131	3794.075
2436.6613	3807.075
2439.43954	3799.475
2442.21603	3800.075
2444.99077	3787.375
2447.76377	3786.775
2450.53501	3779.375
2453.30451	3783.475
2456.07226	3784.375
2458.83827	3770.575
2461.60254	3725.975
2464.36507	3760.675
2467.12586	3739.975
2469.88492	3757.075
2472.64224	3749.975
2475.39782	3733.975
2478.15167	3740.075
2480.90379	3728.575
2483.65417	3743.775
2486.40283	3751.675
2489.14976	3750.975
2491.89497	3724.875
2494.63845	3741.675
2497.3802	3725.375
2500.12024	3724.775
2502.85855	3717.175
2505.59514	3733.775
2508.33002	3701.375
2511.06318	3690.275
2513.79462	3686.675
2516.52435	3654.575
2519.25237	3630.875
2521.97867	3625.975
2524.70327	3663.575
2527.42616	3630.575
2530.14734	3652.175
2532.86681	3611.275
2535.58458	3611.775
2538.30065	3604.175
2541.01501	3619.375
2543.72768	3602.975
2546.43864	3597.975
2549.14791	3578.775
2551.85548	3567.275
2554.56136	3568.875
2557.26554	3586.575
2559.96803	3556.675
2562.66883	3564.375
2565.36794	3541.075
2568.06536	3517.975
2570.7611	3547.775
2573.45514	3506.475
2576.14751	3510.175
2578.83819	3492.175
2581.52719	3495.275
2584.21451	3488.675
2586.90015	3467.775
2589.58411	3455.675
2592.2664	3462.675
2594.94701	3465.175
2597.62594	3467.775
2600.30321	3406.975
2602.9788	3416.175
2605.65273	3417.575
2608.32498	3407.375
2610.99557	3426.175
2613.66449	3406.975
2616.33175	3409.575
2618.99734	3419.175
2621.66128	3404.475
2624.32355	3399.175
2626.98416	3370.475
2629.64311	3366.375
2632.30041	3365.175
2634.95605	3356.275
2637.61004	3342.675
2640.26238	3314.075
2642.91306	3318.875
2645.56209	3348.775
2648.20948	3337.575
2650.85521	3329.975
2653.4993	3338.675
2656.14175	3321.675
2658.78255	3310.675
2661.42171	3287.375
2664.05923	3331.575
2666.6951	3344.075
2669.32934	3331.475
2671.96194	3355.275
2674.59291	3337.575
2677.22224	3321.275
2679.84993	3327.475
2682.476	3315.775
2685.10043	3332.575
2687.72324	3311.175
2690.34441	3306.775
2692.96396	3302.075
2695.58188	3313.875
2698.19818	3304.775
2700.81285	3293.275
2703.4259	3289.975
2706.03733	3263.775
2708.64714	3258.375
2711.25533	3288.775
2713.86191	3283.675
2716.46687	3284.475
2719.07021	3284.375
2721.67194	3288.775
2724.27206	3299.675
2726.87057	3271.975
2729.46747	3279.075
2732.06276	3270.575
2734.65644	3270.175
2737.24852	3271.075
2739.83899	3232.675
2742.42786	3243.875
2745.01513	3254.075
2747.60079	3229.575
2750.18486	3218.775
2752.76733	3219.175
2755.3482	3206.075
2757.92747	3214.875
2760.50515	3189.275
2763.08123	3185.475
2765.65573	3204.875
2768.22863	3184.375
2770.79994	3160.375
2773.36967	3172.975
2775.9378	3155.875
2778.50435	3162.675
2781.06932	3148.675
2783.6327	3143.275
2786.1945	3164.475
2788.75471	3148.275
2791.31335	3143.075
2793.87041	3143.675
2796.42589	3130.675
2798.97979	3102.675
2801.53212	3102.875
2804.08288	3129.875
2806.63206	3100.075
2809.17967	3075.375
2811.72571	3090.575
2814.27018	3092.975
2816.81308	3072.875
2819.35442	3040.075
2821.89419	3056.075
2824.43239	3051.075
2826.96904	3065.775
2829.50412	3058.375
2832.03763	3046.075
2834.56959	3045.375
2837.1	3034.075
2839.62884	3042.575
2842.15613	3043.275
2844.68186	3042.675
2847.20604	3006.375
2849.72867	3007.175
2852.24974	3009.275
2854.76927	2973.875
2857.28724	2937.075
2859.80367	3009.975
2862.31855	3010.475
2864.83189	2991.475
2867.34368	2994.075
2869.85393	3014.775
2872.36264	2981.175
2874.8698	2966.475
2877.37543	2984.575
2879.87952	2976.175
2882.38207	2954.775
2884.88308	2968.575
2887.38256	2960.675
2889.88051	2958.075
2892.37692	2946.875
2894.8718	2945.575
2897.36515	2953.075
2899.85698	2945.575
2902.34727	2944.275
2904.83604	2950.775
2907.32328	2961.375
2909.809	2977.775
2912.29319	2945.975
2914.77587	2970.875
2917.25702	2978.175
2919.73665	2961.175
2922.21476	2985.275
2924.69136	2979.875
2927.16644	2944.975
2929.64	2955.075
2932.11205	2944.775
2934.58258	2942.475
2937.05161	2933.375
2939.51912	2942.475
2941.98513	2948.375
2944.44962	2925.575
2946.91261	2889.875
2949.37409	2912.375
2951.83407	2901.875
2954.29254	2904.275
2956.74951	2900.675
2959.20498	2891.575
2961.65895	2891.275
2964.11142	2871.275
2966.56239	2877.675
2969.01186	2872.475
2971.45984	2865.375
2973.90632	2860.375
2976.35131	2869.375
2978.7948	2847.975
2981.23681	2828.875
2983.67732	2857.975
2986.11635	2842.875
2988.55388	2815.175
2990.98993	2823.175
2993.4245	2801.475
2995.85758	2792.175
2998.28917	2793.575
3000.71928	2785.775
3003.14791	2783.975
3005.57506	2767.175
3008.00073	2761.575
3010.42493	2698.675
3012.84764	2745.275
3015.26888	2747.975
3017.68865	2731.375
3020.10694	2681.175
3022.52376	2705.375
3024.9391	2708.975
3027.35298	2684.875
3029.76539	2688.175
3032.17632	2683.775
3034.5858	2678.375
3036.9938	2686.275
3039.40034	2667.375
3041.80542	2651.275
3044.20903	2651.275
3046.61118	2638.375
3049.01187	2652.675
3051.4111	2633.975
3053.80888	2621.875
3056.20519	2621.575
3058.60005	2589.375
3060.99345	2616.975
3063.3854	2589.875
3065.7759	2580.775
3068.16494	2583.275
3070.55254	2562.175
3072.93868	2580.275
3075.32338	2560.775
3077.70662	2559.875
3080.08842	2543.075
3082.46878	2533.775
3084.84769	2552.275
3087.22515	2535.875
3089.60118	2536.575
3091.97576	2522.175
3094.3489	2529.075
3096.72061	2523.575
3099.09087	2509.375
3101.4597	2526.775
3103.82709	2520.575
3106.19305	2497.775
3108.55757	2516.375
3110.92066	2496.575
3113.28232	2502.675
3115.64255	2499.975
3118.00134	2488.775
3120.35871	2462.675
3122.71466	2445.875
3125.06917	2459.375
3127.42226	2458.275
3129.77393	2424.375
3132.12417	2443.675
3134.47299	2461.575
3136.82039	2422.675
3139.16636	2411.575
3141.51092	2435.675
3143.85406	2435.675
3146.19579	2413.475
3148.53609	2414.875
3150.87499	2415.375
3153.21246	2403.175
3155.54853	2430.675
3157.88318	2417.375
3160.21642	2430.675
3162.54826	2412.375
3164.87868	2407.775
3167.2077	2380.975
3169.5353	2400.975
3171.86151	2404.575
3174.18631	2393.875
3176.5097	2388.775
3178.83169	2377.775
3181.15228	2390.875
3183.47147	2351.675
3185.78926	2339.075
3188.10565	2356.375
3190.42065	2337.875
3192.73424	2350.575
3195.04645	2324.975
3197.35725	2313.875
3199.66667	2338.975
3201.97469	2309.875
3204.28132	2318.175
3206.58656	2339.675
3208.8904	2342.375
3211.19287	2319.575
3213.49394	2311.375
3215.79363	2311.475
3218.09193	2310.175
3220.38884	2312.075
3222.68438	2319.475
3224.97853	2301.475
3227.2713	2325.575
3229.56269	2290.675
3231.8527	2300.875
3234.14133	2295.075
