Data from AgNPs_UA_5uM_CRN_500uM_SU_RamanShift__198__12-02-23-178.txt Node

Date: Thu Aug 04 12:02:23 BST 2022
User: TCL
Spectrometer: QEP01345
Trigger mode: 4
Integration Time (sec): 1.000000E0
Scans to average: 10
Electric dark correction enabled: true
Nonlinearity correction enabled: false
Boxcar width: 0
XAxis mode: Raman Shifts
Number of Pixels in Spectrum: 1044
>>>>>Begin Spectral Data<<<<<
46.04893	-0.075
50.45542	-0.175
54.85868	-0.175
59.25871	-0.875
63.6555	-57.775
68.04907	-39.375
72.43941	-70.675
76.82654	-57.275
81.21044	-57.675
85.59113	-49.775
89.96862	-75.075
94.34289	-54.075
98.71396	-76.075
103.08183	-58.475
107.4465	-49.575
111.80798	-55.275
116.16626	-43.775
120.52136	-74.875
124.87327	-51.175
129.222	-63.075
133.56755	-48.675
137.90993	-64.675
142.24913	-50.975
146.58517	-44.675
150.91804	-40.875
155.24774	-30.375
159.57429	-10.775
163.89768	-7.775
168.21792	36.125
172.53501	55.825
176.84895	136.525
181.15975	263.325
185.46741	413.825
189.77193	592.525
194.07331	877.525
198.37157	1161.625
202.6667	1440.325
206.9587	1744.625
211.24758	2070.125
215.53334	2381.125
219.81599	2733.425
224.09553	3134.825
228.37195	3575.025
232.64527	4015.625
236.91549	4471.225
241.18261	4820.925
245.44663	5104.425
249.70755	5276.925
253.96539	5388.725
258.22014	5508.125
262.4718	5564.025
266.72039	5616.825
270.96589	5573.425
275.20832	5492.825
279.44768	5376.025
283.68397	5267.525
287.91719	5205.725
292.14735	5258.525
296.37445	5396.425
300.59849	5695.925
304.81948	6024.925
309.03742	6396.725
313.25231	6639.425
317.46415	6585.525
321.67296	6206.125
325.87872	5792.225
330.08145	5609.925
334.28114	5551.825
338.47781	5632.825
342.67145	5760.425
346.86207	5989.625
351.04966	6365.425
355.23424	6734.325
359.4158	7012.025
363.59435	7036.725
367.76989	6981.725
371.94243	6859.225
376.11196	6736.425
380.27849	6646.625
384.44203	6585.325
388.60257	6568.525
392.76012	6573.525
396.91468	6675.425
401.06626	6826.925
405.21485	6853.925
409.36047	6696.225
413.50311	6367.125
417.64277	6107.725
421.77947	5902.625
425.9132	5822.025
430.04396	5819.325
434.17176	5849.625
438.2966	5945.425
442.41849	6022.225
446.53742	6130.925
450.6534	6249.025
454.76644	6321.025
458.87653	6318.325
462.98368	6297.525
467.08789	6239.025
471.18916	6131.425
475.2875	6024.825
479.38291	5910.725
483.4754	5820.325
487.56496	5777.225
491.6516	5739.325
495.73531	5767.125
499.81612	5798.325
503.89401	5869.625
507.96899	5908.525
512.04106	6015.025
516.11023	6091.825
520.1765	6186.925
524.23987	6224.225
528.30034	6205.425
532.35792	6133.125
536.41261	6083.525
540.46441	5986.325
544.51333	5944.825
548.55936	5973.725
552.60252	6101.225
556.64279	6212.025
560.6802	6335.125
564.71473	6474.525
568.7464	6659.125
572.7752	6624.225
576.80114	6309.025
580.82422	6096.325
584.84444	5975.725
588.86181	5970.125
592.87633	5983.225
596.888	6103.325
600.89682	6467.125
604.9028	7442.525
608.90594	9498.925
612.90624	11813.725
616.90371	10967.125
620.89834	7923.425
624.89015	6625.925
628.87913	6421.625
632.86528	6570.025
636.84862	6731.125
640.82913	6606.625
644.80683	6264.925
648.78172	6070.425
652.75379	6107.725
656.72306	6333.425
660.68952	6585.325
664.65319	6501.425
668.61405	6250.625
672.57211	6187.425
676.52738	6185.025
680.47986	6093.825
684.42955	6011.425
688.37646	5965.225
692.32058	5974.525
696.26192	6035.325
700.20048	6131.025
704.13626	6175.325
708.06928	6124.525
711.99952	6092.525
715.927	6077.325
719.85171	6102.925
723.77365	6160.625
727.69284	6136.925
731.60928	6112.625
735.52295	6095.225
739.43388	6142.925
743.34206	6138.125
747.24749	6156.825
751.15017	6199.025
755.05012	6243.525
758.94733	6632.725
762.8418	7452.225
766.73354	8774.625
770.62254	9775.025
774.50882	9850.025
778.39237	9328.225
782.27321	8420.725
786.15132	7369.925
790.02671	6721.825
793.89938	6333.325
797.76935	6235.525
801.6366	6139.725
805.50115	6085.925
809.36299	6099.325
813.22213	6079.025
817.07857	6080.925
820.93231	6088.525
824.78336	6102.425
828.63172	6137.625
832.47738	6123.525
836.32036	6130.025
840.16066	6105.325
843.99827	6099.725
847.8332	6081.325
851.66546	6087.825
855.49504	6084.225
859.32195	6132.425
863.1462	6111.325
866.96777	6117.525
870.78668	6098.525
874.60293	6134.525
878.41652	6136.825
882.22745	6218.725
886.03573	6257.525
889.84136	6244.325
893.64433	6242.225
897.44466	6226.125
901.24235	6230.425
905.0374	6220.725
908.8298	6153.225
912.61957	6126.325
916.40671	6095.625
920.19121	6129.125
923.97308	6228.425
927.75233	6297.825
931.52895	6345.825
935.30295	6310.025
939.07433	6154.225
942.84309	6049.325
946.60924	6029.325
950.37278	6007.625
954.13371	5976.725
957.89203	5982.325
961.64774	6003.125
965.40086	5979.225
969.15137	5957.725
972.89929	6003.125
976.64461	5989.825
980.38733	5982.825
984.12747	5981.525
987.86502	6022.725
991.59999	6044.825
995.33237	6129.025
999.06217	6186.925
1002.78939	6235.425
1006.51404	6388.625
1010.23611	6505.125
1013.95561	6535.225
1017.67255	6531.525
1021.38692	6539.625
1025.09872	6468.025
1028.80796	6388.425
1032.51465	6386.225
1036.21877	6373.825
1039.92035	6420.125
1043.61937	6466.425
1047.31584	6493.625
1051.00976	6524.425
1054.70114	6536.825
1058.38998	6534.325
1062.07627	6528.625
1065.76003	6573.025
1069.44126	6646.125
1073.11995	6713.625
1076.79611	6854.125
1080.46974	6995.025
1084.14085	7157.525
1087.80943	7288.325
1091.47549	7345.225
1095.13903	7248.825
1098.80005	7118.825
1102.45857	7021.825
1106.11456	7013.725
1109.76805	6933.525
1113.41903	7042.325
1117.06751	7214.225
1120.71348	7471.825
1124.35696	7854.425
1127.99793	8127.025
1131.63641	7968.425
1135.2724	7573.425
1138.90589	7290.325
1142.5369	7068.525
1146.16542	6975.525
1149.79145	6875.425
1153.415	6814.125
1157.03607	6821.525
1160.65467	6926.325
1164.27079	7102.825
1167.88443	7364.925
1171.49561	7777.925
1175.10432	8359.825
1178.71056	9277.025
1182.31434	10037.825
1185.91565	10294.725
1189.51451	10154.425
1193.11091	9899.425
1196.70485	9637.325
1200.29634	9428.025
1203.88538	9153.625
1207.47197	8699.225
1211.05612	8269.025
1214.63782	7861.625
1218.21708	7598.925
1221.79391	7456.325
1225.36829	7375.525
1228.94024	7369.125
1232.50976	7365.625
1236.07685	7423.525
1239.6415	7447.425
1243.20374	7457.725
1246.76355	7506.425
1250.32093	7539.125
1253.8759	7635.725
1257.42845	7815.525
1260.97859	8032.825
1264.52631	8246.425
1268.07163	8394.325
1271.61453	8516.325
1275.15503	8573.725
1278.69312	8582.225
1282.22882	8636.825
1285.76211	8819.325
1289.29301	9086.525
1292.82151	9340.225
1296.34761	9559.025
1299.87133	9977.125
1303.39266	10651.825
1306.9116	11792.025
1310.42815	12989.025
1313.94233	13423.125
1317.45412	12671.925
1320.96354	11506.525
1324.47058	10546.625
1327.97525	9762.525
1331.47754	9378.325
1334.97747	9284.625
1338.47502	9390.625
1341.97022	9752.025
1345.46305	10478.625
1348.95352	11534.225
1352.44163	12767.225
1355.92738	14140.825
1359.41078	15756.225
1362.89183	17248.925
1366.37053	16639.625
1369.84688	13830.225
1373.32088	11177.625
1376.79254	9797.625
1380.26186	9155.325
1383.72883	8739.725
1387.19347	8343.325
1390.65578	7992.825
1394.11575	7761.325
1397.57339	7605.025
1401.0287	7505.025
1404.48168	7459.725
1407.93234	7480.425
1411.38068	7500.925
1414.82669	7580.025
1418.27039	7655.325
1421.71177	7668.525
1425.15083	7547.825
1428.58758	7469.225
1432.02203	7519.525
1435.45416	7616.125
1438.88399	7601.525
1442.31151	7577.625
1445.73673	7648.025
1449.15965	7694.025
1452.58027	7710.225
1455.9986	7717.125
1459.41463	7732.025
1462.82837	7815.125
1466.23982	7998.725
1469.64898	8195.425
1473.05586	8346.325
1476.46045	8444.725
1479.86276	8502.625
1483.26279	8600.025
1486.66054	8780.525
1490.05602	9063.325
1493.44922	9612.525
1496.84016	10457.425
1500.22882	11802.625
1503.61521	13499.425
1506.99934	15273.725
1510.38121	16461.325
1513.76081	16349.525
1517.13816	14805.525
1520.51324	12715.425
1523.88607	11025.125
1527.25665	10022.325
1530.62498	9500.825
1533.99105	9330.925
1537.35488	9171.925
1540.71647	9094.825
1544.07581	8968.025
1547.4329	8846.625
1550.78776	8727.725
1554.14038	8655.325
1557.49077	8628.225
1560.83892	8715.225
1564.18484	8950.125
1567.52853	9269.625
1570.86999	9574.625
1574.20922	9719.725
1577.54624	9607.925
1580.88103	9112.325
1584.2136	8434.325
1587.54395	8073.625
1590.87208	8000.725
1594.19801	8167.025
1597.52172	8533.725
1600.84321	8669.625
1604.16251	8532.425
1607.47959	8331.525
1610.79447	8170.525
1614.10715	7880.025
1617.41763	7580.925
1620.7259	7337.225
1624.03199	7150.225
1627.33587	7086.625
1630.63757	7138.125
1633.93707	7361.625
1637.23439	7787.925
1640.52951	8457.625
1643.82246	9429.725
1647.11321	10556.325
1650.40179	11317.925
1653.68819	10928.925
1656.97241	9731.825
1660.25446	8338.025
1663.53433	7372.325
1666.81203	6782.225
1670.08756	6444.625
1673.36092	6263.125
1676.63211	6119.625
1679.90115	6028.525
1683.16801	5951.125
1686.43272	5856.225
1689.69527	5822.125
1692.95567	5758.625
1696.2139	5742.525
1699.46999	5691.925
1702.72392	5674.625
1705.97571	5693.125
1709.22535	5696.425
1712.47284	5723.625
1715.71819	5715.525
1718.96139	5711.825
1722.20246	5708.525
1725.44139	5668.125
1728.67818	5661.825
1731.91284	5593.825
1735.14537	5568.825
1738.37576	5532.725
1741.60403	5534.625
1744.83017	5492.625
1748.05418	5501.925
1751.27607	5494.625
1754.49584	5461.725
1757.71349	5428.625
1760.92903	5429.325
1764.14244	5385.925
1767.35375	5388.625
1770.56294	5360.325
1773.77002	5348.125
1776.97499	5366.725
1780.17785	5356.525
1783.37861	5337.325
1786.57727	5349.925
1789.77382	5281.225
1792.96828	5317.225
1796.16064	5322.025
1799.3509	5296.525
1802.53907	5307.925
1805.72514	5276.525
1808.90913	5244.825
1812.09102	5237.725
1815.27083	5239.125
1818.44856	5227.425
1821.6242	5212.525
1824.79776	5205.025
1827.96924	5196.425
1831.13864	5170.525
1834.30597	5169.025
1837.47122	5158.025
1840.6344	5134.125
1843.7955	5125.125
1846.95454	5115.225
1850.11151	5134.825
1853.26642	5098.625
1856.41926	5114.925
1859.57004	5115.725
1862.71876	5104.225
1865.86542	5117.225
1869.01003	5090.325
1872.15258	5080.025
1875.29308	5104.625
1878.43152	5092.425
1881.56792	5064.225
1884.70227	5040.625
1887.83457	5061.525
1890.96482	5031.925
1894.09304	5024.725
1897.21921	5030.625
1900.34335	5031.125
1903.46544	4999.425
1906.58551	5041.625
1909.70353	5023.725
1912.81953	5000.625
1915.93349	4989.425
1919.04543	4979.925
1922.15534	4971.425
1925.26322	4941.325
1928.36908	4928.425
1931.47292	4947.025
1934.57473	4940.125
1937.67453	4921.725
1940.77232	4891.425
1943.86808	4890.625
1946.96184	4875.525
1950.05358	4856.425
1953.14331	4834.125
1956.23103	4842.025
1959.31675	4797.225
1962.40046	4762.125
1965.48217	4790.225
1968.56188	4769.025
1971.63959	4767.325
1974.7153	4766.925
1977.78901	4738.025
1980.86073	4734.925
1983.93046	4697.525
1986.99819	4617.025
1990.06394	4625.725
1993.1277	4643.625
1996.18947	4654.625
1999.24925	4595.625
2002.30706	4603.425
2005.36288	4586.425
2008.41672	4556.125
2011.46859	4542.425
2014.51848	4532.125
2017.56639	4510.825
2020.61233	4501.425
2023.6563	4501.425
2026.6983	4452.125
2029.73833	4455.225
2032.7764	4462.225
2035.8125	4414.425
2038.84664	4423.025
2041.87881	4402.325
2044.90903	4420.425
2047.93729	4400.125
2050.96359	4370.025
2053.98794	4390.625
2057.01034	4393.525
2060.03078	4367.625
2063.04927	4352.225
2066.06582	4362.725
2069.08042	4352.425
2072.09307	4347.725
2075.10378	4348.325
2078.11255	4351.025
2081.11938	4346.025
2084.12426	4336.125
2087.12722	4333.425
2090.12824	4313.525
2093.12732	4334.125
2096.12447	4320.225
2099.11969	4326.325
2102.11299	4323.625
2105.10435	4331.625
2108.09379	4337.325
2111.08131	4305.725
2114.0669	4312.325
2117.05057	4315.525
2120.03233	4307.525
2123.01216	4329.325
2125.99008	4335.225
2128.96609	4321.625
2131.94018	4341.425
2134.91236	4345.525
2137.88263	4334.525
2140.851	4331.425
2143.81746	4353.725
2146.78201	4332.425
2149.74466	4326.525
2152.7054	4349.125
2155.66425	4332.925
2158.6212	4331.325
2161.57625	4310.725
2164.52941	4286.325
2167.48067	4294.525
2170.43004	4301.225
2173.37752	4304.425
2176.32311	4285.325
2179.26681	4282.125
2182.20863	4300.725
2185.14856	4310.425
2188.08661	4311.225
2191.02278	4290.925
2193.95707	4280.225
2196.88948	4261.425
2199.82001	4277.625
2202.74867	4260.625
2205.67545	4266.625
2208.60037	4265.125
2211.52341	4250.925
2214.44458	4255.525
2217.36388	4225.325
2220.28132	4232.125
2223.1969	4185.925
2226.11061	4198.125
2229.02246	4186.725
2231.93245	4179.325
2234.84058	4147.525
2237.74686	4148.525
2240.65128	4143.725
2243.55385	4149.625
2246.45456	4123.025
2249.35343	4141.025
2252.25044	4123.825
2255.14561	4125.325
2258.03893	4127.225
2260.93041	4106.725
2263.82004	4109.725
2266.70783	4100.925
2269.59378	4094.325
2272.4779	4069.925
2275.36017	4063.725
2278.24061	4047.625
2281.11922	4035.825
2283.996	4039.725
2286.87094	3998.025
2289.74405	4023.925
2292.61534	4004.525
2295.4848	4014.325
2298.35243	4013.125
2301.21824	3988.525
2304.08223	3977.325
2306.94439	3992.825
2309.80474	3983.725
2312.66327	3982.925
2315.51999	3970.725
2318.37489	3957.025
2321.22797	3951.125
2324.07925	3939.725
2326.92871	3938.725
2329.77637	3901.825
2332.62222	3911.825
2335.46626	3884.825
2338.3085	3873.625
2341.14893	3898.225
2343.98756	3906.425
2346.8244	3890.525
2349.65943	3884.225
2352.49267	3889.925
2355.32411	3879.925
2358.15376	3882.125
2360.98161	3881.625
2363.80768	3875.525
2366.63195	3872.125
2369.45444	3886.025
2372.27514	3879.425
2375.09405	3889.525
2377.91118	3835.225
2380.72652	3840.025
2383.54009	3844.025
2386.35187	3836.725
2389.16188	3805.925
2391.97011	3811.525
2394.77657	3799.125
2397.58125	3799.125
2400.38416	3780.425
2403.18529	3773.625
2405.98466	3748.625
2408.78226	3764.225
2411.57809	3751.925
2414.37216	3735.625
2417.16446	3740.325
2419.955	3713.025
2422.74378	3730.125
2425.5308	3701.225
2428.31606	3715.625
2431.09956	3706.025
2433.88131	3674.325
2436.6613	3696.325
2439.43954	3689.125
2442.21603	3690.925
2444.99077	3671.125
2447.76377	3686.125
2450.53501	3689.925
2453.30451	3662.325
2456.07226	3683.125
2458.83827	3661.125
2461.60254	3626.325
2464.36507	3663.925
2467.12586	3642.925
2469.88492	3633.925
2472.64224	3641.625
2475.39782	3619.425
2478.15167	3633.425
2480.90379	3631.625
2483.65417	3640.625
2486.40283	3644.925
2489.14976	3660.525
2491.89497	3642.525
2494.63845	3642.525
2497.3802	3634.125
2500.12024	3614.625
2502.85855	3618.225
2505.59514	3628.025
2508.33002	3602.825
2511.06318	3577.225
2513.79462	3578.925
2516.52435	3550.825
2519.25237	3521.625
2521.97867	3535.425
2524.70327	3528.025
2527.42616	3539.725
2530.14734	3536.125
2532.86681	3512.425
2535.58458	3510.725
2538.30065	3495.025
2541.01501	3522.225
2543.72768	3501.225
2546.43864	3505.425
2549.14791	3486.525
2551.85548	3470.125
2554.56136	3475.225
2557.26554	3481.925
2559.96803	3471.625
2562.66883	3465.725
2565.36794	3436.025
2568.06536	3407.425
2570.7611	3441.225
2573.45514	3424.425
2576.14751	3419.425
2578.83819	3385.525
2581.52719	3403.725
2584.21451	3392.725
2586.90015	3374.625
2589.58411	3346.425
2592.2664	3370.025
2594.94701	3365.425
2597.62594	3368.425
2600.30321	3289.925
2602.9788	3339.125
2605.65273	3316.325
2608.32498	3320.825
2610.99557	3337.925
2613.66449	3309.025
2616.33175	3308.725
2618.99734	3318.125
2621.66128	3303.925
2624.32355	3306.525
2626.98416	3280.225
2629.64311	3275.525
2632.30041	3284.425
2634.95605	3258.325
2637.61004	3250.725
2640.26238	3230.325
2642.91306	3237.125
2645.56209	3257.925
2648.20948	3237.025
2650.85521	3233.825
2653.4993	3239.425
2656.14175	3236.725
2658.78255	3228.625
2661.42171	3204.525
2664.05923	3231.825
2666.6951	3241.925
2669.32934	3245.325
2671.96194	3250.625
2674.59291	3241.225
2677.22224	3227.325
2679.84993	3231.725
2682.476	3227.125
2685.10043	3219.225
2687.72324	3211.825
2690.34441	3220.825
2692.96396	3199.725
2695.58188	3228.825
2698.19818	3203.525
2700.81285	3205.125
2703.4259	3190.025
2706.03733	3157.725
2708.64714	3166.625
2711.25533	3197.625
2713.86191	3190.725
2716.46687	3188.825
2719.07021	3197.025
2721.67194	3193.325
2724.27206	3196.325
2726.87057	3190.425
2729.46747	3189.025
2732.06276	3187.825
2734.65644	3178.125
2737.24852	3176.525
2739.83899	3157.625
2742.42786	3162.025
2745.01513	3167.725
2747.60079	3142.025
2750.18486	3125.025
2752.76733	3130.225
2755.3482	3115.525
2757.92747	3135.225
2760.50515	3111.425
2763.08123	3100.425
2765.65573	3098.025
2768.22863	3109.625
2770.79994	3073.825
2773.36967	3074.725
2775.9378	3067.625
2778.50435	3070.225
2781.06932	3067.925
2783.6327	3061.525
2786.1945	3096.025
2788.75471	3052.525
2791.31335	3056.125
2793.87041	3049.225
2796.42589	3021.125
2798.97979	3023.925
2801.53212	3033.325
2804.08288	3024.425
2806.63206	3008.425
2809.17967	3007.425
2811.72571	3013.125
2814.27018	2999.925
2816.81308	2985.025
2819.35442	2964.225
2821.89419	2981.325
2824.43239	2952.925
2826.96904	2990.225
2829.50412	2974.725
2832.03763	2964.025
2834.56959	2961.525
2837.1	2976.025
2839.62884	2946.525
2842.15613	2953.225
2844.68186	2960.025
2847.20604	2915.625
2849.72867	2933.425
2852.24974	2937.025
2854.76927	2898.425
2857.28724	2860.625
2859.80367	2923.225
2862.31855	2924.025
2864.83189	2913.325
2867.34368	2920.025
2869.85393	2911.625
2872.36264	2890.325
2874.8698	2900.825
2877.37543	2899.125
2879.87952	2896.525
2882.38207	2869.825
2884.88308	2879.525
2887.38256	2889.325
2889.88051	2865.125
2892.37692	2870.025
2894.8718	2845.325
2897.36515	2866.225
2899.85698	2854.125
2902.34727	2867.425
2904.83604	2861.525
2907.32328	2880.825
2909.809	2874.025
2912.29319	2869.825
2914.77587	2884.625
2917.25702	2889.925
2919.73665	2893.325
2922.21476	2898.225
2924.69136	2893.725
2927.16644	2878.525
2929.64	2877.025
2932.11205	2866.525
2934.58258	2861.425
2937.05161	2850.325
2939.51912	2855.825
2941.98513	2865.725
2944.44962	2849.225
2946.91261	2800.925
2949.37409	2824.525
2951.83407	2819.625
2954.29254	2820.025
2956.74951	2808.225
2959.20498	2799.125
2961.65895	2802.625
2964.11142	2798.025
2966.56239	2788.825
2969.01186	2799.525
2971.45984	2790.425
2973.90632	2769.025
2976.35131	2790.125
2978.7948	2782.825
2981.23681	2765.725
2983.67732	2770.425
2986.11635	2772.425
2988.55388	2725.825
2990.98993	2735.725
2993.4245	2731.725
2995.85758	2711.525
2998.28917	2712.625
3000.71928	2704.025
3003.14791	2701.025
3005.57506	2688.225
3008.00073	2684.225
3010.42493	2613.825
3012.84764	2679.025
3015.26888	2656.525
3017.68865	2662.625
3020.10694	2620.225
3022.52376	2628.625
3024.9391	2634.025
3027.35298	2619.525
3029.76539	2604.025
3032.17632	2614.125
3034.5858	2593.125
3036.9938	2609.825
3039.40034	2599.025
3041.80542	2584.925
3044.20903	2575.625
3046.61118	2567.725
3049.01187	2585.625
3051.4111	2557.325
3053.80888	2553.625
3056.20519	2541.825
3058.60005	2527.925
3060.99345	2552.525
3063.3854	2528.625
3065.7759	2514.625
3068.16494	2493.125
3070.55254	2500.525
3072.93868	2501.825
3075.32338	2491.725
3077.70662	2488.325
3080.08842	2482.525
3082.46878	2469.625
3084.84769	2479.625
3087.22515	2464.725
3089.60118	2479.325
3091.97576	2451.825
3094.3489	2463.025
3096.72061	2448.825
3099.09087	2441.925
3101.4597	2460.825
3103.82709	2454.625
3106.19305	2435.625
3108.55757	2444.225
3110.92066	2410.525
3113.28232	2433.425
3115.64255	2422.225
3118.00134	2422.925
3120.35871	2407.125
3122.71466	2393.925
3125.06917	2396.925
3127.42226	2387.825
3129.77393	2368.025
3132.12417	2380.225
3134.47299	2372.525
3136.82039	2364.725
3139.16636	2346.625
3141.51092	2367.325
3143.85406	2355.725
3146.19579	2344.225
3148.53609	2353.125
3150.87499	2359.725
3153.21246	2331.725
3155.54853	2350.425
3157.88318	2363.625
3160.21642	2356.625
3162.54826	2346.925
3164.87868	2364.925
3167.2077	2309.725
3169.5353	2338.225
3171.86151	2347.225
3174.18631	2319.825
3176.5097	2319.825
3178.83169	2321.025
3181.15228	2326.925
3183.47147	2293.025
3185.78926	2282.825
3188.10565	2300.325
3190.42065	2260.825
3192.73424	2281.925
3195.04645	2270.025
3197.35725	2255.825
3199.66667	2269.025
3201.97469	2260.225
3204.28132	2247.125
3206.58656	2267.125
3208.8904	2272.825
3211.19287	2261.125
3213.49394	2258.025
3215.79363	2245.625
3218.09193	2261.725
3220.38884	2242.425
3222.68438	2261.525
3224.97853	2221.325
3227.2713	2255.025
3229.56269	2243.225
3231.8527	2242.325
3234.14133	2227.325
