Data from AgNPs_UA_5uM_CRN_500uM_SU_RamanShift__163__11-56-33-172.txt Node

Date: Thu Aug 04 11:56:33 BST 2022
User: TCL
Spectrometer: QEP01345
Trigger mode: 4
Integration Time (sec): 1.000000E0
Scans to average: 10
Electric dark correction enabled: true
Nonlinearity correction enabled: false
Boxcar width: 0
XAxis mode: Raman Shifts
Number of Pixels in Spectrum: 1044
>>>>>Begin Spectral Data<<<<<
46.04893	-0.025
50.45542	-0.725
54.85868	-0.225
59.25871	0.075
63.6555	-57.325
68.04907	-38.325
72.43941	-71.525
76.82654	-55.825
81.21044	-57.025
85.59113	-48.125
89.96862	-75.025
94.34289	-55.825
98.71396	-79.725
103.08183	-57.425
107.4465	-50.625
111.80798	-56.925
116.16626	-44.425
120.52136	-73.225
124.87327	-49.125
129.222	-64.225
133.56755	-50.325
137.90993	-62.025
142.24913	-50.725
146.58517	-44.125
150.91804	-41.525
155.24774	-31.125
159.57429	-12.325
163.89768	-8.425
168.21792	37.675
172.53501	59.875
176.84895	139.675
181.15975	267.575
185.46741	416.575
189.77193	593.175
194.07331	881.975
198.37157	1163.875
202.6667	1449.275
206.9587	1767.475
211.24758	2083.375
215.53334	2408.475
219.81599	2754.175
224.09553	3152.575
228.37195	3590.775
232.64527	4041.975
236.91549	4502.875
241.18261	4866.175
245.44663	5157.275
249.70755	5322.375
253.96539	5462.375
258.22014	5563.275
262.4718	5619.975
266.72039	5672.175
270.96589	5643.375
275.20832	5534.375
279.44768	5429.475
283.68397	5319.175
287.91719	5250.275
292.14735	5272.075
296.37445	5429.075
300.59849	5720.175
304.81948	6040.875
309.03742	6388.975
313.25231	6619.875
317.46415	6573.075
321.67296	6190.275
325.87872	5807.375
330.08145	5624.575
334.28114	5575.575
338.47781	5671.275
342.67145	5771.175
346.86207	6014.075
351.04966	6385.275
355.23424	6785.475
359.4158	7036.975
363.59435	7070.575
367.76989	7003.575
371.94243	6879.675
376.11196	6770.575
380.27849	6710.775
384.44203	6617.475
388.60257	6589.675
392.76012	6591.975
396.91468	6709.175
401.06626	6855.675
405.21485	6881.175
409.36047	6732.675
413.50311	6440.975
417.64277	6164.975
421.77947	5958.475
425.9132	5887.375
430.04396	5889.075
434.17176	5910.575
438.2966	6013.375
442.41849	6111.475
446.53742	6225.075
450.6534	6316.275
454.76644	6408.375
458.87653	6421.675
462.98368	6365.675
467.08789	6329.075
471.18916	6263.075
475.2875	6137.475
479.38291	6020.675
483.4754	5932.275
487.56496	5904.675
491.6516	5859.775
495.73531	5866.675
499.81612	5891.775
503.89401	5988.575
507.96899	6007.675
512.04106	6107.775
516.11023	6213.775
520.1765	6317.875
524.23987	6324.475
528.30034	6327.575
532.35792	6238.575
536.41261	6208.875
540.46441	6099.675
544.51333	6047.975
548.55936	6095.275
552.60252	6213.975
556.64279	6307.575
560.6802	6459.075
564.71473	6580.175
568.7464	6758.975
572.7752	6735.175
576.80114	6422.175
580.82422	6184.475
584.84444	6079.275
588.86181	6080.475
592.87633	6074.975
596.888	6197.975
600.89682	6569.075
604.9028	7508.275
608.90594	9521.575
612.90624	11805.275
616.90371	10964.875
620.89834	8009.975
624.89015	6735.475
628.87913	6538.775
632.86528	6691.975
636.84862	6838.475
640.82913	6711.375
644.80683	6389.075
648.78172	6218.275
652.75379	6247.575
656.72306	6477.475
660.68952	6691.775
664.65319	6623.775
668.61405	6398.575
672.57211	6324.775
676.52738	6341.075
680.47986	6249.075
684.42955	6168.475
688.37646	6112.975
692.32058	6140.175
696.26192	6203.675
700.20048	6285.075
704.13626	6308.775
708.06928	6275.575
711.99952	6240.275
715.927	6207.975
719.85171	6252.275
723.77365	6318.875
727.69284	6267.075
731.60928	6263.275
735.52295	6263.675
739.43388	6299.075
743.34206	6308.175
747.24749	6328.175
751.15017	6343.075
755.05012	6382.775
758.94733	6763.175
762.8418	7570.875
766.73354	8846.375
770.62254	9801.875
774.50882	9868.875
778.39237	9406.475
782.27321	8517.675
786.15132	7510.475
790.02671	6850.975
793.89938	6512.875
797.76935	6383.275
801.6366	6301.775
805.50115	6258.875
809.36299	6247.775
813.22213	6248.475
817.07857	6251.675
820.93231	6250.275
824.78336	6275.975
828.63172	6279.175
832.47738	6276.275
836.32036	6303.675
840.16066	6262.875
843.99827	6266.975
847.8332	6248.075
851.66546	6282.675
855.49504	6254.075
859.32195	6297.375
863.1462	6285.775
866.96777	6295.475
870.78668	6272.375
874.60293	6296.075
878.41652	6335.275
882.22745	6405.575
886.03573	6430.675
889.84136	6434.475
893.64433	6408.875
897.44466	6406.975
901.24235	6410.375
905.0374	6398.475
908.8298	6345.275
912.61957	6314.975
916.40671	6268.575
920.19121	6324.775
923.97308	6388.275
927.75233	6462.775
931.52895	6530.975
935.30295	6492.275
939.07433	6372.675
942.84309	6244.975
946.60924	6222.975
950.37278	6171.775
954.13371	6184.575
957.89203	6175.075
961.64774	6205.375
965.40086	6152.275
969.15137	6155.875
972.89929	6183.175
976.64461	6160.375
980.38733	6204.875
984.12747	6191.375
987.86502	6201.075
991.59999	6231.875
995.33237	6297.775
999.06217	6374.875
1002.78939	6459.375
1006.51404	6587.575
1010.23611	6716.575
1013.95561	6745.375
1017.67255	6759.175
1021.38692	6747.975
1025.09872	6672.175
1028.80796	6589.975
1032.51465	6591.775
1036.21877	6574.675
1039.92035	6615.075
1043.61937	6659.375
1047.31584	6687.275
1051.00976	6733.375
1054.70114	6720.175
1058.38998	6724.175
1062.07627	6753.775
1065.76003	6777.375
1069.44126	6834.975
1073.11995	6920.975
1076.79611	7055.975
1080.46974	7203.875
1084.14085	7354.175
1087.80943	7462.075
1091.47549	7513.475
1095.13903	7432.775
1098.80005	7326.675
1102.45857	7238.875
1106.11456	7197.275
1109.76805	7145.275
1113.41903	7260.475
1117.06751	7383.475
1120.71348	7651.875
1124.35696	8006.775
1127.99793	8267.775
1131.63641	8140.075
1135.2724	7740.775
1138.90589	7456.275
1142.5369	7298.675
1146.16542	7168.775
1149.79145	7069.575
1153.415	7008.575
1157.03607	7009.975
1160.65467	7082.475
1164.27079	7283.775
1167.88443	7517.675
1171.49561	7912.075
1175.10432	8475.575
1178.71056	9323.575
1182.31434	10074.375
1185.91565	10312.675
1189.51451	10175.275
1193.11091	9936.275
1196.70485	9728.375
1200.29634	9516.575
1203.88538	9287.275
1207.47197	8840.475
1211.05612	8415.675
1214.63782	8023.475
1218.21708	7788.775
1221.79391	7642.275
1225.36829	7581.575
1228.94024	7565.475
1232.50976	7571.075
1236.07685	7580.375
1239.6415	7616.175
1243.20374	7649.375
1246.76355	7690.875
1250.32093	7758.775
1253.8759	7827.675
1257.42845	8008.475
1260.97859	8213.075
1264.52631	8446.075
1268.07163	8580.175
1271.61453	8694.575
1275.15503	8753.075
1278.69312	8730.175
1282.22882	8790.575
1285.76211	8984.175
1289.29301	9221.375
1292.82151	9476.875
1296.34761	9700.175
1299.87133	10088.775
1303.39266	10756.875
1306.9116	11839.075
1310.42815	13011.575
1313.94233	13429.775
1317.45412	12676.375
1320.96354	11559.575
1324.47058	10615.275
1327.97525	9889.875
1331.47754	9520.575
1334.97747	9418.975
1338.47502	9550.275
1341.97022	9892.675
1345.46305	10583.275
1348.95352	11594.075
1352.44163	12798.775
1355.92738	14030.175
1359.41078	15605.175
1362.89183	16977.975
1366.37053	16389.875
1369.84688	13665.475
1373.32088	11171.775
1376.79254	9865.875
1380.26186	9276.575
1383.72883	8880.575
1387.19347	8515.775
1390.65578	8145.875
1394.11575	7937.675
1397.57339	7798.475
1401.0287	7684.975
1404.48168	7661.775
1407.93234	7684.475
1411.38068	7707.275
1414.82669	7789.675
1418.27039	7866.375
1421.71177	7852.175
1425.15083	7747.975
1428.58758	7701.775
1432.02203	7716.875
1435.45416	7792.175
1438.88399	7801.075
1442.31151	7778.275
1445.73673	7847.175
1449.15965	7916.875
1452.58027	7929.975
1455.9986	7907.075
1459.41463	7944.375
1462.82837	8033.875
1466.23982	8197.475
1469.64898	8389.575
1473.05586	8504.975
1476.46045	8606.275
1479.86276	8688.775
1483.26279	8783.975
1486.66054	8940.175
1490.05602	9188.275
1493.44922	9719.975
1496.84016	10527.475
1500.22882	11795.175
1503.61521	13444.675
1506.99934	15076.075
1510.38121	16254.175
1513.76081	16138.475
1517.13816	14657.775
1520.51324	12658.875
1523.88607	11034.475
1527.25665	10060.175
1530.62498	9582.675
1533.99105	9395.575
1537.35488	9271.975
1540.71647	9206.075
1544.07581	9110.575
1547.4329	8986.275
1550.78776	8864.275
1554.14038	8779.375
1557.49077	8746.575
1560.83892	8839.975
1564.18484	9063.675
1567.52853	9357.275
1570.86999	9660.275
1574.20922	9785.075
1577.54624	9677.975
1580.88103	9213.275
1584.2136	8584.875
1587.54395	8229.575
1590.87208	8186.275
1594.19801	8329.975
1597.52172	8699.475
1600.84321	8832.475
1604.16251	8705.175
1607.47959	8525.475
1610.79447	8369.975
1614.10715	8075.775
1617.41763	7785.575
1620.7259	7512.375
1624.03199	7354.175
1627.33587	7304.775
1630.63757	7342.775
1633.93707	7567.175
1637.23439	7981.575
1640.52951	8621.675
1643.82246	9581.475
1647.11321	10676.075
1650.40179	11336.975
1653.68819	10993.875
1656.97241	9825.375
1660.25446	8483.575
1663.53433	7552.775
1666.81203	6965.375
1670.08756	6646.175
1673.36092	6481.975
1676.63211	6341.075
1679.90115	6251.075
1683.16801	6169.175
1686.43272	6088.075
1689.69527	6053.175
1692.95567	5974.175
1696.2139	5972.975
1699.46999	5908.075
1702.72392	5924.475
1705.97571	5921.075
1709.22535	5886.475
1712.47284	5932.675
1715.71819	5939.275
1718.96139	5936.675
1722.20246	5901.075
1725.44139	5885.975
1728.67818	5865.175
1731.91284	5826.675
1735.14537	5780.275
1738.37576	5765.075
1741.60403	5738.775
1744.83017	5712.275
1748.05418	5711.175
1751.27607	5738.175
1754.49584	5685.275
1757.71349	5666.975
1760.92903	5668.275
1764.14244	5596.975
1767.35375	5617.575
1770.56294	5602.775
1773.77002	5580.275
1776.97499	5598.975
1780.17785	5570.075
1783.37861	5561.875
1786.57727	5565.275
1789.77382	5509.975
1792.96828	5545.275
1796.16064	5536.875
1799.3509	5510.675
1802.53907	5526.975
1805.72514	5516.975
1808.90913	5478.075
1812.09102	5488.575
1815.27083	5479.075
1818.44856	5456.975
1821.6242	5452.275
1824.79776	5426.975
1827.96924	5437.775
1831.13864	5397.775
1834.30597	5423.175
1837.47122	5398.175
1840.6344	5378.375
1843.7955	5361.275
1846.95454	5353.675
1850.11151	5377.275
1853.26642	5335.975
1856.41926	5356.075
1859.57004	5331.675
1862.71876	5349.175
1865.86542	5353.775
1869.01003	5319.275
1872.15258	5307.975
1875.29308	5319.075
1878.43152	5328.275
1881.56792	5295.675
1884.70227	5281.875
1887.83457	5294.775
1890.96482	5259.975
1894.09304	5246.575
1897.21921	5261.075
1900.34335	5249.875
1903.46544	5241.275
1906.58551	5252.775
1909.70353	5240.275
1912.81953	5231.475
1915.93349	5213.475
1919.04543	5204.875
1922.15534	5178.975
1925.26322	5184.275
1928.36908	5177.075
1931.47292	5183.675
1934.57473	5167.975
1937.67453	5149.475
1940.77232	5134.675
1943.86808	5121.875
1946.96184	5109.675
1950.05358	5068.875
1953.14331	5079.075
1956.23103	5069.575
1959.31675	5032.575
1962.40046	5004.375
1965.48217	5003.375
1968.56188	4996.875
1971.63959	4987.875
1974.7153	4977.775
1977.78901	4982.675
1980.86073	4950.875
1983.93046	4908.375
1986.99819	4826.675
1990.06394	4858.475
1993.1277	4867.575
1996.18947	4841.575
1999.24925	4807.775
2002.30706	4824.775
2005.36288	4805.075
2008.41672	4781.975
2011.46859	4745.975
2014.51848	4745.675
2017.56639	4732.375
2020.61233	4724.475
2023.6563	4693.675
2026.6983	4676.675
2029.73833	4676.075
2032.7764	4678.875
2035.8125	4624.075
2038.84664	4641.375
2041.87881	4614.075
2044.90903	4625.075
2047.93729	4624.975
2050.96359	4582.975
2053.98794	4597.575
2057.01034	4591.175
2060.03078	4582.375
2063.04927	4580.175
2066.06582	4571.475
2069.08042	4549.475
2072.09307	4570.575
2075.10378	4565.475
2078.11255	4557.375
2081.11938	4555.375
2084.12426	4549.275
2087.12722	4536.875
2090.12824	4524.775
2093.12732	4533.475
2096.12447	4544.575
2099.11969	4553.875
2102.11299	4540.275
2105.10435	4560.475
2108.09379	4540.775
2111.08131	4542.875
2114.0669	4534.475
2117.05057	4538.875
2120.03233	4535.175
2123.01216	4540.875
2125.99008	4564.275
2128.96609	4560.575
2131.94018	4567.075
2134.91236	4571.575
2137.88263	4547.575
2140.851	4553.875
2143.81746	4589.175
2146.78201	4559.375
2149.74466	4539.175
2152.7054	4557.275
2155.66425	4525.675
2158.6212	4536.675
2161.57625	4524.875
2164.52941	4502.675
2167.48067	4505.575
2170.43004	4513.475
2173.37752	4532.075
2176.32311	4517.575
2179.26681	4515.675
2182.20863	4507.575
2185.14856	4496.175
2188.08661	4498.875
2191.02278	4510.375
2193.95707	4492.175
2196.88948	4480.575
2199.82001	4489.875
2202.74867	4478.075
2205.67545	4474.975
2208.60037	4483.775
2211.52341	4473.175
2214.44458	4460.775
2217.36388	4434.275
2220.28132	4430.675
2223.1969	4396.175
2226.11061	4403.475
2229.02246	4380.075
2231.93245	4407.075
2234.84058	4377.675
2237.74686	4367.375
2240.65128	4359.075
2243.55385	4358.675
2246.45456	4339.175
2249.35343	4347.775
2252.25044	4340.875
2255.14561	4356.575
2258.03893	4328.475
2260.93041	4325.775
2263.82004	4315.175
2266.70783	4308.975
2269.59378	4299.575
2272.4779	4280.175
2275.36017	4278.375
2278.24061	4257.475
2281.11922	4225.775
2283.996	4232.175
2286.87094	4209.175
2289.74405	4224.875
2292.61534	4221.875
2295.4848	4204.275
2298.35243	4197.875
2301.21824	4187.275
2304.08223	4184.975
2306.94439	4186.875
2309.80474	4190.275
2312.66327	4177.575
2315.51999	4168.675
2318.37489	4169.675
2321.22797	4156.375
2324.07925	4144.975
2326.92871	4131.775
2329.77637	4124.175
2332.62222	4101.575
2335.46626	4099.475
2338.3085	4081.875
2341.14893	4117.275
2343.98756	4092.575
2346.8244	4090.375
2349.65943	4076.775
2352.49267	4084.175
2355.32411	4094.375
2358.15376	4075.175
2360.98161	4081.775
2363.80768	4064.175
2366.63195	4072.275
2369.45444	4089.975
2372.27514	4068.375
2375.09405	4071.475
2377.91118	4035.075
2380.72652	4039.175
2383.54009	4030.575
2386.35187	4044.775
2389.16188	4006.375
2391.97011	4013.275
2394.77657	4005.375
2397.58125	3988.775
2400.38416	3973.075
2403.18529	3956.075
2405.98466	3954.175
2408.78226	3945.875
2411.57809	3928.275
2414.37216	3926.275
2417.16446	3940.075
2419.955	3908.975
2422.74378	3924.375
2425.5308	3904.375
2428.31606	3905.375
2431.09956	3918.475
2433.88131	3881.975
2436.6613	3896.275
2439.43954	3879.675
2442.21603	3875.775
2444.99077	3870.175
2447.76377	3877.775
2450.53501	3873.675
2453.30451	3869.475
2456.07226	3870.275
2458.83827	3848.575
2461.60254	3815.575
2464.36507	3856.575
2467.12586	3826.575
2469.88492	3835.275
2472.64224	3841.775
2475.39782	3807.875
2478.15167	3825.875
2480.90379	3821.475
2483.65417	3822.875
2486.40283	3823.175
2489.14976	3835.475
2491.89497	3802.275
2494.63845	3821.375
2497.3802	3796.275
2500.12024	3800.075
2502.85855	3808.575
2505.59514	3800.475
2508.33002	3794.275
2511.06318	3771.875
2513.79462	3772.775
2516.52435	3740.075
2519.25237	3721.375
2521.97867	3724.875
2524.70327	3727.275
2527.42616	3718.175
2530.14734	3726.875
2532.86681	3699.175
2535.58458	3696.275
2538.30065	3692.675
2541.01501	3703.275
2543.72768	3679.475
2546.43864	3692.375
2549.14791	3677.875
2551.85548	3657.075
2554.56136	3656.575
2557.26554	3657.975
2559.96803	3668.975
2562.66883	3647.475
2565.36794	3617.675
2568.06536	3594.175
2570.7611	3632.975
2573.45514	3599.575
2576.14751	3599.275
2578.83819	3577.575
2581.52719	3570.275
2584.21451	3561.975
2586.90015	3551.275
2589.58411	3533.475
2592.2664	3561.275
2594.94701	3551.975
2597.62594	3545.475
2600.30321	3484.975
2602.9788	3506.375
2605.65273	3504.375
2608.32498	3488.775
2610.99557	3518.575
2613.66449	3481.875
2616.33175	3496.275
2618.99734	3500.975
2621.66128	3483.575
2624.32355	3478.575
2626.98416	3452.075
2629.64311	3444.375
2632.30041	3447.375
2634.95605	3429.175
2637.61004	3413.575
2640.26238	3394.675
2642.91306	3414.175
2645.56209	3428.775
2648.20948	3414.775
2650.85521	3394.275
2653.4993	3412.075
2656.14175	3403.675
2658.78255	3398.075
2661.42171	3372.875
2664.05923	3406.475
2666.6951	3416.475
2669.32934	3420.275
2671.96194	3420.875
2674.59291	3406.475
2677.22224	3418.375
2679.84993	3402.375
2682.476	3401.575
2685.10043	3389.075
2687.72324	3390.375
2690.34441	3386.775
2692.96396	3377.875
2695.58188	3398.375
2698.19818	3389.675
2700.81285	3378.675
2703.4259	3372.375
2706.03733	3337.275
2708.64714	3339.475
2711.25533	3370.775
2713.86191	3377.875
2716.46687	3366.575
2719.07021	3365.075
2721.67194	3363.975
2724.27206	3380.175
2726.87057	3360.975
2729.46747	3344.175
2732.06276	3364.175
2734.65644	3328.575
2737.24852	3344.575
2739.83899	3306.075
2742.42786	3324.675
2745.01513	3332.975
2747.60079	3324.775
2750.18486	3286.175
2752.76733	3305.675
2755.3482	3304.975
2757.92747	3304.275
2760.50515	3283.575
2763.08123	3282.575
2765.65573	3274.575
2768.22863	3268.275
2770.79994	3247.275
2773.36967	3248.775
2775.9378	3236.675
2778.50435	3226.875
2781.06932	3236.675
2783.6327	3212.575
2786.1945	3239.375
2788.75471	3228.575
2791.31335	3219.175
2793.87041	3214.775
2796.42589	3196.275
2798.97979	3188.375
2801.53212	3190.175
2804.08288	3197.875
2806.63206	3180.475
2809.17967	3163.675
2811.72571	3180.675
2814.27018	3177.875
2816.81308	3163.475
2819.35442	3113.375
2821.89419	3137.175
2824.43239	3119.075
2826.96904	3133.475
2829.50412	3118.475
2832.03763	3128.275
2834.56959	3131.275
2837.1	3107.275
2839.62884	3116.775
2842.15613	3104.775
2844.68186	3118.775
2847.20604	3081.975
2849.72867	3072.575
2852.24974	3081.875
2854.76927	3049.975
2857.28724	3005.975
2859.80367	3062.675
2862.31855	3077.875
2864.83189	3059.275
2867.34368	3066.475
2869.85393	3071.875
2872.36264	3046.175
2874.8698	3045.475
2877.37543	3054.275
2879.87952	3040.175
2882.38207	3006.675
2884.88308	3039.375
2887.38256	3025.575
2889.88051	3024.675
2892.37692	3016.475
2894.8718	2998.775
2897.36515	3024.475
2899.85698	3012.975
2902.34727	3019.875
2904.83604	3020.775
2907.32328	3024.175
2909.809	3027.275
2912.29319	3021.175
2914.77587	3023.275
2917.25702	3043.475
2919.73665	3035.175
2922.21476	3043.175
2924.69136	3041.475
2927.16644	3024.475
2929.64	3017.575
2932.11205	3014.675
2934.58258	3019.075
2937.05161	3003.475
2939.51912	2996.775
2941.98513	3010.775
2944.44962	2999.975
2946.91261	2951.575
2949.37409	2978.775
2951.83407	2965.375
2954.29254	2963.975
2956.74951	2960.475
2959.20498	2948.975
2961.65895	2944.975
2964.11142	2942.175
2966.56239	2928.475
2969.01186	2939.975
2971.45984	2932.475
2973.90632	2923.575
2976.35131	2933.975
2978.7948	2918.375
2981.23681	2913.275
2983.67732	2916.575
2986.11635	2909.775
2988.55388	2885.575
2990.98993	2881.575
2993.4245	2865.675
2995.85758	2858.875
2998.28917	2847.975
3000.71928	2841.775
3003.14791	2842.975
3005.57506	2831.875
3008.00073	2818.775
3010.42493	2761.375
3012.84764	2803.275
3015.26888	2816.775
3017.68865	2802.875
3020.10694	2763.175
3022.52376	2769.375
3024.9391	2770.175
3027.35298	2762.475
3029.76539	2751.775
3032.17632	2757.175
3034.5858	2742.775
3036.9938	2741.375
3039.40034	2730.975
3041.80542	2736.775
3044.20903	2716.575
3046.61118	2705.275
3049.01187	2721.575
3051.4111	2696.075
3053.80888	2670.775
3056.20519	2682.275
3058.60005	2665.075
3060.99345	2687.375
3063.3854	2651.275
3065.7759	2642.975
3068.16494	2631.975
3070.55254	2617.775
3072.93868	2645.675
3075.32338	2634.175
3077.70662	2623.875
3080.08842	2607.175
3082.46878	2595.775
3084.84769	2610.375
3087.22515	2599.775
3089.60118	2606.575
3091.97576	2596.275
3094.3489	2598.175
3096.72061	2592.575
3099.09087	2575.175
3101.4597	2596.875
3103.82709	2564.175
3106.19305	2572.875
3108.55757	2567.275
3110.92066	2546.775
3113.28232	2563.075
3115.64255	2558.275
3118.00134	2564.775
3120.35871	2531.575
3122.71466	2516.175
3125.06917	2524.875
3127.42226	2492.775
3129.77393	2489.975
3132.12417	2513.175
3134.47299	2514.775
3136.82039	2496.475
3139.16636	2469.975
3141.51092	2492.475
3143.85406	2477.475
3146.19579	2472.975
3148.53609	2465.675
3150.87499	2475.575
3153.21246	2465.875
3155.54853	2480.975
3157.88318	2484.375
3160.21642	2484.075
3162.54826	2475.775
3164.87868	2477.175
3167.2077	2451.875
3169.5353	2459.675
3171.86151	2464.575
3174.18631	2452.975
3176.5097	2437.475
3178.83169	2443.475
3181.15228	2445.675
3183.47147	2424.675
3185.78926	2410.475
3188.10565	2417.575
3190.42065	2406.175
3192.73424	2409.675
3195.04645	2399.375
3197.35725	2386.075
3199.66667	2383.075
3201.97469	2393.175
3204.28132	2370.675
3206.58656	2384.075
3208.8904	2394.375
3211.19287	2375.075
3213.49394	2362.475
3215.79363	2359.175
3218.09193	2381.075
3220.38884	2376.275
3222.68438	2360.475
3224.97853	2357.075
3227.2713	2372.975
3229.56269	2359.575
3231.8527	2348.775
3234.14133	2336.075
