Data from AgNPs_UA_5uM_CRN_500uM_SU_RamanShift__42__11-36-23-147.txt Node

Date: Thu Aug 04 11:36:23 BST 2022
User: TCL
Spectrometer: QEP01345
Trigger mode: 4
Integration Time (sec): 1.000000E0
Scans to average: 10
Electric dark correction enabled: true
Nonlinearity correction enabled: false
Boxcar width: 0
XAxis mode: Raman Shifts
Number of Pixels in Spectrum: 1044
>>>>>Begin Spectral Data<<<<<
46.04893	0.975
50.45542	-0.425
54.85868	0.175
59.25871	-0.425
63.6555	-54.225
68.04907	-38.325
72.43941	-67.225
76.82654	-55.025
81.21044	-53.125
85.59113	-47.225
89.96862	-72.025
94.34289	-52.725
98.71396	-73.125
103.08183	-54.025
107.4465	-45.525
111.80798	-51.925
116.16626	-39.625
120.52136	-69.125
124.87327	-44.125
129.222	-55.525
133.56755	-40.925
137.90993	-50.325
142.24913	-36.525
146.58517	-28.525
150.91804	-21.025
155.24774	-2.025
159.57429	26.775
163.89768	44.275
168.21792	109.975
172.53501	162.575
176.84895	292.075
181.15975	483.675
185.46741	724.175
189.77193	1021.575
194.07331	1464.275
198.37157	1921.975
202.6667	2399.475
206.9587	2943.675
211.24758	3493.575
215.53334	4122.275
219.81599	4855.075
224.09553	5686.875
228.37195	6573.575
232.64527	7414.375
236.91549	8073.675
241.18261	8400.475
245.44663	8502.675
249.70755	8465.575
253.96539	8428.975
258.22014	8488.775
262.4718	8533.875
266.72039	8519.075
270.96589	8318.575
275.20832	7972.475
279.44768	7605.575
283.68397	7341.675
287.91719	7275.275
292.14735	7475.275
296.37445	8023.475
300.59849	9017.075
304.81948	10390.375
309.03742	11962.575
313.25231	13143.175
317.46415	12997.875
321.67296	11409.875
325.87872	9560.575
330.08145	8454.475
334.28114	8196.175
338.47781	8471.175
342.67145	9069.275
346.86207	10036.075
351.04966	11529.075
355.23424	13018.075
359.4158	13569.675
363.59435	13050.875
367.76989	12157.475
371.94243	11275.075
376.11196	10551.675
380.27849	10019.875
384.44203	9614.475
388.60257	9391.275
392.76012	9428.475
396.91468	9745.475
401.06626	10166.175
405.21485	10153.975
409.36047	9506.575
413.50311	8375.975
417.64277	7329.375
421.77947	6653.775
425.9132	6363.575
430.04396	6218.175
434.17176	6203.375
438.2966	6334.475
442.41849	6533.875
446.53742	6755.675
450.6534	6889.775
454.76644	6886.375
458.87653	6758.775
462.98368	6600.975
467.08789	6471.575
471.18916	6219.475
475.2875	5928.775
479.38291	5667.175
483.4754	5500.575
487.56496	5463.675
491.6516	5371.975
495.73531	5375.075
499.81612	5451.875
503.89401	5614.675
507.96899	5830.775
512.04106	6116.975
516.11023	6401.275
520.1765	6651.875
524.23987	6727.375
528.30034	6717.075
532.35792	6543.475
536.41261	6360.475
540.46441	6122.275
544.51333	5945.875
548.55936	5926.975
552.60252	6097.775
556.64279	6299.775
560.6802	6765.175
564.71473	7757.075
568.7464	9016.675
572.7752	8947.475
576.80114	7320.775
580.82422	5984.575
584.84444	5417.175
588.86181	5240.575
592.87633	5259.875
596.888	5452.275
600.89682	6262.975
604.9028	9010.475
608.90594	15976.075
612.90624	24418.975
616.90371	22113.975
620.89834	11627.775
624.89015	7047.275
628.87913	6548.875
632.86528	7213.775
636.84862	7493.875
640.82913	6683.675
644.80683	5583.175
648.78172	5088.475
652.75379	5245.575
656.72306	6033.375
660.68952	6820.075
664.65319	6386.275
668.61405	5339.075
672.57211	4873.275
676.52738	4884.075
680.47986	4822.375
684.42955	4668.975
688.37646	4587.775
692.32058	4592.575
696.26192	4672.475
700.20048	4809.875
704.13626	4847.675
708.06928	4740.275
711.99952	4731.275
715.927	4779.975
719.85171	5016.975
723.77365	5174.875
727.69284	5006.175
731.60928	4869.075
735.52295	4812.875
739.43388	4870.575
743.34206	4917.375
747.24749	4913.075
751.15017	4947.375
755.05012	5284.075
758.94733	6640.175
762.8418	9791.475
766.73354	13867.875
770.62254	15821.275
774.50882	14992.275
778.39237	13390.875
782.27321	11098.475
786.15132	8108.375
790.02671	6121.075
793.89938	5201.775
797.76935	4882.775
801.6366	4715.175
805.50115	4649.575
809.36299	4592.575
813.22213	4573.475
817.07857	4567.175
820.93231	4599.975
824.78336	4698.375
828.63172	4845.475
832.47738	4904.875
836.32036	4793.875
840.16066	4566.675
843.99827	4431.975
847.8332	4377.075
851.66546	4376.375
855.49504	4358.575
859.32195	4368.575
863.1462	4293.375
866.96777	4288.075
870.78668	4270.475
874.60293	4317.875
878.41652	4395.575
882.22745	4549.675
886.03573	4637.275
889.84136	4596.675
893.64433	4572.075
897.44466	4599.175
901.24235	4616.975
905.0374	4520.975
908.8298	4331.675
912.61957	4203.175
916.40671	4120.075
920.19121	4174.575
923.97308	4399.675
927.75233	4797.175
931.52895	5224.075
935.30295	4998.575
939.07433	4371.675
942.84309	3972.975
946.60924	3823.175
950.37278	3759.075
954.13371	3745.275
957.89203	3738.575
961.64774	3755.275
965.40086	3707.475
969.15137	3689.875
972.89929	3715.775
976.64461	3691.375
980.38733	3680.475
984.12747	3667.675
987.86502	3684.575
991.59999	3707.375
995.33237	3793.675
999.06217	3895.175
1002.78939	4087.075
1006.51404	4396.875
1010.23611	4537.575
1013.95561	4411.875
1017.67255	4199.675
1021.38692	4026.075
1025.09872	3884.675
1028.80796	3780.975
1032.51465	3828.775
1036.21877	3869.275
1039.92035	3955.075
1043.61937	4025.675
1047.31584	4092.975
1051.00976	4116.375
1054.70114	4049.575
1058.38998	3983.175
1062.07627	3932.575
1065.76003	3953.375
1069.44126	4020.175
1073.11995	4118.575
1076.79611	4391.875
1080.46974	4914.375
1084.14085	5687.975
1087.80943	6319.775
1091.47549	6290.875
1095.13903	5648.575
1098.80005	4979.975
1102.45857	4626.075
1106.11456	4548.575
1109.76805	4674.275
1113.41903	5097.375
1117.06751	5767.875
1120.71348	6868.075
1124.35696	8515.075
1127.99793	9656.375
1131.63641	8797.275
1135.2724	7068.175
1138.90589	5949.275
1142.5369	5299.075
1146.16542	4896.075
1149.79145	4609.475
1153.415	4540.275
1157.03607	4614.375
1160.65467	4838.375
1164.27079	5264.175
1167.88443	5854.275
1171.49561	6881.375
1175.10432	8684.075
1178.71056	11224.775
1182.31434	13043.575
1185.91565	12752.875
1189.51451	11093.475
1193.11091	9395.975
1196.70485	8309.075
1200.29634	7862.375
1203.88538	7324.575
1207.47197	6286.875
1211.05612	5326.275
1214.63782	4731.675
1218.21708	4428.075
1221.79391	4329.075
1225.36829	4307.775
1228.94024	4331.875
1232.50976	4296.575
1236.07685	4323.175
1239.6415	4364.875
1243.20374	4483.075
1246.76355	4647.375
1250.32093	4855.475
1253.8759	5135.775
1257.42845	5647.175
1260.97859	6312.775
1264.52631	6989.275
1268.07163	7341.075
1271.61453	7347.575
1275.15503	7111.075
1278.69312	6892.675
1282.22882	7098.475
1285.76211	8024.575
1289.29301	9325.675
1292.82151	10183.875
1296.34761	10571.275
1299.87133	11377.775
1303.39266	13552.375
1306.9116	17624.075
1310.42815	22536.975
1313.94233	24119.575
1317.45412	20286.475
1320.96354	14866.975
1324.47058	10809.675
1327.97525	8341.275
1331.47754	7076.875
1334.97747	6679.575
1338.47502	6852.375
1341.97022	7813.375
1345.46305	9998.775
1348.95352	13093.475
1352.44163	16244.675
1355.92738	20126.675
1359.41078	26947.575
1362.89183	34363.175
1366.37053	32867.375
1369.84688	22571.075
1373.32088	14011.075
1376.79254	10324.075
1380.26186	8720.875
1383.72883	7453.875
1387.19347	6275.075
1390.65578	5414.075
1394.11575	4929.975
1397.57339	4711.275
1401.0287	4529.575
1404.48168	4392.075
1407.93234	4294.175
1411.38068	4362.675
1414.82669	4736.875
1418.27039	5144.275
1421.71177	5249.975
1425.15083	5033.075
1428.58758	5079.675
1432.02203	5549.275
1435.45416	5922.275
1438.88399	5665.375
1442.31151	5316.275
1445.73673	5267.675
1449.15965	5216.375
1452.58027	5106.375
1455.9986	4933.875
1459.41463	4776.575
1462.82837	4804.675
1466.23982	5059.175
1469.64898	5389.375
1473.05586	5516.775
1476.46045	5497.175
1479.86276	5517.975
1483.26279	5793.475
1486.66054	6427.375
1490.05602	7426.375
1493.44922	9019.675
1496.84016	11601.875
1500.22882	15589.875
1503.61521	21207.175
1506.99934	28402.075
1510.38121	35388.475
1513.76081	37890.975
1517.13816	33206.075
1520.51324	24521.875
1523.88607	16852.675
1527.25665	11988.875
1530.62498	9275.775
1533.99105	7742.175
1537.35488	6719.975
1540.71647	6135.275
1544.07581	5893.175
1547.4329	5917.975
1550.78776	6091.875
1554.14038	6410.275
1557.49077	6941.775
1560.83892	7852.275
1564.18484	9269.975
1567.52853	10924.775
1570.86999	11939.975
1574.20922	12100.675
1577.54624	11445.775
1580.88103	9537.675
1584.2136	7239.475
1587.54395	5879.175
1590.87208	5537.575
1594.19801	5926.175
1597.52172	6684.575
1600.84321	6676.675
1604.16251	5899.275
1607.47959	5133.475
1610.79447	4688.675
1614.10715	4343.575
1617.41763	4092.575
1620.7259	3974.075
1624.03199	4022.075
1627.33587	4213.975
1630.63757	4563.675
1633.93707	5236.975
1637.23439	6433.575
1640.52951	8648.975
1643.82246	12421.575
1647.11321	17590.775
1650.40179	21760.375
1653.68819	21479.975
1656.97241	16712.475
1660.25446	11216.675
1663.53433	7439.675
1666.81203	5379.175
1670.08756	4327.875
1673.36092	3762.075
1676.63211	3401.175
1679.90115	3175.675
1683.16801	3039.275
1686.43272	2894.475
1689.69527	2828.675
1692.95567	2751.675
1696.2139	2713.375
1699.46999	2641.875
1702.72392	2641.675
1705.97571	2646.375
1709.22535	2632.775
1712.47284	2682.375
1715.71819	2696.675
1718.96139	2709.375
1722.20246	2680.775
1725.44139	2623.775
1728.67818	2574.575
1731.91284	2491.875
1735.14537	2434.675
1738.37576	2391.675
1741.60403	2381.575
1744.83017	2346.775
1748.05418	2327.975
1751.27607	2316.475
1754.49584	2266.475
1757.71349	2214.475
1760.92903	2170.275
1764.14244	2105.375
1767.35375	2089.975
1770.56294	2049.075
1773.77002	2000.475
1776.97499	1998.275
1780.17785	1949.775
1783.37861	1924.275
1786.57727	1938.275
1789.77382	1866.175
1792.96828	1902.075
1796.16064	1910.875
1799.3509	1883.975
1802.53907	1894.975
1805.72514	1870.275
1808.90913	1845.775
1812.09102	1837.075
1815.27083	1829.075
1818.44856	1815.475
1821.6242	1806.375
1824.79776	1798.975
1827.96924	1786.075
1831.13864	1760.075
1834.30597	1763.475
1837.47122	1713.775
1840.6344	1697.575
1843.7955	1672.175
1846.95454	1651.475
1850.11151	1668.975
1853.26642	1627.375
1856.41926	1632.375
1859.57004	1640.275
1862.71876	1650.075
1865.86542	1650.975
1869.01003	1646.675
1872.15258	1632.975
1875.29308	1657.575
1878.43152	1672.575
1881.56792	1654.475
1884.70227	1631.275
1887.83457	1638.075
1890.96482	1602.675
1894.09304	1611.475
1897.21921	1598.075
1900.34335	1604.175
1903.46544	1593.275
1906.58551	1601.775
1909.70353	1598.575
1912.81953	1587.075
1915.93349	1576.875
1919.04543	1570.875
1922.15534	1549.175
1925.26322	1546.575
1928.36908	1512.875
1931.47292	1508.375
1934.57473	1496.375
1937.67453	1448.975
1940.77232	1413.975
1943.86808	1415.075
1946.96184	1407.675
1950.05358	1392.675
1953.14331	1386.875
1956.23103	1404.375
1959.31675	1392.775
1962.40046	1358.175
1965.48217	1412.175
1968.56188	1422.375
1971.63959	1430.675
1974.7153	1449.075
1977.78901	1438.375
1980.86073	1401.475
1983.93046	1356.975
1986.99819	1268.575
1990.06394	1284.675
1993.1277	1312.275
1996.18947	1289.575
1999.24925	1258.475
2002.30706	1265.975
2005.36288	1263.075
2008.41672	1243.175
2011.46859	1220.975
2014.51848	1215.475
2017.56639	1208.875
2020.61233	1185.875
2023.6563	1205.375
2026.6983	1168.375
2029.73833	1182.975
2032.7764	1193.475
2035.8125	1152.175
2038.84664	1167.175
2041.87881	1147.175
2044.90903	1170.875
2047.93729	1158.175
2050.96359	1128.875
2053.98794	1132.775
2057.01034	1128.675
2060.03078	1115.075
2063.04927	1101.175
2066.06582	1099.275
2069.08042	1074.975
2072.09307	1073.575
2075.10378	1076.175
2078.11255	1075.675
2081.11938	1084.375
2084.12426	1082.275
2087.12722	1069.175
2090.12824	1064.375
2093.12732	1072.675
2096.12447	1084.575
2099.11969	1073.975
2102.11299	1064.875
2105.10435	1082.975
2108.09379	1083.475
2111.08131	1070.375
2114.0669	1081.375
2117.05057	1087.975
2120.03233	1085.775
2123.01216	1126.275
2125.99008	1127.575
2128.96609	1127.975
2131.94018	1141.175
2134.91236	1115.875
2137.88263	1098.575
2140.851	1087.075
2143.81746	1092.275
2146.78201	1068.575
2149.74466	1035.275
2152.7054	1034.475
2155.66425	1021.575
2158.6212	1007.875
2161.57625	988.475
2164.52941	963.375
2167.48067	986.875
2170.43004	991.975
2173.37752	1012.575
2176.32311	1004.775
2179.26681	1008.675
2182.20863	1020.275
2185.14856	1014.075
2188.08661	1009.575
2191.02278	1009.375
2193.95707	974.575
2196.88948	963.575
2199.82001	961.475
2202.74867	960.975
2205.67545	961.475
2208.60037	966.275
2211.52341	967.975
2214.44458	950.175
2217.36388	946.775
2220.28132	944.075
2223.1969	929.475
2226.11061	925.975
2229.02246	918.275
2231.93245	921.375
2234.84058	904.575
2237.74686	899.375
2240.65128	902.675
2243.55385	921.675
2246.45456	906.075
2249.35343	930.275
2252.25044	931.975
2255.14561	965.775
2258.03893	987.975
2260.93041	998.775
2263.82004	1010.175
2266.70783	1027.875
2269.59378	995.475
2272.4779	989.675
2275.36017	1012.275
2278.24061	996.575
2281.11922	962.175
2283.996	973.375
2286.87094	944.475
2289.74405	942.175
2292.61534	933.175
2295.4848	915.775
2298.35243	896.075
2301.21824	885.175
2304.08223	882.475
2306.94439	894.275
2309.80474	892.875
2312.66327	899.275
2315.51999	881.775
2318.37489	881.775
2321.22797	867.475
2324.07925	867.975
2326.92871	868.275
2329.77637	862.575
2332.62222	860.675
2335.46626	845.175
2338.3085	843.175
2341.14893	874.175
2343.98756	880.275
2346.8244	864.475
2349.65943	872.275
2352.49267	892.375
2355.32411	902.975
2358.15376	917.375
2360.98161	940.375
2363.80768	933.875
2366.63195	959.275
2369.45444	978.875
2372.27514	982.175
2375.09405	993.475
2377.91118	960.175
2380.72652	954.375
2383.54009	939.775
2386.35187	942.275
2389.16188	911.375
2391.97011	897.875
2394.77657	883.775
2397.58125	875.475
2400.38416	859.975
2403.18529	846.775
2405.98466	833.975
2408.78226	837.875
2411.57809	825.275
2414.37216	815.275
2417.16446	826.175
2419.955	810.975
2422.74378	825.975
2425.5308	811.875
2428.31606	834.775
2431.09956	850.975
2433.88131	835.375
2436.6613	857.175
2439.43954	853.275
2442.21603	855.075
2444.99077	856.275
2447.76377	877.075
2450.53501	879.575
2453.30451	877.775
2456.07226	893.075
2458.83827	877.075
2461.60254	843.675
2464.36507	876.875
2467.12586	867.675
2469.88492	877.575
2472.64224	881.675
2475.39782	863.375
2478.15167	906.675
2480.90379	913.675
2483.65417	949.175
2486.40283	968.775
2489.14976	981.475
2491.89497	973.175
2494.63845	980.775
2497.3802	959.675
2500.12024	950.575
2502.85855	945.275
2505.59514	930.275
2508.33002	904.175
2511.06318	866.075
2513.79462	854.275
2516.52435	788.075
2519.25237	758.675
2521.97867	751.775
2524.70327	749.075
2527.42616	739.375
2530.14734	744.475
2532.86681	727.375
2535.58458	729.175
2538.30065	723.375
2541.01501	751.675
2543.72768	735.675
2546.43864	748.175
2549.14791	762.175
2551.85548	751.375
2554.56136	755.675
2557.26554	778.175
2559.96803	774.575
2562.66883	782.975
2565.36794	773.775
2568.06536	763.175
2570.7611	781.075
2573.45514	776.675
2576.14751	770.375
2578.83819	753.675
2581.52719	751.675
2584.21451	756.675
2586.90015	727.375
2589.58411	714.075
2592.2664	731.775
2594.94701	734.475
2597.62594	735.375
2600.30321	684.875
2602.9788	713.075
2605.65273	711.375
2608.32498	720.675
2610.99557	740.175
2613.66449	715.075
2616.33175	730.075
2618.99734	734.375
2621.66128	741.975
2624.32355	731.075
2626.98416	710.675
2629.64311	705.175
2632.30041	698.375
2634.95605	669.675
2637.61004	658.675
2640.26238	642.575
2642.91306	645.675
2645.56209	656.675
2648.20948	656.475
2650.85521	636.975
2653.4993	669.375
2656.14175	672.075
2658.78255	663.775
2661.42171	640.975
2664.05923	676.575
2666.6951	701.575
2669.32934	698.475
2671.96194	719.775
2674.59291	705.575
2677.22224	715.575
2679.84993	705.275
2682.476	698.475
2685.10043	687.275
2687.72324	677.475
2690.34441	668.175
2692.96396	671.775
2695.58188	681.975
2698.19818	673.075
2700.81285	660.375
2703.4259	654.575
2706.03733	621.975
2708.64714	628.475
2711.25533	672.475
2713.86191	681.375
2716.46687	670.375
2719.07021	672.575
2721.67194	675.775
2724.27206	686.575
2726.87057	659.075
2729.46747	648.075
2732.06276	650.075
2734.65644	629.575
2737.24852	636.875
2739.83899	610.675
2742.42786	623.475
2745.01513	627.775
2747.60079	601.875
2750.18486	584.275
2752.76733	590.775
2755.3482	577.575
2757.92747	581.175
2760.50515	559.975
2763.08123	559.575
2765.65573	561.275
2768.22863	553.675
2770.79994	546.275
2773.36967	549.175
2775.9378	548.175
2778.50435	549.575
2781.06932	557.275
2783.6327	543.375
2786.1945	572.875
2788.75471	561.475
2791.31335	563.875
2793.87041	575.575
2796.42589	562.475
2798.97979	566.775
2801.53212	579.875
2804.08288	607.975
2806.63206	600.175
2809.17967	597.175
2811.72571	633.375
2814.27018	639.575
2816.81308	642.775
2819.35442	632.275
2821.89419	675.975
2824.43239	667.375
2826.96904	702.475
2829.50412	672.975
2832.03763	680.475
2834.56959	677.875
2837.1	658.175
2839.62884	645.575
2842.15613	638.475
2844.68186	651.175
2847.20604	635.275
2849.72867	636.375
2852.24974	656.275
2854.76927	639.175
2857.28724	609.875
2859.80367	686.575
2862.31855	716.475
2864.83189	719.075
2867.34368	752.475
2869.85393	766.975
2872.36264	746.875
2874.8698	755.475
2877.37543	757.975
2879.87952	748.475
2882.38207	707.575
2884.88308	709.475
2887.38256	697.175
2889.88051	682.875
2892.37692	677.275
2894.8718	664.275
2897.36515	678.775
2899.85698	677.075
2902.34727	680.475
2904.83604	697.575
2907.32328	722.375
2909.809	734.475
2912.29319	744.475
2914.77587	763.875
2917.25702	777.675
2919.73665	766.475
2922.21476	744.775
2924.69136	727.175
2927.16644	697.275
2929.64	682.475
2932.11205	659.875
2934.58258	662.975
2937.05161	646.675
2939.51912	651.575
2941.98513	666.075
2944.44962	645.875
2946.91261	626.175
2949.37409	636.275
2951.83407	638.975
2954.29254	648.275
2956.74951	647.275
2959.20498	639.375
2961.65895	644.175
2964.11142	631.975
2966.56239	638.675
2969.01186	630.975
2971.45984	622.775
2973.90632	620.375
2976.35131	643.575
2978.7948	634.875
2981.23681	629.375
2983.67732	639.875
2986.11635	645.375
2988.55388	616.475
2990.98993	640.975
2993.4245	627.675
2995.85758	628.875
2998.28917	638.675
3000.71928	632.975
3003.14791	632.475
3005.57506	625.275
3008.00073	614.375
3010.42493	568.375
3012.84764	619.375
3015.26888	614.875
3017.68865	608.075
3020.10694	571.375
3022.52376	590.475
3024.9391	591.975
3027.35298	572.075
3029.76539	556.875
3032.17632	545.575
3034.5858	534.275
3036.9938	529.775
3039.40034	517.275
3041.80542	495.875
3044.20903	483.975
3046.61118	470.875
3049.01187	486.375
3051.4111	471.475
3053.80888	469.175
3056.20519	464.175
3058.60005	450.875
3060.99345	479.875
3063.3854	453.175
3065.7759	449.375
3068.16494	442.075
3070.55254	436.775
3072.93868	449.875
3075.32338	451.975
3077.70662	439.875
3080.08842	431.075
3082.46878	419.775
3084.84769	439.675
3087.22515	419.475
3089.60118	432.275
3091.97576	417.575
3094.3489	422.675
3096.72061	423.675
3099.09087	400.975
3101.4597	415.075
3103.82709	410.975
3106.19305	394.275
3108.55757	408.675
3110.92066	403.775
3113.28232	416.675
3115.64255	417.075
3118.00134	422.575
3120.35871	407.275
3122.71466	392.375
3125.06917	405.175
3127.42226	405.675
3129.77393	389.275
3132.12417	410.575
3134.47299	418.475
3136.82039	399.375
3139.16636	377.275
3141.51092	408.675
3143.85406	414.075
3146.19579	398.475
3148.53609	400.275
3150.87499	407.975
3153.21246	407.275
3155.54853	411.975
3157.88318	416.875
3160.21642	422.975
3162.54826	410.675
3164.87868	413.975
3167.2077	377.475
3169.5353	396.275
3171.86151	395.275
3174.18631	381.875
3176.5097	372.575
3178.83169	374.675
3181.15228	371.575
3183.47147	351.175
3185.78926	330.675
3188.10565	347.475
3190.42065	329.775
3192.73424	341.875
3195.04645	334.875
3197.35725	329.275
3199.66667	343.575
3201.97469	336.775
3204.28132	334.175
3206.58656	352.575
3208.8904	361.875
3211.19287	356.375
3213.49394	346.675
3215.79363	345.075
3218.09193	361.075
3220.38884	351.375
3222.68438	353.275
3224.97853	336.475
3227.2713	357.975
3229.56269	341.875
3231.8527	345.775
3234.14133	330.575
3236.42858	337.975
3238.71446	314.175
3240.99896	336.675
3243.28209	318.775
3245.56384	328.275
3247.84423	318.775
3250.12324	329.575
3252.40088	326.375
3254.67715	317.675
3256.95205	308.875
3259.22558	321.075
3261.49775	325.675
3263.76855	317.875
3266.03799	327.375
3268.30606	325.075
3270.57277	330.675
3272.83812	320.875
3275.10211	325.275
3277.36474	347.775
