Data from AgNPs_UA_5uM_CRN_500uM_SU_RamanShift__107__11-47-13-156.txt Node

Date: Thu Aug 04 11:47:13 BST 2022
User: TCL
Spectrometer: QEP01345
Trigger mode: 4
Integration Time (sec): 1.000000E0
Scans to average: 10
Electric dark correction enabled: true
Nonlinearity correction enabled: false
Boxcar width: 0
XAxis mode: Raman Shifts
Number of Pixels in Spectrum: 1044
>>>>>Begin Spectral Data<<<<<
46.04893	-0.45
50.45542	-0.75
54.85868	0.55
59.25871	-0.05
63.6555	-63.25
68.04907	-44.85
72.43941	-75.45
76.82654	-60.75
81.21044	-61.05
85.59113	-56.55
89.96862	-83.25
94.34289	-61.85
98.71396	-84.55
103.08183	-65.55
107.4465	-57.25
111.80798	-65.95
116.16626	-53.15
120.52136	-82.75
124.87327	-60.15
129.222	-72.35
133.56755	-61.35
137.90993	-74.45
142.24913	-66.15
146.58517	-60.25
150.91804	-61.65
155.24774	-54.15
159.57429	-44.35
163.89768	-50.95
168.21792	-22.25
172.53501	-25.05
176.84895	21.35
181.15975	101.45
185.46741	175.35
189.77193	256.75
194.07331	427.25
198.37157	577.95
202.6667	722.95
206.9587	898.45
211.24758	1061.35
215.53334	1235.95
219.81599	1414.95
224.09553	1632.35
228.37195	1869.25
232.64527	2135.05
236.91549	2439.15
241.18261	2686.35
245.44663	2920.35
249.70755	3082.55
253.96539	3196.55
258.22014	3256.65
262.4718	3231.45
266.72039	3216.15
270.96589	3172.25
275.20832	3092.05
279.44768	3013.15
283.68397	2960.75
287.91719	2881.95
292.14735	2852.45
296.37445	2859.45
300.59849	2898.25
304.81948	2905.25
309.03742	2949.65
313.25231	2974.55
317.46415	2989.95
321.67296	2909.45
325.87872	2854.05
330.08145	2841.25
334.28114	2847.55
338.47781	2872.85
342.67145	2917.25
346.86207	2980.65
351.04966	3072.05
355.23424	3165.35
359.4158	3243.65
363.59435	3243.05
367.76989	3286.35
371.94243	3304.95
376.11196	3302.55
380.27849	3340.85
384.44203	3343.05
388.60257	3370.75
392.76012	3388.85
396.91468	3465.55
401.06626	3511.65
405.21485	3504.95
409.36047	3496.05
413.50311	3495.45
417.64277	3468.35
421.77947	3414.85
425.9132	3421.05
430.04396	3429.35
434.17176	3454.35
438.2966	3517.35
442.41849	3555.25
446.53742	3591.25
450.6534	3627.35
454.76644	3686.45
458.87653	3732.95
462.98368	3741.65
467.08789	3730.15
471.18916	3757.75
475.2875	3761.45
479.38291	3739.95
483.4754	3706.95
487.56496	3715.15
491.6516	3696.85
495.73531	3680.35
499.81612	3690.55
503.89401	3716.65
507.96899	3727.65
512.04106	3751.95
516.11023	3767.55
520.1765	3809.65
524.23987	3809.25
528.30034	3843.95
532.35792	3818.15
536.41261	3841.85
540.46441	3822.35
544.51333	3821.05
548.55936	3838.45
552.60252	3892.15
556.64279	3908.85
560.6802	3969.95
564.71473	3996.35
568.7464	4020.15
572.7752	3994.85
576.80114	3939.05
580.82422	3936.65
584.84444	3916.85
588.86181	3918.35
592.87633	3959.45
596.888	3980.95
600.89682	4067.05
604.9028	4293.65
608.90594	4649.75
612.90624	5057.15
616.90371	4877.55
620.89834	4401.45
624.89015	4182.25
628.87913	4143.55
632.86528	4173.65
636.84862	4234.05
640.82913	4214.95
644.80683	4146.15
648.78172	4143.85
652.75379	4157.95
656.72306	4225.15
660.68952	4262.95
664.65319	4275.95
668.61405	4274.85
672.57211	4286.45
676.52738	4327.15
680.47986	4305.75
684.42955	4280.75
688.37646	4273.25
692.32058	4282.95
696.26192	4291.25
700.20048	4337.15
704.13626	4346.05
708.06928	4324.55
711.99952	4328.15
715.927	4315.85
719.85171	4324.95
723.77365	4358.35
727.69284	4351.45
731.60928	4385.65
735.52295	4371.15
739.43388	4397.15
743.34206	4403.55
747.24749	4425.35
751.15017	4427.25
755.05012	4431.35
758.94733	4517.15
762.8418	4627.15
766.73354	4847.05
770.62254	5011.05
774.50882	5040.25
778.39237	4998.85
782.27321	4870.15
786.15132	4691.95
790.02671	4591.25
793.89938	4487.25
797.76935	4490.95
801.6366	4460.55
805.50115	4474.75
809.36299	4475.65
813.22213	4492.65
817.07857	4491.35
820.93231	4501.05
824.78336	4513.45
828.63172	4518.65
832.47738	4514.95
836.32036	4553.25
840.16066	4552.95
843.99827	4546.65
847.8332	4567.15
851.66546	4582.65
855.49504	4558.25
859.32195	4595.35
863.1462	4596.25
866.96777	4615.85
870.78668	4611.45
874.60293	4635.65
878.41652	4632.95
882.22745	4672.85
886.03573	4687.45
889.84136	4667.45
893.64433	4697.75
897.44466	4693.35
901.24235	4690.15
905.0374	4701.95
908.8298	4696.55
912.61957	4672.25
916.40671	4641.85
920.19121	4681.95
923.97308	4715.95
927.75233	4697.65
931.52895	4695.65
935.30295	4754.25
939.07433	4711.05
942.84309	4677.25
946.60924	4680.65
950.37278	4664.55
954.13371	4668.55
957.89203	4662.35
961.64774	4680.15
965.40086	4675.35
969.15137	4632.65
972.89929	4689.15
976.64461	4678.65
980.38733	4701.55
984.12747	4675.85
987.86502	4705.75
991.59999	4706.95
995.33237	4760.75
999.06217	4774.95
1002.78939	4808.95
1006.51404	4845.05
1010.23611	4883.35
1013.95561	4917.75
1017.67255	4945.25
1021.38692	4957.15
1025.09872	4946.15
1028.80796	4900.55
1032.51465	4911.95
1036.21877	4897.15
1039.92035	4924.35
1043.61937	4939.35
1047.31584	4958.85
1051.00976	4990.65
1054.70114	4991.95
1058.38998	5005.95
1062.07627	5006.85
1065.76003	5008.45
1069.44126	5054.95
1073.11995	5077.15
1076.79611	5136.05
1080.46974	5166.25
1084.14085	5182.95
1087.80943	5207.65
1091.47549	5221.15
1095.13903	5212.65
1098.80005	5242.75
1102.45857	5217.65
1106.11456	5213.85
1109.76805	5126.85
1113.41903	5172.75
1117.06751	5185.65
1120.71348	5229.75
1124.35696	5296.05
1127.99793	5315.35
1131.63641	5298.35
1135.2724	5246.15
1138.90589	5209.05
1142.5369	5158.65
1146.16542	5168.05
1149.79145	5143.85
1153.415	5112.15
1157.03607	5096.95
1160.65467	5105.95
1164.27079	5158.35
1167.88443	5210.65
1171.49561	5303.05
1175.10432	5411.25
1178.71056	5559.75
1182.31434	5709.85
1185.91565	5796.85
1189.51451	5815.25
1193.11091	5832.15
1196.70485	5837.25
1200.29634	5801.85
1203.88538	5758.65
1207.47197	5679.65
1211.05612	5601.75
1214.63782	5513.75
1218.21708	5473.15
1221.79391	5426.85
1225.36829	5376.65
1228.94024	5363.65
1232.50976	5369.05
1236.07685	5383.75
1239.6415	5408.05
1243.20374	5415.45
1246.76355	5436.25
1250.32093	5488.05
1253.8759	5496.85
1257.42845	5565.55
1260.97859	5629.55
1264.52631	5683.85
1268.07163	5684.85
1271.61453	5725.45
1275.15503	5715.25
1278.69312	5734.35
1282.22882	5772.05
1285.76211	5804.25
1289.29301	5826.95
1292.82151	5862.45
1296.34761	5902.95
1299.87133	5981.25
1303.39266	6108.65
1306.9116	6303.15
1310.42815	6506.45
1313.94233	6614.25
1317.45412	6502.15
1320.96354	6361.85
1324.47058	6187.95
1327.97525	6051.05
1331.47754	5998.75
1334.97747	5994.75
1338.47502	6003.15
1341.97022	6098.85
1345.46305	6271.65
1348.95352	6489.05
1352.44163	6707.65
1355.92738	6885.15
1359.41078	7087.85
1362.89183	7231.25
1366.37053	7041.35
1369.84688	6550.55
1373.32088	6107.15
1376.79254	5873.45
1380.26186	5717.55
1383.72883	5641.15
1387.19347	5533.85
1390.65578	5429.55
1394.11575	5399.45
1397.57339	5354.35
1401.0287	5325.75
1404.48168	5325.85
1407.93234	5354.35
1411.38068	5374.25
1414.82669	5397.65
1418.27039	5438.15
1421.71177	5411.05
1425.15083	5373.15
1428.58758	5376.15
1432.02203	5347.05
1435.45416	5372.85
1438.88399	5356.85
1442.31151	5326.65
1445.73673	5374.55
1449.15965	5373.85
1452.58027	5378.45
1455.9986	5388.35
1459.41463	5414.85
1462.82837	5432.35
1466.23982	5480.95
1469.64898	5560.05
1473.05586	5583.55
1476.46045	5609.95
1479.86276	5610.55
1483.26279	5609.45
1486.66054	5660.15
1490.05602	5702.65
1493.44922	5805.95
1496.84016	5953.25
1500.22882	6195.75
1503.61521	6450.95
1506.99934	6704.85
1510.38121	6880.55
1513.76081	6856.95
1517.13816	6650.05
1520.51324	6310.75
1523.88607	6052.85
1527.25665	5891.75
1530.62498	5814.25
1533.99105	5807.95
1537.35488	5788.25
1540.71647	5794.75
1544.07581	5799.65
1547.4329	5785.05
1550.78776	5736.95
1554.14038	5699.05
1557.49077	5654.15
1560.83892	5676.15
1564.18484	5693.55
1567.52853	5729.95
1570.86999	5776.35
1574.20922	5760.85
1577.54624	5770.65
1580.88103	5698.95
1584.2136	5601.05
1587.54395	5563.15
1590.87208	5564.55
1594.19801	5576.45
1597.52172	5702.15
1600.84321	5771.55
1604.16251	5752.45
1607.47959	5732.25
1610.79447	5666.15
1614.10715	5587.75
1617.41763	5520.85
1620.7259	5403.05
1624.03199	5372.55
1627.33587	5334.15
1630.63757	5316.35
1633.93707	5388.05
1637.23439	5476.85
1640.52951	5629.75
1643.82246	5832.45
1647.11321	6029.75
1650.40179	6087.25
1653.68819	5983.15
1656.97241	5746.15
1660.25446	5470.05
1663.53433	5277.45
1666.81203	5130.15
1670.08756	5048.15
1673.36092	5028.05
1676.63211	4988.65
1679.90115	4967.85
1683.16801	4953.45
1686.43272	4882.15
1689.69527	4884.25
1692.95567	4868.35
1696.2139	4866.55
1699.46999	4823.95
1702.72392	4826.55
1705.97571	4854.45
1709.22535	4851.05
1712.47284	4866.75
1715.71819	4874.55
1718.96139	4884.15
1722.20246	4875.45
1725.44139	4869.95
1728.67818	4874.15
1731.91284	4843.75
1735.14537	4836.15
1738.37576	4833.85
1741.60403	4835.75
1744.83017	4816.15
1748.05418	4814.15
1751.27607	4840.75
1754.49584	4823.55
1757.71349	4775.75
1760.92903	4801.05
1764.14244	4764.75
1767.35375	4777.35
1770.56294	4768.25
1773.77002	4757.65
1776.97499	4786.05
1780.17785	4774.15
1783.37861	4768.85
1786.57727	4778.65
1789.77382	4724.75
1792.96828	4768.65
1796.16064	4790.85
1799.3509	4760.05
1802.53907	4773.15
1805.72514	4746.05
1808.90913	4728.75
1812.09102	4733.95
1815.27083	4725.85
1818.44856	4728.25
1821.6242	4719.95
1824.79776	4719.65
1827.96924	4692.25
1831.13864	4683.35
1834.30597	4681.95
1837.47122	4678.05
1840.6344	4684.05
1843.7955	4655.85
1846.95454	4645.15
1850.11151	4687.05
1853.26642	4627.15
1856.41926	4633.55
1859.57004	4652.05
1862.71876	4642.65
1865.86542	4660.45
1869.01003	4646.05
1872.15258	4605.45
1875.29308	4646.75
1878.43152	4633.35
1881.56792	4605.35
1884.70227	4578.85
1887.83457	4610.35
1890.96482	4573.05
1894.09304	4602.35
1897.21921	4586.85
1900.34335	4598.05
1903.46544	4574.05
1906.58551	4596.55
1909.70353	4572.45
1912.81953	4570.25
1915.93349	4570.05
1919.04543	4565.65
1922.15534	4552.65
1925.26322	4555.15
1928.36908	4546.55
1931.47292	4547.35
1934.57473	4539.75
1937.67453	4519.95
1940.77232	4493.85
1943.86808	4494.75
1946.96184	4506.65
1950.05358	4461.25
1953.14331	4449.45
1956.23103	4465.65
1959.31675	4427.35
1962.40046	4378.85
1965.48217	4391.05
1968.56188	4392.15
1971.63959	4385.35
1974.7153	4374.45
1977.78901	4372.35
1980.86073	4361.75
1983.93046	4323.25
1986.99819	4269.25
1990.06394	4280.85
1993.1277	4302.75
1996.18947	4283.45
1999.24925	4246.45
2002.30706	4264.95
2005.36288	4260.55
2008.41672	4250.95
2011.46859	4221.55
2014.51848	4219.95
2017.56639	4195.45
2020.61233	4169.45
2023.6563	4199.65
2026.6983	4143.25
2029.73833	4155.55
2032.7764	4162.35
2035.8125	4110.75
2038.84664	4129.95
2041.87881	4122.45
2044.90903	4106.95
2047.93729	4110.65
2050.96359	4079.25
2053.98794	4103.95
2057.01034	4106.75
2060.03078	4082.85
2063.04927	4073.35
2066.06582	4084.65
2069.08042	4070.85
2072.09307	4077.15
2075.10378	4077.25
2078.11255	4074.95
2081.11938	4075.55
2084.12426	4075.65
2087.12722	4066.05
2090.12824	4075.45
2093.12732	4057.75
2096.12447	4064.55
2099.11969	4072.35
2102.11299	4038.65
2105.10435	4075.45
2108.09379	4059.35
2111.08131	4055.75
2114.0669	4057.75
2117.05057	4048.75
2120.03233	4047.35
2123.01216	4077.95
2125.99008	4066.95
2128.96609	4080.35
2131.94018	4090.15
2134.91236	4093.65
2137.88263	4079.05
2140.851	4085.45
2143.81746	4115.45
2146.78201	4097.65
2149.74466	4072.65
2152.7054	4106.85
2155.66425	4095.15
2158.6212	4070.95
2161.57625	4053.85
2164.52941	4054.45
2167.48067	4049.05
2170.43004	4068.35
2173.37752	4091.55
2176.32311	4050.95
2179.26681	4075.95
2182.20863	4096.75
2185.14856	4077.55
2188.08661	4073.65
2191.02278	4080.75
2193.95707	4060.45
2196.88948	4047.05
2199.82001	4067.95
2202.74867	4044.15
2205.67545	4044.65
2208.60037	4054.05
2211.52341	4052.55
2214.44458	4044.85
2217.36388	4024.55
2220.28132	4008.15
2223.1969	3988.95
2226.11061	3998.35
2229.02246	3980.05
2231.93245	3983.85
2234.84058	3963.35
2237.74686	3954.25
2240.65128	3945.45
2243.55385	3963.55
2246.45456	3923.65
2249.35343	3952.75
2252.25044	3928.05
2255.14561	3935.15
2258.03893	3913.05
2260.93041	3920.55
2263.82004	3911.75
2266.70783	3908.65
2269.59378	3890.35
2272.4779	3862.35
2275.36017	3865.35
2278.24061	3853.65
2281.11922	3819.85
2283.996	3846.05
2286.87094	3820.75
2289.74405	3832.45
2292.61534	3824.95
2295.4848	3812.25
2298.35243	3813.55
2301.21824	3806.75
2304.08223	3809.35
2306.94439	3820.05
2309.80474	3819.35
2312.66327	3820.95
2315.51999	3793.85
2318.37489	3799.05
2321.22797	3775.15
2324.07925	3758.45
2326.92871	3770.45
2329.77637	3742.15
2332.62222	3745.75
2335.46626	3704.95
2338.3085	3723.95
2341.14893	3739.45
2343.98756	3746.85
2346.8244	3713.15
2349.65943	3700.85
2352.49267	3707.25
2355.32411	3698.75
2358.15376	3699.35
2360.98161	3699.55
2363.80768	3678.65
2366.63195	3674.75
2369.45444	3691.15
2372.27514	3682.95
2375.09405	3683.65
2377.91118	3649.15
2380.72652	3642.55
2383.54009	3642.45
2386.35187	3651.35
2389.16188	3638.35
2391.97011	3648.05
2394.77657	3614.25
2397.58125	3626.85
2400.38416	3616.85
2403.18529	3595.85
2405.98466	3576.95
2408.78226	3596.75
2411.57809	3591.25
2414.37216	3573.05
2417.16446	3569.65
2419.955	3556.35
2422.74378	3569.85
2425.5308	3559.55
2428.31606	3556.85
2431.09956	3566.75
2433.88131	3523.75
2436.6613	3547.75
2439.43954	3543.15
2442.21603	3525.55
2444.99077	3518.45
2447.76377	3529.55
2450.53501	3511.25
2453.30451	3507.25
2456.07226	3501.15
2458.83827	3497.55
2461.60254	3454.35
2464.36507	3474.65
2467.12586	3464.75
2469.88492	3478.45
2472.64224	3476.85
2475.39782	3436.75
2478.15167	3460.55
2480.90379	3446.45
2483.65417	3457.05
2486.40283	3448.75
2489.14976	3451.15
2491.89497	3443.15
2494.63845	3438.05
2497.3802	3415.35
2500.12024	3424.45
2502.85855	3411.45
2505.59514	3420.15
2508.33002	3418.05
2511.06318	3394.35
2513.79462	3421.25
2516.52435	3371.05
2519.25237	3364.65
2521.97867	3369.85
2524.70327	3366.45
2527.42616	3382.65
2530.14734	3388.75
2532.86681	3360.25
2535.58458	3358.35
2538.30065	3354.05
2541.01501	3364.15
2543.72768	3342.05
2546.43864	3335.15
2549.14791	3327.05
2551.85548	3325.15
2554.56136	3311.65
2557.26554	3303.45
2559.96803	3304.65
2562.66883	3298.15
2565.36794	3287.05
2568.06536	3244.05
2570.7611	3279.55
2573.45514	3262.75
2576.14751	3254.75
2578.83819	3226.65
2581.52719	3232.85
2584.21451	3241.85
2586.90015	3203.65
2589.58411	3197.25
2592.2664	3214.25
2594.94701	3213.95
2597.62594	3221.85
2600.30321	3137.25
2602.9788	3149.25
2605.65273	3152.45
2608.32498	3152.05
2610.99557	3182.25
2613.66449	3134.15
2616.33175	3138.35
2618.99734	3146.15
2621.66128	3153.35
2624.32355	3139.35
2626.98416	3119.65
2629.64311	3118.15
2632.30041	3108.25
2634.95605	3100.35
2637.61004	3088.15
2640.26238	3073.55
2642.91306	3064.75
2645.56209	3100.15
2648.20948	3090.45
2650.85521	3078.45
2653.4993	3092.05
2656.14175	3073.95
2658.78255	3069.55
2661.42171	3034.05
2664.05923	3067.45
2666.6951	3073.05
2669.32934	3068.55
2671.96194	3083.55
2674.59291	3066.75
2677.22224	3060.85
2679.84993	3074.55
2682.476	3063.85
2685.10043	3049.25
2687.72324	3040.65
2690.34441	3030.25
2692.96396	3026.85
2695.58188	3056.65
2698.19818	3045.95
2700.81285	3027.25
2703.4259	3023.15
2706.03733	3001.45
2708.64714	2994.05
2711.25533	3022.85
2713.86191	3012.65
2716.46687	3030.35
2719.07021	3019.95
2721.67194	3013.25
2724.27206	3028.75
2726.87057	3022.05
2729.46747	3009.85
2732.06276	3007.95
2734.65644	2996.05
2737.24852	2998.05
2739.83899	2979.65
2742.42786	2992.45
2745.01513	2995.25
2747.60079	2978.35
2750.18486	2970.45
2752.76733	2982.15
2755.3482	2972.15
2757.92747	2969.95
2760.50515	2949.85
2763.08123	2945.15
2765.65573	2944.25
2768.22863	2937.75
2770.79994	2929.75
2773.36967	2927.95
2775.9378	2913.05
2778.50435	2916.85
2781.06932	2908.35
2783.6327	2884.15
2786.1945	2909.25
2788.75471	2899.65
2791.31335	2883.65
2793.87041	2892.75
2796.42589	2859.25
2798.97979	2839.05
2801.53212	2854.45
2804.08288	2858.75
2806.63206	2844.35
2809.17967	2822.95
2811.72571	2844.75
2814.27018	2823.15
2816.81308	2817.65
2819.35442	2778.55
2821.89419	2782.05
2824.43239	2780.75
2826.96904	2808.65
2829.50412	2785.55
2832.03763	2779.25
2834.56959	2776.15
2837.1	2776.15
2839.62884	2770.85
2842.15613	2771.65
2844.68186	2774.85
2847.20604	2759.65
2849.72867	2735.85
2852.24974	2752.85
2854.76927	2709.95
2857.28724	2669.65
2859.80367	2718.25
2862.31855	2739.65
2864.83189	2705.25
2867.34368	2709.35
2869.85393	2722.45
2872.36264	2684.35
2874.8698	2685.05
2877.37543	2685.25
2879.87952	2700.95
2882.38207	2673.05
2884.88308	2680.55
2887.38256	2690.35
2889.88051	2685.15
2892.37692	2682.85
2894.8718	2658.65
2897.36515	2692.95
2899.85698	2682.45
2902.34727	2674.85
2904.83604	2673.55
2907.32328	2678.95
2909.809	2679.15
2912.29319	2668.45
2914.77587	2678.25
2917.25702	2688.35
2919.73665	2691.35
2922.21476	2686.85
2924.69136	2682.35
2927.16644	2663.95
2929.64	2675.15
2932.11205	2658.85
2934.58258	2671.35
2937.05161	2656.65
2939.51912	2663.85
2941.98513	2675.55
2944.44962	2657.05
2946.91261	2627.25
2949.37409	2646.05
2951.83407	2639.15
2954.29254	2630.25
2956.74951	2636.85
2959.20498	2609.85
2961.65895	2611.65
2964.11142	2617.95
2966.56239	2611.95
2969.01186	2621.05
2971.45984	2610.75
2973.90632	2605.85
2976.35131	2605.25
2978.7948	2605.35
2981.23681	2587.15
2983.67732	2605.45
2986.11635	2590.15
2988.55388	2553.85
2990.98993	2573.95
2993.4245	2563.15
2995.85758	2551.05
2998.28917	2536.55
3000.71928	2529.15
3003.14791	2535.65
3005.57506	2516.55
3008.00073	2510.15
3010.42493	2462.95
3012.84764	2520.05
3015.26888	2522.35
3017.68865	2502.65
3020.10694	2452.55
3022.52376	2481.65
3024.9391	2472.65
3027.35298	2465.95
3029.76539	2452.35
3032.17632	2457.55
3034.5858	2451.45
3036.9938	2463.05
3039.40034	2461.65
3041.80542	2434.75
3044.20903	2430.65
3046.61118	2436.15
3049.01187	2439.05
3051.4111	2425.85
3053.80888	2425.05
3056.20519	2415.75
3058.60005	2395.35
3060.99345	2409.65
3063.3854	2386.05
3065.7759	2379.75
3068.16494	2362.75
3070.55254	2370.95
3072.93868	2369.25
3075.32338	2364.75
3077.70662	2356.55
3080.08842	2345.35
3082.46878	2337.05
3084.84769	2354.35
3087.22515	2333.95
3089.60118	2355.65
3091.97576	2332.05
3094.3489	2343.75
3096.72061	2329.35
3099.09087	2317.85
3101.4597	2341.65
3103.82709	2340.65
3106.19305	2325.35
3108.55757	2326.85
3110.92066	2321.65
3113.28232	2329.35
3115.64255	2315.45
3118.00134	2320.95
3120.35871	2299.75
3122.71466	2285.65
3125.06917	2285.75
3127.42226	2277.65
3129.77393	2265.05
3132.12417	2275.75
3134.47299	2275.85
3136.82039	2267.15
3139.16636	2239.45
3141.51092	2264.35
3143.85406	2266.65
3146.19579	2244.65
3148.53609	2245.15
3150.87499	2259.05
3153.21246	2243.65
3155.54853	2250.65
3157.88318	2259.45
3160.21642	2257.55
3162.54826	2257.15
3164.87868	2258.65
3167.2077	2215.35
3169.5353	2244.55
3171.86151	2255.85
3174.18631	2238.15
3176.5097	2236.05
3178.83169	2240.45
3181.15228	2243.35
3183.47147	2217.25
3185.78926	2204.15
3188.10565	2206.45
3190.42065	2190.15
3192.73424	2206.65
3195.04645	2185.65
3197.35725	2172.35
3199.66667	2202.55
3201.97469	2190.55
3204.28132	2174.45
3206.58656	2187.05
3208.8904	2196.95
3211.19287	2179.45
3213.49394	2172.85
3215.79363	2166.45
3218.09193	2179.05
3220.38884	2173.15
3222.68438	2167.85
3224.97853	2144.95
3227.2713	2172.25
3229.56269	2153.45
3231.8527	2160.45
3234.14133	2146.85
3236.42858	2140.05
3238.71446	2124.15
3240.99896	2151.15
3243.28209	2118.85
3245.56384	2132.85
3247.84423	2112.75
3250.12324	2127.15
3252.40088	2123.55
3254.67715	2121.65
3256.95205	2104.65
3259.22558	2123.15
3261.49775	2121.45
3263.76855	2109.45
3266.03799	2116.45
3268.30606	2108.35
3270.57277	2102.05
3272.83812	2095.35
3275.10211	2099.05
3277.36474	2100.35
3279.62601	2093.35
3281.88593	2068.25
3284.14448	2048.85
3286.40168	2073.05
3288.65753	2056.35
3290.91202	2055.85
3293.16516	2037.95
3295.41695	2056.15
3297.66738	2060.05
3299.91647	2024.55
3302.16421	2031.35
3304.4106	1987.25
3306.65564	2004.15
3308.89933	1977.95
3311.14169	1976.15
3313.38269	1949.15
3315.62236	1933.65
3317.86068	1924.05
3320.09766	1914.05
3322.3333	1882.05
3324.5676	1875.15
3326.80056	1829.65
3329.03219	1825.35
3331.26248	-0.25
3333.49143	-0.35
3335.71905	1.15
