Data from AgNPs_UA_10uM_CRN_500uM_SU_RamanShift__51__13-13-50-264.txt Node

Date: Thu Aug 04 13:13:50 BST 2022
User: TCL
Spectrometer: QEP01345
Trigger mode: 4
Integration Time (sec): 1.000000E0
Scans to average: 10
Electric dark correction enabled: true
Nonlinearity correction enabled: false
Boxcar width: 0
XAxis mode: Raman Shifts
Number of Pixels in Spectrum: 1044
>>>>>Begin Spectral Data<<<<<
46.04893	-0.0875
50.45542	-0.9875
54.85868	0.4125
59.25871	-0.5875
63.6555	22.4125
68.04907	21.5125
72.43941	23.9125
76.82654	24.1125
81.21044	23.2125
85.59113	27.8125
89.96862	26.5125
94.34289	27.4125
98.71396	27.5125
103.08183	30.0125
107.4465	30.6125
111.80798	30.7125
116.16626	33.5125
120.52136	33.0125
124.87327	37.0125
129.222	37.5125
133.56755	38.8125
137.90993	44.5125
142.24913	50.0125
146.58517	58.1125
150.91804	65.9125
155.24774	82.1125
159.57429	99.7125
163.89768	133.9125
168.21792	177.6125
172.53501	241.8125
176.84895	340.7125
181.15975	488.7125
185.46741	687.2125
189.77193	959.6125
194.07331	1284.2125
198.37157	1670.3125
202.6667	2057.5125
206.9587	2463.4125
211.24758	2856.2125
215.53334	3251.7125
219.81599	3674.1125
224.09553	4136.7125
228.37195	4667.2125
232.64527	5207.3125
236.91549	5792.4125
241.18261	6314.2125
245.44663	6756.9125
249.70755	7141.0125
253.96539	7476.2125
258.22014	7757.9125
262.4718	7984.8125
266.72039	8126.9125
270.96589	8190.9125
275.20832	8168.0125
279.44768	8069.7125
283.68397	7934.5125
287.91719	7844.2125
292.14735	7840.9125
296.37445	7914.9125
300.59849	8063.5125
304.81948	8261.1125
309.03742	8441.8125
313.25231	8528.2125
317.46415	8458.4125
321.67296	8251.4125
325.87872	8039.0125
330.08145	7940.4125
334.28114	7952.0125
338.47781	8002.3125
342.67145	8136.0125
346.86207	8326.0125
351.04966	8595.3125
355.23424	8864.5125
359.4158	9074.4125
363.59435	9208.5125
367.76989	9260.0125
371.94243	9281.9125
376.11196	9304.8125
380.27849	9356.5125
384.44203	9415.9125
388.60257	9477.0125
392.76012	9571.4125
396.91468	9662.2125
401.06626	9801.5125
405.21485	9880.0125
409.36047	9795.8125
413.50311	9599.4125
417.64277	9407.7125
421.77947	9254.2125
425.9132	9180.0125
430.04396	9165.2125
434.17176	9198.3125
438.2966	9273.8125
442.41849	9394.4125
446.53742	9594.2125
450.6534	9760.9125
454.76644	9882.3125
458.87653	9984.8125
462.98368	10020.1125
467.08789	9999.9125
471.18916	9872.5125
475.2875	9734.1125
479.38291	9586.1125
483.4754	9493.5125
487.56496	9412.8125
491.6516	9424.1125
495.73531	9386.0125
499.81612	9438.8125
503.89401	9553.3125
507.96899	9595.4125
512.04106	9604.5125
516.11023	9641.7125
520.1765	9657.0125
524.23987	9664.0125
528.30034	9691.6125
532.35792	9675.6125
536.41261	9623.9125
540.46441	9555.7125
544.51333	9550.1125
548.55936	9593.0125
552.60252	9723.3125
556.64279	9835.6125
560.6802	9958.8125
564.71473	10064.9125
568.7464	10064.5125
572.7752	10007.9125
576.80114	9788.2125
580.82422	9625.5125
584.84444	9587.5125
588.86181	9568.2125
592.87633	9623.2125
596.888	9779.0125
600.89682	10194.4125
604.9028	11123.3125
608.90594	12970.3125
612.90624	14665.5125
616.90371	13684.3125
620.89834	11265.2125
624.89015	10265.5125
628.87913	10182.0125
632.86528	10369.0125
636.84862	10497.4125
640.82913	10329.7125
644.80683	10031.6125
648.78172	9869.6125
652.75379	9874.0125
656.72306	10087.9125
660.68952	10338.5125
664.65319	10324.1125
668.61405	10284.8125
672.57211	10440.9125
676.52738	10437.7125
680.47986	10200.2125
684.42955	9977.5125
688.37646	9916.7125
692.32058	9994.6125
696.26192	10209.8125
700.20048	10370.8125
704.13626	10400.6125
708.06928	10300.3125
711.99952	10161.0125
715.927	10149.1125
719.85171	10176.9125
723.77365	10239.3125
727.69284	10187.9125
731.60928	10111.1125
735.52295	10099.0125
739.43388	10124.5125
743.34206	10165.6125
747.24749	10184.0125
751.15017	10145.8125
755.05012	10230.5125
758.94733	10461.0125
762.8418	11090.6125
766.73354	12019.4125
770.62254	12756.1125
774.50882	12996.7125
778.39237	12835.2125
782.27321	12312.2125
786.15132	11520.6125
790.02671	10887.7125
793.89938	10525.9125
797.76935	10376.0125
801.6366	10238.6125
805.50115	10192.3125
809.36299	10145.5125
813.22213	10156.5125
817.07857	10177.4125
820.93231	10168.1125
824.78336	10149.8125
828.63172	10159.5125
832.47738	10175.7125
836.32036	10182.2125
840.16066	10181.5125
843.99827	10165.6125
847.8332	10179.4125
851.66546	10196.3125
855.49504	10229.6125
859.32195	10226.9125
863.1462	10230.1125
866.96777	10213.7125
870.78668	10246.7125
874.60293	10281.0125
878.41652	10345.0125
882.22745	10416.1125
886.03573	10449.3125
889.84136	10427.5125
893.64433	10375.8125
897.44466	10365.4125
901.24235	10343.1125
905.0374	10344.3125
908.8298	10307.8125
912.61957	10278.9125
916.40671	10286.4125
920.19121	10284.4125
923.97308	10307.2125
927.75233	10385.7125
931.52895	10442.4125
935.30295	10402.5125
939.07433	10300.2125
942.84309	10235.5125
946.60924	10213.4125
950.37278	10204.2125
954.13371	10190.1125
957.89203	10201.7125
961.64774	10209.7125
965.40086	10163.8125
969.15137	10166.9125
972.89929	10155.6125
976.64461	10174.3125
980.38733	10174.2125
984.12747	10206.5125
987.86502	10216.4125
991.59999	10252.8125
995.33237	10296.7125
999.06217	10355.9125
1002.78939	10492.6125
1006.51404	10649.8125
1010.23611	10792.9125
1013.95561	10896.1125
1017.67255	10933.3125
1021.38692	10889.2125
1025.09872	10827.4125
1028.80796	10728.8125
1032.51465	10680.1125
1036.21877	10678.9125
1039.92035	10728.1125
1043.61937	10772.7125
1047.31584	10796.0125
1051.00976	10866.8125
1054.70114	10896.4125
1058.38998	10912.3125
1062.07627	10973.9125
1065.76003	11011.7125
1069.44126	11157.6125
1073.11995	11379.3125
1076.79611	11595.4125
1080.46974	11755.8125
1084.14085	11785.5125
1087.80943	11865.6125
1091.47549	11929.5125
1095.13903	12031.3125
1098.80005	12147.8125
1102.45857	12319.3125
1106.11456	12270.9125
1109.76805	12034.6125
1113.41903	11904.4125
1117.06751	11942.0125
1120.71348	12056.9125
1124.35696	12147.4125
1127.99793	12189.1125
1131.63641	12041.0125
1135.2724	11784.9125
1138.90589	11596.6125
1142.5369	11487.5125
1146.16542	11430.7125
1149.79145	11363.5125
1153.415	11234.6125
1157.03607	11122.6125
1160.65467	11185.3125
1164.27079	11332.0125
1167.88443	11598.0125
1171.49561	11951.2125
1175.10432	12523.0125
1178.71056	13237.9125
1182.31434	13914.1125
1185.91565	14213.2125
1189.51451	14267.8125
1193.11091	14217.5125
1196.70485	14096.3125
1200.29634	13882.2125
1203.88538	13582.8125
1207.47197	13238.4125
1211.05612	12844.2125
1214.63782	12481.8125
1218.21708	12161.1125
1221.79391	11955.3125
1225.36829	11808.7125
1228.94024	11757.7125
1232.50976	11763.4125
1236.07685	11799.8125
1239.6415	11849.2125
1243.20374	11906.2125
1246.76355	11993.7125
1250.32093	12099.7125
1253.8759	12230.5125
1257.42845	12493.7125
1260.97859	12803.1125
1264.52631	13066.9125
1268.07163	13243.7125
1271.61453	13375.3125
1275.15503	13349.3125
1278.69312	13255.7125
1282.22882	13242.6125
1285.76211	13276.0125
1289.29301	13339.4125
1292.82151	13495.9125
1296.34761	13693.9125
1299.87133	13998.3125
1303.39266	14506.9125
1306.9116	15319.0125
1310.42815	16163.2125
1313.94233	16487.2125
1317.45412	16149.7125
1320.96354	15557.9125
1324.47058	14983.5125
1327.97525	14406.7125
1331.47754	13991.3125
1334.97747	13839.8125
1338.47502	14006.2125
1341.97022	14466.7125
1345.46305	15265.5125
1348.95352	16355.5125
1352.44163	17401.2125
1355.92738	18365.0125
1359.41078	19199.3125
1362.89183	19707.1125
1366.37053	18788.9125
1369.84688	16691.8125
1373.32088	14825.3125
1376.79254	13753.1125
1380.26186	13246.8125
1383.72883	12877.1125
1387.19347	12538.9125
1390.65578	12225.9125
1394.11575	11918.6125
1397.57339	11708.6125
1401.0287	11623.9125
1404.48168	11602.4125
1407.93234	11697.1125
1411.38068	11869.7125
1414.82669	12015.1125
1418.27039	12077.3125
1421.71177	12059.1125
1425.15083	11963.7125
1428.58758	11848.2125
1432.02203	11804.7125
1435.45416	11779.4125
1438.88399	11742.9125
1442.31151	11750.3125
1445.73673	11772.0125
1449.15965	11805.6125
1452.58027	11798.0125
1455.9986	11745.0125
1459.41463	11767.1125
1462.82837	11854.8125
1466.23982	12006.2125
1469.64898	12172.0125
1473.05586	12355.9125
1476.46045	12457.3125
1479.86276	12599.9125
1483.26279	12752.6125
1486.66054	12939.6125
1490.05602	13252.6125
1493.44922	13780.1125
1496.84016	14545.4125
1500.22882	15601.5125
1503.61521	16788.2125
1506.99934	17763.7125
1510.38121	18200.4125
1513.76081	17827.4125
1517.13816	16729.8125
1520.51324	15410.0125
1523.88607	14272.0125
1527.25665	13603.0125
1530.62498	13247.3125
1533.99105	13081.7125
1537.35488	12985.3125
1540.71647	12888.9125
1544.07581	12863.8125
1547.4329	12751.9125
1550.78776	12635.2125
1554.14038	12493.2125
1557.49077	12453.9125
1560.83892	12523.5125
1564.18484	12753.0125
1567.52853	13016.2125
1570.86999	13159.9125
1574.20922	13218.1125
1577.54624	13127.7125
1580.88103	12743.3125
1584.2136	12283.8125
1587.54395	12004.3125
1590.87208	12016.3125
1594.19801	12248.9125
1597.52172	12558.5125
1600.84321	12727.1125
1604.16251	12691.7125
1607.47959	12538.4125
1610.79447	12299.9125
1614.10715	11891.9125
1617.41763	11467.5125
1620.7259	11134.9125
1624.03199	10915.3125
1627.33587	10877.4125
1630.63757	10886.8125
1633.93707	11120.6125
1637.23439	11582.9125
1640.52951	12278.4125
1643.82246	13277.0125
1647.11321	14291.6125
1650.40179	14707.9125
1653.68819	14167.3125
1656.97241	12926.5125
1660.25446	11754.2125
1663.53433	10951.2125
1666.81203	10468.0125
1670.08756	10167.8125
1673.36092	10014.8125
1676.63211	9897.9125
1679.90115	9793.8125
1683.16801	9720.5125
1686.43272	9636.8125
1689.69527	9585.1125
1692.95567	9543.7125
1696.2139	9505.6125
1699.46999	9480.8125
1702.72392	9477.7125
1705.97571	9457.4125
1709.22535	9440.7125
1712.47284	9459.1125
1715.71819	9447.5125
1718.96139	9436.7125
1722.20246	9416.2125
1725.44139	9419.9125
1728.67818	9360.1125
1731.91284	9313.2125
1735.14537	9270.2125
1738.37576	9268.9125
1741.60403	9204.8125
1744.83017	9168.7125
1748.05418	9182.5125
1751.27607	9148.8125
1754.49584	9137.3125
1757.71349	9147.7125
1760.92903	9111.3125
1764.14244	9093.4125
1767.35375	9083.7125
1770.56294	9047.7125
1773.77002	9037.5125
1776.97499	9016.4125
1780.17785	8982.8125
1783.37861	8979.7125
1786.57727	8963.3125
1789.77382	8950.9125
1792.96828	8933.9125
1796.16064	8925.3125
1799.3509	8918.3125
1802.53907	8888.4125
1805.72514	8868.7125
1808.90913	8858.0125
1812.09102	8838.4125
1815.27083	8803.4125
1818.44856	8781.5125
1821.6242	8744.1125
1824.79776	8727.1125
1827.96924	8720.6125
1831.13864	8704.3125
1834.30597	8681.2125
1837.47122	8672.0125
1840.6344	8663.3125
1843.7955	8648.3125
1846.95454	8649.6125
1850.11151	8642.9125
1853.26642	8626.9125
1856.41926	8634.5125
1859.57004	8641.4125
1862.71876	8633.7125
1865.86542	8617.7125
1869.01003	8618.6125
1872.15258	8582.0125
1875.29308	8577.0125
1878.43152	8555.2125
1881.56792	8544.0125
1884.70227	8518.9125
1887.83457	8499.7125
1890.96482	8472.9125
1894.09304	8445.7125
1897.21921	8431.8125
1900.34335	8441.3125
1903.46544	8423.8125
1906.58551	8426.0125
1909.70353	8399.3125
1912.81953	8406.4125
1915.93349	8375.0125
1919.04543	8351.8125
1922.15534	8335.0125
1925.26322	8328.5125
1928.36908	8323.2125
1931.47292	8282.6125
1934.57473	8270.8125
1937.67453	8280.3125
1940.77232	8242.4125
1943.86808	8203.3125
1946.96184	8180.8125
1950.05358	8139.3125
1953.14331	8134.4125
1956.23103	8073.2125
1959.31675	8080.6125
1962.40046	8045.4125
1965.48217	8034.7125
1968.56188	8000.3125
1971.63959	7983.1125
1974.7153	7972.3125
1977.78901	7942.2125
1980.86073	7949.3125
1983.93046	7907.6125
1986.99819	7832.6125
1990.06394	7849.3125
1993.1277	7815.4125
1996.18947	7777.7125
1999.24925	7747.7125
2002.30706	7710.4125
2005.36288	7680.6125
2008.41672	7654.2125
2011.46859	7654.5125
2014.51848	7605.5125
2017.56639	7591.6125
2020.61233	7575.5125
2023.6563	7556.9125
2026.6983	7506.5125
2029.73833	7514.8125
2032.7764	7477.8125
2035.8125	7447.3125
2038.84664	7461.2125
2041.87881	7433.8125
2044.90903	7405.6125
2047.93729	7389.8125
2050.96359	7380.2125
2053.98794	7355.5125
2057.01034	7339.8125
2060.03078	7349.7125
2063.04927	7335.5125
2066.06582	7328.9125
2069.08042	7292.9125
2072.09307	7310.2125
2075.10378	7279.9125
2078.11255	7266.2125
2081.11938	7272.2125
2084.12426	7271.6125
2087.12722	7255.0125
2090.12824	7254.2125
2093.12732	7239.4125
2096.12447	7264.4125
2099.11969	7259.5125
2102.11299	7244.6125
2105.10435	7267.6125
2108.09379	7262.3125
2111.08131	7254.1125
2114.0669	7261.4125
2117.05057	7277.3125
2120.03233	7293.7125
2123.01216	7268.3125
2125.99008	7274.2125
2128.96609	7269.8125
2131.94018	7263.4125
2134.91236	7269.7125
2137.88263	7264.4125
2140.851	7262.4125
2143.81746	7269.2125
2146.78201	7278.3125
2149.74466	7252.8125
2152.7054	7256.4125
2155.66425	7251.4125
2158.6212	7246.8125
2161.57625	7237.3125
2164.52941	7234.4125
2167.48067	7228.8125
2170.43004	7214.7125
2173.37752	7204.0125
2176.32311	7213.0125
2179.26681	7209.5125
2182.20863	7202.8125
2185.14856	7199.6125
2188.08661	7185.2125
2191.02278	7193.4125
2193.95707	7202.0125
2196.88948	7160.9125
2199.82001	7162.5125
2202.74867	7146.9125
2205.67545	7155.7125
2208.60037	7161.7125
2211.52341	7146.4125
2214.44458	7102.5125
2217.36388	7072.0125
2220.28132	7063.6125
2223.1969	7038.5125
2226.11061	7015.3125
2229.02246	7011.4125
2231.93245	6982.2125
2234.84058	6989.4125
2237.74686	6969.3125
2240.65128	6975.1125
2243.55385	6937.8125
2246.45456	6937.8125
2249.35343	6923.4125
2252.25044	6911.8125
2255.14561	6906.6125
2258.03893	6906.6125
2260.93041	6905.6125
2263.82004	6869.4125
2266.70783	6841.1125
2269.59378	6824.4125
2272.4779	6809.8125
2275.36017	6793.9125
2278.24061	6785.0125
2281.11922	6773.4125
2283.996	6744.3125
2286.87094	6726.5125
2289.74405	6728.7125
2292.61534	6707.8125
2295.4848	6689.9125
2298.35243	6692.3125
2301.21824	6701.3125
2304.08223	6673.0125
2306.94439	6650.8125
2309.80474	6671.6125
2312.66327	6650.8125
2315.51999	6628.1125
2318.37489	6635.9125
2321.22797	6588.6125
2324.07925	6604.8125
2326.92871	6569.4125
2329.77637	6547.5125
2332.62222	6540.5125
2335.46626	6530.1125
2338.3085	6512.1125
2341.14893	6510.0125
2343.98756	6521.9125
2346.8244	6503.1125
2349.65943	6495.4125
2352.49267	6473.7125
2355.32411	6465.6125
2358.15376	6476.3125
2360.98161	6469.5125
2363.80768	6451.3125
2366.63195	6444.3125
2369.45444	6437.8125
2372.27514	6437.5125
2375.09405	6424.0125
2377.91118	6406.0125
2380.72652	6409.6125
2383.54009	6391.1125
2386.35187	6393.8125
2389.16188	6374.1125
2391.97011	6344.9125
2394.77657	6310.7125
2397.58125	6295.9125
2400.38416	6279.8125
2403.18529	6281.6125
2405.98466	6287.9125
2408.78226	6254.9125
2411.57809	6254.9125
2414.37216	6230.2125
2417.16446	6224.1125
2419.955	6203.4125
2422.74378	6211.3125
2425.5308	6214.2125
2428.31606	6214.3125
2431.09956	6195.9125
2433.88131	6186.0125
2436.6613	6173.5125
2439.43954	6162.8125
2442.21603	6148.4125
2444.99077	6151.1125
2447.76377	6160.5125
2450.53501	6155.5125
2453.30451	6127.9125
2456.07226	6127.3125
2458.83827	6120.5125
2461.60254	6115.9125
2464.36507	6087.5125
2467.12586	6081.4125
2469.88492	6057.6125
2472.64224	6062.3125
2475.39782	6077.4125
2478.15167	6053.8125
2480.90379	6037.6125
2483.65417	6006.2125
2486.40283	6019.3125
2489.14976	6034.1125
2491.89497	6026.1125
2494.63845	6027.0125
2497.3802	6022.6125
2500.12024	5997.9125
2502.85855	5985.4125
2505.59514	5975.2125
2508.33002	5955.3125
2511.06318	5959.9125
2513.79462	5938.5125
2516.52435	5933.7125
2519.25237	5927.1125
2521.97867	5892.5125
2524.70327	5885.2125
2527.42616	5869.5125
2530.14734	5868.2125
2532.86681	5856.7125
2535.58458	5860.3125
2538.30065	5866.9125
2541.01501	5866.0125
2543.72768	5843.4125
2546.43864	5837.4125
2549.14791	5832.1125
2551.85548	5797.7125
2554.56136	5817.0125
2557.26554	5812.7125
2559.96803	5782.3125
2562.66883	5750.5125
2565.36794	5752.5125
2568.06536	5716.7125
2570.7611	5717.6125
2573.45514	5685.9125
2576.14751	5680.3125
2578.83819	5652.0125
2581.52719	5646.6125
2584.21451	5637.2125
2586.90015	5646.6125
2589.58411	5615.7125
2592.2664	5609.7125
2594.94701	5602.8125
2597.62594	5601.3125
2600.30321	5576.3125
2602.9788	5566.8125
2605.65273	5572.7125
2608.32498	5559.2125
2610.99557	5551.6125
2613.66449	5542.8125
2616.33175	5541.9125
2618.99734	5510.1125
2621.66128	5491.7125
2624.32355	5490.6125
2626.98416	5473.7125
2629.64311	5461.5125
2632.30041	5443.4125
2634.95605	5437.4125
2637.61004	5421.1125
2640.26238	5412.2125
2642.91306	5405.5125
2645.56209	5393.1125
2648.20948	5395.1125
2650.85521	5404.6125
2653.4993	5391.7125
2656.14175	5378.5125
2658.78255	5376.4125
2661.42171	5383.3125
2664.05923	5383.2125
2666.6951	5371.9125
2669.32934	5384.0125
2671.96194	5375.3125
2674.59291	5371.4125
2677.22224	5358.9125
2679.84993	5375.7125
2682.476	5361.1125
2685.10043	5359.0125
2687.72324	5354.3125
2690.34441	5361.0125
2692.96396	5358.6125
2695.58188	5355.8125
2698.19818	5337.7125
2700.81285	5336.9125
2703.4259	5327.2125
2706.03733	5306.6125
2708.64714	5313.6125
2711.25533	5314.7125
2713.86191	5300.3125
2716.46687	5313.8125
2719.07021	5304.2125
2721.67194	5306.6125
2724.27206	5297.8125
2726.87057	5302.9125
2729.46747	5300.7125
2732.06276	5301.8125
2734.65644	5278.4125
2737.24852	5270.4125
2739.83899	5274.8125
2742.42786	5258.3125
2745.01513	5236.2125
2747.60079	5229.0125
2750.18486	5218.0125
2752.76733	5227.3125
2755.3482	5200.1125
2757.92747	5198.4125
2760.50515	5182.1125
2763.08123	5176.5125
2765.65573	5178.4125
2768.22863	5134.1125
2770.79994	5131.6125
2773.36967	5121.5125
2775.9378	5112.0125
2778.50435	5103.8125
2781.06932	5103.1125
2783.6327	5112.3125
2786.1945	5094.6125
2788.75471	5093.8125
2791.31335	5054.8125
2793.87041	5045.3125
2796.42589	5034.1125
2798.97979	5021.7125
2801.53212	5002.6125
2804.08288	5022.6125
2806.63206	4985.2125
2809.17967	4993.6125
2811.72571	4988.4125
2814.27018	4963.1125
2816.81308	4955.7125
2819.35442	4949.0125
2821.89419	4918.7125
2824.43239	4921.5125
2826.96904	4888.0125
2829.50412	4893.0125
2832.03763	4858.8125
2834.56959	4863.6125
2837.1	4860.8125
2839.62884	4831.6125
2842.15613	4853.1125
2844.68186	4851.4125
2847.20604	4826.5125
2849.72867	4818.9125
2852.24974	4804.1125
2854.76927	4780.9125
2857.28724	4783.6125
2859.80367	4769.9125
2862.31855	4766.8125
2864.83189	4755.7125
2867.34368	4766.7125
2869.85393	4757.6125
2872.36264	4732.3125
2874.8698	4735.6125
2877.37543	4742.0125
2879.87952	4729.9125
2882.38207	4715.6125
2884.88308	4695.2125
2887.38256	4699.3125
2889.88051	4711.0125
2892.37692	4692.1125
2894.8718	4676.9125
2897.36515	4695.5125
2899.85698	4668.6125
2902.34727	4673.3125
2904.83604	4670.8125
2907.32328	4682.4125
2909.809	4658.4125
2912.29319	4707.1125
2914.77587	4668.1125
2917.25702	4685.8125
2919.73665	4694.5125
2922.21476	4677.6125
2924.69136	4675.3125
2927.16644	4666.1125
2929.64	4648.6125
2932.11205	4634.2125
2934.58258	4611.8125
2937.05161	4636.9125
2939.51912	4636.0125
2941.98513	4627.1125
2944.44962	4602.7125
2946.91261	4601.3125
2949.37409	4599.0125
2951.83407	4574.8125
2954.29254	4573.4125
2956.74951	4575.5125
2959.20498	4581.7125
2961.65895	4576.9125
2964.11142	4562.7125
2966.56239	4559.9125
2969.01186	4570.4125
2971.45984	4550.3125
2973.90632	4534.2125
2976.35131	4549.2125
2978.7948	4541.4125
2981.23681	4530.9125
2983.67732	4518.3125
2986.11635	4500.8125
2988.55388	4483.3125
2990.98993	4494.3125
2993.4245	4477.9125
2995.85758	4460.2125
2998.28917	4456.3125
3000.71928	4437.5125
3003.14791	4433.0125
3005.57506	4432.0125
3008.00073	4394.6125
3010.42493	4400.8125
3012.84764	4377.4125
3015.26888	4389.7125
3017.68865	4378.8125
3020.10694	4371.8125
3022.52376	4354.0125
3024.9391	4324.0125
3027.35298	4305.5125
3029.76539	4294.5125
3032.17632	4296.0125
3034.5858	4283.9125
3036.9938	4291.2125
3039.40034	4265.2125
3041.80542	4257.1125
3044.20903	4236.9125
3046.61118	4232.0125
3049.01187	4230.6125
3051.4111	4223.5125
3053.80888	4202.9125
3056.20519	4192.8125
3058.60005	4174.3125
3060.99345	4181.4125
3063.3854	4159.1125
3065.7759	4174.6125
3068.16494	4149.0125
3070.55254	4129.0125
3072.93868	4109.5125
3075.32338	4097.9125
3077.70662	4095.0125
3080.08842	4087.5125
3082.46878	4098.7125
3084.84769	4065.8125
3087.22515	4056.9125
3089.60118	4057.0125
3091.97576	4062.3125
3094.3489	4045.1125
