Data from AgNPs_UA_50uM_CRN_500uM_SU_RamanShift__19__13-59-00-317.txt Node

Date: Thu Aug 04 13:59:00 BST 2022
User: TCL
Spectrometer: QEP01345
Trigger mode: 4
Integration Time (sec): 1.000000E0
Scans to average: 10
Electric dark correction enabled: true
Nonlinearity correction enabled: false
Boxcar width: 0
XAxis mode: Raman Shifts
Number of Pixels in Spectrum: 1044
>>>>>Begin Spectral Data<<<<<
46.04893	2.575
50.45542	-0.625
54.85868	-0.825
59.25871	-0.825
63.6555	14.775
68.04907	13.775
72.43941	14.175
76.82654	15.175
81.21044	15.275
85.59113	17.675
89.96862	18.675
94.34289	16.875
98.71396	17.775
103.08183	16.575
107.4465	16.975
111.80798	20.375
116.16626	18.775
120.52136	23.475
124.87327	22.675
129.222	25.275
133.56755	27.475
137.90993	29.075
142.24913	30.575
146.58517	35.275
150.91804	41.775
155.24774	50.375
159.57429	64.675
163.89768	83.475
168.21792	108.875
172.53501	153.875
176.84895	219.975
181.15975	312.275
185.46741	439.475
189.77193	605.975
194.07331	812.375
198.37157	1058.475
202.6667	1306.375
206.9587	1571.675
211.24758	1825.875
215.53334	2106.275
219.81599	2393.675
224.09553	2740.675
228.37195	3104.975
232.64527	3501.375
236.91549	3869.275
241.18261	4192.675
245.44663	4425.775
249.70755	4587.075
253.96539	4735.175
258.22014	4837.375
262.4718	4948.475
266.72039	5007.475
270.96589	5019.275
275.20832	4966.575
279.44768	4872.375
283.68397	4797.175
287.91719	4739.775
292.14735	4762.975
296.37445	4882.575
300.59849	5087.975
304.81948	5397.275
309.03742	5668.275
313.25231	5851.775
317.46415	5789.175
321.67296	5501.375
325.87872	5171.475
330.08145	4980.775
334.28114	4950.675
338.47781	5020.175
342.67145	5145.075
346.86207	5340.775
351.04966	5606.675
355.23424	5884.075
359.4158	6044.675
363.59435	6096.075
367.76989	6070.075
371.94243	5997.675
376.11196	5908.675
380.27849	5850.275
384.44203	5816.275
388.60257	5793.175
392.76012	5823.975
396.91468	5914.075
401.06626	6023.575
405.21485	6045.775
409.36047	5917.275
413.50311	5628.175
417.64277	5375.575
421.77947	5251.975
425.9132	5192.875
430.04396	5194.375
434.17176	5216.175
438.2966	5300.775
442.41849	5389.675
446.53742	5498.175
450.6534	5582.575
454.76644	5643.975
458.87653	5642.575
462.98368	5622.675
467.08789	5580.475
471.18916	5483.175
475.2875	5359.075
479.38291	5238.875
483.4754	5176.875
487.56496	5120.675
491.6516	5116.475
495.73531	5126.975
499.81612	5127.575
503.89401	5166.475
507.96899	5210.275
512.04106	5280.675
516.11023	5357.875
520.1765	5425.575
524.23987	5436.275
528.30034	5418.875
532.35792	5409.775
536.41261	5330.575
540.46441	5246.575
544.51333	5232.975
548.55936	5246.475
552.60252	5345.975
556.64279	5426.975
560.6802	5493.175
564.71473	5613.175
568.7464	5754.275
572.7752	5736.275
576.80114	5539.775
580.82422	5344.675
584.84444	5267.875
588.86181	5256.575
592.87633	5273.675
596.888	5403.475
600.89682	5690.175
604.9028	6484.175
608.90594	8246.475
612.90624	10105.875
616.90371	9287.875
620.89834	6735.975
624.89015	5647.875
628.87913	5505.975
632.86528	5664.475
636.84862	5762.775
640.82913	5644.575
644.80683	5383.375
648.78172	5220.975
652.75379	5232.275
656.72306	5432.775
660.68952	5669.775
664.65319	5565.075
668.61405	5358.675
672.57211	5309.275
676.52738	5292.975
680.47986	5239.275
684.42955	5152.575
688.37646	5130.775
692.32058	5145.875
696.26192	5225.875
700.20048	5312.675
704.13626	5328.175
708.06928	5305.575
711.99952	5248.075
715.927	5251.675
719.85171	5283.975
723.77365	5303.375
727.69284	5275.075
731.60928	5219.675
735.52295	5201.375
739.43388	5226.975
743.34206	5247.075
747.24749	5261.475
751.15017	5268.175
755.05012	5334.275
758.94733	5622.375
762.8418	6319.575
766.73354	7354.575
770.62254	8142.875
774.50882	8232.575
778.39237	7749.275
782.27321	6942.875
786.15132	6130.475
790.02671	5614.475
793.89938	5356.275
797.76935	5247.675
801.6366	5173.175
805.50115	5150.975
809.36299	5127.175
813.22213	5115.575
817.07857	5123.075
820.93231	5128.275
824.78336	5131.075
828.63172	5153.075
832.47738	5173.275
836.32036	5139.075
840.16066	5145.575
843.99827	5093.775
847.8332	5089.775
851.66546	5085.575
855.49504	5113.175
859.32195	5122.575
863.1462	5133.075
866.96777	5111.675
870.78668	5129.175
874.60293	5133.975
878.41652	5155.875
882.22745	5192.675
886.03573	5232.075
889.84136	5209.475
893.64433	5188.975
897.44466	5193.575
901.24235	5175.675
905.0374	5157.975
908.8298	5133.775
912.61957	5113.275
916.40671	5112.375
920.19121	5140.175
923.97308	5218.775
927.75233	5262.975
931.52895	5295.775
935.30295	5226.175
939.07433	5121.275
942.84309	5031.475
946.60924	4992.575
950.37278	4975.875
954.13371	4972.575
957.89203	4972.275
961.64774	4964.975
965.40086	4968.575
969.15137	4939.775
972.89929	4933.975
976.64461	4950.475
980.38733	4937.475
984.12747	4957.375
987.86502	4975.175
991.59999	5007.575
995.33237	5064.775
999.06217	5111.775
1002.78939	5208.875
1006.51404	5329.975
1010.23611	5450.975
1013.95561	5480.975
1017.67255	5466.775
1021.38692	5416.975
1025.09872	5332.275
1028.80796	5273.775
1032.51465	5229.575
1036.21877	5261.975
1039.92035	5276.375
1043.61937	5321.275
1047.31584	5327.475
1051.00976	5358.275
1054.70114	5345.275
1058.38998	5347.175
1062.07627	5358.075
1065.76003	5426.875
1069.44126	5489.375
1073.11995	5584.375
1076.79611	5710.475
1080.46974	5828.775
1084.14085	5956.075
1087.80943	6046.975
1091.47549	6079.475
1095.13903	6036.175
1098.80005	5922.775
1102.45857	5828.575
1106.11456	5735.675
1109.76805	5694.475
1113.41903	5733.675
1117.06751	5853.275
1120.71348	6065.075
1124.35696	6337.675
1127.99793	6528.575
1131.63641	6402.675
1135.2724	6092.475
1138.90589	5876.975
1142.5369	5774.475
1146.16542	5726.975
1149.79145	5703.575
1153.415	5629.075
1157.03607	5564.075
1160.65467	5596.375
1164.27079	5733.875
1167.88443	5918.075
1171.49561	6256.775
1175.10432	6782.475
1178.71056	7484.275
1182.31434	8081.375
1185.91565	8263.675
1189.51451	8065.675
1193.11091	7817.975
1196.70485	7548.575
1200.29634	7378.775
1203.88538	7149.075
1207.47197	6864.175
1211.05612	6563.775
1214.63782	6362.275
1218.21708	6190.175
1221.79391	6044.775
1225.36829	5959.175
1228.94024	5919.675
1232.50976	5924.075
1236.07685	5908.675
1239.6415	5953.575
1243.20374	5961.975
1246.76355	6000.375
1250.32093	6087.775
1253.8759	6220.075
1257.42845	6420.775
1260.97859	6631.475
1264.52631	6818.575
1268.07163	6963.575
1271.61453	6994.175
1275.15503	7023.775
1278.69312	7017.775
1282.22882	7041.075
1285.76211	7176.475
1289.29301	7336.275
1292.82151	7557.275
1296.34761	7705.975
1299.87133	8037.575
1303.39266	8573.975
1306.9116	9411.575
1310.42815	10300.275
1313.94233	10528.675
1317.45412	9971.175
1320.96354	9135.075
1324.47058	8393.475
1327.97525	7823.175
1331.47754	7479.175
1334.97747	7401.975
1338.47502	7500.875
1341.97022	7836.075
1345.46305	8380.175
1348.95352	9206.475
1352.44163	10142.675
1355.92738	11129.675
1359.41078	12439.675
1362.89183	13590.175
1366.37053	12990.975
1369.84688	10848.475
1373.32088	8874.775
1376.79254	7761.375
1380.26186	7255.875
1383.72883	6973.075
1387.19347	6694.375
1390.65578	6430.475
1394.11575	6234.375
1397.57339	6078.975
1401.0287	6002.875
1404.48168	5948.275
1407.93234	5937.875
1411.38068	5985.275
1414.82669	6079.675
1418.27039	6107.075
1421.71177	6082.075
1425.15083	6003.975
1428.58758	5960.575
1432.02203	5999.375
1435.45416	6060.075
1438.88399	6122.775
1442.31151	6139.375
1445.73673	6194.075
1449.15965	6227.375
1452.58027	6195.475
1455.9986	6140.775
1459.41463	6130.375
1462.82837	6178.575
1466.23982	6305.175
1469.64898	6467.275
1473.05586	6563.475
1476.46045	6640.075
1479.86276	6689.375
1483.26279	6799.375
1486.66054	6963.375
1490.05602	7203.875
1493.44922	7637.975
1496.84016	8268.975
1500.22882	9270.675
1503.61521	10617.775
1506.99934	11930.975
1510.38121	12741.975
1513.76081	12570.875
1517.13816	11372.675
1520.51324	9839.675
1523.88607	8617.175
1527.25665	7883.175
1530.62498	7508.075
1533.99105	7312.275
1537.35488	7204.775
1540.71647	7132.575
1544.07581	7075.375
1547.4329	6991.575
1550.78776	6893.575
1554.14038	6831.675
1557.49077	6815.975
1560.83892	6897.575
1564.18484	7104.875
1567.52853	7438.175
1570.86999	7658.975
1574.20922	7719.975
1577.54624	7590.475
1580.88103	7158.975
1584.2136	6669.275
1587.54395	6377.775
1590.87208	6308.975
1594.19801	6506.175
1597.52172	6806.475
1600.84321	6928.075
1604.16251	6857.675
1607.47959	6704.875
1610.79447	6488.175
1614.10715	6181.675
1617.41763	5848.375
1620.7259	5652.775
1624.03199	5521.075
1627.33587	5485.775
1630.63757	5552.175
1633.93707	5737.375
1637.23439	6080.875
1640.52951	6656.275
1643.82246	7467.475
1647.11321	8429.675
1650.40179	8994.875
1653.68819	8733.075
1656.97241	7691.675
1660.25446	6559.575
1663.53433	5787.675
1666.81203	5328.275
1670.08756	5052.775
1673.36092	4886.775
1676.63211	4772.975
1679.90115	4704.075
1683.16801	4645.375
1686.43272	4601.775
1689.69527	4559.675
1692.95567	4547.475
1696.2139	4530.475
1699.46999	4506.275
1702.72392	4516.175
1705.97571	4511.475
1709.22535	4501.875
1712.47284	4518.675
1715.71819	4503.375
1718.96139	4487.375
1722.20246	4480.775
1725.44139	4468.675
1728.67818	4442.375
1731.91284	4400.875
1735.14537	4372.675
1738.37576	4371.275
1741.60403	4360.975
1744.83017	4334.875
1748.05418	4329.175
1751.27607	4315.075
1754.49584	4309.675
1757.71349	4299.475
1760.92903	4285.275
1764.14244	4284.175
1767.35375	4280.075
1770.56294	4260.575
1773.77002	4251.375
1776.97499	4221.275
1780.17785	4197.375
1783.37861	4213.575
1786.57727	4176.475
1789.77382	4182.475
1792.96828	4168.675
1796.16064	4169.775
1799.3509	4154.875
1802.53907	4173.275
1805.72514	4142.375
1808.90913	4126.775
1812.09102	4108.975
1815.27083	4106.975
1818.44856	4097.875
1821.6242	4096.675
1824.79776	4086.975
1827.96924	4078.675
1831.13864	4078.575
1834.30597	4052.875
1837.47122	4047.075
1840.6344	4040.675
1843.7955	4047.275
1846.95454	4036.575
1850.11151	4043.775
1853.26642	4026.975
1856.41926	4024.275
1859.57004	4036.575
1862.71876	4031.075
1865.86542	4022.275
1869.01003	4015.275
1872.15258	4007.675
1875.29308	3999.975
1878.43152	3992.675
1881.56792	3998.375
1884.70227	4000.175
1887.83457	3964.575
1890.96482	3980.075
1894.09304	3965.775
1897.21921	3958.875
1900.34335	3957.075
1903.46544	3938.475
1906.58551	3942.975
1909.70353	3923.075
1912.81953	3929.475
1915.93349	3924.875
1919.04543	3911.875
1922.15534	3906.375
1925.26322	3906.575
1928.36908	3882.275
1931.47292	3874.075
1934.57473	3881.475
1937.67453	3867.675
1940.77232	3850.175
1943.86808	3829.375
1946.96184	3827.775
1950.05358	3819.075
1953.14331	3813.875
1956.23103	3794.375
1959.31675	3785.575
1962.40046	3765.675
1965.48217	3764.375
1968.56188	3752.175
1971.63959	3760.175
1974.7153	3750.375
1977.78901	3730.275
1980.86073	3727.375
1983.93046	3701.375
1986.99819	3693.475
1990.06394	3670.475
1993.1277	3662.775
1996.18947	3645.275
1999.24925	3640.375
2002.30706	3634.175
2005.36288	3606.375
2008.41672	3600.175
2011.46859	3589.675
2014.51848	3575.475
2017.56639	3574.575
2020.61233	3547.175
2023.6563	3540.675
2026.6983	3525.175
2029.73833	3524.075
2032.7764	3496.675
2035.8125	3497.175
2038.84664	3478.275
2041.87881	3489.875
2044.90903	3471.075
2047.93729	3469.875
2050.96359	3468.175
2053.98794	3458.975
2057.01034	3450.875
2060.03078	3460.775
2063.04927	3467.375
2066.06582	3453.675
2069.08042	3458.175
2072.09307	3427.875
2075.10378	3434.275
2078.11255	3413.175
2081.11938	3439.275
2084.12426	3432.375
2087.12722	3421.975
2090.12824	3429.875
2093.12732	3435.975
2096.12447	3432.075
2099.11969	3430.675
2102.11299	3428.175
2105.10435	3436.275
2108.09379	3431.975
2111.08131	3435.875
2114.0669	3427.275
2117.05057	3440.375
2120.03233	3439.575
2123.01216	3431.775
2125.99008	3436.675
2128.96609	3434.875
2131.94018	3442.975
2134.91236	3430.375
2137.88263	3429.775
2140.851	3441.875
2143.81746	3439.675
2146.78201	3432.275
2149.74466	3445.575
2152.7054	3412.475
2155.66425	3441.075
2158.6212	3425.075
2161.57625	3427.275
2164.52941	3420.675
2167.48067	3430.175
2170.43004	3421.975
2173.37752	3430.975
2176.32311	3414.475
2179.26681	3422.275
2182.20863	3427.575
2185.14856	3418.475
2188.08661	3414.375
2191.02278	3413.275
2193.95707	3393.575
2196.88948	3402.675
2199.82001	3400.275
2202.74867	3384.575
2205.67545	3388.075
2208.60037	3384.575
2211.52341	3379.975
2214.44458	3379.575
2217.36388	3381.975
2220.28132	3381.275
2223.1969	3349.475
2226.11061	3333.575
2229.02246	3331.675
2231.93245	3332.675
2234.84058	3324.975
2237.74686	3326.075
2240.65128	3321.575
2243.55385	3314.675
2246.45456	3298.275
2249.35343	3310.575
2252.25044	3302.075
2255.14561	3297.075
2258.03893	3297.575
2260.93041	3295.375
2263.82004	3287.375
2266.70783	3288.375
2269.59378	3274.075
2272.4779	3253.875
2275.36017	3251.875
2278.24061	3237.375
2281.11922	3240.475
2283.996	3227.775
2286.87094	3220.575
2289.74405	3209.775
2292.61534	3216.275
2295.4848	3203.075
2298.35243	3224.175
2301.21824	3214.975
2304.08223	3204.275
2306.94439	3200.275
2309.80474	3199.275
2312.66327	3195.575
2315.51999	3196.975
2318.37489	3193.875
2321.22797	3192.375
2324.07925	3174.575
2326.92871	3163.475
2329.77637	3154.575
2332.62222	3151.075
2335.46626	3156.175
2338.3085	3149.475
2341.14893	3144.475
2343.98756	3141.275
2346.8244	3149.775
2349.65943	3143.275
2352.49267	3134.675
2355.32411	3139.075
2358.15376	3142.075
2360.98161	3140.675
2363.80768	3142.375
2366.63195	3138.775
2369.45444	3137.275
2372.27514	3137.075
2375.09405	3142.875
2377.91118	3116.475
2380.72652	3119.175
2383.54009	3099.675
2386.35187	3097.575
2389.16188	3085.775
2391.97011	3088.175
2394.77657	3069.975
2397.58125	3050.775
2400.38416	3070.075
2403.18529	3051.975
2405.98466	3062.975
2408.78226	3046.175
2411.57809	3037.175
2414.37216	3045.475
2417.16446	3027.075
2419.955	3026.575
2422.74378	3017.075
2425.5308	3030.475
2428.31606	3022.475
2431.09956	3023.775
2433.88131	3015.675
2436.6613	3034.175
2439.43954	3017.075
2442.21603	3016.875
2444.99077	3004.575
2447.76377	2993.875
2450.53501	3001.875
2453.30451	3006.475
2456.07226	3008.375
2458.83827	2995.275
2461.60254	2999.375
2464.36507	3009.275
2467.12586	2989.575
2469.88492	2995.775
2472.64224	2985.875
2475.39782	2977.475
2478.15167	2983.575
2480.90379	2983.175
2483.65417	2991.575
2486.40283	2990.575
2489.14976	3002.375
2491.89497	3003.475
2494.63845	2992.175
2497.3802	2984.375
2500.12024	2990.275
2502.85855	2959.375
2505.59514	2974.375
2508.33002	2970.375
2511.06318	2955.475
2513.79462	2944.775
2516.52435	2931.975
2519.25237	2922.275
2521.97867	2901.975
2524.70327	2910.475
2527.42616	2911.375
2530.14734	2920.375
2532.86681	2899.675
2535.58458	2908.475
2538.30065	2905.375
2541.01501	2896.375
2543.72768	2897.775
2546.43864	2907.975
2549.14791	2888.375
2551.85548	2887.475
2554.56136	2889.575
2557.26554	2874.275
2559.96803	2881.475
2562.66883	2873.975
2565.36794	2867.075
2568.06536	2859.575
2570.7611	2837.675
2573.45514	2846.975
2576.14751	2843.575
2578.83819	2825.875
2581.52719	2823.275
2584.21451	2818.375
2586.90015	2818.475
2589.58411	2808.375
2592.2664	2798.675
2594.94701	2803.175
2597.62594	2800.375
2600.30321	2782.775
2602.9788	2783.975
2605.65273	2795.375
2608.32498	2785.675
2610.99557	2785.575
2613.66449	2785.675
2616.33175	2784.875
2618.99734	2786.075
2621.66128	2770.875
2624.32355	2758.075
2626.98416	2762.275
2629.64311	2745.175
2632.30041	2736.375
2634.95605	2733.575
2637.61004	2710.075
2640.26238	2723.475
2642.91306	2722.075
2645.56209	2733.375
2648.20948	2731.475
2650.85521	2707.175
2653.4993	2713.975
2656.14175	2717.575
2658.78255	2717.375
2661.42171	2726.075
2664.05923	2716.575
2666.6951	2730.375
2669.32934	2717.175
2671.96194	2707.675
2674.59291	2703.075
2677.22224	2720.475
2679.84993	2709.475
2682.476	2698.175
2685.10043	2710.875
2687.72324	2709.775
2690.34441	2705.875
2692.96396	2699.175
2695.58188	2706.375
2698.19818	2699.875
2700.81285	2701.875
2703.4259	2710.875
2706.03733	2717.575
2708.64714	2703.975
2711.25533	2695.975
2713.86191	2683.675
2716.46687	2686.475
2719.07021	2701.875
2721.67194	2691.775
2724.27206	2689.875
2726.87057	2697.275
2729.46747	2677.575
2732.06276	2690.875
2734.65644	2677.675
2737.24852	2683.475
2739.83899	2689.075
2742.42786	2669.375
2745.01513	2663.275
2747.60079	2673.975
2750.18486	2675.175
2752.76733	2674.175
2755.3482	2658.775
2757.92747	2655.975
2760.50515	2646.775
2763.08123	2649.275
2765.65573	2623.675
2768.22863	2615.175
2770.79994	2611.675
2773.36967	2625.675
2775.9378	2625.175
2778.50435	2621.075
2781.06932	2615.775
2783.6327	2599.375
2786.1945	2592.975
2788.75471	2607.675
2791.31335	2597.675
2793.87041	2601.175
2796.42589	2583.875
2798.97979	2584.375
2801.53212	2579.075
2804.08288	2572.375
2806.63206	2557.975
2809.17967	2564.475
2811.72571	2559.175
2814.27018	2559.575
2816.81308	2555.975
2819.35442	2559.175
2821.89419	2542.875
2824.43239	2525.775
2826.96904	2528.275
2829.50412	2528.475
2832.03763	2527.775
2834.56959	2519.675
2837.1	2507.275
2839.62884	2502.775
2842.15613	2507.175
2844.68186	2511.275
2847.20604	2495.475
2849.72867	2492.275
2852.24974	2501.475
2854.76927	2487.075
2857.28724	2484.475
2859.80367	2485.075
2862.31855	2481.975
2864.83189	2485.775
2867.34368	2487.575
2869.85393	2478.875
2872.36264	2463.475
2874.8698	2490.475
2877.37543	2480.375
2879.87952	2470.575
2882.38207	2462.975
2884.88308	2461.175
2887.38256	2457.675
2889.88051	2453.475
2892.37692	2452.675
2894.8718	2442.775
2897.36515	2445.875
2899.85698	2439.075
2902.34727	2452.375
2904.83604	2452.575
2907.32328	2460.175
2909.809	2453.275
2912.29319	2462.375
2914.77587	2463.975
2917.25702	2464.375
2919.73665	2454.475
2922.21476	2450.375
2924.69136	2447.975
2927.16644	2452.775
2929.64	2438.075
2932.11205	2434.975
2934.58258	2429.775
2937.05161	2417.175
2939.51912	2431.275
2941.98513	2405.875
2944.44962	2420.275
2946.91261	2419.375
2949.37409	2409.475
2951.83407	2406.875
2954.29254	2416.475
2956.74951	2416.375
2959.20498	2408.075
2961.65895	2391.375
2964.11142	2396.675
2966.56239	2389.375
2969.01186	2386.675
2971.45984	2398.175
2973.90632	2395.775
2976.35131	2378.675
2978.7948	2382.475
2981.23681	2374.775
2983.67732	2375.175
2986.11635	2362.875
2988.55388	2368.075
2990.98993	2356.575
2993.4245	2349.175
2995.85758	2361.075
2998.28917	2340.875
3000.71928	2338.975
3003.14791	2342.475
3005.57506	2330.275
3008.00073	2326.975
3010.42493	2310.475
3012.84764	2316.975
3015.26888	2309.775
3017.68865	2303.975
3020.10694	2301.175
3022.52376	2302.675
3024.9391	2284.975
3027.35298	2276.275
3029.76539	2281.875
3032.17632	2287.575
3034.5858	2254.175
3036.9938	2265.675
3039.40034	2252.675
3041.80542	2242.375
3044.20903	2253.575
3046.61118	2235.975
3049.01187	2229.575
3051.4111	2234.275
3053.80888	2229.875
3056.20519	2229.575
3058.60005	2220.075
3060.99345	2222.075
3063.3854	2210.275
3065.7759	2209.975
3068.16494	2203.475
3070.55254	2192.375
3072.93868	2189.675
3075.32338	2192.275
3077.70662	2174.475
3080.08842	2173.275
3082.46878	2162.775
3084.84769	2164.475
3087.22515	2151.075
3089.60118	2154.975
3091.97576	2151.775
3094.3489	2150.175
3096.72061	2158.275
3099.09087	2154.175
3101.4597	2153.875
3103.82709	2151.575
3106.19305	2126.775
3108.55757	2131.675
3110.92066	2131.675
3113.28232	2127.875
3115.64255	2125.275
3118.00134	2127.375
3120.35871	2113.475
3122.71466	2103.175
3125.06917	2104.675
3127.42226	2088.175
3129.77393	2098.375
3132.12417	2095.575
3134.47299	2103.475
3136.82039	2086.975
3139.16636	2093.475
3141.51092	2083.275
3143.85406	2089.975
3146.19579	2084.775
3148.53609	2085.575
3150.87499	2090.175
3153.21246	2083.875
3155.54853	2087.875
3157.88318	2091.775
3160.21642	2085.675
3162.54826	2083.275
3164.87868	2091.775
3167.2077	2078.375
3169.5353	2070.875
3171.86151	2063.675
3174.18631	2060.575
3176.5097	2060.975
3178.83169	2070.675
3181.15228	2057.375
3183.47147	2059.075
3185.78926	2044.775
3188.10565	2044.575
3190.42065	2041.275
3192.73424	2041.975
3195.04645	2022.575
3197.35725	2020.375
3199.66667	2024.275
3201.97469	2032.975
3204.28132	2024.175
3206.58656	2035.775
3208.8904	2033.475
3211.19287	2031.575
3213.49394	2032.175
3215.79363	2039.475
3218.09193	2030.975
3220.38884	2020.475
3222.68438	2027.975
3224.97853	2020.075
3227.2713	2014.575
3229.56269	2017.075
3231.8527	2006.175
3234.14133	2007.375
3236.42858	1993.875
3238.71446	1999.075
