Data from AgNPs_UA_50uM_CRN_500uM_SU_RamanShift__45__14-03-20-322.txt Node

Date: Thu Aug 04 14:03:20 BST 2022
User: TCL
Spectrometer: QEP01345
Trigger mode: 4
Integration Time (sec): 1.000000E0
Scans to average: 10
Electric dark correction enabled: true
Nonlinearity correction enabled: false
Boxcar width: 0
XAxis mode: Raman Shifts
Number of Pixels in Spectrum: 1044
>>>>>Begin Spectral Data<<<<<
46.04893	1.875
50.45542	-0.425
54.85868	-0.525
59.25871	-1.325
63.6555	13.875
68.04907	14.775
72.43941	17.675
76.82654	18.275
81.21044	18.775
85.59113	20.275
89.96862	19.075
94.34289	21.475
98.71396	22.575
103.08183	20.975
107.4465	21.275
111.80798	22.575
116.16626	22.375
120.52136	25.175
124.87327	28.075
129.222	30.575
133.56755	34.175
137.90993	34.275
142.24913	35.175
146.58517	39.875
150.91804	49.775
155.24774	62.075
159.57429	76.275
163.89768	99.575
168.21792	134.275
172.53501	180.775
176.84895	259.775
181.15975	367.975
185.46741	522.775
189.77193	720.775
194.07331	978.675
198.37157	1261.375
202.6667	1557.775
206.9587	1868.475
211.24758	2170.275
215.53334	2478.175
219.81599	2830.475
224.09553	3222.775
228.37195	3641.075
232.64527	4083.175
236.91549	4517.475
241.18261	4897.575
245.44663	5189.575
249.70755	5421.475
253.96539	5622.675
258.22014	5794.875
262.4718	5940.175
266.72039	6014.175
270.96589	6057.175
275.20832	5998.675
279.44768	5902.375
283.68397	5816.275
287.91719	5752.375
292.14735	5775.075
296.37445	5872.575
300.59849	6101.675
304.81948	6353.275
309.03742	6632.975
313.25231	6782.875
317.46415	6710.075
321.67296	6402.175
325.87872	6070.775
330.08145	5891.775
334.28114	5874.575
338.47781	5956.775
342.67145	6098.975
346.86207	6299.575
351.04966	6586.675
355.23424	6880.075
359.4158	7080.275
363.59435	7159.375
367.76989	7128.075
371.94243	7114.575
376.11196	7029.175
380.27849	7003.675
384.44203	6982.375
388.60257	6977.275
392.76012	7041.075
396.91468	7109.775
401.06626	7264.275
405.21485	7281.375
409.36047	7145.075
413.50311	6875.375
417.64277	6627.875
421.77947	6448.475
425.9132	6370.375
430.04396	6362.775
434.17176	6406.775
438.2966	6468.675
442.41849	6575.775
446.53742	6701.575
450.6534	6815.475
454.76644	6917.375
458.87653	6939.675
462.98368	6944.175
467.08789	6896.375
471.18916	6770.075
475.2875	6626.575
479.38291	6519.475
483.4754	6442.475
487.56496	6405.775
491.6516	6360.875
495.73531	6340.675
499.81612	6366.075
503.89401	6447.775
507.96899	6483.575
512.04106	6542.575
516.11023	6609.875
520.1765	6671.175
524.23987	6683.775
528.30034	6651.275
532.35792	6617.675
536.41261	6583.175
540.46441	6484.475
544.51333	6429.475
548.55936	6485.775
552.60252	6583.175
556.64279	6716.875
560.6802	6799.475
564.71473	6913.575
568.7464	7020.875
572.7752	6984.975
576.80114	6744.775
580.82422	6559.375
584.84444	6464.875
588.86181	6424.375
592.87633	6472.275
596.888	6600.875
600.89682	6933.575
604.9028	7856.975
608.90594	9809.375
612.90624	11826.475
616.90371	10829.175
620.89834	8094.575
624.89015	6962.775
628.87913	6818.775
632.86528	7002.575
636.84862	7110.175
640.82913	6933.375
644.80683	6651.275
648.78172	6488.475
652.75379	6499.475
656.72306	6726.375
660.68952	6984.275
664.65319	6912.575
668.61405	6759.175
672.57211	6768.975
676.52738	6761.975
680.47986	6614.375
684.42955	6466.975
688.37646	6426.175
692.32058	6480.875
696.26192	6592.075
700.20048	6722.775
704.13626	6759.675
708.06928	6672.675
711.99952	6608.375
715.927	6590.375
719.85171	6643.875
723.77365	6646.875
727.69284	6592.875
731.60928	6558.575
735.52295	6522.675
739.43388	6518.775
743.34206	6568.775
747.24749	6553.875
751.15017	6581.375
755.05012	6640.775
758.94733	6917.075
762.8418	7654.675
766.73354	8715.175
770.62254	9508.675
774.50882	9645.775
778.39237	9263.175
782.27321	8527.075
786.15132	7699.675
790.02671	7057.075
793.89938	6745.375
797.76935	6595.875
801.6366	6544.775
805.50115	6499.575
809.36299	6489.075
813.22213	6450.675
817.07857	6464.475
820.93231	6460.275
824.78336	6455.675
828.63172	6496.975
832.47738	6519.175
836.32036	6468.975
840.16066	6432.675
843.99827	6433.675
847.8332	6432.675
851.66546	6423.775
855.49504	6450.775
859.32195	6461.075
863.1462	6432.275
866.96777	6454.775
870.78668	6450.475
874.60293	6451.075
878.41652	6506.675
882.22745	6552.375
886.03573	6575.175
889.84136	6582.275
893.64433	6542.375
897.44466	6548.075
901.24235	6526.275
905.0374	6490.675
908.8298	6479.375
912.61957	6435.375
916.40671	6430.775
920.19121	6464.975
923.97308	6510.075
927.75233	6582.375
931.52895	6627.175
935.30295	6582.575
939.07433	6457.775
942.84309	6359.575
946.60924	6320.075
950.37278	6304.475
954.13371	6298.675
957.89203	6318.075
961.64774	6303.775
965.40086	6284.475
969.15137	6285.875
972.89929	6280.375
976.64461	6262.675
980.38733	6273.775
984.12747	6288.275
987.86502	6298.375
991.59999	6336.975
995.33237	6396.875
999.06217	6431.875
1002.78939	6535.875
1006.51404	6653.375
1010.23611	6781.475
1013.95561	6838.075
1017.67255	6834.975
1021.38692	6787.975
1025.09872	6706.475
1028.80796	6618.975
1032.51465	6590.275
1036.21877	6607.875
1039.92035	6648.875
1043.61937	6662.675
1047.31584	6710.475
1051.00976	6721.275
1054.70114	6719.175
1058.38998	6748.575
1062.07627	6746.075
1065.76003	6820.575
1069.44126	6903.075
1073.11995	7031.475
1076.79611	7215.475
1080.46974	7337.375
1084.14085	7448.375
1087.80943	7562.975
1091.47549	7581.575
1095.13903	7574.475
1098.80005	7525.375
1102.45857	7544.275
1106.11456	7480.975
1109.76805	7367.375
1113.41903	7401.375
1117.06751	7485.175
1120.71348	7646.475
1124.35696	7889.475
1127.99793	8045.975
1131.63641	7881.275
1135.2724	7565.775
1138.90589	7345.675
1142.5369	7202.575
1146.16542	7160.675
1149.79145	7110.375
1153.415	6992.775
1157.03607	6953.675
1160.65467	6991.875
1164.27079	7121.375
1167.88443	7337.975
1171.49561	7693.575
1175.10432	8259.275
1178.71056	9052.375
1182.31434	9666.675
1185.91565	9842.675
1189.51451	9668.475
1193.11091	9419.175
1196.70485	9121.975
1200.29634	8918.475
1203.88538	8672.475
1207.47197	8344.475
1211.05612	8010.375
1214.63782	7785.375
1218.21708	7544.875
1221.79391	7380.975
1225.36829	7304.475
1228.94024	7256.675
1232.50976	7262.775
1236.07685	7310.275
1239.6415	7342.975
1243.20374	7360.475
1246.76355	7407.275
1250.32093	7483.475
1253.8759	7611.175
1257.42845	7865.575
1260.97859	8100.075
1264.52631	8327.275
1268.07163	8490.275
1271.61453	8556.675
1275.15503	8548.775
1278.69312	8526.475
1282.22882	8522.075
1285.76211	8620.075
1289.29301	8805.975
1292.82151	8979.875
1296.34761	9138.575
1299.87133	9500.875
1303.39266	10036.375
1306.9116	10923.375
1310.42815	11899.575
1313.94233	12187.375
1317.45412	11607.775
1320.96354	10776.375
1324.47058	10035.575
1327.97525	9403.575
1331.47754	9019.075
1334.97747	8907.675
1338.47502	9013.175
1341.97022	9365.175
1345.46305	10034.675
1348.95352	10935.875
1352.44163	11972.575
1355.92738	12962.375
1359.41078	14271.975
1362.89183	15255.675
1366.37053	14573.475
1369.84688	12331.175
1373.32088	10334.175
1376.79254	9206.775
1380.26186	8691.575
1383.72883	8359.075
1387.19347	8039.275
1390.65578	7747.575
1394.11575	7537.575
1397.57339	7363.475
1401.0287	7255.275
1404.48168	7214.775
1407.93234	7247.875
1411.38068	7366.775
1414.82669	7486.575
1418.27039	7541.475
1421.71177	7539.375
1425.15083	7483.375
1428.58758	7392.775
1432.02203	7400.675
1435.45416	7436.375
1438.88399	7448.675
1442.31151	7439.075
1445.73673	7485.175
1449.15965	7502.675
1452.58027	7461.075
1455.9986	7392.475
1459.41463	7360.175
1462.82837	7422.075
1466.23982	7546.975
1469.64898	7719.775
1473.05586	7835.775
1476.46045	7929.675
1479.86276	7986.375
1483.26279	8132.175
1486.66054	8321.875
1490.05602	8625.775
1493.44922	9059.475
1496.84016	9813.375
1500.22882	10881.475
1503.61521	12229.875
1506.99934	13522.975
1510.38121	14308.175
1513.76081	14131.075
1517.13816	12931.175
1520.51324	11315.475
1523.88607	9969.675
1527.25665	9137.575
1530.62498	8706.075
1533.99105	8493.675
1537.35488	8346.375
1540.71647	8250.575
1544.07581	8173.075
1547.4329	8133.475
1550.78776	8017.475
1554.14038	8000.875
1557.49077	8026.975
1560.83892	8155.675
1564.18484	8420.075
1567.52853	8713.675
1570.86999	8939.275
1574.20922	8987.875
1577.54624	8853.475
1580.88103	8421.175
1584.2136	7906.175
1587.54395	7596.975
1590.87208	7558.975
1594.19801	7774.575
1597.52172	8036.375
1600.84321	8145.675
1604.16251	8059.675
1607.47959	7914.675
1610.79447	7658.375
1614.10715	7351.875
1617.41763	7021.275
1620.7259	6787.375
1624.03199	6683.375
1627.33587	6641.675
1630.63757	6703.375
1633.93707	6930.575
1637.23439	7333.075
1640.52951	7965.075
1643.82246	8945.775
1647.11321	10005.175
1650.40179	10619.675
1653.68819	10208.775
1656.97241	9045.975
1660.25446	7814.075
1663.53433	6989.475
1666.81203	6500.175
1670.08756	6210.475
1673.36092	6030.475
1676.63211	5901.975
1679.90115	5841.675
1683.16801	5780.675
1686.43272	5713.975
1689.69527	5692.975
1692.95567	5647.375
1696.2139	5634.475
1699.46999	5633.175
1702.72392	5614.875
1705.97571	5613.275
1709.22535	5591.775
1712.47284	5594.275
1715.71819	5617.775
1718.96139	5586.975
1722.20246	5591.075
1725.44139	5567.675
1728.67818	5513.175
1731.91284	5496.275
1735.14537	5451.975
1738.37576	5442.975
1741.60403	5418.775
1744.83017	5408.875
1748.05418	5388.875
1751.27607	5375.775
1754.49584	5357.575
1757.71349	5345.075
1760.92903	5340.875
1764.14244	5348.475
1767.35375	5346.675
1770.56294	5319.375
1773.77002	5291.175
1776.97499	5258.275
1780.17785	5257.375
1783.37861	5247.175
1786.57727	5212.575
1789.77382	5189.875
1792.96828	5215.375
1796.16064	5193.175
1799.3509	5195.375
1802.53907	5178.875
1805.72514	5160.575
1808.90913	5139.475
1812.09102	5144.475
1815.27083	5125.075
1818.44856	5107.675
1821.6242	5099.575
1824.79776	5090.075
1827.96924	5068.975
1831.13864	5046.075
1834.30597	5032.375
1837.47122	5027.675
1840.6344	5026.575
1843.7955	5033.575
1846.95454	5025.575
1850.11151	5018.575
1853.26642	5004.675
1856.41926	5004.275
1859.57004	5018.475
1862.71876	5003.775
1865.86542	4982.275
1869.01003	4987.975
1872.15258	4977.975
1875.29308	4979.775
1878.43152	4973.075
1881.56792	4948.475
1884.70227	4953.475
1887.83457	4942.975
1890.96482	4930.075
1894.09304	4926.575
1897.21921	4917.675
1900.34335	4900.675
1903.46544	4889.275
1906.58551	4870.175
1909.70353	4861.675
1912.81953	4849.075
1915.93349	4856.375
1919.04543	4837.375
1922.15534	4841.175
1925.26322	4825.175
1928.36908	4819.975
1931.47292	4810.275
1934.57473	4795.475
1937.67453	4774.975
1940.77232	4743.675
1943.86808	4727.175
1946.96184	4717.175
1950.05358	4716.575
1953.14331	4703.075
1956.23103	4685.775
1959.31675	4669.275
1962.40046	4651.975
1965.48217	4647.775
1968.56188	4643.175
1971.63959	4623.975
1974.7153	4619.875
1977.78901	4607.775
1980.86073	4573.375
1983.93046	4549.975
1986.99819	4544.575
1990.06394	4532.175
1993.1277	4518.275
1996.18947	4482.875
1999.24925	4481.775
2002.30706	4457.075
2005.36288	4448.275
2008.41672	4416.575
2011.46859	4410.375
2014.51848	4410.275
2017.56639	4384.175
2020.61233	4378.775
2023.6563	4352.175
2026.6983	4337.975
2029.73833	4312.975
2032.7764	4317.575
2035.8125	4311.575
2038.84664	4289.675
2041.87881	4286.775
2044.90903	4266.375
2047.93729	4264.875
2050.96359	4266.175
2053.98794	4244.175
2057.01034	4242.175
2060.03078	4221.175
2063.04927	4247.775
2066.06582	4221.875
2069.08042	4218.775
2072.09307	4203.175
2075.10378	4193.775
2078.11255	4197.775
2081.11938	4200.975
2084.12426	4199.375
2087.12722	4190.275
2090.12824	4199.975
2093.12732	4193.775
2096.12447	4190.975
2099.11969	4197.275
2102.11299	4190.675
2105.10435	4203.175
2108.09379	4198.975
2111.08131	4197.475
2114.0669	4190.275
2117.05057	4196.275
2120.03233	4184.675
2123.01216	4199.175
2125.99008	4197.875
2128.96609	4205.075
2131.94018	4207.375
2134.91236	4201.975
2137.88263	4188.975
2140.851	4206.975
2143.81746	4197.475
2146.78201	4186.775
2149.74466	4188.275
2152.7054	4168.875
2155.66425	4180.875
2158.6212	4181.175
2161.57625	4181.575
2164.52941	4166.775
2167.48067	4159.175
2170.43004	4162.375
2173.37752	4156.275
2176.32311	4155.175
2179.26681	4162.575
2182.20863	4167.375
2185.14856	4148.075
2188.08661	4148.875
2191.02278	4138.675
2193.95707	4121.075
2196.88948	4127.975
2199.82001	4124.875
2202.74867	4130.475
2205.67545	4112.975
2208.60037	4108.075
2211.52341	4118.775
2214.44458	4101.975
2217.36388	4100.575
2220.28132	4081.075
2223.1969	4061.875
2226.11061	4041.175
2229.02246	4030.775
2231.93245	4034.875
2234.84058	4029.575
2237.74686	4018.075
2240.65128	4028.875
2243.55385	4007.075
2246.45456	3992.175
2249.35343	3996.375
2252.25044	3988.675
2255.14561	3998.875
2258.03893	3992.575
2260.93041	3973.375
2263.82004	3974.675
2266.70783	3958.975
2269.59378	3944.075
2272.4779	3937.475
2275.36017	3920.875
2278.24061	3908.475
2281.11922	3915.875
2283.996	3900.375
2286.87094	3901.675
2289.74405	3883.375
2292.61534	3886.075
2295.4848	3879.975
2298.35243	3886.975
2301.21824	3865.275
2304.08223	3860.975
2306.94439	3857.975
2309.80474	3865.675
2312.66327	3851.375
2315.51999	3832.775
2318.37489	3838.675
2321.22797	3827.175
2324.07925	3829.475
2326.92871	3794.875
2329.77637	3795.775
2332.62222	3792.975
2335.46626	3773.875
2338.3085	3776.875
2341.14893	3786.975
2343.98756	3781.875
2346.8244	3781.975
2349.65943	3767.675
2352.49267	3743.175
2355.32411	3759.775
2358.15376	3747.575
2360.98161	3765.275
2363.80768	3758.675
2366.63195	3745.475
2369.45444	3753.375
2372.27514	3757.575
2375.09405	3742.175
2377.91118	3736.375
2380.72652	3730.475
2383.54009	3700.375
2386.35187	3702.975
2389.16188	3691.775
2391.97011	3679.475
2394.77657	3677.975
2397.58125	3663.575
2400.38416	3652.675
2403.18529	3655.375
2405.98466	3649.675
2408.78226	3635.675
2411.57809	3627.375
2414.37216	3606.675
2417.16446	3616.075
2419.955	3592.475
2422.74378	3607.875
2425.5308	3614.775
2428.31606	3606.475
2431.09956	3598.375
2433.88131	3582.475
2436.6613	3604.275
2439.43954	3592.175
2442.21603	3592.675
2444.99077	3583.675
2447.76377	3576.675
2450.53501	3563.475
2453.30451	3576.375
2456.07226	3575.675
2458.83827	3565.575
2461.60254	3570.275
2464.36507	3564.375
2467.12586	3560.275
2469.88492	3545.375
2472.64224	3549.075
2475.39782	3531.375
2478.15167	3533.175
2480.90379	3527.875
2483.65417	3541.575
2486.40283	3547.175
2489.14976	3539.575
2491.89497	3536.475
2494.63845	3539.775
2497.3802	3524.375
2500.12024	3512.275
2502.85855	3519.375
2505.59514	3504.775
2508.33002	3510.475
2511.06318	3490.575
2513.79462	3464.675
2516.52435	3459.675
2519.25237	3461.375
2521.97867	3435.175
2524.70327	3449.975
2527.42616	3442.675
2530.14734	3427.775
2532.86681	3445.175
2535.58458	3439.475
2538.30065	3440.075
2541.01501	3416.575
2543.72768	3412.175
2546.43864	3412.675
2549.14791	3392.275
2551.85548	3399.475
2554.56136	3401.475
2557.26554	3396.475
2559.96803	3382.375
2562.66883	3364.075
2565.36794	3387.075
2568.06536	3364.675
2570.7611	3366.475
2573.45514	3343.275
2576.14751	3327.375
2578.83819	3314.875
2581.52719	3317.975
2584.21451	3296.375
2586.90015	3304.575
2589.58411	3291.475
2592.2664	3286.475
2594.94701	3289.675
2597.62594	3280.875
2600.30321	3272.375
2602.9788	3279.475
2605.65273	3258.075
2608.32498	3262.875
2610.99557	3277.275
2613.66449	3256.875
2616.33175	3256.175
2618.99734	3243.675
2621.66128	3228.375
2624.32355	3228.975
2626.98416	3226.875
2629.64311	3203.775
2632.30041	3213.875
2634.95605	3206.675
2637.61004	3174.275
2640.26238	3176.875
2642.91306	3179.075
2645.56209	3174.875
2648.20948	3174.075
2650.85521	3160.875
2653.4993	3178.075
2656.14175	3165.575
2658.78255	3158.875
2661.42171	3166.075
2664.05923	3162.475
2666.6951	3163.675
2669.32934	3152.975
2671.96194	3153.675
2674.59291	3162.475
2677.22224	3147.275
2679.84993	3162.675
2682.476	3157.475
2685.10043	3161.575
2687.72324	3157.075
2690.34441	3144.275
2692.96396	3130.475
2695.58188	3147.275
2698.19818	3136.075
2700.81285	3147.375
2703.4259	3130.775
2706.03733	3141.675
2708.64714	3133.075
2711.25533	3141.675
2713.86191	3122.175
2716.46687	3128.175
2719.07021	3123.475
2721.67194	3140.475
2724.27206	3131.975
2726.87057	3113.875
2729.46747	3118.975
2732.06276	3126.875
2734.65644	3107.675
2737.24852	3101.975
2739.83899	3104.575
2742.42786	3102.175
2745.01513	3097.275
2747.60079	3094.575
2750.18486	3098.775
2752.76733	3087.775
2755.3482	3065.275
2757.92747	3062.275
2760.50515	3043.675
2763.08123	3048.275
2765.65573	3040.375
2768.22863	3038.975
2770.79994	3017.875
2773.36967	3037.075
2775.9378	3029.775
2778.50435	3027.675
2781.06932	3015.675
2783.6327	3020.975
2786.1945	2989.775
2788.75471	2997.875
2791.31335	2991.975
2793.87041	2990.975
2796.42589	2978.575
2798.97979	2987.375
2801.53212	2977.175
2804.08288	2983.175
2806.63206	2965.475
2809.17967	2953.175
2811.72571	2949.175
2814.27018	2926.675
2816.81308	2929.875
2819.35442	2936.175
2821.89419	2933.375
2824.43239	2916.275
2826.96904	2911.075
2829.50412	2900.775
2832.03763	2894.475
2834.56959	2891.675
2837.1	2878.475
2839.62884	2878.575
2842.15613	2870.375
2844.68186	2882.775
2847.20604	2866.175
2849.72867	2871.975
2852.24974	2864.575
2854.76927	2855.175
2857.28724	2847.775
2859.80367	2844.775
2862.31855	2845.375
2864.83189	2838.475
2867.34368	2834.175
2869.85393	2827.575
2872.36264	2834.175
2874.8698	2831.875
2877.37543	2832.775
2879.87952	2824.775
2882.38207	2815.475
2884.88308	2812.775
2887.38256	2820.775
2889.88051	2793.875
2892.37692	2809.475
2894.8718	2783.575
2897.36515	2782.575
2899.85698	2778.575
2902.34727	2798.375
2904.83604	2797.275
2907.32328	2788.375
2909.809	2806.375
2912.29319	2797.275
2914.77587	2804.775
2917.25702	2800.475
2919.73665	2812.475
2922.21476	2788.875
2924.69136	2793.375
2927.16644	2777.175
2929.64	2781.775
2932.11205	2773.675
2934.58258	2764.075
2937.05161	2770.875
2939.51912	2759.075
2941.98513	2760.175
2944.44962	2739.375
2946.91261	2742.475
2949.37409	2746.775
2951.83407	2741.275
2954.29254	2750.075
2956.74951	2730.075
2959.20498	2731.975
2961.65895	2728.275
2964.11142	2721.975
2966.56239	2725.375
2969.01186	2724.775
2971.45984	2710.775
2973.90632	2704.675
2976.35131	2714.675
2978.7948	2709.175
2981.23681	2694.275
2983.67732	2699.075
2986.11635	2686.075
2988.55388	2684.075
2990.98993	2668.875
2993.4245	2668.775
2995.85758	2673.975
2998.28917	2670.175
3000.71928	2651.675
3003.14791	2654.875
3005.57506	2647.075
3008.00073	2628.475
3010.42493	2638.175
3012.84764	2616.175
3015.26888	2615.975
3017.68865	2614.975
3020.10694	2610.375
3022.52376	2594.075
3024.9391	2591.175
3027.35298	2578.075
3029.76539	2582.275
3032.17632	2557.075
3034.5858	2555.575
3036.9938	2558.775
3039.40034	2553.375
3041.80542	2537.175
3044.20903	2530.975
3046.61118	2527.575
3049.01187	2520.375
3051.4111	2522.675
3053.80888	2509.675
3056.20519	2513.075
3058.60005	2512.575
3060.99345	2502.475
3063.3854	2501.375
3065.7759	2488.875
3068.16494	2483.675
3070.55254	2472.475
3072.93868	2466.375
3075.32338	2449.575
3077.70662	2464.075
3080.08842	2448.075
3082.46878	2449.775
3084.84769	2425.975
3087.22515	2428.875
3089.60118	2435.475
3091.97576	2433.575
3094.3489	2419.375
3096.72061	2419.775
3099.09087	2425.675
3101.4597	2409.175
3103.82709	2422.475
3106.19305	2415.975
3108.55757	2413.375
3110.92066	2393.375
3113.28232	2389.575
3115.64255	2389.275
3118.00134	2384.075
3120.35871	2388.275
3122.71466	2370.075
3125.06917	2357.075
3127.42226	2355.575
3129.77393	2368.175
3132.12417	2355.875
3134.47299	2356.075
3136.82039	2349.275
3139.16636	2356.875
3141.51092	2340.375
3143.85406	2339.575
3146.19579	2340.975
3148.53609	2339.975
3150.87499	2340.075
3153.21246	2338.075
3155.54853	2341.375
3157.88318	2334.675
3160.21642	2340.675
3162.54826	2343.375
3164.87868	2337.475
3167.2077	2314.375
3169.5353	2326.375
3171.86151	2321.875
3174.18631	2313.275
3176.5097	2317.175
3178.83169	2311.075
3181.15228	2307.275
3183.47147	2310.575
3185.78926	2301.175
3188.10565	2281.975
3190.42065	2288.675
3192.73424	2281.775
3195.04645	2281.275
3197.35725	2262.775
3199.66667	2263.875
3201.97469	2261.175
3204.28132	2263.475
3206.58656	2277.975
3208.8904	2273.975
3211.19287	2274.175
3213.49394	2271.075
3215.79363	2270.575
3218.09193	2255.475
3220.38884	2264.775
3222.68438	2268.175
3224.97853	2252.375
3227.2713	2259.075
3229.56269	2240.675
3231.8527	2239.375
3234.14133	2236.575
3236.42858	2235.075
