Data from AgNPs_UA_5uM_CRN_500uM_SU_RamanShift__234__12-08-23-186.txt Node

Date: Thu Aug 04 12:08:23 BST 2022
User: TCL
Spectrometer: QEP01345
Trigger mode: 4
Integration Time (sec): 1.000000E0
Scans to average: 10
Electric dark correction enabled: true
Nonlinearity correction enabled: false
Boxcar width: 0
XAxis mode: Raman Shifts
Number of Pixels in Spectrum: 1044
>>>>>Begin Spectral Data<<<<<
46.04893	-0.3875
50.45542	0.4125
54.85868	0.2125
59.25871	-0.3875
63.6555	-56.9875
68.04907	-40.7875
72.43941	-71.6875
76.82654	-54.2875
81.21044	-55.3875
85.59113	-48.8875
89.96862	-75.3875
94.34289	-55.8875
98.71396	-76.1875
103.08183	-57.4875
107.4465	-48.8875
111.80798	-56.3875
116.16626	-44.4875
120.52136	-73.7875
124.87327	-50.9875
129.222	-61.0875
133.56755	-50.3875
137.90993	-63.3875
142.24913	-51.7875
146.58517	-42.8875
150.91804	-42.7875
155.24774	-32.5875
159.57429	-12.0875
163.89768	-8.9875
168.21792	34.4125
172.53501	52.0125
176.84895	135.4125
181.15975	262.9125
185.46741	409.7125
189.77193	581.0125
194.07331	867.0125
198.37157	1144.0125
202.6667	1416.6125
206.9587	1721.2125
211.24758	2023.5125
215.53334	2339.8125
219.81599	2684.5125
224.09553	3088.6125
228.37195	3517.4125
232.64527	3954.3125
236.91549	4419.3125
241.18261	4747.8125
245.44663	5023.6125
249.70755	5193.8125
253.96539	5320.8125
258.22014	5407.9125
262.4718	5480.8125
266.72039	5518.1125
270.96589	5497.2125
275.20832	5395.4125
279.44768	5283.7125
283.68397	5174.4125
287.91719	5123.5125
292.14735	5172.1125
296.37445	5344.7125
300.59849	5638.0125
304.81948	5969.3125
309.03742	6323.8125
313.25231	6572.2125
317.46415	6532.3125
321.67296	6152.5125
325.87872	5758.3125
330.08145	5551.6125
334.28114	5491.6125
338.47781	5555.9125
342.67145	5689.1125
346.86207	5912.2125
351.04966	6288.7125
355.23424	6640.4125
359.4158	6919.8125
363.59435	6948.0125
367.76989	6896.3125
371.94243	6779.4125
376.11196	6637.9125
380.27849	6573.8125
384.44203	6500.7125
388.60257	6448.2125
392.76012	6478.4125
396.91468	6589.5125
401.06626	6747.0125
405.21485	6769.2125
409.36047	6634.3125
413.50311	6290.6125
417.64277	6007.9125
421.77947	5809.4125
425.9132	5749.6125
430.04396	5727.4125
434.17176	5768.1125
438.2966	5850.1125
442.41849	5924.6125
446.53742	6041.9125
450.6534	6142.5125
454.76644	6216.6125
458.87653	6214.7125
462.98368	6191.6125
467.08789	6110.6125
471.18916	6027.4125
475.2875	5921.1125
479.38291	5810.3125
483.4754	5701.7125
487.56496	5690.6125
491.6516	5656.2125
495.73531	5663.6125
499.81612	5683.4125
503.89401	5748.1125
507.96899	5816.4125
512.04106	5902.0125
516.11023	6003.6125
520.1765	6074.6125
524.23987	6108.0125
528.30034	6111.2125
532.35792	6018.1125
536.41261	5960.0125
540.46441	5863.9125
544.51333	5835.6125
548.55936	5868.5125
552.60252	5983.8125
556.64279	6099.1125
560.6802	6210.1125
564.71473	6348.3125
568.7464	6527.9125
572.7752	6497.1125
576.80114	6217.0125
580.82422	5995.2125
584.84444	5890.5125
588.86181	5864.8125
592.87633	5899.3125
596.888	6006.1125
600.89682	6370.8125
604.9028	7341.5125
608.90594	9395.0125
612.90624	11715.2125
616.90371	10844.2125
620.89834	7829.5125
624.89015	6506.6125
628.87913	6304.3125
632.86528	6459.8125
636.84862	6618.4125
640.82913	6486.4125
644.80683	6133.2125
648.78172	5940.5125
652.75379	5976.9125
656.72306	6228.2125
660.68952	6437.2125
664.65319	6346.4125
668.61405	6137.4125
672.57211	6067.3125
676.52738	6045.6125
680.47986	5956.5125
684.42955	5867.1125
688.37646	5824.8125
692.32058	5816.4125
696.26192	5904.4125
700.20048	5997.9125
704.13626	6030.7125
708.06928	5998.6125
711.99952	5950.4125
715.927	5943.2125
719.85171	5968.1125
723.77365	6025.8125
727.69284	5993.1125
731.60928	5989.1125
735.52295	5944.1125
739.43388	5978.4125
743.34206	6012.0125
747.24749	6047.4125
751.15017	6041.5125
755.05012	6128.6125
758.94733	6492.1125
762.8418	7327.8125
766.73354	8652.9125
770.62254	9661.7125
774.50882	9741.4125
778.39237	9223.9125
782.27321	8293.9125
786.15132	7252.5125
790.02671	6577.1125
793.89938	6211.6125
797.76935	6093.6125
801.6366	5988.7125
805.50115	5960.2125
809.36299	5940.2125
813.22213	5941.5125
817.07857	5931.7125
820.93231	5941.8125
824.78336	5974.4125
828.63172	5966.4125
832.47738	5984.4125
836.32036	5992.4125
840.16066	5947.9125
843.99827	5921.8125
847.8332	5923.8125
851.66546	5928.9125
855.49504	5920.0125
859.32195	5965.0125
863.1462	5946.6125
866.96777	5958.7125
870.78668	5943.1125
874.60293	5952.8125
878.41652	5981.4125
882.22745	6049.6125
886.03573	6081.2125
889.84136	6075.0125
893.64433	6091.6125
897.44466	6057.1125
901.24235	6069.8125
905.0374	6064.5125
908.8298	6000.9125
912.61957	5949.5125
916.40671	5926.9125
920.19121	5986.7125
923.97308	6069.8125
927.75233	6127.7125
931.52895	6199.1125
935.30295	6146.3125
939.07433	6002.6125
942.84309	5899.0125
946.60924	5846.5125
950.37278	5825.7125
954.13371	5822.8125
957.89203	5802.6125
961.64774	5815.3125
965.40086	5810.0125
969.15137	5779.6125
972.89929	5831.8125
976.64461	5799.0125
980.38733	5825.4125
984.12747	5826.1125
987.86502	5843.0125
991.59999	5855.2125
995.33237	5946.4125
999.06217	6010.0125
1002.78939	6064.9125
1006.51404	6192.0125
1010.23611	6330.4125
1013.95561	6379.7125
1017.67255	6352.6125
1021.38692	6326.4125
1025.09872	6269.5125
1028.80796	6194.4125
1032.51465	6200.4125
1036.21877	6181.8125
1039.92035	6225.7125
1043.61937	6273.6125
1047.31584	6323.9125
1051.00976	6354.7125
1054.70114	6340.2125
1058.38998	6365.4125
1062.07627	6354.5125
1065.76003	6401.3125
1069.44126	6462.4125
1073.11995	6546.4125
1076.79611	6677.9125
1080.46974	6813.7125
1084.14085	6988.1125
1087.80943	7115.2125
1091.47549	7138.7125
1095.13903	7070.7125
1098.80005	6929.1125
1102.45857	6839.2125
1106.11456	6798.6125
1109.76805	6741.1125
1113.41903	6876.6125
1117.06751	7054.5125
1120.71348	7301.6125
1124.35696	7690.1125
1127.99793	7958.1125
1131.63641	7798.8125
1135.2724	7399.9125
1138.90589	7102.7125
1142.5369	6932.5125
1146.16542	6777.8125
1149.79145	6664.7125
1153.415	6644.4125
1157.03607	6647.6125
1160.65467	6724.7125
1164.27079	6965.6125
1167.88443	7211.4125
1171.49561	7642.9125
1175.10432	8236.4125
1178.71056	9147.0125
1182.31434	9929.6125
1185.91565	10168.0125
1189.51451	10040.9125
1193.11091	9779.7125
1196.70485	9539.0125
1200.29634	9304.4125
1203.88538	9033.0125
1207.47197	8570.0125
1211.05612	8096.0125
1214.63782	7686.5125
1218.21708	7421.9125
1221.79391	7285.2125
1225.36829	7208.3125
1228.94024	7202.9125
1232.50976	7218.3125
1236.07685	7267.1125
1239.6415	7288.2125
1243.20374	7315.8125
1246.76355	7325.8125
1250.32093	7387.5125
1253.8759	7461.8125
1257.42845	7620.5125
1260.97859	7825.2125
1264.52631	8082.3125
1268.07163	8227.3125
1271.61453	8358.1125
1275.15503	8431.3125
1278.69312	8415.1125
1282.22882	8466.2125
1285.76211	8681.3125
1289.29301	8929.4125
1292.82151	9165.0125
1296.34761	9402.8125
1299.87133	9789.1125
1303.39266	10501.1125
1306.9116	11638.8125
1310.42815	12856.7125
1313.94233	13284.2125
1317.45412	12497.9125
1320.96354	11379.1125
1324.47058	10386.7125
1327.97525	9633.5125
1331.47754	9224.7125
1334.97747	9103.7125
1338.47502	9223.5125
1341.97022	9587.9125
1345.46305	10294.5125
1348.95352	11399.5125
1352.44163	12682.6125
1355.92738	14031.9125
1359.41078	15708.4125
1362.89183	17224.3125
1366.37053	16609.9125
1369.84688	13782.6125
1373.32088	11092.4125
1376.79254	9675.4125
1380.26186	9017.0125
1383.72883	8577.0125
1387.19347	8194.7125
1390.65578	7821.1125
1394.11575	7602.4125
1397.57339	7440.2125
1401.0287	7321.2125
1404.48168	7274.4125
1407.93234	7292.7125
1411.38068	7308.8125
1414.82669	7390.0125
1418.27039	7496.2125
1421.71177	7464.6125
1425.15083	7356.1125
1428.58758	7271.1125
1432.02203	7317.1125
1435.45416	7400.4125
1438.88399	7381.2125
1442.31151	7381.3125
1445.73673	7438.0125
1449.15965	7482.3125
1452.58027	7508.0125
1455.9986	7512.7125
1459.41463	7514.0125
1462.82837	7606.6125
1466.23982	7788.4125
1469.64898	8014.4125
1473.05586	8139.7125
1476.46045	8255.4125
1479.86276	8320.2125
1483.26279	8425.9125
1486.66054	8634.5125
1490.05602	8912.7125
1493.44922	9463.7125
1496.84016	10325.7125
1500.22882	11701.7125
1503.61521	13425.7125
1506.99934	15225.8125
1510.38121	16399.7125
1513.76081	16247.9125
1517.13816	14723.0125
1520.51324	12605.3125
1523.88607	10875.6125
1527.25665	9879.5125
1530.62498	9383.5125
1533.99105	9175.3125
1537.35488	9076.4125
1540.71647	8961.0125
1544.07581	8836.4125
1547.4329	8688.6125
1550.78776	8577.7125
1554.14038	8484.9125
1557.49077	8458.7125
1560.83892	8576.6125
1564.18484	8784.4125
1567.52853	9109.4125
1570.86999	9434.1125
1574.20922	9579.0125
1577.54624	9474.8125
1580.88103	8939.9125
1584.2136	8267.3125
1587.54395	7901.4125
1590.87208	7813.0125
1594.19801	7976.0125
1597.52172	8344.6125
1600.84321	8476.9125
1604.16251	8338.9125
1607.47959	8130.8125
1610.79447	7976.7125
1614.10715	7694.3125
1617.41763	7390.6125
1620.7259	7112.8125
1624.03199	6956.0125
1627.33587	6888.0125
1630.63757	6947.7125
1633.93707	7183.0125
1637.23439	7577.8125
1640.52951	8252.9125
1643.82246	9224.3125
1647.11321	10391.2125
1650.40179	11121.2125
1653.68819	10777.3125
1656.97241	9562.1125
1660.25446	8170.8125
1663.53433	7198.4125
1666.81203	6569.0125
1670.08756	6240.4125
1673.36092	6070.3125
1676.63211	5920.7125
1679.90115	5829.9125
1683.16801	5750.5125
1686.43272	5679.3125
1689.69527	5618.1125
1692.95567	5569.7125
1696.2139	5543.0125
1699.46999	5499.2125
1702.72392	5500.5125
1705.97571	5517.2125
1709.22535	5482.0125
1712.47284	5529.6125
1715.71819	5527.8125
1718.96139	5509.5125
1722.20246	5510.4125
1725.44139	5486.3125
1728.67818	5451.7125
1731.91284	5414.0125
1735.14537	5367.9125
1738.37576	5349.6125
1741.60403	5316.4125
1744.83017	5293.7125
1748.05418	5297.4125
1751.27607	5293.2125
1754.49584	5271.0125
1757.71349	5228.4125
1760.92903	5236.2125
1764.14244	5200.1125
1767.35375	5190.0125
1770.56294	5166.5125
1773.77002	5151.7125
1776.97499	5169.6125
1780.17785	5139.7125
1783.37861	5136.7125
1786.57727	5154.0125
1789.77382	5098.7125
1792.96828	5104.6125
1796.16064	5124.7125
1799.3509	5097.6125
1802.53907	5117.5125
1805.72514	5069.1125
1808.90913	5044.4125
1812.09102	5059.4125
1815.27083	5046.5125
1818.44856	5028.6125
1821.6242	5025.2125
1824.79776	5008.3125
1827.96924	5002.6125
1831.13864	4986.8125
1834.30597	4982.6125
1837.47122	4957.1125
1840.6344	4945.1125
1843.7955	4952.5125
1846.95454	4936.0125
1850.11151	4966.7125
1853.26642	4921.4125
1856.41926	4915.4125
1859.57004	4912.2125
1862.71876	4899.2125
1865.86542	4904.2125
1869.01003	4909.2125
1872.15258	4875.5125
1875.29308	4916.2125
1878.43152	4901.5125
1881.56792	4877.3125
1884.70227	4864.4125
1887.83457	4867.3125
1890.96482	4838.4125
1894.09304	4826.7125
1897.21921	4821.8125
1900.34335	4822.1125
1903.46544	4814.0125
1906.58551	4843.5125
1909.70353	4817.0125
1912.81953	4812.5125
1915.93349	4797.4125
1919.04543	4802.5125
1922.15534	4780.8125
1925.26322	4772.2125
1928.36908	4764.4125
1931.47292	4766.4125
1934.57473	4772.6125
1937.67453	4737.6125
1940.77232	4708.2125
1943.86808	4707.8125
1946.96184	4700.4125
1950.05358	4674.4125
1953.14331	4651.3125
1956.23103	4665.8125
1959.31675	4616.0125
1962.40046	4589.0125
1965.48217	4607.8125
1968.56188	4600.6125
1971.63959	4578.7125
1974.7153	4576.1125
1977.78901	4575.3125
1980.86073	4549.6125
1983.93046	4504.8125
1986.99819	4447.8125
1990.06394	4454.5125
1993.1277	4461.2125
1996.18947	4461.4125
1999.24925	4416.1125
2002.30706	4403.9125
2005.36288	4413.9125
2008.41672	4390.3125
2011.46859	4366.4125
2014.51848	4363.6125
2017.56639	4336.5125
2020.61233	4319.8125
2023.6563	4315.9125
2026.6983	4292.4125
2029.73833	4292.9125
2032.7764	4292.3125
2035.8125	4236.3125
2038.84664	4233.4125
2041.87881	4243.6125
2044.90903	4237.4125
2047.93729	4236.4125
2050.96359	4201.4125
2053.98794	4215.2125
2057.01034	4229.2125
2060.03078	4200.8125
2063.04927	4199.8125
2066.06582	4191.5125
2069.08042	4177.3125
2072.09307	4191.6125
2075.10378	4174.3125
2078.11255	4173.0125
2081.11938	4175.3125
2084.12426	4165.2125
2087.12722	4156.3125
2090.12824	4161.4125
2093.12732	4149.4125
2096.12447	4162.0125
2099.11969	4151.6125
2102.11299	4153.2125
2105.10435	4171.4125
2108.09379	4150.9125
2111.08131	4135.4125
2114.0669	4143.8125
2117.05057	4153.0125
2120.03233	4142.6125
2123.01216	4165.5125
2125.99008	4168.9125
2128.96609	4160.9125
2131.94018	4168.8125
2134.91236	4184.2125
2137.88263	4151.9125
2140.851	4171.2125
2143.81746	4185.9125
2146.78201	4171.5125
2149.74466	4140.4125
2152.7054	4174.6125
2155.66425	4159.0125
2158.6212	4136.2125
2161.57625	4124.4125
2164.52941	4111.9125
2167.48067	4117.6125
2170.43004	4122.1125
2173.37752	4127.5125
2176.32311	4120.3125
2179.26681	4124.1125
2182.20863	4125.4125
2185.14856	4132.7125
2188.08661	4121.4125
2191.02278	4146.8125
2193.95707	4107.4125
2196.88948	4088.2125
2199.82001	4117.8125
2202.74867	4098.9125
2205.67545	4091.3125
2208.60037	4095.6125
2211.52341	4072.6125
2214.44458	4072.6125
2217.36388	4063.6125
2220.28132	4045.4125
2223.1969	4019.1125
2226.11061	4033.5125
2229.02246	4005.6125
2231.93245	4013.3125
2234.84058	3986.6125
2237.74686	3978.4125
2240.65128	3983.7125
2243.55385	3973.0125
2246.45456	3954.5125
2249.35343	3979.4125
2252.25044	3948.1125
2255.14561	3958.7125
2258.03893	3961.3125
2260.93041	3944.0125
2263.82004	3929.5125
2266.70783	3944.1125
2269.59378	3910.9125
2272.4779	3897.4125
2275.36017	3899.5125
2278.24061	3881.5125
2281.11922	3845.3125
2283.996	3872.1125
2286.87094	3858.5125
2289.74405	3867.6125
2292.61534	3845.4125
2295.4848	3830.2125
2298.35243	3816.0125
2301.21824	3810.6125
2304.08223	3822.9125
2306.94439	3826.8125
2309.80474	3819.6125
2312.66327	3815.0125
2315.51999	3801.4125
2318.37489	3801.5125
2321.22797	3785.5125
2324.07925	3786.1125
2326.92871	3752.7125
2329.77637	3732.2125
2332.62222	3762.0125
2335.46626	3720.8125
2338.3085	3719.9125
2341.14893	3731.6125
2343.98756	3746.8125
2346.8244	3713.5125
2349.65943	3728.2125
2352.49267	3717.7125
2355.32411	3727.7125
2358.15376	3731.5125
2360.98161	3723.3125
2363.80768	3707.1125
2366.63195	3718.2125
2369.45444	3716.6125
2372.27514	3714.7125
2375.09405	3733.3125
2377.91118	3690.6125
2380.72652	3679.6125
2383.54009	3682.5125
2386.35187	3696.4125
2389.16188	3657.7125
2391.97011	3651.4125
2394.77657	3638.7125
2397.58125	3634.5125
2400.38416	3622.7125
2403.18529	3617.5125
2405.98466	3590.1125
2408.78226	3594.2125
2411.57809	3591.0125
2414.37216	3581.8125
2417.16446	3570.2125
2419.955	3549.9125
2422.74378	3571.3125
2425.5308	3559.5125
2428.31606	3554.6125
2431.09956	3568.2125
2433.88131	3540.4125
2436.6613	3550.1125
2439.43954	3553.4125
2442.21603	3536.9125
2444.99077	3527.2125
2447.76377	3541.5125
2450.53501	3523.4125
2453.30451	3524.6125
2456.07226	3534.7125
2458.83827	3523.7125
2461.60254	3472.8125
2464.36507	3516.8125
2467.12586	3481.1125
2469.88492	3489.0125
2472.64224	3494.9125
2475.39782	3472.9125
2478.15167	3477.2125
2480.90379	3478.3125
2483.65417	3486.8125
2486.40283	3500.4125
2489.14976	3506.8125
2491.89497	3498.7125
2494.63845	3488.3125
2497.3802	3479.4125
2500.12024	3480.3125
2502.85855	3459.8125
2505.59514	3461.3125
2508.33002	3457.4125
2511.06318	3410.6125
2513.79462	3436.2125
2516.52435	3399.9125
2519.25237	3391.5125
2521.97867	3377.6125
2524.70327	3397.0125
2527.42616	3383.5125
2530.14734	3393.3125
2532.86681	3369.2125
2535.58458	3376.1125
2538.30065	3371.1125
2541.01501	3371.4125
2543.72768	3360.9125
2546.43864	3365.0125
2549.14791	3344.1125
2551.85548	3323.8125
2554.56136	3327.3125
2557.26554	3328.0125
2559.96803	3319.6125
2562.66883	3331.9125
2565.36794	3305.0125
2568.06536	3271.4125
2570.7611	3296.4125
2573.45514	3291.1125
2576.14751	3271.2125
2578.83819	3255.9125
2581.52719	3253.0125
2584.21451	3246.3125
2586.90015	3233.7125
2589.58411	3216.4125
2592.2664	3230.3125
2594.94701	3236.7125
2597.62594	3228.9125
2600.30321	3164.8125
2602.9788	3179.1125
2605.65273	3180.3125
2608.32498	3180.8125
2610.99557	3204.4125
2613.66449	3166.3125
2616.33175	3183.5125
2618.99734	3189.3125
2621.66128	3187.2125
2624.32355	3159.4125
2626.98416	3141.2125
2629.64311	3134.6125
2632.30041	3137.4125
2634.95605	3128.0125
2637.61004	3103.2125
2640.26238	3081.6125
2642.91306	3110.2125
2645.56209	3108.4125
2648.20948	3108.8125
2650.85521	3096.6125
2653.4993	3104.5125
2656.14175	3098.0125
2658.78255	3089.0125
2661.42171	3057.5125
2664.05923	3095.2125
2666.6951	3119.2125
2669.32934	3099.9125
2671.96194	3109.0125
2674.59291	3106.9125
2677.22224	3103.7125
2679.84993	3103.3125
2682.476	3096.1125
2685.10043	3088.3125
2687.72324	3070.7125
2690.34441	3077.8125
2692.96396	3074.0125
2695.58188	3088.4125
2698.19818	3083.0125
2700.81285	3067.7125
2703.4259	3058.9125
2706.03733	3037.6125
2708.64714	3026.5125
2711.25533	3055.1125
2713.86191	3066.5125
2716.46687	3064.0125
2719.07021	3073.0125
2721.67194	3051.2125
2724.27206	3069.1125
2726.87057	3053.3125
2729.46747	3046.0125
2732.06276	3057.5125
2734.65644	3032.6125
2737.24852	3034.6125
2739.83899	3017.4125
2742.42786	3028.0125
2745.01513	3019.9125
2747.60079	3006.8125
2750.18486	2989.5125
2752.76733	3007.5125
2755.3482	2999.2125
2757.92747	2989.1125
2760.50515	2979.8125
2763.08123	2978.7125
2765.65573	2968.2125
2768.22863	2968.4125
2770.79994	2947.9125
2773.36967	2954.2125
2775.9378	2943.9125
2778.50435	2943.8125
2781.06932	2933.0125
2783.6327	2925.0125
2786.1945	2943.2125
2788.75471	2928.6125
2791.31335	2914.4125
2793.87041	2918.8125
2796.42589	2908.8125
2798.97979	2903.4125
2801.53212	2908.6125
2804.08288	2905.5125
2806.63206	2886.3125
2809.17967	2871.5125
2811.72571	2890.0125
2814.27018	2866.8125
2816.81308	2864.1125
2819.35442	2843.1125
2821.89419	2838.6125
2824.43239	2831.6125
2826.96904	2863.0125
2829.50412	2841.6125
2832.03763	2838.2125
2834.56959	2842.0125
2837.1	2823.0125
2839.62884	2838.5125
2842.15613	2817.8125
2844.68186	2841.7125
2847.20604	2811.6125
2849.72867	2804.0125
2852.24974	2812.4125
2854.76927	2776.1125
2857.28724	2735.2125
2859.80367	2797.9125
2862.31855	2793.5125
2864.83189	2784.2125
2867.34368	2798.9125
2869.85393	2803.4125
2872.36264	2773.8125
2874.8698	2774.1125
2877.37543	2779.1125
2879.87952	2774.5125
2882.38207	2753.0125
2884.88308	2762.2125
2887.38256	2755.8125
2889.88051	2762.8125
2892.37692	2763.6125
2894.8718	2737.7125
2897.36515	2761.5125
2899.85698	2735.5125
2902.34727	2750.1125
2904.83604	2752.9125
2907.32328	2771.2125
2909.809	2762.9125
2912.29319	2758.5125
2914.77587	2761.3125
2917.25702	2785.2125
2919.73665	2787.3125
2922.21476	2779.2125
2924.69136	2769.4125
2927.16644	2754.2125
2929.64	2761.7125
2932.11205	2747.1125
2934.58258	2742.2125
2937.05161	2734.1125
2939.51912	2738.6125
2941.98513	2751.2125
2944.44962	2726.8125
2946.91261	2700.7125
2949.37409	2701.9125
2951.83407	2704.1125
2954.29254	2699.6125
2956.74951	2711.5125
2959.20498	2676.3125
2961.65895	2687.0125
2964.11142	2675.1125
2966.56239	2679.9125
2969.01186	2684.9125
2971.45984	2670.7125
2973.90632	2665.5125
2976.35131	2674.2125
2978.7948	2664.0125
2981.23681	2652.1125
2983.67732	2659.9125
2986.11635	2635.0125
2988.55388	2613.2125
2990.98993	2635.2125
2993.4245	2607.8125
2995.85758	2597.3125
2998.28917	2602.0125
3000.71928	2590.6125
3003.14791	2584.5125
3005.57506	2585.1125
3008.00073	2564.6125
3010.42493	2498.8125
3012.84764	2567.2125
3015.26888	2563.6125
3017.68865	2559.6125
3020.10694	2501.1125
3022.52376	2513.9125
3024.9391	2522.9125
3027.35298	2510.8125
3029.76539	2493.2125
3032.17632	2504.2125
3034.5858	2485.0125
3036.9938	2491.3125
3039.40034	2485.3125
3041.80542	2482.6125
3044.20903	2461.5125
3046.61118	2460.3125
3049.01187	2470.6125
3051.4111	2446.8125
3053.80888	2436.9125
3056.20519	2440.9125
3058.60005	2419.0125
3060.99345	2443.3125
3063.3854	2420.6125
3065.7759	2412.0125
3068.16494	2409.4125
3070.55254	2378.1125
3072.93868	2405.0125
3075.32338	2389.3125
3077.70662	2390.5125
3080.08842	2371.3125
3082.46878	2363.1125
3084.84769	2375.0125
3087.22515	2353.7125
3089.60118	2368.7125
3091.97576	2350.1125
3094.3489	2351.8125
3096.72061	2354.6125
3099.09087	2338.9125
3101.4597	2360.6125
3103.82709	2348.3125
3106.19305	2332.7125
3108.55757	2329.6125
3110.92066	2317.0125
3113.28232	2328.3125
3115.64255	2318.7125
3118.00134	2317.0125
3120.35871	2295.5125
3122.71466	2289.6125
