Data from AgNPs_UA_10uM_CRN_500uM_SU_RamanShift__101__13-22-10-273.txt Node

Date: Thu Aug 04 13:22:10 BST 2022
User: TCL
Spectrometer: QEP01345
Trigger mode: 4
Integration Time (sec): 1.000000E0
Scans to average: 10
Electric dark correction enabled: true
Nonlinearity correction enabled: false
Boxcar width: 0
XAxis mode: Raman Shifts
Number of Pixels in Spectrum: 1044
>>>>>Begin Spectral Data<<<<<
46.04893	0.325
50.45542	0.225
54.85868	0.625
59.25871	1.125
63.6555	20.925
68.04907	19.625
72.43941	21.925
76.82654	23.025
81.21044	23.225
85.59113	25.725
89.96862	26.825
94.34289	25.925
98.71396	27.025
103.08183	31.125
107.4465	28.425
111.80798	27.525
116.16626	31.225
120.52136	33.625
124.87327	34.825
129.222	39.225
133.56755	39.925
137.90993	43.525
142.24913	47.725
146.58517	54.825
150.91804	61.325
155.24774	78.325
159.57429	98.425
163.89768	126.925
168.21792	170.025
172.53501	233.025
176.84895	332.025
181.15975	470.325
185.46741	670.925
189.77193	924.525
194.07331	1245.525
198.37157	1606.325
202.6667	1982.125
206.9587	2368.225
211.24758	2745.725
215.53334	3137.325
219.81599	3540.725
224.09553	4009.725
228.37195	4514.525
232.64527	5047.425
236.91549	5609.125
241.18261	6102.525
245.44663	6543.725
249.70755	6861.125
253.96539	7166.225
258.22014	7424.525
262.4718	7645.725
266.72039	7801.625
270.96589	7834.425
275.20832	7799.325
279.44768	7713.525
283.68397	7604.625
287.91719	7509.125
292.14735	7511.625
296.37445	7599.025
300.59849	7786.025
304.81948	8037.825
309.03742	8266.725
313.25231	8378.025
317.46415	8307.125
321.67296	8048.825
325.87872	7776.225
330.08145	7637.325
334.28114	7642.125
338.47781	7692.425
342.67145	7846.925
346.86207	8039.025
351.04966	8329.025
355.23424	8615.025
359.4158	8854.825
363.59435	8972.025
367.76989	9039.125
371.94243	9025.725
376.11196	9028.025
380.27849	9002.925
384.44203	9061.625
388.60257	9115.825
392.76012	9174.725
396.91468	9317.425
401.06626	9424.725
405.21485	9481.925
409.36047	9403.925
413.50311	9165.725
417.64277	8911.625
421.77947	8766.225
425.9132	8698.525
430.04396	8669.825
434.17176	8746.325
438.2966	8822.325
442.41849	8998.625
446.53742	9195.625
450.6534	9381.125
454.76644	9485.925
458.87653	9548.925
462.98368	9560.825
467.08789	9492.425
471.18916	9368.625
475.2875	9206.725
479.38291	9068.625
483.4754	8918.225
487.56496	8857.325
491.6516	8827.025
495.73531	8824.325
499.81612	8869.125
503.89401	8948.925
507.96899	9001.625
512.04106	9054.525
516.11023	9101.825
520.1765	9168.225
524.23987	9154.925
528.30034	9188.525
532.35792	9187.825
536.41261	9119.825
540.46441	9000.125
544.51333	8969.025
548.55936	9044.025
552.60252	9158.825
556.64279	9304.725
560.6802	9440.825
564.71473	9504.025
568.7464	9572.425
572.7752	9539.525
576.80114	9351.425
580.82422	9192.225
584.84444	9162.525
588.86181	9195.925
592.87633	9248.525
596.888	9428.925
600.89682	9789.025
604.9028	10785.425
608.90594	12746.525
612.90624	14677.725
616.90371	13619.225
620.89834	10900.525
624.89015	9796.825
628.87913	9698.125
632.86528	9872.425
636.84862	9959.625
640.82913	9743.625
644.80683	9480.625
648.78172	9312.825
652.75379	9310.425
656.72306	9523.625
660.68952	9768.525
664.65319	9711.225
668.61405	9589.125
672.57211	9677.425
676.52738	9677.025
680.47986	9499.725
684.42955	9317.725
688.37646	9266.925
692.32058	9356.825
696.26192	9521.925
700.20048	9679.925
704.13626	9691.725
708.06928	9625.625
711.99952	9493.225
715.927	9485.525
719.85171	9554.125
723.77365	9573.025
727.69284	9504.025
731.60928	9440.225
735.52295	9405.425
739.43388	9470.125
743.34206	9509.125
747.24749	9524.525
751.15017	9519.425
755.05012	9598.425
758.94733	9892.125
762.8418	10622.425
766.73354	11697.825
770.62254	12546.525
774.50882	12759.425
778.39237	12404.525
782.27321	11678.125
786.15132	10772.125
790.02671	10173.225
793.89938	9842.625
797.76935	9652.425
801.6366	9549.625
805.50115	9526.625
809.36299	9497.925
813.22213	9455.625
817.07857	9463.925
820.93231	9464.425
824.78336	9441.325
828.63172	9486.125
832.47738	9498.825
836.32036	9487.225
840.16066	9485.125
843.99827	9483.325
847.8332	9467.525
851.66546	9480.125
855.49504	9520.225
859.32195	9527.725
863.1462	9511.325
866.96777	9506.625
870.78668	9530.225
874.60293	9564.825
878.41652	9609.225
882.22745	9671.525
886.03573	9745.825
889.84136	9719.425
893.64433	9676.425
897.44466	9656.925
901.24235	9617.525
905.0374	9581.225
908.8298	9573.025
912.61957	9566.525
916.40671	9555.425
920.19121	9592.325
923.97308	9659.125
927.75233	9746.125
931.52895	9821.025
935.30295	9773.225
939.07433	9623.425
942.84309	9523.325
946.60924	9519.025
950.37278	9472.525
954.13371	9474.625
957.89203	9471.125
961.64774	9456.525
965.40086	9455.225
969.15137	9431.725
972.89929	9445.225
976.64461	9459.625
980.38733	9464.625
984.12747	9487.925
987.86502	9543.825
991.59999	9598.825
995.33237	9681.025
999.06217	9850.125
1002.78939	10032.925
1006.51404	10244.325
1010.23611	10414.625
1013.95561	10520.325
1017.67255	10536.825
1021.38692	10546.225
1025.09872	10433.825
1028.80796	10332.925
1032.51465	10339.625
1036.21877	10406.125
1039.92035	10411.925
1043.61937	10420.025
1047.31584	10393.025
1051.00976	10351.025
1054.70114	10320.025
1058.38998	10330.425
1062.07627	10377.425
1065.76003	10455.325
1069.44126	10566.025
1073.11995	10786.625
1076.79611	11066.925
1080.46974	11221.325
1084.14085	11272.225
1087.80943	11366.525
1091.47549	11462.025
1095.13903	11538.625
1098.80005	11553.725
1102.45857	11528.925
1106.11456	11399.825
1109.76805	11184.125
1113.41903	11113.325
1117.06751	11197.425
1120.71348	11364.425
1124.35696	11533.425
1127.99793	11676.125
1131.63641	11563.425
1135.2724	11288.825
1138.90589	11105.125
1142.5369	10965.225
1146.16542	10969.525
1149.79145	10911.025
1153.415	10781.625
1157.03607	10645.725
1160.65467	10671.425
1164.27079	10838.125
1167.88443	11150.125
1171.49561	11613.425
1175.10432	12295.025
1178.71056	13204.025
1182.31434	14000.825
1185.91565	14345.925
1189.51451	14345.625
1193.11091	14172.325
1196.70485	13920.225
1200.29634	13660.225
1203.88538	13342.925
1207.47197	12980.125
1211.05612	12616.125
1214.63782	12361.625
1218.21708	12085.425
1221.79391	11802.725
1225.36829	11650.625
1228.94024	11573.525
1232.50976	11513.325
1236.07685	11463.325
1239.6415	11480.925
1243.20374	11533.325
1246.76355	11626.525
1250.32093	11778.225
1253.8759	12038.825
1257.42845	12407.825
1260.97859	12790.325
1264.52631	13073.325
1268.07163	13266.025
1271.61453	13427.625
1275.15503	13497.225
1278.69312	13532.325
1282.22882	13537.325
1285.76211	13559.325
1289.29301	13664.125
1292.82151	13898.525
1296.34761	14120.525
1299.87133	14526.125
1303.39266	15231.725
1306.9116	16267.125
1310.42815	17374.425
1313.94233	17837.425
1317.45412	17433.125
1320.96354	16692.625
1324.47058	15847.125
1327.97525	15129.525
1331.47754	14655.725
1334.97747	14477.325
1338.47502	14648.725
1341.97022	15111.225
1345.46305	15911.425
1348.95352	16984.125
1352.44163	18076.025
1355.92738	19100.425
1359.41078	20218.225
1362.89183	21013.525
1366.37053	20043.525
1369.84688	17604.325
1373.32088	15359.925
1376.79254	14082.725
1380.26186	13488.325
1383.72883	13132.525
1387.19347	12796.625
1390.65578	12451.125
1394.11575	12148.225
1397.57339	11904.025
1401.0287	11805.025
1404.48168	11819.725
1407.93234	11900.225
1411.38068	12061.825
1414.82669	12183.225
1418.27039	12195.825
1421.71177	12138.425
1425.15083	12059.525
1428.58758	12020.325
1432.02203	12078.825
1435.45416	12196.825
1438.88399	12243.225
1442.31151	12274.825
1445.73673	12287.225
1449.15965	12343.025
1452.58027	12318.125
1455.9986	12240.725
1459.41463	12257.525
1462.82837	12355.725
1466.23982	12542.925
1469.64898	12709.125
1473.05586	12886.425
1476.46045	12981.525
1479.86276	13071.425
1483.26279	13204.525
1486.66054	13403.125
1490.05602	13674.725
1493.44922	14145.725
1496.84016	14887.725
1500.22882	15969.425
1503.61521	17320.125
1506.99934	18567.625
1510.38121	19235.025
1513.76081	18940.025
1517.13816	17675.125
1520.51324	16108.725
1523.88607	14866.925
1527.25665	14124.425
1530.62498	13727.125
1533.99105	13520.225
1537.35488	13434.025
1540.71647	13345.625
1544.07581	13324.125
1547.4329	13244.725
1550.78776	13118.025
1554.14038	12949.725
1557.49077	12822.625
1560.83892	12895.825
1564.18484	13103.125
1567.52853	13341.525
1570.86999	13504.025
1574.20922	13550.625
1577.54624	13371.825
1580.88103	12945.925
1584.2136	12426.425
1587.54395	12201.325
1590.87208	12291.925
1594.19801	12747.425
1597.52172	13292.525
1600.84321	13586.225
1604.16251	13579.425
1607.47959	13371.625
1610.79447	12914.125
1614.10715	12280.225
1617.41763	11638.825
1620.7259	11175.325
1624.03199	10931.425
1627.33587	10891.525
1630.63757	11016.125
1633.93707	11357.725
1637.23439	11974.325
1640.52951	12909.825
1643.82246	14142.825
1647.11321	15221.225
1650.40179	15658.125
1653.68819	14917.425
1656.97241	13393.325
1660.25446	11898.925
1663.53433	10918.125
1666.81203	10331.625
1670.08756	9951.325
1673.36092	9751.125
1676.63211	9598.625
1679.90115	9478.925
1683.16801	9383.825
1686.43272	9314.625
1689.69527	9271.225
1692.95567	9230.425
1696.2139	9199.225
1699.46999	9165.525
1702.72392	9134.725
1705.97571	9151.725
1709.22535	9136.825
1712.47284	9133.825
1715.71819	9122.125
1718.96139	9103.425
1722.20246	9104.225
1725.44139	9081.525
1728.67818	9020.625
1731.91284	8987.825
1735.14537	8964.425
1738.37576	8924.425
1741.60403	8888.125
1744.83017	8878.025
1748.05418	8874.825
1751.27607	8841.225
1754.49584	8834.025
1757.71349	8806.225
1760.92903	8807.225
1764.14244	8775.625
1767.35375	8766.425
1770.56294	8762.125
1773.77002	8738.525
1776.97499	8706.925
1780.17785	8683.125
1783.37861	8670.825
1786.57727	8659.025
1789.77382	8673.225
1792.96828	8621.125
1796.16064	8625.725
1799.3509	8604.625
1802.53907	8600.825
1805.72514	8586.125
1808.90913	8558.725
1812.09102	8545.825
1815.27083	8526.025
1818.44856	8471.925
1821.6242	8468.925
1824.79776	8476.625
1827.96924	8461.725
1831.13864	8418.625
1834.30597	8426.125
1837.47122	8389.525
1840.6344	8380.725
1843.7955	8397.825
1846.95454	8388.625
1850.11151	8386.025
1853.26642	8368.925
1856.41926	8391.825
1859.57004	8388.925
1862.71876	8363.325
1865.86542	8383.525
1869.01003	8359.625
1872.15258	8336.025
1875.29308	8324.825
1878.43152	8319.225
1881.56792	8319.825
1884.70227	8272.525
1887.83457	8246.825
1890.96482	8246.425
1894.09304	8243.925
1897.21921	8216.925
1900.34335	8215.225
1903.46544	8198.725
1906.58551	8222.125
1909.70353	8193.525
1912.81953	8181.925
1915.93349	8189.925
1919.04543	8149.225
1922.15534	8142.825
1925.26322	8139.825
1928.36908	8116.225
1931.47292	8088.925
1934.57473	8050.225
1937.67453	8051.325
1940.77232	8043.525
1943.86808	8008.725
1946.96184	7995.225
1950.05358	7952.925
1953.14331	7972.925
1956.23103	7917.925
1959.31675	7903.325
1962.40046	7870.325
1965.48217	7863.925
1968.56188	7819.425
1971.63959	7798.125
1974.7153	7802.125
1977.78901	7785.025
1980.86073	7767.225
1983.93046	7726.525
1986.99819	7697.525
1990.06394	7671.225
1993.1277	7650.325
1996.18947	7618.425
1999.24925	7612.425
2002.30706	7568.925
2005.36288	7560.525
2008.41672	7513.725
2011.46859	7513.025
2014.51848	7488.425
2017.56639	7466.225
2020.61233	7423.525
2023.6563	7419.425
2026.6983	7398.825
2029.73833	7365.925
2032.7764	7355.525
2035.8125	7319.325
2038.84664	7334.925
2041.87881	7302.325
2044.90903	7283.525
2047.93729	7283.525
2050.96359	7265.825
2053.98794	7250.625
2057.01034	7234.225
2060.03078	7229.325
2063.04927	7225.725
2066.06582	7226.225
2069.08042	7205.125
2072.09307	7200.625
2075.10378	7194.025
2078.11255	7188.325
2081.11938	7170.525
2084.12426	7171.025
2087.12722	7172.625
2090.12824	7156.625
2093.12732	7192.525
2096.12447	7182.925
2099.11969	7176.725
2102.11299	7185.225
2105.10435	7165.925
2108.09379	7176.125
2111.08131	7177.825
2114.0669	7193.825
2117.05057	7201.325
2120.03233	7197.925
2123.01216	7192.225
2125.99008	7202.725
2128.96609	7208.525
2131.94018	7214.925
2134.91236	7207.625
2137.88263	7192.425
2140.851	7203.325
2143.81746	7208.525
2146.78201	7201.125
2149.74466	7176.625
2152.7054	7189.725
2155.66425	7199.125
2158.6212	7190.225
2161.57625	7177.725
2164.52941	7173.225
2167.48067	7190.425
2170.43004	7173.825
2173.37752	7152.525
2176.32311	7162.925
2179.26681	7160.325
2182.20863	7174.925
2185.14856	7174.825
2188.08661	7171.925
2191.02278	7162.725
2193.95707	7159.625
2196.88948	7146.925
2199.82001	7154.625
2202.74867	7131.225
2205.67545	7146.325
2208.60037	7150.025
2211.52341	7124.425
2214.44458	7083.425
2217.36388	7076.125
2220.28132	7063.825
2223.1969	7035.825
2226.11061	7018.225
2229.02246	7009.625
2231.93245	7001.925
2234.84058	7006.525
2237.74686	6976.225
2240.65128	6965.025
2243.55385	6952.825
2246.45456	6937.325
2249.35343	6935.525
2252.25044	6921.925
2255.14561	6908.825
2258.03893	6910.025
2260.93041	6911.525
2263.82004	6879.825
2266.70783	6879.525
2269.59378	6851.025
2272.4779	6834.725
2275.36017	6808.725
2278.24061	6820.025
2281.11922	6775.825
2283.996	6759.925
2286.87094	6763.425
2289.74405	6753.425
2292.61534	6761.125
2295.4848	6741.825
2298.35243	6732.625
2301.21824	6723.725
2304.08223	6730.925
2306.94439	6718.325
2309.80474	6727.425
2312.66327	6703.125
2315.51999	6691.225
2318.37489	6694.325
2321.22797	6688.925
2324.07925	6671.225
2326.92871	6650.225
2329.77637	6643.225
2332.62222	6626.025
2335.46626	6623.325
2338.3085	6617.125
2341.14893	6622.825
2343.98756	6616.425
2346.8244	6600.125
2349.65943	6602.725
2352.49267	6608.825
2355.32411	6623.425
2358.15376	6586.525
2360.98161	6586.325
2363.80768	6600.425
2366.63195	6579.925
2369.45444	6575.525
2372.27514	6567.925
2375.09405	6546.625
2377.91118	6557.525
2380.72652	6519.125
2383.54009	6525.625
2386.35187	6493.325
2389.16188	6476.725
2391.97011	6450.625
2394.77657	6447.725
2397.58125	6419.525
2400.38416	6416.225
2403.18529	6422.825
2405.98466	6411.125
2408.78226	6391.325
2411.57809	6377.525
2414.37216	6365.225
2417.16446	6357.225
2419.955	6355.425
2422.74378	6358.725
2425.5308	6357.325
2428.31606	6344.225
2431.09956	6355.325
2433.88131	6336.225
2436.6613	6325.025
2439.43954	6317.225
2442.21603	6320.825
2444.99077	6317.825
2447.76377	6321.525
2450.53501	6306.325
2453.30451	6300.525
2456.07226	6293.525
2458.83827	6289.725
2461.60254	6257.825
2464.36507	6267.925
2467.12586	6256.925
2469.88492	6239.625
2472.64224	6264.425
2475.39782	6241.025
2478.15167	6237.025
2480.90379	6230.425
2483.65417	6221.325
2486.40283	6225.125
2489.14976	6260.825
2491.89497	6225.325
2494.63845	6238.025
2497.3802	6215.425
2500.12024	6194.025
2502.85855	6181.825
2505.59514	6193.425
2508.33002	6173.025
2511.06318	6161.525
2513.79462	6151.125
2516.52435	6148.225
2519.25237	6113.925
2521.97867	6117.925
2524.70327	6102.525
2527.42616	6119.025
2530.14734	6095.125
2532.86681	6097.125
2535.58458	6085.125
2538.30065	6094.625
2541.01501	6090.225
2543.72768	6076.925
2546.43864	6074.725
2549.14791	6056.125
2551.85548	6067.025
2554.56136	6040.225
2557.26554	6068.325
2559.96803	6043.525
2562.66883	6015.125
2565.36794	5990.225
2568.06536	5978.625
2570.7611	5966.725
2573.45514	5942.425
2576.14751	5943.625
2578.83819	5920.525
2581.52719	5914.925
2584.21451	5906.925
2586.90015	5912.325
2589.58411	5894.925
2592.2664	5891.125
2594.94701	5865.125
2597.62594	5870.325
2600.30321	5866.825
2602.9788	5853.225
2605.65273	5840.725
2608.32498	5831.225
2610.99557	5821.625
2613.66449	5834.025
2616.33175	5828.225
2618.99734	5828.625
2621.66128	5803.025
2624.32355	5795.525
2626.98416	5775.425
2629.64311	5753.725
2632.30041	5768.625
2634.95605	5738.225
2637.61004	5729.725
2640.26238	5723.925
2642.91306	5720.425
2645.56209	5726.425
2648.20948	5704.725
2650.85521	5712.025
2653.4993	5701.625
2656.14175	5698.025
2658.78255	5688.625
2661.42171	5688.725
2664.05923	5703.725
2666.6951	5713.225
2669.32934	5714.925
2671.96194	5715.125
2674.59291	5736.025
2677.22224	5685.325
2679.84993	5703.925
2682.476	5705.625
2685.10043	5711.725
2687.72324	5702.625
2690.34441	5693.625
2692.96396	5693.525
2695.58188	5690.125
2698.19818	5676.725
2700.81285	5689.125
2703.4259	5659.325
2706.03733	5653.525
2708.64714	5629.725
2711.25533	5644.225
2713.86191	5655.325
2716.46687	5647.725
2719.07021	5651.425
2721.67194	5664.425
2724.27206	5640.825
2726.87057	5643.825
2729.46747	5642.825
2732.06276	5628.725
2734.65644	5657.325
2737.24852	5636.225
2739.83899	5625.725
2742.42786	5599.825
2745.01513	5601.125
2747.60079	5584.525
2750.18486	5591.725
2752.76733	5590.725
2755.3482	5570.025
2757.92747	5563.925
2760.50515	5555.925
2763.08123	5544.325
2765.65573	5530.825
2768.22863	5525.725
2770.79994	5521.025
2773.36967	5496.725
2775.9378	5498.525
2778.50435	5479.525
2781.06932	5485.825
2783.6327	5483.825
2786.1945	5508.225
2788.75471	5478.125
2791.31335	5453.325
2793.87041	5453.525
2796.42589	5417.625
2798.97979	5419.925
2801.53212	5411.325
2804.08288	5391.025
2806.63206	5383.825
2809.17967	5381.725
2811.72571	5366.725
2814.27018	5366.525
2816.81308	5363.425
2819.35442	5347.525
2821.89419	5328.325
2824.43239	5324.925
2826.96904	5299.225
2829.50412	5304.725
2832.03763	5278.825
2834.56959	5271.825
2837.1	5257.225
2839.62884	5250.125
2842.15613	5239.025
2844.68186	5240.225
2847.20604	5224.825
2849.72867	5226.525
2852.24974	5201.725
2854.76927	5205.625
2857.28724	5183.425
2859.80367	5187.025
2862.31855	5161.825
2864.83189	5183.225
2867.34368	5180.925
2869.85393	5167.025
2872.36264	5155.125
2874.8698	5140.625
2877.37543	5146.025
2879.87952	5150.325
2882.38207	5126.225
2884.88308	5126.225
2887.38256	5132.525
2889.88051	5122.425
2892.37692	5129.425
2894.8718	5107.125
2897.36515	5116.025
2899.85698	5103.025
2902.34727	5103.825
2904.83604	5109.325
2907.32328	5121.625
2909.809	5115.625
2912.29319	5113.925
2914.77587	5122.525
2917.25702	5140.625
2919.73665	5124.025
2922.21476	5106.725
2924.69136	5109.725
2927.16644	5091.925
2929.64	5083.725
2932.11205	5067.425
2934.58258	5041.325
2937.05161	5068.725
2939.51912	5040.325
2941.98513	5051.425
2944.44962	5036.825
2946.91261	5031.025
2949.37409	5036.925
2951.83407	5030.325
2954.29254	5040.225
2956.74951	5018.625
2959.20498	5016.525
2961.65895	5007.025
2964.11142	5004.925
2966.56239	4996.325
2969.01186	5005.625
2971.45984	5001.925
2973.90632	5001.425
2976.35131	4972.325
2978.7948	4975.025
2981.23681	4961.525
2983.67732	4953.025
2986.11635	4943.625
2988.55388	4908.425
2990.98993	4912.525
2993.4245	4896.525
2995.85758	4891.825
2998.28917	4876.525
3000.71928	4862.825
3003.14791	4849.325
3005.57506	4837.325
3008.00073	4836.425
3010.42493	4813.725
3012.84764	4812.225
3015.26888	4828.225
3017.68865	4796.325
3020.10694	4789.325
3022.52376	4759.525
3024.9391	4754.025
3027.35298	4736.925
3029.76539	4737.525
3032.17632	4715.825
3034.5858	4710.725
3036.9938	4703.525
3039.40034	4694.825
3041.80542	4682.425
3044.20903	4671.025
3046.61118	4667.025
3049.01187	4638.825
3051.4111	4630.025
3053.80888	4641.225
3056.20519	4613.825
3058.60005	4599.025
3060.99345	4597.025
3063.3854	4593.925
3065.7759	4579.225
3068.16494	4571.025
3070.55254	4555.925
3072.93868	4536.025
3075.32338	4521.525
3077.70662	4519.725
3080.08842	4508.025
3082.46878	4502.525
3084.84769	4478.425
3087.22515	4460.325
3089.60118	4476.525
3091.97576	4462.725
3094.3489	4464.225
3096.72061	4470.725
3099.09087	4480.225
3101.4597	4455.125
3103.82709	4459.825
3106.19305	4463.625
3108.55757	4449.825
3110.92066	4438.225
3113.28232	4429.725
3115.64255	4419.825
3118.00134	4399.625
3120.35871	4390.825
3122.71466	4378.425
3125.06917	4367.425
3127.42226	4354.325
3129.77393	4349.025
3132.12417	4341.525
3134.47299	4352.225
3136.82039	4328.625
3139.16636	4331.125
3141.51092	4331.825
3143.85406	4320.625
3146.19579	4322.825
3148.53609	4319.125
3150.87499	4312.425
3153.21246	4322.525
3155.54853	4312.625
3157.88318	4307.625
3160.21642	4300.225
3162.54826	4297.625
3164.87868	4299.825
3167.2077	4278.925
3169.5353	4266.125
3171.86151	4275.325
3174.18631	4273.725
3176.5097	4256.025
3178.83169	4238.225
3181.15228	4238.425
3183.47147	4227.025
3185.78926	4214.225
3188.10565	4200.725
3190.42065	4182.925
3192.73424	4198.625
3195.04645	4178.425
3197.35725	4178.025
3199.66667	4173.025
3201.97469	4178.325
3204.28132	4168.325
3206.58656	4187.225
3208.8904	4170.225
3211.19287	4186.125
3213.49394	4180.225
3215.79363	4175.725
