Data from AgNPs_UA_10uM_CRN_500uM_SU_RamanShift__102__13-22-20-273.txt Node

Date: Thu Aug 04 13:22:20 BST 2022
User: TCL
Spectrometer: QEP01345
Trigger mode: 4
Integration Time (sec): 1.000000E0
Scans to average: 10
Electric dark correction enabled: true
Nonlinearity correction enabled: false
Boxcar width: 0
XAxis mode: Raman Shifts
Number of Pixels in Spectrum: 1044
>>>>>Begin Spectral Data<<<<<
46.04893	-0.6875
50.45542	-0.5875
54.85868	0.2125
59.25871	-0.2875
63.6555	21.4125
68.04907	22.3125
72.43941	22.6125
76.82654	21.3125
81.21044	21.8125
85.59113	25.9125
89.96862	27.1125
94.34289	24.7125
98.71396	26.4125
103.08183	29.3125
107.4465	29.1125
111.80798	28.7125
116.16626	29.9125
120.52136	30.9125
124.87327	35.7125
129.222	37.5125
133.56755	38.0125
137.90993	43.2125
142.24913	44.4125
146.58517	53.4125
150.91804	63.6125
155.24774	79.9125
159.57429	96.7125
163.89768	129.2125
168.21792	168.9125
172.53501	233.5125
176.84895	330.4125
181.15975	471.6125
185.46741	666.7125
189.77193	925.6125
194.07331	1252.9125
198.37157	1606.7125
202.6667	2005.7125
206.9587	2391.0125
211.24758	2763.6125
215.53334	3142.7125
219.81599	3555.6125
224.09553	4038.6125
228.37195	4539.2125
232.64527	5103.2125
236.91549	5657.1125
241.18261	6164.1125
245.44663	6577.0125
249.70755	6890.6125
253.96539	7197.3125
258.22014	7446.6125
262.4718	7692.2125
266.72039	7809.9125
270.96589	7849.6125
275.20832	7838.3125
279.44768	7726.9125
283.68397	7614.5125
287.91719	7517.6125
292.14735	7534.1125
296.37445	7628.5125
300.59849	7835.0125
304.81948	8082.0125
309.03742	8310.8125
313.25231	8439.1125
317.46415	8348.5125
321.67296	8073.0125
325.87872	7803.2125
330.08145	7665.1125
334.28114	7628.8125
338.47781	7728.6125
342.67145	7866.3125
346.86207	8070.2125
351.04966	8369.0125
355.23424	8669.9125
359.4158	8914.7125
363.59435	9041.1125
367.76989	9077.0125
371.94243	9064.3125
376.11196	9041.9125
380.27849	9071.6125
384.44203	9069.6125
388.60257	9115.9125
392.76012	9214.0125
396.91468	9312.9125
401.06626	9464.3125
405.21485	9515.5125
409.36047	9407.5125
413.50311	9190.6125
417.64277	8911.2125
421.77947	8786.8125
425.9132	8686.8125
430.04396	8679.2125
434.17176	8733.4125
438.2966	8833.0125
442.41849	8983.4125
446.53742	9178.1125
450.6534	9363.9125
454.76644	9483.7125
458.87653	9513.6125
462.98368	9523.5125
467.08789	9488.1125
471.18916	9340.6125
475.2875	9175.4125
479.38291	9053.0125
483.4754	8899.1125
487.56496	8831.8125
491.6516	8830.3125
495.73531	8823.9125
499.81612	8856.0125
503.89401	8950.2125
507.96899	9012.2125
512.04106	9029.4125
516.11023	9078.0125
520.1765	9156.3125
524.23987	9169.0125
528.30034	9189.8125
532.35792	9191.8125
536.41261	9091.5125
540.46441	8999.9125
544.51333	8968.0125
548.55936	9034.3125
552.60252	9151.6125
556.64279	9311.5125
560.6802	9420.5125
564.71473	9509.8125
568.7464	9596.1125
572.7752	9557.4125
576.80114	9352.2125
580.82422	9171.6125
584.84444	9122.9125
588.86181	9158.6125
592.87633	9209.0125
596.888	9363.0125
600.89682	9769.7125
604.9028	10773.1125
608.90594	12832.1125
612.90624	14798.1125
616.90371	13709.3125
620.89834	10929.2125
624.89015	9770.1125
628.87913	9664.4125
632.86528	9830.1125
636.84862	9922.7125
640.82913	9763.6125
644.80683	9475.5125
648.78172	9290.5125
652.75379	9287.8125
656.72306	9507.8125
660.68952	9770.5125
664.65319	9704.4125
668.61405	9565.6125
672.57211	9652.9125
676.52738	9658.5125
680.47986	9479.6125
684.42955	9291.2125
688.37646	9245.3125
692.32058	9325.8125
696.26192	9468.6125
700.20048	9624.6125
704.13626	9698.9125
708.06928	9587.0125
711.99952	9496.1125
715.927	9483.1125
719.85171	9530.9125
723.77365	9540.4125
727.69284	9486.3125
731.60928	9420.3125
735.52295	9397.6125
739.43388	9442.5125
743.34206	9504.2125
747.24749	9481.8125
751.15017	9497.2125
755.05012	9587.7125
758.94733	9887.8125
762.8418	10626.5125
766.73354	11760.3125
770.62254	12636.5125
774.50882	12815.6125
778.39237	12469.7125
782.27321	11670.5125
786.15132	10800.4125
790.02671	10124.6125
793.89938	9784.9125
797.76935	9617.4125
801.6366	9539.6125
805.50115	9480.3125
809.36299	9423.0125
813.22213	9438.6125
817.07857	9445.5125
820.93231	9429.0125
824.78336	9424.0125
828.63172	9430.2125
832.47738	9460.6125
836.32036	9453.0125
840.16066	9444.7125
843.99827	9428.2125
847.8332	9435.6125
851.66546	9466.8125
855.49504	9471.1125
859.32195	9485.0125
863.1462	9478.9125
866.96777	9476.1125
870.78668	9494.3125
874.60293	9513.9125
878.41652	9566.8125
882.22745	9650.8125
886.03573	9701.2125
889.84136	9691.6125
893.64433	9669.3125
897.44466	9630.8125
901.24235	9619.5125
905.0374	9570.2125
908.8298	9543.5125
912.61957	9518.6125
916.40671	9522.4125
920.19121	9555.9125
923.97308	9605.6125
927.75233	9714.9125
931.52895	9787.2125
935.30295	9715.3125
939.07433	9591.7125
942.84309	9498.4125
946.60924	9435.2125
950.37278	9455.4125
954.13371	9418.1125
957.89203	9435.9125
961.64774	9421.1125
965.40086	9433.3125
969.15137	9417.6125
972.89929	9395.3125
976.64461	9418.4125
980.38733	9408.9125
984.12747	9449.3125
987.86502	9503.8125
991.59999	9539.1125
995.33237	9644.0125
999.06217	9746.7125
1002.78939	9944.0125
1006.51404	10162.1125
1010.23611	10352.7125
1013.95561	10427.4125
1017.67255	10483.1125
1021.38692	10452.7125
1025.09872	10335.1125
1028.80796	10237.7125
1032.51465	10233.5125
1036.21877	10268.6125
1039.92035	10308.2125
1043.61937	10317.6125
1047.31584	10293.1125
1051.00976	10265.5125
1054.70114	10274.1125
1058.38998	10269.6125
1062.07627	10309.2125
1065.76003	10369.6125
1069.44126	10497.6125
1073.11995	10741.5125
1076.79611	10988.7125
1080.46974	11166.7125
1084.14085	11245.9125
1087.80943	11328.9125
1091.47549	11434.3125
1095.13903	11495.1125
1098.80005	11509.2125
1102.45857	11515.3125
1106.11456	11329.6125
1109.76805	11136.3125
1113.41903	11062.3125
1117.06751	11156.6125
1120.71348	11328.1125
1124.35696	11536.3125
1127.99793	11676.6125
1131.63641	11549.6125
1135.2724	11247.9125
1138.90589	11039.2125
1142.5369	10919.2125
1146.16542	10904.0125
1149.79145	10857.5125
1153.415	10707.0125
1157.03607	10595.3125
1160.65467	10608.7125
1164.27079	10789.9125
1167.88443	11077.6125
1171.49561	11558.9125
1175.10432	12246.9125
1178.71056	13162.4125
1182.31434	13961.8125
1185.91565	14325.0125
1189.51451	14323.3125
1193.11091	14139.5125
1196.70485	13883.0125
1200.29634	13619.3125
1203.88538	13285.6125
1207.47197	12910.4125
1211.05612	12567.3125
1214.63782	12268.4125
1218.21708	11957.5125
1221.79391	11694.4125
1225.36829	11545.9125
1228.94024	11466.8125
1232.50976	11397.9125
1236.07685	11414.6125
1239.6415	11399.8125
1243.20374	11472.3125
1246.76355	11550.1125
1250.32093	11714.2125
1253.8759	11946.1125
1257.42845	12331.2125
1260.97859	12694.9125
1264.52631	12982.1125
1268.07163	13198.0125
1271.61453	13325.1125
1275.15503	13406.7125
1278.69312	13388.0125
1282.22882	13407.7125
1285.76211	13459.8125
1289.29301	13549.8125
1292.82151	13778.3125
1296.34761	14020.5125
1299.87133	14455.9125
1303.39266	15144.6125
1306.9116	16202.9125
1310.42815	17281.3125
1313.94233	17734.5125
1317.45412	17295.7125
1320.96354	16507.6125
1324.47058	15719.1125
1327.97525	14980.3125
1331.47754	14464.4125
1334.97747	14310.3125
1338.47502	14489.2125
1341.97022	14994.4125
1345.46305	15785.4125
1348.95352	16908.7125
1352.44163	18026.3125
1355.92738	19070.3125
1359.41078	20262.8125
1362.89183	21063.4125
1366.37053	20078.7125
1369.84688	17603.4125
1373.32088	15302.6125
1376.79254	14009.5125
1380.26186	13406.8125
1383.72883	13022.6125
1387.19347	12712.7125
1390.65578	12348.1125
1394.11575	12057.1125
1397.57339	11806.8125
1401.0287	11677.0125
1404.48168	11680.3125
1407.93234	11739.7125
1411.38068	11933.4125
1414.82669	12068.1125
1418.27039	12087.3125
1421.71177	12061.9125
1425.15083	11949.2125
1428.58758	11888.2125
1432.02203	11979.3125
1435.45416	12041.7125
1438.88399	12090.5125
1442.31151	12135.5125
1445.73673	12177.0125
1449.15965	12209.4125
1452.58027	12176.6125
1455.9986	12105.1125
1459.41463	12112.5125
1462.82837	12226.9125
1466.23982	12418.3125
1469.64898	12606.3125
1473.05586	12760.7125
1476.46045	12868.9125
1479.86276	12942.9125
1483.26279	13068.1125
1486.66054	13259.3125
1490.05602	13574.8125
1493.44922	14063.1125
1496.84016	14846.4125
1500.22882	15968.6125
1503.61521	17358.9125
1506.99934	18678.3125
1510.38121	19389.3125
1513.76081	19052.0125
1517.13816	17747.8125
1520.51324	16164.1125
1523.88607	14836.7125
1527.25665	14031.8125
1530.62498	13629.4125
1533.99105	13433.6125
1537.35488	13321.6125
1540.71647	13261.6125
1544.07581	13221.1125
1547.4329	13156.5125
1550.78776	12989.5125
1554.14038	12864.3125
1557.49077	12776.0125
1560.83892	12800.1125
1564.18484	13039.0125
1567.52853	13295.9125
1570.86999	13447.7125
1574.20922	13508.6125
1577.54624	13337.9125
1580.88103	12886.7125
1584.2136	12373.4125
1587.54395	12106.7125
1590.87208	12204.0125
1594.19801	12582.6125
1597.52172	13138.0125
1600.84321	13377.6125
1604.16251	13385.8125
1607.47959	13218.5125
1610.79447	12794.7125
1614.10715	12153.9125
1617.41763	11543.1125
1620.7259	11089.8125
1624.03199	10851.0125
1627.33587	10783.6125
1630.63757	10883.4125
1633.93707	11238.2125
1637.23439	11850.2125
1640.52951	12786.0125
1643.82246	14031.2125
1647.11321	15178.8125
1650.40179	15647.8125
1653.68819	14934.0125
1656.97241	13372.8125
1660.25446	11862.5125
1663.53433	10873.7125
1666.81203	10259.4125
1670.08756	9896.8125
1673.36092	9657.4125
1676.63211	9533.8125
1679.90115	9409.0125
1683.16801	9333.9125
1686.43272	9239.4125
1689.69527	9173.9125
1692.95567	9132.9125
1696.2139	9108.3125
1699.46999	9064.6125
1702.72392	9074.8125
1705.97571	9061.8125
1709.22535	9049.3125
1712.47284	9078.6125
1715.71819	9070.7125
1718.96139	9059.4125
1722.20246	9039.8125
1725.44139	9016.1125
1728.67818	8956.5125
1731.91284	8901.2125
1735.14537	8867.0125
1738.37576	8844.2125
1741.60403	8819.4125
1744.83017	8792.9125
1748.05418	8788.8125
1751.27607	8775.3125
1754.49584	8758.4125
1757.71349	8724.6125
1760.92903	8720.6125
1764.14244	8700.7125
1767.35375	8677.7125
1770.56294	8654.8125
1773.77002	8675.4125
1776.97499	8623.6125
1780.17785	8586.9125
1783.37861	8583.2125
1786.57727	8583.2125
1789.77382	8577.0125
1792.96828	8543.9125
1796.16064	8526.5125
1799.3509	8522.4125
1802.53907	8518.9125
1805.72514	8502.0125
1808.90913	8468.6125
1812.09102	8460.8125
1815.27083	8443.1125
1818.44856	8409.9125
1821.6242	8398.4125
1824.79776	8355.5125
1827.96924	8358.3125
1831.13864	8351.6125
1834.30597	8335.4125
1837.47122	8320.5125
1840.6344	8326.8125
1843.7955	8301.1125
1846.95454	8323.1125
1850.11151	8279.0125
1853.26642	8282.8125
1856.41926	8279.5125
1859.57004	8304.1125
1862.71876	8311.0125
1865.86542	8278.0125
1869.01003	8278.7125
1872.15258	8253.8125
1875.29308	8229.9125
1878.43152	8240.2125
1881.56792	8209.7125
1884.70227	8190.4125
1887.83457	8183.8125
1890.96482	8169.1125
1894.09304	8142.5125
1897.21921	8145.8125
1900.34335	8141.0125
1903.46544	8122.9125
1906.58551	8126.1125
1909.70353	8092.7125
1912.81953	8111.7125
1915.93349	8108.6125
1919.04543	8067.5125
1922.15534	8056.3125
1925.26322	8055.4125
1928.36908	8020.9125
1931.47292	8003.4125
1934.57473	8001.1125
1937.67453	7966.8125
1940.77232	7954.4125
1943.86808	7897.3125
1946.96184	7890.2125
1950.05358	7872.9125
1953.14331	7853.5125
1956.23103	7857.3125
1959.31675	7816.8125
1962.40046	7792.1125
1965.48217	7749.2125
1968.56188	7723.9125
1971.63959	7724.5125
1974.7153	7710.3125
1977.78901	7703.7125
1980.86073	7668.0125
1983.93046	7649.6125
1986.99819	7628.8125
1990.06394	7601.7125
1993.1277	7578.0125
1996.18947	7526.3125
1999.24925	7514.0125
2002.30706	7491.3125
2005.36288	7470.3125
2008.41672	7424.5125
2011.46859	7421.6125
2014.51848	7406.4125
2017.56639	7367.7125
2020.61233	7359.9125
2023.6563	7345.2125
2026.6983	7335.9125
2029.73833	7274.1125
2032.7764	7258.9125
2035.8125	7241.2125
2038.84664	7213.2125
2041.87881	7208.0125
2044.90903	7202.6125
2047.93729	7198.7125
2050.96359	7178.7125
2053.98794	7169.9125
2057.01034	7144.8125
2060.03078	7155.4125
2063.04927	7149.3125
2066.06582	7139.1125
2069.08042	7118.2125
2072.09307	7093.9125
2075.10378	7098.6125
2078.11255	7108.8125
2081.11938	7102.6125
2084.12426	7089.7125
2087.12722	7103.0125
2090.12824	7088.0125
2093.12732	7089.6125
2096.12447	7097.6125
2099.11969	7079.3125
2102.11299	7101.8125
2105.10435	7078.3125
2108.09379	7076.5125
2111.08131	7088.9125
2114.0669	7089.4125
2117.05057	7108.1125
2120.03233	7129.8125
2123.01216	7115.4125
2125.99008	7104.2125
2128.96609	7133.4125
2131.94018	7125.1125
2134.91236	7116.1125
2137.88263	7127.6125
2140.851	7121.6125
2143.81746	7105.6125
2146.78201	7122.8125
2149.74466	7105.8125
2152.7054	7099.7125
2155.66425	7103.7125
2158.6212	7100.2125
2161.57625	7105.6125
2164.52941	7087.6125
2167.48067	7090.8125
2170.43004	7060.9125
2173.37752	7071.9125
2176.32311	7074.6125
2179.26681	7083.6125
2182.20863	7074.1125
2185.14856	7075.4125
2188.08661	7066.7125
2191.02278	7072.3125
2193.95707	7067.1125
2196.88948	7049.3125
2199.82001	7050.0125
2202.74867	7035.3125
2205.67545	7038.4125
2208.60037	7049.9125
2211.52341	7006.8125
2214.44458	7016.8125
2217.36388	6971.9125
2220.28132	6983.8125
2223.1969	6939.4125
2226.11061	6912.0125
2229.02246	6923.6125
2231.93245	6915.0125
2234.84058	6899.8125
2237.74686	6877.7125
2240.65128	6873.1125
2243.55385	6865.8125
2246.45456	6855.7125
2249.35343	6842.2125
2252.25044	6827.3125
2255.14561	6822.3125
2258.03893	6820.5125
2260.93041	6799.2125
2263.82004	6791.3125
2266.70783	6795.1125
2269.59378	6753.7125
2272.4779	6739.5125
2275.36017	6719.8125
2278.24061	6722.0125
2281.11922	6693.1125
2283.996	6681.6125
2286.87094	6679.4125
2289.74405	6671.7125
2292.61534	6657.9125
2295.4848	6639.3125
2298.35243	6623.4125
2301.21824	6623.9125
2304.08223	6609.4125
2306.94439	6627.2125
2309.80474	6631.0125
2312.66327	6608.1125
2315.51999	6606.8125
2318.37489	6578.5125
2321.22797	6570.1125
2324.07925	6565.9125
2326.92871	6554.9125
2329.77637	6532.8125
2332.62222	6522.4125
2335.46626	6523.6125
2338.3085	6520.6125
2341.14893	6518.7125
2343.98756	6523.3125
2346.8244	6522.9125
2349.65943	6510.2125
2352.49267	6485.9125
2355.32411	6498.2125
2358.15376	6494.1125
2360.98161	6484.7125
2363.80768	6512.0125
2366.63195	6478.9125
2369.45444	6486.3125
2372.27514	6478.9125
2375.09405	6434.9125
2377.91118	6409.8125
2380.72652	6421.2125
2383.54009	6406.5125
2386.35187	6394.9125
2389.16188	6379.8125
2391.97011	6350.6125
2394.77657	6345.9125
2397.58125	6328.2125
2400.38416	6319.2125
2403.18529	6302.7125
2405.98466	6309.4125
2408.78226	6293.5125
2411.57809	6289.1125
2414.37216	6288.4125
2417.16446	6271.7125
2419.955	6265.9125
2422.74378	6274.6125
2425.5308	6263.4125
2428.31606	6257.5125
2431.09956	6243.6125
2433.88131	6244.9125
2436.6613	6215.6125
2439.43954	6240.4125
2442.21603	6202.3125
2444.99077	6207.9125
2447.76377	6217.2125
2450.53501	6209.1125
2453.30451	6194.3125
2456.07226	6193.6125
2458.83827	6178.6125
2461.60254	6164.0125
2464.36507	6162.9125
2467.12586	6138.1125
2469.88492	6146.7125
2472.64224	6145.4125
2475.39782	6152.3125
2478.15167	6173.7125
2480.90379	6128.7125
2483.65417	6128.5125
2486.40283	6153.5125
2489.14976	6151.8125
2491.89497	6145.6125
2494.63845	6128.5125
2497.3802	6117.0125
2500.12024	6104.0125
2502.85855	6072.3125
2505.59514	6095.3125
2508.33002	6075.7125
2511.06318	6064.1125
2513.79462	6045.1125
2516.52435	6060.4125
2519.25237	6036.9125
2521.97867	6014.8125
2524.70327	6019.2125
2527.42616	5995.3125
2530.14734	5994.4125
2532.86681	5988.6125
2535.58458	5998.7125
2538.30065	5998.9125
2541.01501	6005.3125
2543.72768	5981.0125
2546.43864	5984.4125
2549.14791	5951.2125
2551.85548	5951.2125
2554.56136	5946.1125
2557.26554	5945.8125
2559.96803	5932.8125
2562.66883	5906.7125
2565.36794	5885.5125
2568.06536	5877.2125
2570.7611	5869.5125
2573.45514	5843.8125
2576.14751	5856.5125
2578.83819	5822.1125
2581.52719	5819.3125
2584.21451	5807.7125
2586.90015	5817.5125
2589.58411	5784.9125
2592.2664	5788.4125
2594.94701	5768.2125
2597.62594	5766.2125
2600.30321	5739.6125
2602.9788	5763.8125
2605.65273	5748.1125
2608.32498	5745.7125
2610.99557	5737.0125
2613.66449	5739.3125
2616.33175	5726.9125
2618.99734	5703.8125
2621.66128	5699.1125
2624.32355	5687.6125
2626.98416	5678.1125
2629.64311	5667.4125
2632.30041	5672.8125
2634.95605	5651.4125
2637.61004	5639.9125
2640.26238	5618.5125
2642.91306	5627.7125
2645.56209	5617.2125
2648.20948	5605.7125
2650.85521	5608.4125
2653.4993	5603.5125
2656.14175	5590.8125
2658.78255	5585.3125
2661.42171	5583.4125
2664.05923	5607.2125
2666.6951	5600.4125
2669.32934	5624.3125
2671.96194	5625.0125
2674.59291	5623.0125
2677.22224	5617.7125
2679.84993	5621.8125
2682.476	5610.5125
2685.10043	5592.8125
2687.72324	5602.9125
2690.34441	5604.0125
2692.96396	5590.9125
2695.58188	5572.7125
2698.19818	5582.0125
2700.81285	5566.2125
2703.4259	5564.3125
2706.03733	5575.3125
2708.64714	5543.9125
2711.25533	5543.1125
2713.86191	5541.7125
2716.46687	5577.1125
2719.07021	5575.6125
2721.67194	5549.0125
2724.27206	5554.6125
2726.87057	5565.1125
2729.46747	5559.5125
2732.06276	5555.6125
2734.65644	5536.5125
2737.24852	5529.3125
2739.83899	5510.4125
2742.42786	5519.0125
2745.01513	5496.4125
2747.60079	5498.6125
2750.18486	5492.5125
2752.76733	5476.6125
2755.3482	5470.1125
2757.92747	5461.4125
2760.50515	5445.9125
2763.08123	5445.6125
2765.65573	5439.2125
2768.22863	5429.8125
2770.79994	5412.6125
2773.36967	5397.8125
2775.9378	5391.0125
2778.50435	5383.4125
2781.06932	5398.3125
2783.6327	5396.9125
2786.1945	5382.7125
2788.75471	5384.7125
2791.31335	5357.0125
2793.87041	5345.0125
2796.42589	5332.6125
2798.97979	5310.8125
2801.53212	5303.4125
2804.08288	5296.9125
2806.63206	5278.3125
2809.17967	5282.6125
2811.72571	5263.8125
2814.27018	5267.3125
2816.81308	5246.6125
2819.35442	5236.5125
2821.89419	5243.1125
2824.43239	5216.9125
2826.96904	5209.4125
2829.50412	5199.7125
2832.03763	5183.9125
2834.56959	5169.0125
2837.1	5165.4125
2839.62884	5145.3125
2842.15613	5147.0125
2844.68186	5138.8125
2847.20604	5128.3125
2849.72867	5116.5125
2852.24974	5119.9125
2854.76927	5099.6125
2857.28724	5096.8125
2859.80367	5080.1125
2862.31855	5073.2125
2864.83189	5086.3125
2867.34368	5085.2125
2869.85393	5074.5125
2872.36264	5055.3125
2874.8698	5062.5125
2877.37543	5063.5125
2879.87952	5047.5125
2882.38207	5039.1125
2884.88308	5028.9125
2887.38256	5028.7125
2889.88051	5015.0125
2892.37692	5017.0125
2894.8718	5011.8125
2897.36515	5006.6125
2899.85698	4985.7125
2902.34727	5023.2125
2904.83604	5034.3125
2907.32328	5024.0125
2909.809	5017.6125
2912.29319	5004.3125
2914.77587	5008.2125
2917.25702	5029.4125
2919.73665	5007.9125
2922.21476	5013.2125
2924.69136	4999.8125
2927.16644	4991.7125
2929.64	4976.5125
2932.11205	4965.3125
2934.58258	4953.9125
2937.05161	4955.5125
2939.51912	4968.9125
2941.98513	4966.5125
2944.44962	4941.8125
2946.91261	4916.7125
2949.37409	4945.3125
2951.83407	4920.6125
2954.29254	4925.4125
2956.74951	4920.4125
2959.20498	4921.5125
2961.65895	4913.1125
2964.11142	4916.7125
2966.56239	4907.9125
2969.01186	4909.2125
2971.45984	4899.8125
2973.90632	4895.5125
2976.35131	4873.4125
2978.7948	4884.6125
2981.23681	4860.6125
2983.67732	4868.0125
2986.11635	4857.1125
2988.55388	4837.4125
2990.98993	4812.5125
2993.4245	4820.5125
2995.85758	4798.7125
2998.28917	4801.0125
3000.71928	4784.8125
3003.14791	4763.0125
3005.57506	4750.0125
3008.00073	4722.7125
3010.42493	4723.3125
3012.84764	4733.9125
3015.26888	4721.2125
3017.68865	4689.1125
3020.10694	4686.9125
3022.52376	4684.5125
3024.9391	4655.5125
3027.35298	4638.2125
3029.76539	4629.9125
3032.17632	4634.8125
3034.5858	4622.2125
3036.9938	4620.2125
3039.40034	4593.6125
3041.80542	4590.4125
3044.20903	4588.8125
3046.61118	4564.1125
3049.01187	4553.5125
3051.4111	4534.3125
3053.80888	4539.9125
3056.20519	4535.0125
3058.60005	4528.7125
3060.99345	4498.7125
3063.3854	4501.4125
3065.7759	4485.7125
3068.16494	4476.3125
3070.55254	4464.9125
3072.93868	4444.0125
3075.32338	4422.7125
3077.70662	4429.2125
3080.08842	4413.8125
3082.46878	4410.6125
3084.84769	4398.7125
3087.22515	4388.1125
3089.60118	4390.4125
3091.97576	4391.4125
3094.3489	4378.9125
3096.72061	4376.4125
3099.09087	4369.2125
3101.4597	4357.5125
3103.82709	4372.8125
3106.19305	4375.2125
