Data from AgNPs_UA_5uM_CRN_500uM_SU_RamanShift__51__11-37-53-149.txt Node

Date: Thu Aug 04 11:37:53 BST 2022
User: TCL
Spectrometer: QEP01345
Trigger mode: 4
Integration Time (sec): 1.000000E0
Scans to average: 10
Electric dark correction enabled: true
Nonlinearity correction enabled: false
Boxcar width: 0
XAxis mode: Raman Shifts
Number of Pixels in Spectrum: 1044
>>>>>Begin Spectral Data<<<<<
46.04893	-0.375
50.45542	-0.475
54.85868	-0.475
59.25871	0.725
63.6555	-55.975
68.04907	-37.375
72.43941	-69.475
76.82654	-54.675
81.21044	-54.675
85.59113	-47.575
89.96862	-73.975
94.34289	-53.675
98.71396	-74.775
103.08183	-55.375
107.4465	-48.275
111.80798	-54.575
116.16626	-41.075
120.52136	-71.275
124.87327	-43.875
129.222	-57.875
133.56755	-43.975
137.90993	-55.075
142.24913	-40.575
146.58517	-32.675
150.91804	-23.975
155.24774	-12.075
159.57429	16.425
163.89768	30.725
168.21792	88.425
172.53501	139.525
176.84895	255.625
181.15975	428.625
185.46741	646.625
189.77193	911.725
194.07331	1312.425
198.37157	1733.725
202.6667	2170.425
206.9587	2653.425
211.24758	3147.925
215.53334	3701.425
219.81599	4349.725
224.09553	5088.025
228.37195	5849.925
232.64527	6566.225
236.91549	7192.125
241.18261	7536.325
245.44663	7662.725
249.70755	7623.325
253.96539	7674.325
258.22014	7751.925
262.4718	7822.025
266.72039	7840.425
270.96589	7687.925
275.20832	7412.325
279.44768	7113.425
283.68397	6902.625
287.91719	6852.625
292.14735	6975.125
296.37445	7450.125
300.59849	8264.325
304.81948	9376.225
309.03742	10683.725
313.25231	11574.725
317.46415	11438.325
321.67296	10101.725
325.87872	8580.925
330.08145	7725.625
334.28114	7520.625
338.47781	7779.825
342.67145	8261.925
346.86207	9080.525
351.04966	10309.325
355.23424	11529.925
359.4158	12060.325
363.59435	11662.725
367.76989	10975.825
371.94243	10254.325
376.11196	9690.625
380.27849	9276.425
384.44203	8947.625
388.60257	8771.025
392.76012	8768.925
396.91468	9075.125
401.06626	9430.325
405.21485	9418.125
409.36047	8912.325
413.50311	7973.225
417.64277	7120.925
421.77947	6571.325
425.9132	6312.625
430.04396	6190.725
434.17176	6171.125
438.2966	6273.025
442.41849	6454.625
446.53742	6662.225
450.6534	6764.125
454.76644	6800.625
458.87653	6721.125
462.98368	6628.625
467.08789	6479.925
471.18916	6304.625
475.2875	6056.725
479.38291	5833.825
483.4754	5708.725
487.56496	5643.525
491.6516	5565.325
495.73531	5573.325
499.81612	5653.025
503.89401	5810.725
507.96899	5955.125
512.04106	6198.325
516.11023	6428.425
520.1765	6644.825
524.23987	6714.825
528.30034	6673.925
532.35792	6549.025
536.41261	6383.825
540.46441	6198.625
544.51333	6040.825
548.55936	6046.525
552.60252	6212.125
556.64279	6380.325
560.6802	6764.225
564.71473	7580.225
568.7464	8585.225
572.7752	8536.825
576.80114	7184.225
580.82422	6090.225
584.84444	5629.825
588.86181	5488.125
592.87633	5506.125
596.888	5689.525
600.89682	6390.125
604.9028	8691.525
608.90594	14517.525
612.90624	21580.425
616.90371	19611.725
620.89834	10868.925
624.89015	7047.825
628.87913	6599.525
632.86528	7155.225
636.84862	7419.625
640.82913	6788.625
644.80683	5859.225
648.78172	5435.025
652.75379	5568.325
656.72306	6251.025
660.68952	6922.825
664.65319	6572.425
668.61405	5712.925
672.57211	5376.625
676.52738	5385.425
680.47986	5290.025
684.42955	5156.525
688.37646	5085.225
692.32058	5076.925
696.26192	5189.625
700.20048	5311.725
704.13626	5356.525
708.06928	5257.325
711.99952	5231.725
715.927	5255.325
719.85171	5433.625
723.77365	5567.625
727.69284	5446.725
731.60928	5324.725
735.52295	5271.325
739.43388	5315.625
743.34206	5355.625
747.24749	5360.725
751.15017	5396.825
755.05012	5661.525
758.94733	6779.925
762.8418	9320.825
766.73354	12699.725
770.62254	14441.625
774.50882	13800.225
778.39237	12556.225
782.27321	10661.225
786.15132	8148.725
790.02671	6451.925
793.89938	5659.525
797.76935	5390.925
801.6366	5233.425
805.50115	5174.825
809.36299	5132.825
813.22213	5119.625
817.07857	5110.525
820.93231	5155.525
824.78336	5234.925
828.63172	5328.625
832.47738	5387.025
836.32036	5310.425
840.16066	5122.125
843.99827	5017.525
847.8332	4968.125
851.66546	4970.125
855.49504	4946.525
859.32195	4962.025
863.1462	4916.225
866.96777	4900.225
870.78668	4883.525
874.60293	4936.725
878.41652	5005.025
882.22745	5137.225
886.03573	5193.925
889.84136	5178.025
893.64433	5179.025
897.44466	5163.925
901.24235	5169.825
905.0374	5091.025
908.8298	4925.125
912.61957	4826.325
916.40671	4747.825
920.19121	4799.025
923.97308	4983.425
927.75233	5302.825
931.52895	5683.825
935.30295	5486.325
939.07433	4953.225
942.84309	4643.225
946.60924	4502.125
950.37278	4449.325
954.13371	4455.925
957.89203	4449.925
961.64774	4452.625
965.40086	4416.725
969.15137	4414.225
972.89929	4429.125
976.64461	4410.425
980.38733	4406.925
984.12747	4395.725
987.86502	4399.825
991.59999	4430.325
995.33237	4502.825
999.06217	4590.225
1002.78939	4735.125
1006.51404	5003.325
1010.23611	5166.625
1013.95561	5045.625
1017.67255	4887.225
1021.38692	4755.425
1025.09872	4617.625
1028.80796	4544.625
1032.51465	4576.325
1036.21877	4609.425
1039.92035	4676.025
1043.61937	4750.125
1047.31584	4803.725
1051.00976	4829.025
1054.70114	4771.525
1058.38998	4728.625
1062.07627	4712.625
1065.76003	4710.825
1069.44126	4777.225
1073.11995	4854.225
1076.79611	5134.525
1080.46974	5582.125
1084.14085	6184.825
1087.80943	6712.125
1091.47549	6716.825
1095.13903	6180.225
1098.80005	5694.425
1102.45857	5429.825
1106.11456	5415.425
1109.76805	5449.625
1113.41903	5807.425
1117.06751	6335.125
1120.71348	7217.925
1124.35696	8532.825
1127.99793	9445.125
1131.63641	8760.725
1135.2724	7346.225
1138.90589	6387.125
1142.5369	5862.025
1146.16542	5510.125
1149.79145	5288.125
1153.415	5203.125
1157.03607	5252.225
1160.65467	5435.725
1164.27079	5792.225
1167.88443	6297.925
1171.49561	7188.925
1175.10432	8701.525
1178.71056	10814.125
1182.31434	12347.225
1185.91565	12132.725
1189.51451	10782.525
1193.11091	9366.225
1196.70485	8468.225
1200.29634	8099.325
1203.88538	7636.825
1207.47197	6760.625
1211.05612	5945.025
1214.63782	5425.925
1218.21708	5174.825
1221.79391	5077.225
1225.36829	5039.725
1228.94024	5052.425
1232.50976	5053.725
1236.07685	5064.525
1239.6415	5105.425
1243.20374	5192.725
1246.76355	5331.625
1250.32093	5522.825
1253.8759	5752.725
1257.42845	6180.125
1260.97859	6747.325
1264.52631	7295.125
1268.07163	7609.325
1271.61453	7656.425
1275.15503	7503.125
1278.69312	7273.625
1282.22882	7443.925
1285.76211	8207.625
1289.29301	9239.325
1292.82151	9959.025
1296.34761	10234.425
1299.87133	10962.125
1303.39266	12769.725
1306.9116	16142.425
1310.42815	20215.625
1313.94233	21586.425
1317.45412	18449.125
1320.96354	14020.825
1324.47058	10622.625
1327.97525	8548.225
1331.47754	7492.525
1334.97747	7136.625
1338.47502	7285.425
1341.97022	8119.825
1345.46305	9923.525
1348.95352	12522.225
1352.44163	15196.625
1355.92738	18406.825
1359.41078	23960.025
1362.89183	30084.025
1366.37053	28783.525
1369.84688	20302.325
1373.32088	13157.325
1376.79254	10069.425
1380.26186	8712.525
1383.72883	7664.025
1387.19347	6690.725
1390.65578	5944.025
1394.11575	5534.025
1397.57339	5296.725
1401.0287	5168.325
1404.48168	5050.425
1407.93234	5000.825
1411.38068	5067.225
1414.82669	5397.225
1418.27039	5777.425
1421.71177	5847.625
1425.15083	5664.025
1428.58758	5674.025
1432.02203	6021.325
1435.45416	6294.925
1438.88399	6094.725
1442.31151	5796.525
1445.73673	5747.025
1449.15965	5731.025
1452.58027	5620.225
1455.9986	5507.225
1459.41463	5378.025
1462.82837	5385.425
1466.23982	5605.525
1469.64898	5892.725
1473.05586	6010.025
1476.46045	5987.025
1479.86276	6040.525
1483.26279	6278.725
1486.66054	6796.325
1490.05602	7646.225
1493.44922	9008.225
1496.84016	11165.325
1500.22882	14553.325
1503.61521	19231.725
1506.99934	25159.425
1510.38121	30858.925
1513.76081	32828.925
1517.13816	28879.525
1520.51324	21718.825
1523.88607	15371.325
1527.25665	11369.825
1530.62498	9137.725
1533.99105	7856.625
1537.35488	7009.125
1540.71647	6519.425
1544.07581	6341.625
1547.4329	6335.025
1550.78776	6479.325
1554.14038	6752.525
1557.49077	7206.325
1560.83892	7941.625
1564.18484	9134.525
1567.52853	10454.825
1570.86999	11309.825
1574.20922	11479.525
1577.54624	10958.425
1580.88103	9412.725
1584.2136	7472.325
1587.54395	6332.625
1590.87208	6043.925
1594.19801	6376.825
1597.52172	7000.425
1600.84321	7014.425
1604.16251	6372.325
1607.47959	5731.525
1610.79447	5357.525
1614.10715	5039.625
1617.41763	4811.625
1620.7259	4693.925
1624.03199	4709.025
1627.33587	4847.825
1630.63757	5133.925
1633.93707	5703.425
1637.23439	6681.425
1640.52951	8531.025
1643.82246	11676.625
1647.11321	15953.325
1650.40179	19336.225
1653.68819	19053.025
1656.97241	15118.725
1660.25446	10582.325
1663.53433	7469.325
1666.81203	5749.325
1670.08756	4894.925
1673.36092	4437.725
1676.63211	4121.825
1679.90115	3950.125
1683.16801	3812.625
1686.43272	3681.825
1689.69527	3634.325
1692.95567	3558.825
1696.2139	3536.525
1699.46999	3469.425
1702.72392	3464.625
1705.97571	3471.325
1709.22535	3456.425
1712.47284	3512.125
1715.71819	3520.125
1718.96139	3539.525
1722.20246	3515.325
1725.44139	3461.025
1728.67818	3421.725
1731.91284	3329.325
1735.14537	3294.125
1738.37576	3260.025
1741.60403	3251.925
1744.83017	3199.925
1748.05418	3193.725
1751.27607	3187.725
1754.49584	3136.825
1757.71349	3069.325
1760.92903	3051.025
1764.14244	2988.425
1767.35375	2987.425
1770.56294	2953.025
1773.77002	2900.125
1776.97499	2913.725
1780.17785	2874.625
1783.37861	2844.225
1786.57727	2852.325
1789.77382	2784.925
1792.96828	2821.325
1796.16064	2832.125
1799.3509	2815.425
1802.53907	2819.425
1805.72514	2786.925
1808.90913	2762.125
1812.09102	2765.125
1815.27083	2755.725
1818.44856	2739.625
1821.6242	2736.125
1824.79776	2708.425
1827.96924	2700.025
1831.13864	2668.225
1834.30597	2675.925
1837.47122	2651.225
1840.6344	2635.225
1843.7955	2602.425
1846.95454	2594.725
1850.11151	2598.625
1853.26642	2566.725
1856.41926	2567.125
1859.57004	2574.925
1862.71876	2557.925
1865.86542	2582.225
1869.01003	2572.025
1872.15258	2561.525
1875.29308	2582.925
1878.43152	2584.425
1881.56792	2570.325
1884.70227	2549.525
1887.83457	2550.525
1890.96482	2515.425
1894.09304	2517.325
1897.21921	2497.625
1900.34335	2515.925
1903.46544	2489.325
1906.58551	2514.125
1909.70353	2507.425
1912.81953	2514.525
1915.93349	2491.125
1919.04543	2476.225
1922.15534	2455.425
1925.26322	2455.725
1928.36908	2428.925
1931.47292	2413.525
1934.57473	2416.125
1937.67453	2365.225
1940.77232	2345.925
1943.86808	2326.025
1946.96184	2331.325
1950.05358	2304.525
1953.14331	2303.925
1956.23103	2313.925
1959.31675	2290.925
1962.40046	2267.325
1965.48217	2299.925
1968.56188	2310.425
1971.63959	2310.425
1974.7153	2329.425
1977.78901	2310.025
1980.86073	2277.825
1983.93046	2233.725
1986.99819	2152.125
1990.06394	2174.625
1993.1277	2192.425
1996.18947	2174.525
1999.24925	2135.225
2002.30706	2143.625
2005.36288	2148.825
2008.41672	2121.525
2011.46859	2098.525
2014.51848	2097.825
2017.56639	2074.525
2020.61233	2065.625
2023.6563	2076.025
2026.6983	2040.625
2029.73833	2043.725
2032.7764	2051.825
2035.8125	2015.625
2038.84664	2019.125
2041.87881	2010.825
2044.90903	2033.125
2047.93729	2002.625
2050.96359	1986.125
2053.98794	1985.525
2057.01034	1993.625
2060.03078	1961.925
2063.04927	1958.225
2066.06582	1962.025
2069.08042	1930.625
2072.09307	1946.225
2075.10378	1939.725
2078.11255	1936.825
2081.11938	1933.725
2084.12426	1932.625
2087.12722	1935.625
2090.12824	1923.425
2093.12732	1924.125
2096.12447	1944.625
2099.11969	1932.225
2102.11299	1925.425
2105.10435	1940.225
2108.09379	1938.725
2111.08131	1925.025
2114.0669	1936.125
2117.05057	1942.325
2120.03233	1935.125
2123.01216	1965.025
2125.99008	1977.825
2128.96609	1975.125
2131.94018	1982.125
2134.91236	1961.025
2137.88263	1942.125
2140.851	1939.525
2143.81746	1952.225
2146.78201	1920.525
2149.74466	1893.625
2152.7054	1900.725
2155.66425	1888.925
2158.6212	1866.425
2161.57625	1854.725
2164.52941	1845.325
2167.48067	1855.225
2170.43004	1839.325
2173.37752	1887.725
2176.32311	1865.525
2179.26681	1871.925
2182.20863	1874.825
2185.14856	1872.225
2188.08661	1868.825
2191.02278	1870.525
2193.95707	1840.425
2196.88948	1831.825
2199.82001	1829.725
2202.74867	1821.725
2205.67545	1835.725
2208.60037	1831.825
2211.52341	1815.825
2214.44458	1815.125
2217.36388	1811.325
2220.28132	1791.225
2223.1969	1774.925
2226.11061	1789.025
2229.02246	1771.625
2231.93245	1771.225
2234.84058	1761.125
2237.74686	1751.525
2240.65128	1753.425
2243.55385	1773.525
2246.45456	1738.425
2249.35343	1771.925
2252.25044	1762.225
2255.14561	1795.825
2258.03893	1812.525
2260.93041	1816.725
2263.82004	1823.825
2266.70783	1825.325
2269.59378	1809.325
2272.4779	1793.725
2275.36017	1813.125
2278.24061	1802.725
2281.11922	1758.425
2283.996	1776.825
2286.87094	1749.225
2289.74405	1746.325
2292.61534	1743.625
2295.4848	1723.525
2298.35243	1697.225
2301.21824	1701.925
2304.08223	1694.425
2306.94439	1705.125
2309.80474	1705.325
2312.66327	1698.725
2315.51999	1685.525
2318.37489	1681.425
2321.22797	1665.825
2324.07925	1671.325
2326.92871	1659.025
2329.77637	1650.025
2332.62222	1655.425
2335.46626	1640.025
2338.3085	1640.125
2341.14893	1669.325
2343.98756	1666.425
2346.8244	1657.325
2349.65943	1656.725
2352.49267	1669.225
2355.32411	1683.625
2358.15376	1687.525
2360.98161	1700.425
2363.80768	1699.025
2366.63195	1715.925
2369.45444	1731.925
2372.27514	1731.925
2375.09405	1749.725
2377.91118	1704.725
2380.72652	1710.825
2383.54009	1706.025
2386.35187	1699.025
2389.16188	1675.425
2391.97011	1663.225
2394.77657	1639.625
2397.58125	1633.725
2400.38416	1626.125
2403.18529	1616.025
2405.98466	1593.625
2408.78226	1594.225
2411.57809	1580.725
2414.37216	1575.325
2417.16446	1587.125
2419.955	1563.525
2422.74378	1588.925
2425.5308	1577.325
2428.31606	1579.925
2431.09956	1600.225
2433.88131	1577.425
2436.6613	1606.025
2439.43954	1603.425
2442.21603	1601.525
2444.99077	1596.625
2447.76377	1617.525
2450.53501	1624.025
2453.30451	1619.225
2456.07226	1612.625
2458.83827	1602.825
2461.60254	1573.825
2464.36507	1603.625
2467.12586	1583.725
2469.88492	1599.925
2472.64224	1603.625
2475.39782	1588.925
2478.15167	1609.925
2480.90379	1613.125
2483.65417	1648.325
2486.40283	1665.125
2489.14976	1680.525
2491.89497	1667.325
2494.63845	1669.025
2497.3802	1651.425
2500.12024	1645.725
2502.85855	1644.725
2505.59514	1626.025
2508.33002	1602.325
2511.06318	1560.025
2513.79462	1548.525
2516.52435	1505.425
2519.25237	1468.625
2521.97867	1469.725
2524.70327	1467.525
2527.42616	1465.825
2530.14734	1465.725
2532.86681	1442.225
2535.58458	1443.425
2538.30065	1447.625
2541.01501	1462.925
2543.72768	1462.425
2546.43864	1456.825
2549.14791	1460.225
2551.85548	1449.225
2554.56136	1457.925
2557.26554	1467.825
2559.96803	1466.925
2562.66883	1476.825
2565.36794	1460.825
2568.06536	1434.225
2570.7611	1475.225
2573.45514	1458.025
2576.14751	1445.925
2578.83819	1429.925
2581.52719	1425.425
2584.21451	1432.125
2586.90015	1399.925
2589.58411	1401.825
2592.2664	1409.525
2594.94701	1412.325
2597.62594	1416.225
2600.30321	1353.225
2602.9788	1383.625
2605.65273	1371.025
2608.32498	1386.625
2610.99557	1399.325
2613.66449	1376.825
2616.33175	1398.625
2618.99734	1401.125
2621.66128	1402.125
2624.32355	1383.725
2626.98416	1367.225
2629.64311	1352.725
2632.30041	1354.125
2634.95605	1333.325
2637.61004	1318.425
2640.26238	1299.025
2642.91306	1294.925
2645.56209	1319.625
2648.20948	1314.825
2650.85521	1295.225
2653.4993	1317.225
2656.14175	1320.725
2658.78255	1317.825
2661.42171	1284.025
2664.05923	1333.025
2666.6951	1344.425
2669.32934	1346.325
2671.96194	1359.725
2674.59291	1346.425
2677.22224	1355.125
2679.84993	1345.425
2682.476	1330.825
2685.10043	1336.625
2687.72324	1316.425
2690.34441	1318.225
2692.96396	1318.525
2695.58188	1332.625
2698.19818	1313.225
2700.81285	1295.825
2703.4259	1290.025
2706.03733	1272.525
2708.64714	1269.625
2711.25533	1310.625
2713.86191	1310.125
2716.46687	1320.325
2719.07021	1307.025
2721.67194	1301.125
2724.27206	1324.125
2726.87057	1297.625
2729.46747	1283.125
2732.06276	1296.125
2734.65644	1269.625
2737.24852	1276.025
2739.83899	1247.225
2742.42786	1260.325
2745.01513	1261.425
2747.60079	1240.025
2750.18486	1218.125
2752.76733	1219.025
2755.3482	1219.525
2757.92747	1219.225
2760.50515	1203.225
2763.08123	1198.125
2765.65573	1207.325
2768.22863	1191.725
2770.79994	1187.225
2773.36967	1187.825
2775.9378	1175.825
2778.50435	1177.325
2781.06932	1182.025
2783.6327	1172.125
2786.1945	1190.225
2788.75471	1184.525
2791.31335	1186.225
2793.87041	1190.425
2796.42589	1173.525
2798.97979	1168.825
2801.53212	1192.725
2804.08288	1211.025
2806.63206	1195.525
2809.17967	1193.525
2811.72571	1219.925
2814.27018	1221.625
2816.81308	1234.725
2819.35442	1213.425
2821.89419	1242.425
2824.43239	1234.125
2826.96904	1270.925
2829.50412	1253.125
2832.03763	1241.425
2834.56959	1248.625
2837.1	1227.325
2839.62884	1219.925
2842.15613	1211.325
2844.68186	1221.325
2847.20604	1202.825
2849.72867	1212.525
2852.24974	1218.425
2854.76927	1194.725
2857.28724	1164.025
2859.80367	1235.925
2862.31855	1255.525
2864.83189	1257.925
2867.34368	1277.125
2869.85393	1299.925
2872.36264	1277.825
2874.8698	1280.325
2877.37543	1283.425
2879.87952	1276.625
2882.38207	1243.225
2884.88308	1253.425
2887.38256	1232.525
2889.88051	1227.225
2892.37692	1218.025
2894.8718	1203.325
2897.36515	1217.025
2899.85698	1207.025
2902.34727	1216.925
2904.83604	1226.125
2907.32328	1252.625
2909.809	1251.025
2912.29319	1266.725
2914.77587	1278.325
2917.25702	1286.925
2919.73665	1289.125
2922.21476	1264.925
2924.69136	1258.025
2927.16644	1222.625
2929.64	1216.825
2932.11205	1191.025
2934.58258	1197.525
2937.05161	1179.325
2939.51912	1184.425
2941.98513	1196.225
2944.44962	1179.325
2946.91261	1159.425
2949.37409	1165.625
2951.83407	1167.825
2954.29254	1170.225
2956.74951	1182.625
2959.20498	1164.225
2961.65895	1172.425
2964.11142	1162.425
2966.56239	1153.425
2969.01186	1165.125
2971.45984	1154.225
2973.90632	1139.625
2976.35131	1167.025
2978.7948	1157.325
2981.23681	1147.225
2983.67732	1161.325
2986.11635	1162.725
2988.55388	1132.025
2990.98993	1153.225
2993.4245	1156.225
2995.85758	1137.825
2998.28917	1144.425
3000.71928	1139.225
3003.14791	1143.425
3005.57506	1137.625
3008.00073	1128.725
3010.42493	1075.925
3012.84764	1127.325
3015.26888	1129.625
3017.68865	1114.025
3020.10694	1076.225
3022.52376	1100.725
3024.9391	1091.225
3027.35298	1079.425
3029.76539	1057.125
3032.17632	1063.225
3034.5858	1040.425
3036.9938	1045.025
3039.40034	1026.125
3041.80542	1003.625
3044.20903	998.725
3046.61118	978.225
3049.01187	999.625
3051.4111	984.225
3053.80888	976.525
3056.20519	977.525
3058.60005	966.125
3060.99345	982.725
3063.3854	961.925
3065.7759	960.125
3068.16494	945.825
3070.55254	940.025
3072.93868	956.925
3075.32338	947.025
3077.70662	935.425
3080.08842	934.325
3082.46878	913.225
3084.84769	938.425
3087.22515	930.625
3089.60118	926.525
3091.97576	915.925
3094.3489	927.925
3096.72061	920.725
3099.09087	899.325
3101.4597	914.225
3103.82709	909.625
3106.19305	891.725
3108.55757	909.725
3110.92066	902.025
3113.28232	903.525
3115.64255	918.525
3118.00134	907.925
3120.35871	894.025
3122.71466	879.625
3125.06917	902.225
3127.42226	894.225
3129.77393	877.925
3132.12417	890.925
3134.47299	895.025
3136.82039	881.825
3139.16636	867.725
3141.51092	886.125
3143.85406	890.725
3146.19579	872.425
3148.53609	869.425
3150.87499	885.225
3153.21246	882.525
3155.54853	890.725
3157.88318	899.525
3160.21642	892.025
3162.54826	886.225
3164.87868	890.725
3167.2077	854.525
3169.5353	874.725
3171.86151	876.825
3174.18631	866.525
3176.5097	853.925
3178.83169	850.325
3181.15228	848.825
3183.47147	827.025
3185.78926	814.825
3188.10565	825.125
3190.42065	807.025
3192.73424	817.125
3195.04645	812.525
3197.35725	806.325
3199.66667	822.625
3201.97469	804.125
3204.28132	811.325
3206.58656	818.725
3208.8904	831.525
3211.19287	817.225
3213.49394	810.625
3215.79363	810.025
3218.09193	825.125
3220.38884	825.225
3222.68438	820.225
3224.97853	806.825
3227.2713	821.825
3229.56269	804.425
3231.8527	807.425
3234.14133	794.625
3236.42858	796.625
3238.71446	775.925
3240.99896	791.625
