Data from AgNPs_UA_20uM_CRN_500uM_SU_RamanShift__53__13-45-20-301.txt Node

Date: Thu Aug 04 13:45:20 BST 2022
User: TCL
Spectrometer: QEP01345
Trigger mode: 4
Integration Time (sec): 1.000000E0
Scans to average: 10
Electric dark correction enabled: true
Nonlinearity correction enabled: false
Boxcar width: 0
XAxis mode: Raman Shifts
Number of Pixels in Spectrum: 1044
>>>>>Begin Spectral Data<<<<<
46.04893	-1.075
50.45542	0.525
54.85868	1.725
59.25871	0.225
63.6555	17.125
68.04907	15.525
72.43941	20.025
76.82654	17.325
81.21044	19.425
85.59113	18.925
89.96862	20.325
94.34289	19.725
98.71396	22.025
103.08183	21.525
107.4465	21.325
111.80798	23.925
116.16626	23.525
120.52136	25.725
124.87327	24.825
129.222	31.525
133.56755	29.725
137.90993	33.525
142.24913	35.225
146.58517	39.325
150.91804	47.025
155.24774	57.625
159.57429	69.225
163.89768	93.025
168.21792	121.825
172.53501	170.725
176.84895	237.025
181.15975	335.025
185.46741	469.025
189.77193	657.325
194.07331	885.125
198.37157	1136.625
202.6667	1405.625
206.9587	1677.225
211.24758	1937.325
215.53334	2205.125
219.81599	2488.325
224.09553	2806.125
228.37195	3147.425
232.64527	3550.425
236.91549	3932.525
241.18261	4281.825
245.44663	4593.625
249.70755	4850.225
253.96539	5071.725
258.22014	5272.525
262.4718	5443.325
266.72039	5555.825
270.96589	5615.125
275.20832	5601.025
279.44768	5531.025
283.68397	5429.225
287.91719	5362.525
292.14735	5376.125
296.37445	5417.525
300.59849	5546.125
304.81948	5684.025
309.03742	5817.925
313.25231	5861.825
317.46415	5791.225
321.67296	5635.625
325.87872	5472.425
330.08145	5387.425
334.28114	5404.025
338.47781	5486.025
342.67145	5588.525
346.86207	5728.325
351.04966	5901.225
355.23424	6117.025
359.4158	6287.425
363.59435	6382.725
367.76989	6457.625
371.94243	6507.825
376.11196	6519.225
380.27849	6536.425
384.44203	6556.125
388.60257	6577.525
392.76012	6633.825
396.91468	6726.025
401.06626	6823.725
405.21485	6887.925
409.36047	6832.525
413.50311	6667.225
417.64277	6486.725
421.77947	6389.025
425.9132	6332.425
430.04396	6353.925
434.17176	6431.525
438.2966	6563.025
442.41849	6698.125
446.53742	6902.925
450.6534	7086.025
454.76644	7248.225
458.87653	7233.625
462.98368	7195.225
467.08789	7093.325
471.18916	6928.925
475.2875	6762.125
479.38291	6615.625
483.4754	6512.225
487.56496	6478.225
491.6516	6416.525
495.73531	6380.325
499.81612	6392.025
503.89401	6445.225
507.96899	6472.125
512.04106	6527.825
516.11023	6575.025
520.1765	6620.325
524.23987	6636.025
528.30034	6617.925
532.35792	6572.325
536.41261	6536.525
540.46441	6442.325
544.51333	6431.425
548.55936	6473.225
552.60252	6580.325
556.64279	6645.225
560.6802	6697.925
564.71473	6743.425
568.7464	6813.825
572.7752	6786.525
576.80114	6701.025
580.82422	6622.425
584.84444	6638.425
588.86181	6743.425
592.87633	6895.025
596.888	7072.825
600.89682	7311.725
604.9028	8040.025
608.90594	9473.125
612.90624	10764.825
616.90371	9891.825
620.89834	7989.525
624.89015	7303.525
628.87913	7243.425
632.86528	7251.525
636.84862	7148.725
640.82913	6937.225
644.80683	6695.825
648.78172	6561.525
652.75379	6615.625
656.72306	6816.125
660.68952	7013.925
664.65319	6994.225
668.61405	6877.225
672.57211	6889.425
676.52738	6883.725
680.47986	6786.525
684.42955	6684.925
688.37646	6695.925
692.32058	6741.525
696.26192	6856.925
700.20048	6968.925
704.13626	6978.425
708.06928	6899.125
711.99952	6824.125
715.927	6811.225
719.85171	6864.925
723.77365	6847.425
727.69284	6788.125
731.60928	6745.525
735.52295	6736.125
739.43388	6781.825
743.34206	6831.725
747.24749	6861.425
751.15017	6892.225
755.05012	6969.625
758.94733	7166.725
762.8418	7682.525
766.73354	8414.125
770.62254	9056.425
774.50882	9262.625
778.39237	8951.725
782.27321	8276.125
786.15132	7637.825
790.02671	7204.025
793.89938	7025.425
797.76935	6921.025
801.6366	6882.825
805.50115	6858.025
809.36299	6832.225
813.22213	6793.925
817.07857	6803.625
820.93231	6785.125
824.78336	6806.625
828.63172	6825.625
832.47738	6839.625
836.32036	6841.325
840.16066	6868.325
843.99827	6878.725
847.8332	6909.925
851.66546	6846.825
855.49504	6867.825
859.32195	6879.725
863.1462	6868.925
866.96777	6841.825
870.78668	6820.225
874.60293	6819.325
878.41652	6860.625
882.22745	6893.125
886.03573	6940.325
889.84136	6927.125
893.64433	6898.425
897.44466	6871.525
901.24235	6854.625
905.0374	6848.425
908.8298	6820.825
912.61957	6797.325
916.40671	6843.425
920.19121	6890.725
923.97308	6984.425
927.75233	7089.025
931.52895	7139.325
935.30295	7069.725
939.07433	6942.925
942.84309	6855.425
946.60924	6827.725
950.37278	6790.125
954.13371	6763.725
957.89203	6732.625
961.64774	6711.325
965.40086	6681.025
969.15137	6660.125
972.89929	6667.525
976.64461	6691.025
980.38733	6714.425
984.12747	6725.925
987.86502	6767.725
991.59999	6861.525
995.33237	7006.925
999.06217	7241.425
1002.78939	7463.925
1006.51404	7554.125
1010.23611	7612.225
1013.95561	7673.725
1017.67255	7751.925
1021.38692	7754.825
1025.09872	7754.525
1028.80796	7886.425
1032.51465	8053.225
1036.21877	8231.225
1039.92035	8166.625
1043.61937	8019.925
1047.31584	7826.125
1051.00976	7628.925
1054.70114	7543.425
1058.38998	7541.525
1062.07627	7544.525
1065.76003	7563.325
1069.44126	7600.125
1073.11995	7681.525
1076.79611	7777.025
1080.46974	7845.925
1084.14085	7926.525
1087.80943	8004.025
1091.47549	8019.825
1095.13903	7923.725
1098.80005	7836.425
1102.45857	7781.725
1106.11456	7763.025
1109.76805	7764.025
1113.41903	7817.525
1117.06751	7936.225
1120.71348	8061.025
1124.35696	8201.725
1127.99793	8277.725
1131.63641	8174.025
1135.2724	7980.225
1138.90589	7811.325
1142.5369	7692.825
1146.16542	7594.825
1149.79145	7566.225
1153.415	7550.325
1157.03607	7544.125
1160.65467	7648.825
1164.27079	7812.525
1167.88443	8080.025
1171.49561	8490.625
1175.10432	9105.625
1178.71056	9888.725
1182.31434	10633.925
1185.91565	10995.225
1189.51451	10998.225
1193.11091	10665.725
1196.70485	10184.025
1200.29634	9759.625
1203.88538	9376.425
1207.47197	8971.025
1211.05612	8669.325
1214.63782	8451.425
1218.21708	8368.325
1221.79391	8431.625
1225.36829	8470.325
1228.94024	8463.625
1232.50976	8386.225
1236.07685	8336.525
1239.6415	8355.525
1243.20374	8389.625
1246.76355	8430.225
1250.32093	8549.625
1253.8759	8713.925
1257.42845	8959.925
1260.97859	9221.525
1264.52631	9452.425
1268.07163	9593.425
1271.61453	9776.825
1275.15503	9917.025
1278.69312	10103.425
1282.22882	10228.625
1285.76211	10371.525
1289.29301	10485.925
1292.82151	10694.625
1296.34761	10910.025
1299.87133	11346.225
1303.39266	11988.425
1306.9116	12870.925
1310.42815	13820.225
1313.94233	14230.425
1317.45412	13880.625
1320.96354	13194.925
1324.47058	12432.925
1327.97525	11866.825
1331.47754	11606.625
1334.97747	11650.325
1338.47502	11814.325
1341.97022	12155.025
1345.46305	12579.125
1348.95352	13100.925
1352.44163	13662.925
1355.92738	14442.525
1359.41078	15431.825
1362.89183	16010.825
1366.37053	15209.325
1369.84688	13385.125
1373.32088	11686.425
1376.79254	10724.625
1380.26186	10259.925
1383.72883	10005.825
1387.19347	9793.325
1390.65578	9476.725
1394.11575	9227.925
1397.57339	9094.525
1401.0287	9099.925
1404.48168	9163.025
1407.93234	9314.425
1411.38068	9473.225
1414.82669	9604.125
1418.27039	9593.525
1421.71177	9450.925
1425.15083	9371.525
1428.58758	9394.025
1432.02203	9527.325
1435.45416	9666.225
1438.88399	9669.725
1442.31151	9610.225
1445.73673	9536.725
1449.15965	9499.325
1452.58027	9395.525
1455.9986	9291.025
1459.41463	9257.325
1462.82837	9356.325
1466.23982	9497.925
1469.64898	9692.625
1473.05586	9823.425
1476.46045	9939.425
1479.86276	10046.725
1483.26279	10165.525
1486.66054	10293.525
1490.05602	10514.025
1493.44922	10858.425
1496.84016	11330.525
1500.22882	11998.725
1503.61521	12847.725
1506.99934	13646.425
1510.38121	14052.625
1513.76081	13817.225
1517.13816	12953.925
1520.51324	11962.925
1523.88607	11147.725
1527.25665	10653.125
1530.62498	10410.125
1533.99105	10270.725
1537.35488	10205.025
1540.71647	10142.925
1544.07581	10033.425
1547.4329	9937.125
1550.78776	9803.025
1554.14038	9694.625
1557.49077	9651.125
1560.83892	9663.325
1564.18484	9758.325
1567.52853	9882.625
1570.86999	9959.325
1574.20922	9977.525
1577.54624	9817.825
1580.88103	9535.025
1584.2136	9242.825
1587.54395	9205.325
1590.87208	9490.725
1594.19801	10090.925
1597.52172	10834.425
1600.84321	11265.525
1604.16251	11147.825
1607.47959	10618.325
1610.79447	9942.025
1614.10715	9257.825
1617.41763	8696.225
1620.7259	8327.825
1624.03199	8147.225
1627.33587	8158.625
1630.63757	8360.225
1633.93707	8759.525
1637.23439	9391.225
1640.52951	10181.625
1643.82246	11111.425
1647.11321	11787.725
1650.40179	11785.425
1653.68819	10945.525
1656.97241	9686.525
1660.25446	8579.525
1663.53433	7829.325
1666.81203	7394.125
1670.08756	7124.025
1673.36092	6977.925
1676.63211	6848.525
1679.90115	6763.125
1683.16801	6706.625
1686.43272	6645.125
1689.69527	6606.525
1692.95567	6603.325
1696.2139	6570.925
1699.46999	6552.325
1702.72392	6549.525
1705.97571	6552.125
1709.22535	6553.625
1712.47284	6539.825
1715.71819	6530.225
1718.96139	6518.125
1722.20246	6503.125
1725.44139	6485.625
1728.67818	6457.125
1731.91284	6425.025
1735.14537	6404.925
1738.37576	6379.425
1741.60403	6363.125
1744.83017	6345.825
1748.05418	6340.425
1751.27607	6304.725
1754.49584	6287.025
1757.71349	6262.125
1760.92903	6278.425
1764.14244	6254.025
1767.35375	6253.525
1770.56294	6243.425
1773.77002	6248.125
1776.97499	6239.025
1780.17785	6220.825
1783.37861	6207.525
1786.57727	6187.025
1789.77382	6196.325
1792.96828	6174.925
1796.16064	6180.425
1799.3509	6151.325
1802.53907	6148.525
1805.72514	6152.225
1808.90913	6151.725
1812.09102	6119.625
1815.27083	6118.025
1818.44856	6097.125
1821.6242	6062.625
1824.79776	6068.825
1827.96924	6078.425
1831.13864	6046.825
1834.30597	6051.325
1837.47122	6059.525
1840.6344	6026.525
1843.7955	6027.625
1846.95454	6009.625
1850.11151	6011.425
1853.26642	6015.925
1856.41926	6003.425
1859.57004	6019.625
1862.71876	6002.325
1865.86542	5998.525
1869.01003	6000.325
1872.15258	5998.425
1875.29308	5989.525
1878.43152	5990.925
1881.56792	5989.625
1884.70227	5965.325
1887.83457	5966.925
1890.96482	5972.025
1894.09304	5943.625
1897.21921	5920.025
1900.34335	5937.225
1903.46544	5936.125
1906.58551	5925.225
1909.70353	5934.425
1912.81953	5908.125
1915.93349	5912.725
1919.04543	5898.325
1922.15534	5886.825
1925.26322	5875.825
1928.36908	5869.625
1931.47292	5879.925
1934.57473	5847.725
1937.67453	5860.825
1940.77232	5856.425
1943.86808	5829.425
1946.96184	5803.325
1950.05358	5802.125
1953.14331	5780.025
1956.23103	5746.325
1959.31675	5743.925
1962.40046	5719.925
1965.48217	5684.325
1968.56188	5681.725
1971.63959	5669.625
1974.7153	5657.425
1977.78901	5628.025
1980.86073	5625.025
1983.93046	5603.725
1986.99819	5595.225
1990.06394	5542.525
1993.1277	5550.525
1996.18947	5542.125
1999.24925	5519.325
2002.30706	5500.325
2005.36288	5478.925
2008.41672	5468.225
2011.46859	5455.525
2014.51848	5425.325
2017.56639	5419.225
2020.61233	5412.725
2023.6563	5398.925
2026.6983	5395.425
2029.73833	5372.225
2032.7764	5366.925
2035.8125	5350.725
2038.84664	5337.525
2041.87881	5335.125
2044.90903	5332.725
2047.93729	5314.725
2050.96359	5322.725
2053.98794	5305.725
2057.01034	5294.025
2060.03078	5275.225
2063.04927	5278.025
2066.06582	5263.925
2069.08042	5263.225
2072.09307	5269.425
2075.10378	5263.325
2078.11255	5259.425
2081.11938	5252.425
2084.12426	5234.125
2087.12722	5225.725
2090.12824	5226.125
2093.12732	5233.125
2096.12447	5251.425
2099.11969	5231.825
2102.11299	5238.525
2105.10435	5233.725
2108.09379	5232.625
2111.08131	5229.225
2114.0669	5246.925
2117.05057	5256.525
2120.03233	5242.925
2123.01216	5253.425
2125.99008	5239.325
2128.96609	5256.125
2131.94018	5258.925
2134.91236	5267.425
2137.88263	5267.225
2140.851	5259.325
2143.81746	5252.525
2146.78201	5269.125
2149.74466	5259.825
2152.7054	5272.325
2155.66425	5251.425
2158.6212	5251.625
2161.57625	5260.625
2164.52941	5248.625
2167.48067	5244.225
2170.43004	5233.025
2173.37752	5236.825
2176.32311	5242.325
2179.26681	5226.125
2182.20863	5233.625
2185.14856	5241.325
2188.08661	5240.625
2191.02278	5250.125
2193.95707	5253.325
2196.88948	5231.025
2199.82001	5244.425
2202.74867	5253.325
2205.67545	5226.425
2208.60037	5243.225
2211.52341	5230.125
2214.44458	5207.425
2217.36388	5193.425
2220.28132	5193.125
2223.1969	5181.325
2226.11061	5183.025
2229.02246	5156.725
2231.93245	5146.425
2234.84058	5134.225
2237.74686	5123.325
2240.65128	5121.325
2243.55385	5125.725
2246.45456	5108.725
2249.35343	5103.925
2252.25044	5077.825
2255.14561	5088.325
2258.03893	5095.225
2260.93041	5078.325
2263.82004	5060.425
2266.70783	5057.525
2269.59378	5046.925
2272.4779	5036.025
2275.36017	5019.425
2278.24061	5007.125
2281.11922	5001.725
2283.996	4975.825
2286.87094	4969.625
2289.74405	4946.325
2292.61534	4967.125
2295.4848	4960.925
2298.35243	4947.025
2301.21824	4933.925
2304.08223	4948.925
2306.94439	4966.125
2309.80474	4966.525
2312.66327	4967.325
2315.51999	4948.625
2318.37489	4947.625
2321.22797	4951.625
2324.07925	4938.925
2326.92871	4935.825
2329.77637	4926.125
2332.62222	4926.825
2335.46626	4908.325
2338.3085	4900.525
2341.14893	4923.925
2343.98756	4920.325
2346.8244	4932.025
2349.65943	4924.025
2352.49267	4930.825
2355.32411	4920.625
2358.15376	4902.825
2360.98161	4898.825
2363.80768	4889.425
2366.63195	4893.825
2369.45444	4881.825
2372.27514	4874.925
2375.09405	4862.925
2377.91118	4875.725
2380.72652	4848.825
2383.54009	4835.025
2386.35187	4824.125
2389.16188	4817.125
2391.97011	4809.125
2394.77657	4800.325
2397.58125	4788.725
2400.38416	4776.825
2403.18529	4772.525
2405.98466	4757.625
2408.78226	4759.525
2411.57809	4733.725
2414.37216	4733.325
2417.16446	4713.225
2419.955	4713.525
2422.74378	4684.225
2425.5308	4695.725
2428.31606	4685.625
2431.09956	4685.225
2433.88131	4689.225
2436.6613	4677.325
2439.43954	4698.325
2442.21603	4670.025
2444.99077	4685.625
2447.76377	4683.025
2450.53501	4676.325
2453.30451	4668.525
2456.07226	4657.025
2458.83827	4647.325
2461.60254	4657.125
2464.36507	4650.525
2467.12586	4633.425
2469.88492	4633.025
2472.64224	4641.425
2475.39782	4631.425
2478.15167	4637.625
2480.90379	4632.825
2483.65417	4636.025
2486.40283	4642.225
2489.14976	4641.125
2491.89497	4652.725
2494.63845	4642.825
2497.3802	4645.025
2500.12024	4643.625
2502.85855	4616.325
2505.59514	4605.825
2508.33002	4609.325
2511.06318	4595.125
2513.79462	4585.425
2516.52435	4582.225
2519.25237	4586.025
2521.97867	4583.425
2524.70327	4557.725
2527.42616	4577.025
2530.14734	4571.525
2532.86681	4556.525
2535.58458	4554.225
2538.30065	4549.125
2541.01501	4548.725
2543.72768	4546.425
2546.43864	4548.025
2549.14791	4532.025
2551.85548	4543.925
2554.56136	4527.325
2557.26554	4513.925
2559.96803	4516.125
2562.66883	4514.925
2565.36794	4499.425
2568.06536	4496.025
2570.7611	4476.525
2573.45514	4467.225
2576.14751	4487.125
2578.83819	4464.425
2581.52719	4464.925
2584.21451	4443.625
2586.90015	4434.525
2589.58411	4434.125
2592.2664	4439.025
2594.94701	4447.525
2597.62594	4435.225
2600.30321	4422.325
2602.9788	4436.625
2605.65273	4434.125
2608.32498	4424.625
2610.99557	4405.425
2613.66449	4429.225
2616.33175	4401.425
2618.99734	4416.225
2621.66128	4423.825
2624.32355	4416.225
2626.98416	4417.325
2629.64311	4407.025
2632.30041	4413.825
2634.95605	4399.925
2637.61004	4411.425
2640.26238	4387.525
2642.91306	4370.325
2645.56209	4374.525
2648.20948	4363.925
2650.85521	4367.725
2653.4993	4345.625
2656.14175	4359.025
2658.78255	4364.225
2661.42171	4351.825
2664.05923	4365.025
2666.6951	4381.925
2669.32934	4377.325
2671.96194	4361.425
2674.59291	4368.325
2677.22224	4367.925
2679.84993	4364.725
2682.476	4354.725
2685.10043	4353.125
2687.72324	4338.825
2690.34441	4357.725
2692.96396	4345.825
2695.58188	4322.725
2698.19818	4327.825
2700.81285	4344.625
2703.4259	4352.425
2706.03733	4325.425
2708.64714	4327.425
2711.25533	4313.525
2713.86191	4313.025
2716.46687	4330.325
2719.07021	4339.025
2721.67194	4331.025
2724.27206	4332.725
2726.87057	4329.125
2729.46747	4337.625
2732.06276	4326.225
2734.65644	4316.025
2737.24852	4327.025
2739.83899	4304.125
2742.42786	4323.325
2745.01513	4306.925
2747.60079	4306.825
2750.18486	4302.825
2752.76733	4301.225
2755.3482	4294.125
2757.92747	4276.025
2760.50515	4264.525
2763.08123	4257.225
2765.65573	4263.325
2768.22863	4248.425
2770.79994	4254.125
2773.36967	4263.325
2775.9378	4260.925
2778.50435	4262.825
2781.06932	4257.625
2783.6327	4254.625
2786.1945	4245.225
2788.75471	4232.925
2791.31335	4226.325
2793.87041	4204.325
2796.42589	4216.325
2798.97979	4209.725
2801.53212	4196.325
2804.08288	4198.425
2806.63206	4177.425
2809.17967	4181.225
2811.72571	4173.725
2814.27018	4180.125
2816.81308	4159.025
2819.35442	4152.825
2821.89419	4129.625
2824.43239	4130.725
2826.96904	4133.825
2829.50412	4123.725
2832.03763	4131.325
2834.56959	4109.525
2837.1	4102.825
2839.62884	4108.425
2842.15613	4097.325
2844.68186	4096.525
2847.20604	4096.025
2849.72867	4092.025
2852.24974	4083.025
2854.76927	4058.125
2857.28724	4064.925
2859.80367	4038.225
2862.31855	4035.125
2864.83189	4049.425
2867.34368	4035.025
2869.85393	4035.925
2872.36264	4028.925
2874.8698	4033.525
2877.37543	4032.025
2879.87952	4010.925
2882.38207	3997.825
2884.88308	4020.725
2887.38256	4014.825
2889.88051	4014.225
2892.37692	4014.725
2894.8718	4010.325
2897.36515	3988.325
2899.85698	4017.425
2902.34727	4018.125
2904.83604	4012.425
2907.32328	4022.925
2909.809	4021.825
2912.29319	4025.425
2914.77587	4013.525
2917.25702	4026.725
2919.73665	4014.825
2922.21476	4023.225
2924.69136	4013.025
2927.16644	4015.225
2929.64	3988.225
2932.11205	3986.925
2934.58258	3968.225
2937.05161	3976.625
2939.51912	3954.225
2941.98513	3963.425
2944.44962	3972.225
2946.91261	3956.725
2949.37409	3966.825
2951.83407	3958.325
2954.29254	3947.225
2956.74951	3951.925
2959.20498	3944.425
2961.65895	3938.525
2964.11142	3935.425
2966.56239	3925.825
2969.01186	3931.025
2971.45984	3938.125
2973.90632	3926.525
2976.35131	3916.125
2978.7948	3903.025
2981.23681	3887.925
2983.67732	3892.725
2986.11635	3869.525
2988.55388	3869.525
2990.98993	3858.025
2993.4245	3853.125
2995.85758	3842.325
2998.28917	3830.325
3000.71928	3830.925
3003.14791	3815.225
3005.57506	3801.825
3008.00073	3789.525
3010.42493	3778.925
3012.84764	3768.525
3015.26888	3769.325
3017.68865	3764.125
3020.10694	3748.125
3022.52376	3747.525
3024.9391	3723.125
3027.35298	3722.325
3029.76539	3706.425
3032.17632	3703.725
3034.5858	3715.825
3036.9938	3707.225
3039.40034	3698.725
3041.80542	3679.625
3044.20903	3676.725
3046.61118	3676.525
3049.01187	3659.925
3051.4111	3660.325
3053.80888	3644.425
3056.20519	3634.525
3058.60005	3624.025
3060.99345	3615.225
3063.3854	3617.625
3065.7759	3607.025
3068.16494	3591.825
3070.55254	3586.725
3072.93868	3558.525
3075.32338	3563.825
3077.70662	3550.725
3080.08842	3532.425
3082.46878	3527.425
3084.84769	3526.025
3087.22515	3533.425
3089.60118	3509.525
3091.97576	3516.125
3094.3489	3512.525
3096.72061	3504.425
3099.09087	3506.625
3101.4597	3508.025
3103.82709	3510.125
3106.19305	3484.125
3108.55757	3487.125
3110.92066	3481.725
3113.28232	3484.925
3115.64255	3466.025
3118.00134	3465.225
3120.35871	3446.625
3122.71466	3448.225
3125.06917	3449.225
3127.42226	3437.125
3129.77393	3434.725
3132.12417	3427.325
3134.47299	3402.525
3136.82039	3404.525
3139.16636	3398.625
3141.51092	3389.225
3143.85406	3400.125
3146.19579	3408.625
3148.53609	3399.925
3150.87499	3394.225
3153.21246	3378.325
3155.54853	3397.425
3157.88318	3398.425
3160.21642	3397.525
3162.54826	3392.725
3164.87868	3374.225
3167.2077	3381.725
3169.5353	3383.325
3171.86151	3380.225
3174.18631	3368.625
3176.5097	3370.825
3178.83169	3348.725
3181.15228	3348.225
3183.47147	3338.425
3185.78926	3350.925
3188.10565	3317.425
3190.42065	3324.425
3192.73424	3311.325
3195.04645	3302.025
3197.35725	3324.325
3199.66667	3292.025
3201.97469	3297.025
3204.28132	3305.225
3206.58656	3299.725
3208.8904	3301.125
3211.19287	3309.725
3213.49394	3312.925
3215.79363	3307.925
3218.09193	3287.925
3220.38884	3302.725
3222.68438	3298.425
3224.97853	3286.825
3227.2713	3292.925
3229.56269	3295.325
3231.8527	3283.025
