Data from AgNPs_APTES_FTO_UA_100uM_CRN_0uM_R6G_10uM_Scan_RamanShift__29__12-37-53-540.txt Node

Date: Thu Jun 23 12:37:53 BST 2022
User: TCL
Spectrometer: QEP01345
Trigger mode: 4
Integration Time (sec): 7.000000E0
Scans to average: 10
Electric dark correction enabled: true
Nonlinearity correction enabled: false
Boxcar width: 0
XAxis mode: Raman Shifts
Number of Pixels in Spectrum: 1044
>>>>>Begin Spectral Data<<<<<
46.04893	0.525
50.45542	-0.375
54.85868	-0.875
59.25871	-0.375
63.6555	29.725
68.04907	31.025
72.43941	35.425
76.82654	42.225
81.21044	39.925
85.59113	39.425
89.96862	45.625
94.34289	45.325
98.71396	47.125
103.08183	45.025
107.4465	47.525
111.80798	46.125
116.16626	48.625
120.52136	50.025
124.87327	45.825
129.222	47.225
133.56755	46.925
137.90993	46.125
142.24913	46.325
146.58517	47.225
150.91804	48.325
155.24774	53.525
159.57429	56.025
163.89768	58.025
168.21792	69.225
172.53501	78.525
176.84895	94.925
181.15975	126.825
185.46741	172.225
189.77193	218.425
194.07331	281.625
198.37157	359.925
202.6667	438.125
206.9587	518.025
211.24758	596.025
215.53334	672.925
219.81599	753.025
224.09553	833.825
228.37195	922.525
232.64527	1020.225
236.91549	1119.025
241.18261	1211.925
245.44663	1302.725
249.70755	1392.425
253.96539	1469.025
258.22014	1516.825
262.4718	1559.725
266.72039	1580.225
270.96589	1589.925
275.20832	1580.025
279.44768	1563.725
283.68397	1542.625
287.91719	1512.325
292.14735	1491.125
296.37445	1485.625
300.59849	1486.625
304.81948	1490.025
309.03742	1495.725
313.25231	1493.025
317.46415	1468.225
321.67296	1431.625
325.87872	1393.925
330.08145	1373.425
334.28114	1357.325
338.47781	1380.025
342.67145	1392.825
346.86207	1410.925
351.04966	1436.025
355.23424	1472.925
359.4158	1514.025
363.59435	1552.125
367.76989	1570.825
371.94243	1580.225
376.11196	1596.025
380.27849	1618.325
384.44203	1622.125
388.60257	1629.025
392.76012	1624.325
396.91468	1649.125
401.06626	1667.525
405.21485	1667.125
409.36047	1659.725
413.50311	1631.725
417.64277	1600.525
421.77947	1577.625
425.9132	1567.925
430.04396	1572.125
434.17176	1569.825
438.2966	1587.125
442.41849	1596.925
446.53742	1630.525
450.6534	1634.625
454.76644	1664.425
458.87653	1660.525
462.98368	1664.025
467.08789	1663.125
471.18916	1659.125
475.2875	1643.725
479.38291	1661.425
483.4754	1678.025
487.56496	1705.525
491.6516	1744.525
495.73531	1760.825
499.81612	1751.925
503.89401	1738.125
507.96899	1710.125
512.04106	1709.725
516.11023	1704.225
520.1765	1717.725
524.23987	1740.125
528.30034	1748.125
532.35792	1745.825
536.41261	1724.925
540.46441	1704.525
544.51333	1668.425
548.55936	1650.625
552.60252	1645.225
556.64279	1646.925
560.6802	1652.425
564.71473	1651.325
568.7464	1657.825
572.7752	1671.425
576.80114	1658.725
580.82422	1662.025
584.84444	1680.825
588.86181	1714.425
592.87633	1726.025
596.888	1728.425
600.89682	1757.125
604.9028	1827.525
608.90594	2017.825
612.90624	2265.725
616.90371	2243.225
620.89834	2026.225
624.89015	1976.525
628.87913	2067.725
632.86528	2189.625
636.84862	2243.425
640.82913	2200.325
644.80683	2079.925
648.78172	1945.025
652.75379	1853.325
656.72306	1800.125
660.68952	1792.825
664.65319	1762.425
668.61405	1728.725
672.57211	1723.525
676.52738	1729.825
680.47986	1733.225
684.42955	1725.925
688.37646	1736.625
692.32058	1715.525
696.26192	1701.325
700.20048	1692.625
704.13626	1692.825
708.06928	1680.525
711.99952	1677.625
715.927	1678.125
719.85171	1692.525
723.77365	1710.925
727.69284	1719.425
731.60928	1711.325
735.52295	1694.925
739.43388	1676.225
743.34206	1679.425
747.24749	1669.925
751.15017	1679.525
755.05012	1671.025
758.94733	1694.725
762.8418	1755.725
766.73354	1858.325
770.62254	1975.625
774.50882	2039.225
778.39237	2020.025
782.27321	1907.025
786.15132	1783.925
790.02671	1716.625
793.89938	1686.525
797.76935	1688.425
801.6366	1712.425
805.50115	1773.025
809.36299	1824.425
813.22213	1845.125
817.07857	1824.725
820.93231	1760.025
824.78336	1716.725
828.63172	1663.025
832.47738	1641.325
836.32036	1627.725
840.16066	1620.025
843.99827	1636.125
847.8332	1609.325
851.66546	1626.125
855.49504	1617.025
859.32195	1614.225
863.1462	1624.425
866.96777	1638.225
870.78668	1663.425
874.60293	1700.625
878.41652	1749.825
882.22745	1787.425
886.03573	1819.025
889.84136	1830.825
893.64433	1799.925
897.44466	1751.225
901.24235	1702.025
905.0374	1657.325
908.8298	1635.125
912.61957	1621.225
916.40671	1614.925
920.19121	1621.525
923.97308	1621.225
927.75233	1641.225
931.52895	1637.925
935.30295	1625.325
939.07433	1607.625
942.84309	1588.325
946.60924	1561.925
950.37278	1544.525
954.13371	1534.225
957.89203	1526.125
961.64774	1513.225
965.40086	1496.625
969.15137	1475.225
972.89929	1469.525
976.64461	1460.925
980.38733	1461.225
984.12747	1454.625
987.86502	1465.025
991.59999	1466.725
995.33237	1480.825
999.06217	1490.725
1002.78939	1504.725
1006.51404	1541.725
1010.23611	1569.525
1013.95561	1590.825
1017.67255	1606.625
1021.38692	1602.925
1025.09872	1577.825
1028.80796	1553.625
1032.51465	1534.525
1036.21877	1510.125
1039.92035	1505.325
1043.61937	1483.725
1047.31584	1480.325
1051.00976	1477.225
1054.70114	1493.825
1058.38998	1489.325
1062.07627	1493.525
1065.76003	1515.925
1069.44126	1530.525
1073.11995	1527.425
1076.79611	1541.525
1080.46974	1545.725
1084.14085	1526.425
1087.80943	1529.525
1091.47549	1526.325
1095.13903	1505.825
1098.80005	1474.625
1102.45857	1450.525
1106.11456	1459.125
1109.76805	1449.825
1113.41903	1493.025
1117.06751	1539.625
1120.71348	1615.725
1124.35696	1710.125
1127.99793	1829.325
1131.63641	1926.725
1135.2724	1962.625
1138.90589	1955.125
1142.5369	1874.125
1146.16542	1768.625
1149.79145	1662.825
1153.415	1578.025
1157.03607	1511.025
1160.65467	1487.025
1164.27079	1465.125
1167.88443	1489.525
1171.49561	1508.225
1175.10432	1588.725
1178.71056	1673.525
1182.31434	1764.225
1185.91565	1819.025
1189.51451	1822.825
1193.11091	1814.725
1196.70485	1815.725
1200.29634	1827.825
1203.88538	1810.525
1207.47197	1769.625
1211.05612	1705.825
1214.63782	1639.925
1218.21708	1568.625
1221.79391	1523.425
1225.36829	1492.125
1228.94024	1465.125
1232.50976	1450.225
1236.07685	1445.125
1239.6415	1448.025
1243.20374	1464.725
1246.76355	1453.825
1250.32093	1457.225
1253.8759	1465.325
1257.42845	1487.325
1260.97859	1508.925
1264.52631	1536.725
1268.07163	1543.125
1271.61453	1548.325
1275.15503	1562.925
1278.69312	1560.025
1282.22882	1558.025
1285.76211	1569.325
1289.29301	1573.225
1292.82151	1605.225
1296.34761	1639.525
1299.87133	1678.325
1303.39266	1756.125
1306.9116	1850.325
1310.42815	1944.525
1313.94233	1996.325
1317.45412	1976.125
1320.96354	1903.825
1324.47058	1827.925
1327.97525	1768.525
1331.47754	1731.425
1334.97747	1719.425
1338.47502	1741.625
1341.97022	1774.225
1345.46305	1843.425
1348.95352	1936.725
1352.44163	2068.325
1355.92738	2200.225
1359.41078	2388.625
1362.89183	2508.425
1366.37053	2470.825
1369.84688	2276.625
1373.32088	2082.225
1376.79254	1929.125
1380.26186	1828.825
1383.72883	1770.825
1387.19347	1699.625
1390.65578	1651.625
1394.11575	1620.825
1397.57339	1596.925
1401.0287	1550.025
1404.48168	1527.825
1407.93234	1492.725
1411.38068	1481.125
1414.82669	1447.025
1418.27039	1422.125
1421.71177	1394.325
1425.15083	1377.225
1428.58758	1358.725
1432.02203	1351.825
1435.45416	1352.125
1438.88399	1348.025
1442.31151	1342.225
1445.73673	1329.025
1449.15965	1318.925
1452.58027	1322.825
1455.9986	1317.025
1459.41463	1319.425
1462.82837	1328.225
1466.23982	1328.225
1469.64898	1337.925
1473.05586	1351.425
1476.46045	1350.225
1479.86276	1374.225
1483.26279	1390.425
1486.66054	1410.825
1490.05602	1433.825
1493.44922	1491.425
1496.84016	1554.125
1500.22882	1661.925
1503.61521	1796.825
1506.99934	1934.725
1510.38121	2062.825
1513.76081	2074.025
1517.13816	1976.925
1520.51324	1821.425
1523.88607	1671.525
1527.25665	1567.425
1530.62498	1524.925
1533.99105	1490.425
1537.35488	1478.925
1540.71647	1475.925
1544.07581	1490.325
1547.4329	1501.025
1550.78776	1516.625
1554.14038	1524.425
1557.49077	1536.925
1560.83892	1547.225
1564.18484	1547.625
1567.52853	1582.025
1570.86999	1607.725
1574.20922	1632.825
1577.54624	1612.325
1580.88103	1574.725
1584.2136	1515.425
1587.54395	1468.925
1590.87208	1446.225
1594.19801	1457.625
1597.52172	1479.125
1600.84321	1497.025
1604.16251	1496.425
1607.47959	1469.725
1610.79447	1457.525
1614.10715	1451.925
1617.41763	1425.025
1620.7259	1426.225
1624.03199	1424.025
1627.33587	1421.425
1630.63757	1422.025
1633.93707	1439.325
1637.23439	1473.725
1640.52951	1526.225
1643.82246	1609.625
1647.11321	1703.225
1650.40179	1770.425
1653.68819	1755.125
1656.97241	1660.825
1660.25446	1534.825
1663.53433	1429.825
1666.81203	1343.425
1670.08756	1294.325
1673.36092	1268.525
1676.63211	1240.925
1679.90115	1224.325
1683.16801	1198.125
1686.43272	1186.725
1689.69527	1164.225
1692.95567	1134.125
1696.2139	1114.425
1699.46999	1078.525
1702.72392	1036.225
1705.97571	1032.525
1709.22535	1012.725
1712.47284	1007.425
1715.71819	982.325
1718.96139	975.025
1722.20246	954.025
1725.44139	953.725
1728.67818	939.925
1731.91284	925.025
1735.14537	924.925
1738.37576	909.325
1741.60403	906.325
1744.83017	890.725
1748.05418	881.725
1751.27607	878.425
1754.49584	863.525
1757.71349	857.225
1760.92903	841.425
1764.14244	839.625
1767.35375	832.125
1770.56294	835.425
1773.77002	829.725
1776.97499	837.225
1780.17785	838.625
1783.37861	843.825
1786.57727	840.725
1789.77382	844.925
1792.96828	843.925
1796.16064	846.125
1799.3509	835.825
1802.53907	828.325
1805.72514	824.925
1808.90913	820.625
1812.09102	810.825
1815.27083	818.925
1818.44856	820.325
1821.6242	819.225
1824.79776	809.825
1827.96924	809.925
1831.13864	808.825
1834.30597	800.625
1837.47122	804.425
1840.6344	798.725
1843.7955	795.525
1846.95454	794.725
1850.11151	792.925
1853.26642	793.125
1856.41926	787.525
1859.57004	793.025
1862.71876	780.425
1865.86542	777.925
1869.01003	780.125
1872.15258	776.825
1875.29308	780.325
1878.43152	773.225
1881.56792	776.325
1884.70227	764.625
1887.83457	766.225
1890.96482	761.725
1894.09304	765.425
1897.21921	757.225
1900.34335	753.425
1903.46544	743.825
1906.58551	749.025
1909.70353	750.825
1912.81953	749.325
1915.93349	747.825
1919.04543	747.825
1922.15534	744.725
1925.26322	737.025
1928.36908	731.725
1931.47292	734.525
1934.57473	731.625
1937.67453	724.425
1940.77232	721.625
1943.86808	721.525
1946.96184	723.725
1950.05358	712.825
1953.14331	713.725
1956.23103	707.925
1959.31675	706.125
1962.40046	700.525
1965.48217	706.525
1968.56188	702.625
1971.63959	696.725
1974.7153	701.225
1977.78901	693.125
1980.86073	690.525
1983.93046	685.625
1986.99819	679.625
1990.06394	683.125
1993.1277	679.125
1996.18947	675.425
1999.24925	667.325
2002.30706	670.525
2005.36288	663.725
2008.41672	660.925
2011.46859	664.625
2014.51848	663.125
2017.56639	654.625
2020.61233	653.525
2023.6563	641.925
2026.6983	644.125
2029.73833	639.725
2032.7764	645.825
2035.8125	638.025
2038.84664	640.725
2041.87881	640.725
2044.90903	635.425
2047.93729	636.925
2050.96359	633.825
2053.98794	633.925
2057.01034	623.725
2060.03078	624.325
2063.04927	628.325
2066.06582	628.425
2069.08042	623.625
2072.09307	626.225
2075.10378	622.825
2078.11255	617.225
2081.11938	630.225
2084.12426	623.625
2087.12722	613.125
2090.12824	620.725
2093.12732	618.525
2096.12447	614.825
2099.11969	620.625
2102.11299	619.825
2105.10435	611.025
2108.09379	613.525
2111.08131	619.025
2114.0669	609.625
2117.05057	614.625
2120.03233	613.725
2123.01216	605.025
2125.99008	607.925
2128.96609	606.925
2131.94018	615.325
2134.91236	611.725
2137.88263	610.225
2140.851	608.225
2143.81746	611.925
2146.78201	602.825
2149.74466	604.525
2152.7054	602.125
2155.66425	602.525
2158.6212	605.325
2161.57625	596.725
2164.52941	597.325
2167.48067	593.825
2170.43004	592.325
2173.37752	594.725
2176.32311	594.825
2179.26681	589.225
2182.20863	595.225
2185.14856	592.425
2188.08661	584.425
2191.02278	585.025
2193.95707	585.525
2196.88948	583.225
2199.82001	588.625
2202.74867	572.025
2205.67545	577.725
2208.60037	578.825
2211.52341	574.125
2214.44458	569.925
2217.36388	569.425
2220.28132	565.825
2223.1969	571.325
2226.11061	563.025
2229.02246	565.225
2231.93245	558.725
2234.84058	561.225
2237.74686	558.325
2240.65128	557.425
2243.55385	553.425
2246.45456	552.225
2249.35343	550.525
2252.25044	555.925
2255.14561	552.025
2258.03893	551.425
2260.93041	543.025
2263.82004	534.325
2266.70783	548.025
2269.59378	542.725
2272.4779	542.125
2275.36017	543.425
2278.24061	531.925
2281.11922	536.525
2283.996	530.225
2286.87094	530.225
2289.74405	525.725
2292.61534	534.025
2295.4848	522.525
2298.35243	524.025
2301.21824	522.525
2304.08223	518.525
2306.94439	526.125
2309.80474	516.425
2312.66327	521.125
2315.51999	512.525
2318.37489	514.525
2321.22797	511.425
2324.07925	516.025
2326.92871	510.725
2329.77637	508.725
2332.62222	510.125
2335.46626	504.825
2338.3085	502.925
2341.14893	501.025
2343.98756	495.825
2346.8244	500.625
2349.65943	494.925
2352.49267	488.525
2355.32411	492.725
2358.15376	493.225
2360.98161	499.225
2363.80768	492.325
2366.63195	495.925
2369.45444	494.525
2372.27514	492.525
2375.09405	494.125
2377.91118	495.425
2380.72652	490.325
2383.54009	488.925
2386.35187	483.625
2389.16188	487.425
2391.97011	483.425
2394.77657	483.025
2397.58125	480.425
2400.38416	473.825
2403.18529	473.125
2405.98466	470.825
2408.78226	473.325
2411.57809	468.825
2414.37216	466.125
2417.16446	469.525
2419.955	465.325
2422.74378	466.525
2425.5308	463.425
2428.31606	459.025
2431.09956	462.525
2433.88131	462.025
2436.6613	464.225
2439.43954	463.825
2442.21603	457.625
2444.99077	455.925
2447.76377	459.525
2450.53501	458.925
2453.30451	452.725
2456.07226	456.525
2458.83827	451.825
2461.60254	454.125
2464.36507	449.125
2467.12586	449.125
2469.88492	453.825
2472.64224	451.125
2475.39782	445.725
2478.15167	445.425
2480.90379	441.225
2483.65417	443.625
2486.40283	446.425
2489.14976	441.725
2491.89497	449.425
2494.63845	440.825
2497.3802	429.525
2500.12024	439.425
2502.85855	438.125
2505.59514	435.625
2508.33002	441.125
2511.06318	433.625
2513.79462	433.425
2516.52435	432.925
2519.25237	431.025
2521.97867	432.325
2524.70327	426.225
2527.42616	428.625
2530.14734	427.425
2532.86681	422.525
2535.58458	425.125
2538.30065	422.025
2541.01501	420.325
2543.72768	416.125
2546.43864	424.125
2549.14791	421.225
2551.85548	420.225
2554.56136	414.625
2557.26554	416.325
2559.96803	412.125
2562.66883	412.325
2565.36794	415.025
2568.06536	410.325
2570.7611	412.725
2573.45514	406.725
2576.14751	406.125
2578.83819	404.125
2581.52719	398.925
2584.21451	403.125
2586.90015	402.925
2589.58411	405.025
2592.2664	405.025
2594.94701	404.525
2597.62594	394.625
2600.30321	393.225
2602.9788	397.925
2605.65273	388.025
2608.32498	395.425
2610.99557	396.725
2613.66449	387.125
2616.33175	394.325
2618.99734	389.625
2621.66128	393.225
2624.32355	393.425
2626.98416	391.025
2629.64311	388.025
2632.30041	393.125
2634.95605	381.425
2637.61004	384.125
2640.26238	385.425
2642.91306	384.925
2645.56209	379.125
2648.20948	385.025
2650.85521	385.825
2653.4993	382.125
2656.14175	380.325
2658.78255	381.225
2661.42171	384.425
2664.05923	381.425
2666.6951	381.725
2669.32934	382.125
2671.96194	382.525
2674.59291	376.125
2677.22224	379.625
2679.84993	374.825
2682.476	380.625
2685.10043	374.725
2687.72324	380.325
2690.34441	377.825
2692.96396	381.025
2695.58188	379.525
2698.19818	379.625
2700.81285	375.425
2703.4259	365.825
2706.03733	345.525
2708.64714	353.425
2711.25533	370.425
2713.86191	370.425
2716.46687	374.925
2719.07021	374.225
2721.67194	378.925
2724.27206	379.925
2726.87057	371.925
2729.46747	374.125
2732.06276	377.325
2734.65644	371.425
2737.24852	380.425
2739.83899	377.625
2742.42786	370.925
2745.01513	366.225
2747.60079	369.225
2750.18486	373.625
2752.76733	377.825
2755.3482	372.825
2757.92747	375.225
2760.50515	369.025
2763.08123	374.425
2765.65573	369.225
2768.22863	372.325
2770.79994	365.525
2773.36967	369.225
2775.9378	370.925
2778.50435	364.925
2781.06932	364.525
2783.6327	367.825
2786.1945	371.325
2788.75471	374.725
2791.31335	370.325
2793.87041	365.825
2796.42589	364.725
2798.97979	364.525
2801.53212	361.425
2804.08288	369.525
2806.63206	364.725
2809.17967	363.425
2811.72571	362.025
2814.27018	366.225
2816.81308	362.825
2819.35442	360.125
2821.89419	362.725
2824.43239	361.925
2826.96904	360.425
2829.50412	360.925
2832.03763	362.425
2834.56959	364.525
2837.1	363.525
2839.62884	366.125
2842.15613	359.925
2844.68186	367.425
2847.20604	366.725
2849.72867	365.525
2852.24974	372.225
2854.76927	363.025
2857.28724	360.925
2859.80367	365.725
2862.31855	363.125
2864.83189	363.725
2867.34368	365.225
2869.85393	365.225
2872.36264	370.425
2874.8698	367.325
2877.37543	374.225
2879.87952	375.425
2882.38207	369.625
2884.88308	364.825
2887.38256	368.825
2889.88051	377.425
2892.37692	368.925
2894.8718	376.725
2897.36515	378.225
2899.85698	372.925
2902.34727	371.225
2904.83604	380.425
2907.32328	379.125
2909.809	385.425
2912.29319	386.025
2914.77587	387.225
2917.25702	395.725
2919.73665	390.425
2922.21476	392.925
2924.69136	389.225
2927.16644	391.225
2929.64	391.925
2932.11205	388.525
2934.58258	390.125
2937.05161	389.125
2939.51912	390.025
2941.98513	385.325
2944.44962	383.725
2946.91261	375.825
2949.37409	379.525
2951.83407	380.925
2954.29254	377.025
2956.74951	379.125
2959.20498	374.525
2961.65895	375.925
2964.11142	369.725
2966.56239	372.025
2969.01186	373.725
2971.45984	379.525
2973.90632	369.825
2976.35131	374.125
2978.7948	369.925
2981.23681	373.725
2983.67732	368.625
2986.11635	368.925
2988.55388	368.225
2990.98993	371.325
2993.4245	372.425
2995.85758	372.125
2998.28917	371.325
3000.71928	370.825
3003.14791	369.825
3005.57506	374.025
3008.00073	377.425
3010.42493	379.025
3012.84764	377.825
3015.26888	377.325
3017.68865	379.725
3020.10694	382.425
3022.52376	383.725
3024.9391	384.725
3027.35298	390.525
3029.76539	385.425
3032.17632	382.925
3034.5858	386.925
3036.9938	388.125
3039.40034	393.925
3041.80542	388.625
3044.20903	392.725
3046.61118	401.525
3049.01187	402.525
3051.4111	403.725
3053.80888	404.125
3056.20519	412.225
3058.60005	408.025
3060.99345	413.725
3063.3854	412.425
3065.7759	414.825
3068.16494	418.525
3070.55254	420.725
3072.93868	423.025
3075.32338	433.525
3077.70662	420.325
3080.08842	430.625
3082.46878	437.025
3084.84769	435.425
3087.22515	444.125
3089.60118	445.925
3091.97576	450.225
3094.3489	452.225
3096.72061	456.525
3099.09087	468.625
3101.4597	469.025
3103.82709	469.825
3106.19305	473.425
3108.55757	485.225
3110.92066	485.425
3113.28232	490.925
3115.64255	495.225
3118.00134	494.425
3120.35871	502.225
3122.71466	511.225
3125.06917	511.225
3127.42226	512.525
3129.77393	520.625
3132.12417	526.025
3134.47299	533.425
3136.82039	535.625
3139.16636	547.825
3141.51092	551.425
3143.85406	557.625
3146.19579	559.025
3148.53609	566.425
3150.87499	573.625
3153.21246	578.625
3155.54853	588.625
3157.88318	593.925
3160.21642	592.625
3162.54826	604.925
3164.87868	613.425
3167.2077	620.325
3169.5353	620.025
3171.86151	636.025
3174.18631	637.425
3176.5097	645.125
3178.83169	649.925
3181.15228	650.225
3183.47147	656.625
3185.78926	659.325
3188.10565	665.225
3190.42065	661.225
3192.73424	678.825
3195.04645	677.125
3197.35725	681.225
3199.66667	691.025
3201.97469	697.325
3204.28132	696.025
3206.58656	699.825
3208.8904	706.025
3211.19287	704.725
3213.49394	710.925
3215.79363	721.225
3218.09193	720.525
3220.38884	718.425
3222.68438	720.625
3224.97853	716.625
3227.2713	725.825
3229.56269	727.325
3231.8527	735.325
3234.14133	732.025
3236.42858	735.725
3238.71446	741.725
3240.99896	746.725
3243.28209	739.925
3245.56384	747.225
3247.84423	737.625
3250.12324	737.125
3252.40088	744.325
3254.67715	744.225
3256.95205	741.025
3259.22558	750.325
3261.49775	745.625
3263.76855	743.525
3266.03799	745.125
3268.30606	742.725
3270.57277	747.425
3272.83812	747.425
3275.10211	740.725
3277.36474	748.925
3279.62601	743.925
3281.88593	739.225
3284.14448	747.725
3286.40168	741.725
3288.65753	738.425
3290.91202	744.625
3293.16516	743.525
3295.41695	752.525
3297.66738	739.025
3299.91647	734.325
3302.16421	731.025
3304.4106	725.625
3306.65564	731.425
