Data from AgNPs_APTES_FTO_UA_100uM_CRN_0uM_R6G_10uM_Scan_RamanShift__24__12-32-03-533.txt Node

Date: Thu Jun 23 12:32:03 BST 2022
User: TCL
Spectrometer: QEP01345
Trigger mode: 4
Integration Time (sec): 7.000000E0
Scans to average: 10
Electric dark correction enabled: true
Nonlinearity correction enabled: false
Boxcar width: 0
XAxis mode: Raman Shifts
Number of Pixels in Spectrum: 1044
>>>>>Begin Spectral Data<<<<<
46.04893	1.325
50.45542	-0.775
54.85868	-1.775
59.25871	-0.375
63.6555	26.125
68.04907	31.025
72.43941	37.125
76.82654	38.925
81.21044	41.325
85.59113	40.825
89.96862	43.825
94.34289	45.125
98.71396	46.125
103.08183	47.825
107.4465	49.625
111.80798	46.425
116.16626	48.325
120.52136	50.025
124.87327	45.925
129.222	43.025
133.56755	46.225
137.90993	45.825
142.24913	45.925
146.58517	46.825
150.91804	49.225
155.24774	54.025
159.57429	55.425
163.89768	61.525
168.21792	72.325
172.53501	85.325
176.84895	100.925
181.15975	134.125
185.46741	176.725
189.77193	239.925
194.07331	308.925
198.37157	396.525
202.6667	481.725
206.9587	571.025
211.24758	655.525
215.53334	742.125
219.81599	838.125
224.09553	925.525
228.37195	1034.525
232.64527	1149.925
236.91549	1261.925
241.18261	1366.825
245.44663	1478.025
249.70755	1560.125
253.96539	1640.525
258.22014	1693.425
262.4718	1736.825
266.72039	1757.725
270.96589	1767.825
275.20832	1773.925
279.44768	1730.825
283.68397	1687.525
287.91719	1652.825
292.14735	1642.225
296.37445	1627.025
300.59849	1634.525
304.81948	1650.025
309.03742	1661.025
313.25231	1650.025
317.46415	1623.825
321.67296	1568.425
325.87872	1527.825
330.08145	1497.525
334.28114	1491.325
338.47781	1507.025
342.67145	1517.225
346.86207	1535.725
351.04966	1579.825
355.23424	1622.625
359.4158	1666.325
363.59435	1688.925
367.76989	1711.725
371.94243	1736.425
376.11196	1731.725
380.27849	1754.525
384.44203	1760.225
388.60257	1765.025
392.76012	1774.025
396.91468	1770.525
401.06626	1787.925
405.21485	1800.625
409.36047	1789.925
413.50311	1752.625
417.64277	1716.625
421.77947	1683.225
425.9132	1679.725
430.04396	1666.125
434.17176	1684.525
438.2966	1697.325
442.41849	1728.425
446.53742	1741.625
450.6534	1762.225
454.76644	1787.825
458.87653	1781.025
462.98368	1789.325
467.08789	1777.725
471.18916	1775.925
475.2875	1756.025
479.38291	1763.825
483.4754	1766.125
487.56496	1775.725
491.6516	1817.525
495.73531	1823.525
499.81612	1828.825
503.89401	1826.525
507.96899	1810.425
512.04106	1808.225
516.11023	1810.925
520.1765	1822.325
524.23987	1830.925
528.30034	1840.925
532.35792	1821.525
536.41261	1804.925
540.46441	1784.325
544.51333	1763.225
548.55936	1751.225
552.60252	1748.325
556.64279	1754.825
560.6802	1760.225
564.71473	1761.825
568.7464	1782.725
572.7752	1779.525
576.80114	1777.925
580.82422	1769.025
584.84444	1785.925
588.86181	1820.625
592.87633	1814.625
596.888	1835.125
600.89682	1866.725
604.9028	1976.925
608.90594	2228.125
612.90624	2538.725
616.90371	2490.525
620.89834	2166.025
624.89015	2037.725
628.87913	2085.225
632.86528	2159.425
636.84862	2204.525
640.82913	2172.425
644.80683	2061.125
648.78172	1964.525
652.75379	1896.625
656.72306	1882.925
660.68952	1884.425
664.65319	1867.625
668.61405	1825.425
672.57211	1814.125
676.52738	1830.225
680.47986	1861.125
684.42955	1877.225
688.37646	1887.025
692.32058	1852.325
696.26192	1832.425
700.20048	1806.525
704.13626	1795.325
708.06928	1779.225
711.99952	1764.925
715.927	1784.025
719.85171	1791.025
723.77365	1803.825
727.69284	1804.225
731.60928	1805.025
735.52295	1788.625
739.43388	1781.225
743.34206	1786.025
747.24749	1771.225
751.15017	1775.225
755.05012	1778.425
758.94733	1801.125
762.8418	1870.525
766.73354	2004.625
770.62254	2146.525
774.50882	2244.225
778.39237	2211.025
782.27321	2067.225
786.15132	1919.725
790.02671	1822.225
793.89938	1793.125
797.76935	1793.925
801.6366	1804.025
805.50115	1840.725
809.36299	1893.525
813.22213	1903.025
817.07857	1874.325
820.93231	1829.425
824.78336	1787.225
828.63172	1753.525
832.47738	1746.925
836.32036	1741.125
840.16066	1734.525
843.99827	1732.125
847.8332	1733.125
851.66546	1733.025
855.49504	1729.825
859.32195	1714.825
863.1462	1725.125
866.96777	1750.125
870.78668	1756.525
874.60293	1792.025
878.41652	1827.725
882.22745	1863.525
886.03573	1891.825
889.84136	1901.825
893.64433	1890.225
897.44466	1855.525
901.24235	1817.225
905.0374	1796.425
908.8298	1768.525
912.61957	1772.025
916.40671	1796.425
920.19121	1809.125
923.97308	1825.125
927.75233	1835.425
931.52895	1857.725
935.30295	1825.325
939.07433	1791.525
942.84309	1755.525
946.60924	1720.325
950.37278	1701.325
954.13371	1669.925
957.89203	1649.125
961.64774	1639.525
965.40086	1616.025
969.15137	1594.125
972.89929	1587.525
976.64461	1568.725
980.38733	1568.825
984.12747	1558.525
987.86502	1566.125
991.59999	1558.225
995.33237	1573.225
999.06217	1579.525
1002.78939	1608.225
1006.51404	1627.825
1010.23611	1648.225
1013.95561	1665.325
1017.67255	1677.325
1021.38692	1686.325
1025.09872	1657.125
1028.80796	1636.025
1032.51465	1614.325
1036.21877	1600.125
1039.92035	1601.825
1043.61937	1594.725
1047.31584	1579.025
1051.00976	1585.025
1054.70114	1587.025
1058.38998	1575.925
1062.07627	1589.825
1065.76003	1595.825
1069.44126	1597.525
1073.11995	1608.825
1076.79611	1607.425
1080.46974	1620.925
1084.14085	1621.425
1087.80943	1619.825
1091.47549	1615.025
1095.13903	1593.225
1098.80005	1564.125
1102.45857	1543.725
1106.11456	1547.725
1109.76805	1553.025
1113.41903	1571.825
1117.06751	1609.525
1120.71348	1675.625
1124.35696	1778.125
1127.99793	1872.025
1131.63641	1953.025
1135.2724	1965.225
1138.90589	1927.125
1142.5369	1865.025
1146.16542	1769.525
1149.79145	1690.625
1153.415	1618.225
1157.03607	1579.725
1160.65467	1565.625
1164.27079	1559.425
1167.88443	1591.725
1171.49561	1639.525
1175.10432	1725.625
1178.71056	1854.525
1182.31434	1958.125
1185.91565	1992.625
1189.51451	1976.725
1193.11091	1934.425
1196.70485	1902.225
1200.29634	1882.425
1203.88538	1857.925
1207.47197	1796.525
1211.05612	1716.225
1214.63782	1659.625
1218.21708	1620.925
1221.79391	1576.625
1225.36829	1562.125
1228.94024	1556.225
1232.50976	1546.625
1236.07685	1541.225
1239.6415	1548.225
1243.20374	1556.325
1246.76355	1546.725
1250.32093	1551.325
1253.8759	1569.825
1257.42845	1585.525
1260.97859	1607.925
1264.52631	1621.625
1268.07163	1664.425
1271.61453	1685.225
1275.15503	1704.825
1278.69312	1697.325
1282.22882	1705.225
1285.76211	1725.325
1289.29301	1749.725
1292.82151	1779.225
1296.34761	1834.325
1299.87133	1891.025
1303.39266	1974.625
1306.9116	2102.125
1310.42815	2235.725
1313.94233	2301.325
1317.45412	2263.325
1320.96354	2166.925
1324.47058	2050.925
1327.97525	1961.025
1331.47754	1915.225
1334.97747	1891.725
1338.47502	1893.225
1341.97022	1924.425
1345.46305	2002.725
1348.95352	2119.625
1352.44163	2266.325
1355.92738	2465.625
1359.41078	2696.625
1362.89183	2894.325
1366.37053	2842.425
1369.84688	2614.425
1373.32088	2325.825
1376.79254	2162.625
1380.26186	2024.525
1383.72883	1955.325
1387.19347	1882.425
1390.65578	1836.125
1394.11575	1800.625
1397.57339	1771.825
1401.0287	1736.125
1404.48168	1717.825
1407.93234	1673.925
1411.38068	1644.725
1414.82669	1609.525
1418.27039	1585.025
1421.71177	1567.125
1425.15083	1540.825
1428.58758	1521.225
1432.02203	1508.125
1435.45416	1500.825
1438.88399	1496.125
1442.31151	1481.725
1445.73673	1482.725
1449.15965	1473.525
1452.58027	1476.225
1455.9986	1473.925
1459.41463	1472.825
1462.82837	1480.725
1466.23982	1490.525
1469.64898	1484.325
1473.05586	1511.925
1476.46045	1512.325
1479.86276	1531.925
1483.26279	1540.125
1486.66054	1564.425
1490.05602	1588.025
1493.44922	1650.125
1496.84016	1721.125
1500.22882	1843.525
1503.61521	2019.725
1506.99934	2208.825
1510.38121	2369.125
1513.76081	2409.225
1517.13816	2315.325
1520.51324	2095.025
1523.88607	1894.525
1527.25665	1760.725
1530.62498	1683.825
1533.99105	1635.925
1537.35488	1614.725
1540.71647	1601.925
1544.07581	1593.525
1547.4329	1598.325
1550.78776	1606.325
1554.14038	1610.325
1557.49077	1627.825
1560.83892	1653.525
1564.18484	1671.125
1567.52853	1704.325
1570.86999	1738.325
1574.20922	1759.325
1577.54624	1757.225
1580.88103	1701.025
1584.2136	1622.125
1587.54395	1559.225
1590.87208	1537.925
1594.19801	1537.825
1597.52172	1576.125
1600.84321	1586.625
1604.16251	1579.125
1607.47959	1549.725
1610.79447	1529.425
1614.10715	1492.725
1617.41763	1470.525
1620.7259	1456.725
1624.03199	1450.525
1627.33587	1440.925
1630.63757	1447.025
1633.93707	1460.325
1637.23439	1487.625
1640.52951	1540.125
1643.82246	1633.025
1647.11321	1759.825
1650.40179	1844.225
1653.68819	1824.025
1656.97241	1712.325
1660.25446	1549.525
1663.53433	1428.225
1666.81203	1337.625
1670.08756	1291.725
1673.36092	1268.925
1676.63211	1250.425
1679.90115	1240.625
1683.16801	1223.225
1686.43272	1204.625
1689.69527	1197.925
1692.95567	1176.625
1696.2139	1131.025
1699.46999	1106.325
1702.72392	1068.425
1705.97571	1069.425
1709.22535	1069.225
1712.47284	1053.425
1715.71819	1049.225
1718.96139	1035.525
1722.20246	1022.725
1725.44139	1004.125
1728.67818	996.225
1731.91284	984.125
1735.14537	978.825
1738.37576	956.825
1741.60403	942.025
1744.83017	943.525
1748.05418	931.925
1751.27607	917.025
1754.49584	898.725
1757.71349	883.925
1760.92903	862.025
1764.14244	866.025
1767.35375	866.725
1770.56294	853.725
1773.77002	859.925
1776.97499	868.625
1780.17785	878.625
1783.37861	888.125
1786.57727	882.425
1789.77382	884.225
1792.96828	889.725
1796.16064	886.825
1799.3509	882.025
1802.53907	871.825
1805.72514	876.125
1808.90913	870.625
1812.09102	863.225
1815.27083	861.725
1818.44856	862.725
1821.6242	866.325
1824.79776	853.225
1827.96924	850.625
1831.13864	851.125
1834.30597	849.225
1837.47122	845.925
1840.6344	836.625
1843.7955	838.725
1846.95454	838.025
1850.11151	837.425
1853.26642	826.525
1856.41926	831.725
1859.57004	833.125
1862.71876	834.825
1865.86542	825.625
1869.01003	822.525
1872.15258	823.625
1875.29308	818.625
1878.43152	821.725
1881.56792	819.625
1884.70227	813.125
1887.83457	808.825
1890.96482	806.325
1894.09304	804.625
1897.21921	808.625
1900.34335	798.725
1903.46544	800.825
1906.58551	790.725
1909.70353	793.325
1912.81953	785.225
1915.93349	786.625
1919.04543	789.325
1922.15534	789.025
1925.26322	781.625
1928.36908	781.625
1931.47292	776.725
1934.57473	778.025
1937.67453	768.425
1940.77232	761.325
1943.86808	766.325
1946.96184	768.225
1950.05358	755.125
1953.14331	752.125
1956.23103	750.825
1959.31675	749.525
1962.40046	746.625
1965.48217	744.725
1968.56188	741.225
1971.63959	739.225
1974.7153	733.325
1977.78901	734.825
1980.86073	729.825
1983.93046	722.125
1986.99819	725.225
1990.06394	724.425
1993.1277	722.325
1996.18947	711.425
1999.24925	705.425
2002.30706	712.825
2005.36288	710.425
2008.41672	703.425
2011.46859	696.325
2014.51848	703.825
2017.56639	693.925
2020.61233	697.425
2023.6563	687.125
2026.6983	684.225
2029.73833	680.425
2032.7764	681.125
2035.8125	676.625
2038.84664	680.525
2041.87881	682.925
2044.90903	675.125
2047.93729	668.825
2050.96359	675.125
2053.98794	658.325
2057.01034	666.425
2060.03078	666.125
2063.04927	674.325
2066.06582	666.725
2069.08042	663.425
2072.09307	661.925
2075.10378	663.025
2078.11255	658.325
2081.11938	661.425
2084.12426	658.525
2087.12722	661.125
2090.12824	663.925
2093.12732	659.125
2096.12447	660.325
2099.11969	651.825
2102.11299	651.625
2105.10435	653.825
2108.09379	652.125
2111.08131	647.225
2114.0669	647.825
2117.05057	651.025
2120.03233	650.425
2123.01216	645.525
2125.99008	647.925
2128.96609	649.325
2131.94018	647.625
2134.91236	643.525
2137.88263	642.425
2140.851	643.725
2143.81746	642.625
2146.78201	645.625
2149.74466	640.425
2152.7054	641.225
2155.66425	633.325
2158.6212	641.525
2161.57625	639.025
2164.52941	635.025
2167.48067	633.325
2170.43004	632.525
2173.37752	633.025
2176.32311	625.325
2179.26681	629.825
2182.20863	632.225
2185.14856	622.525
2188.08661	626.725
2191.02278	622.325
2193.95707	620.325
2196.88948	620.825
2199.82001	619.225
2202.74867	615.525
2205.67545	611.525
2208.60037	615.425
2211.52341	607.825
2214.44458	612.525
2217.36388	601.725
2220.28132	610.525
2223.1969	596.525
2226.11061	604.725
2229.02246	594.125
2231.93245	598.525
2234.84058	591.625
2237.74686	590.325
2240.65128	597.625
2243.55385	588.425
2246.45456	591.925
2249.35343	585.325
2252.25044	583.425
2255.14561	582.725
2258.03893	582.125
2260.93041	570.425
2263.82004	580.025
2266.70783	572.925
2269.59378	574.125
2272.4779	575.425
2275.36017	575.825
2278.24061	569.425
2281.11922	567.825
2283.996	567.525
2286.87094	559.525
2289.74405	563.625
2292.61534	561.225
2295.4848	559.925
2298.35243	560.425
2301.21824	552.425
2304.08223	561.725
2306.94439	558.725
2309.80474	555.525
2312.66327	557.625
2315.51999	548.425
2318.37489	540.325
2321.22797	548.325
2324.07925	553.325
2326.92871	545.425
2329.77637	547.525
2332.62222	547.325
2335.46626	539.725
2338.3085	535.125
2341.14893	537.525
2343.98756	534.425
2346.8244	534.125
2349.65943	527.925
2352.49267	522.125
2355.32411	526.825
2358.15376	526.825
2360.98161	530.325
2363.80768	532.225
2366.63195	529.125
2369.45444	530.225
2372.27514	526.625
2375.09405	531.125
2377.91118	522.925
2380.72652	519.125
2383.54009	526.325
2386.35187	513.625
2389.16188	518.025
2391.97011	512.425
2394.77657	519.925
2397.58125	509.625
2400.38416	510.325
2403.18529	511.225
2405.98466	506.725
2408.78226	505.725
2411.57809	499.725
2414.37216	496.025
2417.16446	498.025
2419.955	495.925
2422.74378	497.025
2425.5308	493.325
2428.31606	494.125
2431.09956	495.825
2433.88131	492.625
2436.6613	497.425
2439.43954	490.825
2442.21603	492.525
2444.99077	490.725
2447.76377	490.425
2450.53501	489.825
2453.30451	483.825
2456.07226	486.025
2458.83827	485.425
2461.60254	485.625
2464.36507	481.225
2467.12586	483.225
2469.88492	481.325
2472.64224	485.525
2475.39782	477.625
2478.15167	468.225
2480.90379	472.725
2483.65417	475.025
2486.40283	477.825
2489.14976	476.925
2491.89497	475.325
2494.63845	468.525
2497.3802	462.925
2500.12024	470.725
2502.85855	465.125
2505.59514	468.225
2508.33002	469.525
2511.06318	470.725
2513.79462	469.025
2516.52435	468.225
2519.25237	465.925
2521.97867	456.025
2524.70327	459.125
2527.42616	456.925
2530.14734	456.425
2532.86681	452.025
2535.58458	451.125
2538.30065	448.725
2541.01501	451.225
2543.72768	452.325
2546.43864	451.225
2549.14791	455.625
2551.85548	451.125
2554.56136	444.825
2557.26554	445.425
2559.96803	443.325
2562.66883	439.825
2565.36794	441.325
2568.06536	438.025
2570.7611	439.525
2573.45514	441.625
2576.14751	439.325
2578.83819	436.025
2581.52719	435.125
2584.21451	436.325
2586.90015	434.625
2589.58411	427.125
2592.2664	430.525
2594.94701	429.925
2597.62594	430.725
2600.30321	422.025
2602.9788	432.325
2605.65273	422.025
2608.32498	425.825
2610.99557	424.225
2613.66449	416.125
2616.33175	424.825
2618.99734	423.925
2621.66128	419.125
2624.32355	416.625
2626.98416	413.125
2629.64311	413.425
2632.30041	413.125
2634.95605	415.325
2637.61004	411.825
2640.26238	415.225
2642.91306	410.325
2645.56209	413.625
2648.20948	407.125
2650.85521	408.725
2653.4993	410.625
2656.14175	409.225
2658.78255	405.425
2661.42171	412.625
2664.05923	408.125
2666.6951	407.425
2669.32934	409.625
2671.96194	408.925
2674.59291	407.825
2677.22224	410.925
2679.84993	401.225
2682.476	406.025
2685.10043	407.625
2687.72324	403.925
2690.34441	404.525
2692.96396	407.525
2695.58188	405.125
2698.19818	405.525
2700.81285	404.525
2703.4259	392.825
2706.03733	355.225
2708.64714	379.325
2711.25533	392.225
2713.86191	396.325
2716.46687	395.325
2719.07021	398.025
2721.67194	403.525
2724.27206	408.525
2726.87057	401.825
2729.46747	400.425
2732.06276	407.925
2734.65644	403.825
2737.24852	401.625
2739.83899	398.925
2742.42786	404.025
2745.01513	401.225
2747.60079	401.425
2750.18486	400.225
2752.76733	406.825
2755.3482	397.425
2757.92747	395.325
2760.50515	396.725
2763.08123	398.725
2765.65573	396.625
2768.22863	397.825
2770.79994	392.525
2773.36967	389.825
2775.9378	398.225
2778.50435	392.125
2781.06932	390.425
2783.6327	387.525
2786.1945	391.625
2788.75471	392.525
2791.31335	385.825
2793.87041	393.125
2796.42589	391.925
2798.97979	387.125
2801.53212	382.925
2804.08288	384.025
2806.63206	387.925
2809.17967	386.925
2811.72571	387.125
2814.27018	384.325
2816.81308	384.225
2819.35442	381.925
2821.89419	387.125
2824.43239	383.325
2826.96904	381.725
2829.50412	380.725
2832.03763	384.625
2834.56959	384.225
2837.1	384.325
2839.62884	385.525
2842.15613	384.925
2844.68186	387.225
2847.20604	390.225
2849.72867	396.325
2852.24974	392.525
2854.76927	387.825
2857.28724	377.025
2859.80367	387.825
2862.31855	385.825
2864.83189	386.125
2867.34368	391.425
2869.85393	393.425
2872.36264	393.525
2874.8698	398.925
2877.37543	395.425
2879.87952	398.425
2882.38207	396.225
2884.88308	391.825
2887.38256	397.425
2889.88051	398.025
2892.37692	397.825
2894.8718	400.525
2897.36515	398.525
2899.85698	400.325
2902.34727	405.125
2904.83604	411.825
2907.32328	407.125
2909.809	413.225
2912.29319	411.325
2914.77587	414.625
2917.25702	424.925
2919.73665	423.925
2922.21476	427.225
2924.69136	419.625
2927.16644	420.125
2929.64	421.025
2932.11205	422.525
2934.58258	423.325
2937.05161	422.325
2939.51912	417.325
2941.98513	418.225
2944.44962	417.925
2946.91261	411.525
2949.37409	408.025
2951.83407	412.125
2954.29254	408.525
2956.74951	408.425
2959.20498	405.225
2961.65895	396.325
2964.11142	402.125
2966.56239	399.725
2969.01186	397.725
2971.45984	401.325
2973.90632	398.625
2976.35131	394.125
2978.7948	398.125
2981.23681	398.125
2983.67732	396.725
2986.11635	391.725
2988.55388	394.625
2990.98993	394.825
2993.4245	394.025
2995.85758	392.325
2998.28917	393.825
3000.71928	390.225
3003.14791	396.425
3005.57506	397.425
3008.00073	403.525
3010.42493	404.925
3012.84764	399.525
3015.26888	399.325
3017.68865	405.425
3020.10694	400.125
3022.52376	402.925
3024.9391	405.525
3027.35298	407.725
3029.76539	408.325
3032.17632	409.725
3034.5858	411.025
3036.9938	414.225
3039.40034	414.825
3041.80542	417.525
3044.20903	418.625
3046.61118	424.325
3049.01187	421.225
3051.4111	424.225
3053.80888	430.825
3056.20519	430.825
3058.60005	431.725
3060.99345	435.925
3063.3854	434.625
3065.7759	438.325
3068.16494	436.825
3070.55254	442.525
3072.93868	443.025
3075.32338	447.925
3077.70662	443.925
3080.08842	454.925
3082.46878	451.825
3084.84769	455.925
3087.22515	462.425
3089.60118	467.825
3091.97576	468.025
3094.3489	471.325
3096.72061	475.525
3099.09087	483.625
3101.4597	489.525
3103.82709	491.225
3106.19305	491.625
3108.55757	496.625
3110.92066	506.925
3113.28232	508.725
3115.64255	506.325
3118.00134	514.925
3120.35871	525.425
3122.71466	527.425
3125.06917	530.025
3127.42226	541.425
3129.77393	535.025
3132.12417	543.025
3134.47299	547.625
3136.82039	551.925
3139.16636	561.225
3141.51092	565.225
3143.85406	566.125
3146.19579	577.825
3148.53609	583.225
3150.87499	591.425
3153.21246	596.425
3155.54853	600.725
3157.88318	608.625
3160.21642	611.825
3162.54826	621.025
3164.87868	624.925
3167.2077	634.225
3169.5353	649.225
3171.86151	647.925
3174.18631	653.325
3176.5097	662.225
3178.83169	663.925
3181.15228	669.725
3183.47147	666.825
3185.78926	676.825
3188.10565	680.525
3190.42065	681.625
3192.73424	691.225
3195.04645	690.425
3197.35725	696.225
3199.66667	706.025
3201.97469	707.225
3204.28132	704.825
3206.58656	714.325
3208.8904	723.325
3211.19287	728.325
3213.49394	724.225
3215.79363	728.325
3218.09193	730.525
3220.38884	728.725
3222.68438	730.325
3224.97853	731.025
3227.2713	739.825
3229.56269	741.425
3231.8527	748.425
3234.14133	742.725
3236.42858	751.625
3238.71446	750.925
3240.99896	758.325
3243.28209	761.225
3245.56384	754.225
3247.84423	753.725
3250.12324	755.825
3252.40088	749.225
3254.67715	754.025
3256.95205	751.725
3259.22558	759.525
3261.49775	753.925
3263.76855	757.725
3266.03799	760.625
3268.30606	757.325
3270.57277	756.125
3272.83812	755.625
3275.10211	753.625
3277.36474	755.025
3279.62601	757.525
3281.88593	751.225
3284.14448	755.725
3286.40168	756.425
3288.65753	758.025
3290.91202	759.725
3293.16516	754.625
3295.41695	751.425
3297.66738	752.925
3299.91647	749.525
3302.16421	745.425
3304.4106	745.625
