Data from AgNPs_APTES_FTO_UA_100uM_CRN_0uM_R6G_10uM_Scan_RamanShift__8__12-13-23-511.txt Node

Date: Thu Jun 23 12:13:23 BST 2022
User: TCL
Spectrometer: QEP01345
Trigger mode: 4
Integration Time (sec): 7.000000E0
Scans to average: 10
Electric dark correction enabled: true
Nonlinearity correction enabled: false
Boxcar width: 0
XAxis mode: Raman Shifts
Number of Pixels in Spectrum: 1044
>>>>>Begin Spectral Data<<<<<
46.04893	0.5125
50.45542	-0.3875
54.85868	-0.3875
59.25871	-1.0875
63.6555	34.6125
68.04907	33.5125
72.43941	37.7125
76.82654	43.3125
81.21044	42.4125
85.59113	43.8125
89.96862	46.2125
94.34289	49.5125
98.71396	50.4125
103.08183	50.3125
107.4465	50.4125
111.80798	51.3125
116.16626	50.5125
120.52136	52.6125
124.87327	51.6125
129.222	49.7125
133.56755	51.9125
137.90993	50.4125
142.24913	53.5125
146.58517	50.2125
150.91804	53.0125
155.24774	64.6125
159.57429	65.6125
163.89768	75.9125
168.21792	87.6125
172.53501	108.3125
176.84895	137.1125
181.15975	182.2125
185.46741	249.9125
189.77193	337.3125
194.07331	442.3125
198.37157	568.9125
202.6667	701.2125
206.9587	844.3125
211.24758	978.9125
215.53334	1112.5125
219.81599	1272.8125
224.09553	1432.0125
228.37195	1608.4125
232.64527	1786.5125
236.91549	1972.8125
241.18261	2156.5125
245.44663	2316.4125
249.70755	2460.7125
253.96539	2568.1125
258.22014	2652.2125
262.4718	2712.8125
266.72039	2740.5125
270.96589	2732.3125
275.20832	2687.0125
279.44768	2598.9125
283.68397	2520.2125
287.91719	2448.0125
292.14735	2392.9125
296.37445	2366.5125
300.59849	2400.5125
304.81948	2446.4125
309.03742	2487.6125
313.25231	2509.8125
317.46415	2440.1125
321.67296	2313.9125
325.87872	2194.3125
330.08145	2125.5125
334.28114	2110.8125
338.47781	2138.3125
342.67145	2163.5125
346.86207	2235.1125
351.04966	2322.4125
355.23424	2426.7125
359.4158	2478.5125
363.59435	2485.9125
367.76989	2455.7125
371.94243	2441.8125
376.11196	2403.9125
380.27849	2388.3125
384.44203	2362.1125
388.60257	2347.6125
392.76012	2347.1125
396.91468	2349.0125
401.06626	2391.5125
405.21485	2412.1125
409.36047	2380.4125
413.50311	2291.4125
417.64277	2218.1125
421.77947	2165.5125
425.9132	2160.6125
430.04396	2149.7125
434.17176	2162.5125
438.2966	2197.1125
442.41849	2231.9125
446.53742	2263.9125
450.6534	2286.6125
454.76644	2313.2125
458.87653	2315.1125
462.98368	2307.8125
467.08789	2303.6125
471.18916	2278.7125
475.2875	2256.3125
479.38291	2239.3125
483.4754	2233.1125
487.56496	2225.1125
491.6516	2239.1125
495.73531	2227.3125
499.81612	2239.6125
503.89401	2258.6125
507.96899	2270.8125
512.04106	2292.2125
516.11023	2306.2125
520.1765	2314.5125
524.23987	2333.0125
528.30034	2305.2125
532.35792	2281.7125
536.41261	2261.6125
540.46441	2217.9125
544.51333	2200.0125
548.55936	2200.6125
552.60252	2213.7125
556.64279	2243.0125
560.6802	2280.5125
564.71473	2312.5125
568.7464	2380.1125
572.7752	2407.0125
576.80114	2332.8125
580.82422	2255.8125
584.84444	2251.0125
588.86181	2269.8125
592.87633	2295.6125
596.888	2333.8125
600.89682	2424.8125
604.9028	2679.6125
608.90594	3312.2125
612.90624	4096.9125
616.90371	4017.9125
620.89834	3132.5125
624.89015	2644.3125
628.87913	2510.9125
632.86528	2485.7125
636.84862	2475.9125
640.82913	2423.4125
644.80683	2343.6125
648.78172	2265.2125
652.75379	2266.5125
656.72306	2333.9125
660.68952	2395.7125
664.65319	2396.9125
668.61405	2332.4125
672.57211	2308.9125
676.52738	2345.6125
680.47986	2409.4125
684.42955	2464.9125
688.37646	2484.3125
692.32058	2472.7125
696.26192	2434.2125
700.20048	2393.1125
704.13626	2381.0125
708.06928	2359.9125
711.99952	2343.1125
715.927	2326.1125
719.85171	2322.2125
723.77365	2311.9125
727.69284	2287.7125
731.60928	2282.5125
735.52295	2277.4125
739.43388	2263.3125
743.34206	2276.2125
747.24749	2268.2125
751.15017	2264.8125
755.05012	2279.2125
758.94733	2347.0125
762.8418	2546.6125
766.73354	2851.2125
770.62254	3151.2125
774.50882	3254.1125
778.39237	3148.2125
782.27321	2884.0125
786.15132	2606.7125
790.02671	2425.0125
793.89938	2351.8125
797.76935	2315.3125
801.6366	2312.7125
805.50115	2330.9125
809.36299	2343.9125
813.22213	2343.6125
817.07857	2342.4125
820.93231	2321.1125
824.78336	2309.3125
828.63172	2301.0125
832.47738	2297.8125
836.32036	2284.2125
840.16066	2284.3125
843.99827	2278.3125
847.8332	2274.6125
851.66546	2271.1125
855.49504	2269.7125
859.32195	2257.2125
863.1462	2266.7125
866.96777	2274.8125
870.78668	2290.8125
874.60293	2329.3125
878.41652	2362.6125
882.22745	2409.2125
886.03573	2455.3125
889.84136	2514.1125
893.64433	2544.9125
897.44466	2563.3125
901.24235	2588.3125
905.0374	2602.9125
908.8298	2625.1125
912.61957	2662.4125
916.40671	2730.5125
920.19121	2811.0125
923.97308	2876.5125
927.75233	2929.8125
931.52895	2949.7125
935.30295	2882.0125
939.07433	2771.8125
942.84309	2650.2125
946.60924	2553.3125
950.37278	2473.9125
954.13371	2407.9125
957.89203	2348.3125
961.64774	2305.5125
965.40086	2268.4125
969.15137	2231.5125
972.89929	2196.4125
976.64461	2163.6125
980.38733	2155.3125
984.12747	2131.6125
987.86502	2127.6125
991.59999	2119.2125
995.33237	2117.3125
999.06217	2124.3125
1002.78939	2136.0125
1006.51404	2165.1125
1010.23611	2188.3125
1013.95561	2202.2125
1017.67255	2205.7125
1021.38692	2194.9125
1025.09872	2188.8125
1028.80796	2172.7125
1032.51465	2173.4125
1036.21877	2169.2125
1039.92035	2159.7125
1043.61937	2173.6125
1047.31584	2169.1125
1051.00976	2182.6125
1054.70114	2164.9125
1058.38998	2152.3125
1062.07627	2155.8125
1065.76003	2122.0125
1069.44126	2119.8125
1073.11995	2114.3125
1076.79611	2115.4125
1080.46974	2143.5125
1084.14085	2186.8125
1087.80943	2220.7125
1091.47549	2226.4125
1095.13903	2175.4125
1098.80005	2119.3125
1102.45857	2072.3125
1106.11456	2058.5125
1109.76805	2071.6125
1113.41903	2101.6125
1117.06751	2160.6125
1120.71348	2239.7125
1124.35696	2345.8125
1127.99793	2457.9125
1131.63641	2496.2125
1135.2724	2417.4125
1138.90589	2310.1125
1142.5369	2247.6125
1146.16542	2186.6125
1149.79145	2141.4125
1153.415	2109.9125
1157.03607	2090.2125
1160.65467	2111.2125
1164.27079	2145.1125
1167.88443	2205.6125
1171.49561	2305.1125
1175.10432	2489.8125
1178.71056	2760.0125
1182.31434	2980.3125
1185.91565	3017.7125
1189.51451	2898.5125
1193.11091	2714.4125
1196.70485	2573.8125
1200.29634	2476.0125
1203.88538	2382.6125
1207.47197	2296.1125
1211.05612	2190.2125
1214.63782	2141.7125
1218.21708	2099.1125
1221.79391	2095.7125
1225.36829	2110.5125
1228.94024	2117.0125
1232.50976	2122.7125
1236.07685	2126.4125
1239.6415	2141.0125
1243.20374	2165.5125
1246.76355	2169.3125
1250.32093	2183.8125
1253.8759	2220.5125
1257.42845	2244.2125
1260.97859	2303.4125
1264.52631	2353.4125
1268.07163	2427.2125
1271.61453	2480.9125
1275.15503	2518.8125
1278.69312	2515.3125
1282.22882	2523.2125
1285.76211	2574.9125
1289.29301	2662.7125
1292.82151	2749.2125
1296.34761	2840.6125
1299.87133	2959.7125
1303.39266	3136.0125
1306.9116	3458.5125
1310.42815	3829.0125
1313.94233	4042.9125
1317.45412	3916.3125
1320.96354	3592.8125
1324.47058	3258.3125
1327.97525	2985.9125
1331.47754	2823.9125
1334.97747	2751.1125
1338.47502	2743.7125
1341.97022	2813.3125
1345.46305	2976.6125
1348.95352	3236.0125
1352.44163	3547.3125
1355.92738	3906.3125
1359.41078	4454.4125
1362.89183	5094.6125
1366.37053	5169.3125
1369.84688	4495.1125
1373.32088	3761.1125
1376.79254	3331.8125
1380.26186	3125.6125
1383.72883	3022.4125
1387.19347	2932.0125
1390.65578	2868.8125
1394.11575	2820.5125
1397.57339	2799.6125
1401.0287	2771.0125
1404.48168	2730.1125
1407.93234	2687.7125
1411.38068	2654.1125
1414.82669	2638.0125
1418.27039	2635.5125
1421.71177	2602.4125
1425.15083	2574.8125
1428.58758	2529.6125
1432.02203	2487.7125
1435.45416	2480.5125
1438.88399	2468.3125
1442.31151	2413.5125
1445.73673	2386.2125
1449.15965	2362.5125
1452.58027	2366.2125
1455.9986	2336.4125
1459.41463	2318.4125
1462.82837	2323.6125
1466.23982	2346.1125
1469.64898	2371.6125
1473.05586	2404.0125
1476.46045	2414.7125
1479.86276	2423.9125
1483.26279	2456.9125
1486.66054	2517.2125
1490.05602	2580.4125
1493.44922	2683.6125
1496.84016	2858.1125
1500.22882	3121.6125
1503.61521	3514.6125
1506.99934	4008.0125
1510.38121	4499.6125
1513.76081	4720.3125
1517.13816	4488.9125
1520.51324	3949.4125
1523.88607	3368.9125
1527.25665	2960.3125
1530.62498	2710.5125
1533.99105	2561.5125
1537.35488	2467.1125
1540.71647	2404.5125
1544.07581	2373.8125
1547.4329	2373.1125
1550.78776	2369.0125
1554.14038	2391.9125
1557.49077	2431.4125
1560.83892	2456.0125
1564.18484	2521.4125
1567.52853	2622.4125
1570.86999	2713.4125
1574.20922	2764.6125
1577.54624	2767.5125
1580.88103	2621.1125
1584.2136	2430.2125
1587.54395	2277.5125
1590.87208	2194.3125
1594.19801	2214.6125
1597.52172	2268.5125
1600.84321	2283.1125
1604.16251	2225.3125
1607.47959	2151.7125
1610.79447	2082.9125
1614.10715	2029.8125
1617.41763	1977.0125
1620.7259	1938.6125
1624.03199	1921.7125
1627.33587	1939.5125
1630.63757	1955.5125
1633.93707	1996.7125
1637.23439	2055.6125
1640.52951	2189.0125
1643.82246	2399.8125
1647.11321	2710.0125
1650.40179	2984.3125
1653.68819	3022.7125
1656.97241	2752.3125
1660.25446	2354.9125
1663.53433	2056.1125
1666.81203	1862.8125
1670.08756	1745.2125
1673.36092	1693.9125
1676.63211	1653.0125
1679.90115	1631.4125
1683.16801	1600.0125
1686.43272	1581.7125
1689.69527	1553.8125
1692.95567	1523.8125
1696.2139	1496.0125
1699.46999	1456.1125
1702.72392	1444.6125
1705.97571	1443.0125
1709.22535	1456.6125
1712.47284	1459.9125
1715.71819	1446.2125
1718.96139	1438.3125
1722.20246	1437.2125
1725.44139	1420.1125
1728.67818	1407.5125
1731.91284	1378.4125
1735.14537	1363.2125
1738.37576	1353.6125
1741.60403	1341.3125
1744.83017	1326.8125
1748.05418	1311.3125
1751.27607	1301.7125
1754.49584	1295.9125
1757.71349	1271.4125
1760.92903	1255.7125
1764.14244	1248.6125
1767.35375	1254.0125
1770.56294	1249.6125
1773.77002	1247.3125
1776.97499	1242.8125
1780.17785	1258.2125
1783.37861	1263.2125
1786.57727	1257.0125
1789.77382	1251.6125
1792.96828	1273.2125
1796.16064	1253.5125
1799.3509	1257.5125
1802.53907	1238.1125
1805.72514	1245.3125
1808.90913	1235.4125
1812.09102	1231.0125
1815.27083	1224.6125
1818.44856	1227.3125
1821.6242	1222.5125
1824.79776	1226.9125
1827.96924	1216.3125
1831.13864	1211.3125
1834.30597	1206.4125
1837.47122	1203.1125
1840.6344	1211.3125
1843.7955	1200.3125
1846.95454	1199.2125
1850.11151	1198.5125
1853.26642	1198.2125
1856.41926	1189.3125
1859.57004	1196.5125
1862.71876	1186.8125
1865.86542	1183.5125
1869.01003	1180.6125
1872.15258	1175.5125
1875.29308	1183.9125
1878.43152	1173.3125
1881.56792	1172.2125
1884.70227	1153.6125
1887.83457	1167.3125
1890.96482	1157.2125
1894.09304	1151.1125
1897.21921	1147.1125
1900.34335	1142.2125
1903.46544	1147.4125
1906.58551	1144.4125
1909.70353	1141.7125
1912.81953	1140.0125
1915.93349	1134.3125
1919.04543	1135.9125
1922.15534	1128.1125
1925.26322	1131.1125
1928.36908	1128.9125
1931.47292	1119.9125
1934.57473	1113.0125
1937.67453	1104.0125
1940.77232	1106.1125
1943.86808	1098.1125
1946.96184	1108.9125
1950.05358	1091.4125
1953.14331	1087.7125
1956.23103	1087.4125
1959.31675	1084.3125
1962.40046	1075.8125
1965.48217	1077.6125
1968.56188	1066.7125
1971.63959	1070.8125
1974.7153	1065.7125
1977.78901	1062.8125
1980.86073	1056.1125
1983.93046	1054.7125
1986.99819	1049.4125
1990.06394	1046.8125
1993.1277	1043.8125
1996.18947	1029.5125
1999.24925	1037.5125
2002.30706	1034.5125
2005.36288	1015.8125
2008.41672	1024.7125
2011.46859	1017.9125
2014.51848	1022.0125
2017.56639	1007.5125
2020.61233	1012.4125
2023.6563	996.1125
2026.6983	1002.7125
2029.73833	992.0125
2032.7764	999.6125
2035.8125	999.7125
2038.84664	987.0125
2041.87881	990.1125
2044.90903	995.4125
2047.93729	982.4125
2050.96359	990.4125
2053.98794	984.1125
2057.01034	992.9125
2060.03078	984.1125
2063.04927	991.5125
2066.06582	988.4125
2069.08042	994.5125
2072.09307	991.6125
2075.10378	1000.6125
2078.11255	994.1125
2081.11938	1002.2125
2084.12426	1000.9125
2087.12722	1009.0125
2090.12824	1019.3125
2093.12732	1020.9125
2096.12447	1015.9125
2099.11969	1018.6125
2102.11299	1018.9125
2105.10435	1027.6125
2108.09379	1029.7125
2111.08131	1020.0125
2114.0669	1018.4125
2117.05057	1025.8125
2120.03233	1016.3125
2123.01216	1010.5125
2125.99008	1008.6125
2128.96609	1012.6125
2131.94018	1012.7125
2134.91236	996.0125
2137.88263	999.7125
2140.851	995.2125
2143.81746	987.6125
2146.78201	982.5125
2149.74466	972.0125
2152.7054	969.1125
2155.66425	965.6125
2158.6212	957.2125
2161.57625	953.5125
2164.52941	949.4125
2167.48067	936.2125
2170.43004	941.3125
2173.37752	936.9125
2176.32311	936.2125
2179.26681	940.8125
2182.20863	934.6125
2185.14856	931.1125
2188.08661	933.3125
2191.02278	923.5125
2193.95707	927.8125
2196.88948	927.5125
2199.82001	927.9125
2202.74867	917.4125
2205.67545	912.4125
2208.60037	910.1125
2211.52341	911.9125
2214.44458	910.6125
2217.36388	907.2125
2220.28132	905.3125
2223.1969	897.6125
2226.11061	894.2125
2229.02246	896.8125
2231.93245	892.7125
2234.84058	894.5125
2237.74686	887.4125
2240.65128	884.7125
2243.55385	888.6125
2246.45456	880.6125
2249.35343	878.5125
2252.25044	873.8125
2255.14561	876.5125
2258.03893	877.1125
2260.93041	863.1125
2263.82004	865.1125
2266.70783	868.0125
2269.59378	864.6125
2272.4779	858.0125
2275.36017	853.9125
2278.24061	860.8125
2281.11922	851.7125
2283.996	859.3125
2286.87094	854.3125
2289.74405	848.7125
2292.61534	852.1125
2295.4848	841.6125
2298.35243	840.5125
2301.21824	840.1125
2304.08223	837.6125
2306.94439	839.7125
2309.80474	830.0125
2312.66327	837.8125
2315.51999	827.7125
2318.37489	834.1125
2321.22797	829.5125
2324.07925	823.3125
2326.92871	821.0125
2329.77637	829.5125
2332.62222	819.2125
2335.46626	822.3125
2338.3085	816.2125
2341.14893	821.9125
2343.98756	815.5125
2346.8244	807.7125
2349.65943	809.0125
2352.49267	812.3125
2355.32411	810.0125
2358.15376	807.7125
2360.98161	814.2125
2363.80768	802.4125
2366.63195	802.4125
2369.45444	810.0125
2372.27514	809.7125
2375.09405	811.1125
2377.91118	806.4125
2380.72652	802.9125
2383.54009	798.5125
2386.35187	790.9125
2389.16188	790.6125
2391.97011	783.2125
2394.77657	789.3125
2397.58125	776.7125
2400.38416	780.7125
2403.18529	774.2125
2405.98466	770.3125
2408.78226	776.9125
2411.57809	773.1125
2414.37216	769.9125
2417.16446	766.9125
2419.955	758.8125
2422.74378	758.8125
2425.5308	759.7125
2428.31606	758.6125
2431.09956	767.2125
2433.88131	765.1125
2436.6613	763.3125
2439.43954	758.4125
2442.21603	762.8125
2444.99077	757.2125
2447.76377	749.3125
2450.53501	756.9125
2453.30451	751.8125
2456.07226	753.5125
2458.83827	754.0125
2461.60254	742.1125
2464.36507	746.0125
2467.12586	751.1125
2469.88492	747.9125
2472.64224	747.1125
2475.39782	739.8125
2478.15167	741.0125
2480.90379	736.3125
2483.65417	748.4125
2486.40283	736.4125
2489.14976	732.7125
2491.89497	738.2125
2494.63845	736.4125
2497.3802	733.7125
2500.12024	733.4125
2502.85855	732.5125
2505.59514	735.0125
2508.33002	736.0125
2511.06318	728.6125
2513.79462	727.1125
2516.52435	718.4125
2519.25237	719.3125
2521.97867	714.9125
2524.70327	714.1125
2527.42616	705.7125
2530.14734	711.9125
2532.86681	704.4125
2535.58458	705.4125
2538.30065	705.6125
2541.01501	700.2125
2543.72768	698.3125
2546.43864	709.3125
2549.14791	699.6125
2551.85548	698.6125
2554.56136	690.9125
2557.26554	691.3125
2559.96803	694.1125
2562.66883	692.5125
2565.36794	696.0125
2568.06536	689.2125
2570.7611	682.8125
2573.45514	690.4125
2576.14751	687.0125
2578.83819	683.2125
2581.52719	679.8125
2584.21451	679.3125
2586.90015	685.2125
2589.58411	681.6125
2592.2664	678.0125
2594.94701	672.1125
2597.62594	676.9125
2600.30321	672.1125
2602.9788	669.0125
2605.65273	666.7125
2608.32498	673.1125
2610.99557	670.4125
2613.66449	661.8125
2616.33175	665.3125
2618.99734	663.6125
2621.66128	660.9125
2624.32355	662.0125
2626.98416	656.5125
2629.64311	656.0125
2632.30041	657.6125
2634.95605	651.7125
2637.61004	653.3125
2640.26238	654.8125
2642.91306	647.9125
2645.56209	651.2125
2648.20948	650.0125
2650.85521	648.8125
2653.4993	649.6125
2656.14175	643.5125
2658.78255	637.8125
2661.42171	647.4125
2664.05923	641.6125
2666.6951	645.1125
2669.32934	651.1125
2671.96194	645.9125
2674.59291	649.4125
2677.22224	646.0125
2679.84993	639.8125
2682.476	647.2125
2685.10043	650.2125
2687.72324	638.6125
2690.34441	653.4125
2692.96396	640.3125
2695.58188	646.9125
2698.19818	646.3125
2700.81285	642.1125
2703.4259	625.0125
2706.03733	581.9125
2708.64714	611.0125
2711.25533	625.9125
2713.86191	630.6125
2716.46687	632.6125
2719.07021	633.5125
2721.67194	640.6125
2724.27206	644.6125
2726.87057	638.0125
2729.46747	646.1125
2732.06276	642.7125
2734.65644	632.3125
2737.24852	640.2125
2739.83899	634.3125
2742.42786	633.6125
2745.01513	634.4125
2747.60079	628.5125
2750.18486	629.2125
2752.76733	630.2125
2755.3482	636.1125
2757.92747	631.0125
2760.50515	628.2125
2763.08123	624.5125
2765.65573	627.8125
2768.22863	624.9125
2770.79994	617.7125
2773.36967	622.9125
2775.9378	623.4125
2778.50435	618.9125
2781.06932	617.1125
2783.6327	616.5125
2786.1945	625.3125
2788.75471	620.1125
2791.31335	611.9125
2793.87041	615.3125
2796.42589	611.8125
2798.97979	618.1125
2801.53212	607.5125
2804.08288	609.0125
2806.63206	612.1125
2809.17967	616.2125
2811.72571	618.0125
2814.27018	610.5125
2816.81308	612.2125
2819.35442	606.4125
2821.89419	602.3125
2824.43239	602.4125
2826.96904	606.6125
2829.50412	602.7125
2832.03763	598.2125
2834.56959	604.7125
2837.1	609.4125
2839.62884	606.3125
2842.15613	603.5125
2844.68186	605.0125
2847.20604	610.0125
2849.72867	613.1125
2852.24974	609.4125
2854.76927	605.5125
2857.28724	593.8125
2859.80367	608.3125
2862.31855	606.9125
2864.83189	603.8125
2867.34368	609.9125
2869.85393	610.1125
2872.36264	615.8125
2874.8698	615.6125
2877.37543	614.4125
2879.87952	618.0125
2882.38207	612.9125
2884.88308	616.2125
2887.38256	614.1125
2889.88051	616.2125
2892.37692	622.6125
2894.8718	626.8125
2897.36515	630.5125
2899.85698	630.0125
2902.34727	637.0125
2904.83604	636.4125
2907.32328	643.9125
2909.809	647.8125
2912.29319	655.6125
2914.77587	659.8125
2917.25702	670.2125
2919.73665	670.2125
2922.21476	666.9125
2924.69136	669.9125
2927.16644	669.6125
2929.64	670.4125
2932.11205	677.0125
2934.58258	670.9125
2937.05161	672.8125
2939.51912	657.9125
2941.98513	660.9125
2944.44962	654.0125
2946.91261	647.2125
2949.37409	640.6125
2951.83407	646.1125
2954.29254	639.4125
2956.74951	630.7125
2959.20498	625.6125
2961.65895	619.9125
2964.11142	620.1125
2966.56239	618.6125
2969.01186	609.5125
2971.45984	617.6125
2973.90632	609.9125
2976.35131	607.4125
2978.7948	606.5125
2981.23681	604.7125
2983.67732	603.1125
2986.11635	602.6125
2988.55388	598.4125
2990.98993	598.0125
2993.4245	602.0125
2995.85758	596.8125
2998.28917	596.0125
3000.71928	596.7125
3003.14791	597.6125
3005.57506	600.0125
3008.00073	595.9125
3010.42493	601.4125
3012.84764	598.1125
3015.26888	600.6125
3017.68865	599.7125
3020.10694	600.4125
3022.52376	600.0125
3024.9391	599.9125
3027.35298	603.7125
3029.76539	593.9125
3032.17632	598.6125
3034.5858	598.5125
3036.9938	600.8125
3039.40034	599.1125
3041.80542	601.6125
3044.20903	603.0125
3046.61118	605.2125
3049.01187	610.7125
3051.4111	608.9125
3053.80888	616.1125
3056.20519	614.3125
3058.60005	607.7125
3060.99345	614.8125
3063.3854	610.8125
3065.7759	622.5125
3068.16494	619.0125
3070.55254	621.1125
3072.93868	620.9125
3075.32338	626.2125
3077.70662	619.8125
3080.08842	627.1125
3082.46878	628.3125
3084.84769	630.4125
3087.22515	635.9125
3089.60118	636.4125
3091.97576	639.1125
3094.3489	640.3125
3096.72061	643.4125
3099.09087	654.1125
3101.4597	662.1125
3103.82709	665.0125
3106.19305	663.5125
3108.55757	670.3125
3110.92066	668.0125
3113.28232	672.8125
3115.64255	678.5125
3118.00134	680.0125
3120.35871	684.3125
3122.71466	690.9125
3125.06917	691.7125
3127.42226	690.2125
3129.77393	697.2125
3132.12417	700.9125
3134.47299	714.3125
3136.82039	713.8125
3139.16636	716.6125
3141.51092	724.8125
3143.85406	732.7125
3146.19579	735.0125
3148.53609	742.8125
3150.87499	745.7125
3153.21246	752.5125
3155.54853	762.9125
3157.88318	768.0125
3160.21642	769.0125
3162.54826	771.0125
3164.87868	786.1125
3167.2077	789.2125
3169.5353	796.5125
3171.86151	802.4125
3174.18631	798.8125
