Data from AgNPs_APTES_FTO_UA_100uM_CRN_0uM_R6G_10uM_Scan_RamanShift__26__12-34-23-536.txt Node

Date: Thu Jun 23 12:34:23 BST 2022
User: TCL
Spectrometer: QEP01345
Trigger mode: 4
Integration Time (sec): 7.000000E0
Scans to average: 10
Electric dark correction enabled: true
Nonlinearity correction enabled: false
Boxcar width: 0
XAxis mode: Raman Shifts
Number of Pixels in Spectrum: 1044
>>>>>Begin Spectral Data<<<<<
46.04893	-0.275
50.45542	-0.275
54.85868	0.025
59.25871	-0.875
63.6555	28.825
68.04907	30.425
72.43941	37.425
76.82654	38.125
81.21044	39.225
85.59113	42.725
89.96862	44.225
94.34289	46.225
98.71396	47.625
103.08183	47.225
107.4465	47.725
111.80798	45.125
116.16626	48.925
120.52136	48.525
124.87327	47.925
129.222	46.325
133.56755	44.025
137.90993	49.525
142.24913	47.825
146.58517	47.325
150.91804	46.725
155.24774	51.025
159.57429	54.525
163.89768	59.625
168.21792	66.525
172.53501	82.625
176.84895	99.125
181.15975	132.325
185.46741	175.025
189.77193	225.025
194.07331	299.825
198.37157	376.525
202.6667	462.325
206.9587	547.125
211.24758	625.525
215.53334	716.925
219.81599	795.825
224.09553	881.425
228.37195	981.325
232.64527	1084.425
236.91549	1192.425
241.18261	1292.825
245.44663	1396.925
249.70755	1488.725
253.96539	1556.725
258.22014	1611.925
262.4718	1658.825
266.72039	1682.125
270.96589	1682.725
275.20832	1675.425
279.44768	1650.325
283.68397	1621.025
287.91719	1580.425
292.14735	1563.125
296.37445	1563.625
300.59849	1562.425
304.81948	1576.025
309.03742	1579.225
313.25231	1577.425
317.46415	1554.825
321.67296	1503.625
325.87872	1465.925
330.08145	1440.625
334.28114	1437.125
338.47781	1446.225
342.67145	1452.025
346.86207	1486.025
351.04966	1517.525
355.23424	1557.425
359.4158	1591.125
363.59435	1625.325
367.76989	1647.725
371.94243	1660.225
376.11196	1669.225
380.27849	1688.225
384.44203	1688.125
388.60257	1693.925
392.76012	1699.225
396.91468	1711.925
401.06626	1724.125
405.21485	1742.725
409.36047	1730.125
413.50311	1693.225
417.64277	1656.325
421.77947	1628.025
425.9132	1619.225
430.04396	1616.725
434.17176	1625.225
438.2966	1635.625
442.41849	1671.625
446.53742	1683.525
450.6534	1700.325
454.76644	1723.825
458.87653	1720.425
462.98368	1728.125
467.08789	1716.525
471.18916	1711.225
475.2875	1703.525
479.38291	1713.025
483.4754	1713.825
487.56496	1748.425
491.6516	1772.125
495.73531	1776.125
499.81612	1774.725
503.89401	1770.625
507.96899	1753.125
512.04106	1750.725
516.11023	1754.425
520.1765	1777.225
524.23987	1778.525
528.30034	1789.625
532.35792	1772.025
536.41261	1759.125
540.46441	1730.925
544.51333	1709.625
548.55936	1696.025
552.60252	1702.125
556.64279	1701.725
560.6802	1706.325
564.71473	1709.125
568.7464	1723.125
572.7752	1728.225
576.80114	1724.625
580.82422	1723.925
584.84444	1724.525
588.86181	1755.025
592.87633	1765.925
596.888	1789.725
600.89682	1804.025
604.9028	1891.325
608.90594	2132.525
612.90624	2413.325
616.90371	2376.525
620.89834	2091.925
624.89015	1987.725
628.87913	2041.125
632.86528	2122.225
636.84862	2176.125
640.82913	2143.625
644.80683	2035.825
648.78172	1924.725
652.75379	1854.025
656.72306	1833.525
660.68952	1828.925
664.65319	1805.425
668.61405	1770.325
672.57211	1756.425
676.52738	1769.225
680.47986	1790.625
684.42955	1803.625
688.37646	1806.925
692.32058	1794.225
696.26192	1766.725
700.20048	1748.925
704.13626	1735.325
708.06928	1725.525
711.99952	1718.525
715.927	1720.725
719.85171	1741.125
723.77365	1747.225
727.69284	1762.825
731.60928	1747.625
735.52295	1732.825
739.43388	1717.525
743.34206	1713.925
747.24749	1723.325
751.15017	1716.225
755.05012	1723.425
758.94733	1737.425
762.8418	1818.725
766.73354	1930.325
770.62254	2068.925
774.50882	2143.225
778.39237	2132.025
782.27321	1991.925
786.15132	1860.825
790.02671	1777.025
793.89938	1745.225
797.76935	1744.825
801.6366	1754.325
805.50115	1805.625
809.36299	1839.725
813.22213	1856.025
817.07857	1845.925
820.93231	1776.525
824.78336	1751.325
828.63172	1698.125
832.47738	1692.925
836.32036	1677.325
840.16066	1679.425
843.99827	1676.825
847.8332	1679.425
851.66546	1679.125
855.49504	1670.425
859.32195	1677.425
863.1462	1673.025
866.96777	1689.425
870.78668	1695.725
874.60293	1737.425
878.41652	1781.525
882.22745	1809.325
886.03573	1844.425
889.84136	1853.425
893.64433	1835.925
897.44466	1800.525
901.24235	1764.925
905.0374	1728.525
908.8298	1721.125
912.61957	1702.625
916.40671	1710.325
920.19121	1727.625
923.97308	1743.125
927.75233	1750.625
931.52895	1750.425
935.30295	1753.125
939.07433	1709.525
942.84309	1680.625
946.60924	1655.125
950.37278	1631.925
954.13371	1613.525
957.89203	1586.825
961.64774	1574.925
965.40086	1563.125
969.15137	1546.425
972.89929	1537.425
976.64461	1522.925
980.38733	1518.125
984.12747	1521.025
987.86502	1522.225
991.59999	1521.425
995.33237	1522.425
999.06217	1535.125
1002.78939	1560.725
1006.51404	1574.025
1010.23611	1612.725
1013.95561	1624.925
1017.67255	1634.025
1021.38692	1637.425
1025.09872	1621.725
1028.80796	1603.125
1032.51465	1570.825
1036.21877	1560.625
1039.92035	1552.825
1043.61937	1532.925
1047.31584	1532.625
1051.00976	1532.125
1054.70114	1531.025
1058.38998	1540.625
1062.07627	1542.025
1065.76003	1554.425
1069.44126	1560.825
1073.11995	1563.225
1076.79611	1578.025
1080.46974	1581.325
1084.14085	1572.325
1087.80943	1579.625
1091.47549	1579.025
1095.13903	1554.625
1098.80005	1526.425
1102.45857	1508.525
1106.11456	1496.425
1109.76805	1505.325
1113.41903	1526.825
1117.06751	1567.225
1120.71348	1633.525
1124.35696	1730.825
1127.99793	1834.525
1131.63641	1909.925
1135.2724	1938.125
1138.90589	1901.625
1142.5369	1831.925
1146.16542	1753.625
1149.79145	1665.825
1153.415	1582.725
1157.03607	1541.425
1160.65467	1515.725
1164.27079	1519.125
1167.88443	1533.225
1171.49561	1577.925
1175.10432	1660.925
1178.71056	1774.325
1182.31434	1883.425
1185.91565	1915.725
1189.51451	1900.625
1193.11091	1883.425
1196.70485	1864.725
1200.29634	1849.325
1203.88538	1813.125
1207.47197	1758.325
1211.05612	1691.725
1214.63782	1630.725
1218.21708	1582.625
1221.79391	1542.325
1225.36829	1530.025
1228.94024	1504.625
1232.50976	1504.925
1236.07685	1494.725
1239.6415	1494.725
1243.20374	1499.825
1246.76355	1495.525
1250.32093	1508.625
1253.8759	1523.325
1257.42845	1540.825
1260.97859	1554.925
1264.52631	1579.325
1268.07163	1604.025
1271.61453	1625.725
1275.15503	1637.925
1278.69312	1641.425
1282.22882	1647.225
1285.76211	1654.725
1289.29301	1675.925
1292.82151	1712.825
1296.34761	1739.525
1299.87133	1793.325
1303.39266	1877.525
1306.9116	2003.525
1310.42815	2113.925
1313.94233	2186.225
1317.45412	2138.425
1320.96354	2066.325
1324.47058	1952.625
1327.97525	1868.025
1331.47754	1830.625
1334.97747	1802.525
1338.47502	1820.425
1341.97022	1863.925
1345.46305	1929.325
1348.95352	2041.025
1352.44163	2175.925
1355.92738	2347.225
1359.41078	2553.925
1362.89183	2732.525
1366.37053	2695.525
1369.84688	2456.725
1373.32088	2223.625
1376.79254	2062.825
1380.26186	1950.325
1383.72883	1863.825
1387.19347	1803.725
1390.65578	1752.225
1394.11575	1723.525
1397.57339	1690.425
1401.0287	1659.225
1404.48168	1635.525
1407.93234	1604.325
1411.38068	1569.925
1414.82669	1549.525
1418.27039	1520.125
1421.71177	1491.225
1425.15083	1470.525
1428.58758	1451.025
1432.02203	1445.625
1435.45416	1431.725
1438.88399	1428.625
1442.31151	1421.825
1445.73673	1411.625
1449.15965	1413.725
1452.58027	1404.525
1455.9986	1398.025
1459.41463	1412.825
1462.82837	1419.725
1466.23982	1421.325
1469.64898	1421.425
1473.05586	1441.425
1476.46045	1438.925
1479.86276	1446.925
1483.26279	1472.625
1486.66054	1489.225
1490.05602	1522.725
1493.44922	1577.325
1496.84016	1639.425
1500.22882	1769.225
1503.61521	1917.425
1506.99934	2098.525
1510.38121	2244.825
1513.76081	2287.325
1517.13816	2193.225
1520.51324	2007.225
1523.88607	1824.025
1527.25665	1680.425
1530.62498	1608.025
1533.99105	1575.525
1537.35488	1551.625
1540.71647	1537.525
1544.07581	1543.125
1547.4329	1548.825
1550.78776	1560.725
1554.14038	1568.625
1557.49077	1577.625
1560.83892	1596.925
1564.18484	1606.725
1567.52853	1641.425
1570.86999	1671.625
1574.20922	1683.625
1577.54624	1672.725
1580.88103	1636.425
1584.2136	1557.125
1587.54395	1501.025
1590.87208	1490.025
1594.19801	1490.225
1597.52172	1522.425
1600.84321	1536.625
1604.16251	1542.325
1607.47959	1510.125
1610.79447	1485.325
1614.10715	1463.125
1617.41763	1440.025
1620.7259	1428.925
1624.03199	1417.525
1627.33587	1410.025
1630.63757	1414.525
1633.93707	1432.425
1637.23439	1451.025
1640.52951	1507.425
1643.82246	1606.625
1647.11321	1707.425
1650.40179	1779.225
1653.68819	1767.525
1656.97241	1661.925
1660.25446	1526.525
1663.53433	1400.425
1666.81203	1317.825
1670.08756	1277.025
1673.36092	1252.425
1676.63211	1216.725
1679.90115	1218.825
1683.16801	1202.925
1686.43272	1189.825
1689.69527	1179.625
1692.95567	1144.425
1696.2139	1113.025
1699.46999	1076.125
1702.72392	1045.725
1705.97571	1040.225
1709.22535	1042.325
1712.47284	1032.925
1715.71819	1018.925
1718.96139	1004.825
1722.20246	994.625
1725.44139	975.425
1728.67818	965.625
1731.91284	961.725
1735.14537	949.925
1738.37576	941.125
1741.60403	918.725
1744.83017	917.425
1748.05418	907.925
1751.27607	891.925
1754.49584	888.625
1757.71349	865.425
1760.92903	844.125
1764.14244	842.725
1767.35375	841.925
1770.56294	843.625
1773.77002	839.025
1776.97499	849.425
1780.17785	868.125
1783.37861	863.225
1786.57727	871.425
1789.77382	868.425
1792.96828	867.925
1796.16064	861.825
1799.3509	863.825
1802.53907	857.225
1805.72514	852.125
1808.90913	856.625
1812.09102	842.225
1815.27083	836.125
1818.44856	835.625
1821.6242	839.425
1824.79776	837.125
1827.96924	835.325
1831.13864	828.825
1834.30597	824.925
1837.47122	827.825
1840.6344	817.025
1843.7955	821.025
1846.95454	824.925
1850.11151	818.025
1853.26642	812.625
1856.41926	808.725
1859.57004	808.925
1862.71876	817.025
1865.86542	805.225
1869.01003	806.125
1872.15258	798.525
1875.29308	801.625
1878.43152	798.725
1881.56792	802.425
1884.70227	797.525
1887.83457	778.525
1890.96482	786.225
1894.09304	778.625
1897.21921	785.225
1900.34335	778.125
1903.46544	777.425
1906.58551	778.925
1909.70353	778.125
1912.81953	772.325
1915.93349	771.325
1919.04543	776.525
1922.15534	772.025
1925.26322	760.325
1928.36908	758.925
1931.47292	759.725
1934.57473	753.525
1937.67453	749.425
1940.77232	749.925
1943.86808	747.525
1946.96184	739.625
1950.05358	736.025
1953.14331	736.225
1956.23103	731.525
1959.31675	725.625
1962.40046	731.325
1965.48217	720.025
1968.56188	719.925
1971.63959	712.425
1974.7153	712.225
1977.78901	707.225
1980.86073	710.825
1983.93046	708.325
1986.99819	704.125
1990.06394	709.025
1993.1277	700.125
1996.18947	698.525
1999.24925	689.925
2002.30706	690.725
2005.36288	685.425
2008.41672	684.425
2011.46859	681.825
2014.51848	681.425
2017.56639	677.825
2020.61233	676.625
2023.6563	662.225
2026.6983	677.525
2029.73833	666.125
2032.7764	655.725
2035.8125	664.525
2038.84664	661.625
2041.87881	656.625
2044.90903	646.425
2047.93729	650.225
2050.96359	650.725
2053.98794	648.025
2057.01034	646.825
2060.03078	646.525
2063.04927	657.225
2066.06582	646.825
2069.08042	646.325
2072.09307	642.125
2075.10378	648.325
2078.11255	642.225
2081.11938	643.225
2084.12426	640.225
2087.12722	640.225
2090.12824	641.725
2093.12732	635.825
2096.12447	639.525
2099.11969	639.225
2102.11299	630.825
2105.10435	636.325
2108.09379	634.625
2111.08131	635.025
2114.0669	631.425
2117.05057	631.025
2120.03233	626.025
2123.01216	630.025
2125.99008	630.625
2128.96609	633.125
2131.94018	634.325
2134.91236	631.725
2137.88263	626.525
2140.851	628.025
2143.81746	631.325
2146.78201	630.625
2149.74466	628.525
2152.7054	622.825
2155.66425	624.725
2158.6212	619.825
2161.57625	619.025
2164.52941	614.125
2167.48067	611.325
2170.43004	615.825
2173.37752	613.725
2176.32311	610.625
2179.26681	614.425
2182.20863	614.825
2185.14856	608.525
2188.08661	615.325
2191.02278	602.225
2193.95707	609.525
2196.88948	609.525
2199.82001	603.325
2202.74867	603.225
2205.67545	601.825
2208.60037	594.425
2211.52341	596.025
2214.44458	596.625
2217.36388	591.825
2220.28132	594.125
2223.1969	585.225
2226.11061	586.225
2229.02246	581.125
2231.93245	577.825
2234.84058	578.425
2237.74686	575.925
2240.65128	576.525
2243.55385	571.025
2246.45456	571.325
2249.35343	571.625
2252.25044	571.825
2255.14561	571.525
2258.03893	561.025
2260.93041	561.825
2263.82004	555.925
2266.70783	564.325
2269.59378	560.825
2272.4779	557.525
2275.36017	562.325
2278.24061	556.125
2281.11922	550.725
2283.996	554.025
2286.87094	548.325
2289.74405	550.325
2292.61534	547.225
2295.4848	546.625
2298.35243	547.925
2301.21824	533.625
2304.08223	540.325
2306.94439	542.525
2309.80474	533.025
2312.66327	534.925
2315.51999	535.825
2318.37489	529.625
2321.22797	536.725
2324.07925	534.025
2326.92871	531.225
2329.77637	531.825
2332.62222	529.525
2335.46626	520.025
2338.3085	523.525
2341.14893	514.725
2343.98756	519.025
2346.8244	514.725
2349.65943	516.025
2352.49267	515.025
2355.32411	512.325
2358.15376	515.625
2360.98161	512.725
2363.80768	508.825
2366.63195	514.225
2369.45444	510.425
2372.27514	514.225
2375.09405	514.625
2377.91118	510.725
2380.72652	513.525
2383.54009	507.825
2386.35187	501.025
2389.16188	502.325
2391.97011	502.025
2394.77657	498.125
2397.58125	501.925
2400.38416	493.725
2403.18529	498.325
2405.98466	490.925
2408.78226	492.225
2411.57809	489.625
2414.37216	482.025
2417.16446	485.425
2419.955	483.925
2422.74378	478.625
2425.5308	484.525
2428.31606	479.625
2431.09956	481.325
2433.88131	486.025
2436.6613	480.025
2439.43954	478.925
2442.21603	472.725
2444.99077	476.925
2447.76377	474.525
2450.53501	474.525
2453.30451	474.825
2456.07226	474.225
2458.83827	471.925
2461.60254	465.425
2464.36507	465.625
2467.12586	466.925
2469.88492	466.525
2472.64224	463.425
2475.39782	463.325
2478.15167	455.625
2480.90379	456.525
2483.65417	462.225
2486.40283	460.825
2489.14976	462.225
2491.89497	460.825
2494.63845	458.225
2497.3802	453.125
2500.12024	455.125
2502.85855	455.125
2505.59514	453.725
2508.33002	456.125
2511.06318	454.525
2513.79462	452.525
2516.52435	450.925
2519.25237	449.825
2521.97867	446.325
2524.70327	444.625
2527.42616	439.725
2530.14734	438.225
2532.86681	438.225
2535.58458	441.325
2538.30065	441.725
2541.01501	435.125
2543.72768	434.325
2546.43864	442.225
2549.14791	433.125
2551.85548	434.825
2554.56136	434.025
2557.26554	431.825
2559.96803	427.125
2562.66883	432.325
2565.36794	431.625
2568.06536	426.625
2570.7611	426.125
2573.45514	422.825
2576.14751	426.225
2578.83819	422.025
2581.52719	422.625
2584.21451	421.325
2586.90015	419.525
2589.58411	416.025
2592.2664	414.525
2594.94701	415.325
2597.62594	409.925
2600.30321	409.125
2602.9788	415.125
2605.65273	413.525
2608.32498	409.225
2610.99557	411.225
2613.66449	409.625
2616.33175	414.125
2618.99734	404.225
2621.66128	407.825
2624.32355	407.725
2626.98416	405.525
2629.64311	400.125
2632.30041	406.325
2634.95605	398.525
2637.61004	400.025
2640.26238	397.925
2642.91306	397.425
2645.56209	398.525
2648.20948	401.125
2650.85521	396.025
2653.4993	401.725
2656.14175	396.725
2658.78255	392.925
2661.42171	396.825
2664.05923	398.425
2666.6951	430.425
2669.32934	397.525
2671.96194	393.625
2674.59291	400.625
2677.22224	398.425
2679.84993	394.525
2682.476	395.125
2685.10043	391.725
2687.72324	394.625
2690.34441	392.925
2692.96396	396.825
2695.58188	392.025
2698.19818	390.725
2700.81285	389.625
2703.4259	376.525
2706.03733	345.625
2708.64714	368.325
2711.25533	382.725
2713.86191	377.425
2716.46687	379.325
2719.07021	387.025
2721.67194	394.725
2724.27206	390.525
2726.87057	392.425
2729.46747	389.925
2732.06276	394.925
2734.65644	393.925
2737.24852	392.225
2739.83899	391.925
2742.42786	391.025
2745.01513	390.525
2747.60079	386.225
2750.18486	386.325
2752.76733	387.625
2755.3482	389.125
2757.92747	387.025
2760.50515	383.625
2763.08123	384.325
2765.65573	386.725
2768.22863	387.225
2770.79994	382.625
2773.36967	382.225
2775.9378	379.725
2778.50435	377.825
2781.06932	377.425
2783.6327	382.325
2786.1945	382.325
2788.75471	382.225
2791.31335	376.525
2793.87041	378.425
2796.42589	379.725
2798.97979	374.525
2801.53212	374.825
2804.08288	373.625
2806.63206	377.325
2809.17967	375.125
2811.72571	376.025
2814.27018	372.625
2816.81308	377.025
2819.35442	374.525
2821.89419	374.025
2824.43239	373.425
2826.96904	370.325
2829.50412	369.125
2832.03763	374.025
2834.56959	370.225
2837.1	379.725
2839.62884	372.625
2842.15613	368.625
2844.68186	379.025
2847.20604	376.925
2849.72867	379.025
2852.24974	377.625
2854.76927	372.325
2857.28724	363.025
2859.80367	374.225
2862.31855	375.925
2864.83189	377.125
2867.34368	373.125
2869.85393	378.825
2872.36264	382.525
2874.8698	382.225
2877.37543	374.425
2879.87952	384.325
2882.38207	377.825
2884.88308	379.725
2887.38256	383.625
2889.88051	387.325
2892.37692	382.825
2894.8718	387.825
2897.36515	390.125
2899.85698	390.725
2902.34727	392.625
2904.83604	394.125
2907.32328	394.025
2909.809	398.425
2912.29319	394.425
2914.77587	403.225
2917.25702	406.025
2919.73665	408.825
2922.21476	405.725
2924.69136	409.925
2927.16644	405.925
2929.64	412.725
2932.11205	407.025
2934.58258	407.725
2937.05161	410.925
2939.51912	402.225
2941.98513	400.925
2944.44962	404.525
2946.91261	398.525
2949.37409	394.825
2951.83407	400.125
2954.29254	394.725
2956.74951	391.325
2959.20498	387.325
2961.65895	387.025
2964.11142	384.325
2966.56239	387.025
2969.01186	386.425
2971.45984	387.425
2973.90632	385.425
2976.35131	386.825
2978.7948	385.925
2981.23681	391.925
2983.67732	386.425
2986.11635	383.825
2988.55388	383.625
2990.98993	382.425
2993.4245	389.225
2995.85758	384.825
2998.28917	382.825
3000.71928	385.025
3003.14791	381.025
3005.57506	384.125
3008.00073	386.225
3010.42493	392.325
3012.84764	387.325
3015.26888	390.625
3017.68865	396.325
3020.10694	388.725
3022.52376	389.225
3024.9391	392.625
3027.35298	395.125
3029.76539	394.925
3032.17632	397.125
3034.5858	398.025
3036.9938	402.125
3039.40034	403.225
3041.80542	403.525
3044.20903	408.225
3046.61118	406.825
3049.01187	411.725
3051.4111	416.225
3053.80888	418.525
3056.20519	423.025
3058.60005	416.025
3060.99345	421.825
3063.3854	423.425
3065.7759	425.025
3068.16494	430.025
3070.55254	431.425
3072.93868	436.325
3075.32338	434.125
3077.70662	436.425
3080.08842	443.525
3082.46878	442.425
3084.84769	446.625
3087.22515	452.625
3089.60118	454.925
3091.97576	459.525
3094.3489	460.025
3096.72061	467.225
3099.09087	471.525
3101.4597	476.125
3103.82709	476.125
3106.19305	485.725
3108.55757	488.525
3110.92066	500.425
3113.28232	496.425
3115.64255	500.725
3118.00134	507.525
3120.35871	508.025
3122.71466	518.325
3125.06917	521.125
3127.42226	521.125
3129.77393	530.625
3132.12417	530.825
3134.47299	543.825
3136.82039	544.425
3139.16636	554.425
3141.51092	560.425
3143.85406	566.325
3146.19579	569.825
3148.53609	570.625
3150.87499	579.825
3153.21246	583.525
3155.54853	598.125
3157.88318	600.125
3160.21642	606.725
3162.54826	607.725
3164.87868	620.725
3167.2077	623.325
3169.5353	625.625
3171.86151	637.525
3174.18631	645.925
3176.5097	645.725
3178.83169	649.925
3181.15228	663.125
3183.47147	665.925
3185.78926	663.925
3188.10565	670.325
3190.42065	677.125
3192.73424	681.325
3195.04645	672.825
3197.35725	685.025
3199.66667	694.825
3201.97469	690.625
3204.28132	699.125
3206.58656	707.225
3208.8904	709.325
3211.19287	712.525
3213.49394	710.325
3215.79363	714.525
3218.09193	720.025
3220.38884	721.425
3222.68438	722.025
3224.97853	724.125
3227.2713	730.825
3229.56269	734.125
3231.8527	741.225
3234.14133	741.425
3236.42858	743.025
3238.71446	743.525
3240.99896	744.625
3243.28209	738.225
3245.56384	739.825
3247.84423	744.325
3250.12324	749.525
3252.40088	745.925
3254.67715	745.225
3256.95205	749.625
3259.22558	754.525
3261.49775	750.925
3263.76855	747.625
3266.03799	756.425
3268.30606	756.725
3270.57277	753.325
3272.83812	754.025
3275.10211	750.025
3277.36474	747.425
3279.62601	744.225
3281.88593	738.425
3284.14448	748.825
3286.40168	749.125
3288.65753	743.225
3290.91202	746.925
3293.16516	747.325
3295.41695	748.825
3297.66738	744.025
3299.91647	742.825
3302.16421	738.725
3304.4106	740.625
3306.65564	735.025
