Data from AgNPs_APTES_FTO_UA_100uM_CRN_0uM_R6G_10uM_Scan_RamanShift__5__12-09-53-506.txt Node

Date: Thu Jun 23 12:09:53 BST 2022
User: TCL
Spectrometer: QEP01345
Trigger mode: 4
Integration Time (sec): 7.000000E0
Scans to average: 10
Electric dark correction enabled: true
Nonlinearity correction enabled: false
Boxcar width: 0
XAxis mode: Raman Shifts
Number of Pixels in Spectrum: 1044
>>>>>Begin Spectral Data<<<<<
46.04893	0.45
50.45542	-1.25
54.85868	-0.75
59.25871	0.25
63.6555	32.95
68.04907	35.15
72.43941	43.15
76.82654	47.35
81.21044	43.45
85.59113	46.75
89.96862	50.25
94.34289	54.05
98.71396	53.85
103.08183	52.05
107.4465	54.25
111.80798	52.95
116.16626	56.55
120.52136	55.05
124.87327	53.05
129.222	53.15
133.56755	57.05
137.90993	55.25
142.24913	54.05
146.58517	58.05
150.91804	55.75
155.24774	67.05
159.57429	70.85
163.89768	77.65
168.21792	93.05
172.53501	114.95
176.84895	141.05
181.15975	192.75
185.46741	263.95
189.77193	352.75
194.07331	458.95
198.37157	599.35
202.6667	738.05
206.9587	884.65
211.24758	1029.15
215.53334	1174.75
219.81599	1325.65
224.09553	1502.05
228.37195	1673.95
232.64527	1879.75
236.91549	2064.85
241.18261	2256.95
245.44663	2425.85
249.70755	2568.35
253.96539	2697.35
258.22014	2792.65
262.4718	2857.55
266.72039	2871.55
270.96589	2857.65
275.20832	2781.95
279.44768	2694.15
283.68397	2595.35
287.91719	2507.55
292.14735	2426.75
296.37445	2394.15
300.59849	2392.85
304.81948	2416.65
309.03742	2469.05
313.25231	2454.35
317.46415	2374.65
321.67296	2251.45
325.87872	2134.85
330.08145	2055.45
334.28114	2044.15
338.47781	2072.95
342.67145	2087.25
346.86207	2154.25
351.04966	2230.45
355.23424	2325.75
359.4158	2384.05
363.59435	2381.75
367.76989	2347.95
371.94243	2328.15
376.11196	2291.35
380.27849	2284.45
384.44203	2259.25
388.60257	2233.05
392.76012	2239.05
396.91468	2231.65
401.06626	2280.15
405.21485	2283.15
409.36047	2272.85
413.50311	2194.45
417.64277	2121.75
421.77947	2081.15
425.9132	2067.95
430.04396	2076.55
434.17176	2079.65
438.2966	2106.55
442.41849	2145.55
446.53742	2176.75
450.6534	2192.65
454.76644	2212.75
458.87653	2223.55
462.98368	2215.35
467.08789	2203.85
471.18916	2199.65
475.2875	2178.55
479.38291	2160.95
483.4754	2150.95
487.56496	2151.25
491.6516	2137.45
495.73531	2143.55
499.81612	2155.15
503.89401	2160.95
507.96899	2178.75
512.04106	2200.25
516.11023	2211.05
520.1765	2226.55
524.23987	2232.85
528.30034	2218.25
532.35792	2179.85
536.41261	2167.95
540.46441	2138.15
544.51333	2123.65
548.55936	2123.95
552.60252	2139.85
556.64279	2166.85
560.6802	2193.85
564.71473	2229.45
568.7464	2300.95
572.7752	2323.65
576.80114	2245.45
580.82422	2174.85
584.84444	2154.15
588.86181	2171.05
592.87633	2200.65
596.888	2259.25
600.89682	2368.05
604.9028	2615.45
608.90594	3193.05
612.90624	3909.65
616.90371	3854.25
620.89834	3063.25
624.89015	2625.15
628.87913	2484.65
632.86528	2436.65
636.84862	2410.35
640.82913	2349.35
644.80683	2268.75
648.78172	2215.35
652.75379	2212.15
656.72306	2264.45
660.68952	2349.05
664.65319	2359.85
668.61405	2304.75
672.57211	2310.15
676.52738	2349.35
680.47986	2396.65
684.42955	2442.25
688.37646	2472.65
692.32058	2462.05
696.26192	2427.35
700.20048	2407.65
704.13626	2413.95
708.06928	2380.15
711.99952	2352.15
715.927	2323.65
719.85171	2313.45
723.77365	2292.75
727.69284	2276.05
731.60928	2271.35
735.52295	2247.05
739.43388	2237.65
743.34206	2242.85
747.24749	2239.25
751.15017	2233.55
755.05012	2259.65
758.94733	2308.25
762.8418	2485.05
766.73354	2763.45
770.62254	3029.45
774.50882	3119.35
778.39237	3032.55
782.27321	2784.95
786.15132	2533.85
790.02671	2390.55
793.89938	2317.05
797.76935	2306.45
801.6366	2298.55
805.50115	2319.65
809.36299	2326.35
813.22213	2337.25
817.07857	2330.75
820.93231	2326.15
824.78336	2314.95
828.63172	2303.75
832.47738	2293.35
836.32036	2293.75
840.16066	2285.85
843.99827	2291.35
847.8332	2275.05
851.66546	2276.15
855.49504	2268.65
859.32195	2277.05
863.1462	2268.35
866.96777	2289.25
870.78668	2315.45
874.60293	2335.75
878.41652	2384.65
882.22745	2427.05
886.03573	2478.65
889.84136	2544.05
893.64433	2590.85
897.44466	2621.95
901.24235	2661.65
905.0374	2670.55
908.8298	2686.55
912.61957	2739.45
916.40671	2802.85
920.19121	2877.85
923.97308	2962.25
927.75233	3017.35
931.52895	3032.95
935.30295	2968.75
939.07433	2841.95
942.84309	2739.75
946.60924	2621.55
950.37278	2546.05
954.13371	2479.05
957.89203	2429.65
961.64774	2380.95
965.40086	2330.95
969.15137	2284.85
972.89929	2252.05
976.64461	2232.25
980.38733	2215.25
984.12747	2197.15
987.86502	2179.95
991.59999	2174.55
995.33237	2175.95
999.06217	2172.95
1002.78939	2193.15
1006.51404	2202.05
1010.23611	2219.75
1013.95561	2226.25
1017.67255	2227.55
1021.38692	2228.65
1025.09872	2225.15
1028.80796	2219.75
1032.51465	2224.55
1036.21877	2223.95
1039.92035	2248.65
1043.61937	2247.65
1047.31584	2250.95
1051.00976	2256.05
1054.70114	2250.35
1058.38998	2217.05
1062.07627	2214.25
1065.76003	2206.75
1069.44126	2171.95
1073.11995	2153.15
1076.79611	2162.25
1080.46974	2170.95
1084.14085	2204.15
1087.80943	2231.65
1091.47549	2239.05
1095.13903	2193.25
1098.80005	2136.85
1102.45857	2095.05
1106.11456	2082.55
1109.76805	2097.95
1113.41903	2130.45
1117.06751	2178.15
1120.71348	2250.35
1124.35696	2344.65
1127.99793	2446.15
1131.63641	2468.05
1135.2724	2382.55
1138.90589	2303.45
1142.5369	2245.75
1146.16542	2196.95
1149.79145	2169.75
1153.415	2128.85
1157.03607	2119.65
1160.65467	2138.25
1164.27079	2157.25
1167.88443	2208.35
1171.49561	2307.15
1175.10432	2464.75
1178.71056	2704.65
1182.31434	2887.55
1185.91565	2906.55
1189.51451	2786.25
1193.11091	2625.25
1196.70485	2500.75
1200.29634	2418.55
1203.88538	2375.65
1207.47197	2276.75
1211.05612	2206.15
1214.63782	2150.35
1218.21708	2142.05
1221.79391	2133.15
1225.36829	2131.85
1228.94024	2139.45
1232.50976	2155.25
1236.07685	2174.85
1239.6415	2189.35
1243.20374	2215.25
1246.76355	2220.85
1250.32093	2251.45
1253.8759	2266.65
1257.42845	2303.85
1260.97859	2358.15
1264.52631	2398.25
1268.07163	2464.75
1271.61453	2526.95
1275.15503	2543.95
1278.69312	2563.85
1282.22882	2551.05
1285.76211	2593.65
1289.29301	2669.55
1292.82151	2758.85
1296.34761	2833.25
1299.87133	2932.25
1303.39266	3111.15
1306.9116	3384.65
1310.42815	3723.75
1313.94233	3922.75
1317.45412	3806.05
1320.96354	3515.85
1324.47058	3201.05
1327.97525	2967.45
1331.47754	2831.05
1334.97747	2760.15
1338.47502	2776.35
1341.97022	2839.55
1345.46305	2990.85
1348.95352	3235.65
1352.44163	3521.05
1355.92738	3840.65
1359.41078	4339.55
1362.89183	4913.25
1366.37053	4989.05
1369.84688	4390.05
1373.32088	3715.75
1376.79254	3364.65
1380.26186	3177.05
1383.72883	3108.35
1387.19347	3030.45
1390.65578	2986.55
1394.11575	2936.55
1397.57339	2915.05
1401.0287	2882.25
1404.48168	2840.45
1407.93234	2809.45
1411.38068	2763.15
1414.82669	2758.65
1418.27039	2744.75
1421.71177	2733.85
1425.15083	2698.85
1428.58758	2654.95
1432.02203	2613.15
1435.45416	2608.95
1438.88399	2585.35
1442.31151	2541.85
1445.73673	2509.95
1449.15965	2502.95
1452.58027	2484.95
1455.9986	2468.55
1459.41463	2457.05
1462.82837	2455.05
1466.23982	2472.95
1469.64898	2505.25
1473.05586	2528.05
1476.46045	2542.85
1479.86276	2562.65
1483.26279	2603.85
1486.66054	2645.15
1490.05602	2677.85
1493.44922	2779.65
1496.84016	2930.65
1500.22882	3172.35
1503.61521	3522.75
1506.99934	3973.35
1510.38121	4427.65
1513.76081	4616.45
1517.13816	4393.25
1520.51324	3891.05
1523.88607	3351.35
1527.25665	2975.35
1530.62498	2757.05
1533.99105	2621.05
1537.35488	2534.75
1540.71647	2483.85
1544.07581	2454.35
1547.4329	2444.25
1550.78776	2456.45
1554.14038	2478.65
1557.49077	2490.85
1560.83892	2525.75
1564.18484	2578.95
1567.52853	2678.25
1570.86999	2752.25
1574.20922	2795.15
1577.54624	2779.05
1580.88103	2663.25
1584.2136	2475.15
1587.54395	2327.05
1590.87208	2249.45
1594.19801	2262.05
1597.52172	2305.95
1600.84321	2318.95
1604.16251	2261.55
1607.47959	2203.85
1610.79447	2165.75
1614.10715	2117.05
1617.41763	2068.45
1620.7259	2044.85
1624.03199	2039.65
1627.33587	2049.55
1630.63757	2062.95
1633.93707	2098.55
1637.23439	2150.65
1640.52951	2253.75
1643.82246	2424.35
1647.11321	2694.45
1650.40179	2943.85
1653.68819	2974.45
1656.97241	2735.35
1660.25446	2389.75
1663.53433	2115.65
1666.81203	1943.85
1670.08756	1848.15
1673.36092	1783.85
1676.63211	1738.15
1679.90115	1710.55
1683.16801	1682.15
1686.43272	1675.15
1689.69527	1649.45
1692.95567	1622.75
1696.2139	1608.15
1699.46999	1582.55
1702.72392	1557.85
1705.97571	1568.75
1709.22535	1568.75
1712.47284	1556.75
1715.71819	1555.35
1718.96139	1544.55
1722.20246	1526.35
1725.44139	1524.85
1728.67818	1507.05
1731.91284	1502.65
1735.14537	1480.85
1738.37576	1469.05
1741.60403	1462.35
1744.83017	1460.55
1748.05418	1440.75
1751.27607	1434.65
1754.49584	1430.45
1757.71349	1417.65
1760.92903	1396.55
1764.14244	1405.75
1767.35375	1397.15
1770.56294	1390.05
1773.77002	1393.05
1776.97499	1383.65
1780.17785	1384.95
1783.37861	1388.35
1786.57727	1387.65
1789.77382	1389.35
1792.96828	1381.65
1796.16064	1381.15
1799.3509	1376.35
1802.53907	1367.35
1805.72514	1367.05
1808.90913	1361.95
1812.09102	1353.25
1815.27083	1353.95
1818.44856	1347.45
1821.6242	1351.65
1824.79776	1347.75
1827.96924	1339.05
1831.13864	1338.75
1834.30597	1337.55
1837.47122	1326.15
1840.6344	1329.05
1843.7955	1325.55
1846.95454	1326.35
1850.11151	1317.55
1853.26642	1323.45
1856.41926	1320.85
1859.57004	1311.25
1862.71876	1312.95
1865.86542	1311.95
1869.01003	1314.75
1872.15258	1301.85
1875.29308	1306.25
1878.43152	1297.15
1881.56792	1294.95
1884.70227	1287.55
1887.83457	1288.35
1890.96482	1283.25
1894.09304	1279.25
1897.21921	1285.25
1900.34335	1284.75
1903.46544	1277.85
1906.58551	1280.45
1909.70353	1272.55
1912.81953	1267.85
1915.93349	1272.75
1919.04543	1265.15
1922.15534	1266.95
1925.26322	1261.95
1928.36908	1258.05
1931.47292	1255.45
1934.57473	1254.35
1937.67453	1248.65
1940.77232	1240.15
1943.86808	1236.95
1946.96184	1236.85
1950.05358	1231.55
1953.14331	1224.75
1956.23103	1226.05
1959.31675	1215.45
1962.40046	1216.65
1965.48217	1209.35
1968.56188	1213.65
1971.63959	1205.15
1974.7153	1206.15
1977.78901	1203.85
1980.86073	1194.35
1983.93046	1190.45
1986.99819	1186.05
1990.06394	1183.45
1993.1277	1182.05
1996.18947	1170.35
1999.24925	1160.75
2002.30706	1166.15
2005.36288	1157.35
2008.41672	1157.25
2011.46859	1154.65
2014.51848	1153.35
2017.56639	1139.65
2020.61233	1148.65
2023.6563	1139.75
2026.6983	1136.95
2029.73833	1134.85
2032.7764	1130.75
2035.8125	1135.65
2038.84664	1127.05
2041.87881	1132.05
2044.90903	1134.05
2047.93729	1132.65
2050.96359	1131.35
2053.98794	1127.95
2057.01034	1133.45
2060.03078	1139.75
2063.04927	1137.95
2066.06582	1146.85
2069.08042	1154.15
2072.09307	1168.45
2075.10378	1160.65
2078.11255	1161.35
2081.11938	1187.15
2084.12426	1188.45
2087.12722	1189.75
2090.12824	1197.15
2093.12732	1203.45
2096.12447	1205.35
2099.11969	1205.55
2102.11299	1204.65
2105.10435	1219.45
2108.09379	1212.75
2111.08131	1205.15
2114.0669	1202.25
2117.05057	1197.25
2120.03233	1192.55
2123.01216	1184.65
2125.99008	1179.85
2128.96609	1175.15
2131.94018	1174.95
2134.91236	1160.35
2137.88263	1159.55
2140.851	1144.15
2143.81746	1138.45
2146.78201	1133.15
2149.74466	1118.35
2152.7054	1116.35
2155.66425	1118.15
2158.6212	1106.45
2161.57625	1103.25
2164.52941	1090.75
2167.48067	1087.55
2170.43004	1078.15
2173.37752	1082.35
2176.32311	1076.55
2179.26681	1083.25
2182.20863	1080.35
2185.14856	1078.25
2188.08661	1067.05
2191.02278	1066.65
2193.95707	1068.85
2196.88948	1072.65
2199.82001	1066.45
2202.74867	1063.75
2205.67545	1064.05
2208.60037	1060.15
2211.52341	1054.55
2214.44458	1045.65
2217.36388	1047.95
2220.28132	1048.75
2223.1969	1036.15
2226.11061	1037.55
2229.02246	1036.05
2231.93245	1032.15
2234.84058	1030.25
2237.74686	1031.55
2240.65128	1030.05
2243.55385	1022.95
2246.45456	1023.35
2249.35343	1024.85
2252.25044	1017.35
2255.14561	1019.65
2258.03893	1013.05
2260.93041	1014.75
2263.82004	1014.55
2266.70783	1003.55
2269.59378	1003.25
2272.4779	1002.05
2275.36017	1006.15
2278.24061	1000.85
2281.11922	995.45
2283.996	995.75
2286.87094	992.55
2289.74405	992.35
2292.61534	994.05
2295.4848	981.05
2298.35243	983.75
2301.21824	982.65
2304.08223	984.65
2306.94439	976.95
2309.80474	982.65
2312.66327	982.85
2315.51999	977.55
2318.37489	975.35
2321.22797	972.45
2324.07925	970.05
2326.92871	968.75
2329.77637	972.95
2332.62222	966.25
2335.46626	962.45
2338.3085	953.85
2341.14893	955.15
2343.98756	951.55
2346.8244	948.45
2349.65943	956.05
2352.49267	952.15
2355.32411	943.05
2358.15376	945.65
2360.98161	948.25
2363.80768	946.75
2366.63195	947.35
2369.45444	951.85
2372.27514	943.15
2375.09405	949.45
2377.91118	953.85
2380.72652	942.75
2383.54009	932.35
2386.35187	933.55
2389.16188	933.95
2391.97011	924.95
2394.77657	931.25
2397.58125	921.45
2400.38416	924.95
2403.18529	917.35
2405.98466	914.75
2408.78226	915.05
2411.57809	912.25
2414.37216	903.95
2417.16446	911.35
2419.955	901.65
2422.74378	900.65
2425.5308	888.35
2428.31606	902.05
2431.09956	898.75
2433.88131	900.25
2436.6613	898.65
2439.43954	900.05
2442.21603	887.45
2444.99077	895.95
2447.76377	895.65
2450.53501	899.05
2453.30451	895.75
2456.07226	891.85
2458.83827	886.75
2461.60254	886.55
2464.36507	884.25
2467.12586	886.05
2469.88492	879.95
2472.64224	887.35
2475.39782	884.95
2478.15167	877.05
2480.90379	878.45
2483.65417	887.25
2486.40283	884.85
2489.14976	878.75
2491.89497	881.75
2494.63845	885.35
2497.3802	880.55
2500.12024	878.45
2502.85855	880.25
2505.59514	868.75
2508.33002	866.65
2511.06318	876.45
2513.79462	868.95
2516.52435	867.45
2519.25237	858.95
2521.97867	862.75
2524.70327	854.25
2527.42616	852.75
2530.14734	845.75
2532.86681	843.65
2535.58458	841.65
2538.30065	840.65
2541.01501	839.85
2543.72768	836.75
2546.43864	842.35
2549.14791	839.15
2551.85548	838.15
2554.56136	835.85
2557.26554	827.25
2559.96803	839.15
2562.66883	825.25
2565.36794	831.25
2568.06536	827.15
2570.7611	827.85
2573.45514	822.65
2576.14751	818.15
2578.83819	822.15
2581.52719	813.25
2584.21451	814.85
2586.90015	820.55
2589.58411	810.85
2592.2664	817.65
2594.94701	814.15
2597.62594	806.65
2600.30321	807.25
2602.9788	807.65
2605.65273	803.15
2608.32498	800.25
2610.99557	801.55
2613.66449	794.35
2616.33175	799.25
2618.99734	800.45
2621.66128	795.45
2624.32355	799.25
2626.98416	791.95
2629.64311	793.75
2632.30041	793.25
2634.95605	786.75
2637.61004	786.65
2640.26238	788.15
2642.91306	781.55
2645.56209	783.75
2648.20948	779.45
2650.85521	785.65
2653.4993	782.55
2656.14175	779.05
2658.78255	782.55
2661.42171	776.75
2664.05923	780.85
2666.6951	778.55
2669.32934	779.55
2671.96194	778.15
2674.59291	778.05
2677.22224	785.15
2679.84993	781.35
2682.476	777.15
2685.10043	780.75
2687.72324	779.95
2690.34441	782.25
2692.96396	779.75
2695.58188	781.25
2698.19818	782.85
2700.81285	778.95
2703.4259	771.35
2706.03733	744.05
2708.64714	760.05
2711.25533	770.45
2713.86191	767.85
2716.46687	776.05
2719.07021	774.95
2721.67194	783.05
2724.27206	780.95
2726.87057	772.35
2729.46747	777.65
2732.06276	782.15
2734.65644	781.95
2737.24852	778.45
2739.83899	769.55
2742.42786	781.65
2745.01513	766.75
2747.60079	772.25
2750.18486	765.95
2752.76733	774.35
2755.3482	770.85
2757.92747	773.35
2760.50515	755.55
2763.08123	764.75
2765.65573	761.15
2768.22863	764.05
2770.79994	759.25
2773.36967	757.05
2775.9378	762.05
2778.50435	755.05
2781.06932	754.35
2783.6327	750.75
2786.1945	756.65
2788.75471	755.95
2791.31335	752.55
2793.87041	747.75
2796.42589	750.75
2798.97979	746.35
2801.53212	744.65
2804.08288	742.55
2806.63206	744.15
2809.17967	743.45
2811.72571	748.15
2814.27018	737.15
2816.81308	742.35
2819.35442	735.05
2821.89419	740.25
2824.43239	732.15
2826.96904	737.65
2829.50412	738.65
2832.03763	735.15
2834.56959	735.25
2837.1	736.15
2839.62884	732.05
2842.15613	726.25
2844.68186	735.75
2847.20604	735.35
2849.72867	745.15
2852.24974	740.35
2854.76927	744.85
2857.28724	732.25
2859.80367	732.85
2862.31855	735.45
2864.83189	742.05
2867.34368	745.05
2869.85393	743.55
2872.36264	751.65
2874.8698	748.75
2877.37543	749.25
2879.87952	749.85
2882.38207	740.15
2884.88308	742.85
2887.38256	739.95
2889.88051	749.45
2892.37692	750.55
2894.8718	755.35
2897.36515	755.55
2899.85698	755.65
2902.34727	763.95
2904.83604	769.15
2907.32328	778.35
2909.809	784.85
2912.29319	786.05
2914.77587	793.55
2917.25702	801.15
2919.73665	804.55
2922.21476	800.05
2924.69136	800.95
2927.16644	810.75
2929.64	805.85
2932.11205	806.05
2934.58258	806.35
2937.05161	808.05
2939.51912	795.65
2941.98513	793.95
2944.44962	790.95
2946.91261	788.15
2949.37409	780.45
2951.83407	776.55
2954.29254	765.35
2956.74951	767.95
2959.20498	764.15
2961.65895	757.25
2964.11142	750.05
2966.56239	757.05
2969.01186	748.65
2971.45984	748.95
2973.90632	733.25
2976.35131	738.35
2978.7948	737.05
2981.23681	737.65
2983.67732	737.25
2986.11635	735.05
2988.55388	731.75
2990.98993	730.95
2993.4245	726.55
2995.85758	729.25
2998.28917	725.35
3000.71928	728.55
3003.14791	726.85
3005.57506	726.25
3008.00073	729.85
3010.42493	732.15
3012.84764	726.55
3015.26888	727.25
3017.68865	722.35
3020.10694	722.95
3022.52376	734.25
3024.9391	724.95
3027.35298	733.05
3029.76539	726.05
3032.17632	725.15
3034.5858	727.15
3036.9938	734.05
3039.40034	729.25
3041.80542	732.15
3044.20903	728.65
3046.61118	731.85
3049.01187	737.55
3051.4111	739.55
3053.80888	743.65
3056.20519	740.75
3058.60005	740.55
3060.99345	743.55
3063.3854	749.25
3065.7759	735.15
3068.16494	740.85
3070.55254	747.25
3072.93868	742.55
3075.32338	750.35
3077.70662	751.45
3080.08842	746.15
3082.46878	754.85
3084.84769	756.65
3087.22515	759.95
3089.60118	760.45
3091.97576	768.15
3094.3489	765.65
3096.72061	772.55
3099.09087	778.35
3101.4597	778.75
3103.82709	786.45
3106.19305	784.95
3108.55757	791.05
3110.92066	798.65
3113.28232	800.55
3115.64255	806.55
3118.00134	803.15
3120.35871	818.25
3122.71466	816.85
3125.06917	815.75
3127.42226	818.65
3129.77393	822.55
3132.12417	825.95
3134.47299	838.85
3136.82039	844.35
3139.16636	846.85
3141.51092	856.05
3143.85406	849.75
3146.19579	861.25
3148.53609	865.75
3150.87499	875.35
3153.21246	878.55
3155.54853	881.95
3157.88318	898.25
3160.21642	889.45
3162.54826	905.25
3164.87868	907.65
3167.2077	916.35
3169.5353	926.65
3171.86151	935.45
3174.18631	939.85
3176.5097	946.25
3178.83169	944.05
3181.15228	944.35
3183.47147	945.25
3185.78926	952.25
3188.10565	945.55
3190.42065	949.85
3192.73424	967.35
3195.04645	969.35
3197.35725	966.45
3199.66667	975.45
3201.97469	980.65
3204.28132	982.65
3206.58656	985.45
3208.8904	992.85
3211.19287	1001.95
3213.49394	1000.65
3215.79363	1005.05
3218.09193	1002.35
3220.38884	1013.05
3222.68438	1010.05
3224.97853	1006.15
3227.2713	1010.15
3229.56269	1019.65
3231.8527	1021.95
3234.14133	1015.25
3236.42858	1019.45
3238.71446	1016.65
3240.99896	1016.45
3243.28209	1023.35
3245.56384	1022.45
3247.84423	1014.15
3250.12324	1028.25
3252.40088	1020.15
3254.67715	1024.65
3256.95205	1021.95
3259.22558	1022.65
3261.49775	1029.65
3263.76855	1023.15
3266.03799	1025.65
3268.30606	1025.35
3270.57277	1032.25
3272.83812	1025.85
3275.10211	1015.25
3277.36474	1020.55
3279.62601	1019.95
3281.88593	1004.85
3284.14448	1021.95
3286.40168	1012.75
3288.65753	1010.55
3290.91202	1026.55
3293.16516	1019.55
3295.41695	1017.05
3297.66738	1007.75
3299.91647	1012.15
3302.16421	1009.65
3304.4106	1008.55
3306.65564	1000.35
3308.89933	987.25
3311.14169	984.85
3313.38269	979.85
3315.62236	970.25
3317.86068	968.25
3320.09766	961.95
3322.3333	955.75
3324.5676	949.55
3326.80056	920.35
3329.03219	923.95
3331.26248	-0.05
3333.49143	0.15
3335.71905	0.05
