Data from AgNPs_APTES_FTO_UA_100uM_CRN_0uM_R6G_10uM_Scan_RamanShift__1__12-05-13-500.txt Node

Date: Thu Jun 23 12:05:13 BST 2022
User: TCL
Spectrometer: QEP01345
Trigger mode: 4
Integration Time (sec): 7.000000E0
Scans to average: 10
Electric dark correction enabled: true
Nonlinearity correction enabled: false
Boxcar width: 0
XAxis mode: Raman Shifts
Number of Pixels in Spectrum: 1044
>>>>>Begin Spectral Data<<<<<
46.04893	-0.625
50.45542	-0.825
54.85868	-1.525
59.25871	-0.825
63.6555	32.175
68.04907	35.775
72.43941	41.475
76.82654	44.175
81.21044	43.275
85.59113	46.075
89.96862	54.975
94.34289	50.875
98.71396	51.775
103.08183	53.075
107.4465	59.475
111.80798	53.375
116.16626	57.875
120.52136	56.175
124.87327	70.475
129.222	73.975
133.56755	59.575
137.90993	55.075
142.24913	56.875
146.58517	58.575
150.91804	57.875
155.24774	72.075
159.57429	79.375
163.89768	89.475
168.21792	110.075
172.53501	134.775
176.84895	174.475
181.15975	233.875
185.46741	323.375
189.77193	431.175
194.07331	578.875
198.37157	760.375
202.6667	950.175
206.9587	1143.875
211.24758	1338.675
215.53334	1533.075
219.81599	1750.775
224.09553	1989.375
228.37195	2247.175
232.64527	2526.975
236.91549	2825.075
241.18261	3143.075
245.44663	3434.975
249.70755	3694.175
253.96539	3914.675
258.22014	4068.475
262.4718	4170.475
266.72039	4151.775
270.96589	4088.875
275.20832	3947.875
279.44768	3746.075
283.68397	3537.775
287.91719	3330.275
292.14735	3128.475
296.37445	2967.375
300.59849	2833.475
304.81948	2749.175
309.03742	2665.175
313.25231	2600.175
317.46415	2490.675
321.67296	2368.075
325.87872	2249.975
330.08145	2192.175
334.28114	2163.475
338.47781	2171.275
342.67145	2172.675
346.86207	2202.175
351.04966	2251.575
355.23424	2291.375
359.4158	2316.575
363.59435	2306.175
367.76989	2292.775
371.94243	2269.775
376.11196	2242.975
380.27849	2232.875
384.44203	2217.475
388.60257	2205.275
392.76012	2189.875
396.91468	2207.575
401.06626	2219.275
405.21485	2231.375
409.36047	2210.075
413.50311	2171.475
417.64277	2136.575
421.77947	2122.375
425.9132	2124.375
430.04396	2135.375
434.17176	2148.975
438.2966	2167.375
442.41849	2200.975
446.53742	2233.775
450.6534	2242.375
454.76644	2265.775
458.87653	2267.975
462.98368	2271.675
467.08789	2273.275
471.18916	2252.775
475.2875	2246.275
479.38291	2225.875
483.4754	2219.975
487.56496	2210.175
491.6516	2218.675
495.73531	2213.375
499.81612	2214.575
503.89401	2216.775
507.96899	2217.975
512.04106	2235.475
516.11023	2239.275
520.1765	2233.575
524.23987	2250.475
528.30034	2246.275
532.35792	2236.775
536.41261	2214.675
540.46441	2200.475
544.51333	2201.875
548.55936	2210.475
552.60252	2212.975
556.64279	2224.875
560.6802	2248.275
564.71473	2276.875
568.7464	2310.275
572.7752	2321.375
576.80114	2292.075
580.82422	2261.375
584.84444	2267.475
588.86181	2297.675
592.87633	2353.775
596.888	2439.675
600.89682	2583.775
604.9028	2830.375
608.90594	3279.275
612.90624	3800.675
616.90371	3855.375
620.89834	3462.575
624.89015	3227.975
628.87913	3079.675
632.86528	2916.675
636.84862	2749.875
640.82913	2572.375
644.80683	2436.475
648.78172	2358.675
652.75379	2359.875
656.72306	2394.575
660.68952	2480.175
664.65319	2515.675
668.61405	2537.475
672.57211	2585.675
676.52738	2665.775
680.47986	2736.175
684.42955	2784.575
688.37646	2823.175
692.32058	2801.075
696.26192	2799.675
700.20048	2778.675
704.13626	2770.375
708.06928	2747.075
711.99952	2680.775
715.927	2637.675
719.85171	2580.375
723.77365	2546.175
727.69284	2495.175
731.60928	2467.775
735.52295	2442.075
739.43388	2430.175
743.34206	2419.175
747.24749	2418.175
751.15017	2407.375
755.05012	2419.775
758.94733	2450.675
762.8418	2560.175
766.73354	2743.175
770.62254	2892.075
774.50882	2965.975
778.39237	2918.575
782.27321	2777.375
786.15132	2624.475
790.02671	2555.275
793.89938	2506.875
797.76935	2508.475
801.6366	2515.775
805.50115	2535.475
809.36299	2560.875
813.22213	2579.175
817.07857	2582.075
820.93231	2577.975
824.78336	2577.175
828.63172	2563.175
832.47738	2558.275
836.32036	2547.775
840.16066	2554.375
843.99827	2551.175
847.8332	2548.575
851.66546	2539.575
855.49504	2548.175
859.32195	2573.675
863.1462	2602.775
866.96777	2632.675
870.78668	2676.175
874.60293	2707.375
878.41652	2754.275
882.22745	2847.575
886.03573	2936.075
889.84136	3035.575
893.64433	3137.275
897.44466	3229.575
901.24235	3304.575
905.0374	3376.975
908.8298	3435.475
912.61957	3513.275
916.40671	3600.075
920.19121	3694.475
923.97308	3766.375
927.75233	3819.475
931.52895	3824.475
935.30295	3736.975
939.07433	3616.575
942.84309	3459.175
946.60924	3324.575
950.37278	3217.675
954.13371	3117.275
957.89203	3042.775
961.64774	2964.475
965.40086	2890.775
969.15137	2832.675
972.89929	2793.575
976.64461	2745.375
980.38733	2710.875
984.12747	2675.575
987.86502	2661.075
991.59999	2651.375
995.33237	2648.375
999.06217	2639.775
1002.78939	2638.175
1006.51404	2648.175
1010.23611	2636.775
1013.95561	2641.975
1017.67255	2636.175
1021.38692	2637.375
1025.09872	2629.775
1028.80796	2641.275
1032.51465	2651.675
1036.21877	2674.775
1039.92035	2723.075
1043.61937	2774.275
1047.31584	2814.375
1051.00976	2841.675
1054.70114	2821.475
1058.38998	2778.175
1062.07627	2702.275
1065.76003	2648.175
1069.44126	2583.275
1073.11995	2526.375
1076.79611	2496.075
1080.46974	2493.375
1084.14085	2504.075
1087.80943	2508.475
1091.47549	2512.075
1095.13903	2482.975
1098.80005	2436.375
1102.45857	2405.575
1106.11456	2398.375
1109.76805	2399.575
1113.41903	2426.275
1117.06751	2470.875
1120.71348	2504.075
1124.35696	2566.075
1127.99793	2624.875
1131.63641	2634.075
1135.2724	2573.775
1138.90589	2537.575
1142.5369	2509.475
1146.16542	2480.975
1149.79145	2452.375
1153.415	2435.375
1157.03607	2429.775
1160.65467	2440.075
1164.27079	2464.875
1167.88443	2489.175
1171.49561	2554.475
1175.10432	2650.375
1178.71056	2809.475
1182.31434	2927.475
1185.91565	2937.675
1189.51451	2862.075
1193.11091	2767.775
1196.70485	2690.075
1200.29634	2640.475
1203.88538	2600.575
1207.47197	2559.275
1211.05612	2521.875
1214.63782	2483.575
1218.21708	2490.175
1221.79391	2492.275
1225.36829	2484.275
1228.94024	2508.575
1232.50976	2527.875
1236.07685	2536.075
1239.6415	2566.375
1243.20374	2582.475
1246.76355	2618.575
1250.32093	2630.075
1253.8759	2655.275
1257.42845	2685.175
1260.97859	2718.975
1264.52631	2777.475
1268.07163	2822.675
1271.61453	2864.175
1275.15503	2890.875
1278.69312	2915.575
1282.22882	2919.075
1285.76211	2975.475
1289.29301	3044.675
1292.82151	3099.975
1296.34761	3155.575
1299.87133	3236.275
1303.39266	3368.275
1306.9116	3561.175
1310.42815	3758.375
1313.94233	3878.375
1317.45412	3786.575
1320.96354	3599.475
1324.47058	3437.975
1327.97525	3312.075
1331.47754	3235.775
1334.97747	3217.575
1338.47502	3253.175
1341.97022	3307.575
1345.46305	3389.075
1348.95352	3565.975
1352.44163	3734.675
1355.92738	3969.575
1359.41078	4274.975
1362.89183	4643.875
1366.37053	4679.375
1369.84688	4330.475
1373.32088	3932.575
1376.79254	3715.575
1380.26186	3636.775
1383.72883	3595.375
1387.19347	3568.075
1390.65578	3545.375
1394.11575	3524.675
1397.57339	3505.475
1401.0287	3488.875
1404.48168	3461.975
1407.93234	3422.475
1411.38068	3402.275
1414.82669	3389.475
1418.27039	3374.575
1421.71177	3365.575
1425.15083	3321.675
1428.58758	3269.675
1432.02203	3234.275
1435.45416	3199.175
1438.88399	3149.975
1442.31151	3111.875
1445.73673	3082.475
1449.15965	3048.575
1452.58027	3018.275
1455.9986	2985.075
1459.41463	2988.375
1462.82837	2975.675
1466.23982	3000.775
1469.64898	3015.875
1473.05586	3023.375
1476.46045	3026.475
1479.86276	3041.675
1483.26279	3051.975
1486.66054	3092.475
1490.05602	3113.175
1493.44922	3168.775
1496.84016	3254.675
1500.22882	3418.875
1503.61521	3645.875
1506.99934	3906.375
1510.38121	4175.575
1513.76081	4256.975
1517.13816	4088.675
1520.51324	3735.075
1523.88607	3434.875
1527.25665	3212.375
1530.62498	3071.275
1533.99105	3000.875
1537.35488	2945.175
1540.71647	2905.975
1544.07581	2880.475
1547.4329	2867.475
1550.78776	2877.275
1554.14038	2880.075
1557.49077	2870.075
1560.83892	2877.475
1564.18484	2885.675
1567.52853	2925.175
1570.86999	2967.575
1574.20922	2994.975
1577.54624	2980.275
1580.88103	2893.375
1584.2136	2779.275
1587.54395	2673.775
1590.87208	2632.975
1594.19801	2622.975
1597.52172	2649.075
1600.84321	2652.975
1604.16251	2615.975
1607.47959	2570.175
1610.79447	2538.175
1614.10715	2517.675
1617.41763	2505.075
1620.7259	2491.775
1624.03199	2487.975
1627.33587	2497.175
1630.63757	2490.275
1633.93707	2507.275
1637.23439	2538.575
1640.52951	2584.175
1643.82246	2683.475
1647.11321	2828.275
1650.40179	2963.575
1653.68819	2965.875
1656.97241	2809.275
1660.25446	2580.775
1663.53433	2422.875
1666.81203	2315.275
1670.08756	2234.275
1673.36092	2194.975
1676.63211	2173.175
1679.90115	2142.175
1683.16801	2119.275
1686.43272	2095.775
1689.69527	2089.775
1692.95567	2054.375
1696.2139	2047.075
1699.46999	2038.675
1702.72392	2016.175
1705.97571	2018.175
1709.22535	2011.475
1712.47284	2019.075
1715.71819	1996.975
1718.96139	1997.475
1722.20246	1983.075
1725.44139	1992.275
1728.67818	1974.675
1731.91284	1969.375
1735.14537	1949.375
1738.37576	1932.475
1741.60403	1932.275
1744.83017	1918.075
1748.05418	1928.875
1751.27607	1914.575
1754.49584	1909.475
1757.71349	1907.175
1760.92903	1901.375
1764.14244	1895.375
1767.35375	1894.475
1770.56294	1881.275
1773.77002	1887.675
1776.97499	1882.475
1780.17785	1882.275
1783.37861	1893.575
1786.57727	1872.575
1789.77382	1880.775
1792.96828	1870.075
1796.16064	1865.575
1799.3509	1863.375
1802.53907	1859.175
1805.72514	1853.275
1808.90913	1859.275
1812.09102	1843.275
1815.27083	1843.775
1818.44856	1837.675
1821.6242	1840.175
1824.79776	1847.575
1827.96924	1816.175
1831.13864	1834.475
1834.30597	1833.575
1837.47122	1820.675
1840.6344	1827.775
1843.7955	1815.375
1846.95454	1817.675
1850.11151	1815.275
1853.26642	1813.875
1856.41926	1813.775
1859.57004	1814.375
1862.71876	1808.475
1865.86542	1807.975
1869.01003	1803.875
1872.15258	1795.675
1875.29308	1799.175
1878.43152	1800.275
1881.56792	1790.975
1884.70227	1784.975
1887.83457	1784.275
1890.96482	1775.175
1894.09304	1773.275
1897.21921	1777.375
1900.34335	1768.175
1903.46544	1766.575
1906.58551	1770.975
1909.70353	1763.975
1912.81953	1761.475
1915.93349	1777.575
1919.04543	1762.075
1922.15534	1756.175
1925.26322	1756.675
1928.36908	1761.975
1931.47292	1746.975
1934.57473	1748.875
1937.67453	1745.275
1940.77232	1742.975
1943.86808	1740.975
1946.96184	1745.275
1950.05358	1724.575
1953.14331	1717.575
1956.23103	1723.075
1959.31675	1718.075
1962.40046	1704.375
1965.48217	1710.075
1968.56188	1698.375
1971.63959	1682.575
1974.7153	1692.675
1977.78901	1689.375
1980.86073	1686.875
1983.93046	1678.975
1986.99819	1660.975
1990.06394	1665.275
1993.1277	1666.275
1996.18947	1649.575
1999.24925	1656.875
2002.30706	1646.175
2005.36288	1635.675
2008.41672	1641.875
2011.46859	1640.975
2014.51848	1637.275
2017.56639	1630.375
2020.61233	1632.375
2023.6563	1624.075
2026.6983	1622.875
2029.73833	1618.675
2032.7764	1624.375
2035.8125	1616.075
2038.84664	1626.375
2041.87881	1629.375
2044.90903	1637.275
2047.93729	1644.075
2050.96359	1658.075
2053.98794	1667.075
2057.01034	1680.375
2060.03078	1689.475
2063.04927	1703.575
2066.06582	1722.175
2069.08042	1740.375
2072.09307	1769.475
2075.10378	1778.075
2078.11255	1793.375
2081.11938	1813.575
2084.12426	1807.775
2087.12722	1829.975
2090.12824	1836.575
2093.12732	1855.175
2096.12447	1844.475
2099.11969	1842.275
2102.11299	1839.675
2105.10435	1840.975
2108.09379	1829.075
2111.08131	1815.075
2114.0669	1793.475
2117.05057	1785.275
2120.03233	1767.175
2123.01216	1739.175
2125.99008	1726.275
2128.96609	1713.775
2131.94018	1709.875
2134.91236	1685.875
2137.88263	1677.675
2140.851	1666.375
2143.81746	1646.675
2146.78201	1644.575
2149.74466	1630.175
2152.7054	1626.975
2155.66425	1625.675
2158.6212	1608.675
2161.57625	1599.975
2164.52941	1589.175
2167.48067	1582.775
2170.43004	1579.175
2173.37752	1589.775
2176.32311	1576.375
2179.26681	1572.075
2182.20863	1571.575
2185.14856	1569.575
2188.08661	1565.175
2191.02278	1566.475
2193.95707	1562.275
2196.88948	1571.575
2199.82001	1561.875
2202.74867	1550.875
2205.67545	1547.175
2208.60037	1551.475
2211.52341	1543.575
2214.44458	1533.675
2217.36388	1531.475
2220.28132	1527.375
2223.1969	1528.175
2226.11061	1517.875
2229.02246	1520.775
2231.93245	1516.075
2234.84058	1511.175
2237.74686	1511.375
2240.65128	1504.575
2243.55385	1503.475
2246.45456	1509.175
2249.35343	1503.375
2252.25044	1495.875
2255.14561	1497.375
2258.03893	1500.075
2260.93041	1495.275
2263.82004	1489.375
2266.70783	1489.675
2269.59378	1488.475
2272.4779	1484.575
2275.36017	1485.775
2278.24061	1472.175
2281.11922	1473.375
2283.996	1475.275
2286.87094	1466.475
2289.74405	1460.175
2292.61534	1468.775
2295.4848	1458.275
2298.35243	1462.875
2301.21824	1454.275
2304.08223	1458.175
2306.94439	1459.475
2309.80474	1455.175
2312.66327	1452.175
2315.51999	1457.475
2318.37489	1446.875
2321.22797	1446.475
2324.07925	1443.775
2326.92871	1451.375
2329.77637	1457.375
2332.62222	1437.275
2335.46626	1441.375
2338.3085	1435.375
2341.14893	1425.475
2343.98756	1424.275
2346.8244	1419.375
2349.65943	1418.175
2352.49267	1423.875
2355.32411	1420.475
2358.15376	1418.675
2360.98161	1419.075
2363.80768	1415.075
2366.63195	1417.875
2369.45444	1415.475
2372.27514	1412.375
2375.09405	1419.675
2377.91118	1409.075
2380.72652	1405.875
2383.54009	1401.075
2386.35187	1396.875
2389.16188	1397.175
2391.97011	1385.075
2394.77657	1389.175
2397.58125	1379.875
2400.38416	1381.875
2403.18529	1380.975
2405.98466	1377.675
2408.78226	1364.075
2411.57809	1370.975
2414.37216	1371.375
2417.16446	1368.775
2419.955	1368.175
2422.74378	1362.475
2425.5308	1360.675
2428.31606	1364.475
2431.09956	1362.975
2433.88131	1358.875
2436.6613	1361.575
2439.43954	1360.675
2442.21603	1350.275
2444.99077	1355.675
2447.76377	1351.675
2450.53501	1353.975
2453.30451	1349.375
2456.07226	1345.175
2458.83827	1340.475
2461.60254	1339.375
2464.36507	1340.875
2467.12586	1341.975
2469.88492	1342.675
2472.64224	1343.775
2475.39782	1325.775
2478.15167	1334.775
2480.90379	1333.275
2483.65417	1337.375
2486.40283	1340.575
2489.14976	1333.875
2491.89497	1334.275
2494.63845	1331.775
2497.3802	1336.075
2500.12024	1331.575
2502.85855	1322.875
2505.59514	1326.675
2508.33002	1310.675
2511.06318	1319.975
2513.79462	1318.175
2516.52435	1311.775
2519.25237	1314.375
2521.97867	1305.775
2524.70327	1304.475
2527.42616	1298.075
2530.14734	1296.875
2532.86681	1299.875
2535.58458	1294.275
2538.30065	1300.975
2541.01501	1290.475
2543.72768	1295.675
2546.43864	1296.075
2549.14791	1286.375
2551.85548	1284.675
2554.56136	1287.275
2557.26554	1289.075
2559.96803	1275.675
2562.66883	1270.475
2565.36794	1271.175
2568.06536	1266.075
2570.7611	1264.275
2573.45514	1267.175
2576.14751	1264.775
2578.83819	1263.775
2581.52719	1268.275
2584.21451	1255.075
2586.90015	1256.975
2589.58411	1254.175
2592.2664	1263.575
2594.94701	1251.975
2597.62594	1251.075
2600.30321	1249.075
2602.9788	1244.475
2605.65273	1248.775
2608.32498	1241.875
2610.99557	1237.675
2613.66449	1239.275
2616.33175	1240.575
2618.99734	1235.075
2621.66128	1234.975
2624.32355	1233.475
2626.98416	1240.675
2629.64311	1226.275
2632.30041	1225.075
2634.95605	1206.175
2637.61004	1214.575
2640.26238	1215.975
2642.91306	1213.375
2645.56209	1213.175
2648.20948	1202.375
2650.85521	1213.775
2653.4993	1209.575
2656.14175	1213.375
2658.78255	1218.175
2661.42171	1210.575
2664.05923	1203.875
2666.6951	1215.575
2669.32934	1220.775
2671.96194	1211.975
2674.59291	1206.775
2677.22224	1221.675
2679.84993	1205.375
2682.476	1218.275
2685.10043	1212.275
2687.72324	1213.175
2690.34441	1201.975
2692.96396	1216.275
2695.58188	1215.375
2698.19818	1216.075
2700.81285	1214.575
2703.4259	1211.275
2706.03733	1203.075
2708.64714	1199.875
2711.25533	1205.175
2713.86191	1211.875
2716.46687	1212.975
2719.07021	1209.875
2721.67194	1220.075
2724.27206	1218.875
2726.87057	1215.275
2729.46747	1209.875
2732.06276	1207.275
2734.65644	1204.275
2737.24852	1205.675
2739.83899	1206.275
2742.42786	1202.575
2745.01513	1197.675
2747.60079	1211.175
2750.18486	1203.375
2752.76733	1195.175
2755.3482	1203.775
2757.92747	1195.975
2760.50515	1209.375
2763.08123	1194.575
2765.65573	1192.975
2768.22863	1196.675
2770.79994	1196.975
2773.36967	1193.375
2775.9378	1183.275
2778.50435	1192.075
2781.06932	1184.675
2783.6327	1179.375
2786.1945	1191.175
2788.75471	1183.775
2791.31335	1180.175
2793.87041	1174.275
2796.42589	1170.175
2798.97979	1167.775
2801.53212	1161.875
2804.08288	1165.675
2806.63206	1167.875
2809.17967	1161.375
2811.72571	1162.375
2814.27018	1159.375
2816.81308	1152.375
2819.35442	1155.975
2821.89419	1149.875
2824.43239	1149.075
2826.96904	1143.775
2829.50412	1150.875
2832.03763	1142.075
2834.56959	1142.775
2837.1	1145.875
2839.62884	1135.475
2842.15613	1137.975
2844.68186	1136.575
2847.20604	1143.375
2849.72867	1143.275
2852.24974	1143.575
2854.76927	1150.675
2857.28724	1138.475
2859.80367	1139.575
2862.31855	1143.775
2864.83189	1144.075
2867.34368	1139.075
2869.85393	1138.175
2872.36264	1149.475
2874.8698	1139.575
2877.37543	1137.575
2879.87952	1142.975
2882.38207	1136.975
2884.88308	1138.875
2887.38256	1138.175
2889.88051	1143.975
2892.37692	1146.075
2894.8718	1152.275
2897.36515	1155.575
2899.85698	1160.375
2902.34727	1161.675
2904.83604	1170.575
2907.32328	1177.275
2909.809	1181.275
2912.29319	1183.675
2914.77587	1196.075
2917.25702	1200.875
2919.73665	1201.375
2922.21476	1199.375
2924.69136	1203.175
2927.16644	1206.775
2929.64	1196.675
2932.11205	1207.175
2934.58258	1211.875
2937.05161	1200.175
2939.51912	1198.775
2941.98513	1194.175
2944.44962	1184.275
2946.91261	1178.575
2949.37409	1168.675
2951.83407	1180.675
2954.29254	1170.075
2956.74951	1161.575
2959.20498	1155.875
2961.65895	1149.075
2964.11142	1143.275
2966.56239	1149.175
2969.01186	1151.175
2971.45984	1148.075
2973.90632	1134.775
2976.35131	1140.275
2978.7948	1141.475
2981.23681	1132.875
2983.67732	1138.575
2986.11635	1130.375
2988.55388	1129.875
2990.98993	1122.575
2993.4245	1124.075
2995.85758	1123.475
2998.28917	1120.675
3000.71928	1122.375
3003.14791	1119.475
3005.57506	1121.975
3008.00073	1116.775
3010.42493	1121.975
3012.84764	1117.075
3015.26888	1112.175
3017.68865	1117.275
3020.10694	1115.675
3022.52376	1110.675
3024.9391	1120.275
3027.35298	1114.475
3029.76539	1122.375
3032.17632	1114.975
3034.5858	1119.175
3036.9938	1124.175
3039.40034	1121.875
3041.80542	1121.575
3044.20903	1111.175
3046.61118	1127.275
3049.01187	1125.375
3051.4111	1129.175
3053.80888	1118.175
3056.20519	1120.375
3058.60005	1121.375
3060.99345	1128.575
3063.3854	1121.975
3065.7759	1124.175
3068.16494	1131.275
3070.55254	1123.375
3072.93868	1128.775
3075.32338	1125.575
3077.70662	1124.175
3080.08842	1142.675
3082.46878	1127.575
3084.84769	1136.075
3087.22515	1131.375
3089.60118	1141.975
3091.97576	1146.175
3094.3489	1145.675
3096.72061	1146.975
3099.09087	1157.375
3101.4597	1159.075
3103.82709	1161.075
3106.19305	1171.475
3108.55757	1172.475
3110.92066	1166.675
3113.28232	1172.375
3115.64255	1180.675
3118.00134	1174.775
3120.35871	1192.375
3122.71466	1188.275
3125.06917	1192.775
3127.42226	1187.775
3129.77393	1188.975
3132.12417	1190.775
3134.47299	1212.275
3136.82039	1207.475
3139.16636	1218.775
3141.51092	1222.175
3143.85406	1225.675
3146.19579	1227.075
3148.53609	1235.275
3150.87499	1238.375
3153.21246	1250.875
3155.54853	1263.375
3157.88318	1263.275
3160.21642	1276.875
3162.54826	1268.375
3164.87868	1282.075
3167.2077	1277.975
3169.5353	1288.775
3171.86151	1299.575
3174.18631	1307.975
3176.5097	1310.775
3178.83169	1314.975
3181.15228	1318.575
3183.47147	1318.175
3185.78926	1316.975
3188.10565	1328.875
3190.42065	1318.075
3192.73424	1338.675
3195.04645	1328.475
3197.35725	1336.075
3199.66667	1340.875
3201.97469	1340.275
3204.28132	1339.975
3206.58656	1351.575
3208.8904	1354.475
3211.19287	1365.275
3213.49394	1369.175
3215.79363	1378.075
3218.09193	1377.975
3220.38884	1380.575
3222.68438	1375.375
3224.97853	1376.175
3227.2713	1383.875
3229.56269	1397.075
3231.8527	1392.675
3234.14133	1384.675
3236.42858	1389.175
3238.71446	1383.575
