Data from AgNPs_APTES_FTO_UA_100uM_CRN_0uM_R6G_10uM_Scan_RamanShift__28__12-36-43-539.txt Node

Date: Thu Jun 23 12:36:43 BST 2022
User: TCL
Spectrometer: QEP01345
Trigger mode: 4
Integration Time (sec): 7.000000E0
Scans to average: 10
Electric dark correction enabled: true
Nonlinearity correction enabled: false
Boxcar width: 0
XAxis mode: Raman Shifts
Number of Pixels in Spectrum: 1044
>>>>>Begin Spectral Data<<<<<
46.04893	0.3375
50.45542	-0.6625
54.85868	-1.6625
59.25871	-0.7625
63.6555	26.6375
68.04907	28.6375
72.43941	37.7375
76.82654	39.6375
81.21044	39.2375
85.59113	42.6375
89.96862	46.2375
94.34289	48.7375
98.71396	49.3375
103.08183	45.9375
107.4465	50.8375
111.80798	45.6375
116.16626	46.6375
120.52136	50.9375
124.87327	47.2375
129.222	46.1375
133.56755	50.3375
137.90993	48.3375
142.24913	45.7375
146.58517	49.2375
150.91804	47.9375
155.24774	52.6375
159.57429	55.2375
163.89768	58.2375
168.21792	69.2375
172.53501	86.7375
176.84895	95.5375
181.15975	127.8375
185.46741	168.8375
189.77193	219.6375
194.07331	289.1375
198.37157	366.7375
202.6667	446.3375
206.9587	531.7375
211.24758	608.4375
215.53334	681.9375
219.81599	765.6375
224.09553	847.0375
228.37195	934.3375
232.64527	1036.5375
236.91549	1140.8375
241.18261	1226.4375
245.44663	1335.6375
249.70755	1427.4375
253.96539	1497.9375
258.22014	1551.8375
262.4718	1582.4375
266.72039	1611.7375
270.96589	1623.6375
275.20832	1615.7375
279.44768	1591.7375
283.68397	1561.9375
287.91719	1539.4375
292.14735	1513.8375
296.37445	1503.1375
300.59849	1516.2375
304.81948	1520.4375
309.03742	1516.2375
313.25231	1515.6375
317.46415	1481.2375
321.67296	1457.1375
325.87872	1418.0375
330.08145	1386.5375
334.28114	1395.9375
338.47781	1401.8375
342.67145	1410.0375
346.86207	1428.5375
351.04966	1460.9375
355.23424	1506.2375
359.4158	1540.3375
363.59435	1576.4375
367.76989	1596.5375
371.94243	1606.6375
376.11196	1620.4375
380.27849	1640.7375
384.44203	1640.9375
388.60257	1658.2375
392.76012	1661.8375
396.91468	1666.2375
401.06626	1696.2375
405.21485	1702.8375
409.36047	1682.4375
413.50311	1653.7375
417.64277	1625.3375
421.77947	1592.1375
425.9132	1585.5375
430.04396	1584.9375
434.17176	1588.8375
438.2966	1604.0375
442.41849	1627.1375
446.53742	1648.7375
450.6534	1664.8375
454.76644	1675.7375
458.87653	1681.1375
462.98368	1692.2375
467.08789	1687.1375
471.18916	1685.4375
475.2875	1675.8375
479.38291	1687.8375
483.4754	1696.3375
487.56496	1719.4375
491.6516	1756.0375
495.73531	1767.8375
499.81612	1762.1375
503.89401	1744.6375
507.96899	1726.4375
512.04106	1728.5375
516.11023	1736.2375
520.1765	1738.7375
524.23987	1759.3375
528.30034	1764.1375
532.35792	1753.9375
536.41261	1748.8375
540.46441	1711.7375
544.51333	1688.1375
548.55936	1671.4375
552.60252	1671.2375
556.64279	1670.5375
560.6802	1678.2375
564.71473	1665.0375
568.7464	1683.5375
572.7752	1696.3375
576.80114	1690.2375
580.82422	1678.1375
584.84444	1694.1375
588.86181	1724.4375
592.87633	1736.0375
596.888	1746.0375
600.89682	1762.5375
604.9028	1855.0375
608.90594	2054.8375
612.90624	2320.0375
616.90371	2290.6375
620.89834	2054.4375
624.89015	1992.4375
628.87913	2068.8375
632.86528	2174.2375
636.84862	2232.0375
640.82913	2202.2375
644.80683	2074.2375
648.78172	1954.7375
652.75379	1865.6375
656.72306	1820.7375
660.68952	1804.4375
664.65319	1779.3375
668.61405	1744.8375
672.57211	1738.2375
676.52738	1750.4375
680.47986	1758.0375
684.42955	1763.3375
688.37646	1758.1375
692.32058	1740.9375
696.26192	1719.8375
700.20048	1707.9375
704.13626	1701.1375
708.06928	1693.8375
711.99952	1688.8375
715.927	1688.1375
719.85171	1707.9375
723.77365	1726.3375
727.69284	1735.0375
731.60928	1729.6375
735.52295	1711.5375
739.43388	1685.1375
743.34206	1699.4375
747.24749	1695.1375
751.15017	1687.1375
755.05012	1695.2375
758.94733	1716.7375
762.8418	1768.7375
766.73354	1893.2375
770.62254	2001.8375
774.50882	2078.9375
778.39237	2076.9375
782.27321	1947.0375
786.15132	1813.7375
790.02671	1738.0375
793.89938	1707.9375
797.76935	1702.0375
801.6366	1730.8375
805.50115	1788.5375
809.36299	1841.1375
813.22213	1857.8375
817.07857	1829.8375
820.93231	1773.7375
824.78336	1722.3375
828.63172	1680.4375
832.47738	1656.7375
836.32036	1650.9375
840.16066	1648.0375
843.99827	1637.1375
847.8332	1647.7375
851.66546	1639.7375
855.49504	1641.9375
859.32195	1635.4375
863.1462	1641.0375
866.96777	1662.8375
870.78668	1672.8375
874.60293	1710.4375
878.41652	1761.5375
882.22745	1800.8375
886.03573	1836.6375
889.84136	1839.2375
893.64433	1826.4375
897.44466	1767.2375
901.24235	1718.0375
905.0374	1683.4375
908.8298	1647.9375
912.61957	1653.0375
916.40671	1643.8375
920.19121	1652.0375
923.97308	1654.7375
927.75233	1668.1375
931.52895	1678.1375
935.30295	1653.8375
939.07433	1632.8375
942.84309	1619.5375
946.60924	1587.6375
950.37278	1577.5375
954.13371	1556.5375
957.89203	1532.8375
961.64774	1527.5375
965.40086	1517.4375
969.15137	1491.4375
972.89929	1492.0375
976.64461	1489.4375
980.38733	1481.9375
984.12747	1469.6375
987.86502	1476.0375
991.59999	1469.9375
995.33237	1491.5375
999.06217	1506.5375
1002.78939	1526.2375
1006.51404	1564.6375
1010.23611	1580.2375
1013.95561	1608.6375
1017.67255	1617.6375
1021.38692	1610.6375
1025.09872	1597.6375
1028.80796	1578.4375
1032.51465	1545.0375
1036.21877	1535.6375
1039.92035	1514.7375
1043.61937	1511.9375
1047.31584	1509.8375
1051.00976	1498.9375
1054.70114	1501.8375
1058.38998	1502.9375
1062.07627	1512.8375
1065.76003	1519.9375
1069.44126	1538.2375
1073.11995	1548.1375
1076.79611	1551.8375
1080.46974	1552.6375
1084.14085	1545.8375
1087.80943	1545.3375
1091.47549	1542.4375
1095.13903	1528.9375
1098.80005	1492.5375
1102.45857	1468.3375
1106.11456	1472.5375
1109.76805	1478.8375
1113.41903	1503.3375
1117.06751	1539.5375
1120.71348	1621.4375
1124.35696	1716.0375
1127.99793	1833.8375
1131.63641	1932.9375
1135.2724	1966.0375
1138.90589	1945.1375
1142.5369	1882.0375
1146.16542	1779.1375
1149.79145	1676.2375
1153.415	1585.1375
1157.03607	1528.2375
1160.65467	1497.2375
1164.27079	1479.6375
1167.88443	1496.9375
1171.49561	1545.7375
1175.10432	1608.7375
1178.71056	1704.2375
1182.31434	1810.5375
1185.91565	1858.4375
1189.51451	1850.8375
1193.11091	1838.4375
1196.70485	1842.4375
1200.29634	1849.0375
1203.88538	1839.6375
1207.47197	1784.3375
1211.05612	1705.4375
1214.63782	1639.9375
1218.21708	1579.1375
1221.79391	1530.4375
1225.36829	1498.4375
1228.94024	1485.5375
1232.50976	1465.1375
1236.07685	1462.9375
1239.6415	1468.0375
1243.20374	1459.6375
1246.76355	1467.4375
1250.32093	1475.8375
1253.8759	1487.3375
1257.42845	1509.7375
1260.97859	1518.8375
1264.52631	1547.2375
1268.07163	1561.2375
1271.61453	1583.0375
1275.15503	1589.1375
1278.69312	1588.8375
1282.22882	1589.4375
1285.76211	1584.9375
1289.29301	1606.0375
1292.82151	1631.4375
1296.34761	1670.3375
1299.87133	1714.8375
1303.39266	1789.3375
1306.9116	1907.3375
1310.42815	1999.0375
1313.94233	2058.5375
1317.45412	2025.5375
1320.96354	1949.3375
1324.47058	1857.8375
1327.97525	1804.6375
1331.47754	1762.0375
1334.97747	1743.4375
1338.47502	1770.3375
1341.97022	1811.7375
1345.46305	1886.2375
1348.95352	1975.8375
1352.44163	2108.8375
1355.92738	2262.7375
1359.41078	2452.4375
1362.89183	2591.7375
1366.37053	2542.5375
1369.84688	2342.2375
1373.32088	2118.3375
1376.79254	1976.5375
1380.26186	1866.8375
1383.72883	1799.6375
1387.19347	1733.1375
1390.65578	1682.3375
1394.11575	1648.0375
1397.57339	1616.8375
1401.0287	1588.2375
1404.48168	1563.1375
1407.93234	1527.9375
1411.38068	1497.9375
1414.82669	1465.5375
1418.27039	1445.7375
1421.71177	1433.2375
1425.15083	1405.8375
1428.58758	1392.2375
1432.02203	1379.8375
1435.45416	1367.9375
1438.88399	1365.9375
1442.31151	1356.7375
1445.73673	1353.5375
1449.15965	1352.4375
1452.58027	1351.2375
1455.9986	1349.6375
1459.41463	1346.9375
1462.82837	1353.2375
1466.23982	1355.8375
1469.64898	1372.4375
1473.05586	1379.2375
1476.46045	1381.0375
1479.86276	1393.9375
1483.26279	1414.6375
1486.66054	1445.5375
1490.05602	1462.1375
1493.44922	1517.9375
1496.84016	1594.7375
1500.22882	1699.0375
1503.61521	1851.6375
1506.99934	2001.3375
1510.38121	2116.3375
1513.76081	2144.0375
1517.13816	2048.2375
1520.51324	1882.7375
1523.88607	1710.6375
1527.25665	1610.1375
1530.62498	1553.3375
1533.99105	1521.5375
1537.35488	1505.0375
1540.71647	1506.1375
1544.07581	1512.5375
1547.4329	1518.3375
1550.78776	1521.9375
1554.14038	1542.6375
1557.49077	1548.2375
1560.83892	1568.1375
1564.18484	1576.3375
1567.52853	1601.8375
1570.86999	1627.9375
1574.20922	1640.6375
1577.54624	1640.6375
1580.88103	1595.7375
1584.2136	1528.8375
1587.54395	1483.6375
1590.87208	1468.8375
1594.19801	1476.7375
1597.52172	1499.9375
1600.84321	1519.1375
1604.16251	1510.6375
1607.47959	1496.4375
1610.79447	1477.2375
1614.10715	1449.5375
1617.41763	1437.9375
1620.7259	1431.2375
1624.03199	1429.3375
1627.33587	1445.5375
1630.63757	1426.6375
1633.93707	1433.1375
1637.23439	1470.5375
1640.52951	1530.3375
1643.82246	1618.2375
1647.11321	1717.2375
1650.40179	1779.9375
1653.68819	1776.7375
1656.97241	1668.5375
1660.25446	1537.1375
1663.53433	1426.4375
1666.81203	1334.8375
1670.08756	1295.8375
1673.36092	1260.0375
1676.63211	1248.5375
1679.90115	1231.4375
1683.16801	1202.7375
1686.43272	1189.5375
1689.69527	1171.1375
1692.95567	1146.7375
1696.2139	1118.8375
1699.46999	1080.1375
1702.72392	1045.3375
1705.97571	1037.0375
1709.22535	1020.9375
1712.47284	1019.1375
1715.71819	999.9375
1718.96139	991.8375
1722.20246	971.2375
1725.44139	960.0375
1728.67818	948.9375
1731.91284	939.1375
1735.14537	932.3375
1738.37576	918.1375
1741.60403	917.4375
1744.83017	903.2375
1748.05418	895.1375
1751.27607	885.1375
1754.49584	868.8375
1757.71349	856.1375
1760.92903	845.5375
1764.14244	845.9375
1767.35375	834.2375
1770.56294	834.5375
1773.77002	842.0375
1776.97499	840.5375
1780.17785	855.0375
1783.37861	854.0375
1786.57727	846.0375
1789.77382	853.4375
1792.96828	848.2375
1796.16064	846.2375
1799.3509	843.7375
1802.53907	838.3375
1805.72514	839.5375
1808.90913	831.4375
1812.09102	830.3375
1815.27083	826.5375
1818.44856	827.2375
1821.6242	823.7375
1824.79776	823.9375
1827.96924	818.6375
1831.13864	812.9375
1834.30597	804.8375
1837.47122	807.4375
1840.6344	807.2375
1843.7955	809.0375
1846.95454	800.9375
1850.11151	802.3375
1853.26642	797.9375
1856.41926	787.6375
1859.57004	796.9375
1862.71876	794.4375
1865.86542	792.3375
1869.01003	788.2375
1872.15258	782.8375
1875.29308	788.1375
1878.43152	778.8375
1881.56792	778.1375
1884.70227	764.9375
1887.83457	773.7375
1890.96482	762.3375
1894.09304	765.9375
1897.21921	766.5375
1900.34335	766.7375
1903.46544	760.4375
1906.58551	759.4375
1909.70353	761.0375
1912.81953	757.8375
1915.93349	758.1375
1919.04543	757.6375
1922.15534	758.8375
1925.26322	752.1375
1928.36908	745.6375
1931.47292	746.5375
1934.57473	735.6375
1937.67453	735.5375
1940.77232	736.0375
1943.86808	728.1375
1946.96184	737.2375
1950.05358	720.4375
1953.14331	719.6375
1956.23103	712.1375
1959.31675	720.7375
1962.40046	709.0375
1965.48217	712.4375
1968.56188	709.0375
1971.63959	698.8375
1974.7153	704.4375
1977.78901	700.4375
1980.86073	698.3375
1983.93046	696.1375
1986.99819	691.7375
1990.06394	686.1375
1993.1277	687.4375
1996.18947	682.9375
1999.24925	675.1375
2002.30706	679.9375
2005.36288	670.3375
2008.41672	666.0375
2011.46859	667.0375
2014.51848	672.2375
2017.56639	658.7375
2020.61233	655.9375
2023.6563	653.9375
2026.6983	660.7375
2029.73833	649.5375
2032.7764	647.3375
2035.8125	651.2375
2038.84664	650.5375
2041.87881	646.4375
2044.90903	643.4375
2047.93729	642.3375
2050.96359	633.5375
2053.98794	639.3375
2057.01034	634.2375
2060.03078	639.0375
2063.04927	636.4375
2066.06582	630.1375
2069.08042	630.7375
2072.09307	629.1375
2075.10378	634.0375
2078.11255	626.3375
2081.11938	633.8375
2084.12426	626.5375
2087.12722	624.3375
2090.12824	634.7375
2093.12732	629.0375
2096.12447	619.1375
2099.11969	622.2375
2102.11299	617.4375
2105.10435	628.2375
2108.09379	623.0375
2111.08131	619.5375
2114.0669	612.8375
2117.05057	618.5375
2120.03233	619.2375
2123.01216	619.4375
2125.99008	618.4375
2128.96609	618.8375
2131.94018	621.6375
2134.91236	612.6375
2137.88263	617.9375
2140.851	619.3375
2143.81746	615.5375
2146.78201	610.4375
2149.74466	614.4375
2152.7054	610.3375
2155.66425	609.8375
2158.6212	609.0375
2161.57625	603.0375
2164.52941	603.1375
2167.48067	606.4375
2170.43004	601.4375
2173.37752	602.2375
2176.32311	598.7375
2179.26681	598.4375
2182.20863	599.0375
2185.14856	594.1375
2188.08661	593.9375
2191.02278	591.9375
2193.95707	596.1375
2196.88948	589.0375
2199.82001	598.0375
2202.74867	595.8375
2205.67545	587.6375
2208.60037	584.0375
2211.52341	580.0375
2214.44458	582.4375
2217.36388	573.4375
2220.28132	578.2375
2223.1969	570.7375
2226.11061	568.4375
2229.02246	569.7375
2231.93245	565.4375
2234.84058	562.5375
2237.74686	565.8375
2240.65128	565.7375
2243.55385	561.9375
2246.45456	562.8375
2249.35343	556.0375
2252.25044	554.2375
2255.14561	559.2375
2258.03893	544.4375
2260.93041	547.6375
2263.82004	546.0375
2266.70783	546.2375
2269.59378	546.3375
2272.4779	542.1375
2275.36017	544.5375
2278.24061	537.1375
2281.11922	537.6375
2283.996	539.4375
2286.87094	541.9375
2289.74405	529.9375
2292.61534	534.6375
2295.4848	531.5375
2298.35243	527.0375
2301.21824	531.6375
2304.08223	528.0375
2306.94439	531.5375
2309.80474	526.1375
2312.66327	529.1375
2315.51999	523.1375
2318.37489	525.7375
2321.22797	524.1375
2324.07925	519.9375
2326.92871	517.0375
2329.77637	521.4375
2332.62222	520.5375
2335.46626	511.5375
2338.3085	504.6375
2341.14893	506.4375
2343.98756	506.4375
2346.8244	502.1375
2349.65943	505.3375
2352.49267	501.5375
2355.32411	502.7375
2358.15376	501.5375
2360.98161	503.8375
2363.80768	500.0375
2366.63195	498.1375
2369.45444	497.1375
2372.27514	504.3375
2375.09405	502.5375
2377.91118	499.0375
2380.72652	498.1375
2383.54009	491.0375
2386.35187	494.2375
2389.16188	487.3375
2391.97011	490.0375
2394.77657	488.3375
2397.58125	487.0375
2400.38416	486.5375
2403.18529	485.3375
2405.98466	478.8375
2408.78226	481.6375
2411.57809	480.2375
2414.37216	476.2375
2417.16446	479.2375
2419.955	472.5375
2422.74378	469.6375
2425.5308	471.1375
2428.31606	473.2375
2431.09956	465.5375
2433.88131	473.3375
2436.6613	466.8375
2439.43954	466.3375
2442.21603	460.2375
2444.99077	464.1375
2447.76377	463.5375
2450.53501	463.9375
2453.30451	458.2375
2456.07226	462.6375
2458.83827	458.7375
2461.60254	460.4375
2464.36507	451.0375
2467.12586	452.9375
2469.88492	453.7375
2472.64224	453.0375
2475.39782	450.8375
2478.15167	450.0375
2480.90379	448.1375
2483.65417	450.0375
2486.40283	454.1375
2489.14976	451.8375
2491.89497	452.8375
2494.63845	446.3375
2497.3802	437.4375
2500.12024	441.4375
2502.85855	436.3375
2505.59514	445.8375
2508.33002	443.2375
2511.06318	435.8375
2513.79462	440.0375
2516.52435	439.9375
2519.25237	438.9375
2521.97867	432.4375
2524.70327	430.3375
2527.42616	428.0375
2530.14734	428.6375
2532.86681	427.3375
2535.58458	426.8375
2538.30065	432.4375
2541.01501	421.9375
2543.72768	425.2375
2546.43864	434.3375
2549.14791	423.8375
2551.85548	424.1375
2554.56136	421.9375
2557.26554	424.7375
2559.96803	419.4375
2562.66883	418.8375
2565.36794	417.3375
2568.06536	416.5375
2570.7611	418.6375
2573.45514	417.8375
2576.14751	411.3375
2578.83819	410.2375
2581.52719	409.0375
2584.21451	406.3375
2586.90015	410.7375
2589.58411	406.8375
2592.2664	409.4375
2594.94701	403.6375
2597.62594	407.1375
2600.30321	402.2375
2602.9788	400.5375
2605.65273	399.4375
2608.32498	400.9375
2610.99557	400.6375
2613.66449	395.5375
2616.33175	395.6375
2618.99734	393.1375
2621.66128	399.2375
2624.32355	391.6375
2626.98416	392.5375
2629.64311	391.6375
2632.30041	392.4375
2634.95605	391.4375
2637.61004	390.2375
2640.26238	392.6375
2642.91306	388.3375
2645.56209	388.1375
2648.20948	386.8375
2650.85521	382.4375
2653.4993	383.8375
2656.14175	390.8375
2658.78255	383.4375
2661.42171	384.9375
2664.05923	382.5375
2666.6951	392.8375
2669.32934	389.8375
2671.96194	383.2375
2674.59291	385.6375
2677.22224	388.3375
2679.84993	383.1375
2682.476	380.6375
2685.10043	382.5375
2687.72324	385.0375
2690.34441	387.4375
2692.96396	381.1375
2695.58188	379.4375
2698.19818	385.4375
2700.81285	382.1375
2703.4259	366.5375
2706.03733	344.8375
2708.64714	358.7375
2711.25533	376.0375
2713.86191	377.6375
2716.46687	382.3375
2719.07021	381.1375
2721.67194	381.6375
2724.27206	384.1375
2726.87057	380.4375
2729.46747	384.5375
2732.06276	385.3375
2734.65644	378.7375
2737.24852	381.5375
2739.83899	386.7375
2742.42786	386.1375
2745.01513	379.1375
2747.60079	376.8375
2750.18486	378.0375
2752.76733	376.0375
2755.3482	377.5375
2757.92747	376.4375
2760.50515	376.7375
2763.08123	380.6375
2765.65573	381.3375
2768.22863	376.9375
2770.79994	373.6375
2773.36967	374.7375
2775.9378	374.0375
2778.50435	371.3375
2781.06932	370.5375
2783.6327	370.4375
2786.1945	373.0375
2788.75471	375.5375
2791.31335	371.0375
2793.87041	374.4375
2796.42589	372.2375
2798.97979	367.4375
2801.53212	369.8375
2804.08288	370.9375
2806.63206	367.6375
2809.17967	367.3375
2811.72571	367.8375
2814.27018	371.6375
2816.81308	369.8375
2819.35442	370.1375
2821.89419	370.3375
2824.43239	364.4375
2826.96904	365.6375
2829.50412	364.4375
2832.03763	369.5375
2834.56959	368.7375
2837.1	368.7375
2839.62884	370.8375
2842.15613	369.0375
2844.68186	370.8375
2847.20604	374.3375
2849.72867	372.1375
2852.24974	377.4375
2854.76927	374.4375
2857.28724	364.5375
2859.80367	372.5375
2862.31855	370.3375
2864.83189	377.8375
2867.34368	372.0375
2869.85393	373.8375
2872.36264	378.0375
2874.8698	379.9375
2877.37543	372.7375
2879.87952	381.5375
2882.38207	379.2375
2884.88308	374.5375
2887.38256	374.1375
2889.88051	379.5375
2892.37692	374.7375
2894.8718	374.7375
2897.36515	381.1375
2899.85698	381.7375
2902.34727	380.5375
2904.83604	390.8375
2907.32328	386.4375
2909.809	389.7375
2912.29319	393.3375
2914.77587	395.4375
2917.25702	399.7375
2919.73665	394.4375
2922.21476	394.1375
2924.69136	396.6375
2927.16644	396.2375
2929.64	395.6375
2932.11205	395.5375
2934.58258	397.6375
2937.05161	394.1375
2939.51912	387.4375
2941.98513	394.4375
2944.44962	392.8375
2946.91261	388.8375
2949.37409	383.4375
2951.83407	384.6375
2954.29254	384.7375
2956.74951	384.5375
2959.20498	383.7375
2961.65895	375.9375
2964.11142	375.2375
2966.56239	379.8375
2969.01186	375.8375
2971.45984	378.5375
2973.90632	375.0375
2976.35131	377.8375
2978.7948	377.9375
2981.23681	376.0375
2983.67732	376.8375
2986.11635	377.0375
2988.55388	374.8375
2990.98993	376.0375
2993.4245	377.6375
2995.85758	371.8375
2998.28917	375.9375
3000.71928	374.3375
3003.14791	378.6375
3005.57506	378.9375
3008.00073	382.0375
3010.42493	380.8375
3012.84764	381.0375
3015.26888	385.2375
3017.68865	385.6375
3020.10694	381.7375
3022.52376	388.7375
3024.9391	387.7375
3027.35298	393.9375
3029.76539	386.0375
3032.17632	393.3375
3034.5858	391.6375
3036.9938	398.7375
3039.40034	399.0375
3041.80542	396.1375
3044.20903	398.9375
3046.61118	406.7375
3049.01187	405.9375
3051.4111	407.6375
3053.80888	409.2375
3056.20519	409.2375
3058.60005	414.5375
3060.99345	419.3375
3063.3854	415.0375
3065.7759	422.7375
3068.16494	423.6375
3070.55254	427.6375
3072.93868	429.8375
3075.32338	430.1375
3077.70662	434.2375
3080.08842	441.2375
3082.46878	438.1375
3084.84769	445.9375
3087.22515	443.5375
3089.60118	444.9375
3091.97576	460.2375
3094.3489	458.5375
3096.72061	465.1375
3099.09087	466.1375
3101.4597	471.2375
3103.82709	479.8375
3106.19305	479.6375
3108.55757	485.5375
3110.92066	495.0375
3113.28232	500.0375
3115.64255	495.5375
3118.00134	504.5375
3120.35871	506.2375
3122.71466	517.0375
3125.06917	518.2375
3127.42226	525.1375
3129.77393	520.1375
3132.12417	529.0375
3134.47299	538.4375
3136.82039	544.3375
3139.16636	552.2375
3141.51092	556.5375
3143.85406	565.9375
3146.19579	564.6375
3148.53609	568.4375
3150.87499	578.2375
3153.21246	581.3375
3155.54853	595.9375
3157.88318	602.0375
3160.21642	613.6375
3162.54826	615.2375
3164.87868	615.7375
3167.2077	623.4375
3169.5353	631.3375
3171.86151	638.1375
3174.18631	651.1375
3176.5097	654.2375
3178.83169	648.9375
3181.15228	665.0375
3183.47147	662.6375
3185.78926	661.9375
3188.10565	668.6375
