Data from AgNPs_APTES_FTO_UA_100uM_CRN_0uM_R6G_10uM_Scan_RamanShift__11__12-16-53-515.txt Node

Date: Thu Jun 23 12:16:53 BST 2022
User: TCL
Spectrometer: QEP01345
Trigger mode: 4
Integration Time (sec): 7.000000E0
Scans to average: 10
Electric dark correction enabled: true
Nonlinearity correction enabled: false
Boxcar width: 0
XAxis mode: Raman Shifts
Number of Pixels in Spectrum: 1044
>>>>>Begin Spectral Data<<<<<
46.04893	-1.125
50.45542	0.675
54.85868	-0.325
59.25871	-0.225
63.6555	32.275
68.04907	36.775
72.43941	39.275
76.82654	46.375
81.21044	41.575
85.59113	44.975
89.96862	49.575
94.34289	49.875
98.71396	51.775
103.08183	49.975
107.4465	50.875
111.80798	48.875
116.16626	53.575
120.52136	57.175
124.87327	50.775
129.222	51.675
133.56755	52.275
137.90993	55.575
142.24913	55.275
146.58517	53.875
150.91804	52.675
155.24774	64.075
159.57429	69.375
163.89768	74.375
168.21792	88.575
172.53501	110.875
176.84895	137.775
181.15975	185.275
185.46741	251.875
189.77193	336.375
194.07331	438.975
198.37157	569.575
202.6667	700.475
206.9587	838.475
211.24758	962.575
215.53334	1107.775
219.81599	1252.775
224.09553	1404.775
228.37195	1586.675
232.64527	1761.975
236.91549	1963.875
241.18261	2139.475
245.44663	2279.475
249.70755	2410.875
253.96539	2522.975
258.22014	2587.075
262.4718	2648.475
266.72039	2672.375
270.96589	2688.175
275.20832	2647.575
279.44768	2579.775
283.68397	2512.075
287.91719	2444.775
292.14735	2410.275
296.37445	2403.575
300.59849	2440.775
304.81948	2500.975
309.03742	2560.275
313.25231	2586.475
317.46415	2520.875
321.67296	2393.375
325.87872	2274.775
330.08145	2212.575
334.28114	2192.975
338.47781	2213.175
342.67145	2246.575
346.86207	2323.675
351.04966	2412.375
355.23424	2504.175
359.4158	2575.075
363.59435	2591.375
367.76989	2571.975
371.94243	2562.975
376.11196	2527.675
380.27849	2520.975
384.44203	2500.975
388.60257	2487.275
392.76012	2486.175
396.91468	2502.475
401.06626	2551.775
405.21485	2560.675
409.36047	2507.475
413.50311	2426.875
417.64277	2346.475
421.77947	2300.775
425.9132	2276.675
430.04396	2281.775
434.17176	2300.575
438.2966	2326.875
442.41849	2362.475
446.53742	2396.375
450.6534	2426.875
454.76644	2447.175
458.87653	2450.875
462.98368	2454.275
467.08789	2437.475
471.18916	2408.575
475.2875	2382.875
479.38291	2358.075
483.4754	2355.575
487.56496	2361.275
491.6516	2366.775
495.73531	2374.075
499.81612	2381.175
503.89401	2396.675
507.96899	2422.375
512.04106	2441.975
516.11023	2463.075
520.1765	2465.875
524.23987	2473.075
528.30034	2461.075
532.35792	2443.075
536.41261	2409.275
540.46441	2353.875
544.51333	2345.875
548.55936	2336.975
552.60252	2363.875
556.64279	2377.475
560.6802	2410.175
564.71473	2448.075
568.7464	2513.475
572.7752	2534.675
576.80114	2467.475
580.82422	2399.175
584.84444	2393.975
588.86181	2409.575
592.87633	2434.575
596.888	2466.075
600.89682	2558.375
604.9028	2803.575
608.90594	3447.775
612.90624	4232.675
616.90371	4128.775
620.89834	3213.975
624.89015	2738.275
628.87913	2627.375
632.86528	2635.875
636.84862	2653.875
640.82913	2603.375
644.80683	2501.675
648.78172	2421.275
652.75379	2400.675
656.72306	2447.575
660.68952	2525.575
664.65319	2502.475
668.61405	2435.575
672.57211	2400.875
676.52738	2436.275
680.47986	2501.675
684.42955	2563.875
688.37646	2577.375
692.32058	2550.475
696.26192	2495.775
700.20048	2457.875
704.13626	2452.375
708.06928	2421.375
711.99952	2403.575
715.927	2400.875
719.85171	2404.675
723.77365	2401.375
727.69284	2395.475
731.60928	2388.875
735.52295	2382.975
739.43388	2370.375
743.34206	2363.375
747.24749	2368.175
751.15017	2364.275
755.05012	2373.475
758.94733	2450.075
762.8418	2642.075
766.73354	2972.675
770.62254	3293.175
774.50882	3407.475
778.39237	3283.975
782.27321	3014.375
786.15132	2695.875
790.02671	2521.875
793.89938	2437.275
797.76935	2410.275
801.6366	2413.475
805.50115	2427.875
809.36299	2442.875
813.22213	2440.475
817.07857	2436.875
820.93231	2419.575
824.78336	2390.875
828.63172	2387.175
832.47738	2378.675
836.32036	2357.975
840.16066	2350.175
843.99827	2358.075
847.8332	2355.675
851.66546	2349.475
855.49504	2332.375
859.32195	2335.475
863.1462	2331.875
866.96777	2346.975
870.78668	2361.075
874.60293	2377.675
878.41652	2429.175
882.22745	2491.575
886.03573	2535.075
889.84136	2560.875
893.64433	2584.275
897.44466	2592.875
901.24235	2589.475
905.0374	2603.675
908.8298	2596.375
912.61957	2646.375
916.40671	2688.975
920.19121	2776.775
923.97308	2827.375
927.75233	2876.575
931.52895	2911.275
935.30295	2849.975
939.07433	2735.175
942.84309	2639.775
946.60924	2536.075
950.37278	2463.475
954.13371	2416.375
957.89203	2363.975
961.64774	2317.775
965.40086	2270.475
969.15137	2248.475
972.89929	2224.575
976.64461	2182.175
980.38733	2178.775
984.12747	2150.875
987.86502	2154.875
991.59999	2141.675
995.33237	2151.875
999.06217	2161.975
1002.78939	2180.675
1006.51404	2208.775
1010.23611	2234.975
1013.95561	2257.475
1017.67255	2258.075
1021.38692	2242.875
1025.09872	2228.875
1028.80796	2214.375
1032.51465	2194.275
1036.21877	2200.575
1039.92035	2192.275
1043.61937	2192.775
1047.31584	2188.575
1051.00976	2185.375
1054.70114	2187.875
1058.38998	2172.275
1062.07627	2162.875
1065.76003	2162.475
1069.44126	2160.575
1073.11995	2158.875
1076.79611	2176.575
1080.46974	2195.275
1084.14085	2227.375
1087.80943	2266.675
1091.47549	2269.675
1095.13903	2234.475
1098.80005	2164.075
1102.45857	2127.175
1106.11456	2091.675
1109.76805	2117.075
1113.41903	2159.375
1117.06751	2220.175
1120.71348	2301.175
1124.35696	2416.375
1127.99793	2533.475
1131.63641	2569.275
1135.2724	2505.275
1138.90589	2397.375
1142.5369	2327.375
1146.16542	2268.275
1149.79145	2202.775
1153.415	2168.975
1157.03607	2140.675
1160.65467	2151.075
1164.27079	2169.275
1167.88443	2247.075
1171.49561	2357.775
1175.10432	2552.575
1178.71056	2830.375
1182.31434	3059.975
1185.91565	3119.175
1189.51451	2996.175
1193.11091	2830.475
1196.70485	2680.975
1200.29634	2571.075
1203.88538	2477.275
1207.47197	2366.475
1211.05612	2269.475
1214.63782	2190.075
1218.21708	2148.675
1221.79391	2147.275
1225.36829	2152.675
1228.94024	2152.975
1232.50976	2163.675
1236.07685	2148.575
1239.6415	2164.475
1243.20374	2167.175
1246.76355	2187.775
1250.32093	2204.675
1253.8759	2224.475
1257.42845	2262.375
1260.97859	2316.875
1264.52631	2396.175
1268.07163	2451.775
1271.61453	2492.475
1275.15503	2542.875
1278.69312	2535.875
1282.22882	2552.275
1285.76211	2597.075
1289.29301	2681.375
1292.82151	2780.775
1296.34761	2877.075
1299.87133	2995.975
1303.39266	3182.675
1306.9116	3481.175
1310.42815	3854.775
1313.94233	4070.275
1317.45412	3957.275
1320.96354	3663.575
1324.47058	3311.875
1327.97525	3043.375
1331.47754	2868.575
1334.97747	2781.475
1338.47502	2787.075
1341.97022	2841.375
1345.46305	3007.275
1348.95352	3279.375
1352.44163	3595.975
1355.92738	3983.775
1359.41078	4535.375
1362.89183	5140.875
1366.37053	5216.275
1369.84688	4549.175
1373.32088	3780.675
1376.79254	3344.075
1380.26186	3127.775
1383.72883	2994.475
1387.19347	2916.975
1390.65578	2832.475
1394.11575	2771.375
1397.57339	2729.875
1401.0287	2706.575
1404.48168	2667.675
1407.93234	2619.675
1411.38068	2582.775
1414.82669	2554.375
1418.27039	2550.275
1421.71177	2526.375
1425.15083	2482.375
1428.58758	2436.975
1432.02203	2409.675
1435.45416	2413.775
1438.88399	2404.375
1442.31151	2361.375
1445.73673	2333.375
1449.15965	2317.675
1452.58027	2308.575
1455.9986	2287.575
1459.41463	2268.675
1462.82837	2272.575
1466.23982	2299.875
1469.64898	2339.975
1473.05586	2365.875
1476.46045	2371.975
1479.86276	2398.475
1483.26279	2428.875
1486.66054	2470.175
1490.05602	2546.075
1493.44922	2642.375
1496.84016	2803.375
1500.22882	3083.275
1503.61521	3465.975
1506.99934	3958.575
1510.38121	4438.175
1513.76081	4661.775
1517.13816	4444.175
1520.51324	3905.175
1523.88607	3346.975
1527.25665	2944.275
1530.62498	2693.575
1533.99105	2543.475
1537.35488	2449.975
1540.71647	2388.675
1544.07581	2363.775
1547.4329	2343.075
1550.78776	2356.975
1554.14038	2382.675
1557.49077	2406.475
1560.83892	2441.275
1564.18484	2514.975
1567.52853	2600.375
1570.86999	2698.675
1574.20922	2761.075
1577.54624	2750.375
1580.88103	2625.175
1584.2136	2414.475
1587.54395	2253.975
1590.87208	2187.375
1594.19801	2206.575
1597.52172	2276.175
1600.84321	2296.475
1604.16251	2247.775
1607.47959	2166.075
1610.79447	2092.475
1614.10715	2021.175
1617.41763	1970.375
1620.7259	1930.475
1624.03199	1913.375
1627.33587	1920.975
1630.63757	1923.575
1633.93707	1974.775
1637.23439	2048.975
1640.52951	2172.475
1643.82246	2411.375
1647.11321	2736.275
1650.40179	2995.875
1653.68819	3011.675
1656.97241	2750.775
1660.25446	2371.075
1663.53433	2034.975
1666.81203	1848.375
1670.08756	1740.975
1673.36092	1675.775
1676.63211	1641.775
1679.90115	1614.575
1683.16801	1581.675
1686.43272	1575.475
1689.69527	1552.175
1692.95567	1527.675
1696.2139	1479.475
1699.46999	1443.675
1702.72392	1422.275
1705.97571	1417.175
1709.22535	1434.375
1712.47284	1438.175
1715.71819	1429.275
1718.96139	1417.475
1722.20246	1390.275
1725.44139	1378.475
1728.67818	1356.875
1731.91284	1341.375
1735.14537	1333.975
1738.37576	1310.575
1741.60403	1300.475
1744.83017	1279.575
1748.05418	1280.875
1751.27607	1253.175
1754.49584	1235.075
1757.71349	1221.975
1760.92903	1191.875
1764.14244	1194.275
1767.35375	1191.875
1770.56294	1180.975
1773.77002	1181.375
1776.97499	1189.875
1780.17785	1209.975
1783.37861	1214.775
1786.57727	1217.375
1789.77382	1210.975
1792.96828	1213.975
1796.16064	1199.575
1799.3509	1199.675
1802.53907	1200.675
1805.72514	1191.675
1808.90913	1188.675
1812.09102	1177.475
1815.27083	1188.775
1818.44856	1173.375
1821.6242	1179.975
1824.79776	1173.375
1827.96924	1172.575
1831.13864	1159.375
1834.30597	1164.875
1837.47122	1152.875
1840.6344	1154.975
1843.7955	1155.475
1846.95454	1146.275
1850.11151	1143.875
1853.26642	1145.775
1856.41926	1139.675
1859.57004	1142.575
1862.71876	1136.575
1865.86542	1135.975
1869.01003	1129.075
1872.15258	1125.475
1875.29308	1125.575
1878.43152	1117.975
1881.56792	1121.875
1884.70227	1106.175
1887.83457	1106.875
1890.96482	1099.175
1894.09304	1105.075
1897.21921	1105.575
1900.34335	1098.275
1903.46544	1087.875
1906.58551	1091.075
1909.70353	1090.275
1912.81953	1082.275
1915.93349	1080.275
1919.04543	1082.575
1922.15534	1075.075
1925.26322	1073.875
1928.36908	1075.675
1931.47292	1063.575
1934.57473	1057.375
1937.67453	1055.175
1940.77232	1046.375
1943.86808	1044.675
1946.96184	1043.075
1950.05358	1037.975
1953.14331	1031.475
1956.23103	1028.975
1959.31675	1030.075
1962.40046	1021.975
1965.48217	1020.475
1968.56188	1019.275
1971.63959	1009.175
1974.7153	1012.775
1977.78901	1013.475
1980.86073	1005.875
1983.93046	996.775
1986.99819	991.475
1990.06394	988.875
1993.1277	994.875
1996.18947	977.375
1999.24925	973.275
2002.30706	966.875
2005.36288	963.075
2008.41672	958.875
2011.46859	953.075
2014.51848	963.675
2017.56639	953.875
2020.61233	948.175
2023.6563	942.375
2026.6983	939.775
2029.73833	936.475
2032.7764	929.175
2035.8125	944.375
2038.84664	929.475
2041.87881	934.275
2044.90903	927.375
2047.93729	930.675
2050.96359	929.475
2053.98794	925.875
2057.01034	918.575
2060.03078	922.775
2063.04927	928.275
2066.06582	933.975
2069.08042	919.775
2072.09307	922.775
2075.10378	924.075
2078.11255	921.275
2081.11938	926.875
2084.12426	924.875
2087.12722	925.975
2090.12824	925.075
2093.12732	938.175
2096.12447	928.275
2099.11969	933.075
2102.11299	922.775
2105.10435	917.375
2108.09379	924.475
2111.08131	924.775
2114.0669	922.175
2117.05057	920.875
2120.03233	919.275
2123.01216	910.575
2125.99008	913.875
2128.96609	921.375
2131.94018	919.075
2134.91236	910.175
2137.88263	901.675
2140.851	904.075
2143.81746	893.875
2146.78201	894.875
2149.74466	879.775
2152.7054	883.975
2155.66425	884.275
2158.6212	878.075
2161.57625	871.075
2164.52941	866.275
2167.48067	870.775
2170.43004	861.375
2173.37752	868.675
2176.32311	864.775
2179.26681	859.975
2182.20863	861.375
2185.14856	859.675
2188.08661	854.275
2191.02278	850.675
2193.95707	860.475
2196.88948	854.875
2199.82001	850.175
2202.74867	855.275
2205.67545	850.675
2208.60037	843.575
2211.52341	845.275
2214.44458	834.075
2217.36388	838.775
2220.28132	833.275
2223.1969	827.375
2226.11061	830.175
2229.02246	825.775
2231.93245	820.575
2234.84058	820.875
2237.74686	823.175
2240.65128	811.175
2243.55385	812.475
2246.45456	810.775
2249.35343	803.875
2252.25044	803.875
2255.14561	805.575
2258.03893	806.875
2260.93041	804.075
2263.82004	801.875
2266.70783	798.675
2269.59378	790.875
2272.4779	796.175
2275.36017	793.675
2278.24061	790.175
2281.11922	782.575
2283.996	791.575
2286.87094	784.275
2289.74405	781.075
2292.61534	784.875
2295.4848	775.475
2298.35243	776.075
2301.21824	771.075
2304.08223	769.675
2306.94439	770.375
2309.80474	771.475
2312.66327	766.875
2315.51999	767.175
2318.37489	758.175
2321.22797	762.675
2324.07925	760.575
2326.92871	759.275
2329.77637	756.975
2332.62222	751.775
2335.46626	747.375
2338.3085	744.075
2341.14893	746.175
2343.98756	735.375
2346.8244	737.775
2349.65943	741.775
2352.49267	738.475
2355.32411	741.775
2358.15376	740.275
2360.98161	739.875
2363.80768	737.675
2366.63195	743.775
2369.45444	741.175
2372.27514	739.075
2375.09405	746.175
2377.91118	740.375
2380.72652	729.175
2383.54009	724.475
2386.35187	725.375
2389.16188	724.075
2391.97011	722.675
2394.77657	714.975
2397.58125	715.575
2400.38416	710.375
2403.18529	707.075
2405.98466	705.075
2408.78226	701.375
2411.57809	699.375
2414.37216	690.375
2417.16446	695.675
2419.955	692.575
2422.74378	694.175
2425.5308	693.475
2428.31606	692.475
2431.09956	688.075
2433.88131	693.975
2436.6613	693.275
2439.43954	687.175
2442.21603	685.775
2444.99077	685.575
2447.76377	682.175
2450.53501	684.375
2453.30451	689.275
2456.07226	683.475
2458.83827	675.175
2461.60254	680.875
2464.36507	683.175
2467.12586	675.975
2469.88492	680.975
2472.64224	672.675
2475.39782	671.775
2478.15167	665.675
2480.90379	668.975
2483.65417	669.775
2486.40283	668.175
2489.14976	670.375
2491.89497	676.775
2494.63845	670.975
2497.3802	660.375
2500.12024	662.575
2502.85855	666.575
2505.59514	660.675
2508.33002	653.275
2511.06318	656.575
2513.79462	661.675
2516.52435	652.775
2519.25237	652.975
2521.97867	646.775
2524.70327	647.175
2527.42616	638.075
2530.14734	637.875
2532.86681	636.875
2535.58458	634.775
2538.30065	634.475
2541.01501	634.875
2543.72768	630.775
2546.43864	632.375
2549.14791	630.875
2551.85548	632.375
2554.56136	629.475
2557.26554	629.475
2559.96803	624.175
2562.66883	624.475
2565.36794	622.975
2568.06536	617.375
2570.7611	615.975
2573.45514	614.075
2576.14751	618.475
2578.83819	614.075
2581.52719	615.875
2584.21451	609.675
2586.90015	607.075
2589.58411	609.475
2592.2664	610.375
2594.94701	604.175
2597.62594	600.775
2600.30321	600.675
2602.9788	600.375
2605.65273	600.575
2608.32498	598.475
2610.99557	599.175
2613.66449	593.775
2616.33175	603.175
2618.99734	593.375
2621.66128	590.975
2624.32355	594.675
2626.98416	588.775
2629.64311	584.175
2632.30041	587.775
2634.95605	583.975
2637.61004	583.475
2640.26238	584.475
2642.91306	583.175
2645.56209	579.575
2648.20948	568.975
2650.85521	585.475
2653.4993	576.475
2656.14175	577.675
2658.78255	575.475
2661.42171	574.875
2664.05923	573.975
2666.6951	578.475
2669.32934	583.475
2671.96194	576.575
2674.59291	573.275
2677.22224	578.475
2679.84993	575.075
2682.476	574.175
2685.10043	581.675
2687.72324	581.175
2690.34441	575.775
2692.96396	581.475
2695.58188	574.875
2698.19818	577.275
2700.81285	571.975
2703.4259	549.575
2706.03733	514.075
2708.64714	540.375
2711.25533	560.675
2713.86191	561.775
2716.46687	566.875
2719.07021	567.375
2721.67194	570.775
2724.27206	570.775
2726.87057	571.775
2729.46747	571.275
2732.06276	573.075
2734.65644	569.475
2737.24852	576.875
2739.83899	566.775
2742.42786	572.175
2745.01513	559.775
2747.60079	565.975
2750.18486	559.375
2752.76733	568.775
2755.3482	566.475
2757.92747	566.075
2760.50515	556.375
2763.08123	564.175
2765.65573	559.975
2768.22863	558.975
2770.79994	554.575
2773.36967	547.275
2775.9378	550.475
2778.50435	556.975
2781.06932	553.475
2783.6327	545.475
2786.1945	553.875
2788.75471	552.375
2791.31335	551.175
2793.87041	544.075
2796.42589	549.075
2798.97979	542.275
2801.53212	541.075
2804.08288	539.375
2806.63206	540.975
2809.17967	539.375
2811.72571	543.575
2814.27018	536.775
2816.81308	537.475
2819.35442	536.675
2821.89419	534.275
2824.43239	536.075
2826.96904	543.075
2829.50412	539.475
2832.03763	535.975
2834.56959	539.675
2837.1	535.175
2839.62884	539.675
2842.15613	539.375
2844.68186	538.275
2847.20604	544.875
2849.72867	545.975
2852.24974	548.675
2854.76927	539.375
2857.28724	530.575
2859.80367	539.975
2862.31855	539.675
2864.83189	543.075
2867.34368	541.475
2869.85393	547.775
2872.36264	547.875
2874.8698	551.475
2877.37543	547.575
2879.87952	549.375
2882.38207	549.075
2884.88308	545.375
2887.38256	554.375
2889.88051	551.975
2892.37692	549.375
2894.8718	557.675
2897.36515	557.275
2899.85698	559.975
2902.34727	559.975
2904.83604	566.675
2907.32328	575.875
2909.809	573.675
2912.29319	580.075
2914.77587	583.875
2917.25702	589.275
2919.73665	585.875
2922.21476	588.675
2924.69136	597.175
2927.16644	602.175
2929.64	594.475
2932.11205	593.975
2934.58258	602.475
2937.05161	595.175
2939.51912	586.475
2941.98513	589.175
2944.44962	587.875
2946.91261	576.775
2949.37409	565.975
2951.83407	572.775
2954.29254	566.375
2956.74951	566.175
2959.20498	555.875
2961.65895	558.975
2964.11142	552.775
2966.56239	548.675
2969.01186	541.775
2971.45984	551.075
2973.90632	540.775
2976.35131	537.875
2978.7948	545.375
2981.23681	539.175
2983.67732	534.475
2986.11635	533.975
2988.55388	530.275
2990.98993	533.775
2993.4245	534.575
2995.85758	532.275
2998.28917	535.775
3000.71928	529.175
3003.14791	532.975
3005.57506	529.975
3008.00073	533.975
3010.42493	539.475
3012.84764	530.575
3015.26888	532.875
3017.68865	532.875
3020.10694	529.775
3022.52376	538.175
3024.9391	533.375
3027.35298	534.775
3029.76539	532.575
3032.17632	535.975
3034.5858	530.075
3036.9938	543.475
3039.40034	540.075
3041.80542	538.375
3044.20903	535.575
3046.61118	543.375
3049.01187	546.175
3051.4111	545.775
3053.80888	549.875
3056.20519	553.475
3058.60005	554.575
3060.99345	554.675
3063.3854	555.375
3065.7759	559.375
3068.16494	554.275
3070.55254	553.075
3072.93868	560.275
3075.32338	561.475
3077.70662	559.175
3080.08842	563.375
3082.46878	563.775
3084.84769	567.075
3087.22515	572.075
3089.60118	576.375
3091.97576	582.175
3094.3489	577.475
3096.72061	586.175
3099.09087	590.775
3101.4597	595.075
3103.82709	594.675
3106.19305	598.075
3108.55757	598.475
3110.92066	607.075
3113.28232	608.375
3115.64255	613.975
3118.00134	617.775
3120.35871	625.275
3122.71466	626.575
3125.06917	629.275
3127.42226	624.275
3129.77393	638.875
3132.12417	643.875
3134.47299	646.275
3136.82039	652.875
3139.16636	660.375
3141.51092	655.875
3143.85406	667.775
3146.19579	671.475
3148.53609	675.875
3150.87499	683.875
3153.21246	686.075
3155.54853	696.375
3157.88318	708.575
3160.21642	711.575
3162.54826	717.575
3164.87868	721.475
3167.2077	731.775
3169.5353	730.675
3171.86151	736.175
3174.18631	749.175
3176.5097	753.275
3178.83169	747.375
3181.15228	761.675
3183.47147	759.975
3185.78926	763.275
3188.10565	769.075
3190.42065	768.275
3192.73424	778.875
3195.04645	775.975
3197.35725	779.375
3199.66667	786.875
3201.97469	786.075
3204.28132	794.875
3206.58656	800.275
3208.8904	803.275
3211.19287	805.175
3213.49394	811.175
3215.79363	812.375
3218.09193	820.075
3220.38884	806.275
3222.68438	808.175
3224.97853	819.175
3227.2713	820.875
3229.56269	825.975
3231.8527	829.375
3234.14133	824.375
3236.42858	824.775
3238.71446	830.375
3240.99896	833.475
3243.28209	840.375
3245.56384	833.075
3247.84423	831.375
3250.12324	834.775
3252.40088	832.775
3254.67715	831.175
3256.95205	834.975
3259.22558	833.575
3261.49775	839.375
3263.76855	841.875
3266.03799	843.075
3268.30606	836.275
3270.57277	839.775
3272.83812	832.475
3275.10211	835.675
3277.36474	827.075
3279.62601	834.575
3281.88593	825.675
3284.14448	838.475
3286.40168	836.475
3288.65753	831.675
3290.91202	837.575
3293.16516	838.575
3295.41695	834.175
