Data from AgNP_FTO_UA_0.2mM_NaF_0.1M_AD_RamanShift__33__13-28-31-332.txt Node

Date: Mon Jun 28 13:28:31 BST 2021
User: TCL
Spectrometer: QEP01345
Trigger mode: 4
Integration Time (sec): 7.000000E0
Scans to average: 10
Electric dark correction enabled: true
Nonlinearity correction enabled: false
Boxcar width: 0
XAxis mode: Raman Shifts
Number of Pixels in Spectrum: 1044
>>>>>Begin Spectral Data<<<<<
46.049	-0.6125
50.455	-1.0125
54.859	-0.8125
59.259	0.4875
63.656	25.4875
68.049	26.8875
72.439	27.5875
76.827	34.3875
81.21	33.7875
85.591	32.9875
89.969	36.6875
94.343	38.2875
98.714	42.5875
103.082	41.5875
107.446	43.3875
111.808	41.6875
116.166	41.6875
120.521	41.4875
124.873	41.6875
129.222	37.3875
133.568	44.8875
137.91	39.7875
142.249	40.3875
146.585	44.3875
150.918	43.6875
155.248	50.6875
159.574	52.8875
163.898	57.9875
168.218	66.4875
172.535	79.0875
176.849	98.2875
181.16	123.1875
185.467	160.4875
189.772	209.8875
194.073	278.6875
198.372	353.6875
202.667	428.9875
206.959	511.1875
211.248	592.6875
215.533	670.1875
219.816	750.9875
224.096	823.3875
228.372	888.9875
232.645	961.2875
236.915	1039.0875
241.183	1095.8875
245.447	1154.8875
249.708	1199.5875
253.965	1244.2875
258.22	1269.4875
262.472	1270.7875
266.72	1262.2875
270.966	1255.1875
275.208	1233.9875
279.448	1222.7875
283.684	1209.5875
287.917	1198.0875
292.147	1184.8875
296.374	1174.0875
300.598	1150.3875
304.819	1129.9875
309.037	1104.1875
313.252	1082.7875
317.464	1048.8875
321.673	1031.3875
325.879	1011.5875
330.081	988.8875
334.281	971.8875
338.478	958.6875
342.671	960.7875
346.862	955.4875
351.05	965.4875
355.234	965.3875
359.416	982.2875
363.594	1002.9875
367.77	1029.3875
371.942	1048.1875
376.112	1076.5875
380.278	1116.2875
384.442	1133.0875
388.603	1175.2875
392.76	1196.5875
396.915	1206.2875
401.066	1211.4875
405.215	1214.7875
409.36	1208.7875
413.503	1192.3875
417.643	1175.9875
421.779	1170.3875
425.913	1156.6875
430.044	1152.9875
434.172	1151.2875
438.297	1151.3875
442.418	1163.7875
446.537	1163.8875
450.653	1167.1875
454.766	1185.2875
458.877	1193.5875
462.984	1194.0875
467.088	1220.2875
471.189	1227.9875
475.288	1262.0875
479.383	1315.9875
483.475	1405.0875
487.565	1540.3875
491.652	1668.9875
495.735	1738.3875
499.816	1712.2875
503.894	1593.7875
507.969	1485.7875
512.041	1412.7875
516.11	1413.1875
520.176	1452.8875
524.24	1515.2875
528.3	1570.8875
532.358	1578.4875
536.413	1543.6875
540.464	1456.1875
544.513	1397.4875
548.559	1335.9875
552.603	1297.7875
556.643	1266.4875
560.68	1264.5875
564.715	1269.6875
568.746	1273.7875
572.775	1287.1875
576.801	1324.4875
580.824	1375.2875
584.844	1465.5875
588.862	1549.5875
592.876	1578.5875
596.888	1565.3875
600.897	1523.7875
604.903	1507.5875
608.906	1552.9875
612.906	1633.9875
616.904	1821.0875
620.898	2100.8875
624.89	2512.6875
628.879	2991.0875
632.865	3395.3875
636.849	3553.3875
640.829	3417.0875
644.807	3060.3875
648.782	2624.3875
652.754	2251.2875
656.723	1976.0875
660.69	1800.8875
664.653	1712.0875
668.614	1681.7875
672.572	1684.5875
676.527	1684.4875
680.48	1682.7875
684.43	1678.7875
688.376	1683.9875
692.321	1655.3875
696.262	1630.7875
700.2	1604.2875
704.136	1574.4875
708.069	1549.8875
712	1532.1875
715.927	1533.5875
719.852	1571.0875
723.774	1621.7875
727.693	1632.9875
731.609	1588.9875
735.523	1513.9875
739.434	1471.4875
743.342	1483.6875
747.247	1486.4875
751.15	1497.0875
755.05	1494.1875
758.947	1504.6875
762.842	1519.5875
766.734	1539.5875
770.623	1535.9875
774.509	1510.6875
778.392	1495.4875
782.273	1489.1875
786.151	1492.3875
790.027	1517.7875
793.899	1551.4875
797.769	1625.3875
801.637	1780.2875
805.501	2024.2875
809.363	2298.4875
813.222	2417.1875
817.079	2299.2875
820.932	2049.7875
824.783	1800.4875
828.632	1619.0875
832.477	1521.2875
836.32	1475.6875
840.161	1470.4875
843.998	1462.6875
847.833	1459.3875
851.665	1439.8875
855.495	1441.1875
859.322	1452.7875
863.146	1489.6875
866.968	1549.3875
870.787	1679.0875
874.603	1842.0875
878.417	2030.0875
882.227	2209.2875
886.036	2314.5875
889.841	2307.1875
893.644	2169.0875
897.445	1953.4875
901.242	1737.1875
905.037	1589.4875
908.83	1478.8875
912.62	1432.4875
916.407	1387.6875
920.191	1370.9875
923.973	1365.7875
927.752	1357.3875
931.529	1341.1875
935.303	1350.0875
939.074	1346.8875
942.843	1362.9875
946.609	1370.3875
950.373	1383.2875
954.134	1370.5875
957.892	1349.9875
961.648	1331.8875
965.401	1308.9875
969.151	1294.8875
972.899	1279.5875
976.645	1276.7875
980.387	1284.2875
984.127	1279.0875
987.865	1298.4875
991.6	1327.1875
995.332	1374.2875
999.062	1434.7875
1002.789	1531.6875
1006.514	1624.8875
1010.236	1739.2875
1013.956	1805.6875
1017.673	1838.6875
1021.387	1830.9875
1025.099	1767.8875
1028.808	1681.8875
1032.515	1603.3875
1036.219	1523.2875
1039.92	1467.6875
1043.619	1420.3875
1047.316	1379.6875
1051.01	1363.5875
1054.701	1369.7875
1058.39	1392.7875
1062.076	1439.6875
1065.76	1495.8875
1069.441	1539.7875
1073.12	1557.8875
1076.796	1541.5875
1080.47	1510.8875
1084.141	1465.1875
1087.809	1403.9875
1091.475	1367.1875
1095.139	1336.5875
1098.8	1319.0875
1102.459	1301.0875
1106.115	1327.5875
1109.768	1362.6875
1113.419	1427.6875
1117.068	1557.3875
1120.713	1761.4875
1124.357	2087.5875
1127.998	2501.6875
1131.636	2896.3875
1135.272	3173.4875
1138.906	3233.8875
1142.537	3089.2875
1146.165	2775.6875
1149.791	2407.2875
1153.415	2064.1875
1157.036	1773.2875
1160.655	1582.3875
1164.271	1448.2875
1167.884	1386.9875
1171.496	1367.7875
1175.104	1359.7875
1178.711	1387.7875
1182.314	1433.2875
1185.916	1531.5875
1189.515	1704.1875
1193.111	1905.5875
1196.705	2173.7875
1200.296	2405.1875
1203.885	2554.3875
1207.472	2547.1875
1211.056	2428.0875
1214.638	2232.3875
1218.217	2018.3875
1221.794	1834.6875
1225.368	1688.5875
1228.94	1581.7875
1232.51	1517.5875
1236.077	1483.4875
1239.642	1475.7875
1243.204	1480.6875
1246.764	1501.8875
1250.321	1518.3875
1253.876	1530.0875
1257.428	1544.7875
1260.979	1551.7875
1264.526	1540.0875
1268.072	1526.0875
1271.615	1519.5875
1275.155	1495.4875
1278.693	1472.6875
1282.229	1457.8875
1285.762	1425.1875
1289.293	1425.1875
1292.822	1413.8875
1296.348	1430.2875
1299.871	1451.6875
1303.393	1486.7875
1306.912	1538.2875
1310.428	1575.5875
1313.942	1634.3875
1317.454	1708.8875
1320.964	1776.8875
1324.471	1836.4875
1327.975	1911.6875
1331.478	1982.2875
1334.977	2054.6875
1338.475	2107.0875
1341.97	2189.1875
1345.463	2258.0875
1348.954	2325.2875
1352.442	2373.1875
1355.927	2423.4875
1359.411	2449.5875
1362.892	2468.3875
1366.371	2478.9875
1369.847	2455.6875
1373.321	2434.8875
1376.793	2378.2875
1380.262	2345.3875
1383.729	2326.8875
1387.193	2299.4875
1390.656	2264.6875
1394.116	2247.9875
1397.573	2204.4875
1401.029	2140.8875
1404.482	2068.4875
1407.932	1977.3875
1411.381	1878.8875
1414.827	1772.4875
1418.27	1674.6875
1421.712	1578.6875
1425.151	1500.9875
1428.588	1461.8875
1432.022	1418.7875
1435.454	1390.2875
1438.884	1367.3875
1442.312	1352.5875
1445.737	1345.0875
1449.16	1350.6875
1452.58	1356.7875
1455.999	1355.3875
1459.415	1369.2875
1462.828	1405.0875
1466.24	1409.3875
1469.649	1413.9875
1473.056	1433.4875
1476.46	1449.4875
1479.863	1472.2875
1483.263	1487.1875
1486.661	1514.9875
1490.056	1534.8875
1493.449	1562.4875
1496.84	1594.0875
1500.229	1622.9875
1503.615	1637.4875
1506.999	1651.8875
1510.381	1616.6875
1513.761	1596.1875
1517.138	1550.0875
1520.513	1534.3875
1523.886	1525.6875
1527.257	1531.5875
1530.625	1568.1875
1533.991	1609.9875
1537.355	1663.1875
1540.716	1704.8875
1544.076	1761.8875
1547.433	1825.1875
1550.788	1872.8875
1554.14	1910.4875
1557.491	1939.3875
1560.839	1950.9875
1564.185	1942.6875
1567.529	1927.4875
1570.87	1913.1875
1574.209	1899.7875
1577.546	1882.6875
1580.881	1886.5875
1584.214	1877.5875
1587.544	1902.6875
1590.872	1908.9875
1594.198	1931.6875
1597.522	1963.7875
1600.843	2005.4875
1604.163	2026.8875
1607.48	2068.9875
1610.794	2123.2875
1614.107	2160.3875
1617.418	2209.0875
1620.726	2248.7875
1624.032	2286.9875
1627.336	2307.4875
1630.638	2331.8875
1633.937	2373.0875
1637.234	2416.5875
1640.53	2471.7875
1643.822	2557.7875
1647.113	2634.4875
1650.402	2712.4875
1653.688	2749.2875
1656.972	2705.5875
1660.254	2649.3875
1663.534	2538.2875
1666.812	2411.9875
1670.088	2282.0875
1673.361	2174.3875
1676.632	2065.6875
1679.901	1997.8875
1683.168	1932.7875
1686.433	1871.8875
1689.695	1810.4875
1692.956	1740.0875
1696.214	1677.4875
1699.47	1614.5875
1702.724	1536.8875
1705.976	1457.4875
1709.225	1358.3875
1712.473	1285.9875
1715.718	1233.6875
1718.961	1169.8875
1722.202	1146.3875
1725.441	1104.3875
1728.678	1059.9875
1731.913	1040.4875
1735.145	1023.4875
1738.376	1008.2875
1741.604	997.8875
1744.83	981.6875
1748.054	978.7875
1751.276	972.1875
1754.496	965.6875
1757.713	953.9875
1760.929	948.7875
1764.142	938.9875
1767.354	938.1875
1770.563	923.9875
1773.77	908.9875
1776.975	894.1875
1780.178	886.4875
1783.379	872.1875
1786.577	865.4875
1789.774	859.5875
1792.968	845.3875
1796.161	838.1875
1799.351	833.8875
1802.539	828.4875
1805.725	821.1875
1808.909	813.3875
1812.091	806.4875
1815.271	806.8875
1818.449	814.2875
1821.624	809.6875
1824.798	798.4875
1827.969	798.6875
1831.139	792.8875
1834.306	792.6875
1837.471	795.7875
1840.634	789.1875
1843.796	789.0875
1846.955	786.0875
1850.112	783.1875
1853.266	784.5875
1856.419	779.0875
1859.57	776.9875
1862.719	772.5875
1865.865	771.7875
1869.01	773.8875
1872.153	773.8875
1875.293	766.0875
1878.432	764.2875
1881.568	761.1875
1884.702	754.4875
1887.835	748.2875
1890.965	750.2875
1894.093	752.8875
1897.219	741.3875
1900.343	749.6875
1903.465	743.5875
1906.586	744.6875
1909.704	739.8875
1912.82	737.6875
1915.933	732.8875
1919.045	733.9875
1922.155	733.1875
1925.263	730.2875
1928.369	723.5875
1931.473	727.0875
1934.575	729.2875
1937.675	718.5875
1940.772	723.4875
1943.868	721.1875
1946.962	714.0875
1950.054	716.1875
1953.143	713.6875
1956.231	707.8875
1959.317	709.7875
1962.4	702.2875
1965.482	693.1875
1968.562	702.5875
1971.64	700.7875
1974.715	690.6875
1977.789	684.3875
1980.861	689.2875
1983.93	678.7875
1986.998	681.3875
1990.064	682.0875
1993.128	674.9875
1996.189	670.6875
1999.249	669.3875
2002.307	669.4875
2005.363	669.1875
2008.417	663.5875
2011.469	669.5875
2014.518	658.2875
2017.566	658.8875
2020.612	660.6875
2023.656	658.9875
2026.698	656.6875
2029.738	650.5875
2032.776	650.5875
2035.812	644.9875
2038.847	646.1875
2041.879	651.2875
2044.909	643.5875
2047.937	647.3875
2050.964	644.5875
2053.988	648.0875
2057.01	641.5875
2060.031	645.2875
2063.049	643.3875
2066.066	646.5875
2069.08	639.8875
2072.093	642.0875
2075.104	642.8875
2078.113	636.7875
2081.119	640.8875
2084.124	648.1875
2087.127	639.1875
2090.128	635.8875
2093.127	637.2875
2096.124	640.7875
2099.12	637.3875
2102.113	642.4875
2105.104	634.2875
2108.094	646.5875
2111.081	642.3875
2114.067	639.3875
2117.051	637.9875
2120.032	638.8875
2123.012	640.8875
2125.99	637.7875
2128.966	643.4875
2131.94	639.4875
2134.912	635.3875
2137.883	634.6875
2140.851	641.0875
2143.817	638.2875
2146.782	634.0875
2149.745	634.1875
2152.705	633.5875
2155.664	635.5875
2158.621	628.4875
2161.576	633.4875
2164.529	632.3875
2167.481	622.1875
2170.43	624.1875
2173.378	621.4875
2176.323	631.9875
2179.267	629.1875
2182.209	620.6875
2185.149	625.2875
2188.087	620.7875
2191.023	622.8875
2193.957	620.4875
2196.889	615.6875
2199.82	616.9875
2202.749	618.6875
2205.675	614.4875
2208.6	617.7875
2211.523	612.7875
2214.445	610.5875
2217.364	604.3875
2220.281	604.9875
2223.197	603.4875
2226.111	606.2875
2229.022	604.8875
2231.932	601.8875
2234.841	600.3875
2237.747	601.8875
2240.651	601.4875
2243.554	598.8875
2246.455	595.3875
2249.353	596.9875
2252.25	600.4875
2255.146	594.3875
2258.039	596.0875
2260.93	589.5875
2263.82	597.1875
2266.708	589.5875
2269.594	584.9875
2272.478	589.0875
2275.36	581.8875
2278.241	584.4875
2281.119	588.8875
2283.996	579.4875
2286.871	579.3875
2289.744	579.5875
2292.615	575.8875
2295.485	576.8875
2298.352	576.0875
2301.218	570.3875
2304.082	566.7875
2306.944	573.1875
2309.805	565.9875
2312.663	568.2875
2315.52	563.5875
2318.375	560.8875
2321.228	568.7875
2324.079	561.5875
2326.929	560.1875
2329.776	564.7875
2332.622	560.8875
2335.466	558.1875
2338.308	546.0875
2341.149	554.5875
2343.988	554.5875
2346.824	555.2875
2349.659	552.1875
2352.493	548.3875
2355.324	545.5875
2358.154	548.7875
2360.982	555.7875
2363.808	550.7875
2366.632	555.5875
2369.454	551.0875
2372.275	548.3875
2375.094	550.6875
2377.911	552.3875
2380.727	549.0875
2383.54	549.2875
2386.352	548.3875
2389.162	554.2875
2391.97	552.6875
2394.777	544.4875
2397.581	543.2875
2400.384	546.4875
2403.185	545.7875
2405.985	548.5875
2408.782	543.0875
2411.578	538.1875
2414.372	542.6875
2417.164	536.8875
2419.955	533.5875
2422.744	535.5875
2425.531	531.1875
2428.316	534.4875
2431.1	529.5875
2433.881	528.6875
2436.661	528.7875
2439.44	527.4875
2442.216	526.2875
2444.991	524.8875
2447.764	523.7875
2450.535	524.4875
2453.305	513.8875
2456.072	517.4875
2458.838	510.9875
2461.603	519.4875
2464.365	511.9875
2467.126	514.8875
2469.885	514.8875
2472.642	515.9875
2475.398	513.4875
2478.152	511.6875
2480.904	507.3875
2483.654	510.9875
2486.403	509.0875
2489.15	504.0875
2491.895	503.9875
2494.638	510.7875
2497.38	504.3875
2500.12	506.3875
2502.859	501.3875
2505.595	506.9875
2508.33	502.0875
2511.063	499.4875
2513.795	497.6875
2516.524	496.0875
2519.252	499.0875
2521.979	506.9875
2524.703	498.5875
2527.426	500.1875
2530.147	492.9875
2532.867	492.1875
2535.585	492.7875
2538.301	499.0875
2541.015	487.9875
2543.728	485.6875
2546.439	490.7875
2549.148	492.2875
2551.855	483.5875
2554.561	489.5875
2557.266	484.7875
2559.968	477.1875
2562.669	480.4875
2565.368	476.0875
2568.065	474.6875
2570.761	470.9875
2573.455	477.9875
2576.148	474.9875
2578.838	475.4875
2581.527	470.4875
2584.215	470.7875
2586.9	470.2875
2589.584	466.3875
2592.266	470.5875
2594.947	463.0875
2597.626	464.5875
2600.303	471.1875
2602.979	467.6875
2605.653	466.5875
2608.325	466.8875
2610.996	463.1875
2613.664	468.6875
2616.332	460.7875
2618.997	465.6875
2621.661	458.7875
2624.324	461.2875
2626.984	461.9875
2629.643	455.3875
2632.3	455.3875
2634.956	455.6875
2637.61	449.4875
2640.262	457.1875
2642.913	458.5875
2645.562	461.7875
2648.209	460.4875
2650.855	456.0875
2653.499	463.9875
2656.142	452.0875
2658.783	457.7875
2661.422	456.1875
2664.059	454.6875
2666.695	455.0875
2669.329	453.0875
2671.962	457.3875
2674.593	457.5875
2677.222	459.5875
2679.85	460.5875
2682.476	466.9875
2685.1	458.4875
2687.723	456.8875
2690.344	466.4875
2692.964	461.6875
2695.582	462.2875
2698.198	463.5875
2700.813	465.5875
2703.426	470.0875
2706.037	466.7875
2708.647	472.9875
2711.255	473.1875
2713.862	473.5875
2716.467	470.2875
2719.07	478.5875
2721.672	471.0875
2724.272	472.6875
2726.871	471.6875
2729.467	471.5875
2732.063	474.5875
2734.656	470.4875
2737.249	472.2875
2739.839	472.0875
2742.428	472.2875
2745.015	469.1875
2747.601	467.5875
2750.185	468.5875
2752.767	465.4875
2755.348	473.6875
2757.927	469.4875
2760.505	468.5875
2763.081	463.1875
2765.656	466.0875
2768.229	467.0875
2770.8	467.4875
2773.37	466.3875
2775.938	469.1875
2778.504	458.8875
2781.069	466.9875
2783.633	459.9875
2786.194	468.2875
2788.755	463.7875
2791.313	464.4875
2793.87	458.6875
2796.426	466.5875
2798.98	468.1875
2801.532	463.5875
2804.083	454.0875
2806.632	456.0875
2809.18	456.8875
2811.726	450.8875
2814.27	453.1875
2816.813	459.4875
2819.354	454.3875
2821.894	453.0875
2824.432	449.6875
2826.969	452.3875
2829.504	452.8875
2832.038	459.9875
2834.57	452.3875
2837.1	458.5875
2839.629	455.4875
2842.156	458.4875
2844.682	453.0875
2847.206	454.3875
2849.729	454.1875
2852.25	460.1875
2854.769	455.9875
2857.287	456.8875
2859.804	457.8875
2862.319	464.2875
2864.832	455.9875
2867.344	457.6875
2869.854	457.2875
2872.363	455.8875
2874.87	457.1875
2877.375	459.9875
2879.88	462.1875
2882.382	464.1875
2884.883	470.0875
2887.383	462.2875
2889.881	472.5875
2892.377	476.5875
2894.872	473.2875
2897.365	475.8875
2899.857	483.4875
2902.347	483.8875
2904.836	487.9875
2907.323	496.9875
2909.809	498.8875
2912.293	500.1875
2914.776	500.1875
2917.257	506.1875
2919.737	510.4875
2922.215	516.5875
2924.691	513.9875
2927.166	515.6875
2929.64	518.4875
2932.112	519.5875
2934.583	515.8875
2937.052	516.3875
2939.519	517.1875
2941.985	514.3875
2944.45	513.7875
2946.913	509.2875
2949.374	508.5875
2951.834	503.0875
2954.293	505.3875
2956.75	495.1875
2959.205	497.3875
2961.659	493.8875
2964.111	488.1875
2966.562	493.2875
2969.012	495.1875
2971.46	485.5875
2973.906	481.4875
2976.351	488.7875
2978.795	482.1875
2981.237	483.9875
2983.677	481.5875
2986.116	485.5875
2988.554	485.5875
2990.99	485.9875
2993.424	477.8875
2995.858	487.7875
2998.289	488.0875
3000.719	488.9875
3003.148	489.8875
3005.575	488.3875
3008.001	485.5875
3010.425	490.1875
3012.848	494.7875
3015.269	497.5875
3017.689	498.5875
3020.107	494.7875
3022.524	493.5875
3024.939	497.5875
3027.353	497.7875
3029.765	504.5875
3032.176	502.1875
3034.586	509.8875
3036.994	506.4875
3039.4	510.5875
3041.805	512.4875
3044.209	511.4875
3046.611	516.7875
3049.012	518.3875
3051.411	514.6875
3053.809	523.2875
3056.205	527.9875
3058.6	527.9875
3060.993	526.2875
3063.385	531.6875
3065.776	529.3875
3068.165	530.8875
3070.553	530.5875
3072.939	542.5875
3075.323	541.2875
3077.707	542.3875
3080.088	545.2875
3082.469	550.5875
3084.848	545.1875
3087.225	554.1875
3089.601	559.5875
3091.976	561.0875
3094.349	566.1875
3096.721	561.2875
3099.091	572.4875
3101.46	576.3875
3103.827	579.9875
3106.193	587.0875
3108.558	582.6875
3110.921	598.5875
3113.282	597.7875
3115.643	602.6875
3118.001	605.8875
3120.359	612.2875
3122.715	614.7875
3125.069	613.4875
3127.422	616.4875
3129.774	625.8875
3132.124	637.0875
3134.473	636.2875
3136.82	649.8875
3139.166	647.4875
3141.511	657.4875
3143.854	661.3875
3146.196	665.3875
3148.536	670.5875
3150.875	675.3875
3153.212	684.3875
3155.549	687.9875
3157.883	688.4875
3160.216	697.2875
3162.548	704.2875
3164.879	711.3875
3167.208	715.3875
3169.535	716.6875
3171.862	724.3875
3174.186	727.4875
3176.51	732.9875
3178.832	739.1875
3181.152	741.1875
3183.471	745.8875
3185.789	748.0875
3188.106	755.6875
3190.421	758.8875
3192.734	761.0875
3195.046	765.0875
3197.357	773.9875
3199.667	774.8875
3201.975	780.5875
3204.281	777.4875
3206.587	785.1875
3208.89	783.0875
3211.193	795.2875
3213.494	793.6875
3215.794	802.1875
3218.092	797.1875
3220.389	799.8875
3222.684	808.9875
3224.979	817.4875
3227.271	817.7875
3229.563	821.3875
3231.853	815.2875
3234.141	809.2875
3236.429	818.2875
3238.714	812.8875
3240.999	827.6875
3243.282	825.4875
3245.564	819.7875
3247.844	821.2875
3250.123	826.4875
3252.401	821.2875
3254.677	816.4875
3256.952	821.7875
3259.226	826.8875
3261.498	822.3875
3263.769	832.1875
3266.038	820.6875
3268.306	828.5875
3270.573	829.6875
3272.838	822.4875
3275.102	824.9875
3277.365	826.9875
3279.626	817.8875
3281.886	828.2875
3284.144	819.4875
3286.402	824.0875
3288.658	824.1875
3290.912	824.3875
3293.165	814.6875
3295.417	822.7875
3297.667	818.4875
3299.916	815.8875
3302.164	808.6875
3304.411	804.5875
3306.656	798.2875
