Data from AgNP_FTO_UA_0.2mM_NaF_0.1M_AD_RamanShift__42__13-39-01-342.txt Node

Date: Mon Jun 28 13:39:01 BST 2021
User: TCL
Spectrometer: QEP01345
Trigger mode: 4
Integration Time (sec): 7.000000E0
Scans to average: 10
Electric dark correction enabled: true
Nonlinearity correction enabled: false
Boxcar width: 0
XAxis mode: Raman Shifts
Number of Pixels in Spectrum: 1044
>>>>>Begin Spectral Data<<<<<
46.049	-0.7375
50.455	-2.0375
54.859	-1.6375
59.259	0.4625
63.656	44.4625
68.049	48.8625
72.439	52.1625
76.827	56.5625
81.21	59.5625
85.591	65.0625
89.969	62.3625
94.343	66.5625
98.714	71.1625
103.082	70.3625
107.446	71.8625
111.808	70.2625
116.166	70.9625
120.521	69.2625
124.873	69.5625
129.222	67.5625
133.568	67.7625
137.91	71.9625
142.249	64.5625
146.585	68.8625
150.918	71.9625
155.248	75.3625
159.574	72.9625
163.898	83.3625
168.218	93.3625
172.535	109.3625
176.849	139.2625
181.16	179.4625
185.467	233.7625
189.772	312.6625
194.073	398.4625
198.372	506.1625
202.667	607.8625
206.959	712.3625
211.248	805.5625
215.533	901.2625
219.816	990.4625
224.096	1073.0625
228.372	1192.1625
232.645	1299.2625
236.915	1438.4625
241.183	1562.0625
245.447	1702.4625
249.708	1832.5625
253.965	1945.9625
258.22	2044.1625
262.472	2115.4625
266.72	2152.0625
270.966	2181.8625
275.208	2171.5625
279.448	2161.1625
283.684	2122.9625
287.917	2086.4625
292.147	2053.8625
296.374	2030.8625
300.598	2006.0625
304.819	1994.2625
309.037	1982.2625
313.252	1984.5625
317.464	1973.4625
321.673	1985.6625
325.879	2001.8625
330.081	2007.5625
334.281	2024.4625
338.478	2054.8625
342.671	2070.2625
346.862	2104.3625
351.05	2139.0625
355.234	2152.3625
359.416	2179.3625
363.594	2236.2625
367.77	2250.5625
371.942	2285.8625
376.112	2305.9625
380.278	2332.2625
384.442	2357.1625
388.603	2382.4625
392.76	2418.4625
396.915	2451.6625
401.066	2480.4625
405.215	2504.0625
409.36	2525.8625
413.503	2554.2625
417.643	2592.6625
421.779	2613.6625
425.913	2649.8625
430.044	2683.7625
434.172	2692.6625
438.297	2719.7625
442.418	2736.5625
446.537	2751.5625
450.653	2774.9625
454.766	2793.8625
458.877	2801.9625
462.984	2811.2625
467.088	2829.4625
471.189	2846.7625
475.288	2854.3625
479.383	2876.3625
483.475	2887.8625
487.565	2907.7625
491.652	2912.0625
495.735	2928.5625
499.816	2916.8625
503.894	2911.3625
507.969	2928.8625
512.041	2931.9625
516.11	2938.1625
520.176	2958.4625
524.24	2964.7625
528.3	2981.0625
532.358	3016.0625
536.413	3029.2625
540.464	3035.8625
544.513	3058.6625
548.559	3090.7625
552.603	3101.3625
556.643	3117.5625
560.68	3130.0625
564.715	3145.3625
568.746	3145.9625
572.775	3159.7625
576.801	3163.2625
580.824	3162.3625
584.844	3152.1625
588.862	3190.7625
592.876	3188.8625
596.888	3195.3625
600.897	3215.8625
604.903	3217.8625
608.906	3226.4625
612.906	3238.2625
616.904	3243.6625
620.898	3252.0625
624.89	3239.2625
628.879	3259.9625
632.865	3264.3625
636.849	3281.1625
640.829	3280.0625
644.807	3297.6625
648.782	3299.9625
652.754	3306.0625
656.723	3325.7625
660.69	3317.4625
664.653	3330.0625
668.614	3336.7625
672.572	3365.6625
676.527	3357.3625
680.48	3373.1625
684.43	3388.3625
688.376	3407.2625
692.321	3415.5625
696.262	3431.2625
700.2	3450.8625
704.136	3473.8625
708.069	3487.3625
712	3496.8625
715.927	3495.3625
719.852	3504.9625
723.774	3507.2625
727.693	3503.1625
731.609	3519.0625
735.523	3526.2625
739.434	3541.8625
743.342	3566.0625
747.247	3558.0625
751.15	3573.2625
755.05	3588.7625
758.947	3601.8625
762.842	3605.5625
766.734	3626.1625
770.623	3612.1625
774.509	3646.3625
778.392	3654.3625
782.273	3669.2625
786.151	3682.4625
790.027	3684.1625
793.899	3695.9625
797.769	3692.7625
801.637	3712.0625
805.501	3725.3625
809.363	3732.4625
813.222	3738.1625
817.079	3747.9625
820.932	3775.6625
824.783	3786.8625
828.632	3792.3625
832.477	3793.4625
836.32	3817.5625
840.161	3807.4625
843.998	3816.3625
847.833	3835.5625
851.665	3837.3625
855.495	3849.4625
859.322	3867.6625
863.146	3890.2625
866.968	3926.1625
870.787	3935.4625
874.603	3975.1625
878.417	3964.2625
882.227	3968.7625
886.036	3983.1625
889.841	3985.0625
893.644	3978.3625
897.445	3994.5625
901.242	3999.4625
905.037	4012.1625
908.83	4015.2625
912.62	4031.8625
916.407	4043.9625
920.191	4050.7625
923.973	4048.2625
927.752	4049.7625
931.529	4064.9625
935.303	4080.2625
939.074	4081.0625
942.843	4104.4625
946.609	4109.2625
950.373	4118.2625
954.134	4121.2625
957.892	4133.3625
961.648	4129.6625
965.401	4138.2625
969.151	4142.1625
972.899	4162.0625
976.645	4156.5625
980.387	4167.9625
984.127	4187.8625
987.865	4202.8625
991.6	4231.7625
995.332	4231.4625
999.062	4239.2625
1002.789	4269.8625
1006.514	4293.5625
1010.236	4304.8625
1013.956	4327.3625
1017.673	4331.6625
1021.387	4347.9625
1025.099	4362.7625
1028.808	4392.5625
1032.515	4412.5625
1036.219	4442.0625
1039.92	4461.3625
1043.619	4466.6625
1047.316	4516.2625
1051.01	4542.5625
1054.701	4569.4625
1058.39	4573.8625
1062.076	4608.4625
1065.76	4632.3625
1069.441	4668.8625
1073.12	4684.5625
1076.796	4721.2625
1080.47	4744.3625
1084.141	4758.8625
1087.809	4799.9625
1091.475	4802.4625
1095.139	4829.7625
1098.8	4846.5625
1102.459	4851.5625
1106.115	4872.7625
1109.768	4871.8625
1113.419	4895.1625
1117.068	4892.4625
1120.713	4916.9625
1124.357	4938.2625
1127.998	4964.8625
1131.636	4970.3625
1135.272	4967.0625
1138.906	4978.0625
1142.537	4997.3625
1146.165	4991.2625
1149.791	5007.0625
1153.415	5001.8625
1157.036	5011.0625
1160.655	5022.4625
1164.271	5054.5625
1167.884	5075.7625
1171.496	5083.0625
1175.104	5098.5625
1178.711	5134.0625
1182.314	5145.9625
1185.916	5158.6625
1189.515	5194.7625
1193.111	5225.4625
1196.705	5223.3625
1200.296	5258.5625
1203.885	5257.0625
1207.472	5267.8625
1211.056	5283.9625
1214.638	5303.0625
1218.217	5297.4625
1221.794	5316.5625
1225.368	5358.6625
1228.94	5370.6625
1232.51	5384.5625
1236.077	5399.2625
1239.642	5434.2625
1243.204	5450.9625
1246.764	5475.4625
1250.321	5492.2625
1253.876	5528.2625
1257.428	5535.1625
1260.979	5570.1625
1264.526	5558.3625
1268.072	5564.5625
1271.615	5574.4625
1275.155	5592.3625
1278.693	5594.2625
1282.229	5597.9625
1285.762	5615.2625
1289.293	5616.6625
1292.822	5622.3625
1296.348	5653.2625
1299.871	5674.7625
1303.393	5682.8625
1306.912	5684.4625
1310.428	5698.2625
1313.942	5710.6625
1317.454	5716.0625
1320.964	5707.3625
1324.471	5723.6625
1327.975	5724.7625
1331.478	5708.0625
1334.977	5703.6625
1338.475	5687.9625
1341.97	5698.2625
1345.463	5704.0625
1348.954	5698.5625
1352.442	5699.4625
1355.927	5734.5625
1359.411	5732.4625
1362.892	5744.1625
1366.371	5747.7625
1369.847	5741.5625
1373.321	5731.0625
1376.793	5743.1625
1380.262	5733.8625
1383.729	5741.6625
1387.193	5723.2625
1390.656	5732.4625
1394.116	5718.4625
1397.573	5698.7625
1401.029	5676.6625
1404.482	5694.6625
1407.932	5690.4625
1411.381	5675.4625
1414.827	5701.2625
1418.27	5720.7625
1421.712	5699.0625
1425.151	5702.3625
1428.588	5718.1625
1432.022	5737.9625
1435.454	5738.1625
1438.884	5722.6625
1442.312	5745.5625
1445.737	5739.2625
1449.16	5764.2625
1452.58	5775.7625
1455.999	5768.9625
1459.415	5780.6625
1462.828	5793.9625
1466.24	5799.9625
1469.649	5814.6625
1473.056	5847.1625
1476.46	5854.6625
1479.863	5908.6625
1483.263	5923.4625
1486.661	5969.6625
1490.056	5972.2625
1493.449	6006.8625
1496.84	6038.7625
1500.229	6055.0625
1503.615	6060.5625
1506.999	6099.8625
1510.381	6087.7625
1513.761	6127.8625
1517.138	6146.4625
1520.513	6190.1625
1523.886	6216.2625
1527.257	6226.0625
1530.625	6284.7625
1533.991	6306.9625
1537.355	6356.0625
1540.716	6379.3625
1544.076	6391.0625
1547.433	6441.4625
1550.788	6450.8625
1554.14	6487.1625
1557.491	6517.7625
1560.839	6533.8625
1564.185	6568.0625
1567.529	6566.6625
1570.87	6590.3625
1574.209	6628.8625
1577.546	6625.2625
1580.881	6654.4625
1584.214	6679.4625
1587.544	6690.3625
1590.872	6740.9625
1594.198	6746.3625
1597.522	6770.4625
1600.843	6812.8625
1604.163	6827.6625
1607.48	6813.7625
1610.794	6855.5625
1614.107	6867.7625
1617.418	6877.9625
1620.726	6885.5625
1624.032	6918.3625
1627.336	6925.3625
1630.638	6929.9625
1633.937	6956.1625
1637.234	6966.5625
1640.53	6971.5625
1643.822	7010.1625
1647.113	7010.8625
1650.402	7041.3625
1653.688	7071.5625
1656.972	7093.7625
1660.254	7118.0625
1663.534	7116.6625
1666.812	7117.2625
1670.088	7108.0625
1673.361	7089.8625
1676.632	7082.9625
1679.901	7079.6625
1683.168	7066.7625
1686.433	7063.3625
1689.695	7071.8625
1692.956	7116.5625
1696.214	7173.2625
1699.47	7215.9625
1702.724	7236.8625
1705.976	7216.6625
1709.225	7183.9625
1712.473	7181.9625
1715.718	7188.6625
1718.961	7178.5625
1722.202	7180.1625
1725.441	7187.5625
1728.678	7200.8625
1731.913	7206.5625
1735.145	7213.7625
1738.376	7225.2625
1741.604	7250.3625
1744.83	7245.6625
1748.054	7247.6625
1751.276	7277.3625
1754.496	7314.7625
1757.713	7367.7625
1760.929	7402.6625
1764.142	7391.8625
1767.354	7431.8625
1770.563	7431.4625
1773.77	7448.9625
1776.975	7440.0625
1780.178	7437.9625
1783.379	7415.9625
1786.577	7434.8625
1789.774	7424.5625
1792.968	7447.2625
1796.161	7437.1625
1799.351	7432.6625
1802.539	7463.4625
1805.725	7463.8625
1808.909	7461.1625
1812.091	7465.1625
1815.271	7482.0625
1818.449	7492.1625
1821.624	7504.9625
1824.798	7519.2625
1827.969	7496.6625
1831.139	7522.1625
1834.306	7536.9625
1837.471	7544.4625
1840.634	7566.0625
1843.796	7588.6625
1846.955	7612.6625
1850.112	7598.9625
1853.266	7610.6625
1856.419	7641.4625
1859.57	7671.8625
1862.719	7664.9625
1865.865	7689.2625
1869.01	7694.1625
1872.153	7714.9625
1875.293	7712.9625
1878.432	7730.4625
1881.568	7736.5625
1884.702	7759.9625
1887.835	7760.2625
1890.965	7770.3625
1894.093	7779.7625
1897.219	7788.9625
1900.343	7803.1625
1903.465	7823.5625
1906.586	7828.4625
1909.704	7843.7625
1912.82	7857.4625
1915.933	7856.3625
1919.045	7852.7625
1922.155	7876.3625
1925.263	7882.8625
1928.369	7911.4625
1931.473	7911.3625
1934.575	7917.1625
1937.675	7913.4625
1940.772	7941.3625
1943.868	7952.2625
1946.962	7934.1625
1950.054	7944.6625
1953.143	7920.3625
1956.231	7924.4625
1959.317	7931.8625
1962.4	7932.5625
1965.482	7910.3625
1968.562	7923.0625
1971.64	7914.4625
1974.715	7914.6625
1977.789	7928.8625
1980.861	7916.7625
1983.93	7894.7625
1986.998	7906.6625
1990.064	7897.5625
1993.128	7910.7625
1996.189	7905.6625
1999.249	7908.2625
2002.307	7926.5625
2005.363	7902.4625
2008.417	7910.3625
2011.469	7899.6625
2014.518	7881.1625
2017.566	7905.5625
2020.612	7914.0625
2023.656	7929.7625
2026.698	7917.5625
2029.738	7905.1625
2032.776	7907.9625
2035.812	7911.2625
2038.847	7916.0625
2041.879	7947.2625
2044.909	7928.6625
2047.937	7946.0625
2050.964	7932.4625
2053.988	7951.6625
2057.01	7965.8625
2060.031	7983.4625
2063.049	7975.7625
2066.066	8012.5625
2069.08	8029.6625
2072.093	8026.7625
2075.104	8066.1625
2078.113	8059.6625
2081.119	8097.1625
2084.124	8104.2625
2087.127	8118.1625
2090.128	8155.3625
2093.127	8164.5625
2096.124	8220.4625
2099.12	8194.9625
2102.113	8228.5625
2105.104	8260.0625
2108.094	8269.9625
2111.081	8315.7625
2114.067	8305.7625
2117.051	8354.6625
2120.032	8376.1625
2123.012	8433.2625
2125.99	8445.7625
2128.966	8462.4625
2131.94	8482.6625
2134.912	8500.1625
2137.883	8556.3625
2140.851	8593.4625
2143.817	8597.2625
2146.782	8642.4625
2149.745	8633.5625
2152.705	8651.6625
2155.664	8670.6625
2158.621	8715.2625
2161.576	8734.2625
2164.529	8749.7625
2167.481	8741.6625
2170.43	8777.6625
2173.378	8795.6625
2176.323	8799.9625
2179.267	8826.7625
2182.209	8863.1625
2185.149	8877.2625
2188.087	8886.0625
2191.023	8905.3625
2193.957	8933.4625
2196.889	8930.9625
2199.82	8938.9625
2202.749	8976.6625
2205.675	8985.2625
2208.6	9017.2625
2211.523	8993.9625
2214.445	9010.7625
2217.364	9014.5625
2220.281	9013.9625
2223.197	9005.9625
2226.111	9044.2625
2229.022	9022.1625
2231.932	9016.5625
2234.841	9016.0625
2237.747	9029.7625
2240.651	9086.7625
2243.554	9082.9625
2246.455	9091.7625
2249.353	9110.3625
2252.25	9092.2625
2255.146	9100.7625
2258.039	9130.2625
2260.93	9137.5625
2263.82	9134.5625
2266.708	9140.8625
2269.594	9132.3625
2272.478	9117.2625
2275.36	9114.1625
2278.241	9137.5625
2281.119	9123.6625
2283.996	9147.7625
2286.871	9168.0625
2289.744	9182.5625
2292.615	9165.2625
2295.485	9189.6625
2298.352	9212.3625
2301.218	9199.7625
2304.082	9226.8625
2306.944	9253.5625
2309.805	9233.1625
2312.663	9249.6625
2315.52	9259.6625
2318.375	9279.1625
2321.228	9285.9625
2324.079	9294.4625
2326.929	9297.5625
2329.776	9306.0625
2332.622	9307.3625
2335.466	9334.6625
2338.308	9308.7625
2341.149	9333.8625
2343.988	9333.1625
2346.824	9355.3625
2349.659	9332.2625
2352.493	9350.5625
2355.324	9357.0625
2358.154	9393.0625
2360.982	9397.0625
2363.808	9409.1625
2366.632	9429.9625
2369.454	9429.3625
2372.275	9458.3625
2375.094	9452.0625
2377.911	9475.7625
2380.727	9479.5625
2383.54	9480.8625
2386.352	9494.2625
2389.162	9504.4625
2391.97	9476.5625
2394.777	9523.6625
2397.581	9497.3625
2400.384	9510.9625
2403.185	9493.5625
2405.985	9508.5625
2408.782	9517.1625
2411.578	9509.8625
2414.372	9542.0625
2417.164	9524.8625
2419.955	9555.9625
2422.744	9564.1625
2425.531	9570.2625
2428.316	9576.9625
2431.1	9615.1625
2433.881	9588.6625
2436.661	9639.3625
2439.44	9627.5625
2442.216	9641.6625
2444.991	9654.3625
2447.764	9674.1625
2450.535	9666.3625
2453.305	9672.9625
2456.072	9673.4625
2458.838	9672.5625
2461.603	9695.4625
2464.365	9691.5625
2467.126	9702.4625
2469.885	9735.9625
2472.642	9727.6625
2475.398	9774.1625
2478.152	9769.6625
2480.904	9767.4625
2483.654	9775.1625
2486.403	9784.4625
2489.15	9797.0625
2491.895	9791.7625
2494.638	9802.8625
2497.38	9823.7625
2500.12	9828.8625
2502.859	9846.2625
2505.595	9860.5625
2508.33	9851.3625
2511.063	9873.0625
2513.795	9855.8625
2516.524	9873.0625
2519.252	9891.5625
2521.979	9904.5625
2524.703	9892.0625
2527.426	9899.6625
2530.147	9925.5625
2532.867	9919.7625
2535.585	9906.0625
2538.301	9910.1625
2541.015	9951.6625
2543.728	9925.0625
2546.439	9933.2625
2549.148	9935.8625
2551.855	9937.7625
2554.561	9929.3625
2557.266	9922.4625
2559.968	9927.6625
2562.669	9929.8625
2565.368	9938.4625
2568.065	9926.3625
2570.761	9932.0625
2573.455	9943.5625
2576.148	9914.2625
2578.838	9914.7625
2581.527	9919.3625
2584.215	9927.0625
2586.9	9934.8625
2589.584	9922.6625
2592.266	9949.6625
2594.947	9938.4625
2597.626	9947.4625
2600.303	9921.8625
2602.979	9920.1625
2605.653	9915.3625
2608.325	9948.6625
2610.996	9947.0625
2613.664	9937.5625
2616.332	9930.0625
2618.997	9963.3625
2621.661	9950.0625
2624.324	9966.0625
2626.984	9954.7625
2629.643	9955.7625
2632.3	9947.3625
2634.956	9948.1625
2637.61	9944.1625
2640.262	9960.8625
2642.913	9974.5625
2645.562	9955.6625
2648.209	10012.1625
2650.855	9989.0625
2653.499	9996.6625
2656.142	10029.4625
2658.783	10017.8625
2661.422	10029.6625
2664.059	10033.8625
2666.695	10028.4625
2669.329	10082.8625
2671.962	10089.4625
2674.593	10123.1625
2677.222	10100.1625
2679.85	10134.1625
2682.476	10128.8625
2685.1	10161.6625
2687.723	10173.9625
2690.344	10173.5625
2692.964	10204.8625
2695.582	10209.7625
2698.198	10225.3625
2700.813	10223.1625
2703.426	10244.5625
2706.037	10270.7625
2708.647	10286.1625
2711.255	10311.7625
2713.862	10321.6625
2716.467	10342.2625
2719.07	10335.2625
2721.672	10369.0625
2724.272	10344.5625
2726.871	10411.4625
2729.467	10423.9625
2732.063	10429.3625
2734.656	10423.0625
2737.249	10447.9625
2739.839	10462.8625
2742.428	10470.2625
2745.015	10453.5625
2747.601	10466.3625
2750.185	10454.0625
2752.767	10458.4625
2755.348	10465.4625
2757.927	10472.4625
2760.505	10460.3625
2763.081	10483.6625
2765.656	10463.7625
2768.229	10493.9625
2770.8	10499.0625
2773.37	10489.8625
2775.938	10494.8625
2778.504	10493.7625
2781.069	10491.2625
2783.633	10486.8625
2786.194	10490.4625
2788.755	10476.5625
2791.313	10479.5625
2793.87	10470.6625
2796.426	10488.5625
2798.98	10478.7625
2801.532	10469.0625
2804.083	10445.7625
2806.632	10454.4625
2809.18	10434.3625
2811.726	10452.4625
2814.27	10415.2625
2816.813	10378.6625
2819.354	10391.2625
2821.894	10380.4625
2824.432	10364.2625
2826.969	10386.0625
2829.504	10348.6625
2832.038	10382.3625
2834.57	10382.5625
2837.1	10390.7625
2839.629	10377.5625
2842.156	10367.6625
2844.682	10414.2625
2847.206	10394.1625
2849.729	10410.2625
2852.25	10405.2625
2854.769	10387.9625
2857.287	10422.4625
2859.804	10426.0625
2862.319	10414.3625
2864.832	10411.8625
2867.344	10393.6625
2869.854	10419.2625
2872.363	10405.3625
2874.87	10408.2625
2877.375	10421.2625
2879.88	10435.3625
2882.382	10445.5625
2884.883	10472.1625
2887.383	10510.0625
2889.881	10517.4625
2892.377	10503.0625
2894.872	10501.3625
2897.365	10527.9625
2899.857	10546.8625
2902.347	10595.8625
2904.836	10581.3625
2907.323	10592.2625
2909.809	10628.7625
2912.293	10633.4625
2914.776	10644.7625
2917.257	10675.1625
2919.737	10674.4625
2922.215	10689.6625
2924.691	10704.1625
2927.166	10741.2625
2929.64	10725.2625
2932.112	10763.4625
2934.583	10720.9625
2937.052	10790.0625
2939.519	10778.8625
2941.985	10813.1625
2944.45	10830.6625
2946.913	10835.3625
2949.374	10888.7625
2951.834	10882.6625
2954.293	10882.1625
2956.75	10920.4625
2959.205	10902.5625
2961.659	10903.1625
2964.111	10946.8625
2966.562	10955.8625
2969.012	10964.6625
2971.46	10973.1625
2973.906	10989.4625
2976.351	11008.0625
2978.795	10979.4625
2981.237	10988.7625
2983.677	10985.3625
2986.116	10988.4625
2988.554	11017.0625
2990.99	10996.1625
2993.424	11005.2625
2995.858	10991.7625
2998.289	11036.4625
3000.719	11039.8625
3003.148	11038.6625
3005.575	11070.5625
3008.001	11051.0625
3010.425	11059.4625
3012.848	11032.1625
3015.269	11060.8625
3017.689	11064.8625
3020.107	11058.0625
3022.524	11054.8625
3024.939	11085.2625
3027.353	11076.9625
3029.765	11068.2625
3032.176	11067.3625
3034.586	11088.6625
3036.994	11126.0625
3039.4	11120.9625
3041.805	11138.9625
3044.209	11143.9625
3046.611	11168.9625
3049.012	11155.4625
3051.411	11173.4625
3053.809	11183.1625
3056.205	11196.8625
3058.6	11174.2625
3060.993	11209.8625
3063.385	11201.3625
3065.776	11166.8625
3068.165	11189.7625
3070.553	11191.4625
3072.939	11223.7625
3075.323	11217.9625
3077.707	11234.7625
3080.088	11247.6625
3082.469	11242.2625
3084.848	11273.3625
3087.225	11296.4625
3089.601	11328.1625
3091.976	11368.6625
3094.349	11395.5625
3096.721	11418.6625
3099.091	11454.1625
3101.46	11502.2625
3103.827	11533.3625
3106.193	11555.6625
3108.558	11557.1625
3110.921	11581.2625
3113.282	11603.9625
3115.643	11617.7625
3118.001	11647.9625
3120.359	11659.3625
3122.715	11680.2625
3125.069	11675.3625
3127.422	11711.1625
3129.774	11744.3625
3132.124	11778.1625
3134.473	11812.0625
3136.82	11841.3625
3139.166	11896.6625
3141.511	11918.4625
3143.854	11978.9625
3146.196	12012.2625
3148.536	12034.7625
3150.875	12077.4625
3153.212	12103.0625
3155.549	12187.5625
3157.883	12200.9625
3160.216	12290.9625
3162.548	12296.1625
3164.879	12318.4625
3167.208	12354.3625
3169.535	12390.8625
3171.862	12436.8625
3174.186	12449.6625
3176.51	12455.1625
3178.832	12516.0625
3181.152	12552.4625
3183.471	12570.7625
3185.789	12578.5625
3188.106	12581.2625
3190.421	12623.8625
3192.734	12618.7625
3195.046	12643.3625
3197.357	12663.1625
3199.667	12716.8625
3201.975	12762.1625
3204.281	12743.2625
3206.587	12807.8625
3208.89	12842.8625
3211.193	12883.6625
3213.494	12870.3625
