Data from AgNPs_UA_50uM_CRN_0uM_R6G_0uM_Pure_RamanShift__5__14-35-21-667.txt Node

Date: Tue Aug 23 14:35:21 BST 2022
User: TCL
Spectrometer: QEP01345
Trigger mode: 4
Integration Time (sec): 7.000000E0
Scans to average: 10
Electric dark correction enabled: true
Nonlinearity correction enabled: false
Boxcar width: 0
XAxis mode: Raman Shifts
Number of Pixels in Spectrum: 1044
>>>>>Begin Spectral Data<<<<<
46.04893	-0.35
50.45542	0.05
54.85868	1.45
59.25871	0.05
63.6555	25.45
68.04907	28.65
72.43941	34.55
76.82654	34.85
81.21044	34.85
85.59113	39.25
89.96862	41.65
94.34289	43.05
98.71396	40.95
103.08183	46.75
107.4465	44.25
111.80798	46.65
116.16626	48.95
120.52136	45.55
124.87327	43.05
129.222	44.45
133.56755	44.25
137.90993	48.15
142.24913	48.35
146.58517	50.35
150.91804	48.95
155.24774	56.25
159.57429	63.15
163.89768	79.95
168.21792	85.95
172.53501	108.55
176.84895	143.55
181.15975	192.05
185.46741	258.95
189.77193	355.05
194.07331	472.85
198.37157	606.45
202.6667	762.55
206.9587	914.65
211.24758	1070.85
215.53334	1215.55
219.81599	1367.85
224.09553	1523.45
228.37195	1681.95
232.64527	1854.95
236.91549	2018.55
241.18261	2192.45
245.44663	2357.85
249.70755	2483.25
253.96539	2603.25
258.22014	2668.35
262.4718	2702.65
266.72039	2683.25
270.96589	2631.45
275.20832	2551.35
279.44768	2445.15
283.68397	2334.05
287.91719	2217.15
292.14735	2124.85
296.37445	2029.85
300.59849	1937.55
304.81948	1899.95
309.03742	1837.75
313.25231	1802.55
317.46415	1783.15
321.67296	1755.55
325.87872	1722.95
330.08145	1713.55
334.28114	1721.85
338.47781	1722.65
342.67145	1730.95
346.86207	1738.95
351.04966	1744.45
355.23424	1758.65
359.4158	1753.85
363.59435	1748.15
367.76989	1765.55
371.94243	1755.45
376.11196	1767.05
380.27849	1775.05
384.44203	1765.75
388.60257	1790.85
392.76012	1785.35
396.91468	1801.35
401.06626	1814.65
405.21485	1823.25
409.36047	1828.75
413.50311	1839.85
417.64277	1832.05
421.77947	1840.45
425.9132	1830.55
430.04396	1850.15
434.17176	1854.95
438.2966	1868.45
442.41849	1882.65
446.53742	1901.55
450.6534	1920.35
454.76644	1934.05
458.87653	1951.15
462.98368	1961.85
467.08789	1967.95
471.18916	1967.05
475.2875	1964.95
479.38291	1974.75
483.4754	1966.55
487.56496	1988.45
491.6516	1998.05
495.73531	2012.25
499.81612	2011.75
503.89401	2017.55
507.96899	2010.05
512.04106	1983.05
516.11023	1972.35
520.1765	1949.65
524.23987	1937.85
528.30034	1939.45
532.35792	1941.85
536.41261	1946.65
540.46441	1944.25
544.51333	1946.05
548.55936	1952.65
552.60252	1973.25
556.64279	1995.55
560.6802	2030.15
564.71473	2058.55
568.7464	2092.65
572.7752	2136.15
576.80114	2155.95
580.82422	2149.95
584.84444	2132.85
588.86181	2130.25
592.87633	2118.25
596.888	2109.85
600.89682	2116.15
604.9028	2126.95
608.90594	2151.05
612.90624	2170.75
616.90371	2116.55
620.89834	2053.65
624.89015	2043.25
628.87913	2066.05
632.86528	2090.85
636.84862	2113.15
640.82913	2134.05
644.80683	2150.25
648.78172	2162.75
652.75379	2157.75
656.72306	2156.15
660.68952	2183.65
664.65319	2226.35
668.61405	2308.95
672.57211	2458.85
676.52738	2693.75
680.47986	2953.15
684.42955	3162.45
688.37646	3196.35
692.32058	3106.55
696.26192	2902.35
700.20048	2692.85
704.13626	2531.25
708.06928	2414.25
711.99952	2313.95
715.927	2256.55
719.85171	2228.65
723.77365	2261.75
727.69284	2364.35
731.60928	2554.35
735.52295	2734.95
739.43388	2852.95
743.34206	2860.85
747.24749	2777.15
751.15017	2615.55
755.05012	2447.25
758.94733	2337.35
762.8418	2280.95
766.73354	2256.65
770.62254	2239.15
774.50882	2191.65
778.39237	2155.85
782.27321	2117.95
786.15132	2100.45
790.02671	2074.85
793.89938	2076.95
797.76935	2065.15
801.6366	2057.15
805.50115	2056.25
809.36299	2056.95
813.22213	2055.75
817.07857	2042.05
820.93231	2040.35
824.78336	2011.65
828.63172	1983.95
832.47738	1978.55
836.32036	1952.65
840.16066	1952.85
843.99827	1949.15
847.8332	1955.35
851.66546	1963.85
855.49504	1968.55
859.32195	1977.95
863.1462	1985.55
866.96777	1986.15
870.78668	1993.55
874.60293	1997.35
878.41652	1994.05
882.22745	1992.75
886.03573	2000.05
889.84136	1994.25
893.64433	2017.25
897.44466	2021.75
901.24235	2024.65
905.0374	2029.85
908.8298	2040.55
912.61957	2039.45
916.40671	2054.85
920.19121	2064.65
923.97308	2074.55
927.75233	2061.55
931.52895	2059.65
935.30295	2042.85
939.07433	2027.35
942.84309	2001.25
946.60924	1977.35
950.37278	1970.45
954.13371	1973.85
957.89203	1969.85
961.64774	1968.15
965.40086	1968.25
969.15137	1973.25
972.89929	1959.55
976.64461	1958.75
980.38733	1950.45
984.12747	1960.95
987.86502	1962.25
991.59999	1954.15
995.33237	1964.15
999.06217	1959.45
1002.78939	1975.15
1006.51404	1981.35
1010.23611	1996.45
1013.95561	2014.65
1017.67255	2024.75
1021.38692	2033.65
1025.09872	2036.65
1028.80796	2037.95
1032.51465	2053.65
1036.21877	2068.25
1039.92035	2092.25
1043.61937	2107.95
1047.31584	2140.95
1051.00976	2153.45
1054.70114	2156.15
1058.38998	2148.55
1062.07627	2135.65
1065.76003	2139.35
1069.44126	2115.05
1073.11995	2123.85
1076.79611	2125.75
1080.46974	2106.15
1084.14085	2099.25
1087.80943	2080.55
1091.47549	2085.55
1095.13903	2091.75
1098.80005	2058.45
1102.45857	2054.65
1106.11456	2037.75
1109.76805	2018.35
1113.41903	2009.45
1117.06751	2004.85
1120.71348	2020.65
1124.35696	2049.45
1127.99793	2061.05
1131.63641	2086.95
1135.2724	2092.55
1138.90589	2121.25
1142.5369	2124.35
1146.16542	2128.95
1149.79145	2133.95
1153.415	2138.55
1157.03607	2155.75
1160.65467	2175.15
1164.27079	2187.45
1167.88443	2229.35
1171.49561	2252.15
1175.10432	2301.75
1178.71056	2330.45
1182.31434	2382.55
1185.91565	2412.05
1189.51451	2440.85
1193.11091	2454.85
1196.70485	2459.75
1200.29634	2431.85
1203.88538	2417.25
1207.47197	2395.65
1211.05612	2372.15
1214.63782	2349.95
1218.21708	2335.95
1221.79391	2322.35
1225.36829	2331.45
1228.94024	2335.55
1232.50976	2365.25
1236.07685	2399.95
1239.6415	2419.75
1243.20374	2462.65
1246.76355	2508.15
1250.32093	2537.25
1253.8759	2559.75
1257.42845	2606.55
1260.97859	2624.75
1264.52631	2677.75
1268.07163	2699.35
1271.61453	2686.55
1275.15503	2712.15
1278.69312	2719.65
1282.22882	2713.05
1285.76211	2741.65
1289.29301	2784.35
1292.82151	2818.65
1296.34761	2877.75
1299.87133	2955.95
1303.39266	3025.55
1306.9116	3103.45
1310.42815	3171.45
1313.94233	3245.55
1317.45412	3278.25
1320.96354	3303.25
1324.47058	3318.05
1327.97525	3337.35
1331.47754	3354.15
1334.97747	3381.25
1338.47502	3395.45
1341.97022	3394.55
1345.46305	3360.75
1348.95352	3323.25
1352.44163	3301.05
1355.92738	3266.45
1359.41078	3263.15
1362.89183	3263.85
1366.37053	3247.25
1369.84688	3240.25
1373.32088	3200.75
1376.79254	3165.05
1380.26186	3126.05
1383.72883	3101.85
1387.19347	3072.15
1390.65578	3033.75
1394.11575	2986.75
1397.57339	2924.85
1401.0287	2880.45
1404.48168	2807.75
1407.93234	2766.85
1411.38068	2683.05
1414.82669	2586.05
1418.27039	2468.75
1421.71177	2399.55
1425.15083	2325.25
1428.58758	2298.95
1432.02203	2285.95
1435.45416	2302.15
1438.88399	2326.25
1442.31151	2360.45
1445.73673	2398.65
1449.15965	2468.25
1452.58027	2500.55
1455.9986	2523.15
1459.41463	2541.65
1462.82837	2531.05
1466.23982	2505.15
1469.64898	2458.45
1473.05586	2425.75
1476.46045	2375.65
1479.86276	2352.95
1483.26279	2319.65
1486.66054	2298.75
1490.05602	2280.95
1493.44922	2296.45
1496.84016	2310.25
1500.22882	2319.05
1503.61521	2346.05
1506.99934	2346.55
1510.38121	2366.85
1513.76081	2381.95
1517.13816	2385.75
1520.51324	2390.25
1523.88607	2410.75
1527.25665	2424.45
1530.62498	2443.35
1533.99105	2489.85
1537.35488	2499.85
1540.71647	2510.25
1544.07581	2505.55
1547.4329	2474.95
1550.78776	2456.15
1554.14038	2429.95
1557.49077	2412.55
1560.83892	2404.55
1564.18484	2404.05
1567.52853	2394.95
1570.86999	2396.05
1574.20922	2428.65
1577.54624	2422.65
1580.88103	2426.75
1584.2136	2443.55
1587.54395	2462.55
1590.87208	2486.55
1594.19801	2503.15
1597.52172	2507.85
1600.84321	2483.95
1604.16251	2445.15
1607.47959	2382.45
1610.79447	2297.45
1614.10715	2245.65
1617.41763	2182.05
1620.7259	2130.25
1624.03199	2104.35
1627.33587	2081.85
1630.63757	2083.65
1633.93707	2091.25
1637.23439	2114.85
1640.52951	2159.95
1643.82246	2227.65
1647.11321	2262.45
1650.40179	2291.25
1653.68819	2268.35
1656.97241	2223.75
1660.25446	2129.95
1663.53433	2068.75
1666.81203	2007.15
1670.08756	1966.25
1673.36092	1935.65
1676.63211	1918.35
1679.90115	1904.45
1683.16801	1886.55
1686.43272	1869.15
1689.69527	1855.25
1692.95567	1842.95
1696.2139	1817.05
1699.46999	1806.65
1702.72392	1790.15
1705.97571	1759.45
1709.22535	1757.25
1712.47284	1731.45
1715.71819	1707.25
1718.96139	1707.25
1722.20246	1691.55
1725.44139	1689.95
1728.67818	1682.95
1731.91284	1681.65
1735.14537	1669.25
1738.37576	1681.15
1741.60403	1675.95
1744.83017	1698.05
1748.05418	1732.25
1751.27607	1786.35
1754.49584	1855.85
1757.71349	1902.35
1760.92903	1917.75
1764.14244	1910.45
1767.35375	1860.55
1770.56294	1778.35
1773.77002	1716.25
1776.97499	1654.15
1780.17785	1602.75
1783.37861	1572.45
1786.57727	1534.85
1789.77382	1511.35
1792.96828	1486.05
1796.16064	1448.35
1799.3509	1432.15
1802.53907	1411.75
1805.72514	1400.05
1808.90913	1382.95
1812.09102	1374.95
1815.27083	1362.15
1818.44856	1351.25
1821.6242	1349.05
1824.79776	1334.35
1827.96924	1338.65
1831.13864	1323.85
1834.30597	1327.85
1837.47122	1329.25
1840.6344	1326.05
1843.7955	1320.85
1846.95454	1324.35
1850.11151	1319.45
1853.26642	1316.45
1856.41926	1314.95
1859.57004	1307.95
1862.71876	1311.95
1865.86542	1309.05
1869.01003	1314.55
1872.15258	1314.95
1875.29308	1315.95
1878.43152	1319.95
1881.56792	1315.45
1884.70227	1308.15
1887.83457	1301.55
1890.96482	1312.85
1894.09304	1319.15
1897.21921	1311.85
1900.34335	1323.95
1903.46544	1315.15
1906.58551	1322.15
1909.70353	1318.65
1912.81953	1325.15
1915.93349	1329.55
1919.04543	1320.45
1922.15534	1323.35
1925.26322	1311.75
1928.36908	1323.75
1931.47292	1333.95
1934.57473	1330.25
1937.67453	1332.15
1940.77232	1329.15
1943.86808	1322.55
1946.96184	1320.15
1950.05358	1316.15
1953.14331	1315.15
1956.23103	1310.35
1959.31675	1306.45
1962.40046	1299.75
1965.48217	1294.05
1968.56188	1291.95
1971.63959	1280.85
1974.7153	1278.15
1977.78901	1268.15
1980.86073	1260.95
1983.93046	1251.45
1986.99819	1249.05
1990.06394	1228.25
1993.1277	1224.45
1996.18947	1215.75
1999.24925	1206.65
2002.30706	1191.45
2005.36288	1194.35
2008.41672	1182.45
2011.46859	1181.75
2014.51848	1172.55
2017.56639	1166.55
2020.61233	1154.65
2023.6563	1147.45
2026.6983	1147.05
2029.73833	1145.95
2032.7764	1137.45
2035.8125	1137.95
2038.84664	1128.85
2041.87881	1131.65
2044.90903	1123.45
2047.93729	1135.25
2050.96359	1117.95
2053.98794	1124.45
2057.01034	1125.95
2060.03078	1121.15
2063.04927	1132.05
2066.06582	1136.65
2069.08042	1133.25
2072.09307	1144.95
2075.10378	1155.35
2078.11255	1156.95
2081.11938	1171.05
2084.12426	1170.55
2087.12722	1176.65
2090.12824	1179.65
2093.12732	1185.45
2096.12447	1197.75
2099.11969	1201.15
2102.11299	1218.75
2105.10435	1221.25
2108.09379	1229.85
2111.08131	1229.75
2114.0669	1230.75
2117.05057	1241.95
2120.03233	1238.55
2123.01216	1242.55
2125.99008	1243.45
2128.96609	1235.55
2131.94018	1237.55
2134.91236	1219.05
2137.88263	1220.35
2140.851	1217.35
2143.81746	1207.85
2146.78201	1198.65
2149.74466	1188.65
2152.7054	1171.05
2155.66425	1172.25
2158.6212	1166.25
2161.57625	1149.75
2164.52941	1140.15
2167.48067	1145.15
2170.43004	1124.75
2173.37752	1111.85
2176.32311	1114.15
2179.26681	1108.95
2182.20863	1094.45
2185.14856	1089.35
2188.08661	1082.35
2191.02278	1071.65
2193.95707	1082.05
2196.88948	1071.45
2199.82001	1068.45
2202.74867	1072.15
2205.67545	1064.75
2208.60037	1060.75
2211.52341	1060.05
2214.44458	1054.35
2217.36388	1055.15
2220.28132	1055.15
2223.1969	1048.05
2226.11061	1044.15
2229.02246	1035.95
2231.93245	1035.95
2234.84058	1032.05
2237.74686	1032.15
2240.65128	1024.85
2243.55385	1022.85
2246.45456	1023.55
2249.35343	1023.75
2252.25044	1026.35
2255.14561	1026.05
2258.03893	1012.55
2260.93041	1018.15
2263.82004	1002.75
2266.70783	1018.85
2269.59378	1008.35
2272.4779	998.55
2275.36017	1006.85
2278.24061	997.65
2281.11922	992.55
2283.996	999.75
2286.87094	987.55
2289.74405	985.25
2292.61534	986.95
2295.4848	979.85
2298.35243	979.25
2301.21824	978.45
2304.08223	983.55
2306.94439	985.05
2309.80474	977.15
2312.66327	977.45
2315.51999	977.65
2318.37489	978.85
2321.22797	969.55
2324.07925	971.45
2326.92871	970.35
2329.77637	976.35
2332.62222	973.35
2335.46626	964.95
2338.3085	962.35
2341.14893	954.75
2343.98756	956.65
2346.8244	962.65
2349.65943	959.95
2352.49267	961.95
2355.32411	946.35
2358.15376	945.95
2360.98161	953.15
2363.80768	954.55
2366.63195	943.25
2369.45444	948.85
2372.27514	938.85
2375.09405	948.55
2377.91118	947.15
2380.72652	943.85
2383.54009	939.75
2386.35187	927.55
2389.16188	933.15
2391.97011	936.05
2394.77657	939.15
2397.58125	929.35
2400.38416	932.55
2403.18529	934.55
2405.98466	929.65
2408.78226	917.85
2411.57809	927.45
2414.37216	923.85
2417.16446	925.45
2419.955	918.95
2422.74378	927.15
2425.5308	920.65
2428.31606	912.75
2431.09956	917.25
2433.88131	918.75
2436.6613	912.35
2439.43954	914.55
2442.21603	915.05
2444.99077	912.95
2447.76377	908.75
2450.53501	909.15
2453.30451	901.45
2456.07226	911.85
2458.83827	901.35
2461.60254	901.85
2464.36507	904.25
2467.12586	899.75
2469.88492	899.25
2472.64224	897.85
2475.39782	892.05
2478.15167	897.25
2480.90379	893.45
2483.65417	890.55
2486.40283	888.15
2489.14976	895.05
2491.89497	890.55
2494.63845	895.35
2497.3802	893.45
2500.12024	887.05
2502.85855	886.35
2505.59514	886.75
2508.33002	884.65
2511.06318	883.65
2513.79462	888.35
2516.52435	878.05
2519.25237	869.05
2521.97867	881.15
2524.70327	882.45
2527.42616	875.25
2530.14734	876.55
2532.86681	876.05
2535.58458	879.65
2538.30065	875.95
2541.01501	874.65
2543.72768	868.35
2546.43864	872.35
2549.14791	867.95
2551.85548	861.15
2554.56136	864.35
2557.26554	862.75
2559.96803	862.35
2562.66883	856.15
2565.36794	854.95
2568.06536	857.85
2570.7611	853.95
2573.45514	851.85
2576.14751	853.75
2578.83819	855.75
2581.52719	849.75
2584.21451	852.35
2586.90015	844.45
2589.58411	842.85
2592.2664	847.45
2594.94701	845.25
2597.62594	841.55
2600.30321	843.05
2602.9788	841.45
2605.65273	844.35
2608.32498	841.35
2610.99557	845.55
2613.66449	837.85
2616.33175	845.95
2618.99734	838.45
2621.66128	835.55
2624.32355	838.95
2626.98416	843.55
2629.64311	840.75
2632.30041	829.45
2634.95605	833.05
2637.61004	836.85
2640.26238	839.85
2642.91306	828.85
2645.56209	838.35
2648.20948	833.45
2650.85521	835.65
2653.4993	828.55
2656.14175	828.25
2658.78255	824.05
2661.42171	833.75
2664.05923	827.95
2666.6951	832.75
2669.32934	822.95
2671.96194	837.75
2674.59291	839.05
2677.22224	831.65
2679.84993	831.85
2682.476	826.35
2685.10043	834.85
2687.72324	832.05
2690.34441	831.25
2692.96396	830.65
2695.58188	830.55
2698.19818	829.55
2700.81285	832.85
2703.4259	837.55
2706.03733	826.75
2708.64714	835.55
2711.25533	830.05
2713.86191	825.15
2716.46687	826.75
2719.07021	837.95
2721.67194	829.75
2724.27206	834.65
2726.87057	831.45
2729.46747	827.75
2732.06276	824.45
2734.65644	826.55
2737.24852	825.15
2739.83899	829.15
2742.42786	820.25
2745.01513	816.35
2747.60079	817.15
2750.18486	810.65
2752.76733	816.65
2755.3482	818.65
2757.92747	812.55
2760.50515	812.25
2763.08123	809.35
2765.65573	809.85
2768.22863	807.75
2770.79994	809.05
2773.36967	804.25
2775.9378	805.65
2778.50435	801.55
2781.06932	804.15
2783.6327	799.15
2786.1945	804.55
2788.75471	795.05
2791.31335	790.95
2793.87041	793.05
2796.42589	792.75
2798.97979	788.55
2801.53212	785.55
2804.08288	783.95
2806.63206	787.15
2809.17967	782.45
2811.72571	769.95
2814.27018	776.35
2816.81308	773.45
2819.35442	772.45
2821.89419	774.55
2824.43239	773.15
2826.96904	769.25
2829.50412	773.35
2832.03763	764.55
2834.56959	774.65
2837.1	761.15
2839.62884	766.85
2842.15613	766.85
2844.68186	771.25
2847.20604	760.35
2849.72867	765.25
2852.24974	773.45
2854.76927	767.25
2857.28724	768.05
2859.80367	771.25
2862.31855	760.55
2864.83189	763.25
2867.34368	766.25
2869.85393	758.55
2872.36264	763.15
2874.8698	756.05
2877.37543	754.55
2879.87952	760.75
2882.38207	761.75
2884.88308	767.25
2887.38256	770.65
2889.88051	763.65
2892.37692	764.45
2894.8718	764.35
2897.36515	771.45
2899.85698	772.75
2902.34727	776.25
2904.83604	780.35
2907.32328	783.85
2909.809	790.65
2912.29319	788.15
2914.77587	797.05
2917.25702	789.95
2919.73665	797.75
2922.21476	798.15
2924.69136	800.05
2927.16644	810.45
2929.64	815.45
2932.11205	819.75
2934.58258	816.35
2937.05161	826.85
2939.51912	835.35
2941.98513	841.15
2944.44962	854.95
2946.91261	862.15
2949.37409	872.15
2951.83407	882.15
2954.29254	878.35
2956.74951	874.75
2959.20498	874.75
2961.65895	864.85
2964.11142	854.85
2966.56239	842.65
2969.01186	835.15
2971.45984	818.05
2973.90632	821.15
2976.35131	810.05
2978.7948	799.85
2981.23681	795.35
2983.67732	794.25
2986.11635	794.65
2988.55388	791.55
2990.98993	792.45
2993.4245	793.45
2995.85758	793.25
2998.28917	795.75
3000.71928	788.05
3003.14791	790.15
3005.57506	789.55
3008.00073	787.25
3010.42493	799.95
3012.84764	797.75
3015.26888	797.35
3017.68865	799.05
3020.10694	798.15
3022.52376	798.25
3024.9391	799.85
3027.35298	806.85
3029.76539	799.05
3032.17632	801.95
3034.5858	800.15
3036.9938	800.55
3039.40034	796.05
3041.80542	802.45
3044.20903	795.95
3046.61118	801.55
3049.01187	804.45
3051.4111	795.75
3053.80888	798.35
3056.20519	798.35
3058.60005	807.75
3060.99345	808.15
3063.3854	801.55
3065.7759	805.35
3068.16494	805.75
3070.55254	808.45
3072.93868	806.15
3075.32338	812.95
3077.70662	817.05
3080.08842	815.35
3082.46878	821.25
3084.84769	823.65
3087.22515	831.55
3089.60118	823.05
3091.97576	833.15
3094.3489	845.75
3096.72061	839.95
3099.09087	849.75
3101.4597	845.25
3103.82709	861.35
3106.19305	872.25
3108.55757	877.45
3110.92066	870.45
3113.28232	844.15
3115.64255	872.15
3118.00134	886.45
3120.35871	891.85
3122.71466	898.45
3125.06917	894.55
3127.42226	900.45
3129.77393	897.95
3132.12417	913.35
3134.47299	917.95
3136.82039	925.55
3139.16636	930.75
3141.51092	935.45
3143.85406	941.25
3146.19579	943.75
3148.53609	955.85
3150.87499	965.65
3153.21246	967.95
3155.54853	979.95
3157.88318	977.85
3160.21642	988.65
3162.54826	987.75
3164.87868	1003.95
3167.2077	1017.55
3169.5353	1019.55
3171.86151	1023.55
3174.18631	1027.05
3176.5097	1036.45
3178.83169	1042.45
3181.15228	1048.75
3183.47147	1051.65
3185.78926	1053.75
3188.10565	1060.45
3190.42065	1062.65
3192.73424	1066.05
3195.04645	1078.55
3197.35725	1081.25
3199.66667	1086.55
3201.97469	1091.85
3204.28132	1092.15
3206.58656	1094.75
3208.8904	1102.15
3211.19287	1107.25
3213.49394	1116.65
3215.79363	1116.25
3218.09193	1124.05
3220.38884	1123.95
3222.68438	1132.95
3224.97853	1131.75
3227.2713	1140.75
3229.56269	1144.05
3231.8527	1143.35
3234.14133	1140.15
3236.42858	1135.05
3238.71446	1134.35
3240.99896	1139.75
3243.28209	1143.55
3245.56384	1143.85
3247.84423	1138.05
3250.12324	1140.25
3252.40088	1145.45
3254.67715	1143.55
3256.95205	1150.05
3259.22558	1143.65
3261.49775	1144.65
3263.76855	1144.65
3266.03799	1154.75
3268.30606	1150.95
3270.57277	1157.35
3272.83812	1160.05
3275.10211	1150.05
3277.36474	1146.85
