Data from AgNPs_APTES_FTO_UA_100uM_CRN_0uM_R6G_10uM_Scan_RamanShift__82__12-15-21-340.txt Node

Date: Wed Jun 29 12:15:21 BST 2022
User: TCL
Spectrometer: QEP01345
Trigger mode: 4
Integration Time (sec): 7.000000E0
Scans to average: 10
Electric dark correction enabled: true
Nonlinearity correction enabled: false
Boxcar width: 0
XAxis mode: Raman Shifts
Number of Pixels in Spectrum: 1044
>>>>>Begin Spectral Data<<<<<
46.04893	-0.4375
50.45542	1.1625
54.85868	-0.1375
59.25871	1.1625
63.6555	42.6625
68.04907	44.7625
72.43941	48.3625
76.82654	46.2625
81.21044	53.6625
85.59113	55.6625
89.96862	55.1625
94.34289	59.6625
98.71396	61.5625
103.08183	64.1625
107.4465	58.3625
111.80798	66.5625
116.16626	62.1625
120.52136	59.2625
124.87327	58.3625
129.222	61.2625
133.56755	60.6625
137.90993	57.3625
142.24913	58.4625
146.58517	59.1625
150.91804	59.4625
155.24774	60.5625
159.57429	65.0625
163.89768	71.5625
168.21792	77.0625
172.53501	91.2625
176.84895	107.3625
181.15975	141.1625
185.46741	176.9625
189.77193	241.4625
194.07331	304.6625
198.37157	383.7625
202.6667	468.2625
206.9587	541.3625
211.24758	629.8625
215.53334	701.6625
219.81599	779.7625
224.09553	865.5625
228.37195	961.5625
232.64527	1056.4625
236.91549	1170.8625
241.18261	1279.3625
245.44663	1413.8625
249.70755	1528.8625
253.96539	1637.9625
258.22014	1716.7625
262.4718	1791.7625
266.72039	1835.2625
270.96589	1859.1625
275.20832	1845.1625
279.44768	1843.2625
283.68397	1809.6625
287.91719	1800.1625
292.14735	1777.2625
296.37445	1744.7625
300.59849	1726.4625
304.81948	1712.2625
309.03742	1704.8625
313.25231	1693.1625
317.46415	1701.2625
321.67296	1697.7625
325.87872	1714.3625
330.08145	1727.5625
334.28114	1738.2625
338.47781	1766.1625
342.67145	1780.4625
346.86207	1802.0625
351.04966	1821.4625
355.23424	1852.3625
359.4158	1875.5625
363.59435	1893.8625
367.76989	1930.7625
371.94243	1956.2625
376.11196	1973.2625
380.27849	1990.5625
384.44203	2029.0625
388.60257	2058.1625
392.76012	2077.8625
396.91468	2094.4625
401.06626	2115.4625
405.21485	2143.8625
409.36047	2166.0625
413.50311	2205.2625
417.64277	2208.5625
421.77947	2238.7625
425.9132	2265.7625
430.04396	2290.5625
434.17176	2315.6625
438.2966	2339.6625
442.41849	2350.3625
446.53742	2367.2625
450.6534	2373.6625
454.76644	2399.3625
458.87653	2419.8625
462.98368	2433.1625
467.08789	2446.7625
471.18916	2463.9625
475.2875	2476.8625
479.38291	2496.9625
483.4754	2501.3625
487.56496	2525.2625
491.6516	2534.3625
495.73531	2547.6625
499.81612	2556.9625
503.89401	2545.9625
507.96899	2563.1625
512.04106	2568.4625
516.11023	2585.5625
520.1765	2594.7625
524.23987	2598.4625
528.30034	2622.6625
532.35792	2652.8625
536.41261	2681.0625
540.46441	2701.1625
544.51333	2734.6625
548.55936	2749.9625
552.60252	2766.9625
556.64279	2791.2625
560.6802	2798.2625
564.71473	2805.4625
568.7464	2814.4625
572.7752	2822.2625
576.80114	2832.6625
580.82422	2841.2625
584.84444	2827.3625
588.86181	2837.9625
592.87633	2854.2625
596.888	2860.8625
600.89682	2866.8625
604.9028	2885.2625
608.90594	2906.8625
612.90624	2922.7625
616.90371	2929.2625
620.89834	2916.0625
624.89015	2924.4625
628.87913	2940.4625
632.86528	2935.7625
636.84862	2944.5625
640.82913	2949.4625
644.80683	2980.2625
648.78172	2982.6625
652.75379	2993.1625
656.72306	2999.7625
660.68952	3015.1625
664.65319	3028.2625
668.61405	3043.4625
672.57211	3062.4625
676.52738	3078.2625
680.47986	3087.9625
684.42955	3107.8625
688.37646	3107.3625
692.32058	3134.2625
696.26192	3155.9625
700.20048	3184.5625
704.13626	3184.4625
708.06928	3208.8625
711.99952	3209.5625
715.927	3227.9625
719.85171	3225.9625
723.77365	3225.8625
727.69284	3247.4625
731.60928	3243.8625
735.52295	3256.4625
739.43388	3264.1625
743.34206	3265.2625
747.24749	3287.9625
751.15017	3303.9625
755.05012	3285.8625
758.94733	3311.6625
762.8418	3343.2625
766.73354	3366.4625
770.62254	3365.7625
774.50882	3402.3625
778.39237	3407.9625
782.27321	3416.6625
786.15132	3435.9625
790.02671	3441.1625
793.89938	3452.8625
797.76935	3448.7625
801.6366	3462.3625
805.50115	3473.0625
809.36299	3491.6625
813.22213	3495.6625
817.07857	3501.3625
820.93231	3514.4625
824.78336	3530.5625
828.63172	3551.3625
832.47738	3561.4625
836.32036	3558.2625
840.16066	3579.3625
843.99827	3597.5625
847.8332	3598.6625
851.66546	3619.7625
855.49504	3629.6625
859.32195	3655.4625
863.1462	3662.6625
866.96777	3680.6625
870.78668	3716.8625
874.60293	3727.2625
878.41652	3746.4625
882.22745	3757.8625
886.03573	3765.0625
889.84136	3782.7625
893.64433	3789.6625
897.44466	3822.3625
901.24235	3840.6625
905.0374	3849.4625
908.8298	3881.3625
912.61957	3880.5625
916.40671	3877.7625
920.19121	3898.4625
923.97308	3915.8625
927.75233	3913.9625
931.52895	3930.4625
935.30295	3931.7625
939.07433	3954.9625
942.84309	3957.8625
946.60924	3978.6625
950.37278	3980.1625
954.13371	3993.5625
957.89203	3993.7625
961.64774	4007.0625
965.40086	3994.7625
969.15137	4001.2625
972.89929	4008.8625
976.64461	4029.3625
980.38733	4043.6625
984.12747	4056.0625
987.86502	4069.9625
991.59999	4088.3625
995.33237	4096.8625
999.06217	4127.2625
1002.78939	4139.5625
1006.51404	4153.0625
1010.23611	4173.2625
1013.95561	4185.8625
1017.67255	4215.0625
1021.38692	4227.8625
1025.09872	4243.9625
1028.80796	4262.4625
1032.51465	4279.7625
1036.21877	4314.0625
1039.92035	4326.1625
1043.61937	4353.4625
1047.31584	4362.7625
1051.00976	4387.2625
1054.70114	4418.9625
1058.38998	4427.1625
1062.07627	4466.2625
1065.76003	4501.3625
1069.44126	4505.5625
1073.11995	4535.0625
1076.79611	4565.1625
1080.46974	4583.4625
1084.14085	4604.9625
1087.80943	4616.9625
1091.47549	4613.2625
1095.13903	4642.1625
1098.80005	4652.2625
1102.45857	4649.5625
1106.11456	4680.8625
1109.76805	4674.7625
1113.41903	4694.3625
1117.06751	4687.0625
1120.71348	4706.0625
1124.35696	4725.9625
1127.99793	4730.6625
1131.63641	4742.2625
1135.2724	4749.8625
1138.90589	4734.2625
1142.5369	4746.3625
1146.16542	4755.9625
1149.79145	4757.7625
1153.415	4772.6625
1157.03607	4763.0625
1160.65467	4779.9625
1164.27079	4784.9625
1167.88443	4804.8625
1171.49561	4816.0625
1175.10432	4843.3625
1178.71056	4871.1625
1182.31434	4907.7625
1185.91565	4936.9625
1189.51451	4941.7625
1193.11091	4933.0625
1196.70485	4959.8625
1200.29634	4972.0625
1203.88538	5002.1625
1207.47197	4987.4625
1211.05612	5012.0625
1214.63782	4994.9625
1218.21708	5031.1625
1221.79391	5033.8625
1225.36829	5051.5625
1228.94024	5054.5625
1232.50976	5044.4625
1236.07685	5084.9625
1239.6415	5127.3625
1243.20374	5135.5625
1246.76355	5158.9625
1250.32093	5193.5625
1253.8759	5201.9625
1257.42845	5215.3625
1260.97859	5223.9625
1264.52631	5241.0625
1268.07163	5253.4625
1271.61453	5234.2625
1275.15503	5257.1625
1278.69312	5263.5625
1282.22882	5258.4625
1285.76211	5262.6625
1289.29301	5280.1625
1292.82151	5303.9625
1296.34761	5303.7625
1299.87133	5345.5625
1303.39266	5337.6625
1306.9116	5384.2625
1310.42815	5384.2625
1313.94233	5399.9625
1317.45412	5404.3625
1320.96354	5409.2625
1324.47058	5417.9625
1327.97525	5410.7625
1331.47754	5413.8625
1334.97747	5378.9625
1338.47502	5388.8625
1341.97022	5396.9625
1345.46305	5385.0625
1348.95352	5403.5625
1352.44163	5394.3625
1355.92738	5416.7625
1359.41078	5439.4625
1362.89183	5434.2625
1366.37053	5431.9625
1369.84688	5426.7625
1373.32088	5402.8625
1376.79254	5408.7625
1380.26186	5382.9625
1383.72883	5378.5625
1387.19347	5368.8625
1390.65578	5353.4625
1394.11575	5348.6625
1397.57339	5317.3625
1401.0287	5319.2625
1404.48168	5329.8625
1407.93234	5318.9625
1411.38068	5313.1625
1414.82669	5319.1625
1418.27039	5335.4625
1421.71177	5349.8625
1425.15083	5342.6625
1428.58758	5351.4625
1432.02203	5352.8625
1435.45416	5349.0625
1438.88399	5375.4625
1442.31151	5332.6625
1445.73673	5359.8625
1449.15965	5363.5625
1452.58027	5362.4625
1455.9986	5378.9625
1459.41463	5381.4625
1462.82837	5401.1625
1466.23982	5418.9625
1469.64898	5436.3625
1473.05586	5450.0625
1476.46045	5467.0625
1479.86276	5479.7625
1483.26279	5507.4625
1486.66054	5525.1625
1490.05602	5553.6625
1493.44922	5576.7625
1496.84016	5591.5625
1500.22882	5618.4625
1503.61521	5647.5625
1506.99934	5663.9625
1510.38121	5675.4625
1513.76081	5708.9625
1517.13816	5713.1625
1520.51324	5736.5625
1523.88607	5740.4625
1527.25665	5757.1625
1530.62498	5784.3625
1533.99105	5812.2625
1537.35488	5824.0625
1540.71647	5867.4625
1544.07581	5880.2625
1547.4329	5904.3625
1550.78776	5943.0625
1554.14038	5965.8625
1557.49077	5995.8625
1560.83892	5992.2625
1564.18484	5994.6625
1567.52853	6038.2625
1570.86999	6038.4625
1574.20922	6055.3625
1577.54624	6057.8625
1580.88103	6061.2625
1584.2136	6083.8625
1587.54395	6099.4625
1590.87208	6122.4625
1594.19801	6118.9625
1597.52172	6141.7625
1600.84321	6169.2625
1604.16251	6161.7625
1607.47959	6189.4625
1610.79447	6172.6625
1614.10715	6185.7625
1617.41763	6192.8625
1620.7259	6199.4625
1624.03199	6195.3625
1627.33587	6196.8625
1630.63757	6197.6625
1633.93707	6189.4625
1637.23439	6220.8625
1640.52951	6225.5625
1643.82246	6256.3625
1647.11321	6252.5625
1650.40179	6275.5625
1653.68819	6296.1625
1656.97241	6306.5625
1660.25446	6315.2625
1663.53433	6306.7625
1666.81203	6317.0625
1670.08756	6314.9625
1673.36092	6313.3625
1676.63211	6324.1625
1679.90115	6301.4625
1683.16801	6299.7625
1686.43272	6295.4625
1689.69527	6305.3625
1692.95567	6328.3625
1696.2139	6326.8625
1699.46999	6392.8625
1702.72392	6382.2625
1705.97571	6379.8625
1709.22535	6390.3625
1712.47284	6375.1625
1715.71819	6390.5625
1718.96139	6416.6625
1722.20246	6421.8625
1725.44139	6394.4625
1728.67818	6403.5625
1731.91284	6433.8625
1735.14537	6417.7625
1738.37576	6434.2625
1741.60403	6456.9625
1744.83017	6437.5625
1748.05418	6451.4625
1751.27607	6490.7625
1754.49584	6486.0625
1757.71349	6502.6625
1760.92903	6522.8625
1764.14244	6533.0625
1767.35375	6518.5625
1770.56294	6523.1625
1773.77002	6528.2625
1776.97499	6520.9625
1780.17785	6558.0625
1783.37861	6548.7625
1786.57727	6561.3625
1789.77382	6551.7625
1792.96828	6562.5625
1796.16064	6575.3625
1799.3509	6573.5625
1802.53907	6574.9625
1805.72514	6574.1625
1808.90913	6588.2625
1812.09102	6613.2625
1815.27083	6587.0625
1818.44856	6591.1625
1821.6242	6595.9625
1824.79776	6585.2625
1827.96924	6601.2625
1831.13864	6613.4625
1834.30597	6624.9625
1837.47122	6619.8625
1840.6344	6636.0625
1843.7955	6667.2625
1846.95454	6670.3625
1850.11151	6708.6625
1853.26642	6709.4625
1856.41926	6714.0625
1859.57004	6735.1625
1862.71876	6735.2625
1865.86542	6739.4625
1869.01003	6739.8625
1872.15258	6758.2625
1875.29308	6730.7625
1878.43152	6734.1625
1881.56792	6749.3625
1884.70227	6756.1625
1887.83457	6771.0625
1890.96482	6788.0625
1894.09304	6789.7625
1897.21921	6784.4625
1900.34335	6800.6625
1903.46544	6804.9625
1906.58551	6809.5625
1909.70353	6830.6625
1912.81953	6806.2625
1915.93349	6835.3625
1919.04543	6838.3625
1922.15534	6827.9625
1925.26322	6838.1625
1928.36908	6861.6625
1931.47292	6870.0625
1934.57473	6865.7625
1937.67453	6860.8625
1940.77232	6864.2625
1943.86808	6861.3625
1946.96184	6862.4625
1950.05358	6877.6625
1953.14331	6830.6625
1956.23103	6842.7625
1959.31675	6859.5625
1962.40046	6830.6625
1965.48217	6819.2625
1968.56188	6824.7625
1971.63959	6821.5625
1974.7153	6818.2625
1977.78901	6816.3625
1980.86073	6835.4625
1983.93046	6816.0625
1986.99819	6789.6625
1990.06394	6795.3625
1993.1277	6787.9625
1996.18947	6791.7625
1999.24925	6808.8625
2002.30706	6779.9625
2005.36288	6782.2625
2008.41672	6762.7625
2011.46859	6770.8625
2014.51848	6752.4625
2017.56639	6779.0625
2020.61233	6746.2625
2023.6563	6776.0625
2026.6983	6766.3625
2029.73833	6750.9625
2032.7764	6740.4625
2035.8125	6741.5625
2038.84664	6714.1625
2041.87881	6735.5625
2044.90903	6729.8625
2047.93729	6751.6625
2050.96359	6759.5625
2053.98794	6768.0625
2057.01034	6756.6625
2060.03078	6772.1625
2063.04927	6767.4625
2066.06582	6781.2625
2069.08042	6796.0625
2072.09307	6803.4625
2075.10378	6827.7625
2078.11255	6841.4625
2081.11938	6859.6625
2084.12426	6843.2625
2087.12722	6862.3625
2090.12824	6869.2625
2093.12732	6906.2625
2096.12447	6924.9625
2099.11969	6917.1625
2102.11299	6921.0625
2105.10435	6939.1625
2108.09379	6962.8625
2111.08131	6960.7625
2114.0669	6960.2625
2117.05057	7010.8625
2120.03233	7038.6625
2123.01216	7077.1625
2125.99008	7087.6625
2128.96609	7089.5625
2131.94018	7104.9625
2134.91236	7122.0625
2137.88263	7190.1625
2140.851	7181.1625
2143.81746	7191.0625
2146.78201	7209.4625
2149.74466	7237.1625
2152.7054	7256.7625
2155.66425	7259.5625
2158.6212	7290.5625
2161.57625	7278.5625
2164.52941	7304.6625
2167.48067	7324.6625
2170.43004	7327.8625
2173.37752	7314.2625
2176.32311	7341.8625
2179.26681	7364.9625
2182.20863	7394.8625
2185.14856	7414.9625
2188.08661	7407.5625
2191.02278	7412.9625
2193.95707	7426.2625
2196.88948	7440.9625
2199.82001	7431.3625
2202.74867	7444.5625
2205.67545	7461.0625
2208.60037	7445.7625
2211.52341	7434.5625
2214.44458	7445.0625
2217.36388	7432.2625
2220.28132	7429.0625
2223.1969	7443.5625
2226.11061	7440.8625
2229.02246	7418.5625
2231.93245	7445.9625
2234.84058	7433.3625
2237.74686	7455.7625
2240.65128	7461.8625
2243.55385	7469.2625
2246.45456	7491.5625
2249.35343	7492.3625
2252.25044	7514.6625
2255.14561	7515.1625
2258.03893	7498.9625
2260.93041	7481.0625
2263.82004	7481.5625
2266.70783	7458.9625
2269.59378	7481.2625
2272.4779	7479.3625
2275.36017	7480.8625
2278.24061	7501.6625
2281.11922	7483.9625
2283.996	7497.3625
2286.87094	7508.0625
2289.74405	7513.8625
2292.61534	7521.5625
2295.4848	7514.1625
2298.35243	7515.6625
2301.21824	7538.2625
2304.08223	7534.8625
2306.94439	7542.3625
2309.80474	7548.7625
2312.66327	7545.7625
2315.51999	7597.2625
2318.37489	7587.3625
2321.22797	7565.6625
2324.07925	7583.0625
2326.92871	7578.4625
2329.77637	7591.2625
2332.62222	7563.9625
2335.46626	7559.6625
2338.3085	7575.1625
2341.14893	7569.4625
2343.98756	7587.3625
2346.8244	7596.9625
2349.65943	7603.4625
2352.49267	7579.5625
2355.32411	7576.9625
2358.15376	7602.4625
2360.98161	7626.2625
2363.80768	7617.4625
2366.63195	7652.4625
2369.45444	7634.2625
2372.27514	7646.1625
2375.09405	7646.7625
2377.91118	7653.3625
2380.72652	7642.7625
2383.54009	7638.7625
2386.35187	7661.3625
2389.16188	7660.4625
2391.97011	7652.5625
2394.77657	7632.6625
2397.58125	7643.6625
2400.38416	7647.9625
2403.18529	7626.1625
2405.98466	7628.5625
2408.78226	7630.4625
2411.57809	7639.2625
2414.37216	7646.4625
2417.16446	7643.5625
2419.955	7660.9625
2422.74378	7666.8625
2425.5308	7683.9625
2428.31606	7692.8625
2431.09956	7699.5625
2433.88131	7698.6625
2436.6613	7724.8625
2439.43954	7739.0625
2442.21603	7717.5625
2444.99077	7717.9625
2447.76377	7749.1625
2450.53501	7752.5625
2453.30451	7724.8625
2456.07226	7733.2625
2458.83827	7747.1625
2461.60254	7721.6625
2464.36507	7740.2625
2467.12586	7741.9625
2469.88492	7758.3625
2472.64224	7731.3625
2475.39782	7748.5625
2478.15167	7788.9625
2480.90379	7781.2625
2483.65417	7792.7625
2486.40283	7789.0625
2489.14976	7793.7625
2491.89497	7781.9625
2494.63845	7830.0625
2497.3802	7818.1625
2500.12024	7822.7625
2502.85855	7811.8625
2505.59514	7833.9625
2508.33002	7850.8625
2511.06318	7800.9625
2513.79462	7825.7625
2516.52435	7818.8625
2519.25237	7817.5625
2521.97867	7796.8625
2524.70327	7813.9625
2527.42616	7805.1625
2530.14734	7825.8625
2532.86681	7846.2625
2535.58458	7857.3625
2538.30065	7843.9625
2541.01501	7857.8625
2543.72768	7863.6625
2546.43864	7856.9625
2549.14791	7850.8625
2551.85548	7846.3625
2554.56136	7845.5625
2557.26554	7858.8625
2559.96803	7807.2625
2562.66883	7838.7625
2565.36794	7847.3625
2568.06536	7845.3625
2570.7611	7841.1625
2573.45514	7814.7625
2576.14751	7806.9625
2578.83819	7794.5625
2581.52719	7802.0625
2584.21451	7817.4625
2586.90015	7817.7625
2589.58411	7812.2625
2592.2664	7817.4625
2594.94701	7821.6625
2597.62594	7815.7625
2600.30321	7785.4625
2602.9788	7794.2625
2605.65273	7802.0625
2608.32498	7800.2625
2610.99557	7808.2625
2613.66449	7800.7625
2616.33175	7788.5625
2618.99734	7814.8625
2621.66128	7813.4625
2624.32355	7789.4625
2626.98416	7771.5625
2629.64311	7762.4625
2632.30041	7766.9625
2634.95605	7732.8625
2637.61004	7762.1625
2640.26238	7766.3625
2642.91306	7769.5625
2645.56209	7768.1625
2648.20948	7785.8625
2650.85521	7746.1625
2653.4993	7776.2625
2656.14175	7797.6625
2658.78255	7809.1625
2661.42171	7818.2625
2664.05923	7815.0625
2666.6951	7819.5625
2669.32934	7845.3625
2671.96194	7873.9625
2674.59291	7881.5625
2677.22224	7886.4625
2679.84993	7865.4625
2682.476	7846.0625
2685.10043	7908.8625
2687.72324	7896.1625
2690.34441	7876.5625
2692.96396	7888.8625
2695.58188	7878.2625
2698.19818	7935.2625
2700.81285	7946.5625
2703.4259	7953.3625
2706.03733	7945.0625
2708.64714	7946.4625
2711.25533	7967.2625
2713.86191	7958.2625
2716.46687	7966.5625
2719.07021	7961.3625
2721.67194	8007.4625
2724.27206	8010.2625
2726.87057	8037.8625
2729.46747	8065.6625
2732.06276	8058.1625
2734.65644	8043.1625
2737.24852	8059.8625
2739.83899	8088.5625
2742.42786	8097.0625
2745.01513	8114.2625
2747.60079	8104.0625
2750.18486	8061.7625
2752.76733	8080.7625
2755.3482	8080.4625
2757.92747	8076.0625
2760.50515	8037.5625
2763.08123	8056.1625
2765.65573	8034.0625
2768.22863	8050.0625
2770.79994	8052.5625
2773.36967	8044.5625
2775.9378	8022.6625
2778.50435	8032.6625
2781.06932	8048.6625
2783.6327	8063.5625
2786.1945	8060.1625
2788.75471	8060.2625
2791.31335	8052.7625
2793.87041	8044.2625
2796.42589	8034.3625
2798.97979	8034.5625
2801.53212	8018.9625
2804.08288	8022.0625
2806.63206	8005.4625
2809.17967	7967.4625
2811.72571	7971.2625
2814.27018	7964.3625
2816.81308	7943.5625
2819.35442	7930.4625
2821.89419	7951.3625
2824.43239	7929.3625
2826.96904	7913.4625
2829.50412	7930.0625
2832.03763	7901.6625
2834.56959	7921.5625
2837.1	7947.1625
2839.62884	7957.5625
2842.15613	7958.2625
2844.68186	7929.6625
2847.20604	7946.4625
2849.72867	7930.8625
2852.24974	7945.7625
2854.76927	7932.8625
2857.28724	7943.6625
2859.80367	7934.9625
2862.31855	7936.8625
2864.83189	7949.5625
2867.34368	7929.7625
2869.85393	7930.8625
2872.36264	7917.9625
2874.8698	7929.8625
2877.37543	7931.4625
2879.87952	7918.4625
2882.38207	7927.6625
2884.88308	7906.4625
2887.38256	7926.0625
2889.88051	7930.2625
2892.37692	7969.1625
2894.8718	7976.0625
2897.36515	8008.9625
2899.85698	8012.7625
2902.34727	8017.4625
2904.83604	8018.3625
2907.32328	8022.0625
2909.809	8044.1625
2912.29319	8062.9625
2914.77587	8082.1625
2917.25702	8053.6625
2919.73665	8078.5625
2922.21476	8068.9625
2924.69136	8066.0625
2927.16644	8047.9625
2929.64	8050.3625
2932.11205	8036.8625
2934.58258	8038.5625
2937.05161	8054.1625
2939.51912	8065.4625
2941.98513	8074.9625
2944.44962	8054.7625
2946.91261	8067.9625
2949.37409	8102.9625
2951.83407	8115.9625
2954.29254	8132.7625
2956.74951	8133.8625
2959.20498	8129.3625
2961.65895	8118.7625
2964.11142	8132.0625
2966.56239	8146.3625
2969.01186	8171.8625
2971.45984	8177.8625
2973.90632	8187.5625
2976.35131	8208.0625
2978.7948	8212.4625
2981.23681	8199.7625
2983.67732	8201.3625
2986.11635	8188.5625
2988.55388	8192.2625
2990.98993	8129.0625
2993.4245	8150.5625
2995.85758	8153.0625
2998.28917	8116.6625
3000.71928	8124.0625
3003.14791	8104.5625
3005.57506	8120.0625
3008.00073	8120.8625
3010.42493	8139.3625
3012.84764	8113.4625
3015.26888	8123.1625
3017.68865	8092.6625
3020.10694	8106.4625
3022.52376	8098.9625
3024.9391	8119.9625
3027.35298	8119.9625
3029.76539	8124.0625
3032.17632	8129.9625
3034.5858	8118.9625
3036.9938	8134.5625
3039.40034	8164.5625
3041.80542	8164.7625
3044.20903	8139.1625
3046.61118	8150.3625
3049.01187	8179.6625
3051.4111	8180.9625
3053.80888	8194.7625
3056.20519	8186.4625
3058.60005	8188.4625
3060.99345	8189.6625
3063.3854	8152.7625
3065.7759	8152.7625
3068.16494	8137.3625
3070.55254	8102.5625
3072.93868	8108.3625
3075.32338	8083.9625
3077.70662	8093.1625
3080.08842	8074.1625
3082.46878	8093.8625
3084.84769	8085.2625
3087.22515	8091.9625
3089.60118	8101.1625
3091.97576	8118.6625
3094.3489	8158.8625
3096.72061	8136.9625
3099.09087	8143.3625
3101.4597	8181.2625
3103.82709	8213.4625
3106.19305	8214.4625
3108.55757	8263.0625
3110.92066	8231.4625
3113.28232	8230.3625
3115.64255	8238.3625
3118.00134	8220.3625
3120.35871	8233.1625
3122.71466	8223.7625
3125.06917	8208.7625
3127.42226	8229.0625
