Data from AgNPs_FTO_APTES_UA_1uM_CRN_1uM_R6G_10uM_NaF_0.1M_Addition_RamanShift__16__12-30-49-499.txt Node

Date: Thu Jan 27 12:30:49 GMT 2022
User: TCL
Spectrometer: QEP01345
Trigger mode: 4
Integration Time (sec): 7.000000E0
Scans to average: 10
Electric dark correction enabled: true
Nonlinearity correction enabled: false
Boxcar width: 0
XAxis mode: Raman Shifts
Number of Pixels in Spectrum: 1044
>>>>>Begin Spectral Data<<<<<
46.04893	-0.525
50.45542	0.875
54.85868	-1.025
59.25871	-1.325
63.6555	58.575
68.04907	61.475
72.43941	67.275
76.82654	66.775
81.21044	68.275
85.59113	68.775
89.96862	73.875
94.34289	73.675
98.71396	81.775
103.08183	76.975
107.4465	82.975
111.80798	84.075
116.16626	85.775
120.52136	92.275
124.87327	92.075
129.222	92.275
133.56755	99.775
137.90993	109.975
142.24913	118.375
146.58517	130.275
150.91804	153.275
155.24774	175.175
159.57429	214.575
163.89768	279.175
168.21792	360.275
172.53501	497.175
176.84895	682.575
181.15975	958.575
185.46741	1351.275
189.77193	1849.475
194.07331	2483.275
198.37157	3192.475
202.6667	3969.075
206.9587	4693.975
211.24758	5441.875
215.53334	6183.975
219.81599	6966.975
224.09553	7851.775
228.37195	8823.975
232.64527	9885.975
236.91549	11033.775
241.18261	12180.475
245.44663	13205.775
249.70755	14147.675
253.96539	14924.975
258.22014	15591.475
262.4718	16144.175
266.72039	16570.375
270.96589	16769.375
275.20832	16778.275
279.44768	16610.175
283.68397	16432.275
287.91719	16230.575
292.14735	16101.875
296.37445	16108.775
300.59849	16183.575
304.81948	16345.675
309.03742	16405.575
313.25231	16344.875
317.46415	15941.775
321.67296	15437.875
325.87872	14982.675
330.08145	14792.275
334.28114	14775.475
338.47781	14921.875
342.67145	15105.175
346.86207	15427.575
351.04966	15780.775
355.23424	16220.475
359.4158	16583.975
363.59435	16851.075
367.76989	17013.375
371.94243	17165.375
376.11196	17234.575
380.27849	17303.375
384.44203	17391.375
388.60257	17474.675
392.76012	17579.575
396.91468	17795.075
401.06626	18040.075
405.21485	18267.775
409.36047	18147.175
413.50311	17854.475
417.64277	17506.375
421.77947	17371.275
425.9132	17364.275
430.04396	17417.675
434.17176	17474.075
438.2966	17606.275
442.41849	17836.475
446.53742	18245.875
450.6534	18661.775
454.76644	19033.375
458.87653	19169.475
462.98368	19113.475
467.08789	18865.575
471.18916	18618.275
475.2875	18356.975
479.38291	18141.975
483.4754	18018.075
487.56496	17876.275
491.6516	17738.775
495.73531	17616.875
499.81612	17622.075
503.89401	17722.375
507.96899	17795.675
512.04106	17802.775
516.11023	17777.075
520.1765	17725.175
524.23987	17649.575
528.30034	17498.475
532.35792	17301.275
536.41261	17077.675
540.46441	16863.775
544.51333	16825.375
548.55936	16965.275
552.60252	17261.675
556.64279	17614.175
560.6802	17830.875
564.71473	17883.875
568.7464	18039.675
572.7752	18343.375
576.80114	18622.075
580.82422	18831.175
584.84444	19181.175
588.86181	19399.175
592.87633	19579.575
596.888	19605.675
600.89682	19634.575
604.9028	20395.375
608.90594	22693.375
612.90624	25359.575
616.90371	24308.375
620.89834	20110.775
624.89015	18212.575
628.87913	17982.275
632.86528	17983.875
636.84862	17868.075
640.82913	17581.975
644.80683	17116.475
648.78172	16742.075
652.75379	16670.975
656.72306	16914.375
660.68952	17298.075
664.65319	17267.375
668.61405	16931.075
672.57211	16770.675
676.52738	16786.475
680.47986	16761.275
684.42955	16617.975
688.37646	16559.475
692.32058	16639.375
696.26192	16820.675
700.20048	17042.875
704.13626	17186.975
708.06928	17068.475
711.99952	16939.375
715.927	16878.075
719.85171	16959.875
723.77365	16938.875
727.69284	16746.175
731.60928	16564.375
735.52295	16543.875
739.43388	16546.875
743.34206	16602.075
747.24749	16682.775
751.15017	16802.675
755.05012	17061.575
758.94733	17502.975
762.8418	18335.175
766.73354	19773.675
770.62254	21292.075
774.50882	21942.075
778.39237	21216.575
782.27321	19684.875
786.15132	18280.475
790.02671	17454.775
793.89938	17044.175
797.76935	16902.175
801.6366	16788.675
805.50115	16753.775
809.36299	16628.575
813.22213	16496.775
817.07857	16405.475
820.93231	16329.575
824.78336	16301.875
828.63172	16308.375
832.47738	16324.175
836.32036	16351.875
840.16066	16470.375
843.99827	16521.975
847.8332	16545.375
851.66546	16425.375
855.49504	16353.175
859.32195	16381.275
863.1462	16327.375
866.96777	16270.275
870.78668	16235.375
874.60293	16230.175
878.41652	16227.375
882.22745	16299.175
886.03573	16402.975
889.84136	16406.175
893.64433	16350.175
897.44466	16270.475
901.24235	16163.775
905.0374	16124.475
908.8298	16067.775
912.61957	16052.375
916.40671	16186.275
920.19121	16368.175
923.97308	16597.575
927.75233	16720.975
931.52895	16761.675
935.30295	16669.175
939.07433	16375.775
942.84309	16076.075
946.60924	15974.875
950.37278	15935.875
954.13371	15887.775
957.89203	15761.375
961.64774	15719.075
965.40086	15651.275
969.15137	15611.175
972.89929	15573.675
976.64461	15574.375
980.38733	15584.675
984.12747	15693.675
987.86502	15859.975
991.59999	16082.475
995.33237	16445.775
999.06217	16965.275
1002.78939	17575.375
1006.51404	17865.075
1010.23611	18001.275
1013.95561	18059.475
1017.67255	18120.375
1021.38692	17916.175
1025.09872	17749.875
1028.80796	17916.975
1032.51465	18536.975
1036.21877	19187.375
1039.92035	19295.275
1043.61937	18928.875
1047.31584	18351.275
1051.00976	17791.675
1054.70114	17443.575
1058.38998	17372.375
1062.07627	17426.675
1065.76003	17479.075
1069.44126	17572.275
1073.11995	17785.175
1076.79611	18086.475
1080.46974	18266.475
1084.14085	18428.375
1087.80943	18605.275
1091.47549	18730.475
1095.13903	18672.275
1098.80005	18406.375
1102.45857	18031.075
1106.11456	17772.975
1109.76805	17672.875
1113.41903	17730.975
1117.06751	17850.175
1120.71348	18006.475
1124.35696	18162.775
1127.99793	18407.375
1131.63641	18540.175
1135.2724	18386.275
1138.90589	18166.475
1142.5369	17970.675
1146.16542	17848.375
1149.79145	17830.575
1153.415	17810.175
1157.03607	17906.775
1160.65467	18191.375
1164.27079	18806.875
1167.88443	19669.275
1171.49561	20867.075
1175.10432	22440.075
1178.71056	24442.675
1182.31434	26475.875
1185.91565	27619.975
1189.51451	27624.275
1193.11091	26653.575
1196.70485	25359.675
1200.29634	24066.475
1203.88538	23164.775
1207.47197	22389.575
1211.05612	21801.775
1214.63782	21365.875
1218.21708	21125.675
1221.79391	21058.275
1225.36829	21109.675
1228.94024	20934.275
1232.50976	20622.375
1236.07685	20329.275
1239.6415	20107.075
1243.20374	20053.275
1246.76355	20121.775
1250.32093	20418.475
1253.8759	20880.375
1257.42845	21508.475
1260.97859	22109.375
1264.52631	22717.075
1268.07163	23409.375
1271.61453	24163.175
1275.15503	24899.975
1278.69312	25671.975
1282.22882	26128.975
1285.76211	26462.575
1289.29301	26833.575
1292.82151	27321.475
1296.34761	28175.775
1299.87133	29440.275
1303.39266	31193.775
1306.9116	33466.375
1310.42815	35778.175
1313.94233	37196.375
1317.45412	37285.075
1320.96354	36212.575
1324.47058	34916.475
1327.97525	33750.775
1331.47754	32843.375
1334.97747	32278.175
1338.47502	31937.475
1341.97022	31790.775
1345.46305	31650.775
1348.95352	31583.975
1352.44163	31807.775
1355.92738	32777.075
1359.41078	34613.775
1362.89183	36501.475
1366.37053	36236.575
1369.84688	33209.475
1373.32088	29458.675
1376.79254	26700.075
1380.26186	25406.075
1383.72883	24972.875
1387.19347	24717.075
1390.65578	24230.475
1394.11575	23958.775
1397.57339	23940.075
1401.0287	24207.475
1404.48168	24502.075
1407.93234	24599.275
1411.38068	24457.575
1414.82669	24119.275
1418.27039	23546.675
1421.71177	22920.575
1425.15083	22349.275
1428.58758	22028.675
1432.02203	22144.175
1435.45416	22506.675
1438.88399	22996.775
1442.31151	23340.975
1445.73673	23575.175
1449.15965	23749.875
1452.58027	23808.075
1455.9986	23839.475
1459.41463	23974.775
1462.82837	24356.575
1466.23982	24918.075
1469.64898	25420.075
1473.05586	25721.175
1476.46045	25878.775
1479.86276	25728.275
1483.26279	25549.975
1486.66054	25432.275
1490.05602	25543.875
1493.44922	25828.675
1496.84016	26276.775
1500.22882	27064.275
1503.61521	28286.775
1506.99934	29774.175
1510.38121	31063.975
1513.76081	31433.375
1517.13816	30541.875
1520.51324	28798.475
1523.88607	27063.875
1527.25665	25822.275
1530.62498	25177.975
1533.99105	24837.375
1537.35488	24598.175
1540.71647	24399.175
1544.07581	24107.275
1547.4329	23827.075
1550.78776	23584.175
1554.14038	23485.175
1557.49077	23394.175
1560.83892	23353.075
1564.18484	23422.375
1567.52853	23625.575
1570.86999	23809.975
1574.20922	24066.175
1577.54624	24233.075
1580.88103	23947.075
1584.2136	23712.375
1587.54395	23961.775
1590.87208	24821.875
1594.19801	26344.675
1597.52172	28093.275
1600.84321	28834.775
1604.16251	27850.075
1607.47959	25868.475
1610.79447	23787.875
1614.10715	21928.575
1617.41763	20393.575
1620.7259	19366.675
1624.03199	18826.775
1627.33587	18823.275
1630.63757	19276.875
1633.93707	20265.275
1637.23439	21851.775
1640.52951	24060.775
1643.82246	26536.775
1647.11321	28489.575
1650.40179	29052.175
1653.68819	27523.475
1656.97241	24405.675
1660.25446	21230.375
1663.53433	18814.275
1666.81203	17334.775
1670.08756	16446.875
1673.36092	15884.975
1676.63211	15527.875
1679.90115	15264.275
1683.16801	15061.175
1686.43272	14921.975
1689.69527	14816.575
1692.95567	14678.275
1696.2139	14633.475
1699.46999	14564.175
1702.72392	14495.775
1705.97571	14506.275
1709.22535	14538.975
1712.47284	14520.875
1715.71819	14553.375
1718.96139	14501.975
1722.20246	14482.975
1725.44139	14437.875
1728.67818	14344.075
1731.91284	14270.375
1735.14537	14205.875
1738.37576	14159.575
1741.60403	14101.675
1744.83017	14061.275
1748.05418	13997.675
1751.27607	13959.075
1754.49584	13935.075
1757.71349	13921.475
1760.92903	13876.375
1764.14244	13900.575
1767.35375	13878.675
1770.56294	13865.975
1773.77002	13843.175
1776.97499	13841.575
1780.17785	13838.175
1783.37861	13826.675
1786.57727	13841.175
1789.77382	13824.875
1792.96828	13786.075
1796.16064	13780.075
1799.3509	13772.275
1802.53907	13733.275
1805.72514	13710.675
1808.90913	13640.675
1812.09102	13641.975
1815.27083	13611.875
1818.44856	13571.475
1821.6242	13589.675
1824.79776	13540.975
1827.96924	13551.975
1831.13864	13578.575
1834.30597	13573.075
1837.47122	13530.375
1840.6344	13593.075
1843.7955	13590.375
1846.95454	13585.775
1850.11151	13605.275
1853.26642	13586.775
1856.41926	13594.675
1859.57004	13594.775
1862.71876	13592.775
1865.86542	13565.475
1869.01003	13575.675
1872.15258	13580.775
1875.29308	13562.275
1878.43152	13533.975
1881.56792	13533.775
1884.70227	13522.475
1887.83457	13514.475
1890.96482	13489.675
1894.09304	13490.475
1897.21921	13452.975
1900.34335	13486.175
1903.46544	13472.575
1906.58551	13448.575
1909.70353	13443.675
1912.81953	13424.675
1915.93349	13379.175
1919.04543	13348.775
1922.15534	13301.775
1925.26322	13269.975
1928.36908	13238.175
1931.47292	13211.075
1934.57473	13180.375
1937.67453	13123.675
1940.77232	13082.475
1943.86808	13058.775
1946.96184	13011.675
1950.05358	12981.675
1953.14331	12921.175
1956.23103	12884.975
1959.31675	12877.375
1962.40046	12826.275
1965.48217	12771.375
1968.56188	12753.675
1971.63959	12720.375
1974.7153	12712.475
1977.78901	12647.675
1980.86073	12626.375
1983.93046	12598.675
1986.99819	12559.475
1990.06394	12474.575
1993.1277	12467.275
1996.18947	12411.475
1999.24925	12394.075
2002.30706	12352.375
2005.36288	12307.675
2008.41672	12297.975
2011.46859	12257.875
2014.51848	12209.275
2017.56639	12184.375
2020.61233	12147.675
2023.6563	12145.075
2026.6983	12122.175
2029.73833	12094.475
2032.7764	12110.975
2035.8125	12074.575
2038.84664	12056.875
2041.87881	12056.675
2044.90903	12000.875
2047.93729	11983.875
2050.96359	11969.975
2053.98794	11974.875
2057.01034	11946.975
2060.03078	11922.075
2063.04927	11938.875
2066.06582	11943.875
2069.08042	11911.175
2072.09307	11917.475
2075.10378	11915.575
2078.11255	11918.375
2081.11938	11909.375
2084.12426	11884.575
2087.12722	11895.075
2090.12824	11911.575
2093.12732	11863.375
2096.12447	11864.775
2099.11969	11883.475
2102.11299	11888.975
2105.10435	11908.975
2108.09379	11866.975
2111.08131	11908.475
2114.0669	11933.675
2117.05057	11893.475
2120.03233	11896.075
2123.01216	11925.375
2125.99008	11927.775
2128.96609	11966.875
2131.94018	11921.375
2134.91236	11952.775
2137.88263	11960.875
2140.851	12012.075
2143.81746	11990.075
2146.78201	11996.675
2149.74466	12031.275
2152.7054	12021.675
2155.66425	12030.675
2158.6212	11997.975
2161.57625	11995.275
2164.52941	12015.775
2167.48067	11977.675
2170.43004	11984.375
2173.37752	11977.975
2176.32311	11984.775
2179.26681	11992.775
2182.20863	11992.875
2185.14856	12022.875
2188.08661	12004.875
2191.02278	12010.075
2193.95707	11999.175
2196.88948	11999.875
2199.82001	11997.075
2202.74867	12010.775
2205.67545	12007.575
2208.60037	11985.875
2211.52341	11991.975
2214.44458	11999.275
2217.36388	11951.675
2220.28132	11927.675
2223.1969	11902.675
2226.11061	11918.875
2229.02246	11875.675
2231.93245	11874.175
2234.84058	11831.975
2237.74686	11808.475
2240.65128	11803.975
2243.55385	11775.875
2246.45456	11780.175
2249.35343	11744.175
2252.25044	11762.975
2255.14561	11724.475
2258.03893	11717.075
2260.93041	11706.675
2263.82004	11660.475
2266.70783	11628.375
2269.59378	11586.075
2272.4779	11606.875
2275.36017	11593.375
2278.24061	11567.375
2281.11922	11551.475
2283.996	11539.975
2286.87094	11530.075
2289.74405	11477.675
2292.61534	11508.875
2295.4848	11461.075
2298.35243	11483.075
2301.21824	11463.275
2304.08223	11486.775
2306.94439	11504.175
2309.80474	11500.875
2312.66327	11499.975
2315.51999	11516.175
2318.37489	11517.175
2321.22797	11512.675
2324.07925	11481.875
2326.92871	11471.575
2329.77637	11477.375
2332.62222	11466.075
2335.46626	11436.475
2338.3085	11463.175
2341.14893	11451.675
2343.98756	11488.075
2346.8244	11463.575
2349.65943	11450.375
2352.49267	11473.675
2355.32411	11463.875
2358.15376	11433.575
2360.98161	11419.075
2363.80768	11418.575
2366.63195	11389.975
2369.45444	11401.075
2372.27514	11390.175
2375.09405	11367.175
2377.91118	11345.675
2380.72652	11265.675
2383.54009	11272.675
2386.35187	11264.675
2389.16188	11211.275
2391.97011	11193.975
2394.77657	11190.275
2397.58125	11191.175
2400.38416	11153.075
2403.18529	11127.875
2405.98466	11130.175
2408.78226	11089.575
2411.57809	11081.275
2414.37216	11075.175
2417.16446	11022.975
2419.955	11055.775
2422.74378	11043.275
2425.5308	11020.575
2428.31606	11014.075
2431.09956	11019.675
2433.88131	10976.175
2436.6613	11013.575
2439.43954	11014.575
2442.21603	11008.075
2444.99077	10998.975
2447.76377	11031.975
2450.53501	11009.575
2453.30451	10999.775
2456.07226	10987.875
2458.83827	10967.875
2461.60254	10986.975
2464.36507	10998.475
2467.12586	10991.575
2469.88492	10981.575
2472.64224	11015.375
2475.39782	10991.575
2478.15167	10988.775
2480.90379	10997.675
2483.65417	10992.775
2486.40283	11017.975
2489.14976	11011.975
2491.89497	11009.475
2494.63845	11025.675
2497.3802	10998.775
2500.12024	11008.575
2502.85855	10972.275
2505.59514	10995.675
2508.33002	10980.775
2511.06318	10958.275
2513.79462	10929.075
2516.52435	10912.075
2519.25237	10934.975
2521.97867	10910.975
2524.70327	10902.175
2527.42616	10874.975
2530.14734	10862.075
2532.86681	10870.075
2535.58458	10887.675
2538.30065	10890.075
2541.01501	10892.675
2543.72768	10869.875
2546.43864	10861.875
2549.14791	10844.775
2551.85548	10843.775
2554.56136	10805.175
2557.26554	10790.275
2559.96803	10806.275
2562.66883	10804.375
2565.36794	10789.775
2568.06536	10776.975
2570.7611	10741.775
2573.45514	10728.175
2576.14751	10753.075
2578.83819	10712.975
2581.52719	10768.175
2584.21451	10729.375
2586.90015	10734.975
2589.58411	10690.475
2592.2664	10674.675
2594.94701	10699.975
2597.62594	10701.475
2600.30321	10701.475
2602.9788	10672.075
2605.65273	10650.475
2608.32498	10628.175
2610.99557	10639.375
2613.66449	10621.275
2616.33175	10644.475
2618.99734	10641.975
2621.66128	10613.975
2624.32355	10610.575
2626.98416	10644.275
2629.64311	10634.675
2632.30041	10642.175
2634.95605	10602.775
2637.61004	10567.575
2640.26238	10574.675
2642.91306	10566.375
2645.56209	10542.175
2648.20948	10551.675
2650.85521	10543.975
2653.4993	10532.875
2656.14175	10556.475
2658.78255	10559.175
2661.42171	10550.075
2664.05923	10564.375
2666.6951	10594.575
2669.32934	10602.275
2671.96194	10579.175
2674.59291	10584.575
2677.22224	10555.775
2679.84993	10567.275
2682.476	10550.375
2685.10043	10529.575
2687.72324	10538.975
2690.34441	10521.475
2692.96396	10522.875
2695.58188	10515.575
2698.19818	10493.675
2700.81285	10522.475
2703.4259	10491.375
2706.03733	10519.275
2708.64714	10511.975
2711.25533	10501.275
2713.86191	10513.275
2716.46687	10522.975
2719.07021	10521.975
2721.67194	10542.375
2724.27206	10553.575
2726.87057	10560.275
2729.46747	10550.875
2732.06276	10542.475
2734.65644	10540.275
2737.24852	10531.975
2739.83899	10543.175
2742.42786	10536.875
2745.01513	10526.275
2747.60079	10500.775
2750.18486	10452.575
2752.76733	10466.175
2755.3482	10475.275
2757.92747	10473.975
2760.50515	10481.675
2763.08123	10463.475
2765.65573	10469.475
2768.22863	10470.075
2770.79994	10463.375
2773.36967	10455.475
2775.9378	10435.675
2778.50435	10491.575
2781.06932	10429.775
2783.6327	10435.175
2786.1945	10420.375
2788.75471	10435.775
2791.31335	10422.875
2793.87041	10386.475
2796.42589	10373.775
2798.97979	10378.075
2801.53212	10345.875
2804.08288	10347.875
2806.63206	10314.175
2809.17967	10294.175
2811.72571	10259.475
2814.27018	10234.675
2816.81308	10223.375
2819.35442	10238.775
2821.89419	10204.775
2824.43239	10197.675
2826.96904	10196.375
2829.50412	10206.575
2832.03763	10158.975
2834.56959	10178.975
2837.1	10193.575
2839.62884	10198.775
2842.15613	10180.075
2844.68186	10191.775
2847.20604	10207.175
2849.72867	10185.875
2852.24974	10197.375
2854.76927	10189.675
2857.28724	10181.675
2859.80367	10140.775
2862.31855	10132.475
2864.83189	10131.575
2867.34368	10120.675
2869.85393	10140.975
2872.36264	10133.175
2874.8698	10109.975
2877.37543	10104.875
2879.87952	10123.175
2882.38207	10151.775
2884.88308	10131.775
2887.38256	10153.575
2889.88051	10117.975
2892.37692	10142.375
2894.8718	10132.775
2897.36515	10165.975
2899.85698	10185.375
2902.34727	10183.275
2904.83604	10192.975
2907.32328	10211.075
2909.809	10221.275
2912.29319	10234.575
2914.77587	10219.675
2917.25702	10202.675
2919.73665	10180.875
2922.21476	10200.775
2924.69136	10174.275
2927.16644	10171.375
2929.64	10168.675
2932.11205	10145.275
2934.58258	10114.375
2937.05161	10139.075
2939.51912	10128.075
2941.98513	10125.075
2944.44962	10092.475
2946.91261	10074.975
2949.37409	10071.675
2951.83407	10050.575
2954.29254	10047.575
2956.74951	10016.375
2959.20498	10050.275
2961.65895	10020.575
2964.11142	10034.375
2966.56239	10027.575
2969.01186	9996.775
2971.45984	9966.775
2973.90632	9966.575
2976.35131	9944.875
2978.7948	9891.275
2981.23681	9881.475
2983.67732	9890.575
2986.11635	9838.275
2988.55388	9824.075
2990.98993	9800.575
2993.4245	9773.775
2995.85758	9746.275
2998.28917	9719.075
3000.71928	9716.975
3003.14791	9706.775
3005.57506	9699.575
3008.00073	9656.575
3010.42493	9673.475
3012.84764	9667.075
3015.26888	9664.775
3017.68865	9646.175
3020.10694	9629.975
3022.52376	9612.275
3024.9391	9608.375
3027.35298	9610.375
3029.76539	9583.075
3032.17632	9579.475
3034.5858	9568.875
3036.9938	9559.675
3039.40034	9561.075
3041.80542	9541.175
3044.20903	9533.975
3046.61118	9530.975
3049.01187	9516.275
3051.4111	9494.975
3053.80888	9495.275
3056.20519	9463.375
3058.60005	9471.475
3060.99345	9430.675
3063.3854	9442.775
3065.7759	9392.575
3068.16494	9395.875
3070.55254	9384.375
3072.93868	9330.875
3075.32338	9344.975
3077.70662	9302.175
3080.08842	9318.275
3082.46878	9312.175
3084.84769	9293.975
3087.22515	9292.175
3089.60118	9295.775
3091.97576	9278.975
3094.3489	9307.575
3096.72061	9290.675
3099.09087	9266.275
3101.4597	9268.775
3103.82709	9289.075
3106.19305	9287.775
3108.55757	9284.875
3110.92066	9247.475
3113.28232	9243.575
3115.64255	9199.375
3118.00134	9204.275
3120.35871	9215.175
3122.71466	9180.475
3125.06917	9189.175
3127.42226	9158.175
3129.77393	9163.975
3132.12417	9142.575
3134.47299	9135.075
3136.82039	9149.175
