Data from AgNPs_FTO_APTES_UA_1uM_CRN_1000uM_R6G_10uM_NaF_0.1M_Addition_RamanShift__3__18-37-09-917.txt Node

Date: Thu Jan 27 18:37:09 GMT 2022
User: TCL
Spectrometer: QEP01345
Trigger mode: 4
Integration Time (sec): 7.000000E0
Scans to average: 10
Electric dark correction enabled: true
Nonlinearity correction enabled: false
Boxcar width: 0
XAxis mode: Raman Shifts
Number of Pixels in Spectrum: 1044
>>>>>Begin Spectral Data<<<<<
46.04893	0.975
50.45542	0.075
54.85868	-2.125
59.25871	-0.625
63.6555	39.675
68.04907	41.675
72.43941	45.575
76.82654	48.875
81.21044	49.175
85.59113	52.075
89.96862	52.375
94.34289	52.875
98.71396	59.875
103.08183	55.175
107.4465	60.475
111.80798	61.575
116.16626	62.775
120.52136	66.375
124.87327	68.375
129.222	65.075
133.56755	70.875
137.90993	70.275
142.24913	82.075
146.58517	88.875
150.91804	101.575
155.24774	116.475
159.57429	140.775
163.89768	178.775
168.21792	231.875
172.53501	318.875
176.84895	435.275
181.15975	613.775
185.46741	850.275
189.77193	1179.775
194.07331	1584.475
198.37157	2051.575
202.6667	2549.375
206.9587	3039.175
211.24758	3532.775
215.53334	4006.775
219.81599	4520.775
224.09553	5083.075
228.37195	5691.775
232.64527	6365.075
236.91549	7085.975
241.18261	7778.175
245.44663	8442.175
249.70755	9007.975
253.96539	9472.375
258.22014	9861.975
262.4718	10167.175
266.72039	10405.875
270.96589	10490.575
275.20832	10462.375
279.44768	10341.875
283.68397	10164.375
287.91719	10016.075
292.14735	9919.775
296.37445	9866.875
300.59849	9944.375
304.81948	10027.875
309.03742	10053.875
313.25231	9989.275
317.46415	9777.475
321.67296	9525.275
325.87872	9283.475
330.08145	9175.975
334.28114	9189.275
338.47781	9256.475
342.67145	9361.875
346.86207	9540.675
351.04966	9776.775
355.23424	9978.875
359.4158	10144.375
363.59435	10276.175
367.76989	10367.075
371.94243	10420.575
376.11196	10468.975
380.27849	10522.275
384.44203	10549.975
388.60257	10592.175
392.76012	10640.175
396.91468	10751.275
401.06626	10912.875
405.21485	11031.075
409.36047	10968.175
413.50311	10790.175
417.64277	10609.375
421.77947	10511.475
425.9132	10495.775
430.04396	10509.975
434.17176	10530.875
438.2966	10583.975
442.41849	10717.875
446.53742	10910.475
450.6534	11149.275
454.76644	11289.875
458.87653	11285.275
462.98368	11233.775
467.08789	11080.175
471.18916	10945.175
475.2875	10777.775
479.38291	10683.675
483.4754	10562.675
487.56496	10492.075
491.6516	10403.875
495.73531	10387.075
499.81612	10377.375
503.89401	10429.575
507.96899	10484.975
512.04106	10530.175
516.11023	10564.075
520.1765	10558.775
524.23987	10533.275
528.30034	10447.275
532.35792	10358.075
536.41261	10248.775
540.46441	10103.875
544.51333	10051.675
548.55936	10106.175
552.60252	10256.975
556.64279	10461.775
560.6802	10598.475
564.71473	10603.375
568.7464	10652.875
572.7752	10841.375
576.80114	10913.075
580.82422	11109.975
584.84444	11416.275
588.86181	11852.275
592.87633	12213.075
596.888	12218.975
600.89682	11885.375
604.9028	11940.075
608.90594	12919.775
612.90624	14443.275
616.90371	14010.475
620.89834	11625.975
624.89015	10421.275
628.87913	10223.375
632.86528	10307.675
636.84862	10382.275
640.82913	10342.875
644.80683	10144.275
648.78172	9998.575
652.75379	9964.675
656.72306	10079.275
660.68952	10219.575
664.65319	10172.175
668.61405	9978.475
672.57211	9944.875
676.52738	10059.875
680.47986	10121.975
684.42955	10091.475
688.37646	9987.775
692.32058	9894.775
696.26192	9931.375
700.20048	9963.675
704.13626	10035.075
708.06928	10031.875
711.99952	9994.675
715.927	9985.675
719.85171	9991.075
723.77365	9980.175
727.69284	9929.575
731.60928	9864.375
735.52295	9828.775
739.43388	9829.775
743.34206	9838.875
747.24749	9861.175
751.15017	9907.175
755.05012	10018.575
758.94733	10223.175
762.8418	10659.175
766.73354	11435.175
770.62254	12376.075
774.50882	12896.275
778.39237	12560.575
782.27321	11629.475
786.15132	10700.675
790.02671	10137.275
793.89938	9886.275
797.76935	9769.775
801.6366	9707.775
805.50115	9682.075
809.36299	9632.075
813.22213	9575.975
817.07857	9507.675
820.93231	9487.875
824.78336	9465.075
828.63172	9476.175
832.47738	9482.275
836.32036	9473.575
840.16066	9508.475
843.99827	9480.975
847.8332	9466.375
851.66546	9433.075
855.49504	9442.175
859.32195	9438.575
863.1462	9431.475
866.96777	9426.575
870.78668	9406.975
874.60293	9419.275
878.41652	9425.575
882.22745	9452.375
886.03573	9501.875
889.84136	9509.175
893.64433	9498.275
897.44466	9433.875
901.24235	9384.075
905.0374	9337.975
908.8298	9283.475
912.61957	9293.375
916.40671	9333.675
920.19121	9377.475
923.97308	9485.675
927.75233	9546.975
931.52895	9588.675
935.30295	9504.575
939.07433	9337.175
942.84309	9172.575
946.60924	9078.375
950.37278	9004.275
954.13371	8958.875
957.89203	8931.075
961.64774	8920.575
965.40086	8914.875
969.15137	8870.975
972.89929	8838.075
976.64461	8824.975
980.38733	8818.675
984.12747	8817.975
987.86502	8839.075
991.59999	8884.775
995.33237	8961.575
999.06217	9064.775
1002.78939	9203.075
1006.51404	9315.775
1010.23611	9435.575
1013.95561	9539.875
1017.67255	9584.375
1021.38692	9555.675
1025.09872	9445.075
1028.80796	9362.275
1032.51465	9365.975
1036.21877	9457.375
1039.92035	9526.275
1043.61937	9530.475
1047.31584	9496.275
1051.00976	9451.875
1054.70114	9451.375
1058.38998	9433.975
1062.07627	9480.175
1065.76003	9575.275
1069.44126	9670.575
1073.11995	9821.975
1076.79611	9929.275
1080.46974	9950.775
1084.14085	9912.375
1087.80943	9895.075
1091.47549	9959.875
1095.13903	9952.775
1098.80005	9819.775
1102.45857	9647.075
1106.11456	9489.275
1109.76805	9439.175
1113.41903	9492.775
1117.06751	9580.275
1120.71348	9728.075
1124.35696	9909.775
1127.99793	10135.575
1131.63641	10266.975
1135.2724	10090.675
1138.90589	9877.075
1142.5369	9724.475
1146.16542	9663.175
1149.79145	9641.375
1153.415	9604.775
1157.03607	9669.875
1160.65467	9847.375
1164.27079	10170.175
1167.88443	10629.875
1171.49561	11191.075
1175.10432	11934.675
1178.71056	12981.575
1182.31434	13937.375
1185.91565	14335.075
1189.51451	14189.675
1193.11091	13619.775
1196.70485	12952.275
1200.29634	12328.575
1203.88538	11825.875
1207.47197	11423.775
1211.05612	11085.875
1214.63782	10842.775
1218.21708	10680.275
1221.79391	10601.275
1225.36829	10581.875
1228.94024	10553.075
1232.50976	10474.475
1236.07685	10364.975
1239.6415	10275.175
1243.20374	10223.275
1246.76355	10264.875
1250.32093	10311.975
1253.8759	10481.975
1257.42845	10653.475
1260.97859	10897.275
1264.52631	11159.075
1268.07163	11427.475
1271.61453	11670.075
1275.15503	11944.075
1278.69312	12199.375
1282.22882	12442.875
1285.76211	12736.975
1289.29301	13067.975
1292.82151	13560.475
1296.34761	14148.975
1299.87133	14875.075
1303.39266	15744.575
1306.9116	16735.275
1310.42815	17716.775
1313.94233	18353.175
1317.45412	18178.175
1320.96354	17453.775
1324.47058	16586.975
1327.97525	15861.375
1331.47754	15306.075
1334.97747	14984.575
1338.47502	14795.675
1341.97022	14753.175
1345.46305	14782.675
1348.95352	15136.175
1352.44163	15783.175
1355.92738	16854.575
1359.41078	18223.075
1362.89183	19474.275
1366.37053	19470.175
1369.84688	17690.775
1373.32088	15328.375
1376.79254	13625.475
1380.26186	12806.675
1383.72883	12482.075
1387.19347	12241.475
1390.65578	11904.375
1394.11575	11705.275
1397.57339	11726.375
1401.0287	11862.575
1404.48168	11959.575
1407.93234	11980.975
1411.38068	11908.875
1414.82669	11763.075
1418.27039	11548.275
1421.71177	11299.375
1425.15083	11059.475
1428.58758	10908.775
1432.02203	10930.575
1435.45416	11114.575
1438.88399	11319.275
1442.31151	11380.175
1445.73673	11434.075
1449.15965	11460.775
1452.58027	11470.375
1455.9986	11398.475
1459.41463	11411.075
1462.82837	11509.875
1466.23982	11706.475
1469.64898	11934.675
1473.05586	12093.475
1476.46045	12225.675
1479.86276	12266.975
1483.26279	12331.675
1486.66054	12420.275
1490.05602	12614.875
1493.44922	12890.875
1496.84016	13312.475
1500.22882	13934.875
1503.61521	14844.675
1506.99934	15850.075
1510.38121	16722.675
1513.76081	16880.875
1517.13816	16193.575
1520.51324	14931.075
1523.88607	13800.875
1527.25665	13050.875
1530.62498	12651.875
1533.99105	12451.475
1537.35488	12269.975
1540.71647	12071.275
1544.07581	11880.575
1547.4329	11712.775
1550.78776	11520.975
1554.14038	11374.975
1557.49077	11323.675
1560.83892	11318.375
1564.18484	11406.975
1567.52853	11553.175
1570.86999	11781.875
1574.20922	12043.075
1577.54624	12197.675
1580.88103	12062.975
1584.2136	11741.675
1587.54395	11582.875
1590.87208	11758.675
1594.19801	12267.675
1597.52172	12948.075
1600.84321	13405.375
1604.16251	13209.575
1607.47959	12507.675
1610.79447	11621.875
1614.10715	10759.875
1617.41763	10046.775
1620.7259	9542.575
1624.03199	9279.375
1627.33587	9225.775
1630.63757	9361.275
1633.93707	9729.475
1637.23439	10348.875
1640.52951	11429.575
1643.82246	12949.475
1647.11321	14439.175
1650.40179	15158.575
1653.68819	14566.975
1656.97241	12864.975
1660.25446	11073.775
1663.53433	9779.975
1666.81203	9011.575
1670.08756	8543.175
1673.36092	8262.575
1676.63211	8121.275
1679.90115	7986.175
1683.16801	7876.175
1686.43272	7775.575
1689.69527	7740.275
1692.95567	7662.175
1696.2139	7614.675
1699.46999	7542.175
1702.72392	7505.675
1705.97571	7489.675
1709.22535	7539.775
1712.47284	7552.975
1715.71819	7550.275
1718.96139	7566.075
1722.20246	7540.275
1725.44139	7507.475
1728.67818	7465.275
1731.91284	7460.975
1735.14537	7414.575
1738.37576	7390.375
1741.60403	7383.175
1744.83017	7367.375
1748.05418	7363.475
1751.27607	7376.875
1754.49584	7347.875
1757.71349	7360.875
1760.92903	7319.775
1764.14244	7286.875
1767.35375	7248.775
1770.56294	7200.675
1773.77002	7165.175
1776.97499	7158.475
1780.17785	7167.075
1783.37861	7159.475
1786.57727	7151.675
1789.77382	7136.975
1792.96828	7108.775
1796.16064	7102.975
1799.3509	7058.675
1802.53907	7054.275
1805.72514	7047.975
1808.90913	7016.975
1812.09102	6994.475
1815.27083	6985.475
1818.44856	6970.775
1821.6242	6938.875
1824.79776	6942.675
1827.96924	6924.575
1831.13864	6936.275
1834.30597	6926.875
1837.47122	6921.775
1840.6344	6898.175
1843.7955	6898.775
1846.95454	6874.875
1850.11151	6888.475
1853.26642	6879.775
1856.41926	6878.675
1859.57004	6872.775
1862.71876	6856.075
1865.86542	6859.475
1869.01003	6844.375
1872.15258	6842.575
1875.29308	6836.275
1878.43152	6821.575
1881.56792	6817.475
1884.70227	6799.975
1887.83457	6787.375
1890.96482	6778.275
1894.09304	6771.975
1897.21921	6775.175
1900.34335	6732.275
1903.46544	6752.375
1906.58551	6745.475
1909.70353	6725.775
1912.81953	6717.275
1915.93349	6704.275
1919.04543	6709.475
1922.15534	6684.675
1925.26322	6685.775
1928.36908	6656.375
1931.47292	6644.775
1934.57473	6619.475
1937.67453	6613.675
1940.77232	6591.575
1943.86808	6562.475
1946.96184	6531.775
1950.05358	6548.475
1953.14331	6515.475
1956.23103	6506.375
1959.31675	6483.275
1962.40046	6477.775
1965.48217	6443.775
1968.56188	6412.575
1971.63959	6397.175
1974.7153	6381.975
1977.78901	6340.375
1980.86073	6330.075
1983.93046	6317.075
1986.99819	6286.875
1990.06394	6288.775
1993.1277	6250.775
1996.18947	6227.875
1999.24925	6236.675
2002.30706	6214.475
2005.36288	6196.375
2008.41672	6191.175
2011.46859	6174.575
2014.51848	6135.775
2017.56639	6127.975
2020.61233	6108.975
2023.6563	6095.075
2026.6983	6079.775
2029.73833	6052.475
2032.7764	6046.975
2035.8125	6026.475
2038.84664	6022.075
2041.87881	6012.275
2044.90903	5982.475
2047.93729	5986.475
2050.96359	5974.175
2053.98794	5955.075
2057.01034	5941.075
2060.03078	5945.875
2063.04927	5944.075
2066.06582	5942.675
2069.08042	5947.175
2072.09307	5928.375
2075.10378	5935.975
2078.11255	5925.875
2081.11938	5936.675
2084.12426	5941.675
2087.12722	5898.975
2090.12824	5917.775
2093.12732	5917.475
2096.12447	5918.575
2099.11969	5910.075
2102.11299	5903.975
2105.10435	5915.475
2108.09379	5919.075
2111.08131	5914.575
2114.0669	5931.975
2117.05057	5936.175
2120.03233	5948.775
2123.01216	5921.075
2125.99008	5950.175
2128.96609	5950.575
2131.94018	5951.675
2134.91236	5957.075
2137.88263	5954.875
2140.851	5952.275
2143.81746	5938.075
2146.78201	5934.675
2149.74466	5959.075
2152.7054	5942.575
2155.66425	5934.875
2158.6212	5944.775
2161.57625	5929.675
2164.52941	5922.575
2167.48067	5926.975
2170.43004	5931.675
2173.37752	5913.475
2176.32311	5936.975
2179.26681	5934.475
2182.20863	5915.475
2185.14856	5926.975
2188.08661	5927.175
2191.02278	5905.675
2193.95707	5896.375
2196.88948	5911.875
2199.82001	5898.675
2202.74867	5894.075
2205.67545	5873.575
2208.60037	5872.175
2211.52341	5851.775
2214.44458	5840.575
2217.36388	5838.375
2220.28132	5839.675
2223.1969	5817.775
2226.11061	5813.575
2229.02246	5801.775
2231.93245	5797.475
2234.84058	5790.775
2237.74686	5776.875
2240.65128	5777.775
2243.55385	5753.175
2246.45456	5774.075
2249.35343	5740.275
2252.25044	5736.575
2255.14561	5722.375
2258.03893	5728.275
2260.93041	5694.375
2263.82004	5697.475
2266.70783	5667.675
2269.59378	5653.275
2272.4779	5644.375
2275.36017	5633.275
2278.24061	5641.575
2281.11922	5608.675
2283.996	5624.075
2286.87094	5597.875
2289.74405	5574.075
2292.61534	5568.475
2295.4848	5583.075
2298.35243	5565.075
2301.21824	5572.575
2304.08223	5577.375
2306.94439	5542.875
2309.80474	5560.775
2312.66327	5562.875
2315.51999	5547.475
2318.37489	5527.075
2321.22797	5527.575
2324.07925	5530.575
2326.92871	5509.775
2329.77637	5506.075
2332.62222	5517.475
2335.46626	5493.375
2338.3085	5490.675
2341.14893	5492.375
2343.98756	5478.475
2346.8244	5469.775
2349.65943	5465.675
2352.49267	5468.575
2355.32411	5484.775
2358.15376	5471.875
2360.98161	5464.875
2363.80768	5488.675
2366.63195	5474.575
2369.45444	5464.975
2372.27514	5460.875
2375.09405	5434.075
2377.91118	5444.875
2380.72652	5437.175
2383.54009	5401.175
2386.35187	5406.275
2389.16188	5373.875
2391.97011	5368.075
2394.77657	5356.475
2397.58125	5345.475
2400.38416	5326.975
2403.18529	5344.875
2405.98466	5303.975
2408.78226	5314.375
2411.57809	5308.675
2414.37216	5288.075
2417.16446	5288.375
2419.955	5289.475
2422.74378	5276.475
2425.5308	5285.875
2428.31606	5277.475
2431.09956	5277.575
2433.88131	5263.075
2436.6613	5277.575
2439.43954	5258.675
2442.21603	5265.275
2444.99077	5244.475
2447.76377	5264.975
2450.53501	5245.175
2453.30451	5250.075
2456.07226	5236.075
2458.83827	5234.575
2461.60254	5228.175
2464.36507	5216.375
2467.12586	5243.475
2469.88492	5212.675
2472.64224	5240.875
2475.39782	5215.875
2478.15167	5215.775
2480.90379	5192.375
2483.65417	5219.675
2486.40283	5208.975
2489.14976	5225.775
2491.89497	5207.275
2494.63845	5204.575
2497.3802	5200.175
2500.12024	5186.675
2502.85855	5201.575
2505.59514	5181.075
2508.33002	5178.275
2511.06318	5189.075
2513.79462	5153.575
2516.52435	5141.675
2519.25237	5141.575
2521.97867	5139.075
2524.70327	5129.375
2527.42616	5126.675
2530.14734	5121.975
2532.86681	5101.375
2535.58458	5095.575
2538.30065	5116.775
2541.01501	5103.175
2543.72768	5094.475
2546.43864	5078.575
2549.14791	5074.275
2551.85548	5065.875
2554.56136	5048.875
2557.26554	5061.175
2559.96803	5051.575
2562.66883	5043.175
2565.36794	5043.375
2568.06536	5035.975
2570.7611	5035.175
2573.45514	5015.075
2576.14751	5014.275
2578.83819	5002.075
2581.52719	5003.675
2584.21451	4965.975
2586.90015	4978.575
2589.58411	4970.375
2592.2664	4960.675
2594.94701	4961.275
2597.62594	4954.375
2600.30321	4946.975
2602.9788	4942.675
2605.65273	4935.375
2608.32498	4930.175
2610.99557	4919.175
2613.66449	4913.075
2616.33175	4912.175
2618.99734	4906.675
2621.66128	4903.075
2624.32355	4888.975
2626.98416	4893.075
2629.64311	4888.875
2632.30041	4879.275
2634.95605	4852.875
2637.61004	4852.675
2640.26238	4847.175
2642.91306	4844.275
2645.56209	4850.475
2648.20948	4842.875
2650.85521	4841.075
2653.4993	4838.175
2656.14175	4849.275
2658.78255	4841.875
2661.42171	4846.775
2664.05923	4863.275
2666.6951	4857.175
2669.32934	4858.575
2671.96194	4844.575
2674.59291	4844.775
2677.22224	4837.775
2679.84993	4853.375
2682.476	4825.575
2685.10043	4825.375
2687.72324	4827.275
2690.34441	4834.275
2692.96396	4823.975
2695.58188	4841.875
2698.19818	4833.675
2700.81285	4843.675
2703.4259	4829.075
2706.03733	4824.675
2708.64714	4812.875
2711.25533	4838.075
2713.86191	4828.275
2716.46687	4833.775
2719.07021	4840.175
2721.67194	4848.275
2724.27206	4828.275
2726.87057	4851.475
2729.46747	4850.175
2732.06276	4848.875
2734.65644	4844.975
2737.24852	4849.875
2739.83899	4841.175
2742.42786	4847.475
2745.01513	4802.175
2747.60079	4811.375
2750.18486	4813.975
2752.76733	4803.075
2755.3482	4794.075
2757.92747	4799.575
2760.50515	4769.175
2763.08123	4796.475
2765.65573	4785.375
2768.22863	4786.175
2770.79994	4774.675
2773.36967	4767.275
2775.9378	4779.075
2778.50435	4779.475
2781.06932	4765.375
2783.6327	4770.875
2786.1945	4744.275
2788.75471	4770.675
2791.31335	4727.475
2793.87041	4722.675
2796.42589	4727.675
2798.97979	4731.475
2801.53212	4718.375
2804.08288	4719.375
2806.63206	4707.075
2809.17967	4706.075
2811.72571	4686.075
2814.27018	4688.775
2816.81308	4672.975
2819.35442	4666.175
2821.89419	4694.375
2824.43239	4674.575
2826.96904	4669.975
2829.50412	4694.775
2832.03763	4672.375
2834.56959	4680.875
2837.1	4677.075
2839.62884	4698.575
2842.15613	4712.375
2844.68186	4760.275
2847.20604	4797.275
2849.72867	4793.675
2852.24974	4805.175
2854.76927	4819.075
2857.28724	4791.375
2859.80367	4788.575
2862.31855	4784.375
2864.83189	4778.975
2867.34368	4771.775
2869.85393	4782.975
2872.36264	4773.375
2874.8698	4770.475
2877.37543	4775.675
2879.87952	4761.775
2882.38207	4764.175
2884.88308	4769.375
2887.38256	4778.975
2889.88051	4774.975
2892.37692	4778.375
2894.8718	4775.375
2897.36515	4791.475
2899.85698	4793.475
2902.34727	4816.575
2904.83604	4819.375
2907.32328	4834.275
2909.809	4828.375
2912.29319	4827.675
2914.77587	4831.975
2917.25702	4847.875
2919.73665	4843.975
2922.21476	4851.475
2924.69136	4852.875
2927.16644	4856.375
2929.64	4846.075
2932.11205	4852.175
2934.58258	4845.975
2937.05161	4840.475
2939.51912	4847.775
2941.98513	4811.575
2944.44962	4809.775
2946.91261	4764.775
2949.37409	4766.775
2951.83407	4760.375
2954.29254	4747.275
2956.74951	4731.475
2959.20498	4728.575
2961.65895	4711.775
2964.11142	4695.975
2966.56239	4679.275
2969.01186	4657.175
2971.45984	4651.575
2973.90632	4634.875
2976.35131	4622.475
2978.7948	4598.975
2981.23681	4571.975
2983.67732	4576.075
2986.11635	4544.175
2988.55388	4559.875
2990.98993	4545.375
2993.4245	4526.275
2995.85758	4515.475
2998.28917	4517.375
3000.71928	4509.075
3003.14791	4496.375
3005.57506	4481.175
3008.00073	4486.275
3010.42493	4453.675
3012.84764	4475.075
3015.26888	4475.975
3017.68865	4459.675
3020.10694	4472.875
3022.52376	4442.475
3024.9391	4444.775
3027.35298	4429.775
3029.76539	4437.475
3032.17632	4419.675
3034.5858	4411.075
3036.9938	4403.875
3039.40034	4418.975
3041.80542	4398.475
3044.20903	4393.675
3046.61118	4388.775
3049.01187	4383.875
3051.4111	4392.975
3053.80888	4367.375
3056.20519	4377.375
3058.60005	4355.375
3060.99345	4357.075
3063.3854	4368.175
3065.7759	4341.275
3068.16494	4340.375
3070.55254	4331.875
3072.93868	4334.075
3075.32338	4321.375
3077.70662	4317.475
3080.08842	4294.075
3082.46878	4310.275
3084.84769	4321.175
3087.22515	4290.875
3089.60118	4330.675
3091.97576	4312.475
3094.3489	4321.175
3096.72061	4327.275
3099.09087	4346.175
3101.4597	4333.075
3103.82709	4330.375
3106.19305	4326.575
3108.55757	4337.375
3110.92066	4321.575
3113.28232	4325.075
3115.64255	4304.875
3118.00134	4311.875
3120.35871	4303.075
3122.71466	4303.175
3125.06917	4293.175
3127.42226	4291.575
3129.77393	4299.475
3132.12417	4307.675
3134.47299	4304.675
3136.82039	4321.175
3139.16636	4323.775
3141.51092	4328.675
3143.85406	4344.475
3146.19579	4343.175
3148.53609	4347.375
3150.87499	4356.275
3153.21246	4363.175
3155.54853	4368.175
3157.88318	4373.075
3160.21642	4393.175
3162.54826	4389.275
3164.87868	4391.175
3167.2077	4388.175
3169.5353	4389.275
3171.86151	4390.775
3174.18631	4398.275
3176.5097	4391.075
3178.83169	4401.175
3181.15228	4401.675
3183.47147	4388.975
3185.78926	4404.975
3188.10565	4374.275
3190.42065	4412.475
3192.73424	4395.975
3195.04645	4392.475
3197.35725	4404.175
3199.66667	4397.075
3201.97469	4411.875
3204.28132	4419.875
3206.58656	4416.675
3208.8904	4419.975
