Data from AgNPs_FTO_APTES_UA_1uM_CRN_500uM_R6G_10uM_NaF_0.1M_Addition_RamanShift__20__18-07-59-885.txt Node

Date: Thu Jan 27 18:07:59 GMT 2022
User: TCL
Spectrometer: QEP01345
Trigger mode: 4
Integration Time (sec): 7.000000E0
Scans to average: 10
Electric dark correction enabled: true
Nonlinearity correction enabled: false
Boxcar width: 0
XAxis mode: Raman Shifts
Number of Pixels in Spectrum: 1044
>>>>>Begin Spectral Data<<<<<
46.04893	0.4875
50.45542	0.2875
54.85868	-0.1125
59.25871	-1.1125
63.6555	43.0875
68.04907	46.0875
72.43941	46.5875
76.82654	49.9875
81.21044	52.5875
85.59113	55.4875
89.96862	55.2875
94.34289	56.6875
98.71396	62.7875
103.08183	57.8875
107.4465	62.0875
111.80798	67.2875
116.16626	62.2875
120.52136	70.9875
124.87327	69.1875
129.222	66.8875
133.56755	70.3875
137.90993	74.0875
142.24913	79.9875
146.58517	90.4875
150.91804	100.3875
155.24774	112.8875
159.57429	138.2875
163.89768	173.4875
168.21792	225.2875
172.53501	299.4875
176.84895	412.6875
181.15975	575.9875
185.46741	798.2875
189.77193	1091.7875
194.07331	1467.6875
198.37157	1899.5875
202.6667	2351.5875
206.9587	2805.8875
211.24758	3236.3875
215.53334	3672.1875
219.81599	4151.9875
224.09553	4640.4875
228.37195	5211.6875
232.64527	5809.2875
236.91549	6454.1875
241.18261	7089.8875
245.44663	7709.9875
249.70755	8252.7875
253.96539	8716.5875
258.22014	9144.7875
262.4718	9461.9875
266.72039	9674.8875
270.96589	9792.3875
275.20832	9783.7875
279.44768	9710.8875
283.68397	9630.7875
287.91719	9518.2875
292.14735	9452.3875
296.37445	9452.8875
300.59849	9486.0875
304.81948	9523.4875
309.03742	9511.9875
313.25231	9370.5875
317.46415	9182.4875
321.67296	8907.2875
325.87872	8682.0875
330.08145	8572.7875
334.28114	8551.3875
338.47781	8627.9875
342.67145	8705.9875
346.86207	8840.2875
351.04966	9005.6875
355.23424	9176.0875
359.4158	9355.0875
363.59435	9491.7875
367.76989	9560.6875
371.94243	9663.4875
376.11196	9711.4875
380.27849	9791.1875
384.44203	9837.1875
388.60257	9878.7875
392.76012	9944.7875
396.91468	10025.0875
401.06626	10182.2875
405.21485	10303.1875
409.36047	10297.8875
413.50311	10146.4875
417.64277	10058.1875
421.77947	10051.2875
425.9132	10072.4875
430.04396	10169.1875
434.17176	10208.0875
438.2966	10292.3875
442.41849	10389.9875
446.53742	10608.9875
450.6534	10875.0875
454.76644	11071.0875
458.87653	11154.2875
462.98368	11108.2875
467.08789	10982.5875
471.18916	10831.8875
475.2875	10717.8875
479.38291	10673.2875
483.4754	10606.2875
487.56496	10480.3875
491.6516	10387.5875
495.73531	10277.2875
499.81612	10266.3875
503.89401	10304.2875
507.96899	10346.2875
512.04106	10315.3875
516.11023	10319.6875
520.1765	10198.8875
524.23987	10117.1875
528.30034	10006.7875
532.35792	9947.8875
536.41261	9858.4875
540.46441	9763.2875
544.51333	9744.0875
548.55936	9832.0875
552.60252	10007.4875
556.64279	10188.7875
560.6802	10351.6875
564.71473	10424.6875
568.7464	10559.5875
572.7752	10785.9875
576.80114	10954.5875
580.82422	11133.9875
584.84444	11304.8875
588.86181	11510.3875
592.87633	11671.2875
596.888	11711.7875
600.89682	11620.8875
604.9028	11815.0875
608.90594	12596.8875
612.90624	13550.5875
616.90371	12919.0875
620.89834	11026.8875
624.89015	10148.6875
628.87913	10074.5875
632.86528	10120.2875
636.84862	10107.3875
640.82913	10034.1875
644.80683	9844.2875
648.78172	9662.1875
652.75379	9619.6875
656.72306	9708.4875
660.68952	9816.1875
664.65319	9807.1875
668.61405	9673.7875
672.57211	9690.6875
676.52738	9764.5875
680.47986	9802.4875
684.42955	9795.4875
688.37646	9702.8875
692.32058	9661.3875
696.26192	9681.9875
700.20048	9750.2875
704.13626	9768.2875
708.06928	9790.9875
711.99952	9713.0875
715.927	9687.7875
719.85171	9680.4875
723.77365	9680.4875
727.69284	9629.9875
731.60928	9573.9875
735.52295	9533.2875
739.43388	9558.5875
743.34206	9575.5875
747.24749	9585.3875
751.15017	9670.1875
755.05012	9769.7875
758.94733	10023.8875
762.8418	10427.6875
766.73354	11098.2875
770.62254	11842.6875
774.50882	12092.9875
778.39237	11683.3875
782.27321	10870.9875
786.15132	10141.2875
790.02671	9759.8875
793.89938	9571.3875
797.76935	9493.6875
801.6366	9471.9875
805.50115	9462.3875
809.36299	9408.5875
813.22213	9330.3875
817.07857	9295.1875
820.93231	9266.3875
824.78336	9241.6875
828.63172	9216.8875
832.47738	9208.1875
836.32036	9233.8875
840.16066	9245.9875
843.99827	9252.4875
847.8332	9218.5875
851.66546	9174.0875
855.49504	9200.9875
859.32195	9198.9875
863.1462	9224.1875
866.96777	9207.4875
870.78668	9167.5875
874.60293	9184.6875
878.41652	9156.7875
882.22745	9177.8875
886.03573	9221.3875
889.84136	9229.2875
893.64433	9199.2875
897.44466	9165.5875
901.24235	9144.4875
905.0374	9065.3875
908.8298	9044.6875
912.61957	9035.4875
916.40671	9077.8875
920.19121	9192.3875
923.97308	9296.7875
927.75233	9297.4875
931.52895	9307.2875
935.30295	9211.6875
939.07433	9081.9875
942.84309	8902.7875
946.60924	8847.1875
950.37278	8823.0875
954.13371	8770.1875
957.89203	8727.6875
961.64774	8720.6875
965.40086	8708.8875
969.15137	8640.9875
972.89929	8576.7875
976.64461	8581.1875
980.38733	8551.3875
984.12747	8569.2875
987.86502	8614.9875
991.59999	8694.8875
995.33237	8833.8875
999.06217	8982.2875
1002.78939	9223.3875
1006.51404	9367.0875
1010.23611	9411.8875
1013.95561	9464.2875
1017.67255	9501.3875
1021.38692	9465.1875
1025.09872	9345.7875
1028.80796	9314.9875
1032.51465	9447.3875
1036.21877	9618.4875
1039.92035	9666.3875
1043.61937	9591.8875
1047.31584	9455.1875
1051.00976	9351.7875
1054.70114	9287.9875
1058.38998	9294.1875
1062.07627	9343.7875
1065.76003	9418.0875
1069.44126	9459.4875
1073.11995	9556.7875
1076.79611	9653.3875
1080.46974	9697.8875
1084.14085	9689.4875
1087.80943	9723.3875
1091.47549	9780.6875
1095.13903	9773.0875
1098.80005	9683.3875
1102.45857	9487.1875
1106.11456	9362.8875
1109.76805	9340.8875
1113.41903	9399.9875
1117.06751	9459.5875
1120.71348	9582.0875
1124.35696	9715.3875
1127.99793	9873.3875
1131.63641	9970.4875
1135.2724	9878.7875
1138.90589	9720.2875
1142.5369	9643.2875
1146.16542	9632.4875
1149.79145	9617.4875
1153.415	9680.4875
1157.03607	9788.3875
1160.65467	10032.2875
1164.27079	10393.1875
1167.88443	10910.0875
1171.49561	11481.9875
1175.10432	12253.3875
1178.71056	13206.2875
1182.31434	14143.4875
1185.91565	14596.1875
1189.51451	14544.0875
1193.11091	14154.9875
1196.70485	13559.4875
1200.29634	12983.2875
1203.88538	12539.4875
1207.47197	12191.2875
1211.05612	11922.3875
1214.63782	11678.5875
1218.21708	11525.5875
1221.79391	11428.0875
1225.36829	11367.2875
1228.94024	11273.2875
1232.50976	11054.6875
1236.07685	10861.5875
1239.6415	10754.6875
1243.20374	10729.2875
1246.76355	10760.4875
1250.32093	10855.5875
1253.8759	11067.4875
1257.42845	11274.3875
1260.97859	11576.2875
1264.52631	11824.1875
1268.07163	12112.2875
1271.61453	12435.5875
1275.15503	12783.0875
1278.69312	13159.1875
1282.22882	13487.0875
1285.76211	13815.4875
1289.29301	14146.0875
1292.82151	14675.4875
1296.34761	15341.0875
1299.87133	16218.0875
1303.39266	17201.0875
1306.9116	18234.5875
1310.42815	19248.3875
1313.94233	19900.6875
1317.45412	19875.0875
1320.96354	19393.8875
1324.47058	18816.2875
1327.97525	18315.4875
1331.47754	17995.9875
1334.97747	17879.1875
1338.47502	17785.0875
1341.97022	17706.7875
1345.46305	17542.1875
1348.95352	17415.9875
1352.44163	17490.4875
1355.92738	17888.4875
1359.41078	18661.1875
1362.89183	19401.4875
1366.37053	19274.0875
1369.84688	17832.8875
1373.32088	15878.5875
1376.79254	14424.4875
1380.26186	13809.1875
1383.72883	13622.6875
1387.19347	13587.6875
1390.65578	13435.7875
1394.11575	13370.8875
1397.57339	13570.0875
1401.0287	13896.5875
1404.48168	14237.5875
1407.93234	14377.3875
1411.38068	14298.5875
1414.82669	13952.8875
1418.27039	13486.9875
1421.71177	12935.6875
1425.15083	12466.3875
1428.58758	12164.1875
1432.02203	12151.5875
1435.45416	12355.0875
1438.88399	12672.0875
1442.31151	12947.5875
1445.73673	13141.2875
1449.15965	13339.8875
1452.58027	13479.2875
1455.9986	13467.2875
1459.41463	13489.6875
1462.82837	13649.7875
1466.23982	13876.4875
1469.64898	14131.7875
1473.05586	14334.3875
1476.46045	14407.2875
1479.86276	14371.6875
1483.26279	14239.3875
1486.66054	14140.8875
1490.05602	14121.5875
1493.44922	14146.1875
1496.84016	14196.1875
1500.22882	14372.2875
1503.61521	14759.4875
1506.99934	15299.4875
1510.38121	15863.6875
1513.76081	16064.1875
1517.13816	15691.5875
1520.51324	15012.5875
1523.88607	14347.6875
1527.25665	13930.7875
1530.62498	13759.4875
1533.99105	13668.2875
1537.35488	13613.1875
1540.71647	13495.7875
1544.07581	13305.4875
1547.4329	13112.9875
1550.78776	12908.1875
1554.14038	12719.3875
1557.49077	12649.8875
1560.83892	12592.0875
1564.18484	12567.6875
1567.52853	12594.0875
1570.86999	12686.1875
1574.20922	12885.3875
1577.54624	13045.8875
1580.88103	13065.7875
1584.2136	13033.2875
1587.54395	13217.3875
1590.87208	13762.6875
1594.19801	14575.2875
1597.52172	15523.1875
1600.84321	15986.2875
1604.16251	15614.4875
1607.47959	14557.4875
1610.79447	13323.4875
1614.10715	12121.9875
1617.41763	11217.7875
1620.7259	10540.3875
1624.03199	10189.5875
1627.33587	10132.6875
1630.63757	10330.1875
1633.93707	10871.8875
1637.23439	11770.2875
1640.52951	13052.4875
1643.82246	14622.3875
1647.11321	15931.2875
1650.40179	16310.1875
1653.68819	15415.2875
1656.97241	13570.2875
1660.25446	11723.0875
1663.53433	10359.5875
1666.81203	9504.6875
1670.08756	8986.9875
1673.36092	8663.1875
1676.63211	8482.9875
1679.90115	8320.8875
1683.16801	8187.0875
1686.43272	8110.8875
1689.69527	8035.3875
1692.95567	7954.4875
1696.2139	7887.6875
1699.46999	7809.1875
1702.72392	7758.6875
1705.97571	7767.8875
1709.22535	7790.0875
1712.47284	7803.3875
1715.71819	7788.4875
1718.96139	7796.1875
1722.20246	7764.2875
1725.44139	7741.8875
1728.67818	7709.1875
1731.91284	7685.7875
1735.14537	7632.5875
1738.37576	7617.4875
1741.60403	7595.4875
1744.83017	7574.8875
1748.05418	7572.1875
1751.27607	7559.6875
1754.49584	7546.9875
1757.71349	7549.6875
1760.92903	7505.9875
1764.14244	7490.6875
1767.35375	7446.1875
1770.56294	7411.4875
1773.77002	7388.6875
1776.97499	7395.5875
1780.17785	7398.8875
1783.37861	7396.0875
1786.57727	7383.9875
1789.77382	7370.8875
1792.96828	7355.1875
1796.16064	7330.4875
1799.3509	7302.7875
1802.53907	7278.8875
1805.72514	7274.8875
1808.90913	7257.9875
1812.09102	7248.8875
1815.27083	7238.7875
1818.44856	7220.4875
1821.6242	7199.8875
1824.79776	7185.8875
1827.96924	7196.8875
1831.13864	7194.5875
1834.30597	7195.9875
1837.47122	7186.4875
1840.6344	7175.6875
1843.7955	7190.6875
1846.95454	7175.2875
1850.11151	7172.4875
1853.26642	7202.2875
1856.41926	7175.4875
1859.57004	7199.3875
1862.71876	7192.6875
1865.86542	7157.0875
1869.01003	7160.6875
1872.15258	7153.5875
1875.29308	7155.3875
1878.43152	7142.7875
1881.56792	7157.4875
1884.70227	7135.3875
1887.83457	7116.0875
1890.96482	7121.5875
1894.09304	7104.6875
1897.21921	7113.7875
1900.34335	7118.8875
1903.46544	7087.9875
1906.58551	7078.9875
1909.70353	7086.1875
1912.81953	7065.3875
1915.93349	7064.1875
1919.04543	7043.2875
1922.15534	7048.8875
1925.26322	7033.9875
1928.36908	7014.5875
1931.47292	7004.0875
1934.57473	6971.8875
1937.67453	6958.9875
1940.77232	6929.8875
1943.86808	6917.6875
1946.96184	6894.4875
1950.05358	6881.1875
1953.14331	6876.4875
1956.23103	6844.9875
1959.31675	6828.6875
1962.40046	6797.2875
1965.48217	6787.6875
1968.56188	6779.3875
1971.63959	6738.4875
1974.7153	6744.7875
1977.78901	6724.8875
1980.86073	6705.5875
1983.93046	6674.0875
1986.99819	6641.2875
1990.06394	6647.0875
1993.1277	6620.5875
1996.18947	6613.9875
1999.24925	6582.6875
2002.30706	6595.9875
2005.36288	6542.6875
2008.41672	6532.0875
2011.46859	6526.7875
2014.51848	6520.6875
2017.56639	6497.1875
2020.61233	6477.2875
2023.6563	6444.9875
2026.6983	6432.9875
2029.73833	6429.6875
2032.7764	6421.2875
2035.8125	6416.4875
2038.84664	6401.6875
2041.87881	6389.2875
2044.90903	6381.1875
2047.93729	6362.7875
2050.96359	6365.4875
2053.98794	6349.6875
2057.01034	6341.8875
2060.03078	6350.0875
2063.04927	6338.0875
2066.06582	6336.6875
2069.08042	6329.9875
2072.09307	6325.0875
2075.10378	6351.3875
2078.11255	6335.8875
2081.11938	6334.2875
2084.12426	6335.3875
2087.12722	6313.3875
2090.12824	6308.2875
2093.12732	6311.0875
2096.12447	6311.1875
2099.11969	6300.8875
2102.11299	6302.1875
2105.10435	6320.1875
2108.09379	6324.3875
2111.08131	6333.2875
2114.0669	6338.0875
2117.05057	6345.8875
2120.03233	6340.3875
2123.01216	6339.8875
2125.99008	6351.0875
2128.96609	6358.2875
2131.94018	6365.0875
2134.91236	6372.6875
2137.88263	6376.9875
2140.851	6366.4875
2143.81746	6376.3875
2146.78201	6387.6875
2149.74466	6378.9875
2152.7054	6367.7875
2155.66425	6369.2875
2158.6212	6361.2875
2161.57625	6354.1875
2164.52941	6363.8875
2167.48067	6384.8875
2170.43004	6387.8875
2173.37752	6371.7875
2176.32311	6375.9875
2179.26681	6361.7875
2182.20863	6370.8875
2185.14856	6368.3875
2188.08661	6361.9875
2191.02278	6363.9875
2193.95707	6374.3875
2196.88948	6364.3875
2199.82001	6351.7875
2202.74867	6337.8875
2205.67545	6354.2875
2208.60037	6334.2875
2211.52341	6334.0875
2214.44458	6345.6875
2217.36388	6324.5875
2220.28132	6324.2875
2223.1969	6318.6875
2226.11061	6307.2875
2229.02246	6271.8875
2231.93245	6288.1875
2234.84058	6264.3875
2237.74686	6269.1875
2240.65128	6234.2875
2243.55385	6238.6875
2246.45456	6221.5875
2249.35343	6203.7875
2252.25044	6225.5875
2255.14561	6203.2875
2258.03893	6202.5875
2260.93041	6177.0875
2263.82004	6157.8875
2266.70783	6165.7875
2269.59378	6139.1875
2272.4779	6115.3875
2275.36017	6119.6875
2278.24061	6118.1875
2281.11922	6109.7875
2283.996	6088.3875
2286.87094	6083.4875
2289.74405	6076.5875
2292.61534	6057.3875
2295.4848	6067.1875
2298.35243	6061.9875
2301.21824	6052.4875
2304.08223	6070.4875
2306.94439	6073.8875
2309.80474	6073.1875
2312.66327	6062.6875
2315.51999	6065.7875
2318.37489	6061.8875
2321.22797	6067.7875
2324.07925	6053.7875
2326.92871	6024.4875
2329.77637	6032.8875
2332.62222	6032.4875
2335.46626	6009.5875
2338.3085	6024.9875
2341.14893	6026.0875
2343.98756	6010.8875
2346.8244	5997.9875
2349.65943	6013.0875
2352.49267	6002.9875
2355.32411	6018.6875
2358.15376	6020.8875
2360.98161	6017.0875
2363.80768	6007.1875
2366.63195	5996.1875
2369.45444	5994.6875
2372.27514	5998.7875
2375.09405	5964.5875
2377.91118	5957.1875
2380.72652	5945.1875
2383.54009	5934.2875
2386.35187	5943.1875
2389.16188	5926.1875
2391.97011	5922.8875
2394.77657	5905.9875
2397.58125	5872.0875
2400.38416	5879.5875
2403.18529	5863.8875
2405.98466	5860.0875
2408.78226	5850.6875
2411.57809	5856.3875
2414.37216	5843.8875
2417.16446	5823.1875
2419.955	5828.0875
2422.74378	5826.9875
2425.5308	5812.2875
2428.31606	5839.2875
2431.09956	5809.5875
2433.88131	5812.4875
2436.6613	5805.2875
2439.43954	5804.9875
2442.21603	5804.4875
2444.99077	5800.9875
2447.76377	5819.0875
2450.53501	5793.4875
2453.30451	5809.6875
2456.07226	5797.1875
2458.83827	5802.8875
2461.60254	5768.5875
2464.36507	5797.4875
2467.12586	5795.1875
2469.88492	5785.3875
2472.64224	5795.8875
2475.39782	5794.6875
2478.15167	5788.6875
2480.90379	5787.6875
2483.65417	5781.0875
2486.40283	5780.7875
2489.14976	5793.1875
2491.89497	5791.7875
2494.63845	5800.0875
2497.3802	5771.2875
2500.12024	5800.4875
2502.85855	5772.9875
2505.59514	5779.6875
2508.33002	5765.1875
2511.06318	5780.5875
2513.79462	5763.2875
2516.52435	5748.8875
2519.25237	5757.5875
2521.97867	5728.0875
2524.70327	5741.8875
2527.42616	5730.0875
2530.14734	5730.7875
2532.86681	5737.4875
2535.58458	5714.5875
2538.30065	5715.7875
2541.01501	5722.9875
2543.72768	5706.3875
2546.43864	5687.2875
2549.14791	5701.3875
2551.85548	5692.2875
2554.56136	5679.6875
2557.26554	5672.2875
2559.96803	5666.0875
2562.66883	5674.1875
2565.36794	5677.9875
2568.06536	5662.6875
2570.7611	5664.8875
2573.45514	5644.8875
2576.14751	5651.3875
2578.83819	5641.6875
2581.52719	5655.6875
2584.21451	5606.8875
2586.90015	5610.6875
2589.58411	5620.0875
2592.2664	5623.2875
2594.94701	5616.3875
2597.62594	5615.9875
2600.30321	5598.0875
2602.9788	5583.3875
2605.65273	5594.8875
2608.32498	5591.4875
2610.99557	5585.5875
2613.66449	5583.3875
2616.33175	5580.6875
2618.99734	5589.1875
2621.66128	5583.2875
2624.32355	5592.0875
2626.98416	5598.2875
2629.64311	5577.8875
2632.30041	5581.7875
2634.95605	5571.6875
2637.61004	5555.4875
2640.26238	5561.7875
2642.91306	5561.5875
2645.56209	5550.4875
2648.20948	5547.4875
2650.85521	5540.5875
2653.4993	5551.3875
2656.14175	5557.2875
2658.78255	5564.7875
2661.42171	5563.9875
2664.05923	5586.2875
2666.6951	5580.9875
2669.32934	5592.1875
2671.96194	5568.6875
2674.59291	5557.9875
2677.22224	5566.3875
2679.84993	5573.5875
2682.476	5544.9875
2685.10043	5562.1875
2687.72324	5553.0875
2690.34441	5560.6875
2692.96396	5569.8875
2695.58188	5566.1875
2698.19818	5550.5875
2700.81285	5570.4875
2703.4259	5558.0875
2706.03733	5539.7875
2708.64714	5538.8875
2711.25533	5560.9875
2713.86191	5551.0875
2716.46687	5563.2875
2719.07021	5570.6875
2721.67194	5570.4875
2724.27206	5596.7875
2726.87057	5594.6875
2729.46747	5593.4875
2732.06276	5584.3875
2734.65644	5588.3875
2737.24852	5590.7875
2739.83899	5587.5875
2742.42786	5585.9875
2745.01513	5581.3875
2747.60079	5569.3875
2750.18486	5564.5875
2752.76733	5574.2875
2755.3482	5555.3875
2757.92747	5579.4875
2760.50515	5560.3875
2763.08123	5572.9875
2765.65573	5574.7875
2768.22863	5564.8875
2770.79994	5565.7875
2773.36967	5555.1875
2775.9378	5545.1875
2778.50435	5575.7875
2781.06932	5561.4875
2783.6327	5570.1875
2786.1945	5552.6875
2788.75471	5552.4875
2791.31335	5540.9875
2793.87041	5530.1875
2796.42589	5521.1875
2798.97979	5533.2875
2801.53212	5511.4875
2804.08288	5512.8875
2806.63206	5500.2875
2809.17967	5502.0875
2811.72571	5472.5875
2814.27018	5462.2875
2816.81308	5477.9875
2819.35442	5462.5875
2821.89419	5466.2875
2824.43239	5466.2875
2826.96904	5464.8875
2829.50412	5462.7875
2832.03763	5441.8875
2834.56959	5463.1875
2837.1	5455.1875
2839.62884	5462.5875
2842.15613	5476.6875
2844.68186	5500.0875
2847.20604	5526.7875
2849.72867	5544.3875
2852.24974	5538.9875
2854.76927	5539.9875
2857.28724	5524.1875
2859.80367	5512.8875
2862.31855	5518.7875
2864.83189	5501.3875
2867.34368	5514.0875
2869.85393	5505.1875
2872.36264	5504.7875
2874.8698	5486.4875
2877.37543	5504.6875
2879.87952	5510.7875
2882.38207	5509.6875
2884.88308	5509.7875
2887.38256	5505.4875
2889.88051	5508.9875
2892.37692	5535.9875
2894.8718	5538.6875
2897.36515	5532.0875
2899.85698	5546.1875
2902.34727	5570.6875
2904.83604	5585.6875
2907.32328	5588.6875
2909.809	5579.4875
2912.29319	5592.4875
2914.77587	5614.5875
2917.25702	5598.7875
2919.73665	5584.4875
2922.21476	5596.4875
2924.69136	5605.3875
2927.16644	5615.5875
2929.64	5592.5875
2932.11205	5590.0875
2934.58258	5594.5875
2937.05161	5595.7875
2939.51912	5618.0875
2941.98513	5600.1875
2944.44962	5566.6875
2946.91261	5536.7875
2949.37409	5557.0875
2951.83407	5540.1875
2954.29254	5522.6875
2956.74951	5513.0875
2959.20498	5527.3875
2961.65895	5504.3875
2964.11142	5517.0875
2966.56239	5487.5875
2969.01186	5476.2875
2971.45984	5445.9875
2973.90632	5450.4875
2976.35131	5424.7875
2978.7948	5426.2875
2981.23681	5414.6875
2983.67732	5396.9875
2986.11635	5385.3875
2988.55388	5371.1875
2990.98993	5373.0875
2993.4245	5346.3875
2995.85758	5352.8875
2998.28917	5320.0875
3000.71928	5319.7875
3003.14791	5305.7875
3005.57506	5312.8875
3008.00073	5301.2875
3010.42493	5301.5875
3012.84764	5286.8875
3015.26888	5303.2875
3017.68865	5290.0875
3020.10694	5259.0875
3022.52376	5262.0875
3024.9391	5237.1875
3027.35298	5244.5875
3029.76539	5259.4875
3032.17632	5229.3875
3034.5858	5240.7875
3036.9938	5236.9875
3039.40034	5221.5875
3041.80542	5241.9875
3044.20903	5221.9875
3046.61118	5219.2875
3049.01187	5215.3875
3051.4111	5221.3875
3053.80888	5208.2875
3056.20519	5207.0875
3058.60005	5196.4875
3060.99345	5182.6875
3063.3854	5183.9875
3065.7759	5171.8875
3068.16494	5157.3875
3070.55254	5147.5875
3072.93868	5138.5875
3075.32338	5135.8875
3077.70662	5139.6875
3080.08842	5120.6875
3082.46878	5139.7875
3084.84769	5122.5875
3087.22515	5135.5875
3089.60118	5132.5875
3091.97576	5132.3875
3094.3489	5136.8875
3096.72061	5137.2875
3099.09087	5143.0875
3101.4597	5145.2875
