Data from AgNPs_FTO_APTES_UA_1uM_CRN_1uM_R6G_10uM_NaF_0.1M_Addition_RamanShift__35__12-52-59-525.txt Node

Date: Thu Jan 27 12:52:59 GMT 2022
User: TCL
Spectrometer: QEP01345
Trigger mode: 4
Integration Time (sec): 7.000000E0
Scans to average: 10
Electric dark correction enabled: true
Nonlinearity correction enabled: false
Boxcar width: 0
XAxis mode: Raman Shifts
Number of Pixels in Spectrum: 1044
>>>>>Begin Spectral Data<<<<<
46.04893	-0.2
50.45542	-0.7
54.85868	-2.2
59.25871	-0.7
63.6555	63.8
68.04907	65.5
72.43941	66.9
76.82654	67.9
81.21044	67.9
85.59113	69.9
89.96862	77.2
94.34289	77.8
98.71396	82
103.08183	82.8
107.4465	85.8
111.80798	88.4
116.16626	88.6
120.52136	93.6
124.87327	93.4
129.222	93.2
133.56755	98.4
137.90993	108.5
142.24913	115.8
146.58517	128.9
150.91804	146.2
155.24774	170.7
159.57429	208.8
163.89768	263.8
168.21792	348.4
172.53501	464.5
176.84895	640.1
181.15975	897
185.46741	1257.8
189.77193	1739
194.07331	2340.3
198.37157	3002.5
202.6667	3713
206.9587	4428.7
211.24758	5118.7
215.53334	5830
219.81599	6567.6
224.09553	7374.8
228.37195	8277
232.64527	9255.2
236.91549	10309.4
241.18261	11362.6
245.44663	12343.1
249.70755	13255
253.96539	14061.9
258.22014	14695
262.4718	15250
266.72039	15598.6
270.96589	15828.2
275.20832	15804.2
279.44768	15692.2
283.68397	15461.8
287.91719	15245.1
292.14735	15099.1
296.37445	15066
300.59849	15089.2
304.81948	15158.4
309.03742	15253
313.25231	15198.7
317.46415	15031.3
321.67296	14774.7
325.87872	14567.8
330.08145	14524
334.28114	14559.3
338.47781	14667.1
342.67145	14857.2
346.86207	15086.4
351.04966	15359.1
355.23424	15642.1
359.4158	15970.6
363.59435	16198.4
367.76989	16386.9
371.94243	16504.7
376.11196	16610.8
380.27849	16719.4
384.44203	16839.7
388.60257	16955.4
392.76012	17036.7
396.91468	17260.5
401.06626	17510
405.21485	17705.2
409.36047	17703.5
413.50311	17495.8
417.64277	17404.7
421.77947	17358.6
425.9132	17411.1
430.04396	17492.1
434.17176	17628.7
438.2966	17854.8
442.41849	18221.2
446.53742	18782.5
450.6534	19457.1
454.76644	19950.5
458.87653	20112.1
462.98368	19918.6
467.08789	19539.8
471.18916	19139.4
475.2875	18688.1
479.38291	18398.4
483.4754	18211.6
487.56496	18016.6
491.6516	17918.8
495.73531	17854.5
499.81612	17809.3
503.89401	17965.8
507.96899	17940
512.04106	17866.3
516.11023	17828.2
520.1765	17878.1
524.23987	17929.1
528.30034	17917.2
532.35792	17844.5
536.41261	17640.5
540.46441	17428.4
544.51333	17291.4
548.55936	17406.3
552.60252	17631.5
556.64279	17893.5
560.6802	18091.4
564.71473	18090.2
568.7464	18181.2
572.7752	18339
576.80114	18498.5
580.82422	18764.7
584.84444	19121.9
588.86181	19749
592.87633	20534.5
596.888	21149.4
600.89682	21084.4
604.9028	21468.4
608.90594	23025.7
612.90624	24701.1
616.90371	23690.4
620.89834	20688.1
624.89015	19383.8
628.87913	19178
632.86528	18975.4
636.84862	18607.9
640.82913	18152.2
644.80683	17747.4
648.78172	17489.5
652.75379	17480.6
656.72306	17753.1
660.68952	18109.8
664.65319	18109.5
668.61405	17889
672.57211	17868.2
676.52738	17889.4
680.47986	17803.2
684.42955	17719.1
688.37646	17664.7
692.32058	17844
696.26192	18085.9
700.20048	18312.1
704.13626	18397.4
708.06928	18169.2
711.99952	17944.5
715.927	17971.9
719.85171	18082.6
723.77365	18046
727.69284	17795.5
731.60928	17609.7
735.52295	17539.4
739.43388	17590
743.34206	17659.7
747.24749	17780.4
751.15017	17856.7
755.05012	18082.1
758.94733	18433.7
762.8418	19007
766.73354	19951.7
770.62254	20955.3
774.50882	21432.1
778.39237	20967.1
782.27321	19942.2
786.15132	19001.5
790.02671	18436.6
793.89938	18236.4
797.76935	18195.8
801.6366	18120.7
805.50115	18076.3
809.36299	18005
813.22213	17886.1
817.07857	17787.6
820.93231	17767
824.78336	17817.8
828.63172	17899.1
832.47738	17994.4
836.32036	18134
840.16066	18339.5
843.99827	18482.9
847.8332	18412.4
851.66546	18202.4
855.49504	18109
859.32195	18082.4
863.1462	18019.2
866.96777	17868.4
870.78668	17801.8
874.60293	17779.5
878.41652	17807.2
882.22745	17862.3
886.03573	17972.7
889.84136	17948.9
893.64433	17864.1
897.44466	17748.8
901.24235	17680.5
905.0374	17636.2
908.8298	17634.6
912.61957	17679.2
916.40671	17847.1
920.19121	18078.8
923.97308	18436.1
927.75233	18692.5
931.52895	18797.1
935.30295	18649.8
939.07433	18378.5
942.84309	18150.9
946.60924	18090.1
950.37278	18062.6
954.13371	17880
957.89203	17721.3
961.64774	17593
965.40086	17552.7
969.15137	17512.6
972.89929	17555
976.64461	17609.9
980.38733	17699.8
984.12747	17913.2
987.86502	18196.7
991.59999	18563.7
995.33237	19125.2
999.06217	19969.7
1002.78939	20947.8
1006.51404	21372.7
1010.23611	21423.6
1013.95561	21427.8
1017.67255	21350.5
1021.38692	21093.1
1025.09872	21054.3
1028.80796	21798.3
1032.51465	23338.7
1036.21877	24789.3
1039.92035	24973.2
1043.61937	24192
1047.31584	22951.1
1051.00976	21569
1054.70114	20696.8
1058.38998	20322.9
1062.07627	20124.7
1065.76003	19944.7
1069.44126	19849.5
1073.11995	20015
1076.79611	20276.2
1080.46974	20509.4
1084.14085	20665
1087.80943	20792.5
1091.47549	20719.1
1095.13903	20565.8
1098.80005	20292.4
1102.45857	20064.6
1106.11456	19917.3
1109.76805	19978.1
1113.41903	20030.6
1117.06751	20041.8
1120.71348	20127.8
1124.35696	20204.1
1127.99793	20293.8
1131.63641	20419.8
1135.2724	20305.4
1138.90589	20118.9
1142.5369	20020.7
1146.16542	19955.7
1149.79145	19960.3
1153.415	19997.7
1157.03607	20091.3
1160.65467	20318.3
1164.27079	20831.4
1167.88443	21618.6
1171.49561	22670.9
1175.10432	24096.6
1178.71056	25969.2
1182.31434	27923.5
1185.91565	29173.6
1189.51451	29223.7
1193.11091	28251.7
1196.70485	26909.6
1200.29634	25815.5
1203.88538	25114.3
1207.47197	24619.6
1211.05612	24108.5
1214.63782	23745
1218.21708	23678.5
1221.79391	23875.1
1225.36829	23896.3
1228.94024	23646.8
1232.50976	22937.8
1236.07685	22394.5
1239.6415	22092.8
1243.20374	22070.8
1246.76355	22352.7
1250.32093	22778.1
1253.8759	23385.5
1257.42845	24121.9
1260.97859	24720.7
1264.52631	25386.8
1268.07163	26133.3
1271.61453	27031.1
1275.15503	28031.5
1278.69312	28957.1
1282.22882	29536.8
1285.76211	29860.3
1289.29301	30154.4
1292.82151	30682.7
1296.34761	31725.5
1299.87133	33412.4
1303.39266	35762.2
1306.9116	38387.6
1310.42815	40543
1313.94233	41335.4
1317.45412	40499.2
1320.96354	38745.8
1324.47058	36792.6
1327.97525	35021.2
1331.47754	33784.9
1334.97747	33051.4
1338.47502	32608.2
1341.97022	32182.2
1345.46305	31681.8
1348.95352	31550.7
1352.44163	32201.4
1355.92738	33794.7
1359.41078	36316.5
1362.89183	38264.9
1366.37053	37746.8
1369.84688	34869.3
1373.32088	31275.2
1376.79254	28730.2
1380.26186	27567.7
1383.72883	27249.2
1387.19347	27042
1390.65578	26580.1
1394.11575	26225.4
1397.57339	26216.9
1401.0287	26384.7
1404.48168	26523.1
1407.93234	26649.6
1411.38068	26519.1
1414.82669	26288.4
1418.27039	25813.7
1421.71177	25217.5
1425.15083	24690
1428.58758	24479.4
1432.02203	24683.2
1435.45416	25117.2
1438.88399	25628.5
1442.31151	25902.1
1445.73673	25999.4
1449.15965	26077
1452.58027	25975.4
1455.9986	25779.1
1459.41463	25670.3
1462.82837	25987.4
1466.23982	26539
1469.64898	27170.6
1473.05586	27654.8
1476.46045	27983.4
1479.86276	28081.5
1483.26279	27965.7
1486.66054	27836.9
1490.05602	27884.6
1493.44922	28019
1496.84016	28089.6
1500.22882	28164.1
1503.61521	28426.5
1506.99934	29063.6
1510.38121	29632.8
1513.76081	29809.5
1517.13816	29384.9
1520.51324	28461.4
1523.88607	27582.9
1527.25665	27067.2
1530.62498	26851.6
1533.99105	26812.6
1537.35488	26710.9
1540.71647	26563.8
1544.07581	26377.2
1547.4329	26053.5
1550.78776	25861.8
1554.14038	25614.8
1557.49077	25413.5
1560.83892	25196.2
1564.18484	24953.1
1567.52853	24903.6
1570.86999	25055.3
1574.20922	25220.7
1577.54624	25335.6
1580.88103	25390.5
1584.2136	25570.6
1587.54395	26354.9
1590.87208	27959.3
1594.19801	30092.5
1597.52172	32068.3
1600.84321	32878.2
1604.16251	31714.6
1607.47959	29156.6
1610.79447	26444.3
1614.10715	24210.4
1617.41763	22702.2
1620.7259	21829.9
1624.03199	21490.9
1627.33587	21716.4
1630.63757	22310.5
1633.93707	23312.1
1637.23439	24676.8
1640.52951	26566.1
1643.82246	28770.6
1647.11321	30420.3
1650.40179	30476.7
1653.68819	28553.9
1656.97241	25517.1
1660.25446	22706.4
1663.53433	20818.4
1666.81203	19712.9
1670.08756	19000.8
1673.36092	18592.5
1676.63211	18319.7
1679.90115	18108.3
1683.16801	17929.4
1686.43272	17819.3
1689.69527	17748.8
1692.95567	17666
1696.2139	17560.6
1699.46999	17528.1
1702.72392	17510.8
1705.97571	17501.5
1709.22535	17583.5
1712.47284	17590.8
1715.71819	17636.2
1718.96139	17601.8
1722.20246	17563.2
1725.44139	17507.5
1728.67818	17478.3
1731.91284	17399.7
1735.14537	17304.7
1738.37576	17289
1741.60403	17244.3
1744.83017	17185.9
1748.05418	17138.3
1751.27607	17114.1
1754.49584	17084.1
1757.71349	17062.1
1760.92903	17051.5
1764.14244	17038.7
1767.35375	17047.3
1770.56294	17011.8
1773.77002	17045.6
1776.97499	17054.9
1780.17785	17034.3
1783.37861	17076.4
1786.57727	17053.8
1789.77382	17051.1
1792.96828	17047.2
1796.16064	17027.7
1799.3509	16984.5
1802.53907	16997.9
1805.72514	16964.2
1808.90913	16937.3
1812.09102	16925.5
1815.27083	16877.8
1818.44856	16890.8
1821.6242	16868.5
1824.79776	16812.2
1827.96924	16832.2
1831.13864	16818.1
1834.30597	16823.6
1837.47122	16792.6
1840.6344	16796.1
1843.7955	16810.4
1846.95454	16810
1850.11151	16806
1853.26642	16763.1
1856.41926	16778.8
1859.57004	16819.6
1862.71876	16784.7
1865.86542	16809.4
1869.01003	16806.1
1872.15258	16789.5
1875.29308	16770.2
1878.43152	16799.4
1881.56792	16775.7
1884.70227	16778.2
1887.83457	16740
1890.96482	16721.6
1894.09304	16705.4
1897.21921	16743.2
1900.34335	16730.7
1903.46544	16721.3
1906.58551	16757.1
1909.70353	16740.1
1912.81953	16731.3
1915.93349	16705.3
1919.04543	16696.4
1922.15534	16658.3
1925.26322	16665.7
1928.36908	16637.8
1931.47292	16596.4
1934.57473	16570.5
1937.67453	16547
1940.77232	16520.6
1943.86808	16440
1946.96184	16399.3
1950.05358	16380.5
1953.14331	16346.4
1956.23103	16305.6
1959.31675	16297.1
1962.40046	16254.8
1965.48217	16241.2
1968.56188	16187.7
1971.63959	16148.2
1974.7153	16120.8
1977.78901	16058.1
1980.86073	16034.8
1983.93046	16018.7
1986.99819	15952.9
1990.06394	15857.2
1993.1277	15860.2
1996.18947	15825.6
1999.24925	15791.6
2002.30706	15761.9
2005.36288	15728.8
2008.41672	15673.9
2011.46859	15624.8
2014.51848	15603.7
2017.56639	15540.2
2020.61233	15570
2023.6563	15563.5
2026.6983	15519.6
2029.73833	15469
2032.7764	15493.4
2035.8125	15510.2
2038.84664	15498.4
2041.87881	15463.8
2044.90903	15459.3
2047.93729	15416.5
2050.96359	15404.5
2053.98794	15369.9
2057.01034	15355.2
2060.03078	15393.8
2063.04927	15367.7
2066.06582	15397
2069.08042	15389.5
2072.09307	15368.5
2075.10378	15363.5
2078.11255	15350.6
2081.11938	15337.4
2084.12426	15335.6
2087.12722	15342.8
2090.12824	15317.3
2093.12732	15333.5
2096.12447	15307.7
2099.11969	15336.9
2102.11299	15363.9
2105.10435	15366.6
2108.09379	15375.3
2111.08131	15399.8
2114.0669	15412.5
2117.05057	15427
2120.03233	15413.9
2123.01216	15449.8
2125.99008	15484.2
2128.96609	15492.1
2131.94018	15503.6
2134.91236	15539.7
2137.88263	15531.8
2140.851	15574.7
2143.81746	15600.7
2146.78201	15627.2
2149.74466	15643.8
2152.7054	15649.3
2155.66425	15650.5
2158.6212	15653.9
2161.57625	15633.8
2164.52941	15655.4
2167.48067	15625.7
2170.43004	15626.9
2173.37752	15634.6
2176.32311	15649
2179.26681	15672.3
2182.20863	15662.5
2185.14856	15703.2
2188.08661	15736.3
2191.02278	15713.4
2193.95707	15743.7
2196.88948	15735
2199.82001	15785.2
2202.74867	15795.3
2205.67545	15789.2
2208.60037	15767.7
2211.52341	15752.6
2214.44458	15738.6
2217.36388	15731.3
2220.28132	15730
2223.1969	15716.1
2226.11061	15689.7
2229.02246	15682.2
2231.93245	15653.7
2234.84058	15652
2237.74686	15611.6
2240.65128	15587.5
2243.55385	15574.4
2246.45456	15551
2249.35343	15524.9
2252.25044	15501.8
2255.14561	15505.7
2258.03893	15498.8
2260.93041	15467.2
2263.82004	15457
2266.70783	15401.5
2269.59378	15387.5
2272.4779	15356.5
2275.36017	15371.4
2278.24061	15322.2
2281.11922	15337.8
2283.996	15285.9
2286.87094	15306.1
2289.74405	15289.6
2292.61534	15284.8
2295.4848	15313.2
2298.35243	15333.6
2301.21824	15369
2304.08223	15361.8
2306.94439	15396.6
2309.80474	15402.8
2312.66327	15432.2
2315.51999	15438.8
2318.37489	15470.7
2321.22797	15467.8
2324.07925	15442.2
2326.92871	15408.2
2329.77637	15472.1
2332.62222	15423.9
2335.46626	15409.5
2338.3085	15417.2
2341.14893	15441.4
2343.98756	15491.8
2346.8244	15461.9
2349.65943	15448.9
2352.49267	15423
2355.32411	15419.5
2358.15376	15391.6
2360.98161	15379.1
2363.80768	15331.7
2366.63195	15309.8
2369.45444	15299.6
2372.27514	15280
2375.09405	15254.6
2377.91118	15224.1
2380.72652	15188.6
2383.54009	15193
2386.35187	15199.5
2389.16188	15140.1
2391.97011	15127.6
2394.77657	15189
2397.58125	15129.1
2400.38416	15114.7
2403.18529	15086.2
2405.98466	15056
2408.78226	15011.8
2411.57809	15021.5
2414.37216	14981
2417.16446	14983.6
2419.955	14946.4
2422.74378	14935.5
2425.5308	14959.9
2428.31606	14925.2
2431.09956	14910.2
2433.88131	14888.9
2436.6613	14936.5
2439.43954	14919.8
2442.21603	14912.2
2444.99077	14924.1
2447.76377	14963.3
2450.53501	14900.9
2453.30451	14921
2456.07226	14883.4
2458.83827	14884.4
2461.60254	14879.8
2464.36507	14923
2467.12586	14908.8
2469.88492	14931
2472.64224	14956.8
2475.39782	14969.1
2478.15167	14995.6
2480.90379	14992.6
2483.65417	14962.8
2486.40283	15020.3
2489.14976	15032.9
2491.89497	15026.7
2494.63845	15045.2
2497.3802	15034.1
2500.12024	15043
2502.85855	15005.3
2505.59514	15010.9
2508.33002	15009.9
2511.06318	14973.2
2513.79462	14959.6
2516.52435	14949.2
2519.25237	14982.3
2521.97867	14969.7
2524.70327	14977.1
2527.42616	14932.9
2530.14734	14943.9
2532.86681	14935.3
2535.58458	14949.1
2538.30065	14956.8
2541.01501	14967.3
2543.72768	14981.7
2546.43864	14934.9
2549.14791	14918.6
2551.85548	14926.9
2554.56136	14947.4
2557.26554	14894.3
2559.96803	14884.4
2562.66883	14867.5
2565.36794	14906.4
2568.06536	14878.5
2570.7611	14901.8
2573.45514	14866.7
2576.14751	14852.8
2578.83819	14874.4
2581.52719	14870.3
2584.21451	14892.6
2586.90015	14890.6
2589.58411	14890.2
2592.2664	14895.7
2594.94701	14829.3
2597.62594	14854.7
2600.30321	14827.1
2602.9788	14850.6
2605.65273	14808.7
2608.32498	14794.8
2610.99557	14808.3
2613.66449	14812.6
2616.33175	14811.8
2618.99734	14826.9
2621.66128	14826.2
2624.32355	14811.9
2626.98416	14808.4
2629.64311	14820.5
2632.30041	14815.4
2634.95605	14791
2637.61004	14749.2
2640.26238	14723.7
2642.91306	14724.9
2645.56209	14695.3
2648.20948	14715.7
2650.85521	14688.8
2653.4993	14678.8
2656.14175	14686.3
2658.78255	14710.1
2661.42171	14706
2664.05923	14759.9
2666.6951	14747
2669.32934	14784.2
2671.96194	14751.8
2674.59291	14778.2
2677.22224	14775.3
2679.84993	14801.1
2682.476	14748.1
2685.10043	14769
2687.72324	14695.9
2690.34441	14710.2
2692.96396	14693.3
2695.58188	14710.1
2698.19818	14683.1
2700.81285	14721.4
2703.4259	14655.6
2706.03733	14703.1
2708.64714	14650
2711.25533	14731.3
2713.86191	14766.2
2716.46687	14760.5
2719.07021	14754.3
2721.67194	14803.1
2724.27206	14789.1
2726.87057	14821.4
2729.46747	14804.9
2732.06276	14806.9
2734.65644	14801.6
2737.24852	14825.8
2739.83899	14754.7
2742.42786	14785.7
2745.01513	14757.9
2747.60079	14782
2750.18486	14746.2
2752.76733	14737.9
2755.3482	14755.9
2757.92747	14743.2
2760.50515	14745
2763.08123	14748.1
2765.65573	14746.9
2768.22863	14766.6
2770.79994	14771.5
2773.36967	14772.7
2775.9378	14772.3
2778.50435	14765
2781.06932	14741.9
2783.6327	14752.7
2786.1945	14718.9
2788.75471	14715.8
2791.31335	14687.4
2793.87041	14708.9
2796.42589	14670.7
2798.97979	14648.6
2801.53212	14645.1
2804.08288	14680.8
2806.63206	14598.7
2809.17967	14556.4
2811.72571	14527.7
2814.27018	14545
2816.81308	14518.6
2819.35442	14468.9
2821.89419	14465.5
2824.43239	14489
2826.96904	14470.2
2829.50412	14506.2
2832.03763	14482.6
2834.56959	14502.6
2837.1	14472.2
2839.62884	14495.5
2842.15613	14454.6
2844.68186	14532.7
2847.20604	14518.3
2849.72867	14525.7
2852.24974	14511.5
2854.76927	14484.4
2857.28724	14479.7
2859.80367	14487.3
2862.31855	14446.4
2864.83189	14436.7
2867.34368	14419.8
2869.85393	14452.9
2872.36264	14457.7
2874.8698	14435.7
2877.37543	14462.6
2879.87952	14441.2
2882.38207	14499.8
2884.88308	14505.2
2887.38256	14517.4
2889.88051	14501.1
2892.37692	14540.7
2894.8718	14522.2
2897.36515	14590.4
2899.85698	14579.4
2902.34727	14633.8
2904.83604	14640.9
2907.32328	14659.4
2909.809	14657.4
2912.29319	14651.2
2914.77587	14653.8
2917.25702	14649.7
2919.73665	14605
2922.21476	14633
2924.69136	14624.5
2927.16644	14589.1
2929.64	14589.1
2932.11205	14570.4
2934.58258	14548
2937.05161	14532.2
2939.51912	14532
2941.98513	14540
2944.44962	14499.9
2946.91261	14465
2949.37409	14495.2
2951.83407	14482.2
2954.29254	14463.4
2956.74951	14469
2959.20498	14478.2
2961.65895	14457.7
2964.11142	14469.5
2966.56239	14472.2
2969.01186	14447.4
2971.45984	14424.8
2973.90632	14409.3
2976.35131	14378.3
2978.7948	14336.8
2981.23681	14330.1
2983.67732	14332.1
2986.11635	14284.9
2988.55388	14254.1
2990.98993	14215.3
2993.4245	14221.4
2995.85758	14160.3
2998.28917	14171.9
3000.71928	14162.8
3003.14791	14103.9
3005.57506	14122.2
3008.00073	14112.1
3010.42493	14066.2
3012.84764	14097.1
3015.26888	14097.9
3017.68865	14034.9
3020.10694	14068.1
3022.52376	14023.3
3024.9391	14034.3
3027.35298	14029.8
3029.76539	14039.3
3032.17632	14027.6
3034.5858	14005.6
3036.9938	13967.6
3039.40034	13973.7
3041.80542	14007.6
3044.20903	13998.7
3046.61118	13963
3049.01187	13947.9
3051.4111	13939.9
3053.80888	13941.7
3056.20519	13907.3
3058.60005	13883.2
3060.99345	13878.7
3063.3854	13840.8
3065.7759	13810.8
3068.16494	13814.8
3070.55254	13792.8
3072.93868	13733.3
3075.32338	13739.9
3077.70662	13745.6
3080.08842	13728.5
3082.46878	13738.9
3084.84769	13687.4
3087.22515	13716.5
3089.60118	13712.2
3091.97576	13706.6
3094.3489	13742.6
3096.72061	13730.4
3099.09087	13725.7
3101.4597	13719
3103.82709	13740.8
3106.19305	13713.8
3108.55757	13706.2
3110.92066	13699
3113.28232	13676
3115.64255	13678.6
3118.00134	13660.1
3120.35871	13658.6
3122.71466	13625.4
3125.06917	13596.4
3127.42226	13584.2
3129.77393	13574.3
3132.12417	13581.6
3134.47299	13576.5
3136.82039	13559.6
3139.16636	13605.8
3141.51092	13612.1
3143.85406	13614.4
3146.19579	13611.6
3148.53609	13652.7
3150.87499	13669.8
3153.21246	13685.4
3155.54853	13671.1
3157.88318	13672.2
3160.21642	13684.7
3162.54826	13638.5
3164.87868	13672.3
3167.2077	13676.1
3169.5353	13696.1
3171.86151	13676.8
3174.18631	13683.4
3176.5097	13703.1
3178.83169	13670.5
3181.15228	13648.5
3183.47147	13638
3185.78926	13638.4
3188.10565	13637.3
3190.42065	13618.2
3192.73424	13642.4
3195.04645	13634.5
3197.35725	13622.7
3199.66667	13665.4
3201.97469	13659.2
3204.28132	13633.9
3206.58656	13664.2
3208.8904	13673.1
3211.19287	13696.9
3213.49394	13719.3
3215.79363	13740
3218.09193	13723.9
3220.38884	13720.2
3222.68438	13715
3224.97853	13676.6
3227.2713	13712.6
3229.56269	13698.1
3231.8527	13682.7
3234.14133	13689.4
3236.42858	13650.8
3238.71446	13617.8
3240.99896	13620.6
3243.28209	13626.1
3245.56384	13617.9
3247.84423	13590.2
3250.12324	13602.4
3252.40088	13589.4
3254.67715	13620.6
3256.95205	13612
3259.22558	13611.3
3261.49775	13603.2
3263.76855	13573.9
3266.03799	13550.4
3268.30606	13545.6
3270.57277	13571.1
3272.83812	13532.2
3275.10211	13514.2
3277.36474	13454.5
3279.62601	13467.9
3281.88593	13437.5
3284.14448	13456.3
3286.40168	13501.6
3288.65753	13475.6
3290.91202	13457.3
3293.16516	13427.7
3295.41695	13417
3297.66738	13336.9
3299.91647	13296.4
3302.16421	13219.8
3304.4106	13176.7
3306.65564	13120.5
3308.89933	13048.1
3311.14169	12972
3313.38269	12855.3
3315.62236	12816
3317.86068	12696.6
3320.09766	12621.3
3322.3333	12561.9
3324.5676	12545.5
3326.80056	12373.8
3329.03219	12287.9
3331.26248	4.6
3333.49143	0.3
3335.71905	-1
