Data from AgNPs_FTO_APTES_UA_1uM_CRN_10uM_R6G_10uM_NaF_0.1M_Addition_RamanShift__23__14-42-39-651.txt Node

Date: Thu Jan 27 14:42:39 GMT 2022
User: TCL
Spectrometer: QEP01345
Trigger mode: 4
Integration Time (sec): 7.000000E0
Scans to average: 10
Electric dark correction enabled: true
Nonlinearity correction enabled: false
Boxcar width: 0
XAxis mode: Raman Shifts
Number of Pixels in Spectrum: 1044
>>>>>Begin Spectral Data<<<<<
46.04893	1.5125
50.45542	0.5125
54.85868	-0.9875
59.25871	-2.0875
63.6555	49.8125
68.04907	48.7125
72.43941	48.6125
76.82654	55.2125
81.21044	57.9125
85.59113	59.2125
89.96862	59.7125
94.34289	63.0125
98.71396	64.5125
103.08183	64.3125
107.4465	70.1125
111.80798	68.8125
116.16626	70.5125
120.52136	77.7125
124.87327	78.0125
129.222	77.7125
133.56755	81.0125
137.90993	85.9125
142.24913	94.3125
146.58517	101.7125
150.91804	122.4125
155.24774	142.0125
159.57429	168.9125
163.89768	214.6125
168.21792	286.2125
172.53501	380.9125
176.84895	527.3125
181.15975	736.5125
185.46741	1024.7125
189.77193	1406.8125
194.07331	1898.5125
198.37157	2438.1125
202.6667	3009.3125
206.9587	3589.8125
211.24758	4139.0125
215.53334	4693.4125
219.81599	5298.8125
224.09553	5977.4125
228.37195	6726.5125
232.64527	7527.0125
236.91549	8419.3125
241.18261	9246.8125
245.44663	10021.5125
249.70755	10703.4125
253.96539	11320.1125
258.22014	11857.2125
262.4718	12267.7125
266.72039	12642.3125
270.96589	12853.0125
275.20832	12898.0125
279.44768	12852.2125
283.68397	12778.4125
287.91719	12700.3125
292.14735	12652.0125
296.37445	12717.3125
300.59849	12827.8125
304.81948	12952.1125
309.03742	12971.2125
313.25231	12812.0125
317.46415	12431.0125
321.67296	11935.8125
325.87872	11559.4125
330.08145	11349.2125
334.28114	11350.2125
338.47781	11456.1125
342.67145	11630.9125
346.86207	11909.7125
351.04966	12222.2125
355.23424	12595.0125
359.4158	12941.1125
363.59435	13086.7125
367.76989	13227.4125
371.94243	13301.5125
376.11196	13379.9125
380.27849	13421.8125
384.44203	13451.4125
388.60257	13487.9125
392.76012	13576.9125
396.91468	13693.9125
401.06626	13957.0125
405.21485	14129.6125
409.36047	14112.1125
413.50311	13768.1125
417.64277	13525.3125
421.77947	13427.3125
425.9132	13436.9125
430.04396	13517.3125
434.17176	13608.4125
438.2966	13768.6125
442.41849	13967.8125
446.53742	14295.9125
450.6534	14714.7125
454.76644	15018.0125
458.87653	15149.3125
462.98368	15144.9125
467.08789	14982.8125
471.18916	14758.0125
475.2875	14516.3125
479.38291	14359.3125
483.4754	14236.2125
487.56496	14040.0125
491.6516	13841.9125
495.73531	13673.5125
499.81612	13609.3125
503.89401	13674.6125
507.96899	13713.4125
512.04106	13735.3125
516.11023	13740.5125
520.1765	13716.5125
524.23987	13619.7125
528.30034	13476.8125
532.35792	13334.7125
536.41261	13168.2125
540.46441	13025.3125
544.51333	12976.4125
548.55936	13125.8125
552.60252	13391.6125
556.64279	13677.0125
560.6802	13817.7125
564.71473	13948.0125
568.7464	14156.2125
572.7752	14429.5125
576.80114	14514.7125
580.82422	14545.7125
584.84444	14664.0125
588.86181	14746.9125
592.87633	14890.3125
596.888	15076.1125
600.89682	15260.3125
604.9028	15946.9125
608.90594	17751.1125
612.90624	19910.7125
616.90371	19124.4125
620.89834	15627.4125
624.89015	13993.9125
628.87913	13820.4125
632.86528	13795.5125
636.84862	13723.7125
640.82913	13529.8125
644.80683	13134.9125
648.78172	12849.0125
652.75379	12815.1125
656.72306	12988.1125
660.68952	13271.6125
664.65319	13277.7125
668.61405	13012.3125
672.57211	12870.4125
676.52738	12842.6125
680.47986	12875.1125
684.42955	12844.0125
688.37646	12813.1125
692.32058	12812.6125
696.26192	12976.2125
700.20048	13083.9125
704.13626	13142.7125
708.06928	13124.2125
711.99952	13018.3125
715.927	12940.6125
719.85171	12978.2125
723.77365	12954.0125
727.69284	12824.9125
731.60928	12706.1125
735.52295	12675.7125
739.43388	12720.7125
743.34206	12793.6125
747.24749	12842.5125
751.15017	12947.1125
755.05012	13194.4125
758.94733	13562.6125
762.8418	14340.5125
766.73354	15555.7125
770.62254	16803.8125
774.50882	17242.5125
778.39237	16522.8125
782.27321	15150.9125
786.15132	13952.0125
790.02671	13261.8125
793.89938	12980.9125
797.76935	12838.2125
801.6366	12802.1125
805.50115	12763.5125
809.36299	12680.4125
813.22213	12643.8125
817.07857	12596.3125
820.93231	12594.6125
824.78336	12578.5125
828.63172	12604.3125
832.47738	12622.1125
836.32036	12666.5125
840.16066	12692.8125
843.99827	12717.9125
847.8332	12717.9125
851.66546	12612.7125
855.49504	12571.7125
859.32195	12539.5125
863.1462	12512.1125
866.96777	12439.9125
870.78668	12407.2125
874.60293	12420.5125
878.41652	12432.9125
882.22745	12467.2125
886.03573	12513.5125
889.84136	12490.5125
893.64433	12417.0125
897.44466	12340.3125
901.24235	12365.0125
905.0374	12326.0125
908.8298	12269.1125
912.61957	12338.4125
916.40671	12424.1125
920.19121	12583.8125
923.97308	12733.3125
927.75233	12792.1125
931.52895	12833.2125
935.30295	12703.9125
939.07433	12484.8125
942.84309	12284.2125
946.60924	12196.9125
950.37278	12121.5125
954.13371	12041.4125
957.89203	11980.6125
961.64774	11928.3125
965.40086	11877.6125
969.15137	11839.6125
972.89929	11765.6125
976.64461	11719.2125
980.38733	11782.6125
984.12747	11800.0125
987.86502	11917.3125
991.59999	12102.4125
995.33237	12350.0125
999.06217	12773.4125
1002.78939	13330.7125
1006.51404	13605.2125
1010.23611	13711.5125
1013.95561	13846.6125
1017.67255	13865.8125
1021.38692	13726.6125
1025.09872	13637.9125
1028.80796	13786.8125
1032.51465	14295.5125
1036.21877	14730.0125
1039.92035	14742.0125
1043.61937	14507.2125
1047.31584	14055.2125
1051.00976	13559.9125
1054.70114	13260.9125
1058.38998	13210.4125
1062.07627	13222.9125
1065.76003	13238.4125
1069.44126	13324.8125
1073.11995	13445.0125
1076.79611	13533.4125
1080.46974	13613.2125
1084.14085	13738.0125
1087.80943	13892.7125
1091.47549	13957.7125
1095.13903	13844.2125
1098.80005	13651.9125
1102.45857	13370.1125
1106.11456	13237.0125
1109.76805	13175.0125
1113.41903	13308.2125
1117.06751	13439.9125
1120.71348	13665.2125
1124.35696	13843.7125
1127.99793	14058.0125
1131.63641	14116.7125
1135.2724	13943.2125
1138.90589	13728.6125
1142.5369	13602.3125
1146.16542	13513.5125
1149.79145	13488.8125
1153.415	13533.0125
1157.03607	13687.7125
1160.65467	13933.1125
1164.27079	14392.8125
1167.88443	15069.6125
1171.49561	15978.5125
1175.10432	17322.1125
1178.71056	18971.8125
1182.31434	20511.6125
1185.91565	21355.7125
1189.51451	21379.6125
1193.11091	20695.2125
1196.70485	19615.9125
1200.29634	18625.4125
1203.88538	17849.5125
1207.47197	17249.7125
1211.05612	16725.0125
1214.63782	16451.1125
1218.21708	16288.5125
1221.79391	16292.5125
1225.36829	16293.9125
1228.94024	16251.0125
1232.50976	16105.4125
1236.07685	15931.6125
1239.6415	15827.8125
1243.20374	15809.8125
1246.76355	15841.3125
1250.32093	16026.3125
1253.8759	16401.7125
1257.42845	16857.8125
1260.97859	17301.1125
1264.52631	17699.3125
1268.07163	18096.8125
1271.61453	18604.3125
1275.15503	19132.1125
1278.69312	19760.2125
1282.22882	20201.4125
1285.76211	20617.0125
1289.29301	21008.6125
1292.82151	21568.3125
1296.34761	22282.2125
1299.87133	23363.5125
1303.39266	24713.1125
1306.9116	26427.6125
1310.42815	28269.2125
1313.94233	29544.3125
1317.45412	29535.3125
1320.96354	28770.8125
1324.47058	27797.7125
1327.97525	26886.3125
1331.47754	26309.8125
1334.97747	26035.5125
1338.47502	26155.3125
1341.97022	26328.0125
1345.46305	26309.4125
1348.95352	26092.8125
1352.44163	25964.3125
1355.92738	26360.5125
1359.41078	27804.3125
1362.89183	29369.4125
1366.37053	29018.5125
1369.84688	26387.6125
1373.32088	23416.2125
1376.79254	21328.9125
1380.26186	20344.3125
1383.72883	20059.4125
1387.19347	19921.2125
1390.65578	19715.2125
1394.11575	19643.6125
1397.57339	19831.1125
1401.0287	20233.2125
1404.48168	20699.5125
1407.93234	20973.4125
1411.38068	21079.9125
1414.82669	20784.9125
1418.27039	20140.2125
1421.71177	19402.3125
1425.15083	18727.5125
1428.58758	18340.7125
1432.02203	18265.0125
1435.45416	18445.6125
1438.88399	18715.8125
1442.31151	18953.8125
1445.73673	19224.6125
1449.15965	19449.8125
1452.58027	19625.2125
1455.9986	19665.6125
1459.41463	19700.3125
1462.82837	19951.5125
1466.23982	20302.6125
1469.64898	20644.5125
1473.05586	20875.2125
1476.46045	20932.0125
1479.86276	20930.1125
1483.26279	20909.2125
1486.66054	20931.7125
1490.05602	21019.7125
1493.44922	21306.9125
1496.84016	21625.5125
1500.22882	22053.6125
1503.61521	22777.2125
1506.99934	23767.0125
1510.38121	24851.9125
1513.76081	25383.1125
1517.13816	24957.6125
1520.51324	23691.1125
1523.88607	22327.6125
1527.25665	21309.1125
1530.62498	20743.6125
1533.99105	20411.5125
1537.35488	20184.6125
1540.71647	19985.0125
1544.07581	19792.2125
1547.4329	19576.2125
1550.78776	19358.5125
1554.14038	19269.2125
1557.49077	19257.5125
1560.83892	19279.1125
1564.18484	19357.5125
1567.52853	19369.8125
1570.86999	19398.9125
1574.20922	19497.4125
1577.54624	19604.7125
1580.88103	19547.7125
1584.2136	19457.3125
1587.54395	19800.9125
1590.87208	20594.9125
1594.19801	21823.1125
1597.52172	23135.5125
1600.84321	23735.8125
1604.16251	22927.6125
1607.47959	21317.9125
1610.79447	19551.4125
1614.10715	17952.0125
1617.41763	16647.9125
1620.7259	15744.2125
1624.03199	15325.7125
1627.33587	15317.7125
1630.63757	15779.3125
1633.93707	16573.1125
1637.23439	17845.6125
1640.52951	19447.6125
1643.82246	21069.4125
1647.11321	22355.1125
1650.40179	22720.7125
1653.68819	21598.8125
1656.97241	19256.8125
1660.25446	16787.7125
1663.53433	14881.1125
1666.81203	13672.6125
1670.08756	12932.5125
1673.36092	12488.3125
1676.63211	12171.1125
1679.90115	11948.7125
1683.16801	11798.4125
1686.43272	11661.1125
1689.69527	11579.1125
1692.95567	11498.5125
1696.2139	11431.9125
1699.46999	11354.6125
1702.72392	11314.1125
1705.97571	11353.6125
1709.22535	11349.1125
1712.47284	11365.0125
1715.71819	11353.8125
1718.96139	11335.9125
1722.20246	11313.4125
1725.44139	11281.5125
1728.67818	11232.0125
1731.91284	11155.2125
1735.14537	11112.8125
1738.37576	11078.1125
1741.60403	11025.8125
1744.83017	11010.1125
1748.05418	10981.9125
1751.27607	10953.1125
1754.49584	10916.5125
1757.71349	10898.1125
1760.92903	10853.0125
1764.14244	10827.2125
1767.35375	10858.6125
1770.56294	10824.4125
1773.77002	10838.0125
1776.97499	10834.1125
1780.17785	10841.7125
1783.37861	10860.3125
1786.57727	10851.3125
1789.77382	10826.4125
1792.96828	10826.3125
1796.16064	10801.8125
1799.3509	10781.9125
1802.53907	10787.4125
1805.72514	10768.8125
1808.90913	10734.3125
1812.09102	10712.7125
1815.27083	10702.2125
1818.44856	10680.1125
1821.6242	10662.7125
1824.79776	10651.9125
1827.96924	10629.3125
1831.13864	10654.8125
1834.30597	10648.4125
1837.47122	10636.1125
1840.6344	10658.8125
1843.7955	10654.9125
1846.95454	10656.0125
1850.11151	10639.3125
1853.26642	10658.3125
1856.41926	10653.6125
1859.57004	10688.4125
1862.71876	10668.5125
1865.86542	10676.9125
1869.01003	10652.3125
1872.15258	10665.9125
1875.29308	10667.3125
1878.43152	10676.8125
1881.56792	10684.7125
1884.70227	10666.9125
1887.83457	10674.6125
1890.96482	10684.2125
1894.09304	10671.4125
1897.21921	10685.5125
1900.34335	10681.0125
1903.46544	10675.5125
1906.58551	10676.5125
1909.70353	10672.9125
1912.81953	10655.2125
1915.93349	10657.4125
1919.04543	10620.2125
1922.15534	10615.9125
1925.26322	10588.0125
1928.36908	10562.5125
1931.47292	10524.2125
1934.57473	10495.4125
1937.67453	10464.7125
1940.77232	10412.6125
1943.86808	10365.0125
1946.96184	10346.7125
1950.05358	10306.1125
1953.14331	10275.4125
1956.23103	10251.7125
1959.31675	10214.8125
1962.40046	10176.2125
1965.48217	10161.3125
1968.56188	10119.2125
1971.63959	10059.1125
1974.7153	10048.3125
1977.78901	10019.9125
1980.86073	9996.0125
1983.93046	9967.9125
1986.99819	9933.5125
1990.06394	9892.9125
1993.1277	9883.0125
1996.18947	9823.2125
1999.24925	9819.4125
2002.30706	9772.6125
2005.36288	9775.3125
2008.41672	9733.4125
2011.46859	9713.9125
2014.51848	9687.0125
2017.56639	9678.1125
2020.61233	9658.9125
2023.6563	9642.7125
2026.6983	9615.5125
2029.73833	9610.4125
2032.7764	9574.4125
2035.8125	9577.6125
2038.84664	9549.9125
2041.87881	9537.2125
2044.90903	9522.3125
2047.93729	9501.7125
2050.96359	9510.0125
2053.98794	9494.3125
2057.01034	9474.2125
2060.03078	9490.7125
2063.04927	9492.7125
2066.06582	9473.2125
2069.08042	9465.5125
2072.09307	9460.3125
2075.10378	9423.2125
2078.11255	9418.8125
2081.11938	9416.4125
2084.12426	9418.3125
2087.12722	9412.1125
2090.12824	9417.1125
2093.12732	9396.1125
2096.12447	9404.0125
2099.11969	9396.9125
2102.11299	9406.6125
2105.10435	9412.2125
2108.09379	9406.9125
2111.08131	9400.9125
2114.0669	9429.2125
2117.05057	9421.2125
2120.03233	9430.2125
2123.01216	9439.8125
2125.99008	9446.8125
2128.96609	9448.2125
2131.94018	9472.7125
2134.91236	9478.3125
2137.88263	9477.2125
2140.851	9471.0125
2143.81746	9485.6125
2146.78201	9483.3125
2149.74466	9494.6125
2152.7054	9502.8125
2155.66425	9492.3125
2158.6212	9502.2125
2161.57625	9484.5125
2164.52941	9490.7125
2167.48067	9460.5125
2170.43004	9462.2125
2173.37752	9494.9125
2176.32311	9467.9125
2179.26681	9500.6125
2182.20863	9467.3125
2185.14856	9475.6125
2188.08661	9492.5125
2191.02278	9510.1125
2193.95707	9486.0125
2196.88948	9496.5125
2199.82001	9511.3125
2202.74867	9493.0125
2205.67545	9494.1125
2208.60037	9492.0125
2211.52341	9478.6125
2214.44458	9481.2125
2217.36388	9452.7125
2220.28132	9456.8125
2223.1969	9437.2125
2226.11061	9424.4125
2229.02246	9401.5125
2231.93245	9388.0125
2234.84058	9346.2125
2237.74686	9328.8125
2240.65128	9346.4125
2243.55385	9322.8125
2246.45456	9323.8125
2249.35343	9278.0125
2252.25044	9275.8125
2255.14561	9275.8125
2258.03893	9264.6125
2260.93041	9231.1125
2263.82004	9234.4125
2266.70783	9203.7125
2269.59378	9199.6125
2272.4779	9159.5125
2275.36017	9143.7125
2278.24061	9165.1125
2281.11922	9134.1125
2283.996	9126.9125
2286.87094	9099.3125
2289.74405	9079.7125
2292.61534	9077.8125
2295.4848	9077.4125
2298.35243	9092.6125
2301.21824	9074.7125
2304.08223	9098.8125
2306.94439	9100.8125
2309.80474	9108.3125
2312.66327	9114.7125
2315.51999	9114.2125
2318.37489	9117.9125
2321.22797	9102.3125
2324.07925	9112.5125
2326.92871	9089.5125
2329.77637	9080.4125
2332.62222	9091.8125
2335.46626	9083.7125
2338.3085	9053.0125
2341.14893	9084.3125
2343.98756	9106.6125
2346.8244	9096.7125
2349.65943	9090.4125
2352.49267	9095.1125
2355.32411	9092.5125
2358.15376	9087.7125
2360.98161	9078.8125
2363.80768	9081.1125
2366.63195	9056.4125
2369.45444	9032.5125
2372.27514	9009.3125
2375.09405	8988.8125
2377.91118	8982.5125
2380.72652	8957.0125
2383.54009	8936.3125
2386.35187	8913.3125
2389.16188	8907.0125
2391.97011	8893.1125
2394.77657	8871.6125
2397.58125	8868.2125
2400.38416	8866.3125
2403.18529	8836.8125
2405.98466	8843.3125
2408.78226	8811.1125
2411.57809	8791.8125
2414.37216	8768.8125
2417.16446	8765.8125
2419.955	8757.4125
2422.74378	8759.2125
2425.5308	8751.6125
2428.31606	8744.6125
2431.09956	8748.3125
2433.88131	8727.0125
2436.6613	8716.5125
2439.43954	8714.6125
2442.21603	8719.6125
2444.99077	8725.9125
2447.76377	8695.9125
2450.53501	8708.0125
2453.30451	8712.3125
2456.07226	8707.9125
2458.83827	8698.1125
2461.60254	8695.3125
2464.36507	8682.0125
2467.12586	8693.2125
2469.88492	8704.1125
2472.64224	8734.3125
2475.39782	8695.6125
2478.15167	8715.3125
2480.90379	8713.4125
2483.65417	8722.5125
2486.40283	8728.2125
2489.14976	8748.1125
2491.89497	8749.4125
2494.63845	8741.2125
2497.3802	8738.4125
2500.12024	8743.0125
2502.85855	8744.7125
2505.59514	8753.6125
2508.33002	8723.6125
2511.06318	8693.4125
2513.79462	8707.9125
2516.52435	8670.7125
2519.25237	8683.7125
2521.97867	8679.0125
2524.70327	8680.9125
2527.42616	8666.7125
2530.14734	8646.0125
2532.86681	8653.5125
2535.58458	8648.0125
2538.30065	8632.3125
2541.01501	8628.1125
2543.72768	8644.9125
2546.43864	8635.0125
2549.14791	8615.0125
2551.85548	8618.0125
2554.56136	8618.2125
2557.26554	8589.6125
2559.96803	8580.6125
2562.66883	8603.2125
2565.36794	8617.8125
2568.06536	8572.2125
2570.7611	8574.1125
2573.45514	8556.5125
2576.14751	8552.4125
2578.83819	8551.2125
2581.52719	8538.6125
2584.21451	8557.3125
2586.90015	8552.0125
2589.58411	8545.4125
2592.2664	8555.0125
2594.94701	8555.8125
2597.62594	8540.7125
2600.30321	8547.4125
2602.9788	8522.0125
2605.65273	8520.2125
2608.32498	8522.2125
2610.99557	8533.2125
2613.66449	8538.6125
2616.33175	8534.7125
2618.99734	8561.7125
2621.66128	8553.1125
2624.32355	8530.1125
2626.98416	8549.3125
2629.64311	8547.4125
2632.30041	8547.4125
2634.95605	8543.6125
2637.61004	8512.9125
2640.26238	8518.1125
2642.91306	8497.1125
2645.56209	8493.6125
2648.20948	8496.4125
2650.85521	8497.8125
2653.4993	8471.2125
2656.14175	8467.7125
2658.78255	8498.1125
2661.42171	8487.8125
2664.05923	8505.2125
2666.6951	8484.3125
2669.32934	8510.9125
2671.96194	8500.0125
2674.59291	8520.4125
2677.22224	8529.2125
2679.84993	8522.0125
2682.476	8495.1125
2685.10043	8507.1125
2687.72324	8491.5125
2690.34441	8491.9125
2692.96396	8470.8125
2695.58188	8492.4125
2698.19818	8480.0125
2700.81285	8481.6125
2703.4259	8464.6125
2706.03733	8449.2125
2708.64714	8463.2125
2711.25533	8471.1125
2713.86191	8478.9125
2716.46687	8494.4125
2719.07021	8490.9125
2721.67194	8509.0125
2724.27206	8511.3125
2726.87057	8523.3125
2729.46747	8516.6125
2732.06276	8503.1125
2734.65644	8511.6125
2737.24852	8512.5125
2739.83899	8516.5125
2742.42786	8532.6125
2745.01513	8505.2125
2747.60079	8501.7125
2750.18486	8480.1125
2752.76733	8496.0125
2755.3482	8496.2125
2757.92747	8471.1125
2760.50515	8487.6125
2763.08123	8493.7125
2765.65573	8484.6125
2768.22863	8493.6125
2770.79994	8480.4125
2773.36967	8475.1125
2775.9378	8471.5125
2778.50435	8477.1125
2781.06932	8463.3125
2783.6327	8446.2125
2786.1945	8457.8125
2788.75471	8440.6125
2791.31335	8416.7125
2793.87041	8430.9125
2796.42589	8412.3125
2798.97979	8405.4125
2801.53212	8394.4125
2804.08288	8376.3125
2806.63206	8364.2125
2809.17967	8326.7125
2811.72571	8338.8125
2814.27018	8321.8125
2816.81308	8326.7125
2819.35442	8321.9125
2821.89419	8316.9125
2824.43239	8318.9125
2826.96904	8306.3125
2829.50412	8316.7125
2832.03763	8295.7125
2834.56959	8303.0125
2837.1	8276.4125
2839.62884	8283.8125
2842.15613	8291.2125
2844.68186	8306.1125
2847.20604	8312.8125
2849.72867	8335.1125
2852.24974	8315.4125
2854.76927	8302.2125
2857.28724	8313.6125
2859.80367	8285.3125
2862.31855	8277.3125
2864.83189	8244.8125
2867.34368	8256.4125
2869.85393	8261.2125
2872.36264	8232.4125
2874.8698	8259.9125
2877.37543	8246.7125
2879.87952	8255.6125
2882.38207	8248.7125
2884.88308	8243.3125
2887.38256	8249.9125
2889.88051	8260.5125
2892.37692	8249.5125
2894.8718	8254.2125
2897.36515	8267.4125
2899.85698	8271.4125
2902.34727	8286.3125
2904.83604	8267.9125
2907.32328	8308.9125
2909.809	8298.8125
2912.29319	8313.4125
2914.77587	8310.5125
2917.25702	8321.1125
2919.73665	8276.3125
2922.21476	8276.1125
2924.69136	8288.7125
2927.16644	8296.3125
2929.64	8304.2125
2932.11205	8295.7125
2934.58258	8246.7125
2937.05161	8252.0125
2939.51912	8244.7125
2941.98513	8229.9125
2944.44962	8204.3125
2946.91261	8183.4125
2949.37409	8201.5125
2951.83407	8205.9125
2954.29254	8182.3125
2956.74951	8181.2125
2959.20498	8192.1125
2961.65895	8170.5125
2964.11142	8151.9125
2966.56239	8139.8125
2969.01186	8120.9125
2971.45984	8110.5125
2973.90632	8108.4125
2976.35131	8099.1125
2978.7948	8064.5125
2981.23681	8057.0125
2983.67732	8038.4125
2986.11635	8022.3125
2988.55388	8010.7125
2990.98993	7994.0125
2993.4245	7978.0125
2995.85758	7990.2125
2998.28917	7950.0125
3000.71928	7950.3125
3003.14791	7928.7125
3005.57506	7934.3125
3008.00073	7901.7125
3010.42493	7901.8125
3012.84764	7902.1125
3015.26888	7897.3125
3017.68865	7856.2125
3020.10694	7842.1125
3022.52376	7843.7125
3024.9391	7819.7125
3027.35298	7803.3125
3029.76539	7831.2125
3032.17632	7823.0125
3034.5858	7801.7125
3036.9938	7803.0125
3039.40034	7808.5125
3041.80542	7799.2125
3044.20903	7789.9125
3046.61118	7774.4125
3049.01187	7770.0125
3051.4111	7770.9125
3053.80888	7736.3125
3056.20519	7743.7125
3058.60005	7712.4125
3060.99345	7674.0125
3063.3854	7677.1125
3065.7759	7645.8125
3068.16494	7646.6125
3070.55254	7617.4125
