Data from AgNPs_FTO_APTES_UA_1uM_CRN_10uM_R6G_10uM_NaF_0.1M_Addition_RamanShift__35__14-56-39-666.txt Node

Date: Thu Jan 27 14:56:39 GMT 2022
User: TCL
Spectrometer: QEP01345
Trigger mode: 4
Integration Time (sec): 7.000000E0
Scans to average: 10
Electric dark correction enabled: true
Nonlinearity correction enabled: false
Boxcar width: 0
XAxis mode: Raman Shifts
Number of Pixels in Spectrum: 1044
>>>>>Begin Spectral Data<<<<<
46.04893	1.3875
50.45542	0.5875
54.85868	-1.1125
59.25871	-0.7125
63.6555	34.7875
68.04907	35.6875
72.43941	37.6875
76.82654	38.5875
81.21044	39.3875
85.59113	41.9875
89.96862	42.2875
94.34289	43.6875
98.71396	43.9875
103.08183	42.6875
107.4465	49.2875
111.80798	50.4875
116.16626	47.7875
120.52136	55.3875
124.87327	51.8875
129.222	50.7875
133.56755	57.0875
137.90993	60.0875
142.24913	64.6875
146.58517	71.7875
150.91804	81.3875
155.24774	96.1875
159.57429	109.6875
163.89768	145.3875
168.21792	187.3875
172.53501	252.1875
176.84895	352.1875
181.15975	486.3875
185.46741	683.2875
189.77193	944.0875
194.07331	1255.5875
198.37157	1635.1875
202.6667	2018.4875
206.9587	2402.7875
211.24758	2769.8875
215.53334	3165.5875
219.81599	3560.6875
224.09553	3990.3875
228.37195	4486.9875
232.64527	5012.9875
236.91549	5580.0875
241.18261	6125.1875
245.44663	6661.8875
249.70755	7161.1875
253.96539	7577.1875
258.22014	7938.0875
262.4718	8243.3875
266.72039	8460.6875
270.96589	8549.7875
275.20832	8567.4875
279.44768	8499.5875
283.68397	8398.6875
287.91719	8327.0875
292.14735	8251.5875
296.37445	8223.2875
300.59849	8241.5875
304.81948	8298.1875
309.03742	8353.7875
313.25231	8325.2875
317.46415	8200.8875
321.67296	8030.5875
325.87872	7904.5875
330.08145	7839.0875
334.28114	7824.5875
338.47781	7891.0875
342.67145	8000.7875
346.86207	8110.9875
351.04966	8298.5875
355.23424	8477.6875
359.4158	8616.4875
363.59435	8744.3875
367.76989	8830.9875
371.94243	8908.6875
376.11196	8941.3875
380.27849	8998.1875
384.44203	9043.9875
388.60257	9097.2875
392.76012	9139.2875
396.91468	9253.4875
401.06626	9411.8875
405.21485	9511.6875
409.36047	9526.8875
413.50311	9473.7875
417.64277	9423.1875
421.77947	9497.6875
425.9132	9597.0875
430.04396	9742.5875
434.17176	9796.4875
438.2966	9783.7875
442.41849	9831.8875
446.53742	9992.9875
450.6534	10215.9875
454.76644	10392.7875
458.87653	10451.9875
462.98368	10328.1875
467.08789	10196.9875
471.18916	10045.2875
475.2875	9903.2875
479.38291	9822.1875
483.4754	9782.4875
487.56496	9711.6875
491.6516	9689.9875
495.73531	9626.1875
499.81612	9598.0875
503.89401	9582.2875
507.96899	9580.6875
512.04106	9537.6875
516.11023	9502.7875
520.1765	9479.7875
524.23987	9473.2875
528.30034	9428.5875
532.35792	9402.1875
536.41261	9313.0875
540.46441	9186.0875
544.51333	9166.1875
548.55936	9223.7875
552.60252	9319.7875
556.64279	9483.2875
560.6802	9594.9875
564.71473	9629.0875
568.7464	9709.6875
572.7752	9855.6875
576.80114	9920.1875
580.82422	10010.9875
584.84444	10182.6875
588.86181	10453.9875
592.87633	10770.3875
596.888	10931.8875
600.89682	10855.4875
604.9028	11031.3875
608.90594	11815.9875
612.90624	12731.5875
616.90371	12227.5875
620.89834	10600.2875
624.89015	9838.3875
628.87913	9720.2875
632.86528	9705.8875
636.84862	9610.8875
640.82913	9497.9875
644.80683	9283.4875
648.78172	9163.1875
652.75379	9176.7875
656.72306	9302.8875
660.68952	9457.2875
664.65319	9432.4875
668.61405	9312.3875
672.57211	9295.2875
676.52738	9318.9875
680.47986	9298.1875
684.42955	9265.1875
688.37646	9264.3875
692.32058	9384.8875
696.26192	9545.6875
700.20048	9749.2875
704.13626	9883.7875
708.06928	9887.5875
711.99952	9779.3875
715.927	9709.0875
719.85171	9661.7875
723.77365	9593.2875
727.69284	9459.6875
731.60928	9336.8875
735.52295	9285.6875
739.43388	9306.7875
743.34206	9319.9875
747.24749	9331.3875
751.15017	9386.4875
755.05012	9467.3875
758.94733	9646.6875
762.8418	9964.8875
766.73354	10505.0875
770.62254	11040.9875
774.50882	11230.8875
778.39237	10972.4875
782.27321	10425.6875
786.15132	9919.2875
790.02671	9612.9875
793.89938	9462.9875
797.76935	9416.6875
801.6366	9397.5875
805.50115	9352.5875
809.36299	9336.4875
813.22213	9294.7875
817.07857	9286.3875
820.93231	9261.5875
824.78336	9248.3875
828.63172	9291.0875
832.47738	9301.1875
836.32036	9351.6875
840.16066	9406.3875
843.99827	9440.0875
847.8332	9419.3875
851.66546	9360.4875
855.49504	9317.9875
859.32195	9324.3875
863.1462	9314.6875
866.96777	9276.6875
870.78668	9235.3875
874.60293	9251.5875
878.41652	9265.9875
882.22745	9284.1875
886.03573	9338.5875
889.84136	9323.3875
893.64433	9272.1875
897.44466	9243.8875
901.24235	9218.6875
905.0374	9193.9875
908.8298	9169.3875
912.61957	9182.6875
916.40671	9237.8875
920.19121	9338.7875
923.97308	9452.8875
927.75233	9535.8875
931.52895	9538.3875
935.30295	9465.6875
939.07433	9346.0875
942.84309	9283.1875
946.60924	9216.0875
950.37278	9185.1875
954.13371	9175.9875
957.89203	9113.6875
961.64774	9080.2875
965.40086	9051.8875
969.15137	9067.0875
972.89929	9064.2875
976.64461	9076.7875
980.38733	9114.3875
984.12747	9193.4875
987.86502	9273.2875
991.59999	9382.9875
995.33237	9549.2875
999.06217	9772.0875
1002.78939	10086.1875
1006.51404	10206.0875
1010.23611	10273.4875
1013.95561	10278.7875
1017.67255	10258.9875
1021.38692	10185.5875
1025.09872	10134.6875
1028.80796	10301.8875
1032.51465	10706.4875
1036.21877	11098.3875
1039.92035	11153.0875
1043.61937	10973.8875
1047.31584	10658.4875
1051.00976	10313.3875
1054.70114	10117.7875
1058.38998	10026.5875
1062.07627	10016.4875
1065.76003	10000.9875
1069.44126	10033.9875
1073.11995	10130.1875
1076.79611	10251.4875
1080.46974	10354.6875
1084.14085	10416.6875
1087.80943	10487.7875
1091.47549	10531.6875
1095.13903	10482.5875
1098.80005	10371.3875
1102.45857	10208.1875
1106.11456	10144.6875
1109.76805	10113.7875
1113.41903	10115.8875
1117.06751	10167.5875
1120.71348	10186.0875
1124.35696	10277.2875
1127.99793	10352.8875
1131.63641	10381.0875
1135.2724	10287.2875
1138.90589	10210.2875
1142.5369	10140.5875
1146.16542	10146.7875
1149.79145	10146.1875
1153.415	10159.3875
1157.03607	10208.6875
1160.65467	10354.1875
1164.27079	10633.8875
1167.88443	11008.1875
1171.49561	11447.5875
1175.10432	12081.4875
1178.71056	12859.8875
1182.31434	13635.3875
1185.91565	14047.0875
1189.51451	14007.7875
1193.11091	13650.8875
1196.70485	13201.0875
1200.29634	12784.0875
1203.88538	12552.0875
1207.47197	12312.5875
1211.05612	12123.3875
1214.63782	11904.1875
1218.21708	11760.2875
1221.79391	11683.5875
1225.36829	11627.0875
1228.94024	11540.5875
1232.50976	11354.8875
1236.07685	11207.2875
1239.6415	11146.6875
1243.20374	11226.6875
1246.76355	11366.5875
1250.32093	11621.7875
1253.8759	11863.9875
1257.42845	12126.2875
1260.97859	12412.3875
1264.52631	12702.2875
1268.07163	12986.8875
1271.61453	13296.7875
1275.15503	13597.9875
1278.69312	13843.4875
1282.22882	14012.1875
1285.76211	14157.3875
1289.29301	14361.7875
1292.82151	14712.7875
1296.34761	15229.4875
1299.87133	15939.5875
1303.39266	16834.1875
1306.9116	17824.8875
1310.42815	18598.1875
1313.94233	18866.6875
1317.45412	18544.9875
1320.96354	17906.7875
1324.47058	17347.3875
1327.97525	16851.1875
1331.47754	16334.8875
1334.97747	16054.8875
1338.47502	15876.1875
1341.97022	15693.1875
1345.46305	15555.3875
1348.95352	15572.1875
1352.44163	15810.6875
1355.92738	16438.2875
1359.41078	17400.9875
1362.89183	18204.8875
1366.37053	18049.8875
1369.84688	16710.0875
1373.32088	15105.2875
1376.79254	14029.0875
1380.26186	13614.3875
1383.72883	13636.4875
1387.19347	13708.0875
1390.65578	13525.0875
1394.11575	13230.6875
1397.57339	13080.4875
1401.0287	13064.5875
1404.48168	13076.1875
1407.93234	13078.1875
1411.38068	12985.3875
1414.82669	12770.1875
1418.27039	12503.9875
1421.71177	12215.0875
1425.15083	11951.3875
1428.58758	11835.6875
1432.02203	11889.7875
1435.45416	12087.2875
1438.88399	12311.4875
1442.31151	12441.2875
1445.73673	12626.2875
1449.15965	12688.1875
1452.58027	12610.8875
1455.9986	12509.4875
1459.41463	12459.6875
1462.82837	12604.2875
1466.23982	12770.8875
1469.64898	13023.6875
1473.05586	13198.1875
1476.46045	13317.2875
1479.86276	13358.1875
1483.26279	13362.0875
1486.66054	13313.1875
1490.05602	13368.7875
1493.44922	13533.4875
1496.84016	13677.9875
1500.22882	13869.9875
1503.61521	14175.1875
1506.99934	14625.7875
1510.38121	15036.5875
1513.76081	15207.8875
1517.13816	14954.4875
1520.51324	14408.0875
1523.88607	13848.0875
1527.25665	13512.6875
1530.62498	13339.4875
1533.99105	13248.1875
1537.35488	13160.2875
1540.71647	12998.9875
1544.07581	12826.6875
1547.4329	12673.4875
1550.78776	12533.2875
1554.14038	12460.7875
1557.49077	12427.1875
1560.83892	12357.6875
1564.18484	12362.4875
1567.52853	12423.3875
1570.86999	12515.0875
1574.20922	12627.5875
1577.54624	12739.9875
1580.88103	12739.0875
1584.2136	12776.2875
1587.54395	13055.0875
1590.87208	13657.5875
1594.19801	14401.4875
1597.52172	15133.4875
1600.84321	15309.3875
1604.16251	14740.5875
1607.47959	13815.2875
1610.79447	12797.4875
1614.10715	11954.4875
1617.41763	11306.7875
1620.7259	10962.2875
1624.03199	10833.6875
1627.33587	10951.4875
1630.63757	11250.5875
1633.93707	11690.8875
1637.23439	12444.5875
1640.52951	13468.8875
1643.82246	14679.9875
1647.11321	15756.9875
1650.40179	16158.2875
1653.68819	15587.2875
1656.97241	14187.3875
1660.25446	12772.3875
1663.53433	11744.2875
1666.81203	11039.3875
1670.08756	10523.8875
1673.36092	10110.4875
1676.63211	9798.8875
1679.90115	9612.6875
1683.16801	9492.4875
1686.43272	9449.7875
1689.69527	9522.5875
1692.95567	9769.5875
1696.2139	10207.6875
1699.46999	10686.8875
1702.72392	10748.8875
1705.97571	10281.3875
1709.22535	9766.7875
1712.47284	9407.3875
1715.71819	9208.7875
1718.96139	9101.2875
1722.20246	9026.3875
1725.44139	8967.1875
1728.67818	8921.6875
1731.91284	8877.8875
1735.14537	8878.7875
1738.37576	8873.1875
1741.60403	8887.2875
1744.83017	8911.1875
1748.05418	8969.3875
1751.27607	9113.0875
1754.49584	9350.7875
1757.71349	9637.1875
1760.92903	9796.3875
1764.14244	9761.5875
1767.35375	9760.0875
1770.56294	9760.6875
1773.77002	9620.2875
1776.97499	9320.0875
1780.17785	9039.9875
1783.37861	8850.0875
1786.57727	8744.2875
1789.77382	8653.0875
1792.96828	8643.5875
1796.16064	8577.3875
1799.3509	8549.8875
1802.53907	8552.4875
1805.72514	8533.6875
1808.90913	8478.7875
1812.09102	8475.6875
1815.27083	8472.4875
1818.44856	8444.3875
1821.6242	8418.1875
1824.79776	8388.7875
1827.96924	8411.8875
1831.13864	8393.0875
1834.30597	8405.7875
1837.47122	8385.3875
1840.6344	8384.3875
1843.7955	8375.3875
1846.95454	8386.4875
1850.11151	8372.8875
1853.26642	8365.0875
1856.41926	8394.7875
1859.57004	8390.3875
1862.71876	8388.2875
1865.86542	8376.3875
1869.01003	8377.6875
1872.15258	8363.9875
1875.29308	8340.6875
1878.43152	8342.7875
1881.56792	8340.8875
1884.70227	8326.6875
1887.83457	8330.4875
1890.96482	8310.0875
1894.09304	8307.4875
1897.21921	8341.5875
1900.34335	8298.3875
1903.46544	8298.9875
1906.58551	8307.6875
1909.70353	8288.2875
1912.81953	8279.3875
1915.93349	8283.3875
1919.04543	8271.2875
1922.15534	8269.2875
1925.26322	8242.5875
1928.36908	8235.3875
1931.47292	8217.5875
1934.57473	8214.5875
1937.67453	8190.7875
1940.77232	8179.5875
1943.86808	8144.0875
1946.96184	8144.7875
1950.05358	8114.4875
1953.14331	8083.7875
1956.23103	8080.2875
1959.31675	8065.7875
1962.40046	8069.7875
1965.48217	8024.8875
1968.56188	8000.2875
1971.63959	8006.6875
1974.7153	7979.0875
1977.78901	7964.9875
1980.86073	7948.0875
1983.93046	7909.7875
1986.99819	7896.0875
1990.06394	7866.3875
1993.1277	7842.4875
1996.18947	7821.6875
1999.24925	7824.6875
2002.30706	7791.9875
2005.36288	7783.0875
2008.41672	7771.2875
2011.46859	7747.0875
2014.51848	7714.9875
2017.56639	7699.8875
2020.61233	7688.2875
2023.6563	7697.4875
2026.6983	7662.8875
2029.73833	7663.1875
2032.7764	7638.3875
2035.8125	7647.9875
2038.84664	7630.2875
2041.87881	7625.1875
2044.90903	7634.4875
2047.93729	7599.6875
2050.96359	7599.5875
2053.98794	7610.8875
2057.01034	7613.8875
2060.03078	7603.3875
2063.04927	7598.4875
2066.06582	7597.9875
2069.08042	7576.9875
2072.09307	7575.1875
2075.10378	7573.9875
2078.11255	7571.2875
2081.11938	7589.1875
2084.12426	7558.7875
2087.12722	7531.6875
2090.12824	7561.9875
2093.12732	7550.2875
2096.12447	7563.4875
2099.11969	7564.1875
2102.11299	7587.3875
2105.10435	7594.7875
2108.09379	7603.5875
2111.08131	7604.5875
2114.0669	7598.2875
2117.05057	7618.2875
2120.03233	7630.8875
2123.01216	7610.8875
2125.99008	7638.8875
2128.96609	7650.1875
2131.94018	7652.4875
2134.91236	7662.6875
2137.88263	7671.5875
2140.851	7679.4875
2143.81746	7691.7875
2146.78201	7685.3875
2149.74466	7686.0875
2152.7054	7715.8875
2155.66425	7704.3875
2158.6212	7709.1875
2161.57625	7702.9875
2164.52941	7703.6875
2167.48067	7703.8875
2170.43004	7716.1875
2173.37752	7698.9875
2176.32311	7713.7875
2179.26681	7735.0875
2182.20863	7713.3875
2185.14856	7703.6875
2188.08661	7717.9875
2191.02278	7731.5875
2193.95707	7759.7875
2196.88948	7730.9875
2199.82001	7739.7875
2202.74867	7738.2875
2205.67545	7714.1875
2208.60037	7720.5875
2211.52341	7713.8875
2214.44458	7716.4875
2217.36388	7678.4875
2220.28132	7697.5875
2223.1969	7695.1875
2226.11061	7690.0875
2229.02246	7662.4875
2231.93245	7667.9875
2234.84058	7624.0875
2237.74686	7643.5875
2240.65128	7635.7875
2243.55385	7643.8875
2246.45456	7611.7875
2249.35343	7610.4875
2252.25044	7597.4875
2255.14561	7594.2875
2258.03893	7663.0875
2260.93041	7771.6875
2263.82004	7659.0875
2266.70783	7612.7875
2269.59378	7551.1875
2272.4779	7527.8875
2275.36017	7514.1875
2278.24061	7496.2875
2281.11922	7496.2875
2283.996	7494.8875
2286.87094	7505.1875
2289.74405	7476.0875
2292.61534	7470.5875
2295.4848	7482.0875
2298.35243	7490.3875
2301.21824	7461.7875
2304.08223	7489.5875
2306.94439	7524.3875
2309.80474	7529.0875
2312.66327	7499.3875
2315.51999	7517.5875
2318.37489	7517.7875
2321.22797	7510.6875
2324.07925	7508.1875
2326.92871	7514.1875
2329.77637	7505.7875
2332.62222	7509.0875
2335.46626	7519.5875
2338.3085	7495.9875
2341.14893	7493.1875
2343.98756	7512.0875
2346.8244	7506.3875
2349.65943	7482.1875
2352.49267	7494.6875
2355.32411	7466.2875
2358.15376	7441.3875
2360.98161	7437.2875
2363.80768	7441.5875
2366.63195	7430.3875
2369.45444	7432.2875
2372.27514	7415.1875
2375.09405	7393.4875
2377.91118	7370.4875
2380.72652	7388.2875
2383.54009	7348.9875
2386.35187	7352.7875
2389.16188	7351.5875
2391.97011	7353.3875
2394.77657	7348.8875
2397.58125	7340.0875
2400.38416	7320.4875
2403.18529	7312.1875
2405.98466	7321.5875
2408.78226	7309.2875
2411.57809	7311.6875
2414.37216	7313.6875
2417.16446	7300.0875
2419.955	7287.6875
2422.74378	7282.6875
2425.5308	7262.3875
2428.31606	7257.3875
2431.09956	7270.9875
2433.88131	7245.2875
2436.6613	7269.1875
2439.43954	7253.2875
2442.21603	7250.1875
2444.99077	7236.0875
2447.76377	7241.3875
2450.53501	7245.2875
2453.30451	7240.4875
2456.07226	7222.8875
2458.83827	7219.9875
2461.60254	7237.0875
2464.36507	7233.2875
2467.12586	7219.7875
2469.88492	7209.6875
2472.64224	7251.7875
2475.39782	7338.3875
2478.15167	7373.5875
2480.90379	7300.7875
2483.65417	7290.9875
2486.40283	7275.9875
2489.14976	7278.0875
2491.89497	7286.0875
2494.63845	7392.9875
2497.3802	7407.4875
2500.12024	7298.6875
2502.85855	7289.9875
2505.59514	7275.5875
2508.33002	7255.3875
2511.06318	7240.5875
2513.79462	7238.2875
2516.52435	7237.4875
2519.25237	7217.9875
2521.97867	7222.9875
2524.70327	7227.2875
2527.42616	7195.8875
2530.14734	7202.0875
2532.86681	7203.6875
2535.58458	7205.5875
2538.30065	7185.5875
2541.01501	7196.8875
2543.72768	7194.2875
2546.43864	7167.3875
2549.14791	7167.8875
2551.85548	7154.2875
2554.56136	7173.0875
2557.26554	7158.5875
2559.96803	7164.0875
2562.66883	7159.5875
2565.36794	7167.9875
2568.06536	7151.4875
2570.7611	7128.0875
2573.45514	7131.4875
2576.14751	7136.9875
2578.83819	7141.7875
2581.52719	7128.0875
2584.21451	7125.0875
2586.90015	7105.5875
2589.58411	7091.9875
2592.2664	7100.5875
2594.94701	7089.8875
2597.62594	7079.3875
2600.30321	7096.3875
2602.9788	7091.9875
2605.65273	7100.8875
2608.32498	7063.9875
2610.99557	7077.4875
2613.66449	7065.0875
2616.33175	7070.1875
2618.99734	7084.3875
2621.66128	7080.6875
2624.32355	7085.4875
2626.98416	7071.1875
2629.64311	7064.8875
2632.30041	7088.8875
2634.95605	7051.7875
2637.61004	7036.0875
2640.26238	7033.2875
2642.91306	7024.2875
2645.56209	7022.6875
2648.20948	7065.9875
2650.85521	7047.0875
2653.4993	7031.4875
2656.14175	7019.8875
2658.78255	7033.9875
2661.42171	7027.6875
2664.05923	7050.8875
2666.6951	7049.3875
2669.32934	7040.7875
2671.96194	7039.5875
2674.59291	7055.2875
2677.22224	7044.1875
2679.84993	7040.4875
2682.476	7047.9875
2685.10043	7040.1875
2687.72324	7030.1875
2690.34441	7033.7875
2692.96396	7030.8875
2695.58188	7028.8875
2698.19818	7062.3875
2700.81285	7079.2875
2703.4259	7324.5875
2706.03733	7809.9875
2708.64714	7485.1875
2711.25533	7277.2875
2713.86191	7209.7875
2716.46687	7188.8875
2719.07021	7137.1875
2721.67194	7112.3875
2724.27206	7069.2875
2726.87057	7100.7875
2729.46747	7091.5875
2732.06276	7098.4875
2734.65644	7090.3875
2737.24852	7079.9875
2739.83899	7091.4875
2742.42786	7080.8875
2745.01513	7072.4875
2747.60079	7076.4875
2750.18486	7041.6875
2752.76733	7076.4875
2755.3482	7072.9875
2757.92747	7067.4875
2760.50515	7081.5875
2763.08123	7068.6875
2765.65573	7060.0875
2768.22863	7064.1875
2770.79994	7051.2875
2773.36967	7065.4875
2775.9378	7048.4875
2778.50435	7050.6875
2781.06932	7041.0875
2783.6327	7046.7875
2786.1945	7033.9875
2788.75471	7033.7875
2791.31335	7014.8875
2793.87041	7017.4875
2796.42589	6993.1875
2798.97979	7000.8875
2801.53212	6978.5875
2804.08288	6984.2875
2806.63206	6961.2875
2809.17967	6962.0875
2811.72571	6933.8875
2814.27018	6927.2875
2816.81308	6924.0875
2819.35442	6914.2875
2821.89419	6906.0875
2824.43239	6912.4875
2826.96904	6905.8875
2829.50412	6918.5875
2832.03763	6923.5875
2834.56959	6910.7875
2837.1	6898.0875
2839.62884	6918.6875
2842.15613	6887.6875
2844.68186	6909.3875
2847.20604	6913.4875
2849.72867	6922.3875
2852.24974	6939.1875
2854.76927	7023.6875
2857.28724	7137.3875
2859.80367	7032.0875
2862.31855	6965.9875
2864.83189	6950.1875
2867.34368	6937.8875
2869.85393	6921.4875
2872.36264	6900.4875
2874.8698	6898.1875
2877.37543	6880.8875
2879.87952	6852.5875
2882.38207	6887.5875
2884.88308	6893.2875
2887.38256	6901.0875
2889.88051	6904.7875
2892.37692	6908.0875
2894.8718	6891.1875
2897.36515	6895.6875
2899.85698	6906.3875
2902.34727	6914.4875
2904.83604	6927.4875
2907.32328	6937.4875
2909.809	6928.5875
2912.29319	6928.3875
2914.77587	6935.6875
2917.25702	6920.2875
2919.73665	6924.3875
2922.21476	6951.3875
2924.69136	6924.4875
2927.16644	6956.5875
2929.64	6921.5875
2932.11205	6919.7875
2934.58258	6899.9875
2937.05161	6905.8875
2939.51912	6922.8875
2941.98513	6906.9875
2944.44962	6882.7875
2946.91261	6857.3875
2949.37409	6885.2875
2951.83407	6880.7875
2954.29254	6864.2875
2956.74951	6890.4875
2959.20498	6869.6875
2961.65895	6877.4875
2964.11142	6888.1875
2966.56239	6874.7875
2969.01186	6865.0875
2971.45984	6839.3875
2973.90632	6863.0875
2976.35131	6831.9875
2978.7948	6853.9875
2981.23681	6827.4875
2983.67732	6818.5875
2986.11635	6796.0875
2988.55388	6793.2875
2990.98993	6781.8875
2993.4245	6776.4875
2995.85758	6748.1875
2998.28917	6757.0875
3000.71928	6741.4875
3003.14791	6739.8875
3005.57506	6726.5875
3008.00073	6740.6875
3010.42493	6754.6875
3012.84764	6711.1875
3015.26888	6721.3875
3017.68865	6734.3875
3020.10694	6713.9875
3022.52376	6696.8875
3024.9391	6687.7875
3027.35298	6685.4875
3029.76539	6682.1875
3032.17632	6691.3875
3034.5858	6678.1875
3036.9938	6661.7875
3039.40034	6673.3875
3041.80542	6667.5875
3044.20903	6649.1875
3046.61118	6631.1875
3049.01187	6639.9875
3051.4111	6645.7875
3053.80888	6645.4875
3056.20519	6629.8875
3058.60005	6608.8875
3060.99345	6585.8875
3063.3854	6590.1875
3065.7759	6564.4875
3068.16494	6584.3875
3070.55254	6550.2875
3072.93868	6552.8875
3075.32338	6555.0875
3077.70662	6550.5875
3080.08842	6528.8875
3082.46878	6521.1875
3084.84769	6515.6875
3087.22515	6523.3875
3089.60118	6510.2875
3091.97576	6516.5875
3094.3489	6529.2875
3096.72061	6507.0875
3099.09087	6518.6875
3101.4597	6527.9875
