Data from AgNPs_FTO_APTES_UA_1uM_CRN_1000uM_R6G_10uM_NaF_0.1M_Addition_RamanShift__19__18-55-49-939.txt Node

Date: Thu Jan 27 18:55:49 GMT 2022
User: TCL
Spectrometer: QEP01345
Trigger mode: 4
Integration Time (sec): 7.000000E0
Scans to average: 10
Electric dark correction enabled: true
Nonlinearity correction enabled: false
Boxcar width: 0
XAxis mode: Raman Shifts
Number of Pixels in Spectrum: 1044
>>>>>Begin Spectral Data<<<<<
46.04893	1.9875
50.45542	0.3875
54.85868	-2.9125
59.25871	-0.9125
63.6555	41.7875
68.04907	45.6875
72.43941	48.9875
76.82654	51.5875
81.21044	50.6875
85.59113	53.9875
89.96862	60.2875
94.34289	62.8875
98.71396	64.3875
103.08183	62.8875
107.4465	67.5875
111.80798	67.7875
116.16626	65.5875
120.52136	72.4875
124.87327	74.7875
129.222	73.9875
133.56755	77.5875
137.90993	81.5875
142.24913	88.7875
146.58517	100.6875
150.91804	115.5875
155.24774	128.8875
159.57429	156.9875
163.89768	202.9875
168.21792	264.4875
172.53501	355.1875
176.84895	492.2875
181.15975	681.7875
185.46741	946.5875
189.77193	1309.0875
194.07331	1765.1875
198.37157	2282.7875
202.6667	2845.0875
206.9587	3396.6875
211.24758	3942.0875
215.53334	4493.1875
219.81599	5077.7875
224.09553	5698.1875
228.37195	6391.4875
232.64527	7113.2875
236.91549	7913.9875
241.18261	8655.4875
245.44663	9354.0875
249.70755	9979.4875
253.96539	10458.8875
258.22014	10886.7875
262.4718	11245.1875
266.72039	11448.1875
270.96589	11538.9875
275.20832	11535.8875
279.44768	11418.7875
283.68397	11273.7875
287.91719	11139.0875
292.14735	11048.0875
296.37445	11026.7875
300.59849	11046.4875
304.81948	11120.4875
309.03742	11074.0875
313.25231	10994.3875
317.46415	10704.0875
321.67296	10393.9875
325.87872	10132.9875
330.08145	10028.1875
334.28114	10007.8875
338.47781	10083.3875
342.67145	10200.0875
346.86207	10382.4875
351.04966	10585.9875
355.23424	10829.5875
359.4158	11020.9875
363.59435	11203.6875
367.76989	11294.3875
371.94243	11398.4875
376.11196	11430.7875
380.27849	11506.6875
384.44203	11591.2875
388.60257	11637.2875
392.76012	11675.7875
396.91468	11772.7875
401.06626	11887.8875
405.21485	12044.4875
409.36047	12012.0875
413.50311	11817.4875
417.64277	11658.0875
421.77947	11622.5875
425.9132	11655.9875
430.04396	11691.9875
434.17176	11754.3875
438.2966	11854.3875
442.41849	12064.7875
446.53742	12300.1875
450.6534	12627.7875
454.76644	12826.2875
458.87653	12907.1875
462.98368	12843.4875
467.08789	12714.6875
471.18916	12555.7875
475.2875	12409.6875
479.38291	12333.1875
483.4754	12269.5875
487.56496	12159.2875
491.6516	11973.6875
495.73531	11885.7875
499.81612	11853.2875
503.89401	11910.4875
507.96899	11971.4875
512.04106	12016.0875
516.11023	11951.6875
520.1765	11939.6875
524.23987	11857.8875
528.30034	11779.4875
532.35792	11654.0875
536.41261	11548.4875
540.46441	11414.2875
544.51333	11361.7875
548.55936	11420.2875
552.60252	11604.8875
556.64279	11794.2875
560.6802	11972.7875
564.71473	12096.1875
568.7464	12277.6875
572.7752	12523.2875
576.80114	12676.3875
580.82422	12710.9875
584.84444	12881.9875
588.86181	13055.3875
592.87633	13266.4875
596.888	13319.0875
600.89682	13271.8875
604.9028	13548.6875
608.90594	14588.8875
612.90624	15947.2875
616.90371	15369.5875
620.89834	12963.0875
624.89015	11802.6875
628.87913	11622.3875
632.86528	11704.8875
636.84862	11751.9875
640.82913	11733.5875
644.80683	11508.1875
648.78172	11323.1875
652.75379	11294.6875
656.72306	11355.8875
660.68952	11542.2875
664.65319	11560.4875
668.61405	11442.4875
672.57211	11501.1875
676.52738	11671.6875
680.47986	11814.4875
684.42955	11761.3875
688.37646	11622.7875
692.32058	11492.4875
696.26192	11479.3875
700.20048	11520.2875
704.13626	11555.9875
708.06928	11507.1875
711.99952	11402.1875
715.927	11323.0875
719.85171	11317.2875
723.77365	11297.4875
727.69284	11258.6875
731.60928	11201.8875
735.52295	11166.6875
739.43388	11184.5875
743.34206	11175.5875
747.24749	11217.2875
751.15017	11241.1875
755.05012	11360.8875
758.94733	11597.3875
762.8418	12055.8875
766.73354	12853.1875
770.62254	13769.7875
774.50882	14174.4875
778.39237	13764.1875
782.27321	12774.9875
786.15132	11862.0875
790.02671	11322.6875
793.89938	11086.0875
797.76935	10972.6875
801.6366	10926.8875
805.50115	10902.4875
809.36299	10863.3875
813.22213	10803.4875
817.07857	10740.7875
820.93231	10689.8875
824.78336	10662.5875
828.63172	10659.4875
832.47738	10666.0875
836.32036	10625.9875
840.16066	10636.3875
843.99827	10663.6875
847.8332	10635.1875
851.66546	10601.9875
855.49504	10629.2875
859.32195	10662.7875
863.1462	10707.9875
866.96777	10725.8875
870.78668	10695.9875
874.60293	10650.9875
878.41652	10625.4875
882.22745	10613.8875
886.03573	10666.1875
889.84136	10652.7875
893.64433	10622.8875
897.44466	10566.3875
901.24235	10537.2875
905.0374	10458.8875
908.8298	10412.0875
912.61957	10395.6875
916.40671	10441.1875
920.19121	10527.9875
923.97308	10661.4875
927.75233	10725.7875
931.52895	10749.6875
935.30295	10682.2875
939.07433	10491.8875
942.84309	10320.0875
946.60924	10168.5875
950.37278	10122.8875
954.13371	10072.7875
957.89203	10015.1875
961.64774	10003.1875
965.40086	9969.5875
969.15137	9943.9875
972.89929	9876.9875
976.64461	9845.7875
980.38733	9809.6875
984.12747	9831.3875
987.86502	9866.9875
991.59999	9957.4875
995.33237	10022.5875
999.06217	10207.6875
1002.78939	10413.7875
1006.51404	10523.7875
1010.23611	10629.6875
1013.95561	10739.3875
1017.67255	10755.3875
1021.38692	10679.1875
1025.09872	10564.9875
1028.80796	10516.3875
1032.51465	10563.8875
1036.21877	10695.5875
1039.92035	10735.1875
1043.61937	10708.2875
1047.31584	10670.8875
1051.00976	10590.6875
1054.70114	10582.4875
1058.38998	10540.9875
1062.07627	10581.2875
1065.76003	10681.5875
1069.44126	10766.7875
1073.11995	10891.8875
1076.79611	11050.9875
1080.46974	11068.4875
1084.14085	11046.7875
1087.80943	11056.1875
1091.47549	11058.1875
1095.13903	11051.5875
1098.80005	10925.7875
1102.45857	10744.7875
1106.11456	10592.8875
1109.76805	10574.9875
1113.41903	10605.8875
1117.06751	10736.2875
1120.71348	10914.0875
1124.35696	11071.1875
1127.99793	11280.1875
1131.63641	11422.5875
1135.2724	11260.0875
1138.90589	11105.2875
1142.5369	10957.0875
1146.16542	10925.1875
1149.79145	10912.6875
1153.415	10945.9875
1157.03607	11014.7875
1160.65467	11240.3875
1164.27079	11625.7875
1167.88443	12140.2875
1171.49561	12783.3875
1175.10432	13629.7875
1178.71056	14759.1875
1182.31434	15713.2875
1185.91565	16214.7875
1189.51451	16129.7875
1193.11091	15661.1875
1196.70485	14990.9875
1200.29634	14379.2875
1203.88538	13860.6875
1207.47197	13475.5875
1211.05612	13151.1875
1214.63782	12885.1875
1218.21708	12719.4875
1221.79391	12625.2875
1225.36829	12604.5875
1228.94024	12488.5875
1232.50976	12295.0875
1236.07685	12094.9875
1239.6415	12014.9875
1243.20374	11974.7875
1246.76355	12015.2875
1250.32093	12115.8875
1253.8759	12303.6875
1257.42845	12541.0875
1260.97859	12840.3875
1264.52631	13126.2875
1268.07163	13463.7875
1271.61453	13809.0875
1275.15503	14104.0875
1278.69312	14456.4875
1282.22882	14706.4875
1285.76211	14996.2875
1289.29301	15400.2875
1292.82151	15892.0875
1296.34761	16579.6875
1299.87133	17494.4875
1303.39266	18484.6875
1306.9116	19639.7875
1310.42815	20765.6875
1313.94233	21497.2875
1317.45412	21499.4875
1320.96354	20948.7875
1324.47058	20284.2875
1327.97525	19671.0875
1331.47754	19230.9875
1334.97747	19057.9875
1338.47502	19024.9875
1341.97022	18976.4875
1345.46305	18915.6875
1348.95352	18966.1875
1352.44163	19203.5875
1355.92738	19766.5875
1359.41078	20773.9875
1362.89183	21728.2875
1366.37053	21655.1875
1369.84688	19950.4875
1373.32088	17635.1875
1376.79254	15957.6875
1380.26186	15179.1875
1383.72883	14905.7875
1387.19347	14818.9875
1390.65578	14671.4875
1394.11575	14586.4875
1397.57339	14751.1875
1401.0287	15060.6875
1404.48168	15362.7875
1407.93234	15534.6875
1411.38068	15464.5875
1414.82669	15191.6875
1418.27039	14722.3875
1421.71177	14220.2875
1425.15083	13762.0875
1428.58758	13453.6875
1432.02203	13461.6875
1435.45416	13683.7875
1438.88399	13967.7875
1442.31151	14207.6875
1445.73673	14381.1875
1449.15965	14573.4875
1452.58027	14708.9875
1455.9986	14723.8875
1459.41463	14729.9875
1462.82837	14900.2875
1466.23982	15120.7875
1469.64898	15381.4875
1473.05586	15535.2875
1476.46045	15566.1875
1479.86276	15481.4875
1483.26279	15359.8875
1486.66054	15265.9875
1490.05602	15282.6875
1493.44922	15345.9875
1496.84016	15459.9875
1500.22882	15712.2875
1503.61521	16279.7875
1506.99934	17052.5875
1510.38121	17829.4875
1513.76081	18097.9875
1517.13816	17653.3875
1520.51324	16695.4875
1523.88607	15750.9875
1527.25665	15134.3875
1530.62498	14867.7875
1533.99105	14730.0875
1537.35488	14621.4875
1540.71647	14521.8875
1544.07581	14319.1875
1547.4329	14165.1875
1550.78776	13974.3875
1554.14038	13857.7875
1557.49077	13785.4875
1560.83892	13790.0875
1564.18484	13820.3875
1567.52853	13884.6875
1570.86999	14103.4875
1574.20922	14313.3875
1577.54624	14551.0875
1580.88103	14540.1875
1584.2136	14408.4875
1587.54395	14460.1875
1590.87208	14809.5875
1594.19801	15524.2875
1597.52172	16383.4875
1600.84321	16874.2875
1604.16251	16440.8875
1607.47959	15467.4875
1610.79447	14272.7875
1614.10715	13131.5875
1617.41763	12164.9875
1620.7259	11501.0875
1624.03199	11120.3875
1627.33587	11019.2875
1630.63757	11226.8875
1633.93707	11723.6875
1637.23439	12614.9875
1640.52951	13982.5875
1643.82246	15611.4875
1647.11321	17123.0875
1650.40179	17695.4875
1653.68819	16864.8875
1656.97241	14951.3875
1660.25446	12919.9875
1663.53433	11425.8875
1666.81203	10494.8875
1670.08756	9946.4875
1673.36092	9596.3875
1676.63211	9366.9875
1679.90115	9222.6875
1683.16801	9077.5875
1686.43272	8971.0875
1689.69527	8880.0875
1692.95567	8805.1875
1696.2139	8716.0875
1699.46999	8660.7875
1702.72392	8575.8875
1705.97571	8582.2875
1709.22535	8598.7875
1712.47284	8588.0875
1715.71819	8599.0875
1718.96139	8592.5875
1722.20246	8551.9875
1725.44139	8516.0875
1728.67818	8482.6875
1731.91284	8423.6875
1735.14537	8399.5875
1738.37576	8359.3875
1741.60403	8369.9875
1744.83017	8372.5875
1748.05418	8373.4875
1751.27607	8341.4875
1754.49584	8328.8875
1757.71349	8350.6875
1760.92903	8285.4875
1764.14244	8232.1875
1767.35375	8191.1875
1770.56294	8124.8875
1773.77002	8065.7875
1776.97499	8053.9875
1780.17785	8038.7875
1783.37861	8012.2875
1786.57727	7988.8875
1789.77382	7993.9875
1792.96828	7940.1875
1796.16064	7919.9875
1799.3509	7884.7875
1802.53907	7865.3875
1805.72514	7842.7875
1808.90913	7825.7875
1812.09102	7806.6875
1815.27083	7783.3875
1818.44856	7780.9875
1821.6242	7745.1875
1824.79776	7741.8875
1827.96924	7701.3875
1831.13864	7707.0875
1834.30597	7716.9875
1837.47122	7704.6875
1840.6344	7679.8875
1843.7955	7702.8875
1846.95454	7685.3875
1850.11151	7678.2875
1853.26642	7671.6875
1856.41926	7666.8875
1859.57004	7691.3875
1862.71876	7661.3875
1865.86542	7670.0875
1869.01003	7644.4875
1872.15258	7640.2875
1875.29308	7648.2875
1878.43152	7635.8875
1881.56792	7623.9875
1884.70227	7592.7875
1887.83457	7604.6875
1890.96482	7607.8875
1894.09304	7587.1875
1897.21921	7571.9875
1900.34335	7557.4875
1903.46544	7565.7875
1906.58551	7558.3875
1909.70353	7555.5875
1912.81953	7520.5875
1915.93349	7512.2875
1919.04543	7496.4875
1922.15534	7494.5875
1925.26322	7489.4875
1928.36908	7459.2875
1931.47292	7431.0875
1934.57473	7402.5875
1937.67453	7375.4875
1940.77232	7386.1875
1943.86808	7335.9875
1946.96184	7322.4875
1950.05358	7305.2875
1953.14331	7298.5875
1956.23103	7246.4875
1959.31675	7258.3875
1962.40046	7244.0875
1965.48217	7209.8875
1968.56188	7175.8875
1971.63959	7146.2875
1974.7153	7148.1875
1977.78901	7129.3875
1980.86073	7080.3875
1983.93046	7084.4875
1986.99819	7046.0875
1990.06394	7030.7875
1993.1277	7012.4875
1996.18947	6992.9875
1999.24925	6974.0875
2002.30706	6967.9875
2005.36288	6926.0875
2008.41672	6913.3875
2011.46859	6879.5875
2014.51848	6878.9875
2017.56639	6853.9875
2020.61233	6831.9875
2023.6563	6807.6875
2026.6983	6822.8875
2029.73833	6787.1875
2032.7764	6778.2875
2035.8125	6760.3875
2038.84664	6748.8875
2041.87881	6750.7875
2044.90903	6726.5875
2047.93729	6699.8875
2050.96359	6693.2875
2053.98794	6692.9875
2057.01034	6685.1875
2060.03078	6687.9875
2063.04927	6680.8875
2066.06582	6676.5875
2069.08042	6660.6875
2072.09307	6681.4875
2075.10378	6669.3875
2078.11255	6638.6875
2081.11938	6632.4875
2084.12426	6633.2875
2087.12722	6615.6875
2090.12824	6642.5875
2093.12732	6646.8875
2096.12447	6631.3875
2099.11969	6612.9875
2102.11299	6630.4875
2105.10435	6634.4875
2108.09379	6630.8875
2111.08131	6623.7875
2114.0669	6646.2875
2117.05057	6647.5875
2120.03233	6640.9875
2123.01216	6632.1875
2125.99008	6657.7875
2128.96609	6660.3875
2131.94018	6672.6875
2134.91236	6677.2875
2137.88263	6682.1875
2140.851	6673.0875
2143.81746	6682.5875
2146.78201	6674.5875
2149.74466	6659.5875
2152.7054	6678.2875
2155.66425	6664.4875
2158.6212	6677.8875
2161.57625	6644.3875
2164.52941	6645.7875
2167.48067	6650.6875
2170.43004	6659.5875
2173.37752	6645.4875
2176.32311	6677.2875
2179.26681	6664.4875
2182.20863	6634.1875
2185.14856	6642.8875
2188.08661	6632.9875
2191.02278	6652.7875
2193.95707	6624.0875
2196.88948	6621.0875
2199.82001	6644.3875
2202.74867	6613.9875
2205.67545	6611.0875
2208.60037	6609.5875
2211.52341	6593.2875
2214.44458	6573.9875
2217.36388	6583.3875
2220.28132	6556.8875
2223.1969	6554.9875
2226.11061	6532.6875
2229.02246	6528.3875
2231.93245	6518.0875
2234.84058	6514.7875
2237.74686	6500.5875
2240.65128	6475.7875
2243.55385	6474.6875
2246.45456	6447.0875
2249.35343	6441.2875
2252.25044	6418.4875
2255.14561	6409.5875
2258.03893	6411.6875
2260.93041	6403.6875
2263.82004	6380.1875
2266.70783	6378.1875
2269.59378	6357.4875
2272.4779	6342.5875
2275.36017	6324.8875
2278.24061	6329.8875
2281.11922	6332.5875
2283.996	6304.5875
2286.87094	6294.7875
2289.74405	6287.4875
2292.61534	6261.7875
2295.4848	6273.6875
2298.35243	6261.5875
2301.21824	6260.3875
2304.08223	6261.6875
2306.94439	6255.1875
2309.80474	6267.3875
2312.66327	6242.2875
2315.51999	6259.1875
2318.37489	6239.4875
2321.22797	6224.5875
2324.07925	6226.1875
2326.92871	6213.8875
2329.77637	6205.0875
2332.62222	6191.9875
2335.46626	6195.3875
2338.3085	6180.2875
2341.14893	6186.7875
2343.98756	6179.3875
2346.8244	6171.2875
2349.65943	6169.7875
2352.49267	6179.5875
2355.32411	6175.2875
2358.15376	6163.8875
2360.98161	6146.1875
2363.80768	6179.2875
2366.63195	6169.4875
2369.45444	6151.9875
2372.27514	6144.8875
2375.09405	6143.4875
2377.91118	6116.2875
2380.72652	6111.8875
2383.54009	6090.9875
2386.35187	6086.2875
2389.16188	6059.6875
2391.97011	6046.4875
2394.77657	6042.7875
2397.58125	6037.6875
2400.38416	6025.5875
2403.18529	6007.0875
2405.98466	5998.8875
2408.78226	5999.3875
2411.57809	5978.2875
2414.37216	5984.1875
2417.16446	5974.3875
2419.955	5948.8875
2422.74378	5967.6875
2425.5308	5948.9875
2428.31606	5968.8875
2431.09956	5949.4875
2433.88131	5948.0875
2436.6613	5944.4875
2439.43954	5917.4875
2442.21603	5923.4875
2444.99077	5919.5875
2447.76377	5916.8875
2450.53501	5918.3875
2453.30451	5925.3875
2456.07226	5931.5875
2458.83827	5901.2875
2461.60254	5907.4875
2464.36507	5914.6875
2467.12586	5899.3875
2469.88492	5881.8875
2472.64224	5898.6875
2475.39782	5889.8875
2478.15167	5886.3875
2480.90379	5896.3875
2483.65417	5901.7875
2486.40283	5911.8875
2489.14976	5899.4875
2491.89497	5878.2875
2494.63845	5900.2875
2497.3802	5879.6875
2500.12024	5888.7875
2502.85855	5886.6875
2505.59514	5873.2875
2508.33002	5867.4875
2511.06318	5872.0875
2513.79462	5851.6875
2516.52435	5832.7875
2519.25237	5829.4875
2521.97867	5827.1875
2524.70327	5826.9875
2527.42616	5820.9875
2530.14734	5815.2875
2532.86681	5800.9875
2535.58458	5807.0875
2538.30065	5797.1875
2541.01501	5801.4875
2543.72768	5767.0875
2546.43864	5758.9875
2549.14791	5752.9875
2551.85548	5761.8875
2554.56136	5743.2875
2557.26554	5733.1875
2559.96803	5729.8875
2562.66883	5724.9875
2565.36794	5725.7875
2568.06536	5732.6875
2570.7611	5720.4875
2573.45514	5713.9875
2576.14751	5696.5875
2578.83819	5685.3875
2581.52719	5688.5875
2584.21451	5663.5875
2586.90015	5671.6875
2589.58411	5675.1875
2592.2664	5652.1875
2594.94701	5651.6875
2597.62594	5656.0875
2600.30321	5639.7875
2602.9788	5633.4875
2605.65273	5625.0875
2608.32498	5629.2875
2610.99557	5637.3875
2613.66449	5599.8875
2616.33175	5606.4875
2618.99734	5611.7875
2621.66128	5625.7875
2624.32355	5597.5875
2626.98416	5586.4875
2629.64311	5593.5875
2632.30041	5596.1875
2634.95605	5582.5875
2637.61004	5570.5875
2640.26238	5583.0875
2642.91306	5573.7875
2645.56209	5556.7875
2648.20948	5552.8875
2650.85521	5550.2875
2653.4993	5563.0875
2656.14175	5572.2875
2658.78255	5576.5875
2661.42171	5575.6875
2664.05923	5583.9875
2666.6951	5570.9875
2669.32934	5578.5875
2671.96194	5569.0875
2674.59291	5589.1875
2677.22224	5590.7875
2679.84993	5587.4875
2682.476	5555.7875
2685.10043	5568.4875
2687.72324	5555.8875
2690.34441	5565.1875
2692.96396	5572.9875
2695.58188	5557.5875
2698.19818	5552.9875
2700.81285	5558.1875
2703.4259	5573.2875
2706.03733	5539.3875
2708.64714	5544.2875
2711.25533	5550.2875
2713.86191	5542.0875
2716.46687	5562.4875
2719.07021	5578.8875
2721.67194	5580.6875
2724.27206	5562.4875
2726.87057	5586.3875
2729.46747	5595.7875
2732.06276	5580.9875
2734.65644	5563.0875
2737.24852	5586.5875
2739.83899	5568.0875
2742.42786	5580.8875
2745.01513	5562.1875
2747.60079	5560.6875
2750.18486	5548.8875
2752.76733	5547.6875
2755.3482	5535.3875
2757.92747	5548.4875
2760.50515	5548.3875
2763.08123	5532.7875
2765.65573	5539.0875
2768.22863	5553.2875
2770.79994	5528.0875
2773.36967	5518.2875
2775.9378	5534.6875
2778.50435	5521.0875
2781.06932	5538.1875
2783.6327	5543.5875
2786.1945	5515.0875
2788.75471	5527.8875
2791.31335	5485.3875
2793.87041	5500.4875
2796.42589	5495.9875
2798.97979	5506.7875
2801.53212	5496.4875
2804.08288	5499.9875
2806.63206	5462.7875
2809.17967	5467.3875
2811.72571	5469.1875
2814.27018	5456.6875
2816.81308	5452.2875
2819.35442	5447.2875
2821.89419	5449.8875
2824.43239	5451.2875
2826.96904	5448.8875
2829.50412	5429.3875
2832.03763	5434.0875
2834.56959	5438.1875
2837.1	5427.0875
2839.62884	5470.1875
2842.15613	5462.4875
2844.68186	5504.6875
2847.20604	5519.2875
2849.72867	5549.7875
2852.24974	5543.3875
2854.76927	5547.0875
2857.28724	5535.1875
2859.80367	5522.2875
2862.31855	5539.8875
2864.83189	5521.0875
2867.34368	5514.8875
2869.85393	5504.9875
2872.36264	5517.2875
2874.8698	5516.0875
2877.37543	5528.3875
2879.87952	5540.5875
2882.38207	5549.6875
2884.88308	5528.8875
2887.38256	5546.8875
2889.88051	5540.5875
2892.37692	5572.8875
2894.8718	5575.4875
2897.36515	5574.5875
2899.85698	5606.2875
2902.34727	5631.9875
2904.83604	5621.4875
2907.32328	5652.4875
2909.809	5652.1875
2912.29319	5673.6875
2914.77587	5684.2875
2917.25702	5677.2875
2919.73665	5680.6875
2922.21476	5676.2875
2924.69136	5703.9875
2927.16644	5702.2875
2929.64	5697.2875
2932.11205	5701.6875
2934.58258	5694.7875
2937.05161	5696.4875
2939.51912	5704.5875
2941.98513	5683.4875
2944.44962	5663.4875
2946.91261	5600.5875
2949.37409	5623.2875
2951.83407	5599.0875
2954.29254	5593.4875
2956.74951	5573.3875
2959.20498	5566.2875
2961.65895	5537.2875
2964.11142	5519.9875
2966.56239	5487.3875
2969.01186	5477.4875
2971.45984	5433.2875
2973.90632	5421.6875
2976.35131	5395.7875
2978.7948	5395.1875
2981.23681	5376.1875
2983.67732	5372.0875
2986.11635	5341.4875
2988.55388	5328.6875
2990.98993	5318.2875
2993.4245	5300.4875
2995.85758	5304.7875
2998.28917	5282.7875
3000.71928	5282.9875
3003.14791	5265.8875
3005.57506	5253.0875
3008.00073	5241.2875
3010.42493	5220.5875
3012.84764	5235.7875
3015.26888	5222.7875
3017.68865	5210.7875
3020.10694	5214.4875
3022.52376	5180.6875
3024.9391	5164.6875
3027.35298	5165.3875
3029.76539	5148.6875
3032.17632	5139.6875
3034.5858	5135.6875
3036.9938	5140.0875
3039.40034	5130.3875
3041.80542	5131.3875
3044.20903	5124.0875
3046.61118	5104.6875
3049.01187	5104.9875
3051.4111	5115.9875
3053.80888	5084.2875
3056.20519	5097.3875
3058.60005	5064.4875
3060.99345	5067.6875
3063.3854	5051.7875
3065.7759	5054.8875
3068.16494	5045.5875
3070.55254	5016.0875
3072.93868	5003.9875
3075.32338	5004.9875
3077.70662	5002.6875
3080.08842	4981.4875
3082.46878	5004.2875
