Data from AgNPs_FTO_APTES_UA_1uM_CRN_5uM_R6G_10uM_NaF_0.1M_Addition_RamanShift__24__14-04-09-605.txt Node

Date: Thu Jan 27 14:04:09 GMT 2022
User: TCL
Spectrometer: QEP01345
Trigger mode: 4
Integration Time (sec): 7.000000E0
Scans to average: 10
Electric dark correction enabled: true
Nonlinearity correction enabled: false
Boxcar width: 0
XAxis mode: Raman Shifts
Number of Pixels in Spectrum: 1044
>>>>>Begin Spectral Data<<<<<
46.04893	2.075
50.45542	-1.525
54.85868	-0.925
59.25871	-1.625
63.6555	51.275
68.04907	55.175
72.43941	55.175
76.82654	62.675
81.21044	62.575
85.59113	64.075
89.96862	65.775
94.34289	67.675
98.71396	72.575
103.08183	70.475
107.4465	77.175
111.80798	75.375
116.16626	78.575
120.52136	82.875
124.87327	81.875
129.222	84.875
133.56755	88.775
137.90993	93.075
142.24913	102.375
146.58517	111.075
150.91804	131.075
155.24774	148.375
159.57429	172.975
163.89768	223.475
168.21792	295.375
172.53501	393.175
176.84895	539.075
181.15975	752.575
185.46741	1055.975
189.77193	1445.775
194.07331	1939.275
198.37157	2517.875
202.6667	3114.075
206.9587	3684.875
211.24758	4265.475
215.53334	4867.975
219.81599	5507.175
224.09553	6220.875
228.37195	7029.875
232.64527	7895.175
236.91549	8821.775
241.18261	9662.675
245.44663	10448.775
249.70755	11151.675
253.96539	11742.875
258.22014	12277.675
262.4718	12737.375
266.72039	13093.875
270.96589	13322.675
275.20832	13409.775
279.44768	13349.975
283.68397	13230.975
287.91719	13153.175
292.14735	13134.675
296.37445	13256.375
300.59849	13460.775
304.81948	13694.875
309.03742	13828.275
313.25231	13733.875
317.46415	13258.075
321.67296	12585.575
325.87872	12089.175
330.08145	11829.475
334.28114	11832.075
338.47781	11964.075
342.67145	12226.175
346.86207	12566.675
351.04966	13024.775
355.23424	13601.975
359.4158	14026.775
363.59435	14261.075
367.76989	14404.075
371.94243	14451.775
376.11196	14464.875
380.27849	14480.075
384.44203	14455.475
388.60257	14450.975
392.76012	14473.075
396.91468	14625.775
401.06626	14953.975
405.21485	15222.975
409.36047	15106.475
413.50311	14726.875
417.64277	14348.075
421.77947	14186.375
425.9132	14145.675
430.04396	14197.875
434.17176	14276.575
438.2966	14442.675
442.41849	14692.175
446.53742	15080.875
450.6534	15514.275
454.76644	15817.275
458.87653	15946.375
462.98368	15906.675
467.08789	15730.775
471.18916	15429.075
475.2875	15103.475
479.38291	14930.375
483.4754	14790.375
487.56496	14640.075
491.6516	14474.075
495.73531	14347.475
499.81612	14335.775
503.89401	14378.375
507.96899	14491.275
512.04106	14539.175
516.11023	14613.975
520.1765	14694.875
524.23987	14581.075
528.30034	14407.175
532.35792	14227.975
536.41261	14044.375
540.46441	13858.875
544.51333	13805.575
548.55936	13937.075
552.60252	14226.975
556.64279	14524.575
560.6802	14673.375
564.71473	14741.575
568.7464	15077.075
572.7752	15360.375
576.80114	15333.075
580.82422	15236.575
584.84444	15284.175
588.86181	15318.675
592.87633	15422.575
596.888	15568.275
600.89682	15893.575
604.9028	16934.175
608.90594	19561.875
612.90624	22812.275
616.90371	22050.475
620.89834	17490.575
624.89015	15330.875
628.87913	15004.275
632.86528	14995.275
636.84862	14899.275
640.82913	14621.975
644.80683	14193.975
648.78172	13900.275
652.75379	13930.575
656.72306	14233.875
660.68952	14671.675
664.65319	14662.575
668.61405	14287.175
672.57211	14122.575
676.52738	14056.075
680.47986	14056.175
684.42955	14059.075
688.37646	14010.875
692.32058	14103.575
696.26192	14201.275
700.20048	14342.175
704.13626	14429.875
708.06928	14393.375
711.99952	14285.875
715.927	14224.275
719.85171	14234.875
723.77365	14217.875
727.69284	14073.975
731.60928	13991.775
735.52295	13964.975
739.43388	14016.475
743.34206	14100.675
747.24749	14195.475
751.15017	14330.475
755.05012	14554.775
758.94733	15025.675
762.8418	15941.975
766.73354	17472.375
770.62254	19101.375
774.50882	19763.675
778.39237	18996.275
782.27321	17286.375
786.15132	15694.675
790.02671	14809.475
793.89938	14401.675
797.76935	14270.475
801.6366	14189.075
805.50115	14132.575
809.36299	14061.775
813.22213	14026.775
817.07857	14023.875
820.93231	13997.075
824.78336	14047.575
828.63172	14114.575
832.47738	14140.675
836.32036	14183.075
840.16066	14204.975
843.99827	14214.875
847.8332	14201.475
851.66546	14124.275
855.49504	14075.175
859.32195	14061.775
863.1462	14017.975
866.96777	13959.275
870.78668	13919.075
874.60293	13924.275
878.41652	13957.575
882.22745	14022.475
886.03573	14068.775
889.84136	14062.975
893.64433	13988.975
897.44466	13958.675
901.24235	13933.375
905.0374	13901.275
908.8298	13874.275
912.61957	13883.375
916.40671	14028.075
920.19121	14175.975
923.97308	14321.975
927.75233	14432.275
931.52895	14520.975
935.30295	14429.675
939.07433	14158.375
942.84309	13910.675
946.60924	13809.275
950.37278	13719.175
954.13371	13643.875
957.89203	13556.175
961.64774	13521.975
965.40086	13482.875
969.15137	13429.175
972.89929	13365.275
976.64461	13355.675
980.38733	13369.075
984.12747	13427.075
987.86502	13580.175
991.59999	13770.175
995.33237	14035.175
999.06217	14418.275
1002.78939	14947.675
1006.51404	15249.975
1010.23611	15497.775
1013.95561	15650.475
1017.67255	15694.575
1021.38692	15600.675
1025.09872	15489.075
1028.80796	15646.475
1032.51465	16137.475
1036.21877	16536.775
1039.92035	16541.675
1043.61937	16223.775
1047.31584	15770.275
1051.00976	15301.675
1054.70114	15025.975
1058.38998	14984.575
1062.07627	15027.175
1065.76003	15075.075
1069.44126	15140.075
1073.11995	15215.175
1076.79611	15353.575
1080.46974	15433.475
1084.14085	15570.975
1087.80943	15778.275
1091.47549	15852.475
1095.13903	15744.075
1098.80005	15415.175
1102.45857	15102.075
1106.11456	14943.975
1109.76805	14990.975
1113.41903	15127.175
1117.06751	15382.575
1120.71348	15662.175
1124.35696	15955.975
1127.99793	16247.975
1131.63641	16318.075
1135.2724	15978.075
1138.90589	15641.875
1142.5369	15384.375
1146.16542	15211.375
1149.79145	15161.475
1153.415	15187.375
1157.03607	15287.775
1160.65467	15584.275
1164.27079	15967.375
1167.88443	16627.175
1171.49561	17596.475
1175.10432	19051.775
1178.71056	20925.875
1182.31434	22579.675
1185.91565	23380.875
1189.51451	23378.375
1193.11091	22490.675
1196.70485	21183.075
1200.29634	20032.575
1203.88538	19232.775
1207.47197	18452.575
1211.05612	17842.475
1214.63782	17512.575
1218.21708	17410.475
1221.79391	17518.275
1225.36829	17664.075
1228.94024	17765.375
1232.50976	17716.175
1236.07685	17643.075
1239.6415	17568.975
1243.20374	17479.575
1246.76355	17488.175
1250.32093	17695.375
1253.8759	18090.875
1257.42845	18583.475
1260.97859	19070.375
1264.52631	19450.575
1268.07163	19831.075
1271.61453	20272.175
1275.15503	20764.375
1278.69312	21319.175
1282.22882	21769.175
1285.76211	22152.675
1289.29301	22572.975
1292.82151	23034.975
1296.34761	23625.775
1299.87133	24548.475
1303.39266	25912.275
1306.9116	27913.875
1310.42815	30270.875
1313.94233	31858.375
1317.45412	31883.275
1320.96354	30737.775
1324.47058	29343.375
1327.97525	28083.775
1331.47754	27298.175
1334.97747	26943.775
1338.47502	27096.375
1341.97022	27393.275
1345.46305	27587.075
1348.95352	27658.475
1352.44163	27886.875
1355.92738	28845.175
1359.41078	30960.075
1362.89183	33234.875
1366.37053	32875.675
1369.84688	29494.975
1373.32088	25833.675
1376.79254	23419.175
1380.26186	22219.775
1383.72883	21778.575
1387.19347	21412.675
1390.65578	21055.575
1394.11575	20819.375
1397.57339	20854.475
1401.0287	21180.475
1404.48168	21651.075
1407.93234	22032.975
1411.38068	22283.775
1414.82669	22274.575
1418.27039	21724.075
1421.71177	21147.875
1425.15083	20576.375
1428.58758	20247.875
1432.02203	20151.575
1435.45416	20267.175
1438.88399	20394.675
1442.31151	20487.275
1445.73673	20609.175
1449.15965	20764.175
1452.58027	20840.175
1455.9986	20758.475
1459.41463	20746.075
1462.82837	20850.175
1466.23982	21161.475
1469.64898	21505.175
1473.05586	21761.575
1476.46045	21956.875
1479.86276	22086.475
1483.26279	22289.775
1486.66054	22554.975
1490.05602	22858.475
1493.44922	23313.675
1496.84016	23893.675
1500.22882	24686.875
1503.61521	25774.275
1506.99934	27253.675
1510.38121	28858.075
1513.76081	29838.975
1517.13816	29294.675
1520.51324	27468.575
1523.88607	25403.775
1527.25665	23827.075
1530.62498	22872.275
1533.99105	22265.375
1537.35488	21921.775
1540.71647	21704.175
1544.07581	21579.575
1547.4329	21389.775
1550.78776	21292.975
1554.14038	21239.575
1557.49077	21312.875
1560.83892	21440.575
1564.18484	21602.975
1567.52853	21640.675
1570.86999	21695.875
1574.20922	21784.475
1577.54624	21731.975
1580.88103	21476.675
1584.2136	21097.075
1587.54395	21178.575
1590.87208	21970.775
1594.19801	23227.275
1597.52172	24746.975
1600.84321	25414.375
1604.16251	24690.575
1607.47959	23121.175
1610.79447	21380.775
1614.10715	19802.775
1617.41763	18539.275
1620.7259	17726.375
1624.03199	17286.375
1627.33587	17329.875
1630.63757	17802.675
1633.93707	18657.875
1637.23439	19852.975
1640.52951	21313.075
1643.82246	22789.875
1647.11321	24062.075
1650.40179	24663.375
1653.68819	23814.875
1656.97241	21493.975
1660.25446	18903.375
1663.53433	16975.075
1666.81203	15798.675
1670.08756	15059.775
1673.36092	14613.675
1676.63211	14347.775
1679.90115	14100.275
1683.16801	13976.175
1686.43272	13874.675
1689.69527	13748.975
1692.95567	13701.375
1696.2139	13631.675
1699.46999	13570.075
1702.72392	13550.875
1705.97571	13549.175
1709.22535	13574.175
1712.47284	13576.675
1715.71819	13620.075
1718.96139	13570.175
1722.20246	13578.775
1725.44139	13554.675
1728.67818	13526.875
1731.91284	13431.275
1735.14537	13384.875
1738.37576	13324.875
1741.60403	13280.875
1744.83017	13238.275
1748.05418	13212.375
1751.27607	13189.575
1754.49584	13161.375
1757.71349	13171.375
1760.92903	13119.675
1764.14244	13097.075
1767.35375	13105.375
1770.56294	13103.275
1773.77002	13109.375
1776.97499	13107.575
1780.17785	13116.175
1783.37861	13096.775
1786.57727	13131.475
1789.77382	13106.975
1792.96828	13088.975
1796.16064	13081.175
1799.3509	13081.575
1802.53907	13067.575
1805.72514	13048.375
1808.90913	13001.275
1812.09102	12972.575
1815.27083	12973.775
1818.44856	12941.075
1821.6242	12931.375
1824.79776	12921.175
1827.96924	12914.175
1831.13864	12898.075
1834.30597	12909.475
1837.47122	12912.375
1840.6344	12875.975
1843.7955	12900.675
1846.95454	12900.575
1850.11151	12916.875
1853.26642	12961.475
1856.41926	12970.275
1859.57004	12974.275
1862.71876	12977.875
1865.86542	12964.575
1869.01003	12979.375
1872.15258	12971.475
1875.29308	12987.975
1878.43152	12962.975
1881.56792	13002.275
1884.70227	12978.875
1887.83457	13024.575
1890.96482	13012.275
1894.09304	13027.575
1897.21921	13026.275
1900.34335	13032.375
1903.46544	13032.075
1906.58551	13044.275
1909.70353	13021.275
1912.81953	13018.975
1915.93349	13008.775
1919.04543	13021.875
1922.15534	12986.675
1925.26322	12960.975
1928.36908	12954.575
1931.47292	12910.375
1934.57473	12835.775
1937.67453	12831.875
1940.77232	12766.975
1943.86808	12705.775
1946.96184	12646.375
1950.05358	12602.975
1953.14331	12578.275
1956.23103	12529.075
1959.31675	12473.175
1962.40046	12466.975
1965.48217	12412.475
1968.56188	12388.975
1971.63959	12365.875
1974.7153	12315.375
1977.78901	12284.575
1980.86073	12223.875
1983.93046	12181.375
1986.99819	12168.975
1990.06394	12133.075
1993.1277	12079.675
1996.18947	12051.475
1999.24925	12028.375
2002.30706	11973.575
2005.36288	11952.975
2008.41672	11969.775
2011.46859	11903.275
2014.51848	11874.875
2017.56639	11855.475
2020.61233	11856.975
2023.6563	11822.375
2026.6983	11792.275
2029.73833	11754.775
2032.7764	11734.575
2035.8125	11729.475
2038.84664	11717.175
2041.87881	11690.675
2044.90903	11691.375
2047.93729	11670.975
2050.96359	11651.475
2053.98794	11634.275
2057.01034	11621.775
2060.03078	11620.575
2063.04927	11616.875
2066.06582	11622.875
2069.08042	11618.775
2072.09307	11574.675
2075.10378	11563.275
2078.11255	11534.875
2081.11938	11544.075
2084.12426	11556.375
2087.12722	11552.275
2090.12824	11560.275
2093.12732	11530.775
2096.12447	11533.875
2099.11969	11545.975
2102.11299	11577.675
2105.10435	11549.175
2108.09379	11569.275
2111.08131	11588.575
2114.0669	11597.075
2117.05057	11592.575
2120.03233	11599.475
2123.01216	11599.575
2125.99008	11602.075
2128.96609	11625.775
2131.94018	11632.275
2134.91236	11645.975
2137.88263	11659.075
2140.851	11641.275
2143.81746	11702.875
2146.78201	11675.575
2149.74466	11705.875
2152.7054	11687.575
2155.66425	11702.975
2158.6212	11687.575
2161.57625	11673.575
2164.52941	11681.675
2167.48067	11667.875
2170.43004	11694.675
2173.37752	11660.775
2176.32311	11672.875
2179.26681	11660.575
2182.20863	11680.875
2185.14856	11666.975
2188.08661	11706.975
2191.02278	11700.575
2193.95707	11697.275
2196.88948	11685.575
2199.82001	11699.175
2202.74867	11692.975
2205.67545	11685.275
2208.60037	11679.375
2211.52341	11670.475
2214.44458	11644.975
2217.36388	11654.175
2220.28132	11634.675
2223.1969	11624.775
2226.11061	11605.875
2229.02246	11575.975
2231.93245	11578.375
2234.84058	11549.775
2237.74686	11507.775
2240.65128	11495.575
2243.55385	11497.475
2246.45456	11478.175
2249.35343	11481.875
2252.25044	11448.275
2255.14561	11468.875
2258.03893	11423.575
2260.93041	11413.175
2263.82004	11411.675
2266.70783	11376.775
2269.59378	11344.275
2272.4779	11320.275
2275.36017	11306.475
2278.24061	11288.975
2281.11922	11266.975
2283.996	11262.275
2286.87094	11229.275
2289.74405	11207.675
2292.61534	11195.875
2295.4848	11201.775
2298.35243	11221.175
2301.21824	11220.375
2304.08223	11219.675
2306.94439	11240.875
2309.80474	11250.875
2312.66327	11229.575
2315.51999	11231.975
2318.37489	11241.375
2321.22797	11208.675
2324.07925	11228.875
2326.92871	11208.875
2329.77637	11215.375
2332.62222	11197.075
2335.46626	11156.475
2338.3085	11191.175
2341.14893	11184.175
2343.98756	11216.175
2346.8244	11197.675
2349.65943	11205.175
2352.49267	11198.875
2355.32411	11201.175
2358.15376	11204.775
2360.98161	11191.675
2363.80768	11178.175
2366.63195	11171.875
2369.45444	11160.975
2372.27514	11142.375
2375.09405	11131.375
2377.91118	11114.275
2380.72652	11038.175
2383.54009	11014.975
2386.35187	11002.075
2389.16188	10977.875
2391.97011	10971.375
2394.77657	10955.475
2397.58125	10945.275
2400.38416	10931.475
2403.18529	10904.675
2405.98466	10904.875
2408.78226	10876.275
2411.57809	10827.575
2414.37216	10826.775
2417.16446	10828.075
2419.955	10803.375
2422.74378	10815.175
2425.5308	10819.475
2428.31606	10809.375
2431.09956	10778.775
2433.88131	10766.175
2436.6613	10754.675
2439.43954	10777.975
2442.21603	10751.175
2444.99077	10751.575
2447.76377	10770.975
2450.53501	10747.975
2453.30451	10758.775
2456.07226	10730.075
2458.83827	10727.475
2461.60254	10738.975
2464.36507	10737.975
2467.12586	10714.875
2469.88492	10703.475
2472.64224	10740.675
2475.39782	10741.675
2478.15167	10728.975
2480.90379	10721.675
2483.65417	10742.375
2486.40283	10735.775
2489.14976	10788.875
2491.89497	10768.375
2494.63845	10792.675
2497.3802	10776.175
2500.12024	10795.675
2502.85855	10760.675
2505.59514	10761.075
2508.33002	10741.175
2511.06318	10731.875
2513.79462	10718.375
2516.52435	10692.675
2519.25237	10679.275
2521.97867	10652.375
2524.70327	10680.875
2527.42616	10659.975
2530.14734	10647.875
2532.86681	10636.775
2535.58458	10621.575
2538.30065	10616.175
2541.01501	10617.075
2543.72768	10624.675
2546.43864	10594.775
2549.14791	10605.575
2551.85548	10568.875
2554.56136	10559.075
2557.26554	10598.375
2559.96803	10558.475
2562.66883	10529.875
2565.36794	10552.975
2568.06536	10536.175
2570.7611	10510.175
2573.45514	10508.775
2576.14751	10492.375
2578.83819	10509.275
2581.52719	10486.775
2584.21451	10493.575
2586.90015	10482.975
2589.58411	10473.475
2592.2664	10463.175
2594.94701	10486.075
2597.62594	10479.075
2600.30321	10477.075
2602.9788	10451.475
2605.65273	10440.475
2608.32498	10446.975
2610.99557	10457.275
2613.66449	10449.875
2616.33175	10450.175
2618.99734	10467.375
2621.66128	10465.275
2624.32355	10474.075
2626.98416	10459.675
2629.64311	10481.675
2632.30041	10449.875
2634.95605	10444.475
2637.61004	10397.775
2640.26238	10385.575
2642.91306	10405.475
2645.56209	10378.675
2648.20948	10374.275
2650.85521	10361.575
2653.4993	10337.375
2656.14175	10358.175
2658.78255	10347.275
2661.42171	10371.675
2664.05923	10402.575
2666.6951	10417.975
2669.32934	10387.575
2671.96194	10396.175
2674.59291	10421.675
2677.22224	10433.475
2679.84993	10406.275
2682.476	10403.475
2685.10043	10411.975
2687.72324	10380.375
2690.34441	10383.875
2692.96396	10375.275
2695.58188	10391.575
2698.19818	10398.275
2700.81285	10363.775
2703.4259	10370.875
2706.03733	10364.075
2708.64714	10369.875
2711.25533	10375.275
2713.86191	10381.575
2716.46687	10408.775
2719.07021	10405.675
2721.67194	10423.875
2724.27206	10412.175
2726.87057	10436.175
2729.46747	10432.775
2732.06276	10431.975
2734.65644	10392.375
2737.24852	10405.975
2739.83899	10404.475
2742.42786	10387.775
2745.01513	10385.075
2747.60079	10385.975
2750.18486	10379.775
2752.76733	10373.375
2755.3482	10353.975
2757.92747	10378.275
2760.50515	10366.575
2763.08123	10343.275
2765.65573	10349.775
2768.22863	10340.075
2770.79994	10345.675
2773.36967	10335.675
2775.9378	10331.675
2778.50435	10338.775
2781.06932	10320.675
2783.6327	10331.575
2786.1945	10306.075
2788.75471	10311.475
2791.31335	10291.075
2793.87041	10280.775
2796.42589	10238.275
2798.97979	10240.975
2801.53212	10203.675
2804.08288	10228.575
2806.63206	10191.375
2809.17967	10155.475
2811.72571	10150.975
2814.27018	10117.075
2816.81308	10141.275
2819.35442	10136.375
2821.89419	10152.075
2824.43239	10125.975
2826.96904	10128.875
2829.50412	10127.275
2832.03763	10143.875
2834.56959	10096.375
2837.1	10116.375
2839.62884	10100.275
2842.15613	10120.875
2844.68186	10129.475
2847.20604	10130.875
2849.72867	10145.775
2852.24974	10159.375
2854.76927	10129.075
2857.28724	10124.675
2859.80367	10131.375
2862.31855	10083.275
2864.83189	10109.675
2867.34368	10099.775
2869.85393	10092.375
2872.36264	10069.775
2874.8698	10092.875
2877.37543	10073.975
2879.87952	10077.175
2882.38207	10042.275
2884.88308	10075.075
2887.38256	10067.375
2889.88051	10049.975
2892.37692	10047.775
2894.8718	10047.275
2897.36515	10083.275
2899.85698	10062.975
2902.34727	10091.475
2904.83604	10089.575
2907.32328	10104.475
2909.809	10123.775
2912.29319	10132.175
2914.77587	10113.775
2917.25702	10118.775
2919.73665	10111.375
2922.21476	10108.075
2924.69136	10107.575
2927.16644	10112.075
2929.64	10089.475
2932.11205	10097.575
2934.58258	10046.675
2937.05161	10037.775
2939.51912	10060.475
2941.98513	10036.175
2944.44962	10018.275
2946.91261	9969.575
2949.37409	9977.475
2951.83407	9975.375
2954.29254	9967.175
2956.74951	9966.275
2959.20498	9964.975
2961.65895	9949.275
2964.11142	9947.375
2966.56239	9943.975
2969.01186	9925.275
2971.45984	9902.775
2973.90632	9874.475
2976.35131	9864.175
2978.7948	9851.275
2981.23681	9860.875
2983.67732	9826.375
2986.11635	9787.275
2988.55388	9767.475
2990.98993	9766.875
2993.4245	9749.075
2995.85758	9717.775
2998.28917	9705.475
3000.71928	9704.775
3003.14791	9678.175
3005.57506	9671.575
3008.00073	9634.975
3010.42493	9658.875
3012.84764	9642.375
3015.26888	9661.875
3017.68865	9623.475
3020.10694	9618.175
3022.52376	9576.775
3024.9391	9563.275
3027.35298	9567.475
3029.76539	9544.675
3032.17632	9570.175
3034.5858	9532.575
3036.9938	9529.775
3039.40034	9525.875
3041.80542	9516.975
3044.20903	9516.875
3046.61118	9490.175
3049.01187	9465.075
3051.4111	9482.675
3053.80888	9462.175
3056.20519	9436.775
3058.60005	9420.075
3060.99345	9382.875
3063.3854	9350.375
3065.7759	9332.675
3068.16494	9300.175
3070.55254	9304.275
3072.93868	9278.575
3075.32338	9253.475
3077.70662	9236.275
3080.08842	9224.075
3082.46878	9200.275
3084.84769	9178.475
3087.22515	9195.475
3089.60118	9198.175
3091.97576	9194.675
3094.3489	9201.675
3096.72061	9190.675
3099.09087	9202.475
3101.4597	9200.475
3103.82709	9192.775
3106.19305	9192.375
3108.55757	9172.775
3110.92066	9162.675
3113.28232	9142.975
3115.64255	9125.675
3118.00134	9110.175
3120.35871	9111.475
3122.71466	9098.975
3125.06917	9078.875
3127.42226	9023.975
3129.77393	9051.175
3132.12417	9053.875
3134.47299	9041.375
3136.82039	9039.975
3139.16636	9033.975
