Data from AgNPs_FTO_APTES_UA_1uM_CRN_10uM_R6G_50uM_NaF_0.1M_Addition_RamanShift__25__16-10-09-751.txt Node

Date: Thu Jan 27 16:10:09 GMT 2022
User: TCL
Spectrometer: QEP01345
Trigger mode: 4
Integration Time (sec): 7.000000E0
Scans to average: 10
Electric dark correction enabled: true
Nonlinearity correction enabled: false
Boxcar width: 0
XAxis mode: Raman Shifts
Number of Pixels in Spectrum: 1044
>>>>>Begin Spectral Data<<<<<
46.04893	1.8625
50.45542	-0.0375
54.85868	-1.6375
59.25871	-0.8375
63.6555	46.6625
68.04907	47.0625
72.43941	47.7625
76.82654	52.5625
81.21044	52.7625
85.59113	57.0625
89.96862	56.3625
94.34289	60.7625
98.71396	61.5625
103.08183	62.7625
107.4465	67.2625
111.80798	65.9625
116.16626	66.0625
120.52136	74.4625
124.87327	73.1625
129.222	71.9625
133.56755	79.6625
137.90993	82.4625
142.24913	87.4625
146.58517	96.5625
150.91804	114.2625
155.24774	128.7625
159.57429	153.3625
163.89768	198.5625
168.21792	258.4625
172.53501	345.5625
176.84895	481.0625
181.15975	667.2625
185.46741	932.9625
189.77193	1277.6625
194.07331	1712.9625
198.37157	2227.1625
202.6667	2742.3625
206.9587	3261.1625
211.24758	3772.2625
215.53334	4289.1625
219.81599	4852.1625
224.09553	5476.2625
228.37195	6176.8625
232.64527	6934.5625
236.91549	7727.9625
241.18261	8467.8625
245.44663	9184.9625
249.70755	9812.7625
253.96539	10336.2625
258.22014	10809.6625
262.4718	11230.5625
266.72039	11524.3625
270.96589	11717.1625
275.20832	11793.3625
279.44768	11748.2625
283.68397	11699.1625
287.91719	11633.1625
292.14735	11663.5625
296.37445	11747.9625
300.59849	11903.0625
304.81948	12022.4625
309.03742	12100.1625
313.25231	11940.3625
317.46415	11539.5625
321.67296	10998.0625
325.87872	10565.5625
330.08145	10344.6625
334.28114	10351.3625
338.47781	10457.1625
342.67145	10662.9625
346.86207	10924.8625
351.04966	11286.3625
355.23424	11732.8625
359.4158	12053.6625
363.59435	12246.9625
367.76989	12329.1625
371.94243	12424.1625
376.11196	12449.1625
380.27849	12470.3625
384.44203	12444.8625
388.60257	12459.4625
392.76012	12493.8625
396.91468	12596.4625
401.06626	12836.3625
405.21485	13027.1625
409.36047	12952.3625
413.50311	12598.0625
417.64277	12262.5625
421.77947	12130.2625
425.9132	12110.5625
430.04396	12164.4625
434.17176	12274.0625
438.2966	12384.0625
442.41849	12635.3625
446.53742	12905.0625
450.6534	13272.6625
454.76644	13536.9625
458.87653	13655.8625
462.98368	13610.0625
467.08789	13481.3625
471.18916	13296.3625
475.2875	13123.4625
479.38291	12995.5625
483.4754	12854.9625
487.56496	12699.7625
491.6516	12529.3625
495.73531	12387.6625
499.81612	12353.8625
503.89401	12424.1625
507.96899	12471.3625
512.04106	12509.5625
516.11023	12529.0625
520.1765	12547.6625
524.23987	12503.5625
528.30034	12341.9625
532.35792	12197.1625
536.41261	12042.6625
540.46441	11895.9625
544.51333	11860.7625
548.55936	12003.0625
552.60252	12259.6625
556.64279	12525.4625
560.6802	12667.3625
564.71473	12760.8625
568.7464	13017.1625
572.7752	13297.5625
576.80114	13277.3625
580.82422	13154.8625
584.84444	13150.9625
588.86181	13175.5625
592.87633	13260.9625
596.888	13419.6625
600.89682	13594.7625
604.9028	14354.0625
608.90594	16306.3625
612.90624	18843.0625
616.90371	18180.8625
620.89834	14501.1625
624.89015	12808.0625
628.87913	12586.5625
632.86528	12591.2625
636.84862	12581.9625
640.82913	12398.6625
644.80683	12039.5625
648.78172	11778.8625
652.75379	11762.6625
656.72306	11965.8625
660.68952	12314.0625
664.65319	12308.8625
668.61405	12023.6625
672.57211	11861.4625
676.52738	11858.0625
680.47986	11875.5625
684.42955	11842.9625
688.37646	11815.2625
692.32058	11846.8625
696.26192	11913.9625
700.20048	12048.2625
704.13626	12124.9625
708.06928	12090.0625
711.99952	12014.8625
715.927	11973.0625
719.85171	11993.5625
723.77365	11966.0625
727.69284	11887.4625
731.60928	11813.4625
735.52295	11789.4625
739.43388	11813.5625
743.34206	11848.1625
747.24749	11905.1625
751.15017	12018.2625
755.05012	12197.0625
758.94733	12574.4625
762.8418	13336.3625
766.73354	14582.2625
770.62254	15910.1625
774.50882	16417.2625
778.39237	15757.6625
782.27321	14320.2625
786.15132	13067.6625
790.02671	12305.6625
793.89938	11993.1625
797.76935	11874.7625
801.6366	11806.5625
805.50115	11756.7625
809.36299	11723.5625
813.22213	11666.7625
817.07857	11678.5625
820.93231	11678.9625
824.78336	11670.1625
828.63172	11711.9625
832.47738	11732.8625
836.32036	11735.0625
840.16066	11729.4625
843.99827	11712.5625
847.8332	11698.9625
851.66546	11667.2625
855.49504	11674.7625
859.32195	11648.3625
863.1462	11617.0625
866.96777	11544.8625
870.78668	11517.9625
874.60293	11633.1625
878.41652	11557.1625
882.22745	11588.6625
886.03573	11653.0625
889.84136	11616.7625
893.64433	11562.2625
897.44466	11528.9625
901.24235	11496.3625
905.0374	11493.5625
908.8298	11467.0625
912.61957	11490.0625
916.40671	11553.7625
920.19121	11669.5625
923.97308	11798.5625
927.75233	11836.5625
931.52895	11834.3625
935.30295	11768.9625
939.07433	11573.5625
942.84309	11380.2625
946.60924	11258.5625
950.37278	11221.9625
954.13371	11170.2625
957.89203	11124.8625
961.64774	11108.2625
965.40086	11054.6625
969.15137	11029.2625
972.89929	10960.1625
976.64461	10958.7625
980.38733	10927.3625
984.12747	10985.1625
987.86502	11064.8625
991.59999	11160.7625
995.33237	11329.9625
999.06217	11599.9625
1002.78939	11953.3625
1006.51404	12171.9625
1010.23611	12338.8625
1013.95561	12438.8625
1017.67255	12470.0625
1021.38692	12373.7625
1025.09872	12263.1625
1028.80796	12298.3625
1032.51465	12562.3625
1036.21877	12802.0625
1039.92035	12811.4625
1043.61937	12715.9625
1047.31584	12458.2625
1051.00976	12188.7625
1054.70114	12041.5625
1058.38998	12053.7625
1062.07627	12128.4625
1065.76003	12183.2625
1069.44126	12250.5625
1073.11995	12325.8625
1076.79611	12396.3625
1080.46974	12442.8625
1084.14085	12567.1625
1087.80943	12728.7625
1091.47549	12795.5625
1095.13903	12736.1625
1098.80005	12522.1625
1102.45857	12276.5625
1106.11456	12121.3625
1109.76805	12138.9625
1113.41903	12268.4625
1117.06751	12443.1625
1120.71348	12688.4625
1124.35696	12894.7625
1127.99793	13109.4625
1131.63641	13159.1625
1135.2724	12906.0625
1138.90589	12618.2625
1142.5369	12476.1625
1146.16542	12379.9625
1149.79145	12373.7625
1153.415	12407.2625
1157.03607	12513.8625
1160.65467	12735.8625
1164.27079	13103.1625
1167.88443	13599.6625
1171.49561	14400.0625
1175.10432	15546.9625
1178.71056	17061.5625
1182.31434	18305.4625
1185.91565	18894.8625
1189.51451	18828.4625
1193.11091	18167.2625
1196.70485	17233.7625
1200.29634	16448.3625
1203.88538	15825.3625
1207.47197	15242.5625
1211.05612	14756.8625
1214.63782	14448.0625
1218.21708	14313.7625
1221.79391	14300.0625
1225.36829	14290.5625
1228.94024	14284.2625
1232.50976	14207.3625
1236.07685	14129.7625
1239.6415	14060.6625
1243.20374	14082.5625
1246.76355	14142.7625
1250.32093	14306.2625
1253.8759	14584.5625
1257.42845	14945.1625
1260.97859	15268.6625
1264.52631	15561.4625
1268.07163	15853.5625
1271.61453	16194.7625
1275.15503	16570.8625
1278.69312	16935.3625
1282.22882	17234.2625
1285.76211	17567.6625
1289.29301	17907.0625
1292.82151	18395.8625
1296.34761	18979.8625
1299.87133	19766.9625
1303.39266	20912.9625
1306.9116	22434.1625
1310.42815	24148.7625
1313.94233	25341.9625
1317.45412	25365.4625
1320.96354	24604.2625
1324.47058	23695.2625
1327.97525	22797.6625
1331.47754	22280.5625
1334.97747	22074.6625
1338.47502	22186.0625
1341.97022	22478.1625
1345.46305	22607.3625
1348.95352	22625.3625
1352.44163	22684.3625
1355.92738	23289.3625
1359.41078	24737.9625
1362.89183	26454.3625
1366.37053	26075.4625
1369.84688	23451.7625
1373.32088	20597.9625
1376.79254	18767.0625
1380.26186	17899.3625
1383.72883	17612.2625
1387.19347	17471.6625
1390.65578	17282.8625
1394.11575	17219.9625
1397.57339	17322.8625
1401.0287	17648.5625
1404.48168	17988.6625
1407.93234	18235.4625
1411.38068	18338.8625
1414.82669	18093.2625
1418.27039	17563.2625
1421.71177	16942.6625
1425.15083	16409.2625
1428.58758	16094.4625
1432.02203	16002.2625
1435.45416	16091.8625
1438.88399	16281.1625
1442.31151	16448.6625
1445.73673	16630.7625
1449.15965	16869.7625
1452.58027	17010.7625
1455.9986	17038.7625
1459.41463	17127.2625
1462.82837	17273.4625
1466.23982	17529.9625
1469.64898	17805.5625
1473.05586	17959.2625
1476.46045	18028.9625
1479.86276	18042.8625
1483.26279	18111.1625
1486.66054	18154.1625
1490.05602	18359.2625
1493.44922	18623.4625
1496.84016	19016.6625
1500.22882	19555.5625
1503.61521	20448.2625
1506.99934	21603.2625
1510.38121	22872.1625
1513.76081	23662.6625
1517.13816	23284.4625
1520.51324	21845.4625
1523.88607	20236.0625
1527.25665	19154.1625
1530.62498	18461.8625
1533.99105	18060.3625
1537.35488	17849.6625
1540.71647	17698.2625
1544.07581	17523.1625
1547.4329	17370.1625
1550.78776	17198.4625
1554.14038	17135.2625
1557.49077	17179.9625
1560.83892	17282.3625
1564.18484	17405.4625
1567.52853	17504.4625
1570.86999	17565.4625
1574.20922	17656.5625
1577.54624	17732.5625
1580.88103	17488.6625
1584.2136	17216.9625
1587.54395	17271.7625
1590.87208	17861.2625
1594.19801	18758.6625
1597.52172	19838.3625
1600.84321	20286.3625
1604.16251	19700.6625
1607.47959	18527.4625
1610.79447	17190.4625
1614.10715	15947.0625
1617.41763	14906.0625
1620.7259	14225.2625
1624.03199	13843.3625
1627.33587	13803.4625
1630.63757	14108.9625
1633.93707	14707.0625
1637.23439	15660.8625
1640.52951	16890.1625
1643.82246	18272.2625
1647.11321	19583.8625
1650.40179	20176.6625
1653.68819	19538.3625
1656.97241	17554.5625
1660.25446	15384.1625
1663.53433	13723.9625
1666.81203	12684.1625
1670.08756	12018.1625
1673.36092	11641.7625
1676.63211	11391.5625
1679.90115	11237.8625
1683.16801	11092.1625
1686.43272	10961.6625
1689.69527	10895.1625
1692.95567	10817.6625
1696.2139	10766.2625
1699.46999	10705.4625
1702.72392	10645.4625
1705.97571	10664.1625
1709.22535	10679.9625
1712.47284	10724.8625
1715.71819	10714.5625
1718.96139	10711.6625
1722.20246	10695.9625
1725.44139	10674.3625
1728.67818	10640.6625
1731.91284	10554.9625
1735.14537	10512.5625
1738.37576	10487.7625
1741.60403	10424.5625
1744.83017	10423.3625
1748.05418	10383.6625
1751.27607	10358.5625
1754.49584	10337.3625
1757.71349	10334.2625
1760.92903	10301.6625
1764.14244	10293.4625
1767.35375	10292.5625
1770.56294	10261.4625
1773.77002	10279.2625
1776.97499	10258.2625
1780.17785	10278.1625
1783.37861	10260.4625
1786.57727	10266.7625
1789.77382	10240.6625
1792.96828	10267.6625
1796.16064	10237.8625
1799.3509	10238.5625
1802.53907	10252.0625
1805.72514	10203.9625
1808.90913	10177.9625
1812.09102	10165.6625
1815.27083	10146.9625
1818.44856	10124.8625
1821.6242	10093.1625
1824.79776	10115.7625
1827.96924	10085.3625
1831.13864	10095.8625
1834.30597	10079.1625
1837.47122	10078.2625
1840.6344	10055.7625
1843.7955	10071.7625
1846.95454	10067.5625
1850.11151	10090.6625
1853.26642	10105.4625
1856.41926	10087.8625
1859.57004	10101.0625
1862.71876	10114.2625
1865.86542	10080.5625
1869.01003	10066.5625
1872.15258	10093.7625
1875.29308	10103.8625
1878.43152	10068.9625
1881.56792	10080.8625
1884.70227	10105.3625
1887.83457	10077.8625
1890.96482	10077.3625
1894.09304	10065.0625
1897.21921	10080.3625
1900.34335	10094.8625
1903.46544	10070.5625
1906.58551	10073.8625
1909.70353	10071.8625
1912.81953	10052.2625
1915.93349	10050.5625
1919.04543	10050.1625
1922.15534	10032.8625
1925.26322	10025.4625
1928.36908	9986.2625
1931.47292	9975.1625
1934.57473	9950.1625
1937.67453	9905.7625
1940.77232	9891.9625
1943.86808	9826.2625
1946.96184	9790.4625
1950.05358	9763.3625
1953.14331	9744.1625
1956.23103	9716.2625
1959.31675	9683.9625
1962.40046	9658.0625
1965.48217	9646.0625
1968.56188	9607.4625
1971.63959	9579.5625
1974.7153	9556.9625
1977.78901	9538.1625
1980.86073	9521.4625
1983.93046	9481.7625
1986.99819	9462.7625
1990.06394	9420.5625
1993.1277	9384.1625
1996.18947	9351.9625
1999.24925	9332.2625
2002.30706	9327.1625
2005.36288	9275.6625
2008.41672	9263.3625
2011.46859	9244.4625
2014.51848	9245.0625
2017.56639	9206.9625
2020.61233	9184.5625
2023.6563	9178.3625
2026.6983	9147.0625
2029.73833	9123.7625
2032.7764	9110.0625
2035.8125	9111.5625
2038.84664	9055.5625
2041.87881	9059.1625
2044.90903	9062.1625
2047.93729	9045.5625
2050.96359	9027.1625
2053.98794	9007.0625
2057.01034	9011.5625
2060.03078	9030.6625
2063.04927	8989.6625
2066.06582	9007.0625
2069.08042	8996.6625
2072.09307	8956.4625
2075.10378	8960.3625
2078.11255	8968.3625
2081.11938	8975.1625
2084.12426	8955.4625
2087.12722	8966.9625
2090.12824	8938.5625
2093.12732	8923.8625
2096.12447	8931.1625
2099.11969	8920.7625
2102.11299	8961.5625
2105.10435	8944.0625
2108.09379	8951.4625
2111.08131	8953.3625
2114.0669	8984.3625
2117.05057	8977.4625
2120.03233	8964.3625
2123.01216	8979.5625
2125.99008	8983.2625
2128.96609	9022.3625
2131.94018	9025.6625
2134.91236	9043.3625
2137.88263	9027.8625
2140.851	9029.4625
2143.81746	9035.0625
2146.78201	9047.9625
2149.74466	9049.0625
2152.7054	9031.1625
2155.66425	9046.2625
2158.6212	9048.4625
2161.57625	9017.7625
2164.52941	9051.9625
2167.48067	9020.5625
2170.43004	9014.8625
2173.37752	9060.7625
2176.32311	9039.1625
2179.26681	9052.9625
2182.20863	9035.2625
2185.14856	9034.7625
2188.08661	9034.8625
2191.02278	9059.7625
2193.95707	9048.9625
2196.88948	9043.1625
2199.82001	9040.9625
2202.74867	9044.4625
2205.67545	9039.0625
2208.60037	9015.7625
2211.52341	9010.1625
2214.44458	9014.7625
2217.36388	8985.9625
2220.28132	8972.5625
2223.1969	8969.6625
2226.11061	8954.2625
2229.02246	8934.3625
2231.93245	8915.9625
2234.84058	8913.4625
2237.74686	8893.7625
2240.65128	8880.3625
2243.55385	8860.2625
2246.45456	8884.7625
2249.35343	8855.6625
2252.25044	8831.6625
2255.14561	8834.7625
2258.03893	8839.4625
2260.93041	8817.8625
2263.82004	8790.8625
2266.70783	8776.8625
2269.59378	8741.5625
2272.4779	8718.8625
2275.36017	8706.4625
2278.24061	8684.8625
2281.11922	8698.0625
2283.996	8673.3625
2286.87094	8677.9625
2289.74405	8653.9625
2292.61534	8622.3625
2295.4848	8629.1625
2298.35243	8630.1625
2301.21824	8620.3625
2304.08223	8649.6625
2306.94439	8645.9625
2309.80474	8645.1625
2312.66327	8646.8625
2315.51999	8649.5625
2318.37489	8643.9625
2321.22797	8632.7625
2324.07925	8622.9625
2326.92871	8622.3625
2329.77637	8610.9625
2332.62222	8591.2625
2335.46626	8593.6625
2338.3085	8589.9625
2341.14893	8596.8625
2343.98756	8595.4625
2346.8244	8596.6625
2349.65943	8582.7625
2352.49267	8591.3625
2355.32411	8607.9625
2358.15376	8584.7625
2360.98161	8563.8625
2363.80768	8582.7625
2366.63195	8590.4625
2369.45444	8547.4625
2372.27514	8567.5625
2375.09405	8554.9625
2377.91118	8529.0625
2380.72652	8507.6625
2383.54009	8468.0625
2386.35187	8460.4625
2389.16188	8449.9625
2391.97011	8434.6625
2394.77657	8424.1625
2397.58125	8409.0625
2400.38416	8400.5625
2403.18529	8386.5625
2405.98466	8361.3625
2408.78226	8352.1625
2411.57809	8353.2625
2414.37216	8336.4625
2417.16446	8324.2625
2419.955	8291.1625
2422.74378	8312.4625
2425.5308	8292.8625
2428.31606	8293.8625
2431.09956	8295.3625
2433.88131	8278.3625
2436.6613	8269.9625
2439.43954	8279.7625
2442.21603	8271.1625
2444.99077	8256.0625
2447.76377	8282.6625
2450.53501	8270.6625
2453.30451	8287.3625
2456.07226	8253.1625
2458.83827	8246.0625
2461.60254	8239.6625
2464.36507	8258.1625
2467.12586	8258.3625
2469.88492	8213.3625
2472.64224	8237.7625
2475.39782	8231.3625
2478.15167	8238.6625
2480.90379	8252.1625
2483.65417	8237.8625
2486.40283	8257.1625
2489.14976	8280.7625
2491.89497	8236.4625
2494.63845	8283.8625
2497.3802	8249.6625
2500.12024	8265.3625
2502.85855	8258.6625
2505.59514	8240.5625
2508.33002	8229.2625
2511.06318	8223.5625
2513.79462	8230.2625
2516.52435	8192.4625
2519.25237	8204.8625
2521.97867	8200.9625
2524.70327	8190.1625
2527.42616	8187.8625
2530.14734	8166.7625
2532.86681	8176.6625
2535.58458	8151.4625
2538.30065	8146.8625
2541.01501	8159.6625
2543.72768	8128.7625
2546.43864	8126.0625
2549.14791	8116.1625
2551.85548	8096.9625
2554.56136	8087.3625
2557.26554	8104.3625
2559.96803	8072.1625
2562.66883	8066.1625
2565.36794	8087.9625
2568.06536	8062.6625
2570.7611	8053.9625
2573.45514	8045.9625
2576.14751	8046.8625
2578.83819	8050.8625
2581.52719	8049.0625
2584.21451	8033.9625
2586.90015	8019.6625
2589.58411	8010.8625
2592.2664	8025.8625
2594.94701	8004.7625
2597.62594	8008.4625
2600.30321	7993.0625
2602.9788	7999.5625
2605.65273	7982.4625
2608.32498	7995.6625
2610.99557	7987.8625
2613.66449	7988.4625
2616.33175	7973.6625
2618.99734	7994.4625
2621.66128	7973.1625
2624.32355	7975.5625
2626.98416	7988.7625
2629.64311	7994.7625
2632.30041	7986.3625
2634.95605	7962.5625
2637.61004	7976.6625
2640.26238	7934.5625
2642.91306	7945.0625
2645.56209	7915.4625
2648.20948	7942.5625
2650.85521	7901.0625
2653.4993	7920.0625
2656.14175	7913.1625
2658.78255	7938.6625
2661.42171	7911.8625
2664.05923	7944.3625
2666.6951	7957.0625
2669.32934	7963.5625
2671.96194	7942.4625
2674.59291	7947.9625
2677.22224	7971.4625
2679.84993	7942.0625
2682.476	7953.9625
2685.10043	7956.4625
2687.72324	7936.8625
2690.34441	7946.1625
2692.96396	7932.5625
2695.58188	7955.4625
2698.19818	7933.2625
2700.81285	7931.4625
2703.4259	7943.2625
2706.03733	7933.1625
2708.64714	7910.6625
2711.25533	7934.7625
2713.86191	7934.5625
2716.46687	7952.7625
2719.07021	7944.2625
2721.67194	7969.5625
2724.27206	7960.2625
2726.87057	7977.9625
2729.46747	7970.7625
2732.06276	7966.8625
2734.65644	7948.5625
2737.24852	7942.5625
2739.83899	7972.9625
2742.42786	7967.8625
2745.01513	7950.2625
2747.60079	7940.1625
2750.18486	7952.7625
2752.76733	7956.1625
2755.3482	7930.2625
2757.92747	7947.7625
2760.50515	7927.3625
2763.08123	7907.0625
2765.65573	7916.6625
2768.22863	7907.7625
2770.79994	7910.4625
2773.36967	7908.5625
2775.9378	7912.4625
2778.50435	7919.5625
2781.06932	7909.1625
2783.6327	7874.7625
2786.1945	7898.8625
2788.75471	7888.4625
2791.31335	7865.4625
2793.87041	7861.0625
2796.42589	7852.3625
2798.97979	7840.8625
2801.53212	7829.3625
2804.08288	7814.8625
2806.63206	7806.3625
2809.17967	7782.6625
2811.72571	7779.0625
2814.27018	7767.1625
2816.81308	7755.0625
2819.35442	7763.9625
2821.89419	7761.1625
2824.43239	7760.0625
2826.96904	7754.1625
2829.50412	7758.9625
2832.03763	7715.4625
2834.56959	7744.4625
2837.1	7729.5625
2839.62884	7740.9625
2842.15613	7746.2625
2844.68186	7738.9625
2847.20604	7724.7625
2849.72867	7753.8625
2852.24974	7751.3625
2854.76927	7775.4625
2857.28724	7733.6625
2859.80367	7741.7625
2862.31855	7727.4625
2864.83189	7715.3625
2867.34368	7696.9625
2869.85393	7693.1625
2872.36264	7707.6625
2874.8698	7698.2625
2877.37543	7704.2625
2879.87952	7672.2625
2882.38207	7691.3625
2884.88308	7677.0625
2887.38256	7678.1625
2889.88051	7699.1625
2892.37692	7717.9625
2894.8718	7703.8625
2897.36515	7697.2625
2899.85698	7714.2625
2902.34727	7714.1625
2904.83604	7723.5625
2907.32328	7728.6625
2909.809	7727.4625
2912.29319	7746.0625
2914.77587	7741.6625
2917.25702	7728.9625
2919.73665	7729.5625
2922.21476	7729.7625
2924.69136	7711.7625
2927.16644	7732.1625
2929.64	7710.5625
2932.11205	7700.8625
2934.58258	7695.5625
2937.05161	7701.1625
2939.51912	7687.3625
2941.98513	7666.6625
2944.44962	7641.4625
2946.91261	7638.3625
2949.37409	7627.6625
2951.83407	7637.8625
2954.29254	7647.5625
2956.74951	7624.2625
2959.20498	7632.3625
2961.65895	7603.0625
2964.11142	7603.7625
2966.56239	7591.7625
2969.01186	7598.8625
2971.45984	7565.0625
2973.90632	7563.1625
2976.35131	7572.1625
2978.7948	7535.8625
2981.23681	7527.7625
2983.67732	7510.9625
2986.11635	7502.5625
2988.55388	7500.6625
2990.98993	7496.7625
2993.4245	7469.4625
2995.85758	7439.4625
2998.28917	7422.2625
3000.71928	7418.8625
3003.14791	7395.1625
3005.57506	7403.4625
3008.00073	7384.6625
3010.42493	7397.1625
3012.84764	7379.1625
3015.26888	7395.2625
3017.68865	7356.3625
3020.10694	7341.2625
3022.52376	7307.2625
3024.9391	7325.5625
3027.35298	7312.1625
3029.76539	7297.5625
3032.17632	7294.8625
3034.5858	7295.7625
3036.9938	7303.4625
3039.40034	7294.9625
3041.80542	7303.3625
3044.20903	7273.6625
3046.61118	7277.2625
3049.01187	7258.2625
3051.4111	7247.8625
3053.80888	7236.0625
3056.20519	7231.1625
3058.60005	7208.6625
3060.99345	7176.7625
3063.3854	7171.7625
3065.7759	7142.4625
3068.16494	7169.0625
3070.55254	7132.4625
3072.93868	7112.0625
