Data from AgNPs_FTO_APTES_UA_1uM_CRN_1000uM_R6G_10uM_NaF_0.1M_Addition_RamanShift__21__18-58-09-942.txt Node

Date: Thu Jan 27 18:58:09 GMT 2022
User: TCL
Spectrometer: QEP01345
Trigger mode: 4
Integration Time (sec): 7.000000E0
Scans to average: 10
Electric dark correction enabled: true
Nonlinearity correction enabled: false
Boxcar width: 0
XAxis mode: Raman Shifts
Number of Pixels in Spectrum: 1044
>>>>>Begin Spectral Data<<<<<
46.04893	0.2125
50.45542	1.2125
54.85868	-1.9875
59.25871	-1.0875
63.6555	46.4125
68.04907	48.3125
72.43941	54.1125
76.82654	55.3125
81.21044	59.9125
85.59113	58.7125
89.96862	60.1125
94.34289	61.3125
98.71396	69.7125
103.08183	68.6125
107.4465	72.2125
111.80798	73.0125
116.16626	73.4125
120.52136	84.0125
124.87327	78.2125
129.222	74.8125
133.56755	85.6125
137.90993	90.9125
142.24913	97.8125
146.58517	108.2125
150.91804	127.5125
155.24774	145.2125
159.57429	176.8125
163.89768	220.6125
168.21792	292.7125
172.53501	395.6125
176.84895	546.0125
181.15975	759.3125
185.46741	1067.5125
189.77193	1473.1125
194.07331	1969.4125
198.37157	2544.7125
202.6667	3187.5125
206.9587	3810.4125
211.24758	4418.9125
215.53334	5055.9125
219.81599	5676.0125
224.09553	6398.5125
228.37195	7178.6125
232.64527	8027.7125
236.91549	8892.3125
241.18261	9788.9125
245.44663	10589.8125
249.70755	11299.9125
253.96539	11847.4125
258.22014	12324.1125
262.4718	12732.1125
266.72039	12964.7125
270.96589	13080.3125
275.20832	13078.5125
279.44768	12931.7125
283.68397	12774.9125
287.91719	12635.2125
292.14735	12490.8125
296.37445	12488.5125
300.59849	12544.9125
304.81948	12593.6125
309.03742	12577.0125
313.25231	12436.6125
317.46415	12116.7125
321.67296	11752.8125
325.87872	11483.4125
330.08145	11362.3125
334.28114	11348.6125
338.47781	11479.3125
342.67145	11605.3125
346.86207	11788.0125
351.04966	12071.6125
355.23424	12331.4125
359.4158	12546.8125
363.59435	12748.8125
367.76989	12876.1125
371.94243	12996.3125
376.11196	13095.9125
380.27849	13184.8125
384.44203	13226.9125
388.60257	13313.6125
392.76012	13335.1125
396.91468	13464.5125
401.06626	13634.9125
405.21485	13751.4125
409.36047	13766.9125
413.50311	13530.5125
417.64277	13367.2125
421.77947	13298.7125
425.9132	13315.2125
430.04396	13385.5125
434.17176	13453.0125
438.2966	13589.1125
442.41849	13858.1125
446.53742	14192.4125
450.6534	14605.0125
454.76644	14870.7125
458.87653	14950.7125
462.98368	14826.1125
467.08789	14625.9125
471.18916	14414.6125
475.2875	14240.5125
479.38291	14157.5125
483.4754	14053.9125
487.56496	13921.7125
491.6516	13708.4125
495.73531	13610.9125
499.81612	13518.3125
503.89401	13577.8125
507.96899	13659.1125
512.04106	13656.2125
516.11023	13642.8125
520.1765	13611.4125
524.23987	13565.7125
528.30034	13454.8125
532.35792	13313.4125
536.41261	13202.7125
540.46441	13050.3125
544.51333	12990.4125
548.55936	13040.7125
552.60252	13230.4125
556.64279	13477.3125
560.6802	13699.0125
564.71473	13843.5125
568.7464	14051.3125
572.7752	14337.3125
576.80114	14454.8125
580.82422	14481.1125
584.84444	14581.8125
588.86181	14820.2125
592.87633	15127.1125
596.888	15306.5125
600.89682	15284.6125
604.9028	15563.9125
608.90594	16731.1125
612.90624	18325.0125
616.90371	17650.0125
620.89834	14843.1125
624.89015	13554.3125
628.87913	13316.0125
632.86528	13376.5125
636.84862	13459.1125
640.82913	13396.0125
644.80683	13100.5125
648.78172	12889.6125
652.75379	12816.7125
656.72306	12923.6125
660.68952	13127.3125
664.65319	13108.0125
668.61405	12978.7125
672.57211	13002.9125
676.52738	13128.6125
680.47986	13248.4125
684.42955	13202.5125
688.37646	13113.4125
692.32058	13030.8125
696.26192	13053.4125
700.20048	13113.6125
704.13626	13184.8125
708.06928	13130.2125
711.99952	12972.8125
715.927	12897.3125
719.85171	12858.5125
723.77365	12838.7125
727.69284	12784.4125
731.60928	12723.3125
735.52295	12713.8125
739.43388	12720.6125
743.34206	12745.2125
747.24749	12778.5125
751.15017	12822.2125
755.05012	12950.2125
758.94733	13221.4125
762.8418	13724.5125
766.73354	14649.2125
770.62254	15662.4125
774.50882	16195.4125
778.39237	15685.7125
782.27321	14563.5125
786.15132	13520.1125
790.02671	12902.4125
793.89938	12612.4125
797.76935	12474.5125
801.6366	12433.5125
805.50115	12411.1125
809.36299	12367.1125
813.22213	12311.4125
817.07857	12256.4125
820.93231	12243.7125
824.78336	12200.9125
828.63172	12158.8125
832.47738	12161.4125
836.32036	12171.9125
840.16066	12174.4125
843.99827	12149.8125
847.8332	12127.1125
851.66546	12112.5125
855.49504	12162.0125
859.32195	12243.7125
863.1462	12292.8125
866.96777	12324.8125
870.78668	12256.3125
874.60293	12180.3125
878.41652	12113.2125
882.22745	12113.8125
886.03573	12153.7125
889.84136	12134.4125
893.64433	12105.9125
897.44466	12052.3125
901.24235	12011.7125
905.0374	11929.0125
908.8298	11842.7125
912.61957	11848.6125
916.40671	11912.7125
920.19121	12033.2125
923.97308	12150.5125
927.75233	12251.3125
931.52895	12306.2125
935.30295	12275.1125
939.07433	12062.4125
942.84309	11836.4125
946.60924	11684.4125
950.37278	11571.4125
954.13371	11527.2125
957.89203	11473.7125
961.64774	11417.8125
965.40086	11391.8125
969.15137	11321.7125
972.89929	11250.9125
976.64461	11223.3125
980.38733	11195.4125
984.12747	11192.9125
987.86502	11252.1125
991.59999	11371.3125
995.33237	11524.3125
999.06217	11716.0125
1002.78939	11956.0125
1006.51404	12113.1125
1010.23611	12219.5125
1013.95561	12327.0125
1017.67255	12331.5125
1021.38692	12220.9125
1025.09872	12094.6125
1028.80796	12039.2125
1032.51465	12106.0125
1036.21877	12235.2125
1039.92035	12291.4125
1043.61937	12249.7125
1047.31584	12148.7125
1051.00976	12075.2125
1054.70114	12008.7125
1058.38998	12011.3125
1062.07627	12068.5125
1065.76003	12138.8125
1069.44126	12210.4125
1073.11995	12345.0125
1076.79611	12467.4125
1080.46974	12528.9125
1084.14085	12519.2125
1087.80943	12525.6125
1091.47549	12574.1125
1095.13903	12557.9125
1098.80005	12387.2125
1102.45857	12212.0125
1106.11456	12078.1125
1109.76805	12058.5125
1113.41903	12132.0125
1117.06751	12258.0125
1120.71348	12489.3125
1124.35696	12694.5125
1127.99793	12911.1125
1131.63641	13022.2125
1135.2724	12875.6125
1138.90589	12649.8125
1142.5369	12511.9125
1146.16542	12454.3125
1149.79145	12411.7125
1153.415	12406.7125
1157.03607	12546.6125
1160.65467	12769.1125
1164.27079	13183.2125
1167.88443	13765.3125
1171.49561	14497.1125
1175.10432	15491.7125
1178.71056	16722.3125
1182.31434	17890.5125
1185.91565	18425.3125
1189.51451	18292.1125
1193.11091	17703.2125
1196.70485	16951.1125
1200.29634	16311.7125
1203.88538	15745.7125
1207.47197	15297.5125
1211.05612	14929.5125
1214.63782	14666.1125
1218.21708	14536.5125
1221.79391	14505.7125
1225.36829	14439.9125
1228.94024	14255.2125
1232.50976	13991.0125
1236.07685	13811.7125
1239.6415	13655.3125
1243.20374	13658.2125
1246.76355	13662.4125
1250.32093	13804.5125
1253.8759	14021.0125
1257.42845	14280.7125
1260.97859	14617.0125
1264.52631	14931.7125
1268.07163	15271.3125
1271.61453	15641.5125
1275.15503	16009.1125
1278.69312	16394.7125
1282.22882	16720.1125
1285.76211	17017.0125
1289.29301	17445.5125
1292.82151	18036.0125
1296.34761	18808.1125
1299.87133	19778.4125
1303.39266	20971.1125
1306.9116	22315.4125
1310.42815	23745.3125
1313.94233	24654.1125
1317.45412	24710.6125
1320.96354	24096.8125
1324.47058	23233.3125
1327.97525	22497.2125
1331.47754	21972.2125
1334.97747	21776.2125
1338.47502	21811.1125
1341.97022	21823.2125
1345.46305	21748.0125
1348.95352	21672.9125
1352.44163	21834.3125
1355.92738	22462.7125
1359.41078	23582.7125
1362.89183	24764.1125
1366.37053	24683.8125
1369.84688	22690.6125
1373.32088	20038.5125
1376.79254	18123.2125
1380.26186	17245.4125
1383.72883	16994.8125
1387.19347	16914.2125
1390.65578	16773.2125
1394.11575	16708.7125
1397.57339	16956.2125
1401.0287	17381.8125
1404.48168	17899.4125
1407.93234	18123.1125
1411.38068	18138.8125
1414.82669	17845.1125
1418.27039	17275.0125
1421.71177	16616.9125
1425.15083	16061.5125
1428.58758	15698.7125
1432.02203	15648.0125
1435.45416	15883.5125
1438.88399	16230.7125
1442.31151	16513.2125
1445.73673	16690.8125
1449.15965	16941.8125
1452.58027	17135.1125
1455.9986	17143.5125
1459.41463	17179.4125
1462.82837	17321.5125
1466.23982	17638.4125
1469.64898	18002.3125
1473.05586	18227.3125
1476.46045	18262.9125
1479.86276	18175.6125
1483.26279	18027.0125
1486.66054	17859.2125
1490.05602	17826.9125
1493.44922	17819.0125
1496.84016	17804.6125
1500.22882	17962.2125
1503.61521	18404.4125
1506.99934	19188.3125
1510.38121	20005.1125
1513.76081	20383.4125
1517.13816	19877.0125
1520.51324	18821.7125
1523.88607	17750.7125
1527.25665	17040.5125
1530.62498	16767.1125
1533.99105	16614.0125
1537.35488	16570.1125
1540.71647	16455.1125
1544.07581	16346.1125
1547.4329	16165.8125
1550.78776	15991.8125
1554.14038	15852.7125
1557.49077	15794.8125
1560.83892	15780.7125
1564.18484	15819.2125
1567.52853	15884.4125
1570.86999	16071.1125
1574.20922	16328.5125
1577.54624	16521.4125
1580.88103	16520.8125
1584.2136	16388.5125
1587.54395	16478.4125
1590.87208	16981.8125
1594.19801	17895.3125
1597.52172	18951.4125
1600.84321	19562.6125
1604.16251	19193.1125
1607.47959	17945.3125
1610.79447	16488.1125
1614.10715	15078.4125
1617.41763	13941.8125
1620.7259	13148.8125
1624.03199	12725.8125
1627.33587	12651.7125
1630.63757	12875.0125
1633.93707	13480.3125
1637.23439	14543.0125
1640.52951	16065.6125
1643.82246	17947.3125
1647.11321	19633.6125
1650.40179	20237.6125
1653.68819	19289.5125
1656.97241	17037.1125
1660.25446	14684.0125
1663.53433	12982.1125
1666.81203	11923.5125
1670.08756	11295.1125
1673.36092	10850.0125
1676.63211	10637.3125
1679.90115	10426.3125
1683.16801	10296.0125
1686.43272	10154.8125
1689.69527	10050.7125
1692.95567	9984.0125
1696.2139	9890.8125
1699.46999	9793.0125
1702.72392	9759.1125
1705.97571	9756.5125
1709.22535	9738.5125
1712.47284	9757.6125
1715.71819	9756.0125
1718.96139	9762.5125
1722.20246	9692.7125
1725.44139	9680.9125
1728.67818	9630.3125
1731.91284	9574.2125
1735.14537	9537.7125
1738.37576	9511.4125
1741.60403	9486.1125
1744.83017	9479.6125
1748.05418	9469.3125
1751.27607	9450.8125
1754.49584	9441.8125
1757.71349	9403.9125
1760.92903	9356.6125
1764.14244	9286.7125
1767.35375	9251.8125
1770.56294	9207.3125
1773.77002	9193.2125
1776.97499	9164.7125
1780.17785	9163.7125
1783.37861	9134.1125
1786.57727	9120.4125
1789.77382	9091.7125
1792.96828	9093.1125
1796.16064	9046.7125
1799.3509	9021.9125
1802.53907	8998.7125
1805.72514	8979.1125
1808.90913	8944.1125
1812.09102	8932.4125
1815.27083	8922.7125
1818.44856	8894.7125
1821.6242	8869.7125
1824.79776	8848.0125
1827.96924	8846.3125
1831.13864	8833.3125
1834.30597	8830.2125
1837.47122	8820.4125
1840.6344	8810.1125
1843.7955	8799.8125
1846.95454	8805.6125
1850.11151	8801.3125
1853.26642	8804.1125
1856.41926	8786.6125
1859.57004	8796.8125
1862.71876	8776.3125
1865.86542	8762.4125
1869.01003	8775.6125
1872.15258	8763.2125
1875.29308	8767.8125
1878.43152	8761.1125
1881.56792	8751.9125
1884.70227	8733.1125
1887.83457	8723.0125
1890.96482	8718.6125
1894.09304	8719.1125
1897.21921	8739.9125
1900.34335	8692.1125
1903.46544	8678.9125
1906.58551	8677.6125
1909.70353	8673.8125
1912.81953	8655.8125
1915.93349	8652.6125
1919.04543	8643.3125
1922.15534	8605.0125
1925.26322	8574.0125
1928.36908	8582.7125
1931.47292	8536.2125
1934.57473	8512.8125
1937.67453	8518.2125
1940.77232	8473.3125
1943.86808	8435.5125
1946.96184	8412.2125
1950.05358	8401.0125
1953.14331	8355.3125
1956.23103	8340.9125
1959.31675	8319.4125
1962.40046	8271.0125
1965.48217	8263.5125
1968.56188	8240.3125
1971.63959	8228.4125
1974.7153	8164.3125
1977.78901	8171.4125
1980.86073	8132.7125
1983.93046	8137.7125
1986.99819	8089.3125
1990.06394	8066.2125
1993.1277	8036.2125
1996.18947	8010.0125
1999.24925	8008.6125
2002.30706	7976.5125
2005.36288	7939.4125
2008.41672	7924.7125
2011.46859	7897.5125
2014.51848	7907.0125
2017.56639	7875.6125
2020.61233	7844.5125
2023.6563	7840.8125
2026.6983	7818.8125
2029.73833	7811.5125
2032.7764	7801.1125
2035.8125	7769.5125
2038.84664	7729.1125
2041.87881	7716.4125
2044.90903	7729.5125
2047.93729	7692.5125
2050.96359	7691.1125
2053.98794	7669.4125
2057.01034	7652.7125
2060.03078	7671.2125
2063.04927	7639.1125
2066.06582	7651.7125
2069.08042	7651.2125
2072.09307	7640.7125
2075.10378	7636.6125
2078.11255	7627.9125
2081.11938	7623.0125
2084.12426	7608.2125
2087.12722	7610.5125
2090.12824	7596.9125
2093.12732	7636.7125
2096.12447	7606.5125
2099.11969	7592.6125
2102.11299	7602.8125
2105.10435	7614.7125
2108.09379	7617.2125
2111.08131	7606.7125
2114.0669	7614.9125
2117.05057	7616.6125
2120.03233	7618.1125
2123.01216	7617.3125
2125.99008	7630.1125
2128.96609	7628.6125
2131.94018	7662.5125
2134.91236	7630.3125
2137.88263	7643.4125
2140.851	7648.7125
2143.81746	7634.1125
2146.78201	7638.5125
2149.74466	7628.8125
2152.7054	7647.3125
2155.66425	7652.0125
2158.6212	7632.9125
2161.57625	7603.7125
2164.52941	7632.3125
2167.48067	7627.9125
2170.43004	7606.5125
2173.37752	7631.6125
2176.32311	7628.6125
2179.26681	7622.6125
2182.20863	7615.4125
2185.14856	7610.9125
2188.08661	7618.1125
2191.02278	7620.7125
2193.95707	7613.6125
2196.88948	7607.6125
2199.82001	7596.0125
2202.74867	7574.0125
2205.67545	7574.1125
2208.60037	7558.5125
2211.52341	7541.9125
2214.44458	7543.1125
2217.36388	7518.4125
2220.28132	7522.6125
2223.1969	7499.8125
2226.11061	7501.1125
2229.02246	7474.5125
2231.93245	7469.7125
2234.84058	7447.6125
2237.74686	7442.7125
2240.65128	7423.4125
2243.55385	7412.9125
2246.45456	7393.4125
2249.35343	7396.3125
2252.25044	7385.5125
2255.14561	7367.9125
2258.03893	7359.3125
2260.93041	7339.6125
2263.82004	7316.3125
2266.70783	7303.8125
2269.59378	7291.1125
2272.4779	7271.2125
2275.36017	7251.9125
2278.24061	7259.1125
2281.11922	7252.5125
2283.996	7221.7125
2286.87094	7199.5125
2289.74405	7195.2125
2292.61534	7177.2125
2295.4848	7185.9125
2298.35243	7177.3125
2301.21824	7164.9125
2304.08223	7182.3125
2306.94439	7170.5125
2309.80474	7167.9125
2312.66327	7156.8125
2315.51999	7146.3125
2318.37489	7142.9125
2321.22797	7136.6125
2324.07925	7127.0125
2326.92871	7096.4125
2329.77637	7122.7125
2332.62222	7114.9125
2335.46626	7103.8125
2338.3085	7090.6125
2341.14893	7091.7125
2343.98756	7087.8125
2346.8244	7077.1125
2349.65943	7069.5125
2352.49267	7055.0125
2355.32411	7078.3125
2358.15376	7050.1125
2360.98161	7043.6125
2363.80768	7060.8125
2366.63195	7032.8125
2369.45444	7061.0125
2372.27514	7046.3125
2375.09405	7030.9125
2377.91118	7033.7125
2380.72652	6978.7125
2383.54009	6970.4125
2386.35187	6943.5125
2389.16188	6921.3125
2391.97011	6936.0125
2394.77657	6922.4125
2397.58125	6912.1125
2400.38416	6903.5125
2403.18529	6869.7125
2405.98466	6872.2125
2408.78226	6847.8125
2411.57809	6844.8125
2414.37216	6853.6125
2417.16446	6823.1125
2419.955	6815.5125
2422.74378	6826.2125
2425.5308	6815.7125
2428.31606	6815.2125
2431.09956	6807.3125
2433.88131	6771.4125
2436.6613	6790.9125
2439.43954	6791.8125
2442.21603	6765.4125
2444.99077	6775.3125
2447.76377	6773.8125
2450.53501	6762.9125
2453.30451	6772.6125
2456.07226	6768.7125
2458.83827	6735.9125
2461.60254	6751.4125
2464.36507	6741.1125
2467.12586	6758.8125
2469.88492	6734.6125
2472.64224	6741.3125
2475.39782	6730.2125
2478.15167	6718.0125
2480.90379	6733.5125
2483.65417	6739.4125
2486.40283	6740.8125
2489.14976	6746.8125
2491.89497	6736.3125
2494.63845	6723.5125
2497.3802	6731.0125
2500.12024	6713.0125
2502.85855	6723.0125
2505.59514	6729.9125
2508.33002	6710.4125
2511.06318	6714.7125
2513.79462	6691.1125
2516.52435	6685.8125
2519.25237	6671.8125
2521.97867	6663.8125
2524.70327	6672.2125
2527.42616	6645.6125
2530.14734	6627.0125
2532.86681	6647.0125
2535.58458	6628.9125
2538.30065	6631.6125
2541.01501	6610.9125
2543.72768	6615.4125
2546.43864	6608.7125
2549.14791	6589.3125
2551.85548	6598.5125
2554.56136	6584.8125
2557.26554	6579.8125
2559.96803	6566.8125
2562.66883	6569.5125
2565.36794	6552.9125
2568.06536	6564.0125
2570.7611	6557.4125
2573.45514	6529.3125
2576.14751	6534.3125
2578.83819	6502.3125
2581.52719	6506.2125
2584.21451	6488.8125
2586.90015	6522.1125
2589.58411	6491.2125
2592.2664	6490.8125
2594.94701	6465.5125
2597.62594	6474.1125
2600.30321	6465.2125
2602.9788	6477.0125
2605.65273	6440.0125
2608.32498	6445.1125
2610.99557	6424.6125
2613.66449	6444.6125
2616.33175	6430.8125
2618.99734	6426.6125
2621.66128	6436.8125
2624.32355	6429.5125
2626.98416	6428.3125
2629.64311	6430.9125
2632.30041	6423.3125
2634.95605	6404.5125
2637.61004	6397.4125
2640.26238	6370.4125
2642.91306	6378.2125
2645.56209	6364.1125
2648.20948	6374.6125
2650.85521	6370.5125
2653.4993	6370.0125
2656.14175	6379.7125
2658.78255	6395.4125
2661.42171	6396.3125
2664.05923	6413.7125
2666.6951	6404.7125
2669.32934	6408.1125
2671.96194	6391.6125
2674.59291	6406.3125
2677.22224	6380.3125
2679.84993	6396.9125
2682.476	6389.9125
2685.10043	6370.9125
2687.72324	6360.3125
2690.34441	6361.3125
2692.96396	6361.4125
2695.58188	6370.2125
2698.19818	6371.4125
2700.81285	6370.2125
2703.4259	6380.8125
2706.03733	6347.1125
2708.64714	6344.8125
2711.25533	6365.7125
2713.86191	6355.1125
2716.46687	6394.3125
2719.07021	6375.9125
2721.67194	6406.8125
2724.27206	6407.3125
2726.87057	6407.8125
2729.46747	6397.7125
2732.06276	6402.0125
2734.65644	6367.2125
2737.24852	6397.3125
2739.83899	6395.1125
2742.42786	6393.0125
2745.01513	6358.0125
2747.60079	6359.9125
2750.18486	6356.1125
2752.76733	6361.9125
2755.3482	6355.1125
2757.92747	6363.4125
2760.50515	6339.5125
2763.08123	6355.0125
2765.65573	6360.8125
2768.22863	6341.3125
2770.79994	6337.4125
2773.36967	6324.3125
2775.9378	6343.6125
2778.50435	6335.2125
2781.06932	6341.4125
2783.6327	6328.0125
2786.1945	6320.0125
2788.75471	6323.4125
2791.31335	6316.4125
2793.87041	6306.1125
2796.42589	6294.7125
2798.97979	6317.6125
2801.53212	6301.4125
2804.08288	6297.9125
2806.63206	6285.7125
2809.17967	6264.1125
2811.72571	6268.8125
2814.27018	6261.2125
2816.81308	6266.7125
2819.35442	6275.9125
2821.89419	6248.0125
2824.43239	6252.1125
2826.96904	6238.0125
2829.50412	6250.3125
2832.03763	6231.3125
2834.56959	6246.5125
2837.1	6249.5125
2839.62884	6260.9125
2842.15613	6272.2125
2844.68186	6332.1125
2847.20604	6346.8125
2849.72867	6363.1125
2852.24974	6358.4125
2854.76927	6343.2125
2857.28724	6337.7125
2859.80367	6345.1125
2862.31855	6320.0125
2864.83189	6310.5125
2867.34368	6320.3125
2869.85393	6316.5125
2872.36264	6336.1125
2874.8698	6341.0125
2877.37543	6341.2125
2879.87952	6355.4125
2882.38207	6352.1125
2884.88308	6347.9125
2887.38256	6356.7125
2889.88051	6354.4125
2892.37692	6363.5125
2894.8718	6394.2125
2897.36515	6413.0125
2899.85698	6419.6125
2902.34727	6446.0125
2904.83604	6457.2125
2907.32328	6467.9125
2909.809	6470.7125
2912.29319	6491.0125
2914.77587	6499.2125
2917.25702	6511.0125
2919.73665	6499.5125
2922.21476	6527.7125
2924.69136	6528.5125
2927.16644	6533.9125
2929.64	6533.1125
2932.11205	6489.7125
2934.58258	6489.1125
2937.05161	6505.9125
2939.51912	6510.8125
2941.98513	6457.7125
2944.44962	6429.3125
2946.91261	6407.8125
2949.37409	6382.3125
2951.83407	6372.5125
2954.29254	6348.6125
2956.74951	6316.3125
2959.20498	6309.2125
2961.65895	6274.7125
2964.11142	6269.3125
2966.56239	6248.2125
2969.01186	6227.0125
2971.45984	6194.9125
2973.90632	6186.9125
2976.35131	6148.6125
2978.7948	6134.0125
2981.23681	6133.2125
2983.67732	6104.3125
2986.11635	6088.6125
2988.55388	6061.4125
2990.98993	6041.7125
2993.4245	6033.5125
2995.85758	6023.9125
2998.28917	6006.6125
3000.71928	5987.5125
3003.14791	5977.2125
3005.57506	5961.2125
3008.00073	5956.1125
3010.42493	5934.8125
3012.84764	5934.9125
3015.26888	5931.7125
3017.68865	5911.4125
3020.10694	5918.3125
3022.52376	5892.2125
3024.9391	5874.9125
3027.35298	5853.8125
3029.76539	5864.3125
3032.17632	5844.6125
3034.5858	5847.0125
3036.9938	5839.8125
3039.40034	5815.8125
3041.80542	5835.6125
3044.20903	5818.2125
3046.61118	5818.6125
3049.01187	5801.1125
3051.4111	5803.5125
3053.80888	5793.0125
3056.20519	5768.1125
3058.60005	5763.6125
3060.99345	5749.4125
3063.3854	5733.6125
3065.7759	5711.8125
3068.16494	5721.0125
3070.55254	5711.5125
3072.93868	5701.1125
3075.32338	5706.5125
3077.70662	5676.0125
3080.08842	5653.0125
