Data from AgNPs_FTO_APTES_UA_1uM_CRN_10uM_R6G_20uM_NaF_0.1M_Addition_RamanShift__7__15-05-59-677.txt Node

Date: Thu Jan 27 15:05:59 GMT 2022
User: TCL
Spectrometer: QEP01345
Trigger mode: 4
Integration Time (sec): 7.000000E0
Scans to average: 10
Electric dark correction enabled: true
Nonlinearity correction enabled: false
Boxcar width: 0
XAxis mode: Raman Shifts
Number of Pixels in Spectrum: 1044
>>>>>Begin Spectral Data<<<<<
46.04893	1.4125
50.45542	1.0125
54.85868	-1.0875
59.25871	-2.0875
63.6555	46.0125
68.04907	50.8125
72.43941	52.9125
76.82654	56.0125
81.21044	56.4125
85.59113	57.2125
89.96862	59.2125
94.34289	64.2125
98.71396	67.0125
103.08183	66.6125
107.4465	69.7125
111.80798	73.8125
116.16626	70.9125
120.52136	82.8125
124.87327	79.4125
129.222	77.2125
133.56755	83.2125
137.90993	87.9125
142.24913	93.6125
146.58517	108.7125
150.91804	122.6125
155.24774	148.5125
159.57429	201.1125
163.89768	236.8125
168.21792	295.2125
172.53501	396.0125
176.84895	542.7125
181.15975	761.5125
185.46741	1064.8125
189.77193	1471.4125
194.07331	1974.2125
198.37157	2545.5125
202.6667	3137.1125
206.9587	3729.5125
211.24758	4319.0125
215.53334	4888.6125
219.81599	5503.6125
224.09553	6170.6125
228.37195	6890.5125
232.64527	7676.8125
236.91549	8575.3125
241.18261	9424.6125
245.44663	10245.0125
249.70755	11011.9125
253.96539	11664.3125
258.22014	12247.0125
262.4718	12673.7125
266.72039	13013.8125
270.96589	13164.2125
275.20832	13196.5125
279.44768	13131.5125
283.68397	13001.8125
287.91719	12864.3125
292.14735	12832.8125
296.37445	12742.7125
300.59849	12798.1125
304.81948	12842.0125
309.03742	12838.4125
313.25231	12772.4125
317.46415	12621.1125
321.67296	12383.5125
325.87872	12204.5125
330.08145	12082.0125
334.28114	12082.1125
338.47781	12156.3125
342.67145	12257.0125
346.86207	12450.6125
351.04966	12631.3125
355.23424	12834.3125
359.4158	13019.6125
363.59435	13141.2125
367.76989	13278.5125
371.94243	13345.1125
376.11196	13408.9125
380.27849	13439.0125
384.44203	13529.0125
388.60257	13615.1125
392.76012	13745.0125
396.91468	13920.8125
401.06626	14110.0125
405.21485	14242.0125
409.36047	14188.6125
413.50311	14094.1125
417.64277	14003.1125
421.77947	14104.7125
425.9132	14159.3125
430.04396	14227.9125
434.17176	14264.9125
438.2966	14360.7125
442.41849	14481.9125
446.53742	14747.6125
450.6534	15071.4125
454.76644	15291.6125
458.87653	15376.1125
462.98368	15334.2125
467.08789	15205.4125
471.18916	15029.8125
475.2875	14853.3125
479.38291	14742.5125
483.4754	14621.3125
487.56496	14539.3125
491.6516	14411.8125
495.73531	14239.1125
499.81612	14190.2125
503.89401	14251.3125
507.96899	14352.3125
512.04106	14353.7125
516.11023	14271.2125
520.1765	14125.0125
524.23987	14037.5125
528.30034	13911.1125
532.35792	13801.5125
536.41261	13692.4125
540.46441	13590.0125
544.51333	13597.3125
548.55936	13688.3125
552.60252	13894.7125
556.64279	14179.4125
560.6802	14354.2125
564.71473	14464.6125
568.7464	14596.8125
572.7752	14916.2125
576.80114	15301.5125
580.82422	15775.7125
584.84444	16291.9125
588.86181	16944.1125
592.87633	17442.7125
596.888	17374.9125
600.89682	16716.0125
604.9028	16403.2125
608.90594	16980.1125
612.90624	17735.4125
616.90371	16910.7125
620.89834	14939.5125
624.89015	14003.6125
628.87913	13926.1125
632.86528	14028.1125
636.84862	14057.7125
640.82913	13855.6125
644.80683	13613.3125
648.78172	13453.7125
652.75379	13460.0125
656.72306	13547.5125
660.68952	13714.7125
664.65319	13656.9125
668.61405	13487.3125
672.57211	13479.4125
676.52738	13507.7125
680.47986	13513.1125
684.42955	13433.0125
688.37646	13382.6125
692.32058	13426.4125
696.26192	13611.9125
700.20048	13769.3125
704.13626	13840.9125
708.06928	13852.2125
711.99952	13823.9125
715.927	13823.3125
719.85171	13842.6125
723.77365	13779.3125
727.69284	13623.9125
731.60928	13456.6125
735.52295	13404.0125
739.43388	13375.2125
743.34206	13410.1125
747.24749	13473.8125
751.15017	13580.9125
755.05012	13774.1125
758.94733	14103.1125
762.8418	14582.3125
766.73354	15306.6125
770.62254	15988.7125
774.50882	16068.1125
778.39237	15565.0125
782.27321	14804.7125
786.15132	14158.0125
790.02671	13712.2125
793.89938	13554.8125
797.76935	13435.1125
801.6366	13381.9125
805.50115	13359.7125
809.36299	13306.3125
813.22213	13233.5125
817.07857	13172.1125
820.93231	13147.3125
824.78336	13098.8125
828.63172	13056.8125
832.47738	13039.6125
836.32036	13030.3125
840.16066	13004.2125
843.99827	13028.2125
847.8332	13011.1125
851.66546	13012.5125
855.49504	13013.2125
859.32195	12990.0125
863.1462	12992.4125
866.96777	12997.4125
870.78668	12970.4125
874.60293	13000.0125
878.41652	12977.9125
882.22745	13022.1125
886.03573	13080.5125
889.84136	13081.1125
893.64433	13022.9125
897.44466	12968.9125
901.24235	12951.4125
905.0374	12917.9125
908.8298	12868.7125
912.61957	12907.6125
916.40671	13001.8125
920.19121	13132.4125
923.97308	13266.5125
927.75233	13236.4125
931.52895	13139.6125
935.30295	12989.2125
939.07433	12817.7125
942.84309	12659.9125
946.60924	12570.3125
950.37278	12548.8125
954.13371	12564.5125
957.89203	12550.9125
961.64774	12540.3125
965.40086	12529.7125
969.15137	12487.2125
972.89929	12452.8125
976.64461	12418.4125
980.38733	12393.5125
984.12747	12402.7125
987.86502	12463.5125
991.59999	12513.2125
995.33237	12595.5125
999.06217	12742.2125
1002.78939	12952.0125
1006.51404	13141.1125
1010.23611	13336.0125
1013.95561	13442.4125
1017.67255	13481.1125
1021.38692	13408.5125
1025.09872	13240.4125
1028.80796	13099.6125
1032.51465	13118.3125
1036.21877	13187.3125
1039.92035	13229.8125
1043.61937	13226.3125
1047.31584	13216.1125
1051.00976	13159.3125
1054.70114	13171.4125
1058.38998	13214.1125
1062.07627	13309.3125
1065.76003	13437.5125
1069.44126	13614.2125
1073.11995	13793.6125
1076.79611	13953.1125
1080.46974	14050.7125
1084.14085	14088.2125
1087.80943	14140.3125
1091.47549	14241.7125
1095.13903	14284.7125
1098.80005	14136.2125
1102.45857	13902.9125
1106.11456	13654.5125
1109.76805	13513.7125
1113.41903	13509.3125
1117.06751	13512.2125
1120.71348	13606.7125
1124.35696	13739.3125
1127.99793	13860.2125
1131.63641	13961.2125
1135.2724	13885.7125
1138.90589	13832.9125
1142.5369	13883.7125
1146.16542	13933.1125
1149.79145	14045.0125
1153.415	14136.8125
1157.03607	14235.1125
1160.65467	14554.2125
1164.27079	15072.7125
1167.88443	15725.9125
1171.49561	16401.9125
1175.10432	17138.7125
1178.71056	18118.0125
1182.31434	19088.6125
1185.91565	19561.1125
1189.51451	19532.4125
1193.11091	19189.6125
1196.70485	18765.7125
1200.29634	18209.7125
1203.88538	17847.9125
1207.47197	17602.2125
1211.05612	17457.1125
1214.63782	17203.8125
1218.21708	16800.1125
1221.79391	16340.5125
1225.36829	16021.8125
1228.94024	15837.0125
1232.50976	15732.9125
1236.07685	15561.7125
1239.6415	15425.8125
1243.20374	15425.0125
1246.76355	15505.0125
1250.32093	15674.4125
1253.8759	15933.3125
1257.42845	16310.1125
1260.97859	16653.5125
1264.52631	17037.3125
1268.07163	17443.9125
1271.61453	17815.5125
1275.15503	18167.8125
1278.69312	18594.6125
1282.22882	19051.9125
1285.76211	19547.3125
1289.29301	20201.9125
1292.82151	20994.7125
1296.34761	21955.1125
1299.87133	23053.4125
1303.39266	24193.1125
1306.9116	25218.5125
1310.42815	25823.4125
1313.94233	26159.2125
1317.45412	25969.0125
1320.96354	25527.3125
1324.47058	25167.3125
1327.97525	24985.8125
1331.47754	24875.9125
1334.97747	24807.2125
1338.47502	24681.2125
1341.97022	24528.3125
1345.46305	24258.1125
1348.95352	24074.0125
1352.44163	23972.5125
1355.92738	24280.8125
1359.41078	24977.9125
1362.89183	25533.5125
1366.37053	25270.7125
1369.84688	23698.9125
1373.32088	21617.4125
1376.79254	19941.0125
1380.26186	19303.5125
1383.72883	19385.2125
1387.19347	19421.5125
1390.65578	19223.3125
1394.11575	19072.8125
1397.57339	19154.5125
1401.0287	19411.4125
1404.48168	19664.6125
1407.93234	19649.2125
1411.38068	19356.6125
1414.82669	18825.2125
1418.27039	18150.0125
1421.71177	17533.2125
1425.15083	17062.5125
1428.58758	16810.2125
1432.02203	16927.6125
1435.45416	17303.1125
1438.88399	17759.0125
1442.31151	18107.7125
1445.73673	18288.4125
1449.15965	18389.2125
1452.58027	18388.6125
1455.9986	18360.7125
1459.41463	18386.5125
1462.82837	18587.1125
1466.23982	18904.1125
1469.64898	19170.0125
1473.05586	19382.4125
1476.46045	19431.1125
1479.86276	19346.0125
1483.26279	19186.8125
1486.66054	19113.1125
1490.05602	19131.6125
1493.44922	19364.8125
1496.84016	19607.6125
1500.22882	19901.7125
1503.61521	20372.6125
1506.99934	20830.9125
1510.38121	21210.7125
1513.76081	21294.9125
1517.13816	20974.6125
1520.51324	20487.8125
1523.88607	20162.6125
1527.25665	20060.0125
1530.62498	20051.3125
1533.99105	19973.3125
1537.35488	19716.2125
1540.71647	19295.0125
1544.07581	18845.7125
1547.4329	18354.2125
1550.78776	17959.8125
1554.14038	17654.0125
1557.49077	17519.4125
1560.83892	17410.9125
1564.18484	17393.3125
1567.52853	17411.8125
1570.86999	17542.8125
1574.20922	17833.7125
1577.54624	18087.5125
1580.88103	18207.7125
1584.2136	18398.6125
1587.54395	18817.5125
1590.87208	19575.6125
1594.19801	20587.5125
1597.52172	21489.2125
1600.84321	21727.5125
1604.16251	20926.2125
1607.47959	19483.9125
1610.79447	18022.4125
1614.10715	16683.9125
1617.41763	15624.9125
1620.7259	14885.8125
1624.03199	14470.5125
1627.33587	14450.4125
1630.63757	14773.8125
1633.93707	15530.5125
1637.23439	16787.2125
1640.52951	18735.0125
1643.82246	21023.6125
1647.11321	22915.2125
1650.40179	23322.1125
1653.68819	21787.0125
1656.97241	19166.9125
1660.25446	16642.9125
1663.53433	14784.8125
1666.81203	13555.6125
1670.08756	12856.3125
1673.36092	12399.7125
1676.63211	12113.8125
1679.90115	11900.5125
1683.16801	11735.1125
1686.43272	11637.1125
1689.69527	11513.2125
1692.95567	11432.2125
1696.2139	11359.2125
1699.46999	11280.8125
1702.72392	11219.3125
1705.97571	11243.8125
1709.22535	11239.5125
1712.47284	11261.8125
1715.71819	11232.6125
1718.96139	11209.6125
1722.20246	11187.2125
1725.44139	11175.9125
1728.67818	11110.1125
1731.91284	11057.8125
1735.14537	11023.4125
1738.37576	10954.0125
1741.60403	10894.3125
1744.83017	10848.4125
1748.05418	10843.2125
1751.27607	10811.1125
1754.49584	10765.6125
1757.71349	10753.3125
1760.92903	10712.4125
1764.14244	10713.4125
1767.35375	10717.4125
1770.56294	10686.3125
1773.77002	10696.3125
1776.97499	10676.2125
1780.17785	10694.0125
1783.37861	10672.8125
1786.57727	10663.6125
1789.77382	10661.1125
1792.96828	10623.5125
1796.16064	10617.0125
1799.3509	10609.8125
1802.53907	10591.8125
1805.72514	10551.1125
1808.90913	10532.2125
1812.09102	10506.2125
1815.27083	10505.6125
1818.44856	10490.7125
1821.6242	10460.8125
1824.79776	10433.3125
1827.96924	10416.9125
1831.13864	10423.3125
1834.30597	10425.0125
1837.47122	10402.2125
1840.6344	10406.7125
1843.7955	10393.5125
1846.95454	10400.5125
1850.11151	10380.9125
1853.26642	10411.0125
1856.41926	10387.5125
1859.57004	10419.1125
1862.71876	10383.5125
1865.86542	10367.0125
1869.01003	10355.5125
1872.15258	10325.6125
1875.29308	10303.0125
1878.43152	10283.6125
1881.56792	10268.4125
1884.70227	10257.8125
1887.83457	10241.7125
1890.96482	10233.7125
1894.09304	10232.3125
1897.21921	10231.1125
1900.34335	10205.4125
1903.46544	10205.8125
1906.58551	10183.7125
1909.70353	10163.5125
1912.81953	10167.7125
1915.93349	10128.3125
1919.04543	10106.9125
1922.15534	10080.5125
1925.26322	10067.5125
1928.36908	10032.8125
1931.47292	10036.8125
1934.57473	9987.6125
1937.67453	9984.7125
1940.77232	9968.1125
1943.86808	9928.2125
1946.96184	9891.4125
1950.05358	9883.8125
1953.14331	9855.0125
1956.23103	9827.9125
1959.31675	9781.0125
1962.40046	9780.3125
1965.48217	9748.1125
1968.56188	9731.3125
1971.63959	9712.5125
1974.7153	9651.9125
1977.78901	9620.6125
1980.86073	9587.3125
1983.93046	9572.4125
1986.99819	9530.4125
1990.06394	9500.3125
1993.1277	9490.7125
1996.18947	9413.6125
1999.24925	9419.4125
2002.30706	9397.4125
2005.36288	9358.1125
2008.41672	9341.1125
2011.46859	9316.5125
2014.51848	9275.6125
2017.56639	9266.0125
2020.61233	9263.9125
2023.6563	9238.0125
2026.6983	9195.4125
2029.73833	9195.7125
2032.7764	9168.3125
2035.8125	9131.8125
2038.84664	9109.5125
2041.87881	9101.7125
2044.90903	9100.0125
2047.93729	9078.9125
2050.96359	9069.0125
2053.98794	9038.3125
2057.01034	9031.4125
2060.03078	9027.3125
2063.04927	9037.3125
2066.06582	9028.8125
2069.08042	9035.8125
2072.09307	8990.0125
2075.10378	9000.1125
2078.11255	8991.2125
2081.11938	8991.2125
2084.12426	8991.2125
2087.12722	8983.0125
2090.12824	8966.9125
2093.12732	8979.5125
2096.12447	8982.2125
2099.11969	8973.6125
2102.11299	8977.7125
2105.10435	8992.9125
2108.09379	8999.6125
2111.08131	8997.0125
2114.0669	8998.3125
2117.05057	8998.4125
2120.03233	9010.2125
2123.01216	9001.9125
2125.99008	9003.3125
2128.96609	9018.9125
2131.94018	9041.9125
2134.91236	9010.6125
2137.88263	9055.0125
2140.851	9019.9125
2143.81746	9019.7125
2146.78201	9047.9125
2149.74466	9034.0125
2152.7054	9060.5125
2155.66425	9036.6125
2158.6212	9033.4125
2161.57625	9042.9125
2164.52941	9047.1125
2167.48067	9018.9125
2170.43004	9020.3125
2173.37752	9028.6125
2176.32311	9021.2125
2179.26681	9015.6125
2182.20863	9003.8125
2185.14856	9011.6125
2188.08661	9027.0125
2191.02278	9021.1125
2193.95707	9010.3125
2196.88948	8991.4125
2199.82001	9008.6125
2202.74867	8986.3125
2205.67545	8977.2125
2208.60037	8968.1125
2211.52341	8940.7125
2214.44458	8914.7125
2217.36388	8907.8125
2220.28132	8890.6125
2223.1969	8877.1125
2226.11061	8855.2125
2229.02246	8841.0125
2231.93245	8847.4125
2234.84058	8838.1125
2237.74686	8844.5125
2240.65128	8809.6125
2243.55385	8785.2125
2246.45456	8773.0125
2249.35343	8779.9125
2252.25044	8761.6125
2255.14561	8733.1125
2258.03893	8707.7125
2260.93041	8687.7125
2263.82004	8678.1125
2266.70783	8675.0125
2269.59378	8630.3125
2272.4779	8610.9125
2275.36017	8597.0125
2278.24061	8571.9125
2281.11922	8573.0125
2283.996	8590.5125
2286.87094	8548.1125
2289.74405	8527.5125
2292.61534	8490.7125
2295.4848	8489.6125
2298.35243	8504.6125
2301.21824	8491.3125
2304.08223	8518.9125
2306.94439	8511.1125
2309.80474	8496.2125
2312.66327	8472.9125
2315.51999	8481.6125
2318.37489	8496.2125
2321.22797	8472.6125
2324.07925	8460.0125
2326.92871	8425.5125
2329.77637	8436.5125
2332.62222	8409.1125
2335.46626	8399.6125
2338.3085	8383.6125
2341.14893	8376.7125
2343.98756	8367.2125
2346.8244	8361.4125
2349.65943	8363.0125
2352.49267	8344.5125
2355.32411	8344.4125
2358.15376	8350.9125
2360.98161	8330.3125
2363.80768	8329.0125
2366.63195	8350.9125
2369.45444	8328.0125
2372.27514	8298.7125
2375.09405	8305.7125
2377.91118	8290.0125
2380.72652	8280.4125
2383.54009	8251.2125
2386.35187	8276.0125
2389.16188	8213.4125
2391.97011	8206.8125
2394.77657	8195.6125
2397.58125	8158.5125
2400.38416	8167.8125
2403.18529	8161.9125
2405.98466	8152.2125
2408.78226	8143.2125
2411.57809	8125.9125
2414.37216	8118.5125
2417.16446	8126.7125
2419.955	8106.5125
2422.74378	8097.5125
2425.5308	8080.3125
2428.31606	8072.6125
2431.09956	8094.6125
2433.88131	8070.4125
2436.6613	8079.3125
2439.43954	8079.9125
2442.21603	8042.4125
2444.99077	8055.7125
2447.76377	8042.1125
2450.53501	8041.1125
2453.30451	8029.8125
2456.07226	8008.5125
2458.83827	8012.0125
2461.60254	8034.0125
2464.36507	7995.9125
2467.12586	7992.1125
2469.88492	7996.7125
2472.64224	7998.6125
2475.39782	7987.8125
2478.15167	8009.1125
2480.90379	7992.4125
2483.65417	8006.0125
2486.40283	7978.5125
2489.14976	7996.3125
2491.89497	8009.6125
2494.63845	7978.8125
2497.3802	7963.6125
2500.12024	7964.1125
2502.85855	7968.7125
2505.59514	7958.3125
2508.33002	7939.5125
2511.06318	7938.8125
2513.79462	7936.6125
2516.52435	7937.1125
2519.25237	7918.7125
2521.97867	7921.3125
2524.70327	7910.6125
2527.42616	7910.3125
2530.14734	7895.1125
2532.86681	7883.4125
2535.58458	7882.2125
2538.30065	7851.6125
2541.01501	7873.4125
2543.72768	7825.4125
2546.43864	7841.7125
2549.14791	7834.0125
2551.85548	7821.3125
2554.56136	7825.8125
2557.26554	7807.5125
2559.96803	7782.4125
2562.66883	7795.4125
2565.36794	7781.3125
2568.06536	7765.9125
2570.7611	7762.0125
2573.45514	7751.4125
2576.14751	7726.5125
2578.83819	7714.4125
2581.52719	7711.7125
2584.21451	7719.4125
2586.90015	7712.4125
2589.58411	7687.5125
2592.2664	7694.1125
2594.94701	7661.9125
2597.62594	7673.5125
2600.30321	7652.9125
2602.9788	7648.5125
2605.65273	7645.1125
2608.32498	7648.4125
2610.99557	7630.4125
2613.66449	7643.4125
2616.33175	7615.8125
2618.99734	7632.3125
2621.66128	7614.7125
2624.32355	7590.9125
2626.98416	7599.0125
2629.64311	7608.3125
2632.30041	7594.9125
2634.95605	7576.0125
2637.61004	7583.4125
2640.26238	7563.8125
2642.91306	7565.3125
2645.56209	7553.0125
2648.20948	7552.5125
2650.85521	7551.5125
2653.4993	7557.6125
2656.14175	7544.0125
2658.78255	7547.8125
2661.42171	7555.8125
2664.05923	7571.3125
2666.6951	7572.1125
2669.32934	7591.4125
2671.96194	7584.9125
2674.59291	7561.8125
2677.22224	7569.0125
2679.84993	7558.3125
2682.476	7543.3125
2685.10043	7559.5125
2687.72324	7533.8125
2690.34441	7536.3125
2692.96396	7557.5125
2695.58188	7562.7125
2698.19818	7557.3125
2700.81285	7544.9125
2703.4259	7541.3125
2706.03733	7558.5125
2708.64714	7501.6125
2711.25533	7555.9125
2713.86191	7554.5125
2716.46687	7567.4125
2719.07021	7562.4125
2721.67194	7563.7125
2724.27206	7558.4125
2726.87057	7561.5125
2729.46747	7594.6125
2732.06276	7585.3125
2734.65644	7569.2125
2737.24852	7567.0125
2739.83899	7558.7125
2742.42786	7580.5125
2745.01513	7522.9125
2747.60079	7534.2125
2750.18486	7552.4125
2752.76733	7524.1125
2755.3482	7520.0125
2757.92747	7548.0125
2760.50515	7515.1125
2763.08123	7501.8125
2765.65573	7509.8125
2768.22863	7488.5125
2770.79994	7493.9125
2773.36967	7467.1125
2775.9378	7498.5125
2778.50435	7493.2125
2781.06932	7468.2125
2783.6327	7478.1125
2786.1945	7465.2125
2788.75471	7427.9125
2791.31335	7415.5125
2793.87041	7421.4125
2796.42589	7404.9125
2798.97979	7400.8125
2801.53212	7400.8125
2804.08288	7398.8125
2806.63206	7367.7125
2809.17967	7352.8125
2811.72571	7311.0125
2814.27018	7330.8125
2816.81308	7307.0125
2819.35442	7305.2125
2821.89419	7308.3125
2824.43239	7277.7125
2826.96904	7283.4125
2829.50412	7273.4125
2832.03763	7255.0125
2834.56959	7250.9125
2837.1	7259.3125
2839.62884	7228.5125
2842.15613	7246.4125
2844.68186	7275.4125
2847.20604	7268.8125
2849.72867	7253.9125
2852.24974	7273.9125
2854.76927	7244.5125
2857.28724	7228.8125
2859.80367	7229.9125
2862.31855	7218.2125
2864.83189	7203.1125
2867.34368	7198.2125
2869.85393	7185.6125
2872.36264	7171.0125
2874.8698	7178.3125
2877.37543	7186.1125
2879.87952	7167.0125
2882.38207	7162.6125
2884.88308	7155.6125
2887.38256	7161.7125
2889.88051	7156.7125
2892.37692	7172.0125
2894.8718	7166.1125
2897.36515	7162.4125
2899.85698	7156.1125
2902.34727	7186.6125
2904.83604	7167.1125
2907.32328	7170.4125
2909.809	7184.0125
2912.29319	7182.1125
2914.77587	7196.0125
2917.25702	7193.3125
2919.73665	7171.6125
2922.21476	7186.8125
2924.69136	7167.7125
2927.16644	7185.0125
2929.64	7181.3125
2932.11205	7161.0125
2934.58258	7141.8125
2937.05161	7165.5125
2939.51912	7150.2125
2941.98513	7132.8125
2944.44962	7123.0125
2946.91261	7090.3125
2949.37409	7103.9125
2951.83407	7121.2125
2954.29254	7080.3125
2956.74951	7079.0125
2959.20498	7064.5125
2961.65895	7062.6125
2964.11142	7079.3125
2966.56239	7064.2125
2969.01186	7044.0125
2971.45984	7029.4125
2973.90632	7044.3125
2976.35131	7006.9125
2978.7948	7015.9125
2981.23681	6985.2125
2983.67732	6981.1125
2986.11635	6969.1125
2988.55388	6920.2125
2990.98993	6953.7125
2993.4245	6929.1125
2995.85758	6901.4125
2998.28917	6895.7125
3000.71928	6887.4125
3003.14791	6861.8125
3005.57506	6858.1125
3008.00073	6857.4125
3010.42493	6848.6125
3012.84764	6850.1125
3015.26888	6826.5125
3017.68865	6795.6125
3020.10694	6789.1125
3022.52376	6777.5125
3024.9391	6787.7125
3027.35298	6784.1125
3029.76539	6779.0125
3032.17632	6748.7125
3034.5858	6758.2125
3036.9938	6744.3125
3039.40034	6741.7125
3041.80542	6736.9125
3044.20903	6717.7125
3046.61118	6711.9125
3049.01187	6710.9125
3051.4111	6723.7125
3053.80888	6696.4125
3056.20519	6684.8125
3058.60005	6674.1125
3060.99345	6642.7125
3063.3854	6635.0125
3065.7759	6605.4125
3068.16494	6609.7125
3070.55254	6589.3125
3072.93868	6587.1125
