Data from AgNPs_FTO_APTES_UA_1uM_CRN_500uM_R6G_10uM_NaF_0.1M_Addition_RamanShift__26__18-14-59-893.txt Node

Date: Thu Jan 27 18:14:59 GMT 2022
User: TCL
Spectrometer: QEP01345
Trigger mode: 4
Integration Time (sec): 7.000000E0
Scans to average: 10
Electric dark correction enabled: true
Nonlinearity correction enabled: false
Boxcar width: 0
XAxis mode: Raman Shifts
Number of Pixels in Spectrum: 1044
>>>>>Begin Spectral Data<<<<<
46.04893	0.6125
50.45542	0.1125
54.85868	-2.8875
59.25871	-0.1875
63.6555	46.2125
68.04907	49.4125
72.43941	53.4125
76.82654	55.1125
81.21044	56.8125
85.59113	59.1125
89.96862	61.7125
94.34289	62.4125
98.71396	68.4125
103.08183	65.8125
107.4465	70.3125
111.80798	72.2125
116.16626	73.2125
120.52136	79.0125
124.87327	77.6125
129.222	77.5125
133.56755	80.2125
137.90993	83.6125
142.24913	92.5125
146.58517	105.6125
150.91804	117.8125
155.24774	135.1125
159.57429	163.3125
163.89768	207.4125
168.21792	277.1125
172.53501	370.9125
176.84895	511.3125
181.15975	708.5125
185.46741	997.5125
189.77193	1365.1125
194.07331	1817.8125
198.37157	2376.8125
202.6667	2935.5125
206.9587	3502.0125
211.24758	4066.7125
215.53334	4634.7125
219.81599	5244.2125
224.09553	5939.1125
228.37195	6715.8125
232.64527	7549.9125
236.91549	8391.1125
241.18261	9212.6125
245.44663	9948.0125
249.70755	10552.2125
253.96539	11077.6125
258.22014	11528.3125
262.4718	11919.1125
266.72039	12188.5125
270.96589	12382.5125
275.20832	12407.1125
279.44768	12291.9125
283.68397	12123.5125
287.91719	11956.1125
292.14735	11920.0125
296.37445	12058.9125
300.59849	12321.5125
304.81948	12646.0125
309.03742	12874.1125
313.25231	12781.5125
317.46415	12266.4125
321.67296	11556.0125
325.87872	10972.5125
330.08145	10668.8125
334.28114	10648.2125
338.47781	10771.6125
342.67145	11015.9125
346.86207	11353.6125
351.04966	11855.1125
355.23424	12420.6125
359.4158	12874.8125
363.59435	13181.3125
367.76989	13327.7125
371.94243	13378.3125
376.11196	13378.8125
380.27849	13376.8125
384.44203	13341.6125
388.60257	13238.9125
392.76012	13163.6125
396.91468	13248.1125
401.06626	13508.4125
405.21485	13721.0125
409.36047	13598.8125
413.50311	13062.4125
417.64277	12552.7125
421.77947	12267.5125
425.9132	12178.6125
430.04396	12176.5125
434.17176	12251.9125
438.2966	12404.9125
442.41849	12642.2125
446.53742	12981.8125
450.6534	13369.9125
454.76644	13639.1125
458.87653	13690.6125
462.98368	13582.4125
467.08789	13406.2125
471.18916	13192.1125
475.2875	12976.7125
479.38291	12834.4125
483.4754	12640.7125
487.56496	12473.0125
491.6516	12300.8125
495.73531	12237.6125
499.81612	12209.1125
503.89401	12301.5125
507.96899	12375.5125
512.04106	12483.1125
516.11023	12641.1125
520.1765	12710.2125
524.23987	12682.0125
528.30034	12492.0125
532.35792	12301.1125
536.41261	12107.7125
540.46441	11897.0125
544.51333	11820.9125
548.55936	11860.1125
552.60252	12073.2125
556.64279	12326.0125
560.6802	12491.3125
564.71473	12655.2125
568.7464	13044.7125
572.7752	13372.2125
576.80114	13156.4125
580.82422	12842.2125
584.84444	12699.1125
588.86181	12748.4125
592.87633	12911.1125
596.888	13053.8125
600.89682	13249.9125
604.9028	14156.5125
608.90594	16875.8125
612.90624	20631.3125
616.90371	20166.1125
620.89834	15163.2125
624.89015	12668.7125
628.87913	12207.3125
632.86528	12212.3125
636.84862	12311.9125
640.82913	12203.3125
644.80683	11793.6125
648.78172	11521.7125
652.75379	11516.4125
656.72306	11817.4125
660.68952	12240.6125
664.65319	12192.2125
668.61405	11806.2125
672.57211	11609.3125
676.52738	11581.3125
680.47986	11629.5125
684.42955	11598.5125
688.37646	11525.1125
692.32058	11528.0125
696.26192	11593.9125
700.20048	11686.2125
704.13626	11759.3125
708.06928	11728.3125
711.99952	11604.4125
715.927	11548.7125
719.85171	11568.1125
723.77365	11587.6125
727.69284	11529.5125
731.60928	11461.8125
735.52295	11447.2125
739.43388	11507.8125
743.34206	11506.0125
747.24749	11523.9125
751.15017	11610.5125
755.05012	11783.9125
758.94733	12116.1125
762.8418	12982.1125
766.73354	14482.6125
770.62254	16280.1125
774.50882	17286.8125
778.39237	16721.8125
782.27321	14856.6125
786.15132	13117.0125
790.02671	12107.0125
793.89938	11622.4125
797.76935	11444.5125
801.6366	11355.5125
805.50115	11296.8125
809.36299	11269.7125
813.22213	11234.9125
817.07857	11219.7125
820.93231	11238.4125
824.78336	11212.5125
828.63172	11263.1125
832.47738	11278.1125
836.32036	11258.2125
840.16066	11241.0125
843.99827	11235.8125
847.8332	11197.1125
851.66546	11155.3125
855.49504	11183.9125
859.32195	11165.3125
863.1462	11174.9125
866.96777	11152.7125
870.78668	11115.9125
874.60293	11094.7125
878.41652	11081.2125
882.22745	11128.9125
886.03573	11175.0125
889.84136	11191.9125
893.64433	11103.5125
897.44466	11064.5125
901.24235	11035.5125
905.0374	10988.8125
908.8298	10931.0125
912.61957	10944.8125
916.40671	10984.7125
920.19121	11090.0125
923.97308	11184.5125
927.75233	11283.3125
931.52895	11405.3125
935.30295	11307.5125
939.07433	11073.6125
942.84309	10853.2125
946.60924	10697.0125
950.37278	10603.9125
954.13371	10539.6125
957.89203	10469.1125
961.64774	10436.0125
965.40086	10396.9125
969.15137	10360.1125
972.89929	10319.1125
976.64461	10288.5125
980.38733	10279.1125
984.12747	10309.8125
987.86502	10406.6125
991.59999	10492.0125
995.33237	10621.6125
999.06217	10858.2125
1002.78939	11126.8125
1006.51404	11279.6125
1010.23611	11421.4125
1013.95561	11560.2125
1017.67255	11534.7125
1021.38692	11407.5125
1025.09872	11256.0125
1028.80796	11240.2125
1032.51465	11358.7125
1036.21877	11568.4125
1039.92035	11610.1125
1043.61937	11539.3125
1047.31584	11392.7125
1051.00976	11250.1125
1054.70114	11169.4125
1058.38998	11147.6125
1062.07627	11172.5125
1065.76003	11205.7125
1069.44126	11276.3125
1073.11995	11334.3125
1076.79611	11442.9125
1080.46974	11590.9125
1084.14085	11689.3125
1087.80943	11888.8125
1091.47549	11992.7125
1095.13903	11891.1125
1098.80005	11636.8125
1102.45857	11373.5125
1106.11456	11261.9125
1109.76805	11275.9125
1113.41903	11477.9125
1117.06751	11736.7125
1120.71348	12084.5125
1124.35696	12435.1125
1127.99793	12767.3125
1131.63641	12834.8125
1135.2724	12405.8125
1138.90589	11940.7125
1142.5369	11672.5125
1146.16542	11478.9125
1149.79145	11392.5125
1153.415	11384.5125
1157.03607	11420.0125
1160.65467	11617.5125
1164.27079	11959.9125
1167.88443	12496.6125
1171.49561	13340.9125
1175.10432	14646.9125
1178.71056	16376.2125
1182.31434	17743.4125
1185.91565	18190.5125
1189.51451	17853.0125
1193.11091	16906.5125
1196.70485	15780.7125
1200.29634	14873.0125
1203.88538	14250.3125
1207.47197	13625.6125
1211.05612	13086.4125
1214.63782	12793.6125
1218.21708	12723.7125
1221.79391	12724.2125
1225.36829	12749.7125
1228.94024	12704.1125
1232.50976	12557.0125
1236.07685	12505.0125
1239.6415	12429.4125
1243.20374	12440.1125
1246.76355	12494.5125
1250.32093	12629.5125
1253.8759	12848.2125
1257.42845	13177.7125
1260.97859	13520.2125
1264.52631	13845.8125
1268.07163	14162.6125
1271.61453	14518.8125
1275.15503	14816.7125
1278.69312	15046.4125
1282.22882	15176.5125
1285.76211	15427.5125
1289.29301	15779.6125
1292.82151	16288.8125
1296.34761	16883.5125
1299.87133	17654.8125
1303.39266	18921.3125
1306.9116	20682.7125
1310.42815	22726.7125
1313.94233	24043.0125
1317.45412	23927.7125
1320.96354	22677.0125
1324.47058	21218.5125
1327.97525	19958.9125
1331.47754	19081.0125
1334.97747	18730.0125
1338.47502	18692.9125
1341.97022	18903.4125
1345.46305	19199.3125
1348.95352	19631.8125
1352.44163	20413.9125
1355.92738	21855.4125
1359.41078	24270.1125
1362.89183	26859.5125
1366.37053	26658.3125
1369.84688	23292.4125
1373.32088	19583.4125
1376.79254	17143.5125
1380.26186	15979.3125
1383.72883	15481.9125
1387.19347	15218.8125
1390.65578	14856.1125
1394.11575	14630.9125
1397.57339	14608.4125
1401.0287	14832.1125
1404.48168	15106.6125
1407.93234	15355.4125
1411.38068	15457.6125
1414.82669	15314.7125
1418.27039	14973.7125
1421.71177	14555.8125
1425.15083	14144.5125
1428.58758	13890.4125
1432.02203	13873.7125
1435.45416	14013.6125
1438.88399	14142.5125
1442.31151	14216.3125
1445.73673	14299.2125
1449.15965	14473.0125
1452.58027	14566.6125
1455.9986	14501.6125
1459.41463	14477.8125
1462.82837	14645.0125
1466.23982	14933.6125
1469.64898	15237.9125
1473.05586	15453.7125
1476.46045	15562.4125
1479.86276	15642.9125
1483.26279	15768.2125
1486.66054	15905.5125
1490.05602	16142.1125
1493.44922	16477.4125
1496.84016	16963.2125
1500.22882	17839.0125
1503.61521	19210.1125
1506.99934	21019.7125
1510.38121	22907.9125
1513.76081	23871.1125
1517.13816	23099.1125
1520.51324	20890.0125
1523.88607	18461.8125
1527.25665	16867.4125
1530.62498	15911.0125
1533.99105	15414.8125
1537.35488	15125.8125
1540.71647	14952.1125
1544.07581	14868.6125
1547.4329	14803.9125
1550.78776	14767.3125
1554.14038	14747.1125
1557.49077	14801.8125
1560.83892	14976.3125
1564.18484	15198.3125
1567.52853	15461.6125
1570.86999	15698.4125
1574.20922	15881.9125
1577.54624	15928.2125
1580.88103	15538.8125
1584.2136	14861.5125
1587.54395	14635.5125
1590.87208	14919.4125
1594.19801	15689.1125
1597.52172	16751.5125
1600.84321	17376.8125
1604.16251	16954.7125
1607.47959	15888.8125
1610.79447	14623.6125
1614.10715	13496.6125
1617.41763	12542.8125
1620.7259	11980.5125
1624.03199	11653.4125
1627.33587	11669.2125
1630.63757	11917.7125
1633.93707	12470.6125
1637.23439	13278.0125
1640.52951	14451.0125
1643.82246	16023.9125
1647.11321	17645.8125
1650.40179	18712.9125
1653.68819	18227.6125
1656.97241	16127.9125
1660.25446	13750.0125
1663.53433	12019.6125
1666.81203	11013.2125
1670.08756	10449.7125
1673.36092	10100.2125
1676.63211	9892.2125
1679.90115	9749.1125
1683.16801	9616.5125
1686.43272	9508.3125
1689.69527	9428.4125
1692.95567	9351.5125
1696.2139	9302.3125
1699.46999	9231.3125
1702.72392	9207.3125
1705.97571	9228.3125
1709.22535	9230.3125
1712.47284	9274.5125
1715.71819	9271.9125
1718.96139	9295.1125
1722.20246	9255.3125
1725.44139	9213.3125
1728.67818	9194.5125
1731.91284	9136.1125
1735.14537	9085.1125
1738.37576	9056.3125
1741.60403	9035.5125
1744.83017	9021.8125
1748.05418	8995.5125
1751.27607	8972.5125
1754.49584	8938.4125
1757.71349	8881.0125
1760.92903	8865.7125
1764.14244	8840.4125
1767.35375	8844.1125
1770.56294	8799.0125
1773.77002	8791.3125
1776.97499	8812.0125
1780.17785	8799.1125
1783.37861	8804.5125
1786.57727	8812.4125
1789.77382	8766.3125
1792.96828	8783.2125
1796.16064	8739.2125
1799.3509	8716.0125
1802.53907	8722.5125
1805.72514	8698.6125
1808.90913	8680.6125
1812.09102	8659.5125
1815.27083	8656.9125
1818.44856	8621.2125
1821.6242	8603.9125
1824.79776	8598.0125
1827.96924	8584.1125
1831.13864	8578.2125
1834.30597	8588.9125
1837.47122	8564.3125
1840.6344	8575.0125
1843.7955	8554.4125
1846.95454	8537.5125
1850.11151	8546.5125
1853.26642	8552.9125
1856.41926	8553.7125
1859.57004	8567.8125
1862.71876	8572.5125
1865.86542	8573.8125
1869.01003	8560.3125
1872.15258	8571.4125
1875.29308	8563.4125
1878.43152	8548.9125
1881.56792	8545.9125
1884.70227	8528.2125
1887.83457	8537.4125
1890.96482	8527.1125
1894.09304	8543.5125
1897.21921	8511.7125
1900.34335	8503.1125
1903.46544	8526.3125
1906.58551	8535.9125
1909.70353	8506.1125
1912.81953	8504.7125
1915.93349	8521.9125
1919.04543	8513.3125
1922.15534	8474.5125
1925.26322	8478.5125
1928.36908	8431.5125
1931.47292	8431.0125
1934.57473	8405.1125
1937.67453	8367.7125
1940.77232	8353.8125
1943.86808	8308.2125
1946.96184	8273.8125
1950.05358	8239.4125
1953.14331	8226.9125
1956.23103	8202.4125
1959.31675	8187.8125
1962.40046	8157.6125
1965.48217	8141.4125
1968.56188	8109.9125
1971.63959	8099.7125
1974.7153	8076.4125
1977.78901	8031.8125
1980.86073	8021.1125
1983.93046	7978.9125
1986.99819	7992.7125
1990.06394	7928.7125
1993.1277	7900.1125
1996.18947	7885.1125
1999.24925	7891.2125
2002.30706	7844.1125
2005.36288	7820.7125
2008.41672	7820.6125
2011.46859	7793.0125
2014.51848	7754.6125
2017.56639	7750.9125
2020.61233	7734.4125
2023.6563	7724.3125
2026.6983	7715.3125
2029.73833	7676.1125
2032.7764	7660.2125
2035.8125	7639.7125
2038.84664	7649.6125
2041.87881	7622.1125
2044.90903	7594.9125
2047.93729	7598.3125
2050.96359	7585.6125
2053.98794	7562.5125
2057.01034	7561.3125
2060.03078	7569.6125
2063.04927	7553.2125
2066.06582	7542.1125
2069.08042	7550.0125
2072.09307	7540.0125
2075.10378	7522.7125
2078.11255	7524.4125
2081.11938	7536.1125
2084.12426	7531.3125
2087.12722	7499.3125
2090.12824	7527.3125
2093.12732	7525.3125
2096.12447	7519.3125
2099.11969	7493.8125
2102.11299	7511.3125
2105.10435	7524.7125
2108.09379	7536.5125
2111.08131	7539.9125
2114.0669	7515.4125
2117.05057	7521.1125
2120.03233	7519.9125
2123.01216	7547.8125
2125.99008	7535.1125
2128.96609	7550.4125
2131.94018	7575.7125
2134.91236	7560.2125
2137.88263	7586.5125
2140.851	7557.4125
2143.81746	7573.1125
2146.78201	7570.2125
2149.74466	7583.4125
2152.7054	7568.0125
2155.66425	7565.4125
2158.6212	7552.4125
2161.57625	7554.5125
2164.52941	7557.4125
2167.48067	7543.7125
2170.43004	7547.9125
2173.37752	7564.6125
2176.32311	7551.2125
2179.26681	7548.9125
2182.20863	7565.7125
2185.14856	7548.0125
2188.08661	7564.0125
2191.02278	7543.8125
2193.95707	7565.6125
2196.88948	7549.4125
2199.82001	7541.2125
2202.74867	7521.8125
2205.67545	7527.9125
2208.60037	7528.0125
2211.52341	7513.9125
2214.44458	7494.8125
2217.36388	7495.3125
2220.28132	7481.8125
2223.1969	7464.7125
2226.11061	7468.5125
2229.02246	7441.1125
2231.93245	7443.3125
2234.84058	7420.7125
2237.74686	7381.7125
2240.65128	7383.6125
2243.55385	7385.0125
2246.45456	7371.7125
2249.35343	7363.5125
2252.25044	7354.5125
2255.14561	7351.3125
2258.03893	7334.7125
2260.93041	7323.9125
2263.82004	7309.9125
2266.70783	7305.8125
2269.59378	7291.2125
2272.4779	7273.1125
2275.36017	7239.0125
2278.24061	7249.4125
2281.11922	7238.3125
2283.996	7226.5125
2286.87094	7197.6125
2289.74405	7182.4125
2292.61534	7169.8125
2295.4848	7167.1125
2298.35243	7176.5125
2301.21824	7166.0125
2304.08223	7173.0125
2306.94439	7183.2125
2309.80474	7182.6125
2312.66327	7194.3125
2315.51999	7182.6125
2318.37489	7168.9125
2321.22797	7165.0125
2324.07925	7154.4125
2326.92871	7134.5125
2329.77637	7117.5125
2332.62222	7126.4125
2335.46626	7109.9125
2338.3085	7128.5125
2341.14893	7122.0125
2343.98756	7119.1125
2346.8244	7104.6125
2349.65943	7122.5125
2352.49267	7105.7125
2355.32411	7116.3125
2358.15376	7104.9125
2360.98161	7117.1125
2363.80768	7116.7125
2366.63195	7126.6125
2369.45444	7108.2125
2372.27514	7119.2125
2375.09405	7091.6125
2377.91118	7073.9125
2380.72652	7032.0125
2383.54009	7043.5125
2386.35187	7005.5125
2389.16188	7006.8125
2391.97011	6973.9125
2394.77657	6962.7125
2397.58125	6942.5125
2400.38416	6904.0125
2403.18529	6922.7125
2405.98466	6906.5125
2408.78226	6897.0125
2411.57809	6881.6125
2414.37216	6881.9125
2417.16446	6848.6125
2419.955	6847.9125
2422.74378	6852.2125
2425.5308	6851.7125
2428.31606	6843.3125
2431.09956	6842.0125
2433.88131	6848.7125
2436.6613	6847.7125
2439.43954	6842.0125
2442.21603	6843.3125
2444.99077	6841.6125
2447.76377	6838.3125
2450.53501	6829.6125
2453.30451	6824.2125
2456.07226	6806.8125
2458.83827	6814.2125
2461.60254	6833.4125
2464.36507	6809.7125
2467.12586	6801.2125
2469.88492	6814.3125
2472.64224	6817.5125
2475.39782	6812.2125
2478.15167	6806.9125
2480.90379	6792.9125
2483.65417	6802.2125
2486.40283	6798.0125
2489.14976	6821.0125
2491.89497	6829.5125
2494.63845	6825.3125
2497.3802	6821.4125
2500.12024	6821.4125
2502.85855	6815.5125
2505.59514	6801.8125
2508.33002	6792.1125
2511.06318	6777.5125
2513.79462	6768.2125
2516.52435	6750.9125
2519.25237	6710.0125
2521.97867	6713.6125
2524.70327	6726.2125
2527.42616	6691.0125
2530.14734	6693.9125
2532.86681	6696.7125
2535.58458	6694.7125
2538.30065	6679.0125
2541.01501	6684.9125
2543.72768	6684.6125
2546.43864	6668.6125
2549.14791	6641.0125
2551.85548	6647.5125
2554.56136	6640.0125
2557.26554	6637.9125
2559.96803	6639.3125
2562.66883	6629.2125
2565.36794	6631.2125
2568.06536	6598.1125
2570.7611	6604.7125
2573.45514	6597.8125
2576.14751	6580.9125
2578.83819	6567.9125
2581.52719	6550.3125
2584.21451	6572.3125
2586.90015	6547.3125
2589.58411	6557.6125
2592.2664	6562.4125
2594.94701	6523.2125
2597.62594	6525.2125
2600.30321	6519.3125
2602.9788	6518.0125
2605.65273	6514.5125
2608.32498	6516.8125
2610.99557	6500.2125
2613.66449	6498.9125
2616.33175	6488.6125
2618.99734	6508.4125
2621.66128	6490.4125
2624.32355	6495.9125
2626.98416	6497.4125
2629.64311	6483.0125
2632.30041	6487.2125
2634.95605	6464.5125
2637.61004	6457.5125
2640.26238	6443.6125
2642.91306	6443.3125
2645.56209	6448.1125
2648.20948	6410.5125
2650.85521	6413.7125
2653.4993	6439.6125
2656.14175	6422.6125
2658.78255	6432.6125
2661.42171	6440.6125
2664.05923	6458.7125
2666.6951	6439.1125
2669.32934	6462.8125
2671.96194	6459.4125
2674.59291	6447.4125
2677.22224	6442.3125
2679.84993	6441.2125
2682.476	6434.0125
2685.10043	6432.5125
2687.72324	6430.1125
2690.34441	6436.2125
2692.96396	6423.5125
2695.58188	6436.5125
2698.19818	6418.9125
2700.81285	6450.7125
2703.4259	6422.6125
2706.03733	6423.8125
2708.64714	6411.1125
2711.25533	6433.9125
2713.86191	6428.5125
2716.46687	6451.6125
2719.07021	6441.2125
2721.67194	6447.0125
2724.27206	6450.9125
2726.87057	6468.6125
2729.46747	6459.6125
2732.06276	6433.4125
2734.65644	6447.5125
2737.24852	6448.9125
2739.83899	6439.1125
2742.42786	6422.8125
2745.01513	6407.9125
2747.60079	6422.3125
2750.18486	6420.7125
2752.76733	6418.0125
2755.3482	6391.5125
2757.92747	6407.2125
2760.50515	6394.6125
2763.08123	6401.5125
2765.65573	6378.1125
2768.22863	6381.7125
2770.79994	6365.5125
2773.36967	6363.2125
2775.9378	6370.7125
2778.50435	6366.4125
2781.06932	6353.8125
2783.6327	6358.5125
2786.1945	6361.6125
2788.75471	6344.2125
2791.31335	6331.7125
2793.87041	6339.0125
2796.42589	6322.0125
2798.97979	6316.5125
2801.53212	6298.0125
2804.08288	6309.9125
2806.63206	6306.7125
2809.17967	6281.7125
2811.72571	6279.6125
2814.27018	6262.4125
2816.81308	6271.8125
2819.35442	6280.5125
2821.89419	6272.4125
2824.43239	6266.5125
2826.96904	6262.4125
2829.50412	6284.7125
2832.03763	6259.2125
2834.56959	6282.6125
2837.1	6263.2125
2839.62884	6287.3125
2842.15613	6312.7125
2844.68186	6358.8125
2847.20604	6383.1125
2849.72867	6413.6125
2852.24974	6415.0125
2854.76927	6385.0125
2857.28724	6372.9125
2859.80367	6392.5125
2862.31855	6371.9125
2864.83189	6358.5125
2867.34368	6354.8125
2869.85393	6371.7125
2872.36264	6343.6125
2874.8698	6365.2125
2877.37543	6363.5125
2879.87952	6360.3125
2882.38207	6348.1125
2884.88308	6357.4125
2887.38256	6363.4125
2889.88051	6341.0125
2892.37692	6358.8125
2894.8718	6353.5125
2897.36515	6375.3125
2899.85698	6365.3125
2902.34727	6404.0125
2904.83604	6421.2125
2907.32328	6424.7125
2909.809	6412.4125
2912.29319	6419.4125
2914.77587	6423.5125
2917.25702	6403.5125
2919.73665	6409.4125
2922.21476	6428.9125
2924.69136	6406.0125
2927.16644	6408.7125
2929.64	6397.6125
2932.11205	6398.1125
2934.58258	6363.1125
2937.05161	6389.9125
2939.51912	6355.0125
2941.98513	6343.4125
2944.44962	6320.7125
2946.91261	6266.4125
2949.37409	6271.9125
2951.83407	6272.0125
2954.29254	6257.5125
2956.74951	6220.9125
2959.20498	6223.9125
2961.65895	6210.7125
2964.11142	6195.9125
2966.56239	6185.5125
2969.01186	6176.1125
2971.45984	6132.0125
2973.90632	6143.8125
2976.35131	6115.6125
2978.7948	6105.1125
2981.23681	6086.9125
2983.67732	6080.9125
2986.11635	6064.8125
2988.55388	6059.9125
2990.98993	6049.1125
2993.4245	6035.8125
2995.85758	6029.1125
2998.28917	6007.1125
3000.71928	5998.7125
3003.14791	5983.4125
3005.57506	5975.2125
3008.00073	5972.2125
3010.42493	5946.5125
3012.84764	5954.4125
3015.26888	5935.1125
3017.68865	5954.2125
3020.10694	5947.4125
3022.52376	5917.8125
3024.9391	5916.2125
3027.35298	5895.1125
3029.76539	5895.0125
3032.17632	5887.8125
3034.5858	5891.6125
3036.9938	5885.3125
3039.40034	5881.2125
3041.80542	5866.6125
3044.20903	5858.1125
3046.61118	5846.0125
3049.01187	5855.5125
3051.4111	5847.0125
3053.80888	5837.1125
3056.20519	5825.1125
3058.60005	5807.3125
3060.99345	5795.8125
3063.3854	5799.4125
3065.7759	5772.8125
3068.16494	5775.8125
3070.55254	5761.3125
3072.93868	5749.2125
3075.32338	5738.5125
3077.70662	5733.3125
3080.08842	5714.4125
