Data from AgNPs_FTO_APTES_UA_1uM_CRN_100uM_R6G_10uM_NaF_0.1M_Addition_RamanShift__10__16-32-19-776.txt Node

Date: Thu Jan 27 16:32:19 GMT 2022
User: TCL
Spectrometer: QEP01345
Trigger mode: 4
Integration Time (sec): 7.000000E0
Scans to average: 10
Electric dark correction enabled: true
Nonlinearity correction enabled: false
Boxcar width: 0
XAxis mode: Raman Shifts
Number of Pixels in Spectrum: 1044
>>>>>Begin Spectral Data<<<<<
46.04893	1.425
50.45542	0.925
54.85868	-0.975
59.25871	0.325
63.6555	44.025
68.04907	47.925
72.43941	49.025
76.82654	51.525
81.21044	51.625
85.59113	51.225
89.96862	55.125
94.34289	54.725
98.71396	59.725
103.08183	60.225
107.4465	64.925
111.80798	68.125
116.16626	64.825
120.52136	69.625
124.87327	67.825
129.222	69.625
133.56755	73.425
137.90993	81.825
142.24913	85.025
146.58517	97.225
150.91804	107.125
155.24774	124.025
159.57429	151.225
163.89768	185.325
168.21792	248.225
172.53501	330.025
176.84895	450.725
181.15975	635.225
185.46741	888.525
189.77193	1227.825
194.07331	1630.925
198.37157	2110.425
202.6667	2599.125
206.9587	3113.125
211.24758	3592.225
215.53334	4070.425
219.81599	4568.125
224.09553	5124.325
228.37195	5732.425
232.64527	6373.425
236.91549	7067.025
241.18261	7788.525
245.44663	8467.625
249.70755	9131.625
253.96539	9709.025
258.22014	10181.925
262.4718	10545.925
266.72039	10834.525
270.96589	10959.425
275.20832	11004.825
279.44768	10991.925
283.68397	10897.925
287.91719	10831.625
292.14735	10778.525
296.37445	10747.825
300.59849	10780.625
304.81948	10793.925
309.03742	10738.225
313.25231	10648.525
317.46415	10499.525
321.67296	10267.925
325.87872	10109.125
330.08145	10002.425
334.28114	9962.525
338.47781	10037.125
342.67145	10121.325
346.86207	10247.925
351.04966	10388.925
355.23424	10538.225
359.4158	10670.925
363.59435	10760.725
367.76989	10840.725
371.94243	10906.925
376.11196	10945.825
380.27849	10992.025
384.44203	11036.625
388.60257	11115.725
392.76012	11206.725
396.91468	11366.125
401.06626	11518.725
405.21485	11634.625
409.36047	11639.725
413.50311	11510.125
417.64277	11442.225
421.77947	11448.425
425.9132	11486.125
430.04396	11576.925
434.17176	11584.725
438.2966	11680.225
442.41849	11800.625
446.53742	12007.825
450.6534	12218.725
454.76644	12375.425
458.87653	12475.425
462.98368	12481.925
467.08789	12481.925
471.18916	12433.825
475.2875	12354.625
479.38291	12312.225
483.4754	12260.525
487.56496	12151.025
491.6516	11970.125
495.73531	11817.125
499.81612	11748.225
503.89401	11769.025
507.96899	11820.525
512.04106	11834.525
516.11023	11795.725
520.1765	11680.525
524.23987	11578.925
528.30034	11495.225
532.35792	11384.325
536.41261	11327.125
540.46441	11248.325
544.51333	11256.825
548.55936	11382.525
552.60252	11569.525
556.64279	11790.225
560.6802	11952.125
564.71473	12037.925
568.7464	12185.325
572.7752	12501.625
576.80114	12805.425
580.82422	13120.225
584.84444	13415.125
588.86181	13665.425
592.87633	13931.325
596.888	13770.925
600.89682	13414.325
604.9028	13297.325
608.90594	13715.125
612.90624	14226.925
616.90371	13557.725
620.89834	12115.525
624.89015	11457.225
628.87913	11439.625
632.86528	11534.725
636.84862	11550.925
640.82913	11473.225
644.80683	11271.525
648.78172	11169.925
652.75379	11129.325
656.72306	11209.825
660.68952	11336.925
664.65319	11260.525
668.61405	11159.125
672.57211	11118.125
676.52738	11150.325
680.47986	11190.525
684.42955	11137.425
688.37646	11120.325
692.32058	11105.625
696.26192	11206.125
700.20048	11285.025
704.13626	11358.725
708.06928	11421.525
711.99952	11395.125
715.927	11382.725
719.85171	11363.125
723.77365	11312.825
727.69284	11218.925
731.60928	11133.525
735.52295	11053.825
739.43388	11054.225
743.34206	11025.825
747.24749	11125.725
751.15017	11209.225
755.05012	11344.625
758.94733	11604.025
762.8418	11960.625
766.73354	12568.425
770.62254	13076.025
774.50882	13128.225
778.39237	12701.725
782.27321	12096.125
786.15132	11583.625
790.02671	11258.125
793.89938	11089.925
797.76935	11008.625
801.6366	11016.725
805.50115	10941.725
809.36299	10927.625
813.22213	10858.825
817.07857	10865.125
820.93231	10845.525
824.78336	10814.725
828.63172	10769.925
832.47738	10722.525
836.32036	10733.725
840.16066	10718.925
843.99827	10698.125
847.8332	10704.325
851.66546	10690.425
855.49504	10700.825
859.32195	10692.325
863.1462	10706.125
866.96777	10674.525
870.78668	10659.525
874.60293	10688.525
878.41652	10673.125
882.22745	10700.225
886.03573	10708.225
889.84136	10736.325
893.64433	10691.725
897.44466	10670.725
901.24235	10652.625
905.0374	10628.525
908.8298	10599.925
912.61957	10620.225
916.40671	10706.525
920.19121	10815.525
923.97308	10898.825
927.75233	10858.825
931.52895	10752.825
935.30295	10646.825
939.07433	10504.925
942.84309	10385.925
946.60924	10305.925
950.37278	10280.625
954.13371	10267.825
957.89203	10258.125
961.64774	10277.225
965.40086	10231.625
969.15137	10208.525
972.89929	10151.425
976.64461	10130.225
980.38733	10074.225
984.12747	10085.825
987.86502	10108.625
991.59999	10133.425
995.33237	10150.925
999.06217	10246.825
1002.78939	10369.925
1006.51404	10484.825
1010.23611	10591.925
1013.95561	10697.925
1017.67255	10698.925
1021.38692	10672.025
1025.09872	10573.625
1028.80796	10485.125
1032.51465	10448.725
1036.21877	10434.325
1039.92035	10450.325
1043.61937	10502.825
1047.31584	10562.325
1051.00976	10603.525
1054.70114	10612.025
1058.38998	10698.125
1062.07627	10792.625
1065.76003	10915.425
1069.44126	11050.325
1073.11995	11161.125
1076.79611	11283.825
1080.46974	11292.825
1084.14085	11306.425
1087.80943	11346.525
1091.47549	11424.625
1095.13903	11489.725
1098.80005	11402.725
1102.45857	11198.825
1106.11456	11017.825
1109.76805	10873.625
1113.41903	10825.625
1117.06751	10858.925
1120.71348	10955.325
1124.35696	11039.025
1127.99793	11144.125
1131.63641	11228.425
1135.2724	11189.525
1138.90589	11160.225
1142.5369	11185.525
1146.16542	11244.125
1149.79145	11357.825
1153.415	11447.525
1157.03607	11531.725
1160.65467	11781.325
1164.27079	12165.725
1167.88443	12643.925
1171.49561	13101.325
1175.10432	13711.325
1178.71056	14407.225
1182.31434	15048.925
1185.91565	15395.825
1189.51451	15467.325
1193.11091	15274.625
1196.70485	14921.525
1200.29634	14587.225
1203.88538	14283.425
1207.47197	14117.925
1211.05612	13946.025
1214.63782	13762.825
1218.21708	13430.125
1221.79391	13015.225
1225.36829	12714.225
1228.94024	12520.225
1232.50976	12451.525
1236.07685	12398.725
1239.6415	12334.025
1243.20374	12322.125
1246.76355	12408.125
1250.32093	12538.325
1253.8759	12682.825
1257.42845	12922.325
1260.97859	13177.425
1264.52631	13469.925
1268.07163	13732.125
1271.61453	13997.225
1275.15503	14257.625
1278.69312	14614.425
1282.22882	14968.625
1285.76211	15363.825
1289.29301	15874.825
1292.82151	16546.425
1296.34761	17286.025
1299.87133	18087.625
1303.39266	18797.525
1306.9116	19377.725
1310.42815	19785.125
1313.94233	19966.125
1317.45412	19911.125
1320.96354	19736.425
1324.47058	19647.325
1327.97525	19640.425
1331.47754	19585.325
1334.97747	19538.725
1338.47502	19467.025
1341.97022	19381.425
1345.46305	19284.025
1348.95352	19133.825
1352.44163	19014.525
1355.92738	19010.225
1359.41078	19292.325
1362.89183	19503.425
1366.37053	19251.525
1369.84688	18159.825
1373.32088	16755.525
1376.79254	15714.625
1380.26186	15303.425
1383.72883	15323.825
1387.19347	15417.625
1390.65578	15299.825
1394.11575	15208.625
1397.57339	15229.225
1401.0287	15346.725
1404.48168	15439.225
1407.93234	15360.725
1411.38068	15037.925
1414.82669	14547.125
1418.27039	13975.525
1421.71177	13484.525
1425.15083	13080.025
1428.58758	12890.225
1432.02203	12942.225
1435.45416	13142.625
1438.88399	13485.225
1442.31151	13730.225
1445.73673	13889.325
1449.15965	14023.925
1452.58027	14152.625
1455.9986	14216.625
1459.41463	14262.125
1462.82837	14395.325
1466.23982	14598.725
1469.64898	14744.325
1473.05586	14859.625
1476.46045	14868.725
1479.86276	14801.525
1483.26279	14697.425
1486.66054	14640.125
1490.05602	14653.625
1493.44922	14837.825
1496.84016	15053.325
1500.22882	15371.525
1503.61521	15772.125
1506.99934	16196.425
1510.38121	16614.125
1513.76081	16719.125
1517.13816	16529.025
1520.51324	16230.325
1523.88607	16045.325
1527.25665	15994.125
1530.62498	15936.725
1533.99105	15852.225
1537.35488	15598.225
1540.71647	15257.025
1544.07581	14841.125
1547.4329	14447.625
1550.78776	14107.725
1554.14038	13918.225
1557.49077	13785.125
1560.83892	13720.225
1564.18484	13714.625
1567.52853	13801.125
1570.86999	13892.525
1574.20922	14163.525
1577.54624	14409.425
1580.88103	14537.325
1584.2136	14579.025
1587.54395	14806.125
1590.87208	15209.225
1594.19801	15715.625
1597.52172	16220.025
1600.84321	16290.025
1604.16251	15720.225
1607.47959	14811.325
1610.79447	13842.625
1614.10715	12990.725
1617.41763	12261.125
1620.7259	11687.525
1624.03199	11368.825
1627.33587	11339.825
1630.63757	11542.625
1633.93707	12041.725
1637.23439	12921.125
1640.52951	14249.125
1643.82246	15841.025
1647.11321	17179.825
1650.40179	17569.325
1653.68819	16675.225
1656.97241	14921.925
1660.25446	13111.225
1663.53433	11713.625
1666.81203	10768.925
1670.08756	10174.525
1673.36092	9811.925
1676.63211	9581.025
1679.90115	9380.225
1683.16801	9268.425
1686.43272	9144.725
1689.69527	9079.025
1692.95567	8971.325
1696.2139	8927.325
1699.46999	8869.225
1702.72392	8815.425
1705.97571	8781.625
1709.22535	8824.425
1712.47284	8848.825
1715.71819	8833.525
1718.96139	8837.525
1722.20246	8815.325
1725.44139	8779.825
1728.67818	8733.725
1731.91284	8689.525
1735.14537	8666.725
1738.37576	8599.225
1741.60403	8571.425
1744.83017	8569.725
1748.05418	8514.425
1751.27607	8499.925
1754.49584	8467.625
1757.71349	8439.725
1760.92903	8407.025
1764.14244	8410.525
1767.35375	8414.325
1770.56294	8393.225
1773.77002	8383.925
1776.97499	8360.225
1780.17785	8409.425
1783.37861	8386.825
1786.57727	8362.325
1789.77382	8342.525
1792.96828	8305.425
1796.16064	8310.325
1799.3509	8320.125
1802.53907	8283.025
1805.72514	8265.125
1808.90913	8224.225
1812.09102	8212.625
1815.27083	8198.825
1818.44856	8191.925
1821.6242	8175.925
1824.79776	8166.825
1827.96924	8158.325
1831.13864	8153.625
1834.30597	8138.025
1837.47122	8122.025
1840.6344	8119.625
1843.7955	8118.325
1846.95454	8116.125
1850.11151	8115.125
1853.26642	8085.525
1856.41926	8077.925
1859.57004	8090.325
1862.71876	8055.925
1865.86542	8064.525
1869.01003	8038.525
1872.15258	8022.525
1875.29308	8026.325
1878.43152	8037.625
1881.56792	8007.225
1884.70227	7969.325
1887.83457	7972.825
1890.96482	7955.725
1894.09304	7940.925
1897.21921	7919.925
1900.34335	7915.225
1903.46544	7931.125
1906.58551	7919.325
1909.70353	7880.125
1912.81953	7879.125
1915.93349	7869.025
1919.04543	7837.725
1922.15534	7831.425
1925.26322	7808.725
1928.36908	7797.425
1931.47292	7759.325
1934.57473	7742.425
1937.67453	7728.925
1940.77232	7719.625
1943.86808	7685.525
1946.96184	7669.325
1950.05358	7633.925
1953.14331	7618.925
1956.23103	7601.525
1959.31675	7588.925
1962.40046	7572.225
1965.48217	7538.425
1968.56188	7497.125
1971.63959	7486.025
1974.7153	7458.325
1977.78901	7446.325
1980.86073	7417.025
1983.93046	7409.225
1986.99819	7367.125
1990.06394	7348.125
1993.1277	7340.325
1996.18947	7305.325
1999.24925	7277.325
2002.30706	7256.225
2005.36288	7224.025
2008.41672	7213.725
2011.46859	7192.125
2014.51848	7185.325
2017.56639	7136.925
2020.61233	7158.225
2023.6563	7112.925
2026.6983	7107.325
2029.73833	7075.325
2032.7764	7054.325
2035.8125	7041.525
2038.84664	7017.425
2041.87881	7009.625
2044.90903	7001.425
2047.93729	6980.725
2050.96359	6986.325
2053.98794	6941.725
2057.01034	6954.825
2060.03078	6944.725
2063.04927	6946.525
2066.06582	6945.525
2069.08042	6938.225
2072.09307	6918.125
2075.10378	6923.725
2078.11255	6911.825
2081.11938	6917.525
2084.12426	6916.725
2087.12722	6898.725
2090.12824	6881.025
2093.12732	6889.025
2096.12447	6893.725
2099.11969	6879.425
2102.11299	6886.025
2105.10435	6878.625
2108.09379	6897.825
2111.08131	6888.725
2114.0669	6888.025
2117.05057	6896.125
2120.03233	6894.625
2123.01216	6900.025
2125.99008	6906.025
2128.96609	6914.525
2131.94018	6938.725
2134.91236	6904.425
2137.88263	6910.825
2140.851	6913.425
2143.81746	6928.025
2146.78201	6918.625
2149.74466	6914.725
2152.7054	6915.425
2155.66425	6878.525
2158.6212	6908.625
2161.57625	6896.025
2164.52941	6890.725
2167.48067	6892.125
2170.43004	6888.125
2173.37752	6901.025
2176.32311	6905.125
2179.26681	6880.425
2182.20863	6889.625
2185.14856	6871.525
2188.08661	6880.725
2191.02278	6873.825
2193.95707	6860.425
2196.88948	6867.525
2199.82001	6849.225
2202.74867	6836.125
2205.67545	6835.325
2208.60037	6819.525
2211.52341	6799.325
2214.44458	6783.125
2217.36388	6782.225
2220.28132	6768.525
2223.1969	6777.125
2226.11061	6735.025
2229.02246	6724.925
2231.93245	6732.225
2234.84058	6705.725
2237.74686	6707.725
2240.65128	6696.925
2243.55385	6662.825
2246.45456	6672.025
2249.35343	6644.525
2252.25044	6635.225
2255.14561	6623.725
2258.03893	6605.125
2260.93041	6587.125
2263.82004	6583.225
2266.70783	6571.425
2269.59378	6560.325
2272.4779	6526.625
2275.36017	6531.125
2278.24061	6492.525
2281.11922	6495.525
2283.996	6477.825
2286.87094	6469.725
2289.74405	6439.525
2292.61534	6438.825
2295.4848	6435.125
2298.35243	6431.525
2301.21824	6437.725
2304.08223	6427.525
2306.94439	6423.325
2309.80474	6420.925
2312.66327	6405.325
2315.51999	6376.225
2318.37489	6395.925
2321.22797	6378.825
2324.07925	6360.825
2326.92871	6356.925
2329.77637	6345.925
2332.62222	6342.125
2335.46626	6325.925
2338.3085	6324.325
2341.14893	6298.925
2343.98756	6297.625
2346.8244	6288.525
2349.65943	6287.625
2352.49267	6297.325
2355.32411	6281.525
2358.15376	6280.025
2360.98161	6262.125
2363.80768	6265.825
2366.63195	6245.725
2369.45444	6270.625
2372.27514	6239.225
2375.09405	6248.625
2377.91118	6246.025
2380.72652	6224.525
2383.54009	6186.925
2386.35187	6203.625
2389.16188	6161.625
2391.97011	6167.825
2394.77657	6129.525
2397.58125	6119.625
2400.38416	6130.925
2403.18529	6115.925
2405.98466	6119.725
2408.78226	6093.325
2411.57809	6095.225
2414.37216	6073.825
2417.16446	6083.725
2419.955	6072.825
2422.74378	6083.225
2425.5308	6081.625
2428.31606	6054.925
2431.09956	6052.325
2433.88131	6045.425
2436.6613	6038.325
2439.43954	6042.725
2442.21603	6025.625
2444.99077	6038.225
2447.76377	6037.725
2450.53501	6027.025
2453.30451	6016.125
2456.07226	5992.825
2458.83827	5982.925
2461.60254	5977.225
2464.36507	5972.425
2467.12586	5973.225
2469.88492	5966.825
2472.64224	5975.225
2475.39782	5963.525
2478.15167	5941.225
2480.90379	5940.525
2483.65417	5947.425
2486.40283	5954.825
2489.14976	5959.325
2491.89497	5926.325
2494.63845	5922.525
2497.3802	5910.625
2500.12024	5921.825
2502.85855	5911.325
2505.59514	5919.325
2508.33002	5901.125
2511.06318	5904.625
2513.79462	5906.425
2516.52435	5885.625
2519.25237	5876.825
2521.97867	5877.125
2524.70327	5885.425
2527.42616	5869.125
2530.14734	5862.725
2532.86681	5858.025
2535.58458	5824.425
2538.30065	5825.325
2541.01501	5847.025
2543.72768	5808.125
2546.43864	5807.525
2549.14791	5807.425
2551.85548	5778.725
2554.56136	5779.625
2557.26554	5762.125
2559.96803	5768.525
2562.66883	5752.525
2565.36794	5744.725
2568.06536	5745.225
2570.7611	5731.425
2573.45514	5718.125
2576.14751	5709.625
2578.83819	5701.925
2581.52719	5703.525
2584.21451	5663.425
2586.90015	5683.425
2589.58411	5658.525
2592.2664	5660.225
2594.94701	5651.425
2597.62594	5637.725
2600.30321	5637.825
2602.9788	5626.525
2605.65273	5618.725
2608.32498	5614.125
2610.99557	5611.825
2613.66449	5585.325
2616.33175	5602.225
2618.99734	5599.925
2621.66128	5604.825
2624.32355	5584.625
2626.98416	5575.725
2629.64311	5570.725
2632.30041	5572.925
2634.95605	5532.725
2637.61004	5541.825
2640.26238	5547.725
2642.91306	5541.425
2645.56209	5517.625
2648.20948	5529.625
2650.85521	5529.625
2653.4993	5551.425
2656.14175	5529.925
2658.78255	5530.425
2661.42171	5532.025
2664.05923	5551.825
2666.6951	5524.625
2669.32934	5533.825
2671.96194	5526.125
2674.59291	5531.925
2677.22224	5528.125
2679.84993	5521.825
2682.476	5529.225
2685.10043	5519.625
2687.72324	5513.125
2690.34441	5496.225
2692.96396	5509.225
2695.58188	5532.625
2698.19818	5507.225
2700.81285	5496.025
2703.4259	5480.525
2706.03733	5477.125
2708.64714	5486.825
2711.25533	5496.725
2713.86191	5493.925
2716.46687	5494.825
2719.07021	5515.625
2721.67194	5519.325
2724.27206	5500.925
2726.87057	5520.325
2729.46747	5503.125
2732.06276	5531.725
2734.65644	5512.825
2737.24852	5516.325
2739.83899	5506.825
2742.42786	5506.125
2745.01513	5480.025
2747.60079	5499.325
2750.18486	5489.425
2752.76733	5485.225
2755.3482	5464.525
2757.92747	5487.525
2760.50515	5454.125
2763.08123	5456.725
2765.65573	5456.425
2768.22863	5437.425
2770.79994	5417.425
2773.36967	5440.925
2775.9378	5424.125
2778.50435	5421.025
2781.06932	5404.925
2783.6327	5414.025
2786.1945	5402.225
2788.75471	5406.825
2791.31335	5385.725
2793.87041	5378.925
2796.42589	5363.725
2798.97979	5358.625
2801.53212	5347.625
2804.08288	5346.825
2806.63206	5333.425
2809.17967	5314.725
2811.72571	5311.625
2814.27018	5286.025
2816.81308	5281.925
2819.35442	5286.225
2821.89419	5287.225
2824.43239	5264.325
2826.96904	5254.125
2829.50412	5266.325
2832.03763	5228.925
2834.56959	5246.825
2837.1	5241.225
2839.62884	5244.425
2842.15613	5236.625
2844.68186	5254.525
2847.20604	5257.225
2849.72867	5249.925
2852.24974	5257.725
2854.76927	5252.725
2857.28724	5227.925
2859.80367	5202.925
2862.31855	5225.025
2864.83189	5224.925
2867.34368	5201.825
2869.85393	5208.025
2872.36264	5206.525
2874.8698	5173.525
2877.37543	5183.225
2879.87952	5174.825
2882.38207	5170.725
2884.88308	5172.725
2887.38256	5172.025
2889.88051	5173.725
2892.37692	5169.825
2894.8718	5159.425
2897.36515	5177.225
2899.85698	5166.925
2902.34727	5176.425
2904.83604	5175.125
2907.32328	5198.525
2909.809	5183.025
2912.29319	5202.625
2914.77587	5180.425
2917.25702	5200.625
2919.73665	5180.925
2922.21476	5173.825
2924.69136	5188.325
2927.16644	5184.225
2929.64	5167.125
2932.11205	5168.125
2934.58258	5134.525
2937.05161	5149.225
2939.51912	5152.225
2941.98513	5135.425
2944.44962	5117.625
2946.91261	5113.825
2949.37409	5121.425
2951.83407	5096.425
2954.29254	5099.225
2956.74951	5074.325
2959.20498	5088.025
2961.65895	5093.225
2964.11142	5084.925
2966.56239	5073.725
2969.01186	5055.825
2971.45984	5047.125
2973.90632	5058.625
2976.35131	5034.025
2978.7948	5040.625
2981.23681	5046.225
2983.67732	5017.425
2986.11635	5005.725
2988.55388	4987.625
2990.98993	4982.325
2993.4245	4970.925
2995.85758	4976.125
2998.28917	4955.725
3000.71928	4948.925
3003.14791	4943.325
3005.57506	4923.625
3008.00073	4919.225
3010.42493	4912.225
3012.84764	4906.225
3015.26888	4899.825
3017.68865	4890.425
3020.10694	4894.125
3022.52376	4871.425
3024.9391	4854.225
3027.35298	4855.125
3029.76539	4853.625
3032.17632	4860.525
3034.5858	4841.525
3036.9938	4842.125
3039.40034	4839.525
3041.80542	4837.925
3044.20903	4844.025
3046.61118	4819.225
3049.01187	4808.725
3051.4111	4823.325
3053.80888	4791.625
3056.20519	4792.625
3058.60005	4778.425
3060.99345	4771.725
3063.3854	4764.825
3065.7759	4750.625
3068.16494	4746.625
3070.55254	4718.225
3072.93868	4716.425
3075.32338	4701.325
3077.70662	4709.625
3080.08842	4679.825
3082.46878	4675.925
3084.84769	4696.125
3087.22515	4670.825
3089.60118	4672.225
3091.97576	4675.125
3094.3489	4663.025
3096.72061	4679.925
3099.09087	4693.525
3101.4597	4688.925
3103.82709	4688.825
3106.19305	4684.225
3108.55757	4680.525
3110.92066	4675.625
3113.28232	4655.125
3115.64255	4659.025
3118.00134	4651.925
3120.35871	4620.225
3122.71466	4644.325
3125.06917	4615.825
3127.42226	4617.925
3129.77393	4627.825
3132.12417	4591.225
3134.47299	4624.125
3136.82039	4617.325
3139.16636	4621.725
3141.51092	4615.425
3143.85406	4632.925
3146.19579	4621.625
3148.53609	4640.525
3150.87499	4652.625
3153.21246	4641.025
3155.54853	4635.325
3157.88318	4654.325
3160.21642	4654.225
3162.54826	4656.725
3164.87868	4650.925
3167.2077	4656.825
3169.5353	4653.525
3171.86151	4683.225
3174.18631	4669.025
3176.5097	4668.125
3178.83169	4642.825
3181.15228	4646.925
3183.47147	4637.925
3185.78926	4648.725
3188.10565	4639.325
3190.42065	4630.825
3192.73424	4639.025
