Data from AgNPs_FTO_APTES_UA_1uM_CRN_10uM_R6G_50uM_NaF_0.1M_Addition_RamanShift__3__15-44-29-721.txt Node

Date: Thu Jan 27 15:44:29 GMT 2022
User: TCL
Spectrometer: QEP01345
Trigger mode: 4
Integration Time (sec): 7.000000E0
Scans to average: 10
Electric dark correction enabled: true
Nonlinearity correction enabled: false
Boxcar width: 0
XAxis mode: Raman Shifts
Number of Pixels in Spectrum: 1044
>>>>>Begin Spectral Data<<<<<
46.04893	0.8625
50.45542	0.3625
54.85868	-2.7375
59.25871	-0.5375
63.6555	48.5625
68.04907	47.5625
72.43941	49.4625
76.82654	57.5625
81.21044	57.9625
85.59113	58.2625
89.96862	59.2625
94.34289	61.7625
98.71396	66.7625
103.08183	65.1625
107.4465	67.1625
111.80798	69.8625
116.16626	71.0625
120.52136	76.5625
124.87327	75.4625
129.222	76.6625
133.56755	79.5625
137.90993	84.2625
142.24913	91.1625
146.58517	99.0625
150.91804	114.0625
155.24774	130.9625
159.57429	161.8625
163.89768	204.7625
168.21792	266.0625
172.53501	363.2625
176.84895	492.0625
181.15975	689.1625
185.46741	967.7625
189.77193	1333.1625
194.07331	1779.1625
198.37157	2290.3625
202.6667	2827.9625
206.9587	3372.8625
211.24758	3902.6625
215.53334	4422.9625
219.81599	4966.8625
224.09553	5577.7625
228.37195	6236.7625
232.64527	6979.2625
236.91549	7750.2625
241.18261	8536.5625
245.44663	9247.1625
249.70755	9920.8625
253.96539	10545.4625
258.22014	11031.9625
262.4718	11431.7625
266.72039	11718.5625
270.96589	11878.7625
275.20832	11917.4625
279.44768	11832.6625
283.68397	11717.7625
287.91719	11621.8625
292.14735	11541.7625
296.37445	11550.3625
300.59849	11545.1625
304.81948	11604.1625
309.03742	11621.4625
313.25231	11564.9625
317.46415	11379.0625
321.67296	11135.4625
325.87872	10959.7625
330.08145	10813.3625
334.28114	10808.7625
338.47781	10867.4625
342.67145	11003.9625
346.86207	11157.7625
351.04966	11352.5625
355.23424	11519.2625
359.4158	11711.9625
363.59435	11833.8625
367.76989	11967.1625
371.94243	12024.8625
376.11196	12078.7625
380.27849	12124.6625
384.44203	12196.4625
388.60257	12285.2625
392.76012	12419.7625
396.91468	12537.1625
401.06626	12731.8625
405.21485	12833.8625
409.36047	12772.3625
413.50311	12672.3625
417.64277	12588.8625
421.77947	12613.6625
425.9132	12638.3625
430.04396	12740.2625
434.17176	12772.5625
438.2966	12865.5625
442.41849	13035.2625
446.53742	13337.1625
450.6534	13667.6625
454.76644	13958.6625
458.87653	14010.0625
462.98368	13950.6625
467.08789	13786.4625
471.18916	13578.5625
475.2875	13455.3625
479.38291	13337.5625
483.4754	13240.1625
487.56496	13146.9625
491.6516	12999.8625
495.73531	12838.0625
499.81612	12781.9625
503.89401	12827.1625
507.96899	12882.5625
512.04106	12848.3625
516.11023	12784.5625
520.1765	12683.0625
524.23987	12570.0625
528.30034	12472.9625
532.35792	12407.2625
536.41261	12265.6625
540.46441	12122.4625
544.51333	12110.1625
548.55936	12237.0625
552.60252	12439.2625
556.64279	12716.0625
560.6802	12903.6625
564.71473	13002.3625
568.7464	13129.5625
572.7752	13421.1625
576.80114	13708.6625
580.82422	14080.9625
584.84444	14464.1625
588.86181	14944.5625
592.87633	15283.1625
596.888	15233.8625
600.89682	14825.2625
604.9028	14783.7625
608.90594	15523.5625
612.90624	16423.2625
616.90371	15600.3625
620.89834	13557.7625
624.89015	12647.6625
628.87913	12542.3625
632.86528	12586.9625
636.84862	12555.5625
640.82913	12374.1625
644.80683	12114.5625
648.78172	11928.0625
652.75379	11949.2625
656.72306	12051.9625
660.68952	12178.8625
664.65319	12138.1625
668.61405	11961.4625
672.57211	11946.7625
676.52738	11966.0625
680.47986	11980.3625
684.42955	11905.5625
688.37646	11877.3625
692.32058	11883.3625
696.26192	12047.5625
700.20048	12216.9625
704.13626	12294.1625
708.06928	12256.4625
711.99952	12193.9625
715.927	12196.0625
719.85171	12236.8625
723.77365	12211.7625
727.69284	12061.7625
731.60928	11923.1625
735.52295	11863.4625
739.43388	11856.8625
743.34206	11894.4625
747.24749	11966.2625
751.15017	12071.8625
755.05012	12229.7625
758.94733	12522.6625
762.8418	13017.5625
766.73354	13777.0625
770.62254	14501.2625
774.50882	14596.3625
778.39237	14083.5625
782.27321	13261.2625
786.15132	12591.9625
790.02671	12209.0625
793.89938	12006.8625
797.76935	11920.4625
801.6366	11903.8625
805.50115	11882.8625
809.36299	11818.1625
813.22213	11719.7625
817.07857	11683.7625
820.93231	11682.0625
824.78336	11627.3625
828.63172	11564.0625
832.47738	11576.1625
836.32036	11602.0625
840.16066	11628.5625
843.99827	11653.5625
847.8332	11655.1625
851.66546	11588.5625
855.49504	11601.5625
859.32195	11603.3625
863.1462	11575.2625
866.96777	11525.0625
870.78668	11523.3625
874.60293	11506.1625
878.41652	11487.1625
882.22745	11545.8625
886.03573	11576.7625
889.84136	11592.5625
893.64433	11558.5625
897.44466	11476.5625
901.24235	11439.1625
905.0374	11413.6625
908.8298	11394.9625
912.61957	11395.2625
916.40671	11507.0625
920.19121	11648.8625
923.97308	11787.4625
927.75233	11797.7625
931.52895	11732.8625
935.30295	11606.2625
939.07433	11420.1625
942.84309	11300.9625
946.60924	11244.6625
950.37278	11206.9625
954.13371	11178.0625
957.89203	11151.0625
961.64774	11122.0625
965.40086	11122.3625
969.15137	11095.0625
972.89929	11048.8625
976.64461	11031.0625
980.38733	11035.6625
984.12747	11069.1625
987.86502	11132.9625
991.59999	11260.5625
995.33237	11395.6625
999.06217	11676.2625
1002.78939	11972.6625
1006.51404	12134.7625
1010.23611	12252.0625
1013.95561	12371.3625
1017.67255	12370.3625
1021.38692	12287.9625
1025.09872	12126.5625
1028.80796	12187.4625
1032.51465	12445.5625
1036.21877	12757.6625
1039.92035	12879.9625
1043.61937	12760.0625
1047.31584	12508.4625
1051.00976	12228.1625
1054.70114	12091.1625
1058.38998	12057.6625
1062.07627	12094.4625
1065.76003	12149.9625
1069.44126	12237.6625
1073.11995	12383.8625
1076.79611	12538.9625
1080.46974	12613.3625
1084.14085	12694.3625
1087.80943	12765.9625
1091.47549	12820.5625
1095.13903	12865.9625
1098.80005	12729.3625
1102.45857	12488.1625
1106.11456	12298.0625
1109.76805	12205.2625
1113.41903	12214.6625
1117.06751	12257.9625
1120.71348	12351.5625
1124.35696	12474.1625
1127.99793	12568.1625
1131.63641	12664.0625
1135.2724	12624.1625
1138.90589	12507.8625
1142.5369	12549.5625
1146.16542	12565.5625
1149.79145	12662.9625
1153.415	12734.3625
1157.03607	12873.9625
1160.65467	13184.0625
1164.27079	13707.8625
1167.88443	14359.5625
1171.49561	15051.2625
1175.10432	15913.7625
1178.71056	17004.4625
1182.31434	18065.3625
1185.91565	18595.3625
1189.51451	18537.9625
1193.11091	18124.7625
1196.70485	17546.9625
1200.29634	16956.6625
1203.88538	16536.7625
1207.47197	16302.3625
1211.05612	16030.5625
1214.63782	15761.6625
1218.21708	15398.7625
1221.79391	15085.9625
1225.36829	14858.0625
1228.94024	14673.8625
1232.50976	14433.5625
1236.07685	14241.8625
1239.6415	14100.4625
1243.20374	14130.9625
1246.76355	14226.8625
1250.32093	14462.2625
1253.8759	14718.8625
1257.42845	15048.1625
1260.97859	15420.8625
1264.52631	15823.9625
1268.07163	16213.9625
1271.61453	16651.6625
1275.15503	17133.5625
1278.69312	17637.0625
1282.22882	18026.0625
1285.76211	18495.8625
1289.29301	19034.2625
1292.82151	19772.3625
1296.34761	20739.8625
1299.87133	21902.2625
1303.39266	23198.9625
1306.9116	24437.5625
1310.42815	25331.1625
1313.94233	25701.2625
1317.45412	25386.7625
1320.96354	24818.5625
1324.47058	24231.6625
1327.97525	23851.1625
1331.47754	23552.7625
1334.97747	23408.8625
1338.47502	23194.9625
1341.97022	22929.1625
1345.46305	22639.6625
1348.95352	22416.7625
1352.44163	22462.1625
1355.92738	22937.2625
1359.41078	23843.4625
1362.89183	24584.9625
1366.37053	24237.9625
1369.84688	22521.3625
1373.32088	20277.4625
1376.79254	18697.1625
1380.26186	18063.2625
1383.72883	18071.3625
1387.19347	18112.8625
1390.65578	17956.8625
1394.11575	17836.8625
1397.57339	17938.0625
1401.0287	18225.8625
1404.48168	18466.4625
1407.93234	18505.4625
1411.38068	18209.2625
1414.82669	17747.6625
1418.27039	17093.4625
1421.71177	16417.3625
1425.15083	15917.9625
1428.58758	15672.9625
1432.02203	15714.5625
1435.45416	16113.7625
1438.88399	16561.6625
1442.31151	16908.2625
1445.73673	17145.7625
1449.15965	17243.3625
1452.58027	17271.0625
1455.9986	17249.0625
1459.41463	17249.5625
1462.82837	17413.7625
1466.23982	17751.1625
1469.64898	18012.6625
1473.05586	18266.5625
1476.46045	18364.3625
1479.86276	18307.1625
1483.26279	18107.4625
1486.66054	18012.0625
1490.05602	18057.0625
1493.44922	18190.9625
1496.84016	18394.0625
1500.22882	18613.4625
1503.61521	19020.3625
1506.99934	19516.5625
1510.38121	19952.9625
1513.76081	20043.9625
1517.13816	19694.6625
1520.51324	19129.0625
1523.88607	18663.7625
1527.25665	18479.5625
1530.62498	18415.9625
1533.99105	18408.5625
1537.35488	18242.5625
1540.71647	17966.7625
1544.07581	17567.2625
1547.4329	17149.1625
1550.78776	16777.3625
1554.14038	16535.4625
1557.49077	16418.2625
1560.83892	16295.0625
1564.18484	16249.7625
1567.52853	16253.7625
1570.86999	16415.1625
1574.20922	16654.4625
1577.54624	16891.8625
1580.88103	16997.6625
1584.2136	17148.4625
1587.54395	17655.7625
1590.87208	18478.5625
1594.19801	19558.1625
1597.52172	20504.3625
1600.84321	20801.2625
1604.16251	19979.6625
1607.47959	18522.4625
1610.79447	16970.9625
1614.10715	15610.0625
1617.41763	14513.1625
1620.7259	13798.2625
1624.03199	13452.3625
1627.33587	13461.4625
1630.63757	13817.0625
1633.93707	14514.6625
1637.23439	15735.4625
1640.52951	17469.7625
1643.82246	19520.1625
1647.11321	21188.1625
1650.40179	21544.5625
1653.68819	20185.8625
1656.97241	17714.2625
1660.25446	15352.4625
1663.53433	13589.4625
1666.81203	12490.1625
1670.08756	11774.7625
1673.36092	11387.0625
1676.63211	11126.6625
1679.90115	10930.4625
1683.16801	10759.1625
1686.43272	10646.0625
1689.69527	10561.6625
1692.95567	10476.7625
1696.2139	10395.4625
1699.46999	10342.6625
1702.72392	10291.1625
1705.97571	10293.3625
1709.22535	10318.7625
1712.47284	10331.1625
1715.71819	10315.5625
1718.96139	10308.8625
1722.20246	10280.2625
1725.44139	10249.4625
1728.67818	10243.3625
1731.91284	10134.7625
1735.14537	10094.2625
1738.37576	10079.3625
1741.60403	10022.2625
1744.83017	10008.1625
1748.05418	9964.0625
1751.27607	9941.2625
1754.49584	9919.6625
1757.71349	9905.2625
1760.92903	9877.6625
1764.14244	9860.4625
1767.35375	9860.0625
1770.56294	9836.4625
1773.77002	9836.3625
1776.97499	9821.5625
1780.17785	9844.5625
1783.37861	9860.4625
1786.57727	9845.9625
1789.77382	9810.2625
1792.96828	9807.5625
1796.16064	9788.0625
1799.3509	9770.8625
1802.53907	9756.0625
1805.72514	9746.3625
1808.90913	9719.9625
1812.09102	9691.5625
1815.27083	9686.8625
1818.44856	9672.7625
1821.6242	9639.9625
1824.79776	9650.7625
1827.96924	9644.2625
1831.13864	9647.4625
1834.30597	9636.1625
1837.47122	9622.6625
1840.6344	9614.2625
1843.7955	9607.2625
1846.95454	9616.6625
1850.11151	9604.4625
1853.26642	9585.4625
1856.41926	9595.4625
1859.57004	9597.6625
1862.71876	9588.8625
1865.86542	9569.3625
1869.01003	9590.2625
1872.15258	9562.1625
1875.29308	9571.9625
1878.43152	9529.6625
1881.56792	9546.2625
1884.70227	9525.7625
1887.83457	9520.0625
1890.96482	9507.0625
1894.09304	9491.0625
1897.21921	9479.4625
1900.34335	9487.6625
1903.46544	9471.8625
1906.58551	9480.1625
1909.70353	9449.3625
1912.81953	9422.0625
1915.93349	9430.9625
1919.04543	9408.5625
1922.15534	9388.2625
1925.26322	9388.1625
1928.36908	9373.0625
1931.47292	9337.0625
1934.57473	9317.8625
1937.67453	9314.7625
1940.77232	9301.8625
1943.86808	9263.6625
1946.96184	9231.8625
1950.05358	9215.2625
1953.14331	9179.2625
1956.23103	9153.3625
1959.31675	9129.3625
1962.40046	9126.6625
1965.48217	9124.8625
1968.56188	9069.0625
1971.63959	9040.5625
1974.7153	9034.7625
1977.78901	8986.7625
1980.86073	8988.2625
1983.93046	8952.4625
1986.99819	8927.4625
1990.06394	8897.7625
1993.1277	8886.8625
1996.18947	8845.2625
1999.24925	8817.4625
2002.30706	8797.2625
2005.36288	8757.7625
2008.41672	8751.7625
2011.46859	8727.3625
2014.51848	8697.8625
2017.56639	8685.4625
2020.61233	8687.2625
2023.6563	8668.7625
2026.6983	8649.6625
2029.73833	8642.9625
2032.7764	8626.1625
2035.8125	8622.9625
2038.84664	8576.3625
2041.87881	8583.3625
2044.90903	8551.7625
2047.93729	8550.8625
2050.96359	8549.8625
2053.98794	8524.2625
2057.01034	8545.0625
2060.03078	8542.5625
2063.04927	8539.9625
2066.06582	8522.6625
2069.08042	8511.1625
2072.09307	8504.1625
2075.10378	8511.3625
2078.11255	8502.1625
2081.11938	8499.5625
2084.12426	8496.8625
2087.12722	8483.5625
2090.12824	8489.5625
2093.12732	8491.5625
2096.12447	8468.6625
2099.11969	8492.7625
2102.11299	8476.0625
2105.10435	8474.3625
2108.09379	8490.6625
2111.08131	8520.6625
2114.0669	8517.9625
2117.05057	8537.4625
2120.03233	8521.7625
2123.01216	8548.4625
2125.99008	8547.1625
2128.96609	8551.4625
2131.94018	8569.3625
2134.91236	8559.1625
2137.88263	8576.3625
2140.851	8571.9625
2143.81746	8573.2625
2146.78201	8565.4625
2149.74466	8556.2625
2152.7054	8578.0625
2155.66425	8579.4625
2158.6212	8614.0625
2161.57625	8570.9625
2164.52941	8574.7625
2167.48067	8596.7625
2170.43004	8587.8625
2173.37752	8576.8625
2176.32311	8594.0625
2179.26681	8589.6625
2182.20863	8594.7625
2185.14856	8587.2625
2188.08661	8585.9625
2191.02278	8596.6625
2193.95707	8596.8625
2196.88948	8595.4625
2199.82001	8581.1625
2202.74867	8570.5625
2205.67545	8583.2625
2208.60037	8561.0625
2211.52341	8538.4625
2214.44458	8558.1625
2217.36388	8552.3625
2220.28132	8544.3625
2223.1969	8508.9625
2226.11061	8503.0625
2229.02246	8494.0625
2231.93245	8487.0625
2234.84058	8472.2625
2237.74686	8450.3625
2240.65128	8440.3625
2243.55385	8423.3625
2246.45456	8426.6625
2249.35343	8403.2625
2252.25044	8417.1625
2255.14561	8386.8625
2258.03893	8360.9625
2260.93041	8362.9625
2263.82004	8339.4625
2266.70783	8328.7625
2269.59378	8298.0625
2272.4779	8269.1625
2275.36017	8260.9625
2278.24061	8273.3625
2281.11922	8246.6625
2283.996	8261.0625
2286.87094	8241.5625
2289.74405	8240.8625
2292.61534	8212.8625
2295.4848	8214.7625
2298.35243	8225.3625
2301.21824	8234.6625
2304.08223	8233.1625
2306.94439	8254.5625
2309.80474	8250.0625
2312.66327	8234.7625
2315.51999	8226.2625
2318.37489	8237.5625
2321.22797	8214.1625
2324.07925	8212.5625
2326.92871	8202.5625
2329.77637	8198.8625
2332.62222	8211.5625
2335.46626	8167.9625
2338.3085	8173.6625
2341.14893	8169.2625
2343.98756	8173.0625
2346.8244	8162.8625
2349.65943	8156.9625
2352.49267	8164.0625
2355.32411	8160.9625
2358.15376	8156.2625
2360.98161	8154.0625
2363.80768	8140.4625
2366.63195	8142.5625
2369.45444	8133.0625
2372.27514	8122.9625
2375.09405	8099.5625
2377.91118	8081.7625
2380.72652	8083.9625
2383.54009	8045.1625
2386.35187	8056.5625
2389.16188	8053.3625
2391.97011	8024.5625
2394.77657	8004.8625
2397.58125	8007.6625
2400.38416	7991.8625
2403.18529	8004.6625
2405.98466	7983.4625
2408.78226	7970.9625
2411.57809	7960.2625
2414.37216	7949.7625
2417.16446	7913.1625
2419.955	7905.3625
2422.74378	7928.1625
2425.5308	7933.5625
2428.31606	7924.5625
2431.09956	7918.5625
2433.88131	7920.6625
2436.6613	7924.6625
2439.43954	7908.9625
2442.21603	7919.8625
2444.99077	7910.4625
2447.76377	7901.9625
2450.53501	7905.1625
2453.30451	7901.2625
2456.07226	7914.5625
2458.83827	7879.9625
2461.60254	7868.2625
2464.36507	7891.4625
2467.12586	7873.5625
2469.88492	7890.6625
2472.64224	7913.0625
2475.39782	7878.5625
2478.15167	7903.0625
2480.90379	7896.7625
2483.65417	7893.8625
2486.40283	7917.4625
2489.14976	7915.3625
2491.89497	7883.1625
2494.63845	7909.3625
2497.3802	7882.9625
2500.12024	7899.7625
2502.85855	7893.4625
2505.59514	7905.4625
2508.33002	7884.8625
2511.06318	7884.0625
2513.79462	7876.3625
2516.52435	7860.0625
2519.25237	7863.4625
2521.97867	7877.4625
2524.70327	7865.2625
2527.42616	7854.8625
2530.14734	7833.8625
2532.86681	7839.2625
2535.58458	7833.1625
2538.30065	7829.4625
2541.01501	7831.2625
2543.72768	7818.6625
2546.43864	7810.7625
2549.14791	7815.9625
2551.85548	7801.9625
2554.56136	7809.1625
2557.26554	7771.7625
2559.96803	7771.7625
2562.66883	7788.6625
2565.36794	7781.7625
2568.06536	7776.6625
2570.7611	7780.9625
2573.45514	7761.3625
2576.14751	7767.2625
2578.83819	7735.9625
2581.52719	7757.1625
2584.21451	7743.4625
2586.90015	7754.1625
2589.58411	7704.6625
2592.2664	7737.3625
2594.94701	7712.9625
2597.62594	7735.9625
2600.30321	7707.7625
2602.9788	7693.5625
2605.65273	7702.4625
2608.32498	7717.4625
2610.99557	7702.5625
2613.66449	7720.7625
2616.33175	7679.9625
2618.99734	7690.6625
2621.66128	7707.0625
2624.32355	7696.4625
2626.98416	7692.8625
2629.64311	7694.8625
2632.30041	7693.1625
2634.95605	7674.9625
2637.61004	7675.7625
2640.26238	7642.1625
2642.91306	7650.8625
2645.56209	7645.0625
2648.20948	7653.2625
2650.85521	7637.4625
2653.4993	7641.0625
2656.14175	7674.4625
2658.78255	7653.4625
2661.42171	7664.6625
2664.05923	7686.3625
2666.6951	7689.6625
2669.32934	7696.5625
2671.96194	7663.2625
2674.59291	7685.3625
2677.22224	7684.7625
2679.84993	7668.4625
2682.476	7666.7625
2685.10043	7665.9625
2687.72324	7654.1625
2690.34441	7650.7625
2692.96396	7658.0625
2695.58188	7655.2625
2698.19818	7647.3625
2700.81285	7674.0625
2703.4259	7660.9625
2706.03733	7685.9625
2708.64714	7658.5625
2711.25533	7694.8625
2713.86191	7670.3625
2716.46687	7677.4625
2719.07021	7713.1625
2721.67194	7712.4625
2724.27206	7696.1625
2726.87057	7716.2625
2729.46747	7725.7625
2732.06276	7734.8625
2734.65644	7719.0625
2737.24852	7688.7625
2739.83899	7686.9625
2742.42786	7705.3625
2745.01513	7700.3625
2747.60079	7709.0625
2750.18486	7720.9625
2752.76733	7707.3625
2755.3482	7706.7625
2757.92747	7715.3625
2760.50515	7695.8625
2763.08123	7694.7625
2765.65573	7678.0625
2768.22863	7686.8625
2770.79994	7663.9625
2773.36967	7679.6625
2775.9378	7685.9625
2778.50435	7693.0625
2781.06932	7684.8625
2783.6327	7670.6625
2786.1945	7658.4625
2788.75471	7655.9625
2791.31335	7663.6625
2793.87041	7645.2625
2796.42589	7622.2625
2798.97979	7638.4625
2801.53212	7624.5625
2804.08288	7605.5625
2806.63206	7592.6625
2809.17967	7585.9625
2811.72571	7565.9625
2814.27018	7558.7625
2816.81308	7545.2625
2819.35442	7567.0625
2821.89419	7537.7625
2824.43239	7549.6625
2826.96904	7508.3625
2829.50412	7509.5625
2832.03763	7512.8625
2834.56959	7525.6625
2837.1	7503.2625
2839.62884	7506.5625
2842.15613	7509.2625
2844.68186	7525.6625
2847.20604	7538.5625
2849.72867	7542.7625
2852.24974	7530.7625
2854.76927	7534.3625
2857.28724	7522.2625
2859.80367	7515.7625
2862.31855	7508.3625
2864.83189	7498.9625
2867.34368	7488.9625
2869.85393	7504.7625
2872.36264	7498.3625
2874.8698	7496.3625
2877.37543	7479.7625
2879.87952	7481.4625
2882.38207	7489.9625
2884.88308	7476.9625
2887.38256	7488.0625
2889.88051	7472.9625
2892.37692	7493.2625
2894.8718	7493.5625
2897.36515	7520.6625
2899.85698	7492.9625
2902.34727	7523.9625
2904.83604	7523.5625
2907.32328	7535.8625
2909.809	7557.2625
2912.29319	7541.8625
2914.77587	7549.3625
2917.25702	7545.8625
2919.73665	7511.7625
2922.21476	7545.4625
2924.69136	7537.7625
2927.16644	7544.0625
2929.64	7533.6625
2932.11205	7517.9625
2934.58258	7506.4625
2937.05161	7517.6625
2939.51912	7512.7625
2941.98513	7494.9625
2944.44962	7492.7625
2946.91261	7461.2625
2949.37409	7478.7625
2951.83407	7453.5625
2954.29254	7469.6625
2956.74951	7481.2625
2959.20498	7477.6625
2961.65895	7460.3625
2964.11142	7456.1625
2966.56239	7443.5625
2969.01186	7443.4625
2971.45984	7418.2625
2973.90632	7441.8625
2976.35131	7405.0625
2978.7948	7420.6625
2981.23681	7407.8625
2983.67732	7396.9625
2986.11635	7372.1625
2988.55388	7369.1625
2990.98993	7350.3625
2993.4245	7351.1625
2995.85758	7334.3625
2998.28917	7334.0625
3000.71928	7331.4625
3003.14791	7303.4625
3005.57506	7279.0625
3008.00073	7267.6625
3010.42493	7291.7625
3012.84764	7279.6625
3015.26888	7257.6625
3017.68865	7245.8625
3020.10694	7250.9625
3022.52376	7229.6625
3024.9391	7223.4625
3027.35298	7205.7625
3029.76539	7204.9625
3032.17632	7206.8625
3034.5858	7178.5625
3036.9938	7206.8625
3039.40034	7174.4625
3041.80542	7214.2625
3044.20903	7188.1625
3046.61118	7192.7625
3049.01187	7188.1625
3051.4111	7184.8625
3053.80888	7170.2625
3056.20519	7177.1625
3058.60005	7160.0625
3060.99345	7137.2625
3063.3854	7101.7625
3065.7759	7090.7625
3068.16494	7092.9625
3070.55254	7083.1625
3072.93868	7073.4625
3075.32338	7050.1625
3077.70662	7059.3625
3080.08842	7048.7625
