Data from AgNPs_FTO_APTES_UA_1uM_CRN_1uM_R6G_10uM_NaF_0.1M_Addition_RamanShift__7__12-20-19-487.txt Node

Date: Thu Jan 27 12:20:19 GMT 2022
User: TCL
Spectrometer: QEP01345
Trigger mode: 4
Integration Time (sec): 7.000000E0
Scans to average: 10
Electric dark correction enabled: true
Nonlinearity correction enabled: false
Boxcar width: 0
XAxis mode: Raman Shifts
Number of Pixels in Spectrum: 1044
>>>>>Begin Spectral Data<<<<<
46.04893	1.4
50.45542	0.6
54.85868	-1.6
59.25871	-2.9
63.6555	57.6
68.04907	59.3
72.43941	60.5
76.82654	69.5
81.21044	66.4
85.59113	69.2
89.96862	73
94.34289	78.2
98.71396	82
103.08183	81.1
107.4465	86.2
111.80798	84.9
116.16626	86.7
120.52136	91.3
124.87327	95
129.222	97.5
133.56755	99.7
137.90993	106.7
142.24913	114.7
146.58517	128.2
150.91804	147.7
155.24774	172.8
159.57429	210.9
163.89768	269
168.21792	352
172.53501	475.1
176.84895	663.5
181.15975	922.8
185.46741	1289.3
189.77193	1776.7
194.07331	2370.5
198.37157	3058.9
202.6667	3787.8
206.9587	4510
211.24758	5214.6
215.53334	5927.6
219.81599	6686.1
224.09553	7517.3
228.37195	8444.4
232.64527	9429.1
236.91549	10559.5
241.18261	11599.1
245.44663	12582.9
249.70755	13547.8
253.96539	14287.3
258.22014	14935.8
262.4718	15439.6
266.72039	15799.9
270.96589	15957.8
275.20832	15943.9
279.44768	15794.5
283.68397	15578.6
287.91719	15398.6
292.14735	15263
296.37445	15224.1
300.59849	15254.3
304.81948	15315.3
309.03742	15390.3
313.25231	15357.4
317.46415	15196.8
321.67296	14916.8
325.87872	14689.2
330.08145	14595
334.28114	14579.1
338.47781	14662.4
342.67145	14858.1
346.86207	15106
351.04966	15369.2
355.23424	15715
359.4158	15999.1
363.59435	16233
367.76989	16371.1
371.94243	16443.6
376.11196	16497.9
380.27849	16524.6
384.44203	16610.6
388.60257	16715.7
392.76012	16847.3
396.91468	17062.8
401.06626	17284.4
405.21485	17435.5
409.36047	17407.6
413.50311	17199.7
417.64277	17075.7
421.77947	17141.7
425.9132	17253
430.04396	17317.9
434.17176	17383.2
438.2966	17452.1
442.41849	17636.1
446.53742	17973.7
450.6534	18442.2
454.76644	18643.9
458.87653	18713.1
462.98368	18581.1
467.08789	18378.4
471.18916	18116.2
475.2875	17773
479.38291	17545
483.4754	17380.4
487.56496	17256
491.6516	17218.6
495.73531	17125.3
499.81612	17139.6
503.89401	17305.2
507.96899	17408.1
512.04106	17429.9
516.11023	17356.7
520.1765	17251
524.23987	17136.6
528.30034	17081.2
532.35792	16944.5
536.41261	16740.9
540.46441	16561.2
544.51333	16499.2
548.55936	16558.8
552.60252	16835.2
556.64279	17164.5
560.6802	17390.1
564.71473	17471.4
568.7464	17508.1
572.7752	17809.8
576.80114	18157
580.82422	18665.5
584.84444	19439.3
588.86181	20503.6
592.87633	21443.9
596.888	21494.7
600.89682	20554.5
604.9028	20089.5
608.90594	21261.2
612.90624	22917.9
616.90371	21973.3
620.89834	18879
624.89015	17399.4
628.87913	17177.4
632.86528	17262.3
636.84862	17265
640.82913	17011.5
644.80683	16689.1
648.78172	16481.1
652.75379	16485.1
656.72306	16732.8
660.68952	16966.5
664.65319	16894
668.61405	16587.4
672.57211	16544.4
676.52738	16637.5
680.47986	16640.8
684.42955	16498.8
688.37646	16397.8
692.32058	16486.6
696.26192	16756
700.20048	16985.6
704.13626	17105.8
708.06928	17055
711.99952	16946.6
715.927	16941
719.85171	17014.7
723.77365	17008.1
727.69284	16789.5
731.60928	16558.6
735.52295	16453.8
739.43388	16466.4
743.34206	16534.8
747.24749	16633.3
751.15017	16719.7
755.05012	16962
758.94733	17326.1
762.8418	17970.6
766.73354	18995.2
770.62254	20082.6
774.50882	20389.7
778.39237	19803.6
782.27321	18766.4
786.15132	17824.3
790.02671	17181.7
793.89938	16895.5
797.76935	16725.6
801.6366	16654.6
805.50115	16599.9
809.36299	16538.3
813.22213	16401.2
817.07857	16322
820.93231	16256.4
824.78336	16170.3
828.63172	16195.9
832.47738	16168.5
836.32036	16187.3
840.16066	16221.2
843.99827	16228.6
847.8332	16242.2
851.66546	16187.5
855.49504	16185.4
859.32195	16209.7
863.1462	16177.6
866.96777	16165.7
870.78668	16157.2
874.60293	16148.6
878.41652	16207.3
882.22745	16274
886.03573	16320.4
889.84136	16322.9
893.64433	16279.8
897.44466	16219.7
901.24235	16168.5
905.0374	16126.1
908.8298	16083.6
912.61957	16079
916.40671	16150.8
920.19121	16339.1
923.97308	16493.2
927.75233	16614.7
931.52895	16555.3
935.30295	16401
939.07433	16188.8
942.84309	15994.5
946.60924	15886.8
950.37278	15856.9
954.13371	15846.6
957.89203	15807.2
961.64774	15757.2
965.40086	15751.3
969.15137	15732.7
972.89929	15726.9
976.64461	15741.2
980.38733	15762.4
984.12747	15812.7
987.86502	15879.8
991.59999	16014.5
995.33237	16155.7
999.06217	16443.4
1002.78939	16809.6
1006.51404	17150.3
1010.23611	17444.6
1013.95561	17579.7
1017.67255	17579.7
1021.38692	17413.2
1025.09872	17188.3
1028.80796	17050.5
1032.51465	17169.9
1036.21877	17386.2
1039.92035	17481.8
1043.61937	17385.2
1047.31584	17271.7
1051.00976	17075.2
1054.70114	17000.9
1058.38998	17005.9
1062.07627	17102.7
1065.76003	17188.1
1069.44126	17392.2
1073.11995	17642.8
1076.79611	17963.3
1080.46974	18135.8
1084.14085	18219.1
1087.80943	18364.9
1091.47549	18445.3
1095.13903	18493.1
1098.80005	18260.2
1102.45857	17888.8
1106.11456	17566.5
1109.76805	17418.1
1113.41903	17347.6
1117.06751	17435.3
1120.71348	17528.7
1124.35696	17677.7
1127.99793	17843.2
1131.63641	17981.1
1135.2724	17911.8
1138.90589	17795.5
1142.5369	17762
1146.16542	17796.3
1149.79145	17873.3
1153.415	17888.7
1157.03607	17945.6
1160.65467	18289.3
1164.27079	18925.3
1167.88443	19732.4
1171.49561	20636.1
1175.10432	21719.2
1178.71056	23195.5
1182.31434	24644
1185.91565	25356.6
1189.51451	25273.9
1193.11091	24773.5
1196.70485	24000.4
1200.29634	23250.3
1203.88538	22657.2
1207.47197	22219.6
1211.05612	21878.3
1214.63782	21493.5
1218.21708	21047
1221.79391	20615.2
1225.36829	20336.3
1228.94024	20176.4
1232.50976	20006.3
1236.07685	19773.2
1239.6415	19590.8
1243.20374	19558.8
1246.76355	19691.4
1250.32093	19921.1
1253.8759	20342.3
1257.42845	20889.2
1260.97859	21396.9
1264.52631	22028.8
1268.07163	22635.2
1271.61453	23197.6
1275.15503	23703
1278.69312	24200.9
1282.22882	24725.7
1285.76211	25305.2
1289.29301	26035.5
1292.82151	26956
1296.34761	28025.6
1299.87133	29422.1
1303.39266	30926.8
1306.9116	32340.7
1310.42815	33499.2
1313.94233	34119.3
1317.45412	33744.5
1320.96354	32889.7
1324.47058	32001.9
1327.97525	31366.5
1331.47754	30960.5
1334.97747	30603.2
1338.47502	30282.3
1341.97022	29899.8
1345.46305	29546.1
1348.95352	29550.4
1352.44163	29946.5
1355.92738	31089.7
1359.41078	32757.5
1362.89183	34231.4
1366.37053	34143.8
1369.84688	31797.7
1373.32088	28340.6
1376.79254	25707.1
1380.26186	24614.3
1383.72883	24361.3
1387.19347	24252.3
1390.65578	23828.9
1394.11575	23526.8
1397.57339	23526.2
1401.0287	23785.7
1404.48168	24062.1
1407.93234	24116
1411.38068	23890.9
1414.82669	23467
1418.27039	22899.5
1421.71177	22331.1
1425.15083	21804
1428.58758	21622.4
1432.02203	21885
1435.45416	22382.6
1438.88399	22968.5
1442.31151	23254.4
1445.73673	23319.5
1449.15965	23311.1
1452.58027	23126.7
1455.9986	22941.2
1459.41463	22980.7
1462.82837	23321.9
1466.23982	23787.7
1469.64898	24261
1473.05586	24535.7
1476.46045	24670.1
1479.86276	24646.1
1483.26279	24515.9
1486.66054	24454.4
1490.05602	24603.2
1493.44922	24925.7
1496.84016	25242.5
1500.22882	25684.6
1503.61521	26383.4
1506.99934	27157.6
1510.38121	27830.6
1513.76081	28000.9
1517.13816	27442.7
1520.51324	26479.4
1523.88607	25645.3
1527.25665	25156
1530.62498	24994.2
1533.99105	24765
1537.35488	24386
1540.71647	23922.1
1544.07581	23398.9
1547.4329	22959.2
1550.78776	22560.4
1554.14038	22307.9
1557.49077	22176.9
1560.83892	22087.4
1564.18484	22065.9
1567.52853	22074.5
1570.86999	22211
1574.20922	22517.2
1577.54624	22760.2
1580.88103	22810.9
1584.2136	22842
1587.54395	23379.6
1590.87208	24509.3
1594.19801	26002.8
1597.52172	27459.4
1600.84321	27943.8
1604.16251	26873.9
1607.47959	24871
1610.79447	22756.9
1614.10715	20942.9
1617.41763	19558.7
1620.7259	18683.3
1624.03199	18282
1627.33587	18292.1
1630.63757	18744
1633.93707	19711.7
1637.23439	21356.7
1640.52951	23910.8
1643.82246	27008.2
1647.11321	29552
1650.40179	29962
1653.68819	27778
1656.97241	24140.4
1660.25446	20803.9
1663.53433	18473
1666.81203	17125
1670.08756	16297.8
1673.36092	15806.1
1676.63211	15481.3
1679.90115	15261.3
1683.16801	15037.2
1686.43272	14906.4
1689.69527	14787.5
1692.95567	14685.2
1696.2139	14636.6
1699.46999	14555.1
1702.72392	14524.2
1705.97571	14512.9
1709.22535	14561.3
1712.47284	14560.6
1715.71819	14584.8
1718.96139	14556.2
1722.20246	14492.1
1725.44139	14444.9
1728.67818	14376.5
1731.91284	14291.6
1735.14537	14211.8
1738.37576	14187.2
1741.60403	14154
1744.83017	14119.4
1748.05418	14061.7
1751.27607	13995.8
1754.49584	13953
1757.71349	13948.2
1760.92903	13951.4
1764.14244	13909.2
1767.35375	13914.2
1770.56294	13869.5
1773.77002	13862.7
1776.97499	13871.3
1780.17785	13856.6
1783.37861	13886.9
1786.57727	13834.3
1789.77382	13842.6
1792.96828	13805
1796.16064	13796.4
1799.3509	13788.8
1802.53907	13726.3
1805.72514	13725.9
1808.90913	13681.5
1812.09102	13682.8
1815.27083	13652.3
1818.44856	13636.1
1821.6242	13598.5
1824.79776	13615.4
1827.96924	13597
1831.13864	13618.4
1834.30597	13604.9
1837.47122	13612.9
1840.6344	13607.9
1843.7955	13609.6
1846.95454	13613.4
1850.11151	13610.6
1853.26642	13603.5
1856.41926	13584
1859.57004	13583.2
1862.71876	13564.2
1865.86542	13570.5
1869.01003	13554.4
1872.15258	13529.2
1875.29308	13512.8
1878.43152	13488.4
1881.56792	13477.9
1884.70227	13442.5
1887.83457	13415.7
1890.96482	13393
1894.09304	13395.1
1897.21921	13376.2
1900.34335	13357.2
1903.46544	13346.6
1906.58551	13322.5
1909.70353	13333.5
1912.81953	13294.9
1915.93349	13295.6
1919.04543	13253.8
1922.15534	13221.1
1925.26322	13181.7
1928.36908	13167.6
1931.47292	13136.2
1934.57473	13105.4
1937.67453	13047.9
1940.77232	13048.3
1943.86808	13004.9
1946.96184	12989.1
1950.05358	12949.5
1953.14331	12902.3
1956.23103	12874.3
1959.31675	12881.6
1962.40046	12804.5
1965.48217	12784.2
1968.56188	12742.6
1971.63959	12732
1974.7153	12676.6
1977.78901	12685.1
1980.86073	12572.9
1983.93046	12582.1
1986.99819	12531.7
1990.06394	12530.3
1993.1277	12484.9
1996.18947	12417.3
1999.24925	12425.5
2002.30706	12364.9
2005.36288	12331.8
2008.41672	12306.4
2011.46859	12233.2
2014.51848	12223
2017.56639	12187.2
2020.61233	12173
2023.6563	12155.5
2026.6983	12137.5
2029.73833	12086.5
2032.7764	12073.6
2035.8125	12079.1
2038.84664	12022.5
2041.87881	12023.1
2044.90903	12000.3
2047.93729	11948.8
2050.96359	11944.1
2053.98794	11927.4
2057.01034	11922.9
2060.03078	11928.2
2063.04927	11944.6
2066.06582	11916.9
2069.08042	11910.1
2072.09307	11899.2
2075.10378	11881.4
2078.11255	11896.3
2081.11938	11913.1
2084.12426	11906.2
2087.12722	11907.6
2090.12824	11877.5
2093.12732	11890.7
2096.12447	11878.4
2099.11969	11887.4
2102.11299	11903.7
2105.10435	11921.1
2108.09379	11938.5
2111.08131	11926.6
2114.0669	11935.6
2117.05057	11936.2
2120.03233	11924.4
2123.01216	11936.1
2125.99008	11950.1
2128.96609	11960.5
2131.94018	11964.7
2134.91236	11971.8
2137.88263	11997.2
2140.851	11980.1
2143.81746	12025
2146.78201	12000.9
2149.74466	12022.2
2152.7054	12010.1
2155.66425	11991.1
2158.6212	12011
2161.57625	12010.6
2164.52941	12018.8
2167.48067	11975.2
2170.43004	12003.8
2173.37752	11968.9
2176.32311	11992.7
2179.26681	11993.9
2182.20863	11988.5
2185.14856	12003.1
2188.08661	11984.9
2191.02278	12001.8
2193.95707	11975
2196.88948	11989.6
2199.82001	11982.9
2202.74867	11965.6
2205.67545	11978.9
2208.60037	11946.1
2211.52341	11915
2214.44458	11911
2217.36388	11921.9
2220.28132	11885.6
2223.1969	11842.5
2226.11061	11844.2
2229.02246	11795.8
2231.93245	11810.5
2234.84058	11812.2
2237.74686	11783.7
2240.65128	11796.9
2243.55385	11762.3
2246.45456	11773.9
2249.35343	11713.9
2252.25044	11719.8
2255.14561	11715.9
2258.03893	11682.2
2260.93041	11642.8
2263.82004	11625.3
2266.70783	11609.5
2269.59378	11577.5
2272.4779	11559.4
2275.36017	11551.7
2278.24061	11515.6
2281.11922	11513.4
2283.996	11561.7
2286.87094	11508.7
2289.74405	11470.4
2292.61534	11441.7
2295.4848	11439.7
2298.35243	11455.7
2301.21824	11424.4
2304.08223	11437.7
2306.94439	11432.4
2309.80474	11440.2
2312.66327	11419.3
2315.51999	11414.6
2318.37489	11428.2
2321.22797	11407.7
2324.07925	11399
2326.92871	11393.6
2329.77637	11372.5
2332.62222	11350.8
2335.46626	11343.1
2338.3085	11335.5
2341.14893	11321.7
2343.98756	11314.9
2346.8244	11299
2349.65943	11312.8
2352.49267	11271.2
2355.32411	11291.6
2358.15376	11282.7
2360.98161	11301.5
2363.80768	11282.7
2366.63195	11277.1
2369.45444	11268
2372.27514	11273.6
2375.09405	11270.4
2377.91118	11208.8
2380.72652	11206.4
2383.54009	11169.6
2386.35187	11152.9
2389.16188	11134.9
2391.97011	11104.8
2394.77657	11092.8
2397.58125	11087.1
2400.38416	11056.5
2403.18529	11031.8
2405.98466	11035
2408.78226	11015.5
2411.57809	11002
2414.37216	10982.8
2417.16446	11015.8
2419.955	10982.8
2422.74378	10955.4
2425.5308	10980.7
2428.31606	10979.6
2431.09956	10929.9
2433.88131	10902.9
2436.6613	10932.7
2439.43954	10932.4
2442.21603	10928.4
2444.99077	10937.1
2447.76377	10936.5
2450.53501	10926.4
2453.30451	10917.9
2456.07226	10904.1
2458.83827	10892.1
2461.60254	10910.8
2464.36507	10877.3
2467.12586	10900.2
2469.88492	10878.5
2472.64224	10897.8
2475.39782	10888.3
2478.15167	10905.9
2480.90379	10884.2
2483.65417	10881.8
2486.40283	10853
2489.14976	10887.9
2491.89497	10868
2494.63845	10885.2
2497.3802	10863.2
2500.12024	10852.6
2502.85855	10860.6
2505.59514	10855.8
2508.33002	10833.4
2511.06318	10830.3
2513.79462	10796
2516.52435	10777.7
2519.25237	10812.1
2521.97867	10773.4
2524.70327	10802.4
2527.42616	10774.6
2530.14734	10772.4
2532.86681	10771.1
2535.58458	10742.4
2538.30065	10758
2541.01501	10751.5
2543.72768	10727.8
2546.43864	10739.1
2549.14791	10726
2551.85548	10710.2
2554.56136	10683.6
2557.26554	10672.8
2559.96803	10654.4
2562.66883	10653
2565.36794	10646.9
2568.06536	10644.2
2570.7611	10603.2
2573.45514	10602.2
2576.14751	10616.5
2578.83819	10591.7
2581.52719	10569.6
2584.21451	10561
2586.90015	10564.7
2589.58411	10549.5
2592.2664	10518.4
2594.94701	10507.8
2597.62594	10526.1
2600.30321	10479.9
2602.9788	10469.6
2605.65273	10451.7
2608.32498	10466.4
2610.99557	10448
2613.66449	10461.9
2616.33175	10442.5
2618.99734	10436.6
2621.66128	10408.3
2624.32355	10394.2
2626.98416	10392.1
2629.64311	10400.4
2632.30041	10391
2634.95605	10382.9
2637.61004	10352.9
2640.26238	10328.5
2642.91306	10350.3
2645.56209	10317.6
2648.20948	10342.9
2650.85521	10331.4
2653.4993	10349.6
2656.14175	10345.7
2658.78255	10336.9
2661.42171	10366.3
2664.05923	10353.8
2666.6951	10389.6
2669.32934	10406.3
2671.96194	10368.8
2674.59291	10377.6
2677.22224	10388.4
2679.84993	10374.2
2682.476	10353.9
2685.10043	10355.2
2687.72324	10335.5
2690.34441	10356.5
2692.96396	10340.1
2695.58188	10356
2698.19818	10360.9
2700.81285	10345.9
2703.4259	10350.4
2706.03733	10333.1
2708.64714	10326.6
2711.25533	10349.3
2713.86191	10364.1
2716.46687	10378.4
2719.07021	10385.6
2721.67194	10406.4
2724.27206	10399.4
2726.87057	10399.3
2729.46747	10407.6
2732.06276	10400.2
2734.65644	10408.8
2737.24852	10404.5
2739.83899	10381.6
2742.42786	10374.3
2745.01513	10374.8
2747.60079	10349
2750.18486	10347.6
2752.76733	10322.7
2755.3482	10314.8
2757.92747	10334.5
2760.50515	10327.6
2763.08123	10297.9
2765.65573	10339.6
2768.22863	10324.7
2770.79994	10290.8
2773.36967	10310.7
2775.9378	10310.9
2778.50435	10287.5
2781.06932	10277.2
2783.6327	10255.5
2786.1945	10273.1
2788.75471	10249.6
2791.31335	10224.2
2793.87041	10210.6
2796.42589	10199
2798.97979	10194.8
2801.53212	10161.6
2804.08288	10169.3
2806.63206	10132.3
2809.17967	10119
2811.72571	10100.5
2814.27018	10104
2816.81308	10088.7
2819.35442	10040.6
2821.89419	10022.1
2824.43239	10010.7
2826.96904	10016.5
2829.50412	10028.9
2832.03763	10013.1
2834.56959	10005.5
2837.1	9994.4
2839.62884	10014.6
2842.15613	9988.5
2844.68186	10032.5
2847.20604	10014.9
2849.72867	10020.4
2852.24974	10023
2854.76927	9996.1
2857.28724	9976.8
2859.80367	9972.8
2862.31855	9984.4
2864.83189	9955
2867.34368	9944.3
2869.85393	9932.6
2872.36264	9944.5
2874.8698	9948.2
2877.37543	9943.1
2879.87952	9943.6
2882.38207	9942.8
2884.88308	9946.5
2887.38256	9953.7
2889.88051	9951.7
2892.37692	9949.9
2894.8718	9969.8
2897.36515	9985.3
2899.85698	9971.6
2902.34727	9993.6
2904.83604	9998.9
2907.32328	9994.2
2909.809	10001
2912.29319	9999.5
2914.77587	9992
2917.25702	9991.7
2919.73665	9979.4
2922.21476	9992.4
2924.69136	9986.9
2927.16644	9973.3
2929.64	9956.8
2932.11205	9956.7
2934.58258	9915.8
2937.05161	9901.2
2939.51912	9922.5
2941.98513	9927.3
2944.44962	9878.5
2946.91261	9848
2949.37409	9849.3
2951.83407	9854.1
2954.29254	9828.8
2956.74951	9835.6
2959.20498	9822
2961.65895	9834.6
2964.11142	9816.4
2966.56239	9802.2
2969.01186	9785.8
2971.45984	9745.6
2973.90632	9746.8
2976.35131	9749.2
2978.7948	9712.1
2981.23681	9693.7
2983.67732	9697.5
2986.11635	9662.2
2988.55388	9628.7
2990.98993	9604.1
2993.4245	9550.7
2995.85758	9557
2998.28917	9539.9
3000.71928	9510.1
3003.14791	9505.2
3005.57506	9501.8
3008.00073	9483.8
3010.42493	9472.1
3012.84764	9463.7
3015.26888	9471.2
3017.68865	9418.6
3020.10694	9432
3022.52376	9401
3024.9391	9362.5
3027.35298	9406.9
3029.76539	9379.6
3032.17632	9358.8
3034.5858	9342.7
3036.9938	9352.1
3039.40034	9352.6
3041.80542	9335
3044.20903	9306.3
3046.61118	9308.3
3049.01187	9288.4
3051.4111	9276.5
3053.80888	9270.3
3056.20519	9282.5
3058.60005	9214.7
3060.99345	9233.1
3063.3854	9187.2
3065.7759	9179.7
3068.16494	9168.5
3070.55254	9132.7
3072.93868	9120.8
3075.32338	9110.7
3077.70662	9109.5
3080.08842	9086.1
3082.46878	9063.4
3084.84769	9071.9
3087.22515	9048.1
3089.60118	9051.7
3091.97576	9048.2
3094.3489	9046.3
3096.72061	9051.2
3099.09087	9038.2
3101.4597	9044.2
3103.82709	9004.8
3106.19305	9013
3108.55757	9023.2
3110.92066	8993.1
3113.28232	9005.7
3115.64255	8951.8
3118.00134	8956.2
3120.35871	8964.9
3122.71466	8935
3125.06917	8918.1
3127.42226	8900.1
3129.77393	8914.7
3132.12417	8884.5
3134.47299	8882
3136.82039	8866.4
3139.16636	8881.5
3141.51092	8892
3143.85406	8883.9
3146.19579	8900.6
3148.53609	8902.6
3150.87499	8912.2
3153.21246	8908.5
3155.54853	8924.8
3157.88318	8902.6
3160.21642	8922.1
3162.54826	8905.6
3164.87868	8899.4
3167.2077	8878.3
3169.5353	8906.2
3171.86151	8905.1
3174.18631	8905.1
3176.5097	8909.5
3178.83169	8869.1
3181.15228	8884.1
3183.47147	8844.4
3185.78926	8865.2
3188.10565	8848.7
3190.42065	8811.3
3192.73424	8833.9
3195.04645	8829.6
3197.35725	8844.1
3199.66667	8846.6
3201.97469	8834
3204.28132	8814.5
3206.58656	8855.3
3208.8904	8836.1
3211.19287	8860.5
3213.49394	8832
3215.79363	8852
3218.09193	8818.1
3220.38884	8813.6
3222.68438	8834.3
3224.97853	8814.9
3227.2713	8825
3229.56269	8820.5
3231.8527	8824.7
3234.14133	8800.7
3236.42858	8768.2
3238.71446	8766.1
3240.99896	8754.8
3243.28209	8737
3245.56384	8746.2
3247.84423	8733
3250.12324	8730.4
3252.40088	8719.4
3254.67715	8726.7
3256.95205	8681.6
3259.22558	8721.7
3261.49775	8690.6
3263.76855	8684.9
3266.03799	8668.1
3268.30606	8667.9
3270.57277	8652
3272.83812	8633.7
3275.10211	8597.5
3277.36474	8578
3279.62601	8583.7
3281.88593	8559.4
3284.14448	8589
3286.40168	8600
3288.65753	8578
3290.91202	8546.4
3293.16516	8534.5
3295.41695	8528.7
3297.66738	8446
3299.91647	8441
3302.16421	8394.7
3304.4106	8350.9
3306.65564	8314.1
3308.89933	8266.7
3311.14169	8198.3
3313.38269	8118.3
3315.62236	8093.3
3317.86068	8016.4
3320.09766	7954
3322.3333	7899.8
3324.5676	7901.7
3326.80056	7766.5
3329.03219	7722.3
3331.26248	3.3
3333.49143	-0.5
3335.71905	-1.2
