Data from AgNPs_FTO_APTES_UA_1uM_CRN_10uM_R6G_10uM_NaF_0.1M_Addition_RamanShift__26__14-46-09-655.txt Node

Date: Thu Jan 27 14:46:09 GMT 2022
User: TCL
Spectrometer: QEP01345
Trigger mode: 4
Integration Time (sec): 7.000000E0
Scans to average: 10
Electric dark correction enabled: true
Nonlinearity correction enabled: false
Boxcar width: 0
XAxis mode: Raman Shifts
Number of Pixels in Spectrum: 1044
>>>>>Begin Spectral Data<<<<<
46.04893	1.025
50.45542	1.025
54.85868	-0.975
59.25871	-0.975
63.6555	43.425
68.04907	45.325
72.43941	49.025
76.82654	54.525
81.21044	54.525
85.59113	55.225
89.96862	55.325
94.34289	58.325
98.71396	62.525
103.08183	59.525
107.4465	63.625
111.80798	65.225
116.16626	66.325
120.52136	69.425
124.87327	71.425
129.222	68.625
133.56755	74.525
137.90993	78.225
142.24913	81.725
146.58517	89.225
150.91804	103.425
155.24774	120.025
159.57429	142.925
163.89768	175.525
168.21792	232.125
172.53501	312.125
176.84895	426.425
181.15975	586.625
185.46741	812.725
189.77193	1126.425
194.07331	1504.425
198.37157	1932.525
202.6667	2402.925
206.9587	2844.725
211.24758	3285.225
215.53334	3759.825
219.81599	4258.925
224.09553	4819.325
228.37195	5452.325
232.64527	6122.125
236.91549	6849.025
241.18261	7511.525
245.44663	8079.925
249.70755	8609.825
253.96539	9011.925
258.22014	9433.425
262.4718	9764.025
266.72039	10034.825
270.96589	10204.125
275.20832	10250.925
279.44768	10224.025
283.68397	10141.425
287.91719	10084.225
292.14735	10117.625
296.37445	10194.025
300.59849	10411.425
304.81948	10680.225
309.03742	10797.425
313.25231	10729.025
317.46415	10282.525
321.67296	9701.825
325.87872	9182.625
330.08145	8953.625
334.28114	8928.225
338.47781	9061.325
342.67145	9268.725
346.86207	9553.825
351.04966	9952.725
355.23424	10431.225
359.4158	10815.725
363.59435	11015.425
367.76989	11070.825
371.94243	11136.225
376.11196	11114.325
380.27849	11066.525
384.44203	11057.425
388.60257	10966.925
392.76012	10955.225
396.91468	11093.125
401.06626	11322.125
405.21485	11531.325
409.36047	11434.325
413.50311	11023.725
417.64277	10653.825
421.77947	10482.625
425.9132	10406.225
430.04396	10418.825
434.17176	10503.225
438.2966	10622.325
442.41849	10806.425
446.53742	11083.525
450.6534	11394.025
454.76644	11630.825
458.87653	11730.425
462.98368	11698.025
467.08789	11542.725
471.18916	11341.625
475.2875	11113.925
479.38291	10960.125
483.4754	10802.525
487.56496	10690.625
491.6516	10553.625
495.73531	10483.825
499.81612	10466.225
503.89401	10557.125
507.96899	10630.525
512.04106	10692.525
516.11023	10781.225
520.1765	10825.025
524.23987	10777.425
528.30034	10595.325
532.35792	10433.625
536.41261	10277.125
540.46441	10126.425
544.51333	10067.025
548.55936	10183.925
552.60252	10386.525
556.64279	10666.525
560.6802	10797.925
564.71473	10869.825
568.7464	11153.525
572.7752	11411.625
576.80114	11340.125
580.82422	11177.025
584.84444	11137.625
588.86181	11137.525
592.87633	11136.325
596.888	11250.225
600.89682	11519.825
604.9028	12381.525
608.90594	14724.325
612.90624	17649.825
616.90371	17039.825
620.89834	13006.225
624.89015	11065.925
628.87913	10753.125
632.86528	10753.225
636.84862	10783.725
640.82913	10638.725
644.80683	10286.625
648.78172	10030.125
652.75379	10031.125
656.72306	10296.825
660.68952	10656.225
664.65319	10646.425
668.61405	10339.825
672.57211	10141.825
676.52738	10145.025
680.47986	10111.825
684.42955	10108.425
688.37646	10081.925
692.32058	10101.325
696.26192	10200.225
700.20048	10333.625
704.13626	10396.525
708.06928	10366.025
711.99952	10284.825
715.927	10231.725
719.85171	10252.625
723.77365	10225.725
727.69284	10144.325
731.60928	10028.325
735.52295	10034.525
739.43388	10079.325
743.34206	10128.425
747.24749	10161.525
751.15017	10251.025
755.05012	10450.125
758.94733	10832.025
762.8418	11657.425
766.73354	13010.925
770.62254	14465.625
774.50882	15076.325
778.39237	14426.925
782.27321	12899.625
786.15132	11515.325
790.02671	10712.125
793.89938	10357.225
797.76935	10220.225
801.6366	10145.425
805.50115	10099.925
809.36299	10031.125
813.22213	10012.025
817.07857	9984.225
820.93231	9977.925
824.78336	10021.825
828.63172	10033.525
832.47738	10072.025
836.32036	10094.125
840.16066	10082.725
843.99827	10078.625
847.8332	10044.725
851.66546	9989.525
855.49504	10001.025
859.32195	9960.525
863.1462	9927.625
866.96777	9894.525
870.78668	9871.125
874.60293	9915.525
878.41652	9914.325
882.22745	9930.025
886.03573	9999.025
889.84136	9983.625
893.64433	9940.925
897.44466	9877.925
901.24235	9895.625
905.0374	9883.725
908.8298	9864.525
912.61957	9869.525
916.40671	9949.525
920.19121	10061.225
923.97308	10139.225
927.75233	10221.125
931.52895	10265.525
935.30295	10191.125
939.07433	9990.525
942.84309	9804.725
946.60924	9683.225
950.37278	9625.425
954.13371	9554.725
957.89203	9519.725
961.64774	9516.025
965.40086	9477.325
969.15137	9459.625
972.89929	9418.125
976.64461	9390.925
980.38733	9378.825
984.12747	9423.525
987.86502	9519.325
991.59999	9632.225
995.33237	9772.225
999.06217	10034.225
1002.78939	10352.425
1006.51404	10608.425
1010.23611	10775.925
1013.95561	10936.725
1017.67255	10921.625
1021.38692	10825.025
1025.09872	10700.625
1028.80796	10771.125
1032.51465	10974.625
1036.21877	11178.925
1039.92035	11220.925
1043.61937	11089.025
1047.31584	10861.125
1051.00976	10633.225
1054.70114	10496.325
1058.38998	10474.425
1062.07627	10527.225
1065.76003	10584.425
1069.44126	10631.725
1073.11995	10741.225
1076.79611	10809.225
1080.46974	10895.125
1084.14085	11027.225
1087.80943	11190.025
1091.47549	11318.825
1095.13903	11211.525
1098.80005	10947.125
1102.45857	10695.425
1106.11456	10528.025
1109.76805	10545.125
1113.41903	10708.425
1117.06751	10869.425
1120.71348	11142.325
1124.35696	11406.525
1127.99793	11677.325
1131.63641	11729.625
1135.2724	11440.825
1138.90589	11094.325
1142.5369	10909.725
1146.16542	10813.725
1149.79145	10732.425
1153.415	10748.925
1157.03607	10853.225
1160.65467	11044.525
1164.27079	11387.525
1167.88443	11886.825
1171.49561	12626.625
1175.10432	13788.625
1178.71056	15317.425
1182.31434	16600.325
1185.91565	17156.425
1189.51451	17053.625
1193.11091	16354.225
1196.70485	15357.225
1200.29634	14485.925
1203.88538	13823.925
1207.47197	13199.225
1211.05612	12671.625
1214.63782	12367.925
1218.21708	12297.725
1221.79391	12329.025
1225.36829	12434.225
1228.94024	12511.725
1232.50976	12508.225
1236.07685	12470.525
1239.6415	12435.925
1243.20374	12390.625
1246.76355	12416.225
1250.32093	12558.325
1253.8759	12844.125
1257.42845	13199.525
1260.97859	13530.425
1264.52631	13819.125
1268.07163	14099.625
1271.61453	14432.425
1275.15503	14804.225
1278.69312	15121.025
1282.22882	15345.525
1285.76211	15608.725
1289.29301	15990.025
1292.82151	16375.725
1296.34761	16828.425
1299.87133	17483.725
1303.39266	18474.325
1306.9116	20015.825
1310.42815	21802.825
1313.94233	23084.125
1317.45412	23176.525
1320.96354	22309.025
1324.47058	21293.625
1327.97525	20290.325
1331.47754	19655.425
1334.97747	19418.925
1338.47502	19509.725
1341.97022	19669.625
1345.46305	19878.025
1348.95352	20089.325
1352.44163	20427.925
1355.92738	21301.525
1359.41078	23108.225
1362.89183	25137.125
1366.37053	24946.225
1369.84688	22087.125
1373.32088	19043.025
1376.79254	17067.625
1380.26186	16139.425
1383.72883	15705.925
1387.19347	15443.025
1390.65578	15094.125
1394.11575	14857.025
1397.57339	14884.025
1401.0287	15092.225
1404.48168	15365.825
1407.93234	15692.225
1411.38068	15885.825
1414.82669	15755.025
1418.27039	15425.725
1421.71177	14957.725
1425.15083	14525.025
1428.58758	14265.025
1432.02203	14191.825
1435.45416	14257.425
1438.88399	14362.125
1442.31151	14454.425
1445.73673	14540.225
1449.15965	14697.925
1452.58027	14738.025
1455.9986	14697.525
1459.41463	14708.025
1462.82837	14826.525
1466.23982	15079.625
1469.64898	15333.625
1473.05586	15513.925
1476.46045	15637.625
1479.86276	15748.325
1483.26279	15912.625
1486.66054	16128.825
1490.05602	16411.925
1493.44922	16806.225
1496.84016	17342.125
1500.22882	18079.425
1503.61521	19136.225
1506.99934	20537.125
1510.38121	22009.825
1513.76081	22930.525
1517.13816	22456.125
1520.51324	20819.725
1523.88607	18938.125
1527.25665	17524.325
1530.62498	16621.325
1533.99105	16130.425
1537.35488	15781.525
1540.71647	15567.825
1544.07581	15427.525
1547.4329	15349.425
1550.78776	15222.825
1554.14038	15165.125
1557.49077	15271.025
1560.83892	15450.925
1564.18484	15631.525
1567.52853	15744.125
1570.86999	15848.725
1574.20922	15899.825
1577.54624	15891.225
1580.88103	15547.025
1584.2136	15133.225
1587.54395	15070.025
1590.87208	15540.225
1594.19801	16400.525
1597.52172	17411.025
1600.84321	17892.525
1604.16251	17365.125
1607.47959	16291.225
1610.79447	15090.825
1614.10715	13946.125
1617.41763	13056.225
1620.7259	12441.925
1624.03199	12153.925
1627.33587	12124.025
1630.63757	12439.825
1633.93707	13030.425
1637.23439	13902.225
1640.52951	15029.625
1643.82246	16263.825
1647.11321	17393.725
1650.40179	18142.725
1653.68819	17657.025
1656.97241	15800.825
1660.25446	13688.625
1663.53433	12106.925
1666.81203	11133.125
1670.08756	10537.425
1673.36092	10180.725
1676.63211	9965.525
1679.90115	9803.825
1683.16801	9665.725
1686.43272	9603.925
1689.69527	9496.225
1692.95567	9466.525
1696.2139	9360.925
1699.46999	9331.825
1702.72392	9313.025
1705.97571	9310.725
1709.22535	9333.225
1712.47284	9359.425
1715.71819	9384.625
1718.96139	9377.425
1722.20246	9363.425
1725.44139	9349.925
1728.67818	9292.125
1731.91284	9234.025
1735.14537	9178.425
1738.37576	9167.425
1741.60403	9107.525
1744.83017	9100.825
1748.05418	9053.525
1751.27607	9024.225
1754.49584	8993.325
1757.71349	9003.225
1760.92903	8987.625
1764.14244	8966.925
1767.35375	8951.925
1770.56294	8958.925
1773.77002	8959.725
1776.97499	8950.425
1780.17785	8947.625
1783.37861	8954.825
1786.57727	8960.225
1789.77382	8957.725
1792.96828	8944.125
1796.16064	8930.225
1799.3509	8924.025
1802.53907	8934.025
1805.72514	8894.725
1808.90913	8885.025
1812.09102	8848.425
1815.27083	8855.225
1818.44856	8848.625
1821.6242	8824.725
1824.79776	8818.425
1827.96924	8812.925
1831.13864	8807.525
1834.30597	8815.925
1837.47122	8812.325
1840.6344	8798.325
1843.7955	8788.425
1846.95454	8799.225
1850.11151	8793.725
1853.26642	8810.825
1856.41926	8806.525
1859.57004	8837.425
1862.71876	8835.425
1865.86542	8833.025
1869.01003	8826.525
1872.15258	8835.625
1875.29308	8849.725
1878.43152	8853.925
1881.56792	8876.925
1884.70227	8862.325
1887.83457	8862.025
1890.96482	8869.825
1894.09304	8876.525
1897.21921	8877.825
1900.34335	8875.125
1903.46544	8861.125
1906.58551	8871.025
1909.70353	8873.825
1912.81953	8863.625
1915.93349	8888.325
1919.04543	8842.925
1922.15534	8852.425
1925.26322	8828.125
1928.36908	8827.525
1931.47292	8773.525
1934.57473	8745.325
1937.67453	8722.525
1940.77232	8690.625
1943.86808	8637.425
1946.96184	8599.025
1950.05358	8580.825
1953.14331	8528.225
1956.23103	8502.925
1959.31675	8455.225
1962.40046	8468.225
1965.48217	8424.425
1968.56188	8413.725
1971.63959	8386.825
1974.7153	8362.725
1977.78901	8345.025
1980.86073	8325.125
1983.93046	8280.725
1986.99819	8275.125
1990.06394	8217.625
1993.1277	8211.525
1996.18947	8185.625
1999.24925	8156.325
2002.30706	8137.425
2005.36288	8127.625
2008.41672	8110.625
2011.46859	8092.725
2014.51848	8066.525
2017.56639	8042.225
2020.61233	8014.825
2023.6563	8025.325
2026.6983	7995.925
2029.73833	7965.025
2032.7764	7971.625
2035.8125	7965.925
2038.84664	7946.525
2041.87881	7938.025
2044.90903	7906.725
2047.93729	7888.325
2050.96359	7900.525
2053.98794	7865.325
2057.01034	7882.125
2060.03078	7862.625
2063.04927	7870.125
2066.06582	7858.625
2069.08042	7844.625
2072.09307	7851.525
2075.10378	7827.125
2078.11255	7825.025
2081.11938	7821.525
2084.12426	7849.525
2087.12722	7837.625
2090.12824	7814.125
2093.12732	7828.125
2096.12447	7816.625
2099.11969	7826.225
2102.11299	7832.025
2105.10435	7848.225
2108.09379	7819.025
2111.08131	7820.825
2114.0669	7847.325
2117.05057	7838.125
2120.03233	7834.425
2123.01216	7863.125
2125.99008	7865.025
2128.96609	7869.825
2131.94018	7873.925
2134.91236	7891.825
2137.88263	7891.725
2140.851	7882.725
2143.81746	7881.825
2146.78201	7887.925
2149.74466	7896.725
2152.7054	7927.625
2155.66425	7917.625
2158.6212	7886.225
2161.57625	7888.925
2164.52941	7897.825
2167.48067	7893.025
2170.43004	7897.525
2173.37752	7889.525
2176.32311	7897.425
2179.26681	7889.925
2182.20863	7889.825
2185.14856	7905.225
2188.08661	7887.725
2191.02278	7899.625
2193.95707	7887.625
2196.88948	7885.225
2199.82001	7897.825
2202.74867	7892.025
2205.67545	7894.225
2208.60037	7886.425
2211.52341	7864.125
2214.44458	7883.225
2217.36388	7840.525
2220.28132	7860.225
2223.1969	7829.625
2226.11061	7818.525
2229.02246	7788.825
2231.93245	7797.225
2234.84058	7771.325
2237.74686	7753.225
2240.65128	7753.325
2243.55385	7717.225
2246.45456	7741.925
2249.35343	7727.725
2252.25044	7732.925
2255.14561	7704.925
2258.03893	7719.525
2260.93041	7689.625
2263.82004	7684.425
2266.70783	7659.925
2269.59378	7672.625
2272.4779	7624.425
2275.36017	7601.925
2278.24061	7604.925
2281.11922	7615.525
2283.996	7582.425
2286.87094	7567.525
2289.74405	7565.325
2292.61534	7560.025
2295.4848	7543.325
2298.35243	7552.825
2301.21824	7530.025
2304.08223	7540.525
2306.94439	7544.325
2309.80474	7544.125
2312.66327	7542.925
2315.51999	7553.425
2318.37489	7538.025
2321.22797	7538.325
2324.07925	7533.225
2326.92871	7522.525
2329.77637	7521.725
2332.62222	7516.525
2335.46626	7515.825
2338.3085	7496.425
2341.14893	7512.525
2343.98756	7508.725
2346.8244	7505.825
2349.65943	7519.325
2352.49267	7531.125
2355.32411	7512.125
2358.15376	7535.525
2360.98161	7512.725
2363.80768	7534.525
2366.63195	7514.925
2369.45444	7500.925
2372.27514	7513.425
2375.09405	7462.025
2377.91118	7460.525
2380.72652	7435.525
2383.54009	7422.725
2386.35187	7411.625
2389.16188	7363.125
2391.97011	7354.925
2394.77657	7364.825
2397.58125	7343.225
2400.38416	7332.525
2403.18529	7305.625
2405.98466	7315.125
2408.78226	7279.725
2411.57809	7302.825
2414.37216	7277.625
2417.16446	7286.525
2419.955	7255.225
2422.74378	7267.825
2425.5308	7257.725
2428.31606	7241.925
2431.09956	7240.625
2433.88131	7231.425
2436.6613	7224.925
2439.43954	7229.025
2442.21603	7234.925
2444.99077	7221.725
2447.76377	7224.525
2450.53501	7231.125
2453.30451	7213.025
2456.07226	7219.425
2458.83827	7215.925
2461.60254	7221.125
2464.36507	7214.725
2467.12586	7193.325
2469.88492	7196.625
2472.64224	7200.925
2475.39782	7208.125
2478.15167	7204.625
2480.90379	7198.425
2483.65417	7220.825
2486.40283	7220.325
2489.14976	7241.625
2491.89497	7245.525
2494.63845	7257.725
2497.3802	7249.625
2500.12024	7246.825
2502.85855	7243.425
2505.59514	7239.925
2508.33002	7234.325
2511.06318	7234.325
2513.79462	7225.925
2516.52435	7186.025
2519.25237	7186.525
2521.97867	7153.625
2524.70327	7163.025
2527.42616	7132.125
2530.14734	7145.025
2532.86681	7133.625
2535.58458	7146.025
2538.30065	7122.725
2541.01501	7130.025
2543.72768	7123.125
2546.43864	7113.925
2549.14791	7112.325
2551.85548	7116.725
2554.56136	7088.625
2557.26554	7095.925
2559.96803	7085.625
2562.66883	7078.325
2565.36794	7082.425
2568.06536	7070.525
2570.7611	7066.225
2573.45514	7047.825
2576.14751	7036.925
2578.83819	7032.125
2581.52719	7033.825
2584.21451	7027.525
2586.90015	7006.025
2589.58411	7018.925
2592.2664	7015.925
2594.94701	7018.125
2597.62594	7001.825
2600.30321	6984.625
2602.9788	7018.525
2605.65273	6981.725
2608.32498	6988.725
2610.99557	7008.825
2613.66449	7015.325
2616.33175	7018.525
2618.99734	7009.925
2621.66128	7017.425
2624.32355	6999.325
2626.98416	7009.825
2629.64311	7007.225
2632.30041	7002.425
2634.95605	6982.025
2637.61004	6983.925
2640.26238	6966.525
2642.91306	6951.425
2645.56209	6962.825
2648.20948	6964.025
2650.85521	6940.225
2653.4993	6952.125
2656.14175	6948.725
2658.78255	6947.625
2661.42171	6955.325
2664.05923	6964.425
2666.6951	6974.325
2669.32934	6986.925
2671.96194	6977.925
2674.59291	6981.025
2677.22224	6980.625
2679.84993	6991.625
2682.476	6972.925
2685.10043	6954.425
2687.72324	6963.525
2690.34441	6996.225
2692.96396	6967.125
2695.58188	6969.825
2698.19818	6957.025
2700.81285	6958.725
2703.4259	6962.825
2706.03733	6949.525
2708.64714	6943.625
2711.25533	6965.225
2713.86191	6983.025
2716.46687	6977.925
2719.07021	6989.025
2721.67194	6995.325
2724.27206	6987.925
2726.87057	6989.425
2729.46747	6988.225
2732.06276	6999.725
2734.65644	6996.125
2737.24852	6986.625
2739.83899	6995.625
2742.42786	6993.825
2745.01513	6983.225
2747.60079	6954.125
2750.18486	6972.525
2752.76733	6961.425
2755.3482	6971.425
2757.92747	6956.725
2760.50515	6930.025
2763.08123	6932.525
2765.65573	6937.525
2768.22863	6954.125
2770.79994	6930.725
2773.36967	6916.625
2775.9378	6937.325
2778.50435	6928.925
2781.06932	6921.625
2783.6327	6926.125
2786.1945	6897.225
2788.75471	6901.325
2791.31335	6882.625
2793.87041	6873.825
2796.42589	6874.825
2798.97979	6868.225
2801.53212	6857.625
2804.08288	6858.225
2806.63206	6836.925
2809.17967	6807.525
2811.72571	6797.225
2814.27018	6805.525
2816.81308	6802.225
2819.35442	6795.825
2821.89419	6816.225
2824.43239	6813.325
2826.96904	6796.325
2829.50412	6814.525
2832.03763	6803.225
2834.56959	6801.025
2837.1	6776.025
2839.62884	6799.325
2842.15613	6783.725
2844.68186	6822.825
2847.20604	6827.925
2849.72867	6832.925
2852.24974	6842.125
2854.76927	6841.925
2857.28724	6827.825
2859.80367	6811.825
2862.31855	6804.525
2864.83189	6792.525
2867.34368	6773.625
2869.85393	6791.725
2872.36264	6788.525
2874.8698	6768.925
2877.37543	6785.625
2879.87952	6780.925
2882.38207	6799.925
2884.88308	6769.425
2887.38256	6778.625
2889.88051	6755.125
2892.37692	6749.725
2894.8718	6783.025
2897.36515	6779.825
2899.85698	6784.825
2902.34727	6794.325
2904.83604	6805.425
2907.32328	6807.125
2909.809	6791.425
2912.29319	6798.225
2914.77587	6797.925
2917.25702	6803.825
2919.73665	6792.825
2922.21476	6787.825
2924.69136	6792.925
2927.16644	6793.125
2929.64	6784.325
2932.11205	6782.925
2934.58258	6741.525
2937.05161	6747.025
2939.51912	6774.125
2941.98513	6731.125
2944.44962	6718.425
2946.91261	6695.325
2949.37409	6708.525
2951.83407	6707.325
2954.29254	6677.425
2956.74951	6693.925
2959.20498	6677.325
2961.65895	6657.825
2964.11142	6675.725
2966.56239	6655.725
2969.01186	6654.125
2971.45984	6627.525
2973.90632	6617.825
2976.35131	6600.725
2978.7948	6611.025
2981.23681	6584.725
2983.67732	6576.325
2986.11635	6569.025
2988.55388	6543.025
2990.98993	6532.125
2993.4245	6513.325
2995.85758	6501.925
2998.28917	6514.025
3000.71928	6480.925
3003.14791	6465.625
3005.57506	6466.725
3008.00073	6470.125
3010.42493	6464.825
3012.84764	6455.025
3015.26888	6449.525
3017.68865	6454.925
3020.10694	6414.425
3022.52376	6400.925
3024.9391	6402.925
3027.35298	6389.825
3029.76539	6389.125
3032.17632	6368.325
3034.5858	6374.225
3036.9938	6378.525
3039.40034	6365.825
3041.80542	6357.625
3044.20903	6358.525
3046.61118	6344.625
3049.01187	6330.225
3051.4111	6331.825
3053.80888	6321.725
3056.20519	6313.425
3058.60005	6299.825
3060.99345	6278.425
3063.3854	6242.425
3065.7759	6244.325
3068.16494	6248.525
3070.55254	6217.425
3072.93868	6225.525
3075.32338	6193.725
3077.70662	6194.525
3080.08842	6180.725
3082.46878	6172.625
3084.84769	6153.325
3087.22515	6157.725
3089.60118	6158.225
3091.97576	6135.525
3094.3489	6159.325
3096.72061	6152.825
3099.09087	6157.925
3101.4597	6140.325
3103.82709	6152.325
3106.19305	6159.725
3108.55757	6140.025
3110.92066	6121.225
3113.28232	6102.125
3115.64255	6106.725
3118.00134	6104.625
3120.35871	6098.425
3122.71466	6096.325
3125.06917	6086.125
3127.42226	6065.125
3129.77393	6073.425
3132.12417	6058.325
3134.47299	6055.725
3136.82039	6081.525
3139.16636	6081.825
3141.51092	6080.225
3143.85406	6100.025
3146.19579	6099.625
3148.53609	6069.025
3150.87499	6105.225
3153.21246	6110.725
3155.54853	6126.825
3157.88318	6110.925
3160.21642	6109.025
3162.54826	6118.425
3164.87868	6102.325
3167.2077	6103.325
3169.5353	6120.525
3171.86151	6128.025
3174.18631	6114.625
3176.5097	6114.225
3178.83169	6097.625
3181.15228	6092.125
3183.47147	6098.925
3185.78926	6090.325
3188.10565	6089.525
3190.42065	6101.125
3192.73424	6093.025
3195.04645	6099.325
3197.35725	6103.925
