Data from AgNPs_FTO_APTES_UA_1uM_CRN_10uM_R6G_20uM_NaF_0.1M_Addition_RamanShift__24__15-25-49-700.txt Node

Date: Thu Jan 27 15:25:49 GMT 2022
User: TCL
Spectrometer: QEP01345
Trigger mode: 4
Integration Time (sec): 7.000000E0
Scans to average: 10
Electric dark correction enabled: true
Nonlinearity correction enabled: false
Boxcar width: 0
XAxis mode: Raman Shifts
Number of Pixels in Spectrum: 1044
>>>>>Begin Spectral Data<<<<<
46.04893	0.925
50.45542	0.725
54.85868	-0.275
59.25871	-2.375
63.6555	49.925
68.04907	49.925
72.43941	54.225
76.82654	57.825
81.21044	57.825
85.59113	57.625
89.96862	62.025
94.34289	62.925
98.71396	68.125
103.08183	67.325
107.4465	72.125
111.80798	72.325
116.16626	72.025
120.52136	78.525
124.87327	78.225
129.222	77.225
133.56755	81.425
137.90993	88.325
142.24913	89.625
146.58517	100.525
150.91804	115.525
155.24774	131.825
159.57429	160.525
163.89768	202.725
168.21792	261.525
172.53501	347.825
176.84895	480.325
181.15975	669.525
185.46741	932.425
189.77193	1284.925
194.07331	1719.425
198.37157	2220.425
202.6667	2743.925
206.9587	3247.225
211.24758	3760.125
215.53334	4264.625
219.81599	4821.925
224.09553	5450.425
228.37195	6130.925
232.64527	6906.825
236.91549	7718.225
241.18261	8475.125
245.44663	9143.125
249.70755	9789.325
253.96539	10314.025
258.22014	10808.725
262.4718	11210.725
266.72039	11511.925
270.96589	11705.425
275.20832	11801.925
279.44768	11760.125
283.68397	11680.325
287.91719	11636.325
292.14735	11637.825
296.37445	11716.625
300.59849	11888.925
304.81948	12042.525
309.03742	12108.025
313.25231	11955.725
317.46415	11573.325
321.67296	11034.725
325.87872	10584.625
330.08145	10363.725
334.28114	10392.925
338.47781	10494.225
342.67145	10693.725
346.86207	11016.525
351.04966	11368.325
355.23424	11769.125
359.4158	12088.525
363.59435	12304.725
367.76989	12398.325
371.94243	12459.825
376.11196	12488.125
380.27849	12527.025
384.44203	12500.025
388.60257	12476.125
392.76012	12532.025
396.91468	12658.725
401.06626	12938.825
405.21485	13128.325
409.36047	13041.925
413.50311	12707.925
417.64277	12393.225
421.77947	12279.625
425.9132	12254.725
430.04396	12317.525
434.17176	12388.625
438.2966	12544.225
442.41849	12755.825
446.53742	13038.325
450.6534	13425.725
454.76644	13662.725
458.87653	13771.625
462.98368	13730.325
467.08789	13626.425
471.18916	13426.525
475.2875	13173.925
479.38291	13049.825
483.4754	12936.225
487.56496	12776.225
491.6516	12599.425
495.73531	12496.625
499.81612	12465.625
503.89401	12562.825
507.96899	12615.425
512.04106	12648.425
516.11023	12680.425
520.1765	12672.925
524.23987	12644.925
528.30034	12470.125
532.35792	12299.825
536.41261	12144.325
540.46441	12019.025
544.51333	12003.925
548.55936	12151.725
552.60252	12401.325
556.64279	12661.125
560.6802	12785.425
564.71473	12907.725
568.7464	13145.725
572.7752	13407.925
576.80114	13403.425
580.82422	13327.825
584.84444	13360.225
588.86181	13368.925
592.87633	13434.825
596.888	13538.625
600.89682	13797.425
604.9028	14558.325
608.90594	16651.825
612.90624	19159.325
616.90371	18444.625
620.89834	14799.825
624.89015	13073.625
628.87913	12854.425
632.86528	12848.625
636.84862	12794.325
640.82913	12591.925
644.80683	12240.125
648.78172	11963.625
652.75379	11964.725
656.72306	12183.925
660.68952	12548.125
664.65319	12552.625
668.61405	12254.625
672.57211	12111.125
676.52738	12084.725
680.47986	12087.625
684.42955	12046.325
688.37646	12069.325
692.32058	12086.925
696.26192	12176.325
700.20048	12286.625
704.13626	12387.425
708.06928	12376.525
711.99952	12271.325
715.927	12223.425
719.85171	12217.925
723.77365	12224.325
727.69284	12097.125
731.60928	12009.425
735.52295	11994.425
739.43388	12036.825
743.34206	12098.125
747.24749	12166.025
751.15017	12270.125
755.05012	12499.125
758.94733	12866.925
762.8418	13633.025
766.73354	14903.025
770.62254	16253.725
774.50882	16759.325
778.39237	16061.525
782.27321	14603.325
786.15132	13338.625
790.02671	12600.525
793.89938	12299.625
797.76935	12167.125
801.6366	12110.525
805.50115	12031.225
809.36299	12008.325
813.22213	11949.325
817.07857	11956.325
820.93231	11944.725
824.78336	11937.625
828.63172	11964.925
832.47738	12004.725
836.32036	12002.525
840.16066	12042.625
843.99827	12034.525
847.8332	12018.125
851.66546	11974.325
855.49504	11971.125
859.32195	11897.125
863.1462	11888.525
866.96777	11827.625
870.78668	11817.425
874.60293	11837.725
878.41652	11829.425
882.22745	11864.425
886.03573	11938.525
889.84136	11913.025
893.64433	11885.525
897.44466	11816.325
901.24235	11808.825
905.0374	11799.525
908.8298	11758.125
912.61957	11771.725
916.40671	11877.225
920.19121	12018.125
923.97308	12140.525
927.75233	12193.625
931.52895	12207.425
935.30295	12128.925
939.07433	11896.625
942.84309	11697.625
946.60924	11641.325
950.37278	11558.925
954.13371	11517.025
957.89203	11458.825
961.64774	11407.425
965.40086	11374.925
969.15137	11338.725
972.89929	11294.525
976.64461	11276.225
980.38733	11274.825
984.12747	11351.025
987.86502	11417.925
991.59999	11563.925
995.33237	11746.425
999.06217	12076.725
1002.78939	12473.425
1006.51404	12705.325
1010.23611	12865.225
1013.95561	13017.825
1017.67255	13058.825
1021.38692	12924.725
1025.09872	12842.825
1028.80796	12933.225
1032.51465	13252.925
1036.21877	13559.025
1039.92035	13602.725
1043.61937	13386.225
1047.31584	13062.525
1051.00976	12739.825
1054.70114	12603.225
1058.38998	12552.025
1062.07627	12618.525
1065.76003	12677.325
1069.44126	12753.225
1073.11995	12819.925
1076.79611	12909.225
1080.46974	12975.225
1084.14085	13077.825
1087.80943	13223.425
1091.47549	13335.025
1095.13903	13214.425
1098.80005	12989.125
1102.45857	12730.525
1106.11456	12571.725
1109.76805	12585.025
1113.41903	12697.925
1117.06751	12894.625
1120.71348	13116.125
1124.35696	13361.125
1127.99793	13586.825
1131.63641	13625.225
1135.2724	13375.825
1138.90589	13107.525
1142.5369	12956.825
1146.16542	12816.725
1149.79145	12792.725
1153.415	12847.125
1157.03607	12974.125
1160.65467	13188.925
1164.27079	13564.925
1167.88443	14111.525
1171.49561	14928.225
1175.10432	16097.025
1178.71056	17631.625
1182.31434	18973.025
1185.91565	19627.525
1189.51451	19627.525
1193.11091	18947.225
1196.70485	17990.525
1200.29634	17083.325
1203.88538	16391.425
1207.47197	15730.625
1211.05612	15241.425
1214.63782	14957.825
1218.21708	14872.625
1221.79391	14848.625
1225.36829	14952.225
1228.94024	14993.725
1232.50976	14891.025
1236.07685	14823.725
1239.6415	14769.025
1243.20374	14740.025
1246.76355	14787.525
1250.32093	14972.825
1253.8759	15267.225
1257.42845	15654.225
1260.97859	16012.125
1264.52631	16320.225
1268.07163	16662.425
1271.61453	17042.825
1275.15503	17468.225
1278.69312	17877.925
1282.22882	18207.525
1285.76211	18529.425
1289.29301	18867.225
1292.82151	19325.925
1296.34761	19835.225
1299.87133	20672.425
1303.39266	21822.125
1306.9116	23439.525
1310.42815	25224.725
1313.94233	26468.725
1317.45412	26518.625
1320.96354	25728.225
1324.47058	24713.225
1327.97525	23818.425
1331.47754	23215.225
1334.97747	23019.425
1338.47502	23142.125
1341.97022	23436.825
1345.46305	23566.225
1348.95352	23565.025
1352.44163	23594.025
1355.92738	24259.325
1359.41078	25749.725
1362.89183	27483.725
1366.37053	27114.525
1369.84688	24453.825
1373.32088	21542.125
1376.79254	19653.225
1380.26186	18743.925
1383.72883	18378.725
1387.19347	18158.825
1390.65578	17922.025
1394.11575	17795.525
1397.57339	17905.225
1401.0287	18219.225
1404.48168	18572.225
1407.93234	18887.025
1411.38068	18976.125
1414.82669	18793.925
1418.27039	18331.525
1421.71177	17719.725
1425.15083	17224.225
1428.58758	16881.325
1432.02203	16793.225
1435.45416	16889.625
1438.88399	17048.525
1442.31151	17180.625
1445.73673	17349.725
1449.15965	17519.125
1452.58027	17629.925
1455.9986	17664.225
1459.41463	17651.725
1462.82837	17830.425
1466.23982	18112.425
1469.64898	18383.425
1473.05586	18579.425
1476.46045	18676.625
1479.86276	18767.625
1483.26279	18865.725
1486.66054	18993.725
1490.05602	19219.225
1493.44922	19576.525
1496.84016	19967.525
1500.22882	20555.025
1503.61521	21470.025
1506.99934	22628.325
1510.38121	23889.825
1513.76081	24654.125
1517.13816	24235.225
1520.51324	22776.025
1523.88607	21198.725
1527.25665	20047.925
1530.62498	19313.525
1533.99105	18904.525
1537.35488	18629.625
1540.71647	18467.825
1544.07581	18348.925
1547.4329	18173.525
1550.78776	18032.925
1554.14038	17974.325
1557.49077	18031.825
1560.83892	18129.325
1564.18484	18256.425
1567.52853	18287.025
1570.86999	18363.125
1574.20922	18384.125
1577.54624	18402.525
1580.88103	18167.025
1584.2136	17922.825
1587.54395	17978.725
1590.87208	18613.625
1594.19801	19595.125
1597.52172	20751.225
1600.84321	21289.125
1604.16251	20673.725
1607.47959	19390.725
1610.79447	18028.225
1614.10715	16732.325
1617.41763	15691.925
1620.7259	14912.825
1624.03199	14549.525
1627.33587	14510.925
1630.63757	14879.825
1633.93707	15546.225
1637.23439	16521.625
1640.52951	17798.025
1643.82246	19106.825
1647.11321	20271.125
1650.40179	20804.925
1653.68819	20085.025
1656.97241	18069.625
1660.25446	15903.425
1663.53433	14259.025
1666.81203	13256.625
1670.08756	12598.925
1673.36092	12231.325
1676.63211	11984.325
1679.90115	11824.325
1683.16801	11666.025
1686.43272	11564.225
1689.69527	11493.125
1692.95567	11382.525
1696.2139	11357.825
1699.46999	11294.425
1702.72392	11260.425
1705.97571	11268.625
1709.22535	11287.725
1712.47284	11285.325
1715.71819	11312.225
1718.96139	11316.625
1722.20246	11310.025
1725.44139	11268.525
1728.67818	11226.825
1731.91284	11174.625
1735.14537	11122.825
1738.37576	11085.225
1741.60403	11045.725
1744.83017	10994.125
1748.05418	10965.725
1751.27607	10983.425
1754.49584	10943.325
1757.71349	10907.725
1760.92903	10900.825
1764.14244	10839.325
1767.35375	10862.825
1770.56294	10868.025
1773.77002	10864.325
1776.97499	10849.825
1780.17785	10897.025
1783.37861	10884.625
1786.57727	10864.625
1789.77382	10875.725
1792.96828	10873.925
1796.16064	10840.725
1799.3509	10846.325
1802.53907	10850.525
1805.72514	10825.125
1808.90913	10795.925
1812.09102	10777.725
1815.27083	10768.625
1818.44856	10750.725
1821.6242	10724.825
1824.79776	10709.625
1827.96924	10709.125
1831.13864	10725.425
1834.30597	10715.425
1837.47122	10701.325
1840.6344	10736.325
1843.7955	10710.525
1846.95454	10721.025
1850.11151	10728.825
1853.26642	10736.425
1856.41926	10741.025
1859.57004	10760.625
1862.71876	10747.925
1865.86542	10767.025
1869.01003	10747.525
1872.15258	10758.325
1875.29308	10757.225
1878.43152	10741.825
1881.56792	10765.825
1884.70227	10773.925
1887.83457	10743.525
1890.96482	10761.825
1894.09304	10769.225
1897.21921	10746.025
1900.34335	10765.825
1903.46544	10777.725
1906.58551	10768.825
1909.70353	10764.025
1912.81953	10775.725
1915.93349	10776.525
1919.04543	10756.125
1922.15534	10745.625
1925.26322	10719.625
1928.36908	10719.625
1931.47292	10677.925
1934.57473	10643.725
1937.67453	10619.725
1940.77232	10547.125
1943.86808	10508.425
1946.96184	10489.425
1950.05358	10436.425
1953.14331	10412.325
1956.23103	10357.225
1959.31675	10333.725
1962.40046	10317.225
1965.48217	10262.825
1968.56188	10276.625
1971.63959	10265.225
1974.7153	10203.925
1977.78901	10152.325
1980.86073	10142.825
1983.93046	10113.725
1986.99819	10074.625
1990.06394	10054.425
1993.1277	10037.025
1996.18947	9960.625
1999.24925	9976.425
2002.30706	9930.925
2005.36288	9923.425
2008.41672	9888.125
2011.46859	9864.225
2014.51848	9844.325
2017.56639	9812.525
2020.61233	9816.625
2023.6563	9782.825
2026.6983	9753.925
2029.73833	9744.225
2032.7764	9732.425
2035.8125	9717.025
2038.84664	9692.925
2041.87881	9680.025
2044.90903	9672.625
2047.93729	9629.525
2050.96359	9640.225
2053.98794	9615.725
2057.01034	9638.125
2060.03078	9611.525
2063.04927	9615.325
2066.06582	9622.525
2069.08042	9616.925
2072.09307	9582.825
2075.10378	9593.825
2078.11255	9580.825
2081.11938	9565.625
2084.12426	9540.625
2087.12722	9598.625
2090.12824	9554.625
2093.12732	9577.525
2096.12447	9552.425
2099.11969	9536.525
2102.11299	9557.225
2105.10435	9555.625
2108.09379	9580.125
2111.08131	9583.325
2114.0669	9582.525
2117.05057	9609.825
2120.03233	9608.125
2123.01216	9612.625
2125.99008	9615.925
2128.96609	9631.925
2131.94018	9644.025
2134.91236	9642.425
2137.88263	9650.625
2140.851	9655.025
2143.81746	9656.625
2146.78201	9663.125
2149.74466	9682.725
2152.7054	9648.725
2155.66425	9686.125
2158.6212	9701.325
2161.57625	9662.025
2164.52941	9673.625
2167.48067	9667.125
2170.43004	9647.325
2173.37752	9673.825
2176.32311	9670.025
2179.26681	9679.525
2182.20863	9660.425
2185.14856	9680.025
2188.08661	9691.425
2191.02278	9697.525
2193.95707	9685.425
2196.88948	9677.925
2199.82001	9694.625
2202.74867	9674.425
2205.67545	9652.025
2208.60037	9644.425
2211.52341	9655.525
2214.44458	9653.025
2217.36388	9632.325
2220.28132	9610.625
2223.1969	9595.725
2226.11061	9611.225
2229.02246	9567.725
2231.93245	9558.025
2234.84058	9568.525
2237.74686	9517.225
2240.65128	9494.625
2243.55385	9508.725
2246.45456	9498.625
2249.35343	9474.125
2252.25044	9463.525
2255.14561	9449.725
2258.03893	9448.025
2260.93041	9443.125
2263.82004	9437.725
2266.70783	9407.625
2269.59378	9413.625
2272.4779	9343.925
2275.36017	9338.225
2278.24061	9337.725
2281.11922	9290.325
2283.996	9282.425
2286.87094	9285.125
2289.74405	9290.825
2292.61534	9255.525
2295.4848	9244.325
2298.35243	9249.425
2301.21824	9262.125
2304.08223	9264.425
2306.94439	9274.425
2309.80474	9272.025
2312.66327	9286.125
2315.51999	9294.425
2318.37489	9263.825
2321.22797	9272.225
2324.07925	9264.425
2326.92871	9248.425
2329.77637	9257.825
2332.62222	9217.025
2335.46626	9220.825
2338.3085	9228.125
2341.14893	9235.525
2343.98756	9239.325
2346.8244	9248.025
2349.65943	9227.325
2352.49267	9250.925
2355.32411	9213.425
2358.15376	9230.525
2360.98161	9226.125
2363.80768	9236.425
2366.63195	9201.725
2369.45444	9198.625
2372.27514	9202.725
2375.09405	9172.725
2377.91118	9164.925
2380.72652	9138.025
2383.54009	9097.625
2386.35187	9097.325
2389.16188	9050.325
2391.97011	9064.925
2394.77657	9054.725
2397.58125	9026.025
2400.38416	9025.325
2403.18529	9004.425
2405.98466	9003.325
2408.78226	8981.525
2411.57809	8964.125
2414.37216	8934.525
2417.16446	8943.525
2419.955	8916.725
2422.74378	8925.225
2425.5308	8914.625
2428.31606	8902.625
2431.09956	8892.525
2433.88131	8912.925
2436.6613	8914.725
2439.43954	8909.625
2442.21603	8882.725
2444.99077	8867.025
2447.76377	8892.425
2450.53501	8888.925
2453.30451	8880.225
2456.07226	8868.625
2458.83827	8870.725
2461.60254	8852.325
2464.36507	8858.625
2467.12586	8850.925
2469.88492	8842.225
2472.64224	8858.125
2475.39782	8875.825
2478.15167	8868.625
2480.90379	8860.625
2483.65417	8875.325
2486.40283	8890.125
2489.14976	8891.025
2491.89497	8910.825
2494.63845	8926.725
2497.3802	8900.225
2500.12024	8903.425
2502.85855	8895.425
2505.59514	8897.825
2508.33002	8869.625
2511.06318	8859.525
2513.79462	8857.025
2516.52435	8820.825
2519.25237	8830.625
2521.97867	8811.425
2524.70327	8829.025
2527.42616	8796.225
2530.14734	8790.125
2532.86681	8781.625
2535.58458	8798.725
2538.30065	8779.725
2541.01501	8784.425
2543.72768	8768.225
2546.43864	8766.025
2549.14791	8755.725
2551.85548	8735.825
2554.56136	8754.225
2557.26554	8732.925
2559.96803	8732.325
2562.66883	8750.725
2565.36794	8719.525
2568.06536	8708.125
2570.7611	8715.725
2573.45514	8665.925
2576.14751	8668.825
2578.83819	8676.825
2581.52719	8685.225
2584.21451	8664.325
2586.90015	8668.225
2589.58411	8656.525
2592.2664	8667.625
2594.94701	8640.025
2597.62594	8649.125
2600.30321	8658.925
2602.9788	8637.725
2605.65273	8634.325
2608.32498	8651.825
2610.99557	8617.425
2613.66449	8646.825
2616.33175	8608.825
2618.99734	8641.025
2621.66128	8635.325
2624.32355	8647.725
2626.98416	8651.325
2629.64311	8627.925
2632.30041	8628.225
2634.95605	8616.625
2637.61004	8612.125
2640.26238	8611.425
2642.91306	8608.125
2645.56209	8574.725
2648.20948	8596.225
2650.85521	8565.325
2653.4993	8568.425
2656.14175	8572.425
2658.78255	8586.125
2661.42171	8596.125
2664.05923	8595.325
2666.6951	8581.625
2669.32934	8605.825
2671.96194	8621.225
2674.59291	8602.625
2677.22224	8628.125
2679.84993	8627.325
2682.476	8589.625
2685.10043	8598.225
2687.72324	8596.525
2690.34441	8585.725
2692.96396	8560.525
2695.58188	8614.725
2698.19818	8574.625
2700.81285	8573.025
2703.4259	8582.825
2706.03733	8559.025
2708.64714	8558.325
2711.25533	8594.925
2713.86191	8575.225
2716.46687	8603.125
2719.07021	8610.625
2721.67194	8619.225
2724.27206	8607.725
2726.87057	8615.925
2729.46747	8626.525
2732.06276	8633.925
2734.65644	8621.925
2737.24852	8612.725
2739.83899	8599.425
2742.42786	8624.425
2745.01513	8596.325
2747.60079	8604.525
2750.18486	8600.625
2752.76733	8585.925
2755.3482	8573.825
2757.92747	8574.725
2760.50515	8577.025
2763.08123	8594.325
2765.65573	8583.625
2768.22863	8590.425
2770.79994	8561.325
2773.36967	8554.025
2775.9378	8550.325
2778.50435	8582.925
2781.06932	8547.425
2783.6327	8540.025
2786.1945	8530.825
2788.75471	8537.525
2791.31335	8533.725
2793.87041	8511.825
2796.42589	8491.625
2798.97979	8478.625
2801.53212	8470.525
2804.08288	8467.125
2806.63206	8453.225
2809.17967	8415.925
2811.72571	8391.225
2814.27018	8395.025
2816.81308	8397.725
2819.35442	8392.825
2821.89419	8395.325
2824.43239	8396.225
2826.96904	8406.825
2829.50412	8403.425
2832.03763	8407.125
2834.56959	8403.925
2837.1	8396.525
2839.62884	8391.725
2842.15613	8375.425
2844.68186	8402.125
2847.20604	8417.325
2849.72867	8397.925
2852.24974	8408.725
2854.76927	8408.225
2857.28724	8367.825
2859.80367	8373.125
2862.31855	8352.025
2864.83189	8353.925
2867.34368	8336.225
2869.85393	8353.425
2872.36264	8349.525
2874.8698	8339.325
2877.37543	8337.125
2879.87952	8330.125
2882.38207	8317.225
2884.88308	8333.425
2887.38256	8334.825
2889.88051	8346.725
2892.37692	8340.225
2894.8718	8351.725
2897.36515	8356.125
2899.85698	8348.525
2902.34727	8374.625
2904.83604	8360.525
2907.32328	8401.825
2909.809	8382.225
2912.29319	8398.525
2914.77587	8401.825
2917.25702	8394.025
2919.73665	8368.525
2922.21476	8371.225
2924.69136	8373.325
2927.16644	8386.225
2929.64	8366.625
2932.11205	8351.925
2934.58258	8335.525
2937.05161	8348.025
2939.51912	8341.825
2941.98513	8338.725
2944.44962	8300.125
2946.91261	8289.125
2949.37409	8281.625
2951.83407	8272.825
2954.29254	8290.525
2956.74951	8282.225
2959.20498	8253.725
2961.65895	8260.025
2964.11142	8252.625
2966.56239	8234.325
2969.01186	8224.625
2971.45984	8226.225
2973.90632	8197.525
2976.35131	8190.325
2978.7948	8181.925
2981.23681	8173.525
2983.67732	8164.725
2986.11635	8143.125
2988.55388	8116.825
2990.98993	8121.625
2993.4245	8113.325
2995.85758	8072.025
2998.28917	8073.525
3000.71928	8077.725
3003.14791	8034.025
3005.57506	8035.525
3008.00073	8016.825
3010.42493	8012.725
3012.84764	7988.625
3015.26888	8002.125
3017.68865	8005.925
3020.10694	7999.025
3022.52376	7969.625
3024.9391	7961.525
3027.35298	7944.625
3029.76539	7957.225
3032.17632	7937.825
3034.5858	7920.425
3036.9938	7922.625
3039.40034	7923.625
3041.80542	7928.625
3044.20903	7891.025
3046.61118	7906.225
3049.01187	7894.725
3051.4111	7888.725
3053.80888	7884.725
3056.20519	7833.625
3058.60005	7830.725
3060.99345	7801.525
3063.3854	7790.625
3065.7759	7770.925
3068.16494	7777.525
3070.55254	7743.925
3072.93868	7725.425
3075.32338	7726.325
3077.70662	7676.125
3080.08842	7687.525
3082.46878	7682.225
3084.84769	7674.725
3087.22515	7680.525
3089.60118	7659.625
3091.97576	7669.525
3094.3489	7674.225
3096.72061	7672.325
3099.09087	7673.325
3101.4597	7670.625
3103.82709	7681.325
3106.19305	7669.925
3108.55757	7673.925
3110.92066	7656.625
3113.28232	7635.625
3115.64255	7631.025
3118.00134	7615.325
3120.35871	7606.225
3122.71466	7590.425
3125.06917	7577.425
3127.42226	7546.025
3129.77393	7574.525
3132.12417	7567.825
3134.47299	7570.725
3136.82039	7567.525
3139.16636	7564.925
3141.51092	7575.025
3143.85406	7587.725
3146.19579	7568.725
3148.53609	7582.125
3150.87499	7614.625
3153.21246	7596.425
3155.54853	7611.725
3157.88318	7621.725
3160.21642	7627.925
3162.54826	7625.225
3164.87868	7597.925
3167.2077	7615.125
3169.5353	7624.025
3171.86151	7615.425
3174.18631	7631.525
3176.5097	7603.325
3178.83169	7596.225
