Data from AgNPs_FTO_APTES_UA_1uM_CRN_100uM_R6G_10uM_NaF_0.1M_Addition_RamanShift__25__16-49-49-796.txt Node

Date: Thu Jan 27 16:49:49 GMT 2022
User: TCL
Spectrometer: QEP01345
Trigger mode: 4
Integration Time (sec): 7.000000E0
Scans to average: 10
Electric dark correction enabled: true
Nonlinearity correction enabled: false
Boxcar width: 0
XAxis mode: Raman Shifts
Number of Pixels in Spectrum: 1044
>>>>>Begin Spectral Data<<<<<
46.04893	0.0875
50.45542	0.0875
54.85868	-1.5125
59.25871	-1.3125
63.6555	49.6875
68.04907	51.5875
72.43941	51.5875
76.82654	59.2875
81.21044	58.3875
85.59113	58.5875
89.96862	61.3875
94.34289	64.2875
98.71396	69.1875
103.08183	65.2875
107.4465	70.3875
111.80798	73.2875
116.16626	75.3875
120.52136	77.4875
124.87327	81.4875
129.222	79.2875
133.56755	81.8875
137.90993	90.7875
142.24913	96.6875
146.58517	108.1875
150.91804	120.6875
155.24774	138.6875
159.57429	169.9875
163.89768	218.6875
168.21792	285.2875
172.53501	385.9875
176.84895	531.6875
181.15975	742.3875
185.46741	1038.1875
189.77193	1429.3875
194.07331	1910.9875
198.37157	2463.8875
202.6667	3050.7875
206.9587	3629.9875
211.24758	4207.4875
215.53334	4779.3875
219.81599	5414.6875
224.09553	6086.6875
228.37195	6862.6875
232.64527	7676.5875
236.91549	8571.3875
241.18261	9412.1875
245.44663	10197.7875
249.70755	10886.7875
253.96539	11501.4875
258.22014	11998.9875
262.4718	12488.5875
266.72039	12819.9875
270.96589	13042.0875
275.20832	13120.8875
279.44768	13054.1875
283.68397	12978.5875
287.91719	12892.3875
292.14735	12868.4875
296.37445	12968.0875
300.59849	13143.3875
304.81948	13329.4875
309.03742	13362.3875
313.25231	13259.4875
317.46415	12781.8875
321.67296	12164.8875
325.87872	11721.1875
330.08145	11510.3875
334.28114	11486.9875
338.47781	11610.9875
342.67145	11839.5875
346.86207	12148.8875
351.04966	12539.8875
355.23424	13008.9875
359.4158	13369.3875
363.59435	13607.3875
367.76989	13721.9875
371.94243	13799.1875
376.11196	13844.4875
380.27849	13869.3875
384.44203	13888.7875
388.60257	13852.0875
392.76012	13856.2875
396.91468	13994.9875
401.06626	14244.9875
405.21485	14494.7875
409.36047	14380.8875
413.50311	14036.0875
417.64277	13657.7875
421.77947	13485.6875
425.9132	13462.1875
430.04396	13509.9875
434.17176	13582.0875
438.2966	13763.3875
442.41849	14034.6875
446.53742	14333.2875
450.6534	14710.2875
454.76644	15004.6875
458.87653	15122.2875
462.98368	15079.2875
467.08789	14937.1875
471.18916	14751.1875
475.2875	14576.5875
479.38291	14466.9875
483.4754	14324.3875
487.56496	14157.6875
491.6516	13933.7875
495.73531	13815.4875
499.81612	13738.5875
503.89401	13782.0875
507.96899	13870.1875
512.04106	13906.9875
516.11023	13977.8875
520.1765	14013.5875
524.23987	13902.5875
528.30034	13749.3875
532.35792	13579.4875
536.41261	13406.9875
540.46441	13290.6875
544.51333	13252.9875
548.55936	13390.5875
552.60252	13612.7875
556.64279	13911.9875
560.6802	14067.6875
564.71473	14193.2875
568.7464	14477.3875
572.7752	14760.7875
576.80114	14710.7875
580.82422	14582.0875
584.84444	14540.0875
588.86181	14587.5875
592.87633	14712.4875
596.888	14802.6875
600.89682	15039.1875
604.9028	15835.3875
608.90594	17925.4875
612.90624	20753.7875
616.90371	20097.9875
620.89834	16106.1875
624.89015	14250.9875
628.87913	13940.2875
632.86528	13989.3875
636.84862	13946.6875
640.82913	13791.6875
644.80683	13448.7875
648.78172	13160.4875
652.75379	13121.0875
656.72306	13360.5875
660.68952	13706.7875
664.65319	13709.9875
668.61405	13430.0875
672.57211	13230.6875
676.52738	13230.0875
680.47986	13227.0875
684.42955	13242.1875
688.37646	13166.5875
692.32058	13187.4875
696.26192	13280.4875
700.20048	13436.5875
704.13626	13476.0875
708.06928	13467.6875
711.99952	13376.6875
715.927	13343.5875
719.85171	13351.2875
723.77365	13337.9875
727.69284	13266.6875
731.60928	13161.9875
735.52295	13127.7875
739.43388	13179.9875
743.34206	13229.0875
747.24749	13271.8875
751.15017	13371.9875
755.05012	13546.0875
758.94733	13978.6875
762.8418	14753.6875
766.73354	16070.0875
770.62254	17508.4875
774.50882	18160.9875
778.39237	17518.5875
782.27321	15916.2875
786.15132	14531.5875
790.02671	13719.5875
793.89938	13350.5875
797.76935	13207.4875
801.6366	13129.9875
805.50115	13091.4875
809.36299	13049.7875
813.22213	13017.6875
817.07857	13018.8875
820.93231	13019.9875
824.78336	13022.0875
828.63172	13018.1875
832.47738	13054.2875
836.32036	13063.2875
840.16066	13061.2875
843.99827	13063.6875
847.8332	13053.0875
851.66546	12999.9875
855.49504	12953.0875
859.32195	12961.9875
863.1462	12938.0875
866.96777	12886.4875
870.78668	12868.4875
874.60293	12855.7875
878.41652	12866.1875
882.22745	12925.1875
886.03573	12962.2875
889.84136	12916.9875
893.64433	12877.7875
897.44466	12846.1875
901.24235	12815.8875
905.0374	12798.1875
908.8298	12790.4875
912.61957	12791.6875
916.40671	12862.2875
920.19121	13013.7875
923.97308	13062.8875
927.75233	13109.1875
931.52895	13174.6875
935.30295	13080.8875
939.07433	12872.7875
942.84309	12648.9875
946.60924	12541.1875
950.37278	12482.2875
954.13371	12403.5875
957.89203	12366.8875
961.64774	12345.8875
965.40086	12308.2875
969.15137	12254.0875
972.89929	12193.0875
976.64461	12180.0875
980.38733	12185.4875
984.12747	12205.2875
987.86502	12292.2875
991.59999	12411.6875
995.33237	12584.4875
999.06217	12861.9875
1002.78939	13217.9875
1006.51404	13401.8875
1010.23611	13588.5875
1013.95561	13675.3875
1017.67255	13722.9875
1021.38692	13639.7875
1025.09872	13490.9875
1028.80796	13549.9875
1032.51465	13752.9875
1036.21877	13993.8875
1039.92035	14047.7875
1043.61937	13926.5875
1047.31584	13675.1875
1051.00976	13437.5875
1054.70114	13316.2875
1058.38998	13323.3875
1062.07627	13373.0875
1065.76003	13462.4875
1069.44126	13527.2875
1073.11995	13579.8875
1076.79611	13638.0875
1080.46974	13748.2875
1084.14085	13833.0875
1087.80943	13985.0875
1091.47549	14077.5875
1095.13903	13997.0875
1098.80005	13814.4875
1102.45857	13539.6875
1106.11456	13417.7875
1109.76805	13428.7875
1113.41903	13564.5875
1117.06751	13749.4875
1120.71348	14014.0875
1124.35696	14264.3875
1127.99793	14515.4875
1131.63641	14552.6875
1135.2724	14293.1875
1138.90589	13960.3875
1142.5369	13724.8875
1146.16542	13647.0875
1149.79145	13616.6875
1153.415	13665.2875
1157.03607	13800.4875
1160.65467	14009.6875
1164.27079	14358.1875
1167.88443	14937.6875
1171.49561	15754.6875
1175.10432	16934.7875
1178.71056	18494.8875
1182.31434	19860.3875
1185.91565	20428.6875
1189.51451	20353.2875
1193.11091	19672.4875
1196.70485	18744.1875
1200.29634	17901.4875
1203.88538	17254.5875
1207.47197	16643.5875
1211.05612	16109.5875
1214.63782	15802.7875
1218.21708	15633.5875
1221.79391	15571.0875
1225.36829	15582.2875
1228.94024	15514.2875
1232.50976	15398.3875
1236.07685	15320.5875
1239.6415	15295.4875
1243.20374	15307.3875
1246.76355	15371.6875
1250.32093	15565.0875
1253.8759	15859.4875
1257.42845	16245.5875
1260.97859	16593.2875
1264.52631	16878.7875
1268.07163	17175.1875
1271.61453	17537.6875
1275.15503	17936.8875
1278.69312	18285.0875
1282.22882	18557.4875
1285.76211	18861.2875
1289.29301	19263.1875
1292.82151	19803.6875
1296.34761	20442.5875
1299.87133	21303.0875
1303.39266	22510.3875
1306.9116	24144.4875
1310.42815	25989.8875
1313.94233	27190.7875
1317.45412	27149.1875
1320.96354	26343.4875
1324.47058	25327.0875
1327.97525	24401.8875
1331.47754	23800.0875
1334.97747	23629.8875
1338.47502	23803.3875
1341.97022	24076.0875
1345.46305	24236.5875
1348.95352	24272.9875
1352.44163	24406.1875
1355.92738	25051.5875
1359.41078	26638.4875
1362.89183	28451.7875
1366.37053	28116.9875
1369.84688	25248.2875
1373.32088	22181.3875
1376.79254	20195.1875
1380.26186	19241.6875
1383.72883	18949.0875
1387.19347	18862.0875
1390.65578	18665.7875
1394.11575	18582.3875
1397.57339	18683.9875
1401.0287	19014.5875
1404.48168	19423.2875
1407.93234	19688.8875
1411.38068	19778.0875
1414.82669	19527.5875
1418.27039	18953.2875
1421.71177	18311.7875
1425.15083	17737.3875
1428.58758	17382.2875
1432.02203	17260.0875
1435.45416	17417.5875
1438.88399	17596.9875
1442.31151	17737.4875
1445.73673	17929.2875
1449.15965	18148.9875
1452.58027	18322.9875
1455.9986	18394.6875
1459.41463	18451.2875
1462.82837	18606.7875
1466.23982	18916.3875
1469.64898	19214.9875
1473.05586	19312.7875
1476.46045	19359.7875
1479.86276	19377.6875
1483.26279	19384.5875
1486.66054	19482.9875
1490.05602	19670.1875
1493.44922	19955.0875
1496.84016	20354.9875
1500.22882	20965.5875
1503.61521	21959.1875
1506.99934	23294.9875
1510.38121	24741.2875
1513.76081	25576.1875
1517.13816	25044.0875
1520.51324	23465.7875
1523.88607	21725.6875
1527.25665	20449.2875
1530.62498	19756.3875
1533.99105	19333.9875
1537.35488	19073.0875
1540.71647	18922.5875
1544.07581	18805.2875
1547.4329	18641.0875
1550.78776	18491.9875
1554.14038	18423.9875
1557.49077	18467.6875
1560.83892	18599.4875
1564.18484	18776.4875
1567.52853	18856.1875
1570.86999	18993.3875
1574.20922	19057.5875
1577.54624	19143.7875
1580.88103	18917.0875
1584.2136	18567.1875
1587.54395	18622.3875
1590.87208	19210.5875
1594.19801	20138.6875
1597.52172	21258.7875
1600.84321	21752.2875
1604.16251	21159.4875
1607.47959	19918.9875
1610.79447	18531.9875
1614.10715	17201.5875
1617.41763	16129.5875
1620.7259	15365.8875
1624.03199	14979.9875
1627.33587	14925.3875
1630.63757	15196.4875
1633.93707	15865.7875
1637.23439	16825.8875
1640.52951	18130.5875
1643.82246	19587.9875
1647.11321	20960.5875
1650.40179	21703.3875
1653.68819	21042.5875
1656.97241	19006.8875
1660.25446	16684.0875
1663.53433	14931.7875
1666.81203	13832.0875
1670.08756	13189.5875
1673.36092	12762.1875
1676.63211	12498.0875
1679.90115	12300.8875
1683.16801	12150.0875
1686.43272	11997.2875
1689.69527	11921.0875
1692.95567	11881.1875
1696.2139	11817.6875
1699.46999	11725.5875
1702.72392	11697.2875
1705.97571	11708.2875
1709.22535	11702.2875
1712.47284	11757.8875
1715.71819	11748.5875
1718.96139	11755.5875
1722.20246	11746.4875
1725.44139	11716.9875
1728.67818	11667.5875
1731.91284	11622.3875
1735.14537	11577.5875
1738.37576	11535.9875
1741.60403	11462.2875
1744.83017	11462.4875
1748.05418	11452.7875
1751.27607	11418.8875
1754.49584	11384.3875
1757.71349	11346.4875
1760.92903	11316.3875
1764.14244	11311.6875
1767.35375	11294.2875
1770.56294	11271.3875
1773.77002	11295.5875
1776.97499	11292.3875
1780.17785	11312.4875
1783.37861	11291.1875
1786.57727	11286.7875
1789.77382	11275.1875
1792.96828	11247.1875
1796.16064	11292.6875
1799.3509	11228.2875
1802.53907	11239.1875
1805.72514	11194.1875
1808.90913	11195.3875
1812.09102	11150.1875
1815.27083	11158.5875
1818.44856	11123.3875
1821.6242	11116.4875
1824.79776	11079.7875
1827.96924	11066.7875
1831.13864	11084.8875
1834.30597	11092.9875
1837.47122	11079.9875
1840.6344	11077.0875
1843.7955	11088.8875
1846.95454	11074.2875
1850.11151	11055.5875
1853.26642	11063.4875
1856.41926	11086.0875
1859.57004	11089.0875
1862.71876	11069.3875
1865.86542	11099.3875
1869.01003	11096.9875
1872.15258	11086.5875
1875.29308	11093.2875
1878.43152	11067.0875
1881.56792	11072.7875
1884.70227	11061.1875
1887.83457	11057.3875
1890.96482	11070.5875
1894.09304	11062.6875
1897.21921	11047.0875
1900.34335	11044.8875
1903.46544	11044.3875
1906.58551	11042.7875
1909.70353	11039.4875
1912.81953	11009.3875
1915.93349	11017.0875
1919.04543	11020.7875
1922.15534	10985.5875
1925.26322	11010.4875
1928.36908	10948.7875
1931.47292	10956.0875
1934.57473	10905.9875
1937.67453	10904.9875
1940.77232	10842.5875
1943.86808	10803.7875
1946.96184	10764.2875
1950.05358	10751.7875
1953.14331	10695.9875
1956.23103	10679.1875
1959.31675	10642.7875
1962.40046	10622.8875
1965.48217	10556.7875
1968.56188	10554.5875
1971.63959	10530.6875
1974.7153	10507.8875
1977.78901	10488.3875
1980.86073	10433.1875
1983.93046	10414.9875
1986.99819	10366.1875
1990.06394	10333.7875
1993.1277	10325.8875
1996.18947	10275.9875
1999.24925	10307.4875
2002.30706	10224.4875
2005.36288	10215.1875
2008.41672	10194.1875
2011.46859	10172.0875
2014.51848	10150.8875
2017.56639	10135.0875
2020.61233	10105.3875
2023.6563	10067.1875
2026.6983	10042.4875
2029.73833	10040.4875
2032.7764	10011.5875
2035.8125	9997.2875
2038.84664	9981.2875
2041.87881	9957.5875
2044.90903	9940.8875
2047.93729	9936.8875
2050.96359	9909.1875
2053.98794	9899.6875
2057.01034	9910.8875
2060.03078	9919.0875
2063.04927	9919.1875
2066.06582	9885.8875
2069.08042	9886.4875
2072.09307	9883.9875
2075.10378	9855.0875
2078.11255	9850.8875
2081.11938	9851.6875
2084.12426	9846.3875
2087.12722	9822.0875
2090.12824	9820.9875
2093.12732	9853.8875
2096.12447	9817.2875
2099.11969	9839.4875
2102.11299	9816.8875
2105.10435	9824.5875
2108.09379	9827.5875
2111.08131	9831.5875
2114.0669	9856.4875
2117.05057	9857.0875
2120.03233	9870.8875
2123.01216	9862.4875
2125.99008	9874.9875
2128.96609	9911.3875
2131.94018	9910.7875
2134.91236	9921.4875
2137.88263	9921.8875
2140.851	9913.9875
2143.81746	9952.1875
2146.78201	9916.1875
2149.74466	9940.8875
2152.7054	9942.2875
2155.66425	9945.0875
2158.6212	9925.7875
2161.57625	9890.9875
2164.52941	9937.0875
2167.48067	9912.7875
2170.43004	9924.0875
2173.37752	9910.2875
2176.32311	9939.6875
2179.26681	9920.2875
2182.20863	9942.8875
2185.14856	9920.0875
2188.08661	9898.6875
2191.02278	9955.5875
2193.95707	9956.1875
2196.88948	9900.3875
2199.82001	9900.6875
2202.74867	9910.7875
2205.67545	9892.6875
2208.60037	9910.3875
2211.52341	9883.4875
2214.44458	9861.6875
2217.36388	9861.0875
2220.28132	9875.3875
2223.1969	9832.9875
2226.11061	9829.5875
2229.02246	9833.5875
2231.93245	9777.3875
2234.84058	9782.0875
2237.74686	9754.0875
2240.65128	9742.6875
2243.55385	9716.0875
2246.45456	9738.4875
2249.35343	9691.5875
2252.25044	9692.2875
2255.14561	9682.7875
2258.03893	9700.1875
2260.93041	9643.8875
2263.82004	9645.6875
2266.70783	9632.8875
2269.59378	9590.5875
2272.4779	9579.8875
2275.36017	9533.2875
2278.24061	9538.5875
2281.11922	9542.6875
2283.996	9524.0875
2286.87094	9515.2875
2289.74405	9470.0875
2292.61534	9481.0875
2295.4848	9456.4875
2298.35243	9467.9875
2301.21824	9461.5875
2304.08223	9467.0875
2306.94439	9481.8875
2309.80474	9494.9875
2312.66327	9466.9875
2315.51999	9484.7875
2318.37489	9481.5875
2321.22797	9472.6875
2324.07925	9441.6875
2326.92871	9436.5875
2329.77637	9431.5875
2332.62222	9431.9875
2335.46626	9404.8875
2338.3085	9396.4875
2341.14893	9419.4875
2343.98756	9413.4875
2346.8244	9412.9875
2349.65943	9392.5875
2352.49267	9410.4875
2355.32411	9394.5875
2358.15376	9411.6875
2360.98161	9408.0875
2363.80768	9398.4875
2366.63195	9382.5875
2369.45444	9371.2875
2372.27514	9357.2875
2375.09405	9359.7875
2377.91118	9303.8875
2380.72652	9306.3875
2383.54009	9287.5875
2386.35187	9259.0875
2389.16188	9229.5875
2391.97011	9211.3875
2394.77657	9215.7875
2397.58125	9185.2875
2400.38416	9182.2875
2403.18529	9168.5875
2405.98466	9144.2875
2408.78226	9130.8875
2411.57809	9109.3875
2414.37216	9125.4875
2417.16446	9108.4875
2419.955	9103.0875
2422.74378	9092.0875
2425.5308	9069.3875
2428.31606	9094.1875
2431.09956	9081.1875
2433.88131	9070.8875
2436.6613	9058.5875
2439.43954	9045.0875
2442.21603	9069.9875
2444.99077	9049.7875
2447.76377	9050.0875
2450.53501	9032.9875
2453.30451	9050.2875
2456.07226	9013.7875
2458.83827	9022.8875
2461.60254	9013.1875
2464.36507	9002.0875
2467.12586	9009.0875
2469.88492	8975.0875
2472.64224	9011.3875
2475.39782	9004.4875
2478.15167	8989.1875
2480.90379	8991.6875
2483.65417	9048.3875
2486.40283	9028.0875
2489.14976	9048.5875
2491.89497	9033.9875
2494.63845	9022.8875
2497.3802	9032.4875
2500.12024	9027.3875
2502.85855	9020.9875
2505.59514	9011.2875
2508.33002	8999.6875
2511.06318	8997.5875
2513.79462	9006.1875
2516.52435	8942.6875
2519.25237	8974.5875
2521.97867	8936.5875
2524.70327	8945.4875
2527.42616	8933.5875
2530.14734	8922.1875
2532.86681	8925.2875
2535.58458	8909.8875
2538.30065	8871.5875
2541.01501	8893.2875
2543.72768	8899.3875
2546.43864	8875.8875
2549.14791	8873.9875
2551.85548	8856.7875
2554.56136	8820.9875
2557.26554	8825.0875
2559.96803	8823.3875
2562.66883	8820.8875
2565.36794	8804.7875
2568.06536	8824.3875
2570.7611	8790.7875
2573.45514	8784.5875
2576.14751	8767.6875
2578.83819	8756.4875
2581.52719	8785.3875
2584.21451	8735.3875
2586.90015	8759.2875
2589.58411	8736.1875
2592.2664	8765.0875
2594.94701	8702.7875
2597.62594	8740.4875
2600.30321	8722.3875
2602.9788	8706.3875
2605.65273	8696.4875
2608.32498	8695.1875
2610.99557	8684.7875
2613.66449	8702.6875
2616.33175	8704.6875
2618.99734	8701.5875
2621.66128	8701.6875
2624.32355	8714.0875
2626.98416	8698.5875
2629.64311	8687.5875
2632.30041	8685.2875
2634.95605	8667.4875
2637.61004	8647.9875
2640.26238	8673.4875
2642.91306	8636.0875
2645.56209	8623.2875
2648.20948	8611.4875
2650.85521	8601.6875
2653.4993	8613.2875
2656.14175	8619.1875
2658.78255	8620.9875
2661.42171	8615.8875
2664.05923	8660.5875
2666.6951	8644.0875
2669.32934	8654.5875
2671.96194	8636.7875
2674.59291	8645.0875
2677.22224	8644.7875
2679.84993	8646.2875
2682.476	8657.6875
2685.10043	8634.7875
2687.72324	8628.6875
2690.34441	8633.6875
2692.96396	8624.9875
2695.58188	8639.5875
2698.19818	8641.9875
2700.81285	8641.2875
2703.4259	8619.1875
2706.03733	8596.4875
2708.64714	8606.5875
2711.25533	8634.0875
2713.86191	8630.8875
2716.46687	8628.0875
2719.07021	8619.1875
2721.67194	8665.2875
2724.27206	8661.7875
2726.87057	8663.2875
2729.46747	8660.3875
2732.06276	8661.2875
2734.65644	8642.0875
2737.24852	8663.8875
2739.83899	8646.1875
2742.42786	8632.2875
2745.01513	8623.7875
2747.60079	8626.5875
2750.18486	8639.9875
2752.76733	8627.5875
2755.3482	8608.0875
2757.92747	8618.9875
2760.50515	8619.9875
2763.08123	8599.4875
2765.65573	8614.7875
2768.22863	8613.6875
2770.79994	8595.8875
2773.36967	8580.7875
2775.9378	8583.5875
2778.50435	8583.8875
2781.06932	8575.1875
2783.6327	8570.7875
2786.1945	8563.2875
2788.75471	8550.6875
2791.31335	8538.0875
2793.87041	8544.8875
2796.42589	8506.3875
2798.97979	8495.4875
2801.53212	8478.1875
2804.08288	8497.4875
2806.63206	8463.5875
2809.17967	8446.0875
2811.72571	8450.2875
2814.27018	8429.2875
2816.81308	8429.9875
2819.35442	8422.5875
2821.89419	8420.5875
2824.43239	8433.5875
2826.96904	8407.6875
2829.50412	8401.5875
2832.03763	8376.3875
2834.56959	8407.6875
2837.1	8371.8875
2839.62884	8380.8875
2842.15613	8404.1875
2844.68186	8410.1875
2847.20604	8448.1875
2849.72867	8453.1875
2852.24974	8409.0875
2854.76927	8440.3875
2857.28724	8382.4875
2859.80367	8389.5875
2862.31855	8387.3875
2864.83189	8398.1875
2867.34368	8368.1875
2869.85393	8361.0875
2872.36264	8345.7875
2874.8698	8341.0875
2877.37543	8345.7875
2879.87952	8345.6875
2882.38207	8332.3875
2884.88308	8333.6875
2887.38256	8345.5875
2889.88051	8329.1875
2892.37692	8353.4875
2894.8718	8346.9875
2897.36515	8382.0875
2899.85698	8365.9875
2902.34727	8383.5875
2904.83604	8402.0875
2907.32328	8381.8875
2909.809	8383.5875
2912.29319	8413.8875
2914.77587	8396.6875
2917.25702	8393.4875
2919.73665	8367.2875
2922.21476	8399.9875
2924.69136	8389.3875
2927.16644	8382.5875
2929.64	8372.4875
2932.11205	8347.4875
2934.58258	8331.0875
2937.05161	8353.0875
2939.51912	8342.9875
2941.98513	8331.6875
2944.44962	8286.0875
2946.91261	8284.3875
2949.37409	8271.7875
2951.83407	8274.6875
2954.29254	8275.3875
2956.74951	8263.2875
2959.20498	8269.5875
2961.65895	8260.5875
2964.11142	8245.9875
2966.56239	8220.3875
2969.01186	8229.2875
2971.45984	8195.1875
2973.90632	8196.5875
2976.35131	8173.0875
2978.7948	8168.8875
2981.23681	8159.5875
2983.67732	8142.6875
2986.11635	8113.5875
2988.55388	8102.2875
2990.98993	8115.7875
2993.4245	8088.7875
2995.85758	8074.3875
2998.28917	8060.2875
3000.71928	8051.2875
3003.14791	8040.6875
3005.57506	8026.8875
3008.00073	7999.2875
3010.42493	7974.4875
3012.84764	8000.9875
3015.26888	7987.7875
3017.68865	7988.4875
3020.10694	7958.3875
3022.52376	7949.2875
3024.9391	7939.6875
3027.35298	7922.1875
3029.76539	7941.6875
3032.17632	7910.6875
3034.5858	7898.4875
3036.9938	7923.7875
3039.40034	7895.2875
3041.80542	7886.1875
3044.20903	7852.4875
3046.61118	7867.8875
3049.01187	7866.2875
3051.4111	7857.4875
3053.80888	7856.9875
3056.20519	7826.6875
3058.60005	7806.3875
3060.99345	7779.6875
3063.3854	7756.3875
3065.7759	7740.7875
3068.16494	7726.0875
