Data from AgNPs_FTO_APTES_UA_1uM_CRN_10uM_R6G_50uM_NaF_0.1M_Addition_RamanShift__19__16-03-09-742.txt Node

Date: Thu Jan 27 16:03:09 GMT 2022
User: TCL
Spectrometer: QEP01345
Trigger mode: 4
Integration Time (sec): 7.000000E0
Scans to average: 10
Electric dark correction enabled: true
Nonlinearity correction enabled: false
Boxcar width: 0
XAxis mode: Raman Shifts
Number of Pixels in Spectrum: 1044
>>>>>Begin Spectral Data<<<<<
46.04893	1.0125
50.45542	0.4125
54.85868	-2.3875
59.25871	-1.0875
63.6555	42.0125
68.04907	45.8125
72.43941	47.4125
76.82654	50.2125
81.21044	51.8125
85.59113	51.2125
89.96862	54.0125
94.34289	57.4125
98.71396	60.7125
103.08183	59.5125
107.4465	67.8125
111.80798	64.5125
116.16626	64.3125
120.52136	68.6125
124.87327	68.1125
129.222	69.0125
133.56755	71.3125
137.90993	74.9125
142.24913	84.5125
146.58517	93.6125
150.91804	105.5125
155.24774	122.7125
159.57429	147.2125
163.89768	181.9125
168.21792	240.5125
172.53501	323.6125
176.84895	447.0125
181.15975	619.1125
185.46741	869.8125
189.77193	1192.4125
194.07331	1593.2125
198.37157	2047.7125
202.6667	2531.5125
206.9587	3016.1125
211.24758	3458.7125
215.53334	3930.1125
219.81599	4419.4125
224.09553	4961.2125
228.37195	5562.7125
232.64527	6220.2125
236.91549	6911.3125
241.18261	7596.3125
245.44663	8266.8125
249.70755	8868.0125
253.96539	9422.0125
258.22014	9868.5125
262.4718	10244.7125
266.72039	10511.6125
270.96589	10655.8125
275.20832	10710.9125
279.44768	10676.8125
283.68397	10607.7125
287.91719	10553.6125
292.14735	10539.9125
296.37445	10541.0125
300.59849	10588.3125
304.81948	10576.9125
309.03742	10546.6125
313.25231	10374.0125
317.46415	10130.6125
321.67296	9859.6125
325.87872	9648.1125
330.08145	9513.9125
334.28114	9504.2125
338.47781	9580.6125
342.67145	9675.8125
346.86207	9811.3125
351.04966	9992.1125
355.23424	10159.6125
359.4158	10269.3125
363.59435	10374.3125
367.76989	10470.7125
371.94243	10532.5125
376.11196	10588.5125
380.27849	10653.5125
384.44203	10711.4125
388.60257	10816.0125
392.76012	10918.1125
396.91468	11053.6125
401.06626	11213.8125
405.21485	11302.8125
409.36047	11265.9125
413.50311	11153.3125
417.64277	11045.9125
421.77947	11031.4125
425.9132	11078.8125
430.04396	11160.9125
434.17176	11216.7125
438.2966	11338.4125
442.41849	11500.7125
446.53742	11757.9125
450.6534	12066.2125
454.76644	12308.0125
458.87653	12434.1125
462.98368	12441.7125
467.08789	12361.7125
471.18916	12219.3125
475.2875	12144.2125
479.38291	12139.1125
483.4754	12058.3125
487.56496	11903.3125
491.6516	11697.6125
495.73531	11505.7125
499.81612	11410.7125
503.89401	11456.6125
507.96899	11484.7125
512.04106	11451.1125
516.11023	11361.0125
520.1765	11257.8125
524.23987	11169.0125
528.30034	11053.6125
532.35792	10943.6125
536.41261	10852.0125
540.46441	10772.4125
544.51333	10791.1125
548.55936	10919.6125
552.60252	11180.6125
556.64279	11415.9125
560.6802	11548.7125
564.71473	11637.5125
568.7464	11793.0125
572.7752	12012.7125
576.80114	12229.4125
580.82422	12437.2125
584.84444	12603.1125
588.86181	12735.4125
592.87633	12904.3125
596.888	13008.5125
600.89682	13044.5125
604.9028	13290.2125
608.90594	14044.4125
612.90624	14682.9125
616.90371	13846.0125
620.89834	12034.5125
624.89015	11333.8125
628.87913	11375.9125
632.86528	11441.8125
636.84862	11347.0125
640.82913	11176.6125
644.80683	10912.2125
648.78172	10678.7125
652.75379	10606.3125
656.72306	10651.9125
660.68952	10761.4125
664.65319	10719.1125
668.61405	10587.5125
672.57211	10541.8125
676.52738	10546.7125
680.47986	10546.0125
684.42955	10528.7125
688.37646	10483.4125
692.32058	10509.0125
696.26192	10556.2125
700.20048	10698.4125
704.13626	10755.3125
708.06928	10731.7125
711.99952	10697.5125
715.927	10649.4125
719.85171	10643.1125
723.77365	10653.8125
727.69284	10547.3125
731.60928	10462.8125
735.52295	10443.0125
739.43388	10418.0125
743.34206	10436.2125
747.24749	10491.0125
751.15017	10592.3125
755.05012	10774.0125
758.94733	11030.9125
762.8418	11521.5125
766.73354	12251.0125
770.62254	12922.4125
774.50882	13018.8125
778.39237	12447.8125
782.27321	11660.6125
786.15132	11027.0125
790.02671	10659.2125
793.89938	10500.0125
797.76935	10438.2125
801.6366	10425.1125
805.50115	10404.1125
809.36299	10334.4125
813.22213	10271.2125
817.07857	10227.2125
820.93231	10190.3125
824.78336	10173.7125
828.63172	10131.5125
832.47738	10110.6125
836.32036	10160.5125
840.16066	10196.5125
843.99827	10247.1125
847.8332	10197.1125
851.66546	10154.5125
855.49504	10105.0125
859.32195	10104.0125
863.1462	10067.9125
866.96777	10045.3125
870.78668	10038.4125
874.60293	9998.9125
878.41652	9994.9125
882.22745	10019.3125
886.03573	10063.3125
889.84136	10067.6125
893.64433	10025.0125
897.44466	9967.0125
901.24235	9939.0125
905.0374	9921.0125
908.8298	9881.8125
912.61957	9914.9125
916.40671	10009.8125
920.19121	10183.5125
923.97308	10280.0125
927.75233	10289.1125
931.52895	10252.9125
935.30295	10149.1125
939.07433	9959.5125
942.84309	9803.4125
946.60924	9732.9125
950.37278	9726.9125
954.13371	9674.9125
957.89203	9625.0125
961.64774	9626.6125
965.40086	9578.7125
969.15137	9557.9125
972.89929	9486.6125
976.64461	9424.8125
980.38733	9435.0125
984.12747	9472.2125
987.86502	9537.8125
991.59999	9664.2125
995.33237	9864.5125
999.06217	10163.0125
1002.78939	10511.8125
1006.51404	10633.7125
1010.23611	10667.5125
1013.95561	10723.6125
1017.67255	10735.9125
1021.38692	10677.8125
1025.09872	10590.9125
1028.80796	10704.1125
1032.51465	11053.9125
1036.21877	11395.5125
1039.92035	11441.4125
1043.61937	11232.3125
1047.31584	10936.7125
1051.00976	10642.1125
1054.70114	10502.8125
1058.38998	10507.0125
1062.07627	10583.5125
1065.76003	10611.7125
1069.44126	10667.5125
1073.11995	10761.9125
1076.79611	10841.7125
1080.46974	10887.7125
1084.14085	10946.7125
1087.80943	11003.0125
1091.47549	11059.2125
1095.13903	11094.8125
1098.80005	10969.8125
1102.45857	10792.3125
1106.11456	10634.1125
1109.76805	10564.3125
1113.41903	10584.3125
1117.06751	10659.2125
1120.71348	10723.0125
1124.35696	10824.1125
1127.99793	10908.4125
1131.63641	11008.4125
1135.2724	10957.8125
1138.90589	10925.4125
1142.5369	10887.2125
1146.16542	10910.9125
1149.79145	10968.5125
1153.415	11057.6125
1157.03607	11217.6125
1160.65467	11513.8125
1164.27079	11955.4125
1167.88443	12508.5125
1171.49561	13273.8125
1175.10432	14165.8125
1178.71056	15305.7125
1182.31434	16361.8125
1185.91565	16969.5125
1189.51451	17054.1125
1193.11091	16633.8125
1196.70485	16006.3125
1200.29634	15347.7125
1203.88538	14802.9125
1207.47197	14460.2125
1211.05612	14183.3125
1214.63782	13944.6125
1218.21708	13760.3125
1221.79391	13563.3125
1225.36829	13422.3125
1228.94024	13315.8125
1232.50976	13030.9125
1236.07685	12810.9125
1239.6415	12666.1125
1243.20374	12625.2125
1246.76355	12710.5125
1250.32093	12878.7125
1253.8759	13148.0125
1257.42845	13480.1125
1260.97859	13811.6125
1264.52631	14141.9125
1268.07163	14493.1125
1271.61453	14902.5125
1275.15503	15382.8125
1278.69312	15934.2125
1282.22882	16414.9125
1285.76211	16791.6125
1289.29301	17172.4125
1292.82151	17777.8125
1296.34761	18581.6125
1299.87133	19604.9125
1303.39266	20781.9125
1306.9116	22017.2125
1310.42815	23186.9125
1313.94233	23847.1125
1317.45412	23844.1125
1320.96354	23469.3125
1324.47058	22996.7125
1327.97525	22620.1125
1331.47754	22330.2125
1334.97747	22153.9125
1338.47502	22115.3125
1341.97022	22071.2125
1345.46305	21850.2125
1348.95352	21509.8125
1352.44163	21129.6125
1355.92738	21034.1125
1359.41078	21474.7125
1362.89183	21911.9125
1366.37053	21529.4125
1369.84688	20058.5125
1373.32088	18248.2125
1376.79254	17003.4125
1380.26186	16501.0125
1383.72883	16493.8125
1387.19347	16592.9125
1390.65578	16597.6125
1394.11575	16623.4125
1397.57339	16834.1125
1401.0287	17199.7125
1404.48168	17525.2125
1407.93234	17568.9125
1411.38068	17247.4125
1414.82669	16664.3125
1418.27039	15923.7125
1421.71177	15191.2125
1425.15083	14616.1125
1428.58758	14301.7125
1432.02203	14250.2125
1435.45416	14486.4125
1438.88399	14901.7125
1442.31151	15315.5125
1445.73673	15626.3125
1449.15965	15909.9125
1452.58027	16149.4125
1455.9986	16292.9125
1459.41463	16433.1125
1462.82837	16641.2125
1466.23982	16922.8125
1469.64898	17151.8125
1473.05586	17260.2125
1476.46045	17274.9125
1479.86276	17107.7125
1483.26279	16820.0125
1486.66054	16602.3125
1490.05602	16479.2125
1493.44922	16503.4125
1496.84016	16568.6125
1500.22882	16692.4125
1503.61521	17003.4125
1506.99934	17463.3125
1510.38121	17912.8125
1513.76081	18085.5125
1517.13816	17885.8125
1520.51324	17463.7125
1523.88607	17067.4125
1527.25665	16826.7125
1530.62498	16760.6125
1533.99105	16761.8125
1537.35488	16663.6125
1540.71647	16523.5125
1544.07581	16225.9125
1547.4329	15886.4125
1550.78776	15613.5125
1554.14038	15417.0125
1557.49077	15293.5125
1560.83892	15206.9125
1564.18484	15158.4125
1567.52853	15134.7125
1570.86999	15241.1125
1574.20922	15426.2125
1577.54624	15647.9125
1580.88103	15782.8125
1584.2136	15941.8125
1587.54395	16374.0125
1590.87208	17039.8125
1594.19801	17961.3125
1597.52172	18944.5125
1600.84321	19303.0125
1604.16251	18570.6125
1607.47959	17245.0125
1610.79447	15818.3125
1614.10715	14541.3125
1617.41763	13469.8125
1620.7259	12678.5125
1624.03199	12235.3125
1627.33587	12189.6125
1630.63757	12486.1125
1633.93707	13189.3125
1637.23439	14283.6125
1640.52951	15849.8125
1643.82246	17560.1125
1647.11321	18851.6125
1650.40179	19078.1125
1653.68819	17950.6125
1656.97241	15902.0125
1660.25446	13806.8125
1663.53433	12194.7125
1666.81203	11114.2125
1670.08756	10418.6125
1673.36092	9976.4125
1676.63211	9704.6125
1679.90115	9512.6125
1683.16801	9330.9125
1686.43272	9216.7125
1689.69527	9126.7125
1692.95567	9025.0125
1696.2139	8960.0125
1699.46999	8936.5125
1702.72392	8858.7125
1705.97571	8838.8125
1709.22535	8843.9125
1712.47284	8850.5125
1715.71819	8836.3125
1718.96139	8824.0125
1722.20246	8789.8125
1725.44139	8789.7125
1728.67818	8740.0125
1731.91284	8703.8125
1735.14537	8635.2125
1738.37576	8601.1125
1741.60403	8584.0125
1744.83017	8556.1125
1748.05418	8521.4125
1751.27607	8501.8125
1754.49584	8493.1125
1757.71349	8464.8125
1760.92903	8423.3125
1764.14244	8391.8125
1767.35375	8403.2125
1770.56294	8393.8125
1773.77002	8370.9125
1776.97499	8374.2125
1780.17785	8395.4125
1783.37861	8416.4125
1786.57727	8369.4125
1789.77382	8388.1125
1792.96828	8355.6125
1796.16064	8346.9125
1799.3509	8308.6125
1802.53907	8320.3125
1805.72514	8301.9125
1808.90913	8269.5125
1812.09102	8265.8125
1815.27083	8232.1125
1818.44856	8226.8125
1821.6242	8224.0125
1824.79776	8196.3125
1827.96924	8196.9125
1831.13864	8183.2125
1834.30597	8210.5125
1837.47122	8190.4125
1840.6344	8186.2125
1843.7955	8169.6125
1846.95454	8170.5125
1850.11151	8181.6125
1853.26642	8158.7125
1856.41926	8153.3125
1859.57004	8179.1125
1862.71876	8152.0125
1865.86542	8169.8125
1869.01003	8164.7125
1872.15258	8147.6125
1875.29308	8141.6125
1878.43152	8142.8125
1881.56792	8113.1125
1884.70227	8109.2125
1887.83457	8105.5125
1890.96482	8102.8125
1894.09304	8104.8125
1897.21921	8081.1125
1900.34335	8077.4125
1903.46544	8094.7125
1906.58551	8071.7125
1909.70353	8064.8125
1912.81953	8059.9125
1915.93349	8040.6125
1919.04543	8039.7125
1922.15534	8015.3125
1925.26322	8011.7125
1928.36908	7971.4125
1931.47292	7964.1125
1934.57473	7949.6125
1937.67453	7929.9125
1940.77232	7920.4125
1943.86808	7894.0125
1946.96184	7849.0125
1950.05358	7823.4125
1953.14331	7823.1125
1956.23103	7776.8125
1959.31675	7766.6125
1962.40046	7737.9125
1965.48217	7738.7125
1968.56188	7717.4125
1971.63959	7683.4125
1974.7153	7664.0125
1977.78901	7629.5125
1980.86073	7635.1125
1983.93046	7599.6125
1986.99819	7578.5125
1990.06394	7544.2125
1993.1277	7517.3125
1996.18947	7490.9125
1999.24925	7484.6125
2002.30706	7466.1125
2005.36288	7440.4125
2008.41672	7432.2125
2011.46859	7411.2125
2014.51848	7377.1125
2017.56639	7368.1125
2020.61233	7373.5125
2023.6563	7350.9125
2026.6983	7328.8125
2029.73833	7306.9125
2032.7764	7315.8125
2035.8125	7292.9125
2038.84664	7279.1125
2041.87881	7261.4125
2044.90903	7255.0125
2047.93729	7248.1125
2050.96359	7241.9125
2053.98794	7234.5125
2057.01034	7237.7125
2060.03078	7230.1125
2063.04927	7243.7125
2066.06582	7224.7125
2069.08042	7241.3125
2072.09307	7218.0125
2075.10378	7203.2125
2078.11255	7190.0125
2081.11938	7214.3125
2084.12426	7193.5125
2087.12722	7176.8125
2090.12824	7178.4125
2093.12732	7190.1125
2096.12447	7188.6125
2099.11969	7177.4125
2102.11299	7183.3125
2105.10435	7189.4125
2108.09379	7172.1125
2111.08131	7196.0125
2114.0669	7204.1125
2117.05057	7222.7125
2120.03233	7196.5125
2123.01216	7192.0125
2125.99008	7225.6125
2128.96609	7238.8125
2131.94018	7238.9125
2134.91236	7239.8125
2137.88263	7248.1125
2140.851	7239.7125
2143.81746	7265.5125
2146.78201	7240.6125
2149.74466	7256.2125
2152.7054	7253.5125
2155.66425	7245.2125
2158.6212	7265.8125
2161.57625	7236.8125
2164.52941	7246.1125
2167.48067	7240.8125
2170.43004	7248.6125
2173.37752	7247.3125
2176.32311	7258.4125
2179.26681	7248.4125
2182.20863	7240.2125
2185.14856	7251.5125
2188.08661	7228.9125
2191.02278	7266.1125
2193.95707	7266.3125
2196.88948	7251.5125
2199.82001	7251.2125
2202.74867	7250.1125
2205.67545	7254.2125
2208.60037	7239.6125
2211.52341	7236.1125
2214.44458	7218.2125
2217.36388	7205.3125
2220.28132	7210.1125
2223.1969	7197.3125
2226.11061	7178.2125
2229.02246	7177.2125
2231.93245	7166.7125
2234.84058	7148.7125
2237.74686	7127.7125
2240.65128	7128.9125
2243.55385	7107.9125
2246.45456	7081.9125
2249.35343	7090.0125
2252.25044	7084.9125
2255.14561	7064.8125
2258.03893	7045.0125
2260.93041	7042.8125
2263.82004	7034.4125
2266.70783	7019.3125
2269.59378	6992.0125
2272.4779	6962.7125
2275.36017	6974.0125
2278.24061	6952.6125
2281.11922	6943.6125
2283.996	6947.7125
2286.87094	6951.5125
2289.74405	6922.7125
2292.61534	6905.4125
2295.4848	6916.7125
2298.35243	6924.0125
2301.21824	6921.1125
2304.08223	6927.7125
2306.94439	6927.2125
2309.80474	6939.1125
2312.66327	6935.1125
2315.51999	6927.1125
2318.37489	6928.9125
2321.22797	6928.3125
2324.07925	6908.7125
2326.92871	6908.1125
2329.77637	6906.8125
2332.62222	6888.1125
2335.46626	6879.3125
2338.3085	6883.5125
2341.14893	6890.9125
2343.98756	6911.6125
2346.8244	6909.2125
2349.65943	6892.3125
2352.49267	6896.2125
2355.32411	6896.8125
2358.15376	6881.8125
2360.98161	6898.8125
2363.80768	6878.7125
2366.63195	6867.0125
2369.45444	6879.0125
2372.27514	6831.9125
2375.09405	6830.3125
2377.91118	6814.5125
2380.72652	6813.9125
2383.54009	6778.1125
2386.35187	6780.8125
2389.16188	6759.2125
2391.97011	6750.4125
2394.77657	6728.4125
2397.58125	6747.5125
2400.38416	6721.9125
2403.18529	6722.8125
2405.98466	6704.4125
2408.78226	6706.4125
2411.57809	6691.9125
2414.37216	6680.9125
2417.16446	6676.6125
2419.955	6669.9125
2422.74378	6673.9125
2425.5308	6657.8125
2428.31606	6658.4125
2431.09956	6629.0125
2433.88131	6636.4125
2436.6613	6648.7125
2439.43954	6649.3125
2442.21603	6638.1125
2444.99077	6627.3125
2447.76377	6636.0125
2450.53501	6648.7125
2453.30451	6631.6125
2456.07226	6632.9125
2458.83827	6613.5125
2461.60254	6620.6125
2464.36507	6616.9125
2467.12586	6608.9125
2469.88492	6626.9125
2472.64224	6622.1125
2475.39782	6619.9125
2478.15167	6629.2125
2480.90379	6611.6125
2483.65417	6639.2125
2486.40283	6631.7125
2489.14976	6653.3125
2491.89497	6658.4125
2494.63845	6644.0125
2497.3802	6633.7125
2500.12024	6632.1125
2502.85855	6635.6125
2505.59514	6618.4125
2508.33002	6610.4125
2511.06318	6635.5125
2513.79462	6618.0125
2516.52435	6605.4125
2519.25237	6613.0125
2521.97867	6623.1125
2524.70327	6608.0125
2527.42616	6606.1125
2530.14734	6591.9125
2532.86681	6585.3125
2535.58458	6585.4125
2538.30065	6579.0125
2541.01501	6593.7125
2543.72768	6565.2125
2546.43864	6567.6125
2549.14791	6545.2125
2551.85548	6557.1125
2554.56136	6547.9125
2557.26554	6562.0125
2559.96803	6554.6125
2562.66883	6563.0125
2565.36794	6541.5125
2568.06536	6530.6125
2570.7611	6513.4125
2573.45514	6521.4125
2576.14751	6513.3125
2578.83819	6503.9125
2581.52719	6516.2125
2584.21451	6512.5125
2586.90015	6500.5125
2589.58411	6506.2125
2592.2664	6526.7125
2594.94701	6482.7125
2597.62594	6502.5125
2600.30321	6470.8125
2602.9788	6488.9125
2605.65273	6480.4125
2608.32498	6494.4125
2610.99557	6479.3125
2613.66449	6472.8125
2616.33175	6488.3125
2618.99734	6486.0125
2621.66128	6513.0125
2624.32355	6499.5125
2626.98416	6499.3125
2629.64311	6505.2125
2632.30041	6505.7125
2634.95605	6498.4125
2637.61004	6472.5125
2640.26238	6468.8125
2642.91306	6486.1125
2645.56209	6456.1125
2648.20948	6479.5125
2650.85521	6454.5125
2653.4993	6469.9125
2656.14175	6450.6125
2658.78255	6464.8125
2661.42171	6469.9125
2664.05923	6497.9125
2666.6951	6472.8125
2669.32934	6476.5125
2671.96194	6464.9125
2674.59291	6492.9125
2677.22224	6478.4125
2679.84993	6479.9125
2682.476	6458.4125
2685.10043	6456.9125
2687.72324	6452.8125
2690.34441	6432.2125
2692.96396	6438.7125
2695.58188	6441.0125
2698.19818	6444.5125
2700.81285	6457.3125
2703.4259	6453.6125
2706.03733	6428.7125
2708.64714	6435.4125
2711.25533	6456.0125
2713.86191	6456.1125
2716.46687	6484.0125
2719.07021	6467.0125
2721.67194	6488.1125
2724.27206	6477.3125
2726.87057	6490.8125
2729.46747	6506.5125
2732.06276	6484.3125
2734.65644	6485.6125
2737.24852	6474.5125
2739.83899	6495.2125
2742.42786	6480.9125
2745.01513	6469.2125
2747.60079	6466.5125
2750.18486	6479.1125
2752.76733	6473.7125
2755.3482	6487.3125
2757.92747	6477.9125
2760.50515	6462.6125
2763.08123	6465.4125
2765.65573	6460.8125
2768.22863	6461.9125
2770.79994	6454.2125
2773.36967	6457.7125
2775.9378	6472.2125
2778.50435	6458.3125
2781.06932	6453.8125
2783.6327	6477.1125
2786.1945	6460.5125
2788.75471	6460.1125
2791.31335	6435.7125
2793.87041	6445.7125
2796.42589	6425.0125
2798.97979	6428.5125
2801.53212	6403.7125
2804.08288	6408.3125
2806.63206	6398.8125
2809.17967	6387.5125
2811.72571	6364.2125
2814.27018	6375.9125
2816.81308	6370.0125
2819.35442	6348.8125
2821.89419	6338.8125
2824.43239	6343.0125
2826.96904	6337.0125
2829.50412	6353.2125
2832.03763	6328.0125
2834.56959	6338.2125
2837.1	6312.4125
2839.62884	6333.0125
2842.15613	6324.4125
2844.68186	6323.8125
2847.20604	6333.1125
2849.72867	6357.4125
2852.24974	6340.1125
2854.76927	6339.1125
2857.28724	6309.6125
2859.80367	6321.9125
2862.31855	6320.1125
2864.83189	6320.2125
2867.34368	6299.0125
2869.85393	6302.2125
2872.36264	6287.8125
2874.8698	6317.6125
2877.37543	6304.4125
2879.87952	6309.9125
2882.38207	6299.2125
2884.88308	6284.2125
2887.38256	6304.3125
2889.88051	6295.4125
2892.37692	6316.0125
2894.8718	6317.7125
2897.36515	6321.7125
2899.85698	6332.1125
2902.34727	6348.9125
2904.83604	6351.1125
2907.32328	6354.1125
2909.809	6363.2125
2912.29319	6375.2125
2914.77587	6380.7125
2917.25702	6366.9125
2919.73665	6366.3125
2922.21476	6366.7125
2924.69136	6357.5125
2927.16644	6367.2125
2929.64	6358.5125
2932.11205	6353.9125
2934.58258	6318.6125
2937.05161	6329.6125
2939.51912	6345.6125
2941.98513	6331.9125
2944.44962	6324.1125
2946.91261	6287.1125
2949.37409	6286.1125
2951.83407	6294.3125
2954.29254	6295.5125
2956.74951	6296.0125
2959.20498	6288.2125
2961.65895	6279.0125
2964.11142	6287.1125
2966.56239	6261.4125
2969.01186	6271.0125
2971.45984	6257.2125
2973.90632	6238.3125
2976.35131	6233.1125
2978.7948	6228.7125
2981.23681	6217.5125
2983.67732	6206.0125
2986.11635	6197.4125
2988.55388	6185.3125
2990.98993	6172.0125
2993.4245	6151.7125
2995.85758	6166.3125
2998.28917	6150.5125
3000.71928	6131.4125
3003.14791	6116.8125
3005.57506	6120.2125
3008.00073	6094.1125
3010.42493	6102.0125
3012.84764	6079.3125
3015.26888	6095.5125
3017.68865	6082.9125
3020.10694	6073.0125
3022.52376	6058.3125
3024.9391	6050.3125
3027.35298	6049.1125
3029.76539	6044.7125
3032.17632	6038.8125
3034.5858	6034.0125
3036.9938	6017.1125
3039.40034	6050.4125
3041.80542	6033.9125
3044.20903	6029.4125
3046.61118	6011.1125
3049.01187	6003.8125
3051.4111	6028.7125
3053.80888	6015.7125
3056.20519	5997.2125
3058.60005	5990.3125
3060.99345	5970.6125
3063.3854	5970.8125
3065.7759	5957.3125
3068.16494	5950.3125
3070.55254	5934.0125
3072.93868	5927.9125
3075.32338	5932.6125
3077.70662	5915.9125
3080.08842	5890.9125
3082.46878	5903.4125
3084.84769	5912.7125
