Data from AgNPs_FTO_APTES_UA_1uM_CRN_0uM_R6G_10uM_NaF_0.1M_Addition_RamanShift__52__12-06-19-472.txt Node

Date: Thu Jan 27 12:06:19 GMT 2022
User: TCL
Spectrometer: QEP01345
Trigger mode: 4
Integration Time (sec): 7.000000E0
Scans to average: 10
Electric dark correction enabled: true
Nonlinearity correction enabled: false
Boxcar width: 0
XAxis mode: Raman Shifts
Number of Pixels in Spectrum: 1044
>>>>>Begin Spectral Data<<<<<
46.04893	-0.525
50.45542	1.575
54.85868	-0.525
59.25871	-0.025
63.6555	30.975
68.04907	32.975
72.43941	36.175
76.82654	36.775
81.21044	39.175
85.59113	39.875
89.96862	45.075
94.34289	47.275
98.71396	46.875
103.08183	47.075
107.4465	49.275
111.80798	49.375
116.16626	47.875
120.52136	53.675
124.87327	49.175
129.222	49.775
133.56755	49.675
137.90993	52.375
142.24913	55.575
146.58517	58.775
150.91804	66.175
155.24774	73.675
159.57429	83.875
163.89768	99.275
168.21792	131.875
172.53501	172.375
176.84895	226.275
181.15975	303.975
185.46741	423.575
189.77193	580.275
194.07331	776.775
198.37157	992.675
202.6667	1221.075
206.9587	1448.175
211.24758	1685.175
215.53334	1927.375
219.81599	2196.475
224.09553	2521.375
228.37195	2860.175
232.64527	3236.775
236.91549	3599.475
241.18261	3920.375
245.44663	4161.175
249.70755	4353.975
253.96539	4508.275
258.22014	4668.775
262.4718	4804.175
266.72039	4923.875
270.96589	4991.875
275.20832	4982.175
279.44768	4934.975
283.68397	4842.275
287.91719	4803.875
292.14735	4817.875
296.37445	4917.275
300.59849	5153.475
304.81948	5441.675
309.03742	5659.775
313.25231	5671.675
317.46415	5390.675
321.67296	4898.375
325.87872	4499.575
330.08145	4307.775
334.28114	4285.875
338.47781	4364.875
342.67145	4514.275
346.86207	4758.875
351.04966	5090.775
355.23424	5510.575
359.4158	5832.475
363.59435	5977.075
367.76989	5964.375
371.94243	5942.775
376.11196	5894.275
380.27849	5817.175
384.44203	5740.575
388.60257	5616.275
392.76012	5573.875
396.91468	5631.375
401.06626	5794.875
405.21485	5938.875
409.36047	5821.375
413.50311	5481.875
417.64277	5131.275
421.77947	4936.975
425.9132	4841.175
430.04396	4841.875
434.17176	4847.475
438.2966	4942.375
442.41849	5105.575
446.53742	5309.975
450.6534	5501.075
454.76644	5635.875
458.87653	5634.475
462.98368	5548.875
467.08789	5401.675
471.18916	5249.975
475.2875	5095.075
479.38291	4986.275
483.4754	4881.375
487.56496	4819.275
491.6516	4742.575
495.73531	4702.675
499.81612	4721.975
503.89401	4793.175
507.96899	4887.475
512.04106	4971.275
516.11023	5069.075
520.1765	5164.775
524.23987	5133.075
528.30034	5029.175
532.35792	4873.675
536.41261	4724.275
540.46441	4575.075
544.51333	4510.375
548.55936	4528.675
552.60252	4628.875
556.64279	4799.775
560.6802	4862.075
564.71473	4945.675
568.7464	5226.675
572.7752	5412.975
576.80114	5272.675
580.82422	5029.875
584.84444	4952.075
588.86181	4961.075
592.87633	5003.675
596.888	5094.875
600.89682	5313.475
604.9028	5954.675
608.90594	7740.275
612.90624	10307.475
616.90371	10129.475
620.89834	6838.775
624.89015	5138.675
628.87913	4775.975
632.86528	4766.475
636.84862	4835.775
640.82913	4784.475
644.80683	4550.375
648.78172	4398.175
652.75379	4438.375
656.72306	4676.475
660.68952	5000.575
664.65319	4973.375
668.61405	4638.975
672.57211	4464.575
676.52738	4445.075
680.47986	4431.675
684.42955	4379.075
688.37646	4342.675
692.32058	4385.175
696.26192	4423.475
700.20048	4491.975
704.13626	4542.575
708.06928	4518.875
711.99952	4461.175
715.927	4440.175
719.85171	4456.875
723.77365	4441.875
727.69284	4400.175
731.60928	4338.075
735.52295	4340.475
739.43388	4367.075
743.34206	4420.375
747.24749	4438.375
751.15017	4490.875
755.05012	4585.975
758.94733	4836.775
762.8418	5403.075
766.73354	6439.775
770.62254	7579.175
774.50882	8248.175
778.39237	7994.675
782.27321	6863.275
786.15132	5674.675
790.02671	4949.475
793.89938	4652.675
797.76935	4516.475
801.6366	4462.775
805.50115	4434.675
809.36299	4378.475
813.22213	4360.375
817.07857	4345.875
820.93231	4340.675
824.78336	4367.575
828.63172	4402.875
832.47738	4416.875
836.32036	4398.375
840.16066	4360.475
843.99827	4334.675
847.8332	4303.975
851.66546	4310.575
855.49504	4313.075
859.32195	4289.075
863.1462	4265.675
866.96777	4236.975
870.78668	4228.075
874.60293	4238.275
878.41652	4252.875
882.22745	4294.275
886.03573	4329.275
889.84136	4293.375
893.64433	4272.075
897.44466	4267.175
901.24235	4276.275
905.0374	4254.475
908.8298	4225.875
912.61957	4227.975
916.40671	4235.275
920.19121	4275.875
923.97308	4331.375
927.75233	4387.875
931.52895	4458.475
935.30295	4414.575
939.07433	4284.275
942.84309	4141.875
946.60924	4057.675
950.37278	4012.175
954.13371	3994.475
957.89203	3962.775
961.64774	3945.575
965.40086	3940.375
969.15137	3926.975
972.89929	3904.875
976.64461	3911.175
980.38733	3908.475
984.12747	3909.575
987.86502	3925.975
991.59999	3948.975
995.33237	4003.175
999.06217	4109.975
1002.78939	4248.675
1006.51404	4364.975
1010.23611	4490.875
1013.95561	4549.675
1017.67255	4536.975
1021.38692	4446.075
1025.09872	4344.975
1028.80796	4269.775
1032.51465	4267.175
1036.21877	4310.375
1039.92035	4386.375
1043.61937	4425.675
1047.31584	4405.575
1051.00976	4366.675
1054.70114	4323.175
1058.38998	4284.575
1062.07627	4282.975
1065.76003	4301.975
1069.44126	4326.875
1073.11995	4413.875
1076.79611	4494.575
1080.46974	4581.875
1084.14085	4716.675
1087.80943	4876.375
1091.47549	4938.875
1095.13903	4830.775
1098.80005	4615.475
1102.45857	4417.375
1106.11456	4347.575
1109.76805	4369.175
1113.41903	4487.975
1117.06751	4671.775
1120.71348	4884.875
1124.35696	5143.875
1127.99793	5393.775
1131.63641	5401.375
1135.2724	5102.975
1138.90589	4797.675
1142.5369	4622.675
1146.16542	4501.275
1149.79145	4443.275
1153.415	4427.975
1157.03607	4478.175
1160.65467	4601.875
1164.27079	4789.175
1167.88443	5061.975
1171.49561	5558.275
1175.10432	6406.775
1178.71056	7550.475
1182.31434	8383.875
1185.91565	8593.775
1189.51451	8388.875
1193.11091	7843.675
1196.70485	7089.075
1200.29634	6494.775
1203.88538	6047.575
1207.47197	5561.975
1211.05612	5190.775
1214.63782	4961.575
1218.21708	4920.175
1221.79391	4965.175
1225.36829	5029.575
1228.94024	5093.975
1232.50976	5142.875
1236.07685	5143.275
1239.6415	5146.275
1243.20374	5119.875
1246.76355	5115.975
1250.32093	5145.275
1253.8759	5251.375
1257.42845	5405.875
1260.97859	5662.475
1264.52631	5872.875
1268.07163	6124.775
1271.61453	6322.575
1275.15503	6443.475
1278.69312	6506.875
1282.22882	6540.675
1285.76211	6687.775
1289.29301	6986.275
1292.82151	7249.075
1296.34761	7504.575
1299.87133	7838.075
1303.39266	8460.875
1306.9116	9468.575
1310.42815	10755.975
1313.94233	11619.875
1317.45412	11569.275
1320.96354	10847.275
1324.47058	9875.975
1327.97525	9074.775
1331.47754	8611.375
1334.97747	8388.975
1338.47502	8288.875
1341.97022	8352.375
1345.46305	8574.675
1348.95352	9059.975
1352.44163	9870.075
1355.92738	10969.575
1359.41078	12666.775
1362.89183	14396.575
1366.37053	14235.175
1369.84688	12071.875
1373.32088	9757.475
1376.79254	8217.775
1380.26186	7467.575
1383.72883	7100.075
1387.19347	6819.275
1390.65578	6496.075
1394.11575	6188.775
1397.57339	6077.175
1401.0287	6100.075
1404.48168	6216.075
1407.93234	6347.175
1411.38068	6429.675
1414.82669	6399.975
1418.27039	6260.875
1421.71177	6088.675
1425.15083	5951.175
1428.58758	5897.175
1432.02203	5907.475
1435.45416	5994.575
1438.88399	6055.975
1442.31151	6063.575
1445.73673	6046.375
1449.15965	6068.075
1452.58027	6024.775
1455.9986	5939.875
1459.41463	5898.675
1462.82837	5930.875
1466.23982	6057.675
1469.64898	6219.875
1473.05586	6308.075
1476.46045	6348.675
1479.86276	6442.175
1483.26279	6591.775
1486.66054	6755.775
1490.05602	6956.475
1493.44922	7294.975
1496.84016	7808.575
1500.22882	8609.875
1503.61521	9699.275
1506.99934	10966.875
1510.38121	12289.875
1513.76081	13028.575
1517.13816	12580.775
1520.51324	10959.575
1523.88607	9263.875
1527.25665	8055.275
1530.62498	7414.475
1533.99105	7033.475
1537.35488	6776.275
1540.71647	6618.575
1544.07581	6554.175
1547.4329	6473.975
1550.78776	6379.375
1554.14038	6336.875
1557.49077	6314.775
1560.83892	6444.475
1564.18484	6612.075
1567.52853	6837.775
1570.86999	7075.475
1574.20922	7254.175
1577.54624	7271.375
1580.88103	6940.275
1584.2136	6388.875
1587.54395	6096.275
1590.87208	6201.775
1594.19801	6622.175
1597.52172	7223.275
1600.84321	7603.075
1604.16251	7386.475
1607.47959	6854.575
1610.79447	6181.475
1614.10715	5548.975
1617.41763	5068.675
1620.7259	4768.675
1624.03199	4647.375
1627.33587	4646.275
1630.63757	4757.475
1633.93707	5039.675
1637.23439	5473.775
1640.52951	6151.775
1643.82246	7019.675
1647.11321	7980.375
1650.40179	8721.275
1653.68819	8537.075
1656.97241	7355.875
1660.25446	5942.175
1663.53433	4922.475
1666.81203	4320.675
1670.08756	4013.475
1673.36092	3815.175
1676.63211	3715.375
1679.90115	3649.075
1683.16801	3579.175
1686.43272	3515.675
1689.69527	3492.975
1692.95567	3447.475
1696.2139	3393.375
1699.46999	3346.475
1702.72392	3333.875
1705.97571	3334.875
1709.22535	3376.575
1712.47284	3399.575
1715.71819	3432.675
1718.96139	3453.175
1722.20246	3445.475
1725.44139	3430.975
1728.67818	3402.975
1731.91284	3357.875
1735.14537	3332.275
1738.37576	3297.775
1741.60403	3263.575
1744.83017	3259.975
1748.05418	3233.275
1751.27607	3208.175
1754.49584	3195.075
1757.71349	3170.875
1760.92903	3135.175
1764.14244	3124.775
1767.35375	3125.375
1770.56294	3129.375
1773.77002	3104.475
1776.97499	3122.275
1780.17785	3134.275
1783.37861	3130.675
1786.57727	3131.375
1789.77382	3136.475
1792.96828	3136.875
1796.16064	3116.975
1799.3509	3122.075
1802.53907	3119.875
1805.72514	3103.375
1808.90913	3093.475
1812.09102	3076.175
1815.27083	3075.075
1818.44856	3070.175
1821.6242	3058.975
1824.79776	3061.875
1827.96924	3054.775
1831.13864	3049.375
1834.30597	3050.175
1837.47122	3034.175
1840.6344	3018.575
1843.7955	3029.275
1846.95454	3028.475
1850.11151	3032.375
1853.26642	3024.475
1856.41926	3019.775
1859.57004	3043.175
1862.71876	3031.075
1865.86542	3026.775
1869.01003	3049.875
1872.15258	3043.175
1875.29308	3048.275
1878.43152	3047.975
1881.56792	3063.075
1884.70227	3044.675
1887.83457	3052.875
1890.96482	3052.875
1894.09304	3057.075
1897.21921	3072.375
1900.34335	3056.975
1903.46544	3067.275
1906.58551	3057.075
1909.70353	3061.975
1912.81953	3056.875
1915.93349	3055.175
1919.04543	3051.975
1922.15534	3049.575
1925.26322	3037.975
1928.36908	3016.675
1931.47292	3010.175
1934.57473	2977.675
1937.67453	2967.175
1940.77232	2949.875
1943.86808	2916.775
1946.96184	2910.675
1950.05358	2891.175
1953.14331	2896.375
1956.23103	2858.175
1959.31675	2850.375
1962.40046	2840.775
1965.48217	2828.075
1968.56188	2825.275
1971.63959	2819.575
1974.7153	2814.275
1977.78901	2806.275
1980.86073	2792.975
1983.93046	2781.875
1986.99819	2764.375
1990.06394	2749.375
1993.1277	2746.675
1996.18947	2748.775
1999.24925	2733.475
2002.30706	2720.475
2005.36288	2707.975
2008.41672	2706.075
2011.46859	2687.375
2014.51848	2675.875
2017.56639	2658.975
2020.61233	2659.175
2023.6563	2656.875
2026.6983	2645.175
2029.73833	2629.375
2032.7764	2630.575
2035.8125	2609.975
2038.84664	2623.675
2041.87881	2617.775
2044.90903	2595.175
2047.93729	2589.875
2050.96359	2592.975
2053.98794	2575.475
2057.01034	2570.575
2060.03078	2579.275
2063.04927	2587.275
2066.06582	2580.275
2069.08042	2572.275
2072.09307	2565.275
2075.10378	2561.275
2078.11255	2573.575
2081.11938	2578.775
2084.12426	2567.375
2087.12722	2560.375
2090.12824	2550.975
2093.12732	2560.075
2096.12447	2564.175
2099.11969	2553.575
2102.11299	2556.075
2105.10435	2550.775
2108.09379	2548.175
2111.08131	2555.575
2114.0669	2548.875
2117.05057	2550.275
2120.03233	2549.275
2123.01216	2546.075
2125.99008	2554.375
2128.96609	2547.775
2131.94018	2555.375
2134.91236	2545.775
2137.88263	2551.075
2140.851	2548.075
2143.81746	2544.675
2146.78201	2553.775
2149.74466	2538.275
2152.7054	2536.575
2155.66425	2525.775
2158.6212	2539.975
2161.57625	2519.675
2164.52941	2529.975
2167.48067	2521.175
2170.43004	2518.675
2173.37752	2526.475
2176.32311	2501.475
2179.26681	2524.375
2182.20863	2517.675
2185.14856	2527.175
2188.08661	2516.375
2191.02278	2518.575
2193.95707	2515.975
2196.88948	2511.475
2199.82001	2506.275
2202.74867	2493.075
2205.67545	2500.275
2208.60037	2500.875
2211.52341	2483.875
2214.44458	2483.375
2217.36388	2483.075
2220.28132	2468.775
2223.1969	2451.075
2226.11061	2450.675
2229.02246	2447.275
2231.93245	2440.775
2234.84058	2434.775
2237.74686	2425.975
2240.65128	2424.875
2243.55385	2426.975
2246.45456	2419.375
2249.35343	2418.975
2252.25044	2420.975
2255.14561	2412.375
2258.03893	2427.575
2260.93041	2414.575
2263.82004	2402.375
2266.70783	2395.375
2269.59378	2393.675
2272.4779	2382.075
2275.36017	2385.075
2278.24061	2371.975
2281.11922	2366.275
2283.996	2366.775
2286.87094	2364.175
2289.74405	2345.675
2292.61534	2346.775
2295.4848	2336.975
2298.35243	2327.275
2301.21824	2328.575
2304.08223	2328.175
2306.94439	2329.275
2309.80474	2331.175
2312.66327	2329.875
2315.51999	2329.475
2318.37489	2323.175
2321.22797	2310.475
2324.07925	2322.775
2326.92871	2317.375
2329.77637	2317.075
2332.62222	2304.675
2335.46626	2294.775
2338.3085	2285.775
2341.14893	2292.775
2343.98756	2296.775
2346.8244	2290.975
2349.65943	2305.475
2352.49267	2295.375
2355.32411	2300.775
2358.15376	2308.975
2360.98161	2310.175
2363.80768	2318.475
2366.63195	2313.575
2369.45444	2316.775
2372.27514	2310.975
2375.09405	2315.575
2377.91118	2300.775
2380.72652	2297.175
2383.54009	2278.975
2386.35187	2266.275
2389.16188	2244.675
2391.97011	2231.975
2394.77657	2241.575
2397.58125	2247.475
2400.38416	2220.375
2403.18529	2204.775
2405.98466	2213.975
2408.78226	2202.275
2411.57809	2203.275
2414.37216	2211.875
2417.16446	2188.675
2419.955	2195.075
2422.74378	2191.475
2425.5308	2186.275
2428.31606	2195.575
2431.09956	2187.275
2433.88131	2176.575
2436.6613	2185.875
2439.43954	2185.975
2442.21603	2174.175
2444.99077	2185.075
2447.76377	2183.175
2450.53501	2187.375
2453.30451	2185.775
2456.07226	2183.175
2458.83827	2180.775
2461.60254	2192.275
2464.36507	2182.075
2467.12586	2181.475
2469.88492	2184.975
2472.64224	2174.875
2475.39782	2180.975
2478.15167	2181.675
2480.90379	2178.775
2483.65417	2185.875
2486.40283	2198.175
2489.14976	2199.375
2491.89497	2194.375
2494.63845	2201.075
2497.3802	2186.875
2500.12024	2188.075
2502.85855	2188.975
2505.59514	2183.775
2508.33002	2172.575
2511.06318	2168.975
2513.79462	2158.875
2516.52435	2133.575
2519.25237	2155.575
2521.97867	2131.375
2524.70327	2130.075
2527.42616	2115.075
2530.14734	2116.675
2532.86681	2114.075
2535.58458	2118.375
2538.30065	2114.975
2541.01501	2124.375
2543.72768	2113.675
2546.43864	2113.775
2549.14791	2113.675
2551.85548	2115.875
2554.56136	2098.675
2557.26554	2107.275
2559.96803	2097.375
2562.66883	2089.475
2565.36794	2105.875
2568.06536	2097.675
2570.7611	2088.075
2573.45514	2088.575
2576.14751	2082.975
2578.83819	2075.175
2581.52719	2073.575
2584.21451	2075.575
2586.90015	2072.675
2589.58411	2069.775
2592.2664	2066.175
2594.94701	2057.775
2597.62594	2066.575
2600.30321	2062.775
2602.9788	2053.275
2605.65273	2054.675
2608.32498	2045.675
2610.99557	2054.575
2613.66449	2059.475
2616.33175	2054.075
2618.99734	2048.175
2621.66128	2050.775
2624.32355	2046.475
2626.98416	2057.675
2629.64311	2044.175
2632.30041	2044.675
2634.95605	2033.275
2637.61004	2032.775
2640.26238	2025.275
2642.91306	2018.475
2645.56209	2020.775
2648.20948	2013.075
2650.85521	2018.575
2653.4993	2018.675
2656.14175	2027.375
2658.78255	2021.675
2661.42171	2030.075
2664.05923	2032.875
2666.6951	2026.575
2669.32934	2032.975
2671.96194	2036.575
2674.59291	2035.375
2677.22224	2043.375
2679.84993	2041.875
2682.476	2039.775
2685.10043	2036.675
2687.72324	2053.475
2690.34441	2033.875
2692.96396	2039.675
2695.58188	2043.675
2698.19818	2043.775
2700.81285	2040.175
2703.4259	2039.475
2706.03733	2021.175
2708.64714	2018.875
2711.25533	2041.675
2713.86191	2046.175
2716.46687	2047.675
2719.07021	2059.175
2721.67194	2062.275
2724.27206	2070.675
2726.87057	2054.875
2729.46747	2063.975
2732.06276	2063.875
2734.65644	2056.175
2737.24852	2051.275
2739.83899	2040.775
2742.42786	2055.575
2745.01513	2029.275
2747.60079	2034.775
2750.18486	2025.475
2752.76733	2030.675
2755.3482	2024.575
2757.92747	2035.675
2760.50515	2023.975
2763.08123	2024.875
2765.65573	2021.275
2768.22863	2027.375
2770.79994	2022.975
2773.36967	2025.875
2775.9378	2024.875
2778.50435	2034.175
2781.06932	2032.375
2783.6327	2041.275
2786.1945	2028.875
2788.75471	2046.575
2791.31335	2041.675
2793.87041	2033.775
2796.42589	2028.075
2798.97979	2035.075
2801.53212	2035.875
2804.08288	2046.475
2806.63206	2051.175
2809.17967	2051.275
2811.72571	2064.775
2814.27018	2062.775
2816.81308	2076.475
2819.35442	2076.575
2821.89419	2081.975
2824.43239	2081.975
2826.96904	2088.075
2829.50412	2086.275
2832.03763	2092.775
2834.56959	2092.075
2837.1	2114.575
2839.62884	2109.975
2842.15613	2140.075
2844.68186	2184.375
2847.20604	2225.775
2849.72867	2259.975
2852.24974	2266.575
2854.76927	2271.675
2857.28724	2260.075
2859.80367	2254.275
2862.31855	2240.175
2864.83189	2234.075
2867.34368	2227.275
2869.85393	2225.975
2872.36264	2214.475
2874.8698	2218.575
2877.37543	2217.875
2879.87952	2205.375
2882.38207	2203.475
2884.88308	2201.275
2887.38256	2196.175
2889.88051	2191.775
2892.37692	2199.375
2894.8718	2185.375
2897.36515	2207.475
2899.85698	2199.775
2902.34727	2190.875
2904.83604	2202.775
2907.32328	2201.275
2909.809	2195.375
2912.29319	2192.775
2914.77587	2190.875
2917.25702	2188.875
2919.73665	2190.275
2922.21476	2178.075
2924.69136	2177.275
2927.16644	2174.275
2929.64	2166.975
2932.11205	2165.675
2934.58258	2147.175
2937.05161	2142.675
2939.51912	2130.175
2941.98513	2110.875
2944.44962	2080.775
2946.91261	2053.275
2949.37409	2029.975
2951.83407	1997.475
2954.29254	1996.775
2956.74951	1991.675
2959.20498	1980.375
2961.65895	1970.075
2964.11142	1973.975
2966.56239	1949.675
2969.01186	1941.475
2971.45984	1934.475
2973.90632	1927.975
2976.35131	1926.575
2978.7948	1914.175
2981.23681	1908.775
2983.67732	1906.775
2986.11635	1885.975
2988.55388	1876.675
2990.98993	1869.275
2993.4245	1872.375
2995.85758	1850.575
2998.28917	1849.375
3000.71928	1844.375
3003.14791	1835.875
3005.57506	1837.275
3008.00073	1833.275
3010.42493	1829.475
3012.84764	1836.675
3015.26888	1826.475
3017.68865	1834.975
3020.10694	1824.775
3022.52376	1812.075
3024.9391	1818.875
3027.35298	1809.975
3029.76539	1812.675
3032.17632	1809.675
3034.5858	1808.975
3036.9938	1812.575
3039.40034	1802.875
3041.80542	1811.575
3044.20903	1806.275
3046.61118	1791.375
3049.01187	1798.475
3051.4111	1789.475
3053.80888	1788.575
3056.20519	1799.475
3058.60005	1793.875
3060.99345	1788.475
3063.3854	1789.175
3065.7759	1775.075
3068.16494	1779.375
3070.55254	1779.075
3072.93868	1773.475
3075.32338	1771.475
3077.70662	1783.675
3080.08842	1759.075
3082.46878	1768.875
3084.84769	1762.475
3087.22515	1749.875
3089.60118	1754.975
3091.97576	1746.475
3094.3489	1754.775
3096.72061	1760.575
3099.09087	1750.475
3101.4597	1748.975
3103.82709	1743.775
3106.19305	1753.775
3108.55757	1762.775
3110.92066	1751.175
3113.28232	1745.775
3115.64255	1746.275
3118.00134	1751.375
3120.35871	1749.975
3122.71466	1745.175
3125.06917	1754.875
3127.42226	1749.875
3129.77393	1752.075
3132.12417	1758.775
3134.47299	1756.675
3136.82039	1760.975
3139.16636	1772.475
3141.51092	1770.675
3143.85406	1776.575
3146.19579	1785.075
3148.53609	1783.175
3150.87499	1799.975
3153.21246	1797.375
3155.54853	1796.375
3157.88318	1808.875
3160.21642	1804.875
3162.54826	1810.975
3164.87868	1818.675
3167.2077	1804.375
3169.5353	1818.975
3171.86151	1816.875
3174.18631	1825.775
3176.5097	1828.275
3178.83169	1839.075
3181.15228	1833.975
3183.47147	1836.875
3185.78926	1840.275
3188.10565	1845.775
3190.42065	1853.275
3192.73424	1842.975
3195.04645	1844.475
3197.35725	1857.875
3199.66667	1847.475
3201.97469	1849.975
3204.28132	1865.575
3206.58656	1871.675
3208.8904	1877.775
3211.19287	1869.375
3213.49394	1885.175
3215.79363	1884.975
3218.09193	1886.375
3220.38884	1876.475
3222.68438	1879.575
3224.97853	1874.275
3227.2713	1886.475
3229.56269	1876.275
3231.8527	1883.775
3234.14133	1882.975
