Data from AgNPs_FTO_APTES_UA_1uM_CRN_10uM_R6G_20uM_NaF_0.1M_Addition_RamanShift__25__15-26-59-701.txt Node

Date: Thu Jan 27 15:26:59 GMT 2022
User: TCL
Spectrometer: QEP01345
Trigger mode: 4
Integration Time (sec): 7.000000E0
Scans to average: 10
Electric dark correction enabled: true
Nonlinearity correction enabled: false
Boxcar width: 0
XAxis mode: Raman Shifts
Number of Pixels in Spectrum: 1044
>>>>>Begin Spectral Data<<<<<
46.04893	1.5125
50.45542	0.6125
54.85868	-0.8875
59.25871	-1.5875
63.6555	47.4125
68.04907	48.0125
72.43941	50.1125
76.82654	53.8125
81.21044	53.8125
85.59113	54.1125
89.96862	61.3125
94.34289	61.4125
98.71396	63.0125
103.08183	61.8125
107.4465	67.4125
111.80798	67.9125
116.16626	68.4125
120.52136	72.8125
124.87327	70.1125
129.222	70.8125
133.56755	77.7125
137.90993	82.2125
142.24913	85.3125
146.58517	95.1125
150.91804	108.2125
155.24774	122.6125
159.57429	149.7125
163.89768	186.0125
168.21792	241.2125
172.53501	327.1125
176.84895	437.3125
181.15975	611.9125
185.46741	858.6125
189.77193	1173.4125
194.07331	1569.4125
198.37157	2020.7125
202.6667	2486.4125
206.9587	2971.5125
211.24758	3429.7125
215.53334	3903.5125
219.81599	4427.9125
224.09553	4994.9125
228.37195	5644.9125
232.64527	6334.1125
236.91549	7067.9125
241.18261	7778.6125
245.44663	8402.6125
249.70755	8919.0125
253.96539	9396.5125
258.22014	9812.9125
262.4718	10163.9125
266.72039	10447.9125
270.96589	10627.8125
275.20832	10710.3125
279.44768	10673.0125
283.68397	10607.0125
287.91719	10565.8125
292.14735	10575.5125
296.37445	10675.3125
300.59849	10856.2125
304.81948	11026.2125
309.03742	11137.8125
313.25231	11012.2125
317.46415	10628.9125
321.67296	10071.8125
325.87872	9606.2125
330.08145	9391.9125
334.28114	9350.0125
338.47781	9499.9125
342.67145	9684.9125
346.86207	9960.7125
351.04966	10339.8125
355.23424	10790.8125
359.4158	11135.9125
363.59435	11316.7125
367.76989	11383.6125
371.94243	11409.5125
376.11196	11441.4125
380.27849	11417.2125
384.44203	11396.3125
388.60257	11370.4125
392.76012	11368.4125
396.91468	11502.1125
401.06626	11772.4125
405.21485	11940.7125
409.36047	11853.5125
413.50311	11458.3125
417.64277	11129.3125
421.77947	10990.3125
425.9132	10963.8125
430.04396	10997.1125
434.17176	11070.2125
438.2966	11171.4125
442.41849	11377.2125
446.53742	11681.6125
450.6534	11973.4125
454.76644	12232.5125
458.87653	12312.1125
462.98368	12302.0125
467.08789	12168.4125
471.18916	11969.9125
475.2875	11769.8125
479.38291	11636.4125
483.4754	11495.9125
487.56496	11343.0125
491.6516	11212.4125
495.73531	11105.1125
499.81612	11072.1125
503.89401	11169.0125
507.96899	11242.7125
512.04106	11268.5125
516.11023	11330.4125
520.1765	11332.8125
524.23987	11269.0125
528.30034	11108.9125
532.35792	10968.6125
536.41261	10804.8125
540.46441	10685.2125
544.51333	10629.3125
548.55936	10759.0125
552.60252	11014.7125
556.64279	11253.6125
560.6802	11413.5125
564.71473	11496.5125
568.7464	11740.0125
572.7752	12017.4125
576.80114	11947.8125
580.82422	11860.7125
584.84444	11811.6125
588.86181	11818.1125
592.87633	11867.0125
596.888	11984.8125
600.89682	12207.6125
604.9028	13030.6125
608.90594	15142.4125
612.90624	17798.2125
616.90371	17182.1125
620.89834	13393.9125
624.89015	11610.7125
628.87913	11315.5125
632.86528	11332.8125
636.84862	11351.7125
640.82913	11158.9125
644.80683	10816.4125
648.78172	10568.1125
652.75379	10561.1125
656.72306	10816.6125
660.68952	11147.9125
664.65319	11153.2125
668.61405	10836.3125
672.57211	10668.8125
676.52738	10660.8125
680.47986	10681.7125
684.42955	10640.5125
688.37646	10613.8125
692.32058	10661.8125
696.26192	10743.2125
700.20048	10844.0125
704.13626	10929.6125
708.06928	10897.5125
711.99952	10808.9125
715.927	10749.0125
719.85171	10781.6125
723.77365	10737.2125
727.69284	10679.3125
731.60928	10588.3125
735.52295	10562.4125
739.43388	10603.0125
743.34206	10619.9125
747.24749	10697.4125
751.15017	10806.7125
755.05012	10997.9125
758.94733	11410.7125
762.8418	12175.0125
766.73354	13449.0125
770.62254	14835.5125
774.50882	15390.2125
778.39237	14664.8125
782.27321	13226.7125
786.15132	11951.1125
790.02671	11187.3125
793.89938	10848.1125
797.76935	10696.5125
801.6366	10635.6125
805.50115	10580.6125
809.36299	10549.8125
813.22213	10513.3125
817.07857	10480.5125
820.93231	10496.5125
824.78336	10501.4125
828.63172	10540.2125
832.47738	10572.2125
836.32036	10574.9125
840.16066	10556.9125
843.99827	10561.6125
847.8332	10530.0125
851.66546	10504.0125
855.49504	10465.1125
859.32195	10462.6125
863.1462	10419.4125
866.96777	10395.7125
870.78668	10355.9125
874.60293	10361.5125
878.41652	10367.2125
882.22745	10429.9125
886.03573	10470.8125
889.84136	10447.6125
893.64433	10405.4125
897.44466	10363.2125
901.24235	10361.6125
905.0374	10334.3125
908.8298	10315.2125
912.61957	10324.6125
916.40671	10407.1125
920.19121	10517.6125
923.97308	10619.3125
927.75233	10698.6125
931.52895	10705.7125
935.30295	10645.3125
939.07433	10441.0125
942.84309	10266.9125
946.60924	10150.7125
950.37278	10101.2125
954.13371	10041.7125
957.89203	9964.2125
961.64774	9953.8125
965.40086	9933.6125
969.15137	9887.6125
972.89929	9845.3125
976.64461	9839.3125
980.38733	9838.0125
984.12747	9878.9125
987.86502	9972.6125
991.59999	10075.8125
995.33237	10233.7125
999.06217	10492.0125
1002.78939	10850.5125
1006.51404	11057.0125
1010.23611	11256.3125
1013.95561	11351.2125
1017.67255	11390.7125
1021.38692	11305.9125
1025.09872	11202.2125
1028.80796	11229.1125
1032.51465	11475.0125
1036.21877	11752.2125
1039.92035	11757.3125
1043.61937	11592.6125
1047.31584	11352.5125
1051.00976	11077.1125
1054.70114	10942.8125
1058.38998	10967.3125
1062.07627	11005.7125
1065.76003	11056.9125
1069.44126	11126.5125
1073.11995	11209.6125
1076.79611	11281.6125
1080.46974	11366.6125
1084.14085	11482.7125
1087.80943	11631.9125
1091.47549	11730.1125
1095.13903	11625.2125
1098.80005	11379.3125
1102.45857	11152.0125
1106.11456	10986.3125
1109.76805	11011.8125
1113.41903	11139.3125
1117.06751	11325.4125
1120.71348	11539.4125
1124.35696	11784.6125
1127.99793	12032.0125
1131.63641	12080.2125
1135.2724	11817.9125
1138.90589	11535.3125
1142.5369	11364.9125
1146.16542	11239.5125
1149.79145	11193.3125
1153.415	11230.9125
1157.03607	11340.7125
1160.65467	11541.2125
1164.27079	11878.7125
1167.88443	12387.0125
1171.49561	13134.6125
1175.10432	14273.5125
1178.71056	15778.0125
1182.31434	17044.6125
1185.91565	17605.9125
1189.51451	17536.7125
1193.11091	16852.3125
1196.70485	15943.2125
1200.29634	15081.5125
1203.88538	14436.3125
1207.47197	13825.1125
1211.05612	13309.9125
1214.63782	13040.0125
1218.21708	12943.9125
1221.79391	12978.2125
1225.36829	13062.1125
1228.94024	13084.7125
1232.50976	13032.1125
1236.07685	12988.5125
1239.6415	12924.7125
1243.20374	12886.3125
1246.76355	12950.4125
1250.32093	13110.3125
1253.8759	13333.0125
1257.42845	13717.8125
1260.97859	14077.0125
1264.52631	14378.6125
1268.07163	14664.0125
1271.61453	15002.9125
1275.15503	15366.1125
1278.69312	15693.8125
1282.22882	15983.5125
1285.76211	16256.5125
1289.29301	16594.5125
1292.82151	16972.6125
1296.34761	17490.3125
1299.87133	18218.3125
1303.39266	19283.3125
1306.9116	20780.3125
1310.42815	22516.7125
1313.94233	23714.2125
1317.45412	23752.8125
1320.96354	22978.4125
1324.47058	21983.2125
1327.97525	21080.5125
1331.47754	20496.4125
1334.97747	20257.0125
1338.47502	20378.0125
1341.97022	20608.7125
1345.46305	20798.0125
1348.95352	20894.4125
1352.44163	21120.2125
1355.92738	21792.9125
1359.41078	23428.3125
1362.89183	25239.0125
1366.37053	24979.4125
1369.84688	22287.8125
1373.32088	19407.3125
1376.79254	17538.9125
1380.26186	16643.1125
1383.72883	16291.0125
1387.19347	16038.8125
1390.65578	15771.0125
1394.11575	15625.9125
1397.57339	15681.1125
1401.0287	15938.2125
1404.48168	16255.3125
1407.93234	16537.6125
1411.38068	16666.5125
1414.82669	16522.3125
1418.27039	16083.0125
1421.71177	15595.9125
1425.15083	15111.2125
1428.58758	14807.2125
1432.02203	14740.2125
1435.45416	14837.3125
1438.88399	14945.7125
1442.31151	15061.6125
1445.73673	15185.0125
1449.15965	15384.8125
1452.58027	15462.5125
1455.9986	15437.0125
1459.41463	15476.1125
1462.82837	15600.5125
1466.23982	15847.9125
1469.64898	16117.1125
1473.05586	16325.2125
1476.46045	16441.6125
1479.86276	16508.0125
1483.26279	16601.7125
1486.66054	16775.8125
1490.05602	17017.0125
1493.44922	17375.6125
1496.84016	17825.5125
1500.22882	18478.3125
1503.61521	19463.7125
1506.99934	20701.4125
1510.38121	22018.2125
1513.76081	22850.0125
1517.13816	22390.9125
1520.51324	20881.0125
1523.88607	19221.2125
1527.25665	17992.7125
1530.62498	17223.0125
1533.99105	16744.4125
1537.35488	16454.4125
1540.71647	16273.9125
1544.07581	16164.5125
1547.4329	16015.4125
1550.78776	15884.1125
1554.14038	15838.9125
1557.49077	15912.2125
1560.83892	16052.2125
1564.18484	16196.6125
1567.52853	16305.4125
1570.86999	16376.9125
1574.20922	16440.2125
1577.54624	16414.4125
1580.88103	16135.6125
1584.2136	15803.2125
1587.54395	15791.6125
1590.87208	16292.7125
1594.19801	17195.4125
1597.52172	18232.4125
1600.84321	18710.4125
1604.16251	18125.7125
1607.47959	17026.7125
1610.79447	15756.8125
1614.10715	14611.6125
1617.41763	13683.9125
1620.7259	13016.7125
1624.03199	12715.7125
1627.33587	12669.8125
1630.63757	13002.7125
1633.93707	13603.3125
1637.23439	14478.5125
1640.52951	15649.3125
1643.82246	16877.2125
1647.11321	18034.7125
1650.40179	18669.8125
1653.68819	18078.7125
1656.97241	16240.1125
1660.25446	14108.1125
1663.53433	12568.0125
1666.81203	11633.6125
1670.08756	11030.1125
1673.36092	10645.3125
1676.63211	10409.3125
1679.90115	10264.8125
1683.16801	10121.4125
1686.43272	10042.6125
1689.69527	9960.6125
1692.95567	9887.3125
1696.2139	9818.0125
1699.46999	9773.9125
1702.72392	9720.4125
1705.97571	9738.8125
1709.22535	9777.7125
1712.47284	9790.4125
1715.71819	9808.4125
1718.96139	9809.1125
1722.20246	9796.0125
1725.44139	9779.1125
1728.67818	9735.5125
1731.91284	9691.2125
1735.14537	9634.9125
1738.37576	9597.4125
1741.60403	9540.7125
1744.83017	9516.6125
1748.05418	9513.5125
1751.27607	9469.7125
1754.49584	9449.1125
1757.71349	9436.2125
1760.92903	9400.6125
1764.14244	9370.3125
1767.35375	9389.7125
1770.56294	9389.8125
1773.77002	9367.6125
1776.97499	9391.8125
1780.17785	9406.7125
1783.37861	9400.2125
1786.57727	9412.4125
1789.77382	9388.1125
1792.96828	9386.1125
1796.16064	9372.4125
1799.3509	9375.2125
1802.53907	9367.8125
1805.72514	9341.5125
1808.90913	9320.0125
1812.09102	9278.2125
1815.27083	9288.3125
1818.44856	9285.8125
1821.6242	9270.4125
1824.79776	9264.3125
1827.96924	9255.2125
1831.13864	9247.7125
1834.30597	9224.7125
1837.47122	9224.9125
1840.6344	9232.4125
1843.7955	9237.4125
1846.95454	9221.9125
1850.11151	9244.5125
1853.26642	9248.4125
1856.41926	9260.5125
1859.57004	9257.6125
1862.71876	9262.0125
1865.86542	9256.4125
1869.01003	9273.0125
1872.15258	9287.5125
1875.29308	9260.9125
1878.43152	9265.5125
1881.56792	9282.5125
1884.70227	9288.7125
1887.83457	9271.9125
1890.96482	9266.1125
1894.09304	9261.9125
1897.21921	9290.2125
1900.34335	9296.7125
1903.46544	9275.3125
1906.58551	9300.0125
1909.70353	9305.0125
1912.81953	9291.1125
1915.93349	9295.6125
1919.04543	9290.0125
1922.15534	9271.0125
1925.26322	9264.8125
1928.36908	9219.7125
1931.47292	9216.3125
1934.57473	9152.8125
1937.67453	9139.2125
1940.77232	9092.0125
1943.86808	9067.7125
1946.96184	9028.8125
1950.05358	8990.7125
1953.14331	8947.5125
1956.23103	8935.3125
1959.31675	8894.7125
1962.40046	8862.7125
1965.48217	8857.1125
1968.56188	8821.8125
1971.63959	8801.0125
1974.7153	8785.1125
1977.78901	8748.8125
1980.86073	8730.1125
1983.93046	8696.9125
1986.99819	8643.2125
1990.06394	8639.6125
1993.1277	8601.2125
1996.18947	8569.7125
1999.24925	8575.7125
2002.30706	8559.3125
2005.36288	8539.5125
2008.41672	8518.2125
2011.46859	8468.3125
2014.51848	8462.4125
2017.56639	8443.2125
2020.61233	8438.8125
2023.6563	8411.3125
2026.6983	8369.2125
2029.73833	8361.4125
2032.7764	8354.3125
2035.8125	8340.6125
2038.84664	8341.1125
2041.87881	8329.8125
2044.90903	8318.3125
2047.93729	8272.7125
2050.96359	8297.0125
2053.98794	8261.4125
2057.01034	8266.8125
2060.03078	8276.6125
2063.04927	8260.6125
2066.06582	8249.1125
2069.08042	8257.6125
2072.09307	8220.5125
2075.10378	8223.9125
2078.11255	8220.7125
2081.11938	8235.2125
2084.12426	8229.1125
2087.12722	8209.7125
2090.12824	8206.8125
2093.12732	8193.3125
2096.12447	8210.1125
2099.11969	8219.2125
2102.11299	8209.3125
2105.10435	8223.3125
2108.09379	8232.0125
2111.08131	8217.2125
2114.0669	8223.1125
2117.05057	8228.5125
2120.03233	8252.7125
2123.01216	8232.1125
2125.99008	8267.5125
2128.96609	8281.9125
2131.94018	8279.2125
2134.91236	8279.4125
2137.88263	8277.2125
2140.851	8279.4125
2143.81746	8271.6125
2146.78201	8303.6125
2149.74466	8308.6125
2152.7054	8292.1125
2155.66425	8294.7125
2158.6212	8308.7125
2161.57625	8275.0125
2164.52941	8277.6125
2167.48067	8275.9125
2170.43004	8274.6125
2173.37752	8278.4125
2176.32311	8288.1125
2179.26681	8280.7125
2182.20863	8275.2125
2185.14856	8291.1125
2188.08661	8284.2125
2191.02278	8316.6125
2193.95707	8295.7125
2196.88948	8271.9125
2199.82001	8289.2125
2202.74867	8271.5125
2205.67545	8267.1125
2208.60037	8254.0125
2211.52341	8275.3125
2214.44458	8250.2125
2217.36388	8233.6125
2220.28132	8224.7125
2223.1969	8216.8125
2226.11061	8221.8125
2229.02246	8183.1125
2231.93245	8179.7125
2234.84058	8169.7125
2237.74686	8152.4125
2240.65128	8146.6125
2243.55385	8109.7125
2246.45456	8095.9125
2249.35343	8120.9125
2252.25044	8104.7125
2255.14561	8125.5125
2258.03893	8082.1125
2260.93041	8059.7125
2263.82004	8048.8125
2266.70783	8038.9125
2269.59378	8018.3125
2272.4779	8007.0125
2275.36017	7974.8125
2278.24061	7973.4125
2281.11922	7978.1125
2283.996	7951.1125
2286.87094	7966.3125
2289.74405	7934.2125
2292.61534	7904.4125
2295.4848	7891.2125
2298.35243	7908.3125
2301.21824	7915.2125
2304.08223	7919.2125
2306.94439	7927.4125
2309.80474	7926.2125
2312.66327	7926.7125
2315.51999	7913.7125
2318.37489	7921.9125
2321.22797	7925.8125
2324.07925	7923.0125
2326.92871	7898.3125
2329.77637	7897.4125
2332.62222	7888.0125
2335.46626	7891.4125
2338.3085	7884.5125
2341.14893	7885.9125
2343.98756	7908.4125
2346.8244	7896.6125
2349.65943	7895.9125
2352.49267	7887.7125
2355.32411	7904.1125
2358.15376	7894.2125
2360.98161	7883.5125
2363.80768	7871.7125
2366.63195	7871.6125
2369.45444	7870.6125
2372.27514	7857.6125
2375.09405	7845.8125
2377.91118	7836.5125
2380.72652	7803.1125
2383.54009	7777.2125
2386.35187	7799.2125
2389.16188	7738.6125
2391.97011	7750.1125
2394.77657	7717.6125
2397.58125	7704.8125
2400.38416	7705.5125
2403.18529	7693.5125
2405.98466	7679.3125
2408.78226	7656.8125
2411.57809	7627.6125
2414.37216	7637.7125
2417.16446	7615.5125
2419.955	7638.0125
2422.74378	7641.7125
2425.5308	7609.4125
2428.31606	7612.0125
2431.09956	7615.1125
2433.88131	7595.0125
2436.6613	7599.7125
2439.43954	7595.9125
2442.21603	7609.2125
2444.99077	7580.9125
2447.76377	7569.6125
2450.53501	7565.4125
2453.30451	7570.9125
2456.07226	7560.9125
2458.83827	7576.5125
2461.60254	7556.0125
2464.36507	7550.4125
2467.12586	7551.9125
2469.88492	7559.0125
2472.64224	7571.9125
2475.39782	7572.2125
2478.15167	7542.4125
2480.90379	7562.8125
2483.65417	7590.3125
2486.40283	7588.9125
2489.14976	7600.9125
2491.89497	7593.8125
2494.63845	7612.2125
2497.3802	7601.0125
2500.12024	7580.7125
2502.85855	7589.8125
2505.59514	7601.7125
2508.33002	7552.9125
2511.06318	7566.7125
2513.79462	7550.7125
2516.52435	7545.4125
2519.25237	7520.8125
2521.97867	7502.5125
2524.70327	7512.2125
2527.42616	7477.3125
2530.14734	7491.3125
2532.86681	7499.4125
2535.58458	7501.7125
2538.30065	7475.1125
2541.01501	7484.6125
2543.72768	7465.5125
2546.43864	7454.7125
2549.14791	7478.9125
2551.85548	7460.3125
2554.56136	7448.7125
2557.26554	7438.3125
2559.96803	7433.0125
2562.66883	7433.0125
2565.36794	7424.4125
2568.06536	7409.0125
2570.7611	7387.8125
2573.45514	7390.9125
2576.14751	7382.2125
2578.83819	7392.0125
2581.52719	7364.5125
2584.21451	7392.6125
2586.90015	7363.8125
2589.58411	7366.5125
2592.2664	7383.1125
2594.94701	7360.2125
2597.62594	7376.1125
2600.30321	7341.6125
2602.9788	7358.1125
2605.65273	7357.0125
2608.32498	7351.6125
2610.99557	7330.2125
2613.66449	7346.0125
2616.33175	7332.1125
2618.99734	7349.9125
2621.66128	7350.8125
2624.32355	7351.1125
2626.98416	7348.7125
2629.64311	7348.1125
2632.30041	7358.9125
2634.95605	7346.2125
2637.61004	7324.3125
2640.26238	7320.6125
2642.91306	7308.4125
2645.56209	7307.0125
2648.20948	7306.2125
2650.85521	7286.8125
2653.4993	7282.1125
2656.14175	7291.4125
2658.78255	7299.4125
2661.42171	7304.5125
2664.05923	7313.5125
2666.6951	7312.2125
2669.32934	7335.4125
2671.96194	7319.4125
2674.59291	7345.1125
2677.22224	7332.9125
2679.84993	7318.1125
2682.476	7301.2125
2685.10043	7307.4125
2687.72324	7311.3125
2690.34441	7299.8125
2692.96396	7297.6125
2695.58188	7322.1125
2698.19818	7295.3125
2700.81285	7305.5125
2703.4259	7291.6125
2706.03733	7298.6125
2708.64714	7292.0125
2711.25533	7305.3125
2713.86191	7305.8125
2716.46687	7320.3125
2719.07021	7323.0125
2721.67194	7337.2125
2724.27206	7314.8125
2726.87057	7337.0125
2729.46747	7332.0125
2732.06276	7327.5125
2734.65644	7323.7125
2737.24852	7347.6125
2739.83899	7329.7125
2742.42786	7343.1125
2745.01513	7308.8125
2747.60079	7315.2125
2750.18486	7304.0125
2752.76733	7293.7125
2755.3482	7290.3125
2757.92747	7301.3125
2760.50515	7272.9125
2763.08123	7309.2125
2765.65573	7296.8125
2768.22863	7269.5125
2770.79994	7265.2125
2773.36967	7273.2125
2775.9378	7275.9125
2778.50435	7274.8125
2781.06932	7281.1125
2783.6327	7264.1125
2786.1945	7246.8125
2788.75471	7237.9125
2791.31335	7238.3125
2793.87041	7218.3125
2796.42589	7216.7125
2798.97979	7218.8125
2801.53212	7217.4125
2804.08288	7185.0125
2806.63206	7178.6125
2809.17967	7171.3125
2811.72571	7160.1125
2814.27018	7137.1125
2816.81308	7147.8125
2819.35442	7134.2125
2821.89419	7133.1125
2824.43239	7131.7125
2826.96904	7134.7125
2829.50412	7124.7125
2832.03763	7119.6125
2834.56959	7129.0125
2837.1	7118.7125
2839.62884	7120.5125
2842.15613	7124.3125
2844.68186	7139.4125
2847.20604	7150.6125
2849.72867	7158.6125
2852.24974	7181.9125
2854.76927	7158.2125
2857.28724	7133.9125
2859.80367	7139.7125
2862.31855	7119.1125
2864.83189	7138.9125
2867.34368	7116.5125
2869.85393	7101.4125
2872.36264	7101.6125
2874.8698	7109.2125
2877.37543	7093.6125
2879.87952	7108.0125
2882.38207	7107.4125
2884.88308	7094.7125
2887.38256	7084.6125
2889.88051	7090.7125
2892.37692	7084.0125
2894.8718	7093.9125
2897.36515	7091.4125
2899.85698	7087.0125
2902.34727	7108.9125
2904.83604	7107.8125
2907.32328	7130.1125
2909.809	7134.3125
2912.29319	7133.1125
2914.77587	7144.6125
2917.25702	7122.4125
2919.73665	7117.4125
2922.21476	7122.5125
2924.69136	7122.1125
2927.16644	7123.4125
2929.64	7119.9125
2932.11205	7103.1125
2934.58258	7079.8125
2937.05161	7094.3125
2939.51912	7096.3125
2941.98513	7080.5125
2944.44962	7061.0125
2946.91261	7029.5125
2949.37409	7048.7125
2951.83407	7029.5125
2954.29254	7028.1125
2956.74951	7002.3125
2959.20498	7028.6125
2961.65895	6997.4125
2964.11142	7021.1125
2966.56239	6990.3125
2969.01186	6980.2125
2971.45984	6953.0125
2973.90632	6969.5125
2976.35131	6937.3125
2978.7948	6944.5125
2981.23681	6930.2125
2983.67732	6923.5125
2986.11635	6890.1125
2988.55388	6890.5125
2990.98993	6862.7125
2993.4245	6848.0125
2995.85758	6858.8125
2998.28917	6828.2125
3000.71928	6825.6125
3003.14791	6828.3125
3005.57506	6805.3125
3008.00073	6797.8125
3010.42493	6796.9125
3012.84764	6795.8125
3015.26888	6791.0125
3017.68865	6769.2125
3020.10694	6758.6125
3022.52376	6759.0125
3024.9391	6742.5125
3027.35298	6727.7125
3029.76539	6732.9125
3032.17632	6728.5125
3034.5858	6712.2125
3036.9938	6701.0125
3039.40034	6711.0125
3041.80542	6715.5125
3044.20903	6699.1125
3046.61118	6700.3125
3049.01187	6681.1125
3051.4111	6692.1125
3053.80888	6672.2125
3056.20519	6654.5125
3058.60005	6631.1125
3060.99345	6621.9125
3063.3854	6596.8125
3065.7759	6564.7125
3068.16494	6591.2125
3070.55254	6546.2125
3072.93868	6565.2125
3075.32338	6523.2125
3077.70662	6515.7125
3080.08842	6520.0125
3082.46878	6519.3125
