Data from AgNPs_FTO_APTES_UA_1uM_CRN_0uM_R6G_10uM_NaF_0.1M_Addition_RamanShift__47__12-00-29-465.txt Node

Date: Thu Jan 27 12:00:29 GMT 2022
User: TCL
Spectrometer: QEP01345
Trigger mode: 4
Integration Time (sec): 7.000000E0
Scans to average: 10
Electric dark correction enabled: true
Nonlinearity correction enabled: false
Boxcar width: 0
XAxis mode: Raman Shifts
Number of Pixels in Spectrum: 1044
>>>>>Begin Spectral Data<<<<<
46.04893	0.225
50.45542	-0.375
54.85868	-1.075
59.25871	-0.875
63.6555	47.825
68.04907	48.525
72.43941	50.925
76.82654	52.425
81.21044	55.525
85.59113	56.025
89.96862	59.625
94.34289	63.825
98.71396	64.025
103.08183	64.925
107.4465	67.425
111.80798	69.225
116.16626	69.725
120.52136	74.925
124.87327	76.325
129.222	73.725
133.56755	76.425
137.90993	76.025
142.24913	84.325
146.58517	96.425
150.91804	110.925
155.24774	125.525
159.57429	149.825
163.89768	191.925
168.21792	248.325
172.53501	330.725
176.84895	453.725
181.15975	624.225
185.46741	874.325
189.77193	1208.925
194.07331	1613.525
198.37157	2100.525
202.6667	2585.425
206.9587	3072.425
211.24758	3551.625
215.53334	4050.025
219.81599	4614.425
224.09553	5241.625
228.37195	5898.325
232.64527	6644.225
236.91549	7424.625
241.18261	8143.825
245.44663	8733.225
249.70755	9261.725
253.96539	9711.525
258.22014	10131.425
262.4718	10483.825
266.72039	10725.225
270.96589	10898.025
275.20832	10922.725
279.44768	10857.625
283.68397	10710.025
287.91719	10616.525
292.14735	10628.725
296.37445	10712.625
300.59849	10950.025
304.81948	11269.325
309.03742	11517.325
313.25231	11465.225
317.46415	11017.325
321.67296	10424.925
325.87872	9869.725
330.08145	9626.625
334.28114	9593.325
338.47781	9742.525
342.67145	9990.525
346.86207	10332.025
351.04966	10814.025
355.23424	11383.225
359.4158	11856.125
363.59435	12113.025
367.76989	12187.425
371.94243	12196.325
376.11196	12179.425
380.27849	12172.825
384.44203	12121.425
388.60257	12021.125
392.76012	12006.325
396.91468	12149.225
401.06626	12460.025
405.21485	12696.925
409.36047	12584.825
413.50311	12164.125
417.64277	11781.925
421.77947	11549.225
425.9132	11509.925
430.04396	11514.025
434.17176	11606.025
438.2966	11757.425
442.41849	12088.225
446.53742	12516.425
450.6534	12948.525
454.76644	13253.525
458.87653	13318.825
462.98368	13155.125
467.08789	12914.925
471.18916	12601.825
475.2875	12312.125
479.38291	12121.325
483.4754	11933.625
487.56496	11820.425
491.6516	11647.625
495.73531	11543.925
499.81612	11517.625
503.89401	11633.125
507.96899	11721.925
512.04106	11769.125
516.11023	11896.725
520.1765	11936.325
524.23987	11915.025
528.30034	11796.125
532.35792	11575.025
536.41261	11368.025
540.46441	11159.625
544.51333	11077.525
548.55936	11183.725
552.60252	11378.625
556.64279	11648.325
560.6802	11800.825
564.71473	11910.425
568.7464	12287.225
572.7752	12663.825
576.80114	12588.125
580.82422	12393.425
584.84444	12373.525
588.86181	12456.125
592.87633	12670.625
596.888	12876.425
600.89682	13183.725
604.9028	14108.125
608.90594	16664.225
612.90624	20034.425
616.90371	19426.625
620.89834	14764.025
624.89015	12473.425
628.87913	12036.625
632.86528	11996.325
636.84862	11972.725
640.82913	11743.325
644.80683	11395.325
648.78172	11084.525
652.75379	11119.225
656.72306	11447.125
660.68952	11895.925
664.65319	11909.725
668.61405	11501.625
672.57211	11268.225
676.52738	11241.825
680.47986	11222.925
684.42955	11162.625
688.37646	11138.625
692.32058	11164.825
696.26192	11230.825
700.20048	11359.925
704.13626	11459.425
708.06928	11408.825
711.99952	11358.925
715.927	11293.925
719.85171	11305.325
723.77365	11246.825
727.69284	11151.625
731.60928	11071.225
735.52295	11034.825
739.43388	11122.825
743.34206	11234.325
747.24749	11279.825
751.15017	11392.625
755.05012	11593.925
758.94733	11989.225
762.8418	12862.925
766.73354	14370.825
770.62254	16013.325
774.50882	16816.425
778.39237	16194.325
782.27321	14550.625
786.15132	12947.825
790.02671	11950.225
793.89938	11513.925
797.76935	11379.625
801.6366	11287.325
805.50115	11204.625
809.36299	11155.725
813.22213	11083.825
817.07857	11087.425
820.93231	11077.325
824.78336	11096.825
828.63172	11166.225
832.47738	11243.725
836.32036	11264.525
840.16066	11259.725
843.99827	11227.825
847.8332	11196.925
851.66546	11128.925
855.49504	11103.225
859.32195	11096.925
863.1462	11062.425
866.96777	10970.825
870.78668	10978.625
874.60293	10996.625
878.41652	11039.625
882.22745	11090.125
886.03573	11155.425
889.84136	11120.325
893.64433	11056.125
897.44466	11032.825
901.24235	11006.025
905.0374	11013.825
908.8298	10958.425
912.61957	10971.325
916.40671	11020.525
920.19121	11166.725
923.97308	11311.525
927.75233	11450.425
931.52895	11529.525
935.30295	11452.225
939.07433	11204.325
942.84309	10946.625
946.60924	10854.825
950.37278	10793.025
954.13371	10710.125
957.89203	10649.825
961.64774	10599.725
965.40086	10587.025
969.15137	10511.825
972.89929	10491.825
976.64461	10488.825
980.38733	10514.325
984.12747	10573.825
987.86502	10673.125
991.59999	10827.925
995.33237	11051.825
999.06217	11392.725
1002.78939	11792.425
1006.51404	12159.725
1010.23611	12337.625
1013.95561	12495.325
1017.67255	12486.825
1021.38692	12368.325
1025.09872	12182.125
1028.80796	12160.925
1032.51465	12464.925
1036.21877	12744.925
1039.92035	12785.125
1043.61937	12583.525
1047.31584	12261.525
1051.00976	11959.825
1054.70114	11757.525
1058.38998	11699.725
1062.07627	11703.225
1065.76003	11733.225
1069.44126	11802.225
1073.11995	11922.825
1076.79611	12074.625
1080.46974	12189.525
1084.14085	12365.125
1087.80943	12581.625
1091.47549	12680.025
1095.13903	12553.925
1098.80005	12197.825
1102.45857	11903.025
1106.11456	11760.525
1109.76805	11763.925
1113.41903	11917.425
1117.06751	12158.425
1120.71348	12467.125
1124.35696	12799.325
1127.99793	13120.525
1131.63641	13178.125
1135.2724	12816.125
1138.90589	12432.125
1142.5369	12156.825
1146.16542	11981.225
1149.79145	11889.125
1153.415	11928.425
1157.03607	11998.925
1160.65467	12199.825
1164.27079	12598.525
1167.88443	13201.325
1171.49561	14107.725
1175.10432	15542.525
1178.71056	17431.825
1182.31434	19086.625
1185.91565	19850.725
1189.51451	19807.225
1193.11091	18920.525
1196.70485	17620.225
1200.29634	16463.825
1203.88538	15577.325
1207.47197	14717.525
1211.05612	14076.625
1214.63782	13733.225
1218.21708	13740.025
1221.79391	13918.025
1225.36829	14110.625
1228.94024	14193.825
1232.50976	14175.225
1236.07685	14073.425
1239.6415	13940.725
1243.20374	13814.525
1246.76355	13790.325
1250.32093	13907.125
1253.8759	14203.125
1257.42845	14654.725
1260.97859	15084.425
1264.52631	15523.725
1268.07163	15921.725
1271.61453	16354.425
1275.15503	16791.725
1278.69312	17185.225
1282.22882	17490.825
1285.76211	17899.125
1289.29301	18369.225
1292.82151	18915.025
1296.34761	19476.725
1299.87133	20246.625
1303.39266	21463.025
1306.9116	23270.825
1310.42815	25525.125
1313.94233	27159.825
1317.45412	27345.725
1320.96354	26301.125
1324.47058	24876.925
1327.97525	23571.425
1331.47754	22738.725
1334.97747	22274.825
1338.47502	22186.825
1341.97022	22320.425
1345.46305	22392.725
1348.95352	22670.425
1352.44163	23276.825
1355.92738	24526.725
1359.41078	26780.525
1362.89183	29196.525
1366.37053	29139.225
1369.84688	25888.925
1373.32088	22219.925
1376.79254	19663.425
1380.26186	18498.025
1383.72883	18011.725
1387.19347	17639.825
1390.65578	17199.325
1394.11575	16865.325
1397.57339	16865.625
1401.0287	17138.825
1404.48168	17584.525
1407.93234	17955.425
1411.38068	18169.525
1414.82669	18037.925
1418.27039	17614.425
1421.71177	17037.925
1425.15083	16541.825
1428.58758	16318.825
1432.02203	16310.625
1435.45416	16440.825
1438.88399	16577.025
1442.31151	16649.925
1445.73673	16705.225
1449.15965	16814.425
1452.58027	16776.525
1455.9986	16652.425
1459.41463	16622.725
1462.82837	16731.825
1466.23982	17029.225
1469.64898	17300.625
1473.05586	17519.025
1476.46045	17658.525
1479.86276	17772.125
1483.26279	17980.425
1486.66054	18234.825
1490.05602	18550.125
1493.44922	18990.125
1496.84016	19516.325
1500.22882	20286.225
1503.61521	21431.625
1506.99934	22896.625
1510.38121	24518.325
1513.76081	25562.225
1517.13816	25064.625
1520.51324	23108.625
1523.88607	20927.325
1527.25665	19334.225
1530.62498	18417.225
1533.99105	17894.125
1537.35488	17537.425
1540.71647	17340.225
1544.07581	17230.525
1547.4329	17086.025
1550.78776	16889.525
1554.14038	16737.225
1557.49077	16760.725
1560.83892	16877.625
1564.18484	16983.625
1567.52853	17157.925
1570.86999	17280.825
1574.20922	17432.625
1577.54624	17426.125
1580.88103	17123.225
1584.2136	16601.425
1587.54395	16587.525
1590.87208	17225.225
1594.19801	18464.425
1597.52172	19890.625
1600.84321	20754.325
1604.16251	20281.025
1607.47959	18801.625
1610.79447	17078.225
1614.10715	15498.225
1617.41763	14324.025
1620.7259	13598.625
1624.03199	13286.125
1627.33587	13319.525
1630.63757	13686.925
1633.93707	14443.725
1637.23439	15551.125
1640.52951	17041.625
1643.82246	18688.125
1647.11321	20187.825
1650.40179	20903.425
1653.68819	20097.025
1656.97241	17803.425
1660.25446	15220.225
1663.53433	13310.525
1666.81203	12195.125
1670.08756	11496.025
1673.36092	11119.825
1676.63211	10894.525
1679.90115	10690.125
1683.16801	10571.125
1686.43272	10470.225
1689.69527	10414.025
1692.95567	10316.025
1696.2139	10256.825
1699.46999	10169.525
1702.72392	10153.325
1705.97571	10168.625
1709.22535	10214.225
1712.47284	10243.125
1715.71819	10251.225
1718.96139	10264.925
1722.20246	10236.425
1725.44139	10238.225
1728.67818	10189.325
1731.91284	10085.125
1735.14537	10052.425
1738.37576	10016.625
1741.60403	9996.225
1744.83017	9935.725
1748.05418	9875.625
1751.27607	9854.925
1754.49584	9837.125
1757.71349	9826.225
1760.92903	9806.825
1764.14244	9788.725
1767.35375	9778.525
1770.56294	9775.125
1773.77002	9757.625
1776.97499	9759.125
1780.17785	9774.025
1783.37861	9786.125
1786.57727	9793.925
1789.77382	9771.425
1792.96828	9754.925
1796.16064	9761.925
1799.3509	9752.425
1802.53907	9742.525
1805.72514	9732.225
1808.90913	9721.625
1812.09102	9685.825
1815.27083	9642.425
1818.44856	9642.425
1821.6242	9624.425
1824.79776	9626.425
1827.96924	9615.425
1831.13864	9598.925
1834.30597	9599.725
1837.47122	9591.525
1840.6344	9603.625
1843.7955	9608.425
1846.95454	9603.625
1850.11151	9621.025
1853.26642	9612.325
1856.41926	9614.225
1859.57004	9626.425
1862.71876	9631.325
1865.86542	9632.525
1869.01003	9662.125
1872.15258	9660.525
1875.29308	9659.825
1878.43152	9673.325
1881.56792	9685.525
1884.70227	9678.925
1887.83457	9679.925
1890.96482	9716.925
1894.09304	9703.725
1897.21921	9719.325
1900.34335	9704.125
1903.46544	9693.125
1906.58551	9717.125
1909.70353	9687.725
1912.81953	9708.725
1915.93349	9694.125
1919.04543	9692.525
1922.15534	9675.525
1925.26322	9671.225
1928.36908	9602.325
1931.47292	9601.825
1934.57473	9552.425
1937.67453	9539.325
1940.77232	9467.825
1943.86808	9423.225
1946.96184	9405.825
1950.05358	9370.125
1953.14331	9297.225
1956.23103	9271.725
1959.31675	9235.325
1962.40046	9211.825
1965.48217	9173.525
1968.56188	9127.425
1971.63959	9123.225
1974.7153	9104.125
1977.78901	9070.025
1980.86073	9036.125
1983.93046	8992.625
1986.99819	8981.725
1990.06394	8947.025
1993.1277	8928.725
1996.18947	8900.825
1999.24925	8876.025
2002.30706	8855.525
2005.36288	8813.825
2008.41672	8799.825
2011.46859	8799.325
2014.51848	8750.425
2017.56639	8726.525
2020.61233	8707.625
2023.6563	8698.425
2026.6983	8662.525
2029.73833	8652.225
2032.7764	8663.825
2035.8125	8609.725
2038.84664	8597.025
2041.87881	8593.025
2044.90903	8578.125
2047.93729	8559.225
2050.96359	8565.525
2053.98794	8539.525
2057.01034	8536.325
2060.03078	8520.925
2063.04927	8542.825
2066.06582	8535.825
2069.08042	8520.425
2072.09307	8502.225
2075.10378	8494.125
2078.11255	8495.125
2081.11938	8504.725
2084.12426	8484.725
2087.12722	8493.225
2090.12824	8489.625
2093.12732	8473.525
2096.12447	8460.125
2099.11969	8461.125
2102.11299	8472.825
2105.10435	8479.125
2108.09379	8461.225
2111.08131	8461.425
2114.0669	8471.725
2117.05057	8486.725
2120.03233	8477.025
2123.01216	8491.025
2125.99008	8498.725
2128.96609	8509.525
2131.94018	8515.825
2134.91236	8503.925
2137.88263	8520.725
2140.851	8509.925
2143.81746	8531.125
2146.78201	8509.225
2149.74466	8542.425
2152.7054	8515.225
2155.66425	8514.225
2158.6212	8530.225
2161.57625	8490.525
2164.52941	8534.025
2167.48067	8504.425
2170.43004	8506.425
2173.37752	8504.925
2176.32311	8509.425
2179.26681	8532.125
2182.20863	8504.925
2185.14856	8529.925
2188.08661	8539.425
2191.02278	8524.725
2193.95707	8507.425
2196.88948	8500.225
2199.82001	8506.925
2202.74867	8468.325
2205.67545	8497.625
2208.60037	8477.525
2211.52341	8466.525
2214.44458	8493.525
2217.36388	8452.525
2220.28132	8457.925
2223.1969	8439.025
2226.11061	8412.825
2229.02246	8376.825
2231.93245	8394.225
2234.84058	8380.225
2237.74686	8361.925
2240.65128	8355.225
2243.55385	8328.825
2246.45456	8346.725
2249.35343	8331.925
2252.25044	8309.825
2255.14561	8312.725
2258.03893	8282.525
2260.93041	8270.625
2263.82004	8236.425
2266.70783	8249.025
2269.59378	8197.225
2272.4779	8217.625
2275.36017	8189.525
2278.24061	8170.525
2281.11922	8140.925
2283.996	8149.025
2286.87094	8138.225
2289.74405	8116.725
2292.61534	8108.125
2295.4848	8112.725
2298.35243	8088.025
2301.21824	8100.625
2304.08223	8081.825
2306.94439	8110.525
2309.80474	8114.025
2312.66327	8087.525
2315.51999	8124.725
2318.37489	8106.425
2321.22797	8095.925
2324.07925	8097.825
2326.92871	8091.125
2329.77637	8091.925
2332.62222	8059.825
2335.46626	8061.325
2338.3085	8074.825
2341.14893	8077.425
2343.98756	8061.525
2346.8244	8081.425
2349.65943	8079.625
2352.49267	8082.325
2355.32411	8065.025
2358.15376	8060.025
2360.98161	8060.225
2363.80768	8047.425
2366.63195	8067.225
2369.45444	8060.325
2372.27514	8032.325
2375.09405	8022.125
2377.91118	7989.725
2380.72652	7968.825
2383.54009	7942.025
2386.35187	7936.825
2389.16188	7903.325
2391.97011	7877.325
2394.77657	7870.225
2397.58125	7867.625
2400.38416	7847.325
2403.18529	7843.525
2405.98466	7810.825
2408.78226	7805.325
2411.57809	7789.025
2414.37216	7774.825
2417.16446	7770.825
2419.955	7762.325
2422.74378	7772.625
2425.5308	7734.125
2428.31606	7722.725
2431.09956	7739.225
2433.88131	7701.225
2436.6613	7721.625
2439.43954	7732.325
2442.21603	7699.725
2444.99077	7715.425
2447.76377	7724.225
2450.53501	7726.225
2453.30451	7699.225
2456.07226	7707.225
2458.83827	7695.425
2461.60254	7708.825
2464.36507	7693.625
2467.12586	7690.125
2469.88492	7676.725
2472.64224	7706.025
2475.39782	7695.325
2478.15167	7687.325
2480.90379	7698.325
2483.65417	7702.925
2486.40283	7734.525
2489.14976	7719.525
2491.89497	7731.425
2494.63845	7738.825
2497.3802	7720.825
2500.12024	7731.125
2502.85855	7712.825
2505.59514	7718.725
2508.33002	7697.725
2511.06318	7686.325
2513.79462	7665.225
2516.52435	7642.025
2519.25237	7662.325
2521.97867	7640.825
2524.70327	7618.325
2527.42616	7602.025
2530.14734	7588.525
2532.86681	7599.425
2535.58458	7581.925
2538.30065	7591.725
2541.01501	7597.425
2543.72768	7592.425
2546.43864	7603.525
2549.14791	7584.925
2551.85548	7576.925
2554.56136	7571.525
2557.26554	7535.025
2559.96803	7545.625
2562.66883	7538.725
2565.36794	7534.125
2568.06536	7506.625
2570.7611	7531.425
2573.45514	7503.825
2576.14751	7498.725
2578.83819	7494.125
2581.52719	7483.425
2584.21451	7483.925
2586.90015	7485.925
2589.58411	7483.525
2592.2664	7484.325
2594.94701	7459.825
2597.62594	7479.225
2600.30321	7447.825
2602.9788	7452.425
2605.65273	7442.325
2608.32498	7448.125
2610.99557	7438.825
2613.66449	7442.325
2616.33175	7455.425
2618.99734	7453.125
2621.66128	7443.925
2624.32355	7403.325
2626.98416	7439.025
2629.64311	7417.825
2632.30041	7442.125
2634.95605	7420.825
2637.61004	7398.025
2640.26238	7404.625
2642.91306	7362.425
2645.56209	7362.625
2648.20948	7359.225
2650.85521	7371.425
2653.4993	7355.525
2656.14175	7383.525
2658.78255	7366.025
2661.42171	7367.825
2664.05923	7388.525
2666.6951	7379.625
2669.32934	7398.325
2671.96194	7395.125
2674.59291	7395.025
2677.22224	7408.725
2679.84993	7399.225
2682.476	7393.625
2685.10043	7393.625
2687.72324	7371.425
2690.34441	7376.725
2692.96396	7369.425
2695.58188	7380.325
2698.19818	7379.825
2700.81285	7367.125
2703.4259	7364.725
2706.03733	7347.425
2708.64714	7353.525
2711.25533	7376.925
2713.86191	7366.325
2716.46687	7396.625
2719.07021	7361.625
2721.67194	7387.325
2724.27206	7409.125
2726.87057	7413.225
2729.46747	7410.025
2732.06276	7380.825
2734.65644	7385.925
2737.24852	7399.225
2739.83899	7375.625
2742.42786	7395.425
2745.01513	7362.225
2747.60079	7358.525
2750.18486	7345.525
2752.76733	7358.625
2755.3482	7358.925
2757.92747	7357.325
2760.50515	7342.225
2763.08123	7329.825
2765.65573	7346.125
2768.22863	7352.325
2770.79994	7323.625
2773.36967	7340.925
2775.9378	7309.925
2778.50435	7346.725
2781.06932	7318.625
2783.6327	7323.825
2786.1945	7312.525
2788.75471	7310.025
2791.31335	7302.125
2793.87041	7276.125
2796.42589	7274.325
2798.97979	7277.325
2801.53212	7258.225
2804.08288	7267.525
2806.63206	7241.625
2809.17967	7254.525
2811.72571	7220.125
2814.27018	7230.825
2816.81308	7204.125
2819.35442	7220.125
2821.89419	7207.625
2824.43239	7213.725
2826.96904	7216.125
2829.50412	7223.725
2832.03763	7205.425
2834.56959	7204.825
2837.1	7200.025
2839.62884	7232.225
2842.15613	7220.325
2844.68186	7250.125
2847.20604	7294.725
2849.72867	7304.225
2852.24974	7309.725
2854.76927	7305.625
2857.28724	7280.225
2859.80367	7278.025
2862.31855	7270.025
2864.83189	7247.325
2867.34368	7236.025
2869.85393	7256.825
2872.36264	7231.725
2874.8698	7237.725
2877.37543	7221.925
2879.87952	7225.525
2882.38207	7219.025
2884.88308	7224.425
2887.38256	7236.625
2889.88051	7190.725
2892.37692	7223.825
2894.8718	7223.425
2897.36515	7237.025
2899.85698	7236.425
2902.34727	7236.525
2904.83604	7258.925
2907.32328	7252.125
2909.809	7256.825
2912.29319	7252.525
2914.77587	7261.825
2917.25702	7238.325
2919.73665	7234.525
2922.21476	7213.225
2924.69136	7217.025
2927.16644	7217.425
2929.64	7201.525
2932.11205	7213.325
2934.58258	7183.325
2937.05161	7177.425
2939.51912	7165.225
2941.98513	7144.125
2944.44962	7119.825
2946.91261	7084.425
2949.37409	7071.925
2951.83407	7058.425
2954.29254	7055.625
2956.74951	7031.125
2959.20498	7029.325
2961.65895	6993.425
2964.11142	7018.425
2966.56239	6977.925
2969.01186	6982.625
2971.45984	6952.325
2973.90632	6949.425
2976.35131	6913.325
2978.7948	6912.325
2981.23681	6890.025
2983.67732	6863.825
2986.11635	6840.125
2988.55388	6817.425
2990.98993	6806.725
2993.4245	6802.525
2995.85758	6772.925
2998.28917	6765.225
3000.71928	6760.025
3003.14791	6739.425
3005.57506	6742.825
3008.00073	6715.325
3010.42493	6709.125
3012.84764	6708.125
3015.26888	6686.425
3017.68865	6677.125
3020.10694	6673.025
3022.52376	6651.925
3024.9391	6646.325
3027.35298	6651.925
3029.76539	6633.625
3032.17632	6624.625
3034.5858	6616.825
3036.9938	6600.125
3039.40034	6601.425
3041.80542	6608.325
3044.20903	6577.925
3046.61118	6582.325
3049.01187	6564.525
3051.4111	6569.825
3053.80888	6537.625
3056.20519	6527.725
3058.60005	6518.225
3060.99345	6498.125
3063.3854	6483.325
3065.7759	6454.125
3068.16494	6452.525
3070.55254	6425.525
3072.93868	6437.225
3075.32338	6408.125
3077.70662	6416.025
3080.08842	6387.325
3082.46878	6388.525
3084.84769	6371.225
3087.22515	6347.325
3089.60118	6343.725
3091.97576	6355.325
3094.3489	6375.525
3096.72061	6363.725
3099.09087	6354.725
3101.4597	6335.725
3103.82709	6347.125
3106.19305	6340.225
3108.55757	6333.225
3110.92066	6328.425
3113.28232	6317.125
3115.64255	6293.825
3118.00134	6288.125
3120.35871	6286.425
3122.71466	6266.825
3125.06917	6281.125
3127.42226	6244.325
3129.77393	6273.425
3132.12417	6255.425
3134.47299	6245.025
3136.82039	6228.625
3139.16636	6238.325
3141.51092	6266.925
3143.85406	6237.725
3146.19579	6270.325
3148.53609	6251.625
3150.87499	6263.725
3153.21246	6281.825
3155.54853	6274.925
3157.88318	6283.825
3160.21642	6287.025
3162.54826	6286.725
3164.87868	6282.725
3167.2077	6263.825
3169.5353	6280.925
3171.86151	6275.125
3174.18631	6282.925
3176.5097	6274.525
3178.83169	6253.525
3181.15228	6250.025
3183.47147	6238.925
3185.78926	6230.125
3188.10565	6246.225
3190.42065	6241.325
