Data from AgNPs_FTO_APTES_UA_1uM_CRN_10uM_R6G_10uM_NaF_0.1M_Addition_RamanShift__24__14-43-49-652.txt Node

Date: Thu Jan 27 14:43:49 GMT 2022
User: TCL
Spectrometer: QEP01345
Trigger mode: 4
Integration Time (sec): 7.000000E0
Scans to average: 10
Electric dark correction enabled: true
Nonlinearity correction enabled: false
Boxcar width: 0
XAxis mode: Raman Shifts
Number of Pixels in Spectrum: 1044
>>>>>Begin Spectral Data<<<<<
46.04893	2.0375
50.45542	-0.3625
54.85868	-1.4625
59.25871	-2.1625
63.6555	49.1375
68.04907	52.3375
72.43941	55.8375
76.82654	57.1375
81.21044	56.0375
85.59113	59.7375
89.96862	61.6375
94.34289	62.2375
98.71396	69.7375
103.08183	65.7375
107.4465	69.6375
111.80798	70.6375
116.16626	70.4375
120.52136	76.1375
124.87327	80.3375
129.222	77.7375
133.56755	82.7375
137.90993	83.8375
142.24913	94.9375
146.58517	107.0375
150.91804	119.6375
155.24774	141.5375
159.57429	163.4375
163.89768	208.7375
168.21792	274.8375
172.53501	371.3375
176.84895	511.9375
181.15975	713.5375
185.46741	994.5375
189.77193	1363.1375
194.07331	1834.4375
198.37157	2352.4375
202.6667	2923.4375
206.9587	3464.2375
211.24758	4030.3375
215.53334	4574.7375
219.81599	5153.0375
224.09553	5821.8375
228.37195	6545.9375
232.64527	7361.5375
236.91549	8203.0375
241.18261	9049.3375
245.44663	9775.0375
249.70755	10431.6375
253.96539	11026.7375
258.22014	11549.5375
262.4718	11978.7375
266.72039	12290.4375
270.96589	12477.8375
275.20832	12547.0375
279.44768	12553.5375
283.68397	12442.5375
287.91719	12372.8375
292.14735	12398.2375
296.37445	12423.1375
300.59849	12597.9375
304.81948	12753.3375
309.03742	12819.6375
313.25231	12644.7375
317.46415	12274.7375
321.67296	11728.3375
325.87872	11289.5375
330.08145	11087.0375
334.28114	11079.6375
338.47781	11228.2375
342.67145	11393.6375
346.86207	11677.0375
351.04966	12055.6375
355.23424	12475.9375
359.4158	12831.2375
363.59435	13029.6375
367.76989	13156.5375
371.94243	13227.2375
376.11196	13252.1375
380.27849	13291.9375
384.44203	13294.7375
388.60257	13320.2375
392.76012	13358.3375
396.91468	13514.3375
401.06626	13782.8375
405.21485	13954.4375
409.36047	13895.7375
413.50311	13602.9375
417.64277	13295.6375
421.77947	13176.9375
425.9132	13177.9375
430.04396	13219.9375
434.17176	13323.3375
438.2966	13460.3375
442.41849	13672.8375
446.53742	13995.3375
450.6534	14350.4375
454.76644	14706.1375
458.87653	14835.5375
462.98368	14777.1375
467.08789	14646.5375
471.18916	14404.7375
475.2875	14155.6375
479.38291	13987.0375
483.4754	13844.1375
487.56496	13697.8375
491.6516	13523.2375
495.73531	13347.9375
499.81612	13344.0375
503.89401	13434.9375
507.96899	13472.8375
512.04106	13487.8375
516.11023	13535.9375
520.1765	13538.4375
524.23987	13469.3375
528.30034	13333.4375
532.35792	13177.3375
536.41261	12993.8375
540.46441	12847.6375
544.51333	12829.8375
548.55936	12949.7375
552.60252	13220.9375
556.64279	13474.3375
560.6802	13619.7375
564.71473	13727.7375
568.7464	13973.1375
572.7752	14238.8375
576.80114	14266.9375
580.82422	14242.9375
584.84444	14306.6375
588.86181	14343.1375
592.87633	14441.8375
596.888	14591.8375
600.89682	14858.7375
604.9028	15625.6375
608.90594	17695.4375
612.90624	20264.8375
616.90371	19476.6375
620.89834	15724.0375
624.89015	13992.9375
628.87913	13746.0375
632.86528	13730.7375
636.84862	13675.4375
640.82913	13471.8375
644.80683	13083.6375
648.78172	12793.3375
652.75379	12758.1375
656.72306	13002.6375
660.68952	13356.7375
664.65319	13338.5375
668.61405	13054.0375
672.57211	12888.1375
676.52738	12882.2375
680.47986	12879.3375
684.42955	12846.2375
688.37646	12837.8375
692.32058	12882.2375
696.26192	12968.5375
700.20048	13111.2375
704.13626	13163.1375
708.06928	13137.0375
711.99952	13066.7375
715.927	13009.6375
719.85171	13027.4375
723.77365	12970.6375
727.69284	12872.7375
731.60928	12781.6375
735.52295	12753.1375
739.43388	12790.1375
743.34206	12859.4375
747.24749	12933.0375
751.15017	13036.5375
755.05012	13264.4375
758.94733	13683.8375
762.8418	14450.8375
766.73354	15757.2375
770.62254	17117.3375
774.50882	17635.8375
778.39237	16911.3375
782.27321	15444.8375
786.15132	14171.4375
790.02671	13428.7375
793.89938	13106.1375
797.76935	12965.2375
801.6366	12914.0375
805.50115	12855.2375
809.36299	12808.9375
813.22213	12747.2375
817.07857	12723.9375
820.93231	12728.8375
824.78336	12749.1375
828.63172	12766.2375
832.47738	12786.9375
836.32036	12830.6375
840.16066	12853.7375
843.99827	12883.6375
847.8332	12845.4375
851.66546	12778.1375
855.49504	12776.5375
859.32195	12719.6375
863.1462	12681.4375
866.96777	12623.3375
870.78668	12584.8375
874.60293	12596.6375
878.41652	12610.4375
882.22745	12643.5375
886.03573	12709.7375
889.84136	12684.5375
893.64433	12624.1375
897.44466	12601.4375
901.24235	12583.0375
905.0374	12563.6375
908.8298	12502.7375
912.61957	12553.4375
916.40671	12657.0375
920.19121	12792.2375
923.97308	12954.2375
927.75233	13034.5375
931.52895	13018.8375
935.30295	12959.8375
939.07433	12706.2375
942.84309	12514.5375
946.60924	12434.3375
950.37278	12374.0375
954.13371	12293.9375
957.89203	12192.2375
961.64774	12155.5375
965.40086	12115.8375
969.15137	12099.9375
972.89929	12030.8375
976.64461	12024.9375
980.38733	12027.8375
984.12747	12086.6375
987.86502	12185.5375
991.59999	12385.8375
995.33237	12621.5375
999.06217	13000.7375
1002.78939	13469.4375
1006.51404	13752.7375
1010.23611	13921.3375
1013.95561	14032.8375
1017.67255	14063.8375
1021.38692	13954.4375
1025.09872	13874.4375
1028.80796	14027.7375
1032.51465	14460.6375
1036.21877	14842.8375
1039.92035	14860.6375
1043.61937	14602.7375
1047.31584	14221.4375
1051.00976	13749.2375
1054.70114	13521.5375
1058.38998	13464.4375
1062.07627	13524.6375
1065.76003	13535.6375
1069.44126	13602.5375
1073.11995	13711.9375
1076.79611	13815.7375
1080.46974	13880.5375
1084.14085	14013.3375
1087.80943	14147.9375
1091.47549	14221.0375
1095.13903	14142.7375
1098.80005	13900.9375
1102.45857	13626.8375
1106.11456	13456.4375
1109.76805	13444.6375
1113.41903	13595.7375
1117.06751	13773.5375
1120.71348	14018.0375
1124.35696	14246.2375
1127.99793	14458.9375
1131.63641	14547.3375
1135.2724	14306.3375
1138.90589	14019.5375
1142.5369	13881.5375
1146.16542	13732.7375
1149.79145	13692.7375
1153.415	13734.6375
1157.03607	13853.8375
1160.65467	14095.9375
1164.27079	14521.3375
1167.88443	15117.1375
1171.49561	16075.5375
1175.10432	17341.9375
1178.71056	18994.6375
1182.31434	20463.5375
1185.91565	21201.2375
1189.51451	21249.8375
1193.11091	20520.0375
1196.70485	19433.9375
1200.29634	18451.2375
1203.88538	17711.3375
1207.47197	17060.8375
1211.05612	16540.8375
1214.63782	16212.2375
1218.21708	16092.8375
1221.79391	16113.6375
1225.36829	16225.7375
1228.94024	16249.5375
1232.50976	16113.3375
1236.07685	16019.1375
1239.6415	15951.9375
1243.20374	15917.0375
1246.76355	15946.9375
1250.32093	16125.1375
1253.8759	16475.9375
1257.42845	16926.3375
1260.97859	17361.4375
1264.52631	17683.5375
1268.07163	18043.3375
1271.61453	18516.0375
1275.15503	19016.6375
1278.69312	19551.6375
1282.22882	19945.1375
1285.76211	20307.4375
1289.29301	20701.0375
1292.82151	21190.7375
1296.34761	21809.8375
1299.87133	22679.1375
1303.39266	23976.7375
1306.9116	25754.9375
1310.42815	27700.6375
1313.94233	29012.6375
1317.45412	29090.8375
1320.96354	28165.7375
1324.47058	27064.8375
1327.97525	26107.0375
1331.47754	25416.7375
1334.97747	25185.7375
1338.47502	25269.2375
1341.97022	25579.7375
1345.46305	25704.3375
1348.95352	25630.2375
1352.44163	25634.5375
1355.92738	26245.1375
1359.41078	27849.8375
1362.89183	29647.2375
1366.37053	29289.7375
1369.84688	26443.4375
1373.32088	23372.2375
1376.79254	21295.5375
1380.26186	20326.7375
1383.72883	19944.2375
1387.19347	19703.5375
1390.65578	19454.1375
1394.11575	19304.6375
1397.57339	19451.4375
1401.0287	19772.5375
1404.48168	20174.2375
1407.93234	20530.5375
1411.38068	20664.6375
1414.82669	20458.4375
1418.27039	19960.8375
1421.71177	19288.3375
1425.15083	18724.5375
1428.58758	18362.0375
1432.02203	18260.8375
1435.45416	18385.4375
1438.88399	18589.1375
1442.31151	18751.8375
1445.73673	18953.9375
1449.15965	19137.0375
1452.58027	19214.9375
1455.9986	19238.2375
1459.41463	19269.0375
1462.82837	19443.0375
1466.23982	19777.5375
1469.64898	20077.4375
1473.05586	20311.5375
1476.46045	20430.1375
1479.86276	20460.5375
1483.26279	20555.7375
1486.66054	20661.6375
1490.05602	20895.2375
1493.44922	21233.7375
1496.84016	21630.9375
1500.22882	22188.6375
1503.61521	23110.0375
1506.99934	24239.8375
1510.38121	25496.7375
1513.76081	26219.2375
1517.13816	25767.1375
1520.51324	24330.5375
1523.88607	22698.8375
1527.25665	21518.6375
1530.62498	20809.5375
1533.99105	20362.5375
1537.35488	20110.6375
1540.71647	19927.8375
1544.07581	19796.8375
1547.4329	19600.9375
1550.78776	19420.2375
1554.14038	19326.9375
1557.49077	19390.3375
1560.83892	19473.6375
1564.18484	19583.4375
1567.52853	19623.9375
1570.86999	19640.8375
1574.20922	19714.0375
1577.54624	19737.1375
1580.88103	19568.8375
1584.2136	19367.6375
1587.54395	19565.7375
1590.87208	20277.3375
1594.19801	21426.3375
1597.52172	22721.0375
1600.84321	23332.6375
1604.16251	22583.8375
1607.47959	21138.5375
1610.79447	19534.2375
1614.10715	18039.2375
1617.41763	16839.2375
1620.7259	16034.2375
1624.03199	15653.0375
1627.33587	15589.8375
1630.63757	16036.4375
1633.93707	16820.9375
1637.23439	17975.4375
1640.52951	19340.5375
1643.82246	20795.0375
1647.11321	22038.7375
1650.40179	22477.2375
1653.68819	21587.5375
1656.97241	19399.6375
1660.25446	17011.1375
1663.53433	15228.7375
1666.81203	14083.7375
1670.08756	13445.4375
1673.36092	12971.9375
1676.63211	12705.9375
1679.90115	12525.1375
1683.16801	12368.4375
1686.43272	12240.2375
1689.69527	12128.5375
1692.95567	12114.3375
1696.2139	11981.7375
1699.46999	11959.4375
1702.72392	11902.4375
1705.97571	11930.6375
1709.22535	11944.6375
1712.47284	11973.9375
1715.71819	11959.9375
1718.96139	11980.6375
1722.20246	11951.6375
1725.44139	11907.3375
1728.67818	11884.7375
1731.91284	11783.4375
1735.14537	11747.5375
1738.37576	11712.1375
1741.60403	11667.6375
1744.83017	11637.9375
1748.05418	11595.9375
1751.27607	11599.4375
1754.49584	11528.4375
1757.71349	11529.8375
1760.92903	11501.2375
1764.14244	11512.9375
1767.35375	11505.2375
1770.56294	11476.6375
1773.77002	11469.8375
1776.97499	11481.5375
1780.17785	11481.1375
1783.37861	11510.8375
1786.57727	11498.6375
1789.77382	11483.2375
1792.96828	11475.3375
1796.16064	11462.9375
1799.3509	11433.8375
1802.53907	11439.8375
1805.72514	11432.7375
1808.90913	11413.9375
1812.09102	11388.7375
1815.27083	11371.3375
1818.44856	11342.2375
1821.6242	11312.2375
1824.79776	11303.5375
1827.96924	11325.4375
1831.13864	11306.6375
1834.30597	11318.6375
1837.47122	11307.7375
1840.6344	11312.4375
1843.7955	11316.6375
1846.95454	11300.9375
1850.11151	11323.0375
1853.26642	11311.1375
1856.41926	11348.5375
1859.57004	11383.6375
1862.71876	11344.0375
1865.86542	11350.7375
1869.01003	11354.3375
1872.15258	11361.8375
1875.29308	11341.2375
1878.43152	11351.2375
1881.56792	11358.7375
1884.70227	11366.3375
1887.83457	11377.6375
1890.96482	11349.0375
1894.09304	11364.1375
1897.21921	11382.2375
1900.34335	11358.0375
1903.46544	11349.8375
1906.58551	11361.4375
1909.70353	11385.5375
1912.81953	11381.4375
1915.93349	11370.7375
1919.04543	11340.5375
1922.15534	11319.0375
1925.26322	11288.1375
1928.36908	11282.7375
1931.47292	11238.9375
1934.57473	11217.6375
1937.67453	11173.9375
1940.77232	11154.2375
1943.86808	11085.7375
1946.96184	11031.9375
1950.05358	11000.8375
1953.14331	10974.2375
1956.23103	10917.6375
1959.31675	10893.2375
1962.40046	10886.2375
1965.48217	10837.0375
1968.56188	10815.4375
1971.63959	10788.2375
1974.7153	10744.8375
1977.78901	10727.0375
1980.86073	10658.5375
1983.93046	10645.5375
1986.99819	10581.2375
1990.06394	10573.8375
1993.1277	10562.3375
1996.18947	10523.8375
1999.24925	10500.3375
2002.30706	10468.4375
2005.36288	10459.7375
2008.41672	10397.8375
2011.46859	10408.1375
2014.51848	10356.8375
2017.56639	10343.5375
2020.61233	10349.8375
2023.6563	10329.4375
2026.6983	10308.5375
2029.73833	10251.7375
2032.7764	10273.5375
2035.8125	10226.1375
2038.84664	10214.4375
2041.87881	10201.5375
2044.90903	10198.5375
2047.93729	10179.2375
2050.96359	10173.8375
2053.98794	10139.4375
2057.01034	10167.6375
2060.03078	10126.6375
2063.04927	10137.1375
2066.06582	10153.5375
2069.08042	10119.7375
2072.09307	10095.1375
2075.10378	10074.8375
2078.11255	10076.0375
2081.11938	10096.9375
2084.12426	10094.6375
2087.12722	10095.4375
2090.12824	10070.4375
2093.12732	10058.7375
2096.12447	10074.6375
2099.11969	10060.4375
2102.11299	10078.9375
2105.10435	10073.8375
2108.09379	10077.7375
2111.08131	10103.1375
2114.0669	10094.8375
2117.05057	10131.4375
2120.03233	10127.6375
2123.01216	10134.4375
2125.99008	10146.3375
2128.96609	10129.8375
2131.94018	10140.5375
2134.91236	10148.9375
2137.88263	10169.2375
2140.851	10173.6375
2143.81746	10171.8375
2146.78201	10189.6375
2149.74466	10197.0375
2152.7054	10186.6375
2155.66425	10196.2375
2158.6212	10192.8375
2161.57625	10157.6375
2164.52941	10169.4375
2167.48067	10180.5375
2170.43004	10165.5375
2173.37752	10174.7375
2176.32311	10177.2375
2179.26681	10195.9375
2182.20863	10195.9375
2185.14856	10191.1375
2188.08661	10182.5375
2191.02278	10212.8375
2193.95707	10188.1375
2196.88948	10203.9375
2199.82001	10188.4375
2202.74867	10181.2375
2205.67545	10183.4375
2208.60037	10175.8375
2211.52341	10171.8375
2214.44458	10159.2375
2217.36388	10156.0375
2220.28132	10132.2375
2223.1969	10123.8375
2226.11061	10113.3375
2229.02246	10105.6375
2231.93245	10078.1375
2234.84058	10065.8375
2237.74686	10050.6375
2240.65128	10039.0375
2243.55385	10017.2375
2246.45456	9983.8375
2249.35343	9994.2375
2252.25044	9968.1375
2255.14561	9976.4375
2258.03893	9967.8375
2260.93041	9956.7375
2263.82004	9931.8375
2266.70783	9928.6375
2269.59378	9901.6375
2272.4779	9860.9375
2275.36017	9853.4375
2278.24061	9822.2375
2281.11922	9825.5375
2283.996	9821.8375
2286.87094	9818.0375
2289.74405	9792.5375
2292.61534	9740.4375
2295.4848	9743.0375
2298.35243	9793.6375
2301.21824	9785.5375
2304.08223	9754.8375
2306.94439	9771.7375
2309.80474	9796.3375
2312.66327	9786.5375
2315.51999	9794.2375
2318.37489	9792.1375
2321.22797	9784.8375
2324.07925	9770.1375
2326.92871	9790.9375
2329.77637	9742.8375
2332.62222	9736.9375
2335.46626	9734.8375
2338.3085	9737.0375
2341.14893	9757.3375
2343.98756	9749.3375
2346.8244	9760.5375
2349.65943	9792.9375
2352.49267	9762.3375
2355.32411	9762.9375
2358.15376	9746.0375
2360.98161	9761.1375
2363.80768	9737.1375
2366.63195	9717.6375
2369.45444	9696.6375
2372.27514	9706.0375
2375.09405	9696.3375
2377.91118	9670.0375
2380.72652	9637.4375
2383.54009	9598.5375
2386.35187	9601.7375
2389.16188	9598.3375
2391.97011	9555.9375
2394.77657	9550.1375
2397.58125	9542.2375
2400.38416	9539.9375
2403.18529	9503.6375
2405.98466	9496.3375
2408.78226	9475.5375
2411.57809	9456.7375
2414.37216	9438.5375
2417.16446	9447.1375
2419.955	9402.1375
2422.74378	9431.2375
2425.5308	9414.7375
2428.31606	9428.6375
2431.09956	9407.7375
2433.88131	9376.8375
2436.6613	9398.5375
2439.43954	9388.5375
2442.21603	9385.2375
2444.99077	9371.3375
2447.76377	9370.2375
2450.53501	9355.2375
2453.30451	9365.1375
2456.07226	9386.3375
2458.83827	9359.3375
2461.60254	9357.8375
2464.36507	9369.5375
2467.12586	9361.6375
2469.88492	9333.6375
2472.64224	9348.4375
2475.39782	9363.9375
2478.15167	9355.3375
2480.90379	9359.6375
2483.65417	9394.3375
2486.40283	9387.8375
2489.14976	9409.3375
2491.89497	9397.2375
2494.63845	9419.9375
2497.3802	9391.3375
2500.12024	9395.1375
2502.85855	9411.8375
2505.59514	9412.2375
2508.33002	9349.4375
2511.06318	9387.7375
2513.79462	9360.6375
2516.52435	9343.6375
2519.25237	9346.4375
2521.97867	9325.6375
2524.70327	9306.6375
2527.42616	9315.5375
2530.14734	9301.2375
2532.86681	9299.4375
2535.58458	9305.0375
2538.30065	9288.1375
2541.01501	9282.1375
2543.72768	9276.3375
2546.43864	9269.6375
2549.14791	9266.6375
2551.85548	9248.4375
2554.56136	9232.8375
2557.26554	9231.8375
2559.96803	9226.5375
2562.66883	9229.5375
2565.36794	9203.0375
2568.06536	9220.0375
2570.7611	9205.3375
2573.45514	9203.0375
2576.14751	9179.0375
2578.83819	9191.0375
2581.52719	9183.7375
2584.21451	9167.2375
2586.90015	9201.1375
2589.58411	9169.7375
2592.2664	9176.6375
2594.94701	9167.9375
2597.62594	9166.2375
2600.30321	9150.4375
2602.9788	9149.7375
2605.65273	9135.8375
2608.32498	9159.2375
2610.99557	9147.3375
2613.66449	9166.5375
2616.33175	9146.8375
2618.99734	9167.3375
2621.66128	9164.5375
2624.32355	9147.7375
2626.98416	9158.1375
2629.64311	9167.6375
2632.30041	9163.8375
2634.95605	9153.4375
2637.61004	9116.5375
2640.26238	9124.5375
2642.91306	9115.8375
2645.56209	9101.6375
2648.20948	9098.9375
2650.85521	9090.6375
2653.4993	9081.2375
2656.14175	9070.4375
2658.78255	9097.5375
2661.42171	9094.4375
2664.05923	9121.4375
2666.6951	9103.9375
2669.32934	9127.9375
2671.96194	9132.9375
2674.59291	9140.1375
2677.22224	9131.7375
2679.84993	9153.6375
2682.476	9139.3375
2685.10043	9135.5375
2687.72324	9123.4375
2690.34441	9126.9375
2692.96396	9103.9375
2695.58188	9116.5375
2698.19818	9089.1375
2700.81285	9100.5375
2703.4259	9118.1375
2706.03733	9111.9375
2708.64714	9107.7375
2711.25533	9114.8375
2713.86191	9110.5375
2716.46687	9104.8375
2719.07021	9126.0375
2721.67194	9130.4375
2724.27206	9151.6375
2726.87057	9148.5375
2729.46747	9135.8375
2732.06276	9158.3375
2734.65644	9158.6375
2737.24852	9115.5375
2739.83899	9139.3375
2742.42786	9156.5375
2745.01513	9115.3375
2747.60079	9123.8375
2750.18486	9107.7375
2752.76733	9125.6375
2755.3482	9119.3375
2757.92747	9122.2375
2760.50515	9104.0375
2763.08123	9097.9375
2765.65573	9086.6375
2768.22863	9095.5375
2770.79994	9090.6375
2773.36967	9058.9375
2775.9378	9085.2375
2778.50435	9098.5375
2781.06932	9069.8375
2783.6327	9072.9375
2786.1945	9041.0375
2788.75471	9055.1375
2791.31335	9062.7375
2793.87041	9038.2375
2796.42589	9015.5375
2798.97979	9005.9375
2801.53212	9012.2375
2804.08288	8979.2375
2806.63206	8964.4375
2809.17967	8942.0375
2811.72571	8926.0375
2814.27018	8929.7375
2816.81308	8916.2375
2819.35442	8927.3375
2821.89419	8914.1375
2824.43239	8915.1375
2826.96904	8913.2375
2829.50412	8922.2375
2832.03763	8912.4375
2834.56959	8888.2375
2837.1	8914.3375
2839.62884	8904.8375
2842.15613	8874.7375
2844.68186	8904.5375
2847.20604	8924.5375
2849.72867	8931.1375
2852.24974	8921.9375
2854.76927	8909.9375
2857.28724	8891.9375
2859.80367	8896.7375
2862.31855	8869.3375
2864.83189	8844.5375
2867.34368	8857.2375
2869.85393	8865.4375
2872.36264	8848.4375
2874.8698	8840.7375
2877.37543	8845.0375
2879.87952	8855.1375
2882.38207	8828.8375
2884.88308	8838.4375
2887.38256	8852.1375
2889.88051	8854.1375
2892.37692	8854.8375
2894.8718	8841.1375
2897.36515	8846.7375
2899.85698	8853.0375
2902.34727	8878.0375
2904.83604	8899.2375
2907.32328	8890.4375
2909.809	8901.9375
2912.29319	8921.5375
2914.77587	8912.4375
2917.25702	8903.9375
2919.73665	8880.6375
2922.21476	8891.4375
2924.69136	8892.5375
2927.16644	8879.5375
2929.64	8868.2375
2932.11205	8885.0375
2934.58258	8842.3375
2937.05161	8845.6375
2939.51912	8836.2375
2941.98513	8846.9375
2944.44962	8812.5375
2946.91261	8770.7375
2949.37409	8799.3375
2951.83407	8783.2375
2954.29254	8804.1375
2956.74951	8769.7375
2959.20498	8775.8375
2961.65895	8764.4375
2964.11142	8764.5375
2966.56239	8750.2375
2969.01186	8754.9375
2971.45984	8705.0375
2973.90632	8710.1375
2976.35131	8675.8375
2978.7948	8679.3375
2981.23681	8660.0375
2983.67732	8641.5375
2986.11635	8611.8375
2988.55388	8600.2375
2990.98993	8590.7375
2993.4245	8598.9375
2995.85758	8559.5375
2998.28917	8550.7375
3000.71928	8533.7375
3003.14791	8508.9375
3005.57506	8506.3375
3008.00073	8486.0375
3010.42493	8497.8375
3012.84764	8479.9375
3015.26888	8470.5375
3017.68865	8468.0375
3020.10694	8436.3375
3022.52376	8412.8375
3024.9391	8443.3375
3027.35298	8417.8375
3029.76539	8405.6375
3032.17632	8392.3375
3034.5858	8392.2375
3036.9938	8387.9375
3039.40034	8399.0375
3041.80542	8391.3375
3044.20903	8369.9375
3046.61118	8385.8375
3049.01187	8330.2375
3051.4111	8355.1375
3053.80888	8307.2375
3056.20519	8285.4375
3058.60005	8276.7375
3060.99345	8256.5375
