Data from AgNPs_FTO_APTES_UA_1uM_CRN_200uM_R6G_10uM_NaF_0.1M_Addition_RamanShift__3__17-08-29-817.txt Node

Date: Thu Jan 27 17:08:29 GMT 2022
User: TCL
Spectrometer: QEP01345
Trigger mode: 4
Integration Time (sec): 7.000000E0
Scans to average: 10
Electric dark correction enabled: true
Nonlinearity correction enabled: false
Boxcar width: 0
XAxis mode: Raman Shifts
Number of Pixels in Spectrum: 1044
>>>>>Begin Spectral Data<<<<<
46.04893	-1.4125
50.45542	0.8875
54.85868	-2.1125
59.25871	0.1875
63.6555	38.8875
68.04907	44.0875
72.43941	44.4875
76.82654	48.7875
81.21044	50.6875
85.59113	48.7875
89.96862	52.8875
94.34289	50.4875
98.71396	58.4875
103.08183	56.5875
107.4465	57.8875
111.80798	61.6875
116.16626	60.1875
120.52136	65.9875
124.87327	64.8875
129.222	63.0875
133.56755	66.4875
137.90993	72.4875
142.24913	78.0875
146.58517	82.6875
150.91804	92.3875
155.24774	107.5875
159.57429	127.4875
163.89768	156.3875
168.21792	209.2875
172.53501	277.0875
176.84895	372.0875
181.15975	522.3875
185.46741	730.0875
189.77193	1000.0875
194.07331	1345.3875
198.37157	1739.7875
202.6667	2148.5875
206.9587	2555.1875
211.24758	2976.5875
215.53334	3381.7875
219.81599	3817.1875
224.09553	4290.5875
228.37195	4792.8875
232.64527	5376.0875
236.91549	5963.4875
241.18261	6579.0875
245.44663	7155.1875
249.70755	7651.3875
253.96539	8066.7875
258.22014	8414.7875
262.4718	8696.7875
266.72039	8896.2875
270.96589	8971.8875
275.20832	8964.1875
279.44768	8842.5875
283.68397	8698.1875
287.91719	8565.6875
292.14735	8448.1875
296.37445	8405.9875
300.59849	8423.4875
304.81948	8503.3875
309.03742	8554.7875
313.25231	8502.8875
317.46415	8373.5875
321.67296	8169.5875
325.87872	8016.1875
330.08145	7922.4875
334.28114	7939.7875
338.47781	7974.5875
342.67145	8089.7875
346.86207	8226.7875
351.04966	8409.4875
355.23424	8558.3875
359.4158	8676.6875
363.59435	8763.3875
367.76989	8820.4875
371.94243	8877.8875
376.11196	8926.5875
380.27849	8986.5875
384.44203	9005.0875
388.60257	9068.6875
392.76012	9125.5875
396.91468	9230.3875
401.06626	9387.1875
405.21485	9498.0875
409.36047	9468.9875
413.50311	9349.3875
417.64277	9231.7875
421.77947	9160.2875
425.9132	9122.6875
430.04396	9102.4875
434.17176	9151.4875
438.2966	9169.4875
442.41849	9288.7875
446.53742	9493.8875
450.6534	9688.4875
454.76644	9828.0875
458.87653	9820.6875
462.98368	9730.8875
467.08789	9634.6875
471.18916	9494.4875
475.2875	9391.7875
479.38291	9273.1875
483.4754	9189.6875
487.56496	9135.4875
491.6516	9103.2875
495.73531	9093.9875
499.81612	9079.3875
503.89401	9108.6875
507.96899	9157.6875
512.04106	9148.7875
516.11023	9155.6875
520.1765	9168.0875
524.23987	9163.3875
528.30034	9123.4875
532.35792	9062.2875
536.41261	8979.8875
540.46441	8852.2875
544.51333	8801.4875
548.55936	8850.1875
552.60252	9005.1875
556.64279	9173.9875
560.6802	9247.5875
564.71473	9257.8875
568.7464	9289.3875
572.7752	9419.8875
576.80114	9471.2875
580.82422	9633.1875
584.84444	9916.9875
588.86181	10346.5875
592.87633	10686.7875
596.888	10717.6875
600.89682	10412.0875
604.9028	10433.8875
608.90594	11222.0875
612.90624	12357.2875
616.90371	11967.5875
620.89834	10145.1875
624.89015	9243.4875
628.87913	9112.8875
632.86528	9160.5875
636.84862	9180.9875
640.82913	9105.0875
644.80683	8916.0875
648.78172	8799.5875
652.75379	8783.8875
656.72306	8861.0875
660.68952	9011.9875
664.65319	8957.5875
668.61405	8820.4875
672.57211	8785.1875
676.52738	8792.3875
680.47986	8855.0875
684.42955	8893.0875
688.37646	8758.0875
692.32058	8724.7875
696.26192	8781.6875
700.20048	8871.0875
704.13626	8942.9875
708.06928	8905.7875
711.99952	8882.3875
715.927	8862.4875
719.85171	8911.3875
723.77365	8880.9875
727.69284	8825.2875
731.60928	8763.2875
735.52295	8746.8875
739.43388	8757.8875
743.34206	8781.9875
747.24749	8812.1875
751.15017	8853.3875
755.05012	8930.3875
758.94733	9088.0875
762.8418	9448.4875
766.73354	10090.5875
770.62254	10806.8875
774.50882	11193.7875
778.39237	10938.7875
782.27321	10226.9875
786.15132	9522.2875
790.02671	9064.5875
793.89938	8868.9875
797.76935	8798.5875
801.6366	8756.4875
805.50115	8722.0875
809.36299	8675.0875
813.22213	8623.4875
817.07857	8583.4875
820.93231	8592.9875
824.78336	8572.5875
828.63172	8572.2875
832.47738	8570.6875
836.32036	8622.4875
840.16066	8663.3875
843.99827	8680.7875
847.8332	8643.4875
851.66546	8581.0875
855.49504	8558.8875
859.32195	8558.1875
863.1462	8565.7875
866.96777	8555.4875
870.78668	8512.9875
874.60293	8546.9875
878.41652	8551.9875
882.22745	8581.6875
886.03573	8612.2875
889.84136	8633.4875
893.64433	8610.1875
897.44466	8552.2875
901.24235	8523.0875
905.0374	8499.6875
908.8298	8472.5875
912.61957	8470.3875
916.40671	8519.8875
920.19121	8571.2875
923.97308	8667.5875
927.75233	8747.5875
931.52895	8776.2875
935.30295	8727.9875
939.07433	8569.9875
942.84309	8439.0875
946.60924	8347.1875
950.37278	8300.2875
954.13371	8248.5875
957.89203	8223.3875
961.64774	8195.3875
965.40086	8186.0875
969.15137	8162.6875
972.89929	8125.3875
976.64461	8129.9875
980.38733	8130.0875
984.12747	8157.0875
987.86502	8191.5875
991.59999	8271.7875
995.33237	8376.3875
999.06217	8533.8875
1002.78939	8718.1875
1006.51404	8790.8875
1010.23611	8839.1875
1013.95561	8903.6875
1017.67255	8919.0875
1021.38692	8879.1875
1025.09872	8800.4875
1028.80796	8816.0875
1032.51465	9006.1875
1036.21877	9203.6875
1039.92035	9284.7875
1043.61937	9218.0875
1047.31584	9072.6875
1051.00976	8926.2875
1054.70114	8819.4875
1058.38998	8789.2875
1062.07627	8830.1875
1065.76003	8833.4875
1069.44126	8897.7875
1073.11995	9007.5875
1076.79611	9130.4875
1080.46974	9154.1875
1084.14085	9185.5875
1087.80943	9196.8875
1091.47549	9211.1875
1095.13903	9214.3875
1098.80005	9103.5875
1102.45857	8937.7875
1106.11456	8816.2875
1109.76805	8775.5875
1113.41903	8811.8875
1117.06751	8874.5875
1120.71348	8967.6875
1124.35696	9094.7875
1127.99793	9280.4875
1131.63641	9377.3875
1135.2724	9247.5875
1138.90589	9085.0875
1142.5369	8986.4875
1146.16542	8924.0875
1149.79145	8908.5875
1153.415	8882.8875
1157.03607	8931.2875
1160.65467	9050.4875
1164.27079	9339.3875
1167.88443	9717.2875
1171.49561	10179.7875
1175.10432	10854.7875
1178.71056	11682.7875
1182.31434	12503.5875
1185.91565	12850.9875
1189.51451	12700.6875
1193.11091	12197.0875
1196.70485	11589.1875
1200.29634	11104.3875
1203.88538	10733.6875
1207.47197	10408.1875
1211.05612	10141.5875
1214.63782	9918.5875
1218.21708	9801.8875
1221.79391	9756.8875
1225.36829	9774.9875
1228.94024	9763.1875
1232.50976	9649.8875
1236.07685	9533.9875
1239.6415	9437.6875
1243.20374	9433.7875
1246.76355	9481.5875
1250.32093	9554.5875
1253.8759	9689.7875
1257.42845	9865.7875
1260.97859	10079.1875
1264.52631	10307.5875
1268.07163	10538.6875
1271.61453	10796.7875
1275.15503	11069.5875
1278.69312	11316.0875
1282.22882	11538.0875
1285.76211	11757.5875
1289.29301	12083.4875
1292.82151	12476.7875
1296.34761	12973.8875
1299.87133	13607.1875
1303.39266	14437.7875
1306.9116	15340.8875
1310.42815	16172.1875
1313.94233	16597.9875
1317.45412	16329.9875
1320.96354	15643.4875
1324.47058	14851.5875
1327.97525	14170.0875
1331.47754	13705.9875
1334.97747	13410.8875
1338.47502	13165.4875
1341.97022	12970.9875
1345.46305	12943.1875
1348.95352	13212.9875
1352.44163	13787.8875
1355.92738	14774.4875
1359.41078	15987.1875
1362.89183	17012.0875
1366.37053	16987.1875
1369.84688	15579.5875
1373.32088	13654.0875
1376.79254	12262.1875
1380.26186	11582.2875
1383.72883	11298.7875
1387.19347	11089.0875
1390.65578	10779.5875
1394.11575	10620.9875
1397.57339	10612.6875
1401.0287	10737.6875
1404.48168	10796.0875
1407.93234	10754.7875
1411.38068	10679.9875
1414.82669	10558.8875
1418.27039	10390.4875
1421.71177	10209.3875
1425.15083	10021.9875
1428.58758	9915.2875
1432.02203	9905.3875
1435.45416	10051.2875
1438.88399	10234.0875
1442.31151	10297.2875
1445.73673	10289.5875
1449.15965	10328.3875
1452.58027	10301.7875
1455.9986	10235.3875
1459.41463	10220.5875
1462.82837	10282.0875
1466.23982	10492.3875
1469.64898	10679.2875
1473.05586	10868.4875
1476.46045	10970.7875
1479.86276	11069.6875
1483.26279	11166.2875
1486.66054	11265.7875
1490.05602	11425.7875
1493.44922	11714.5875
1496.84016	12070.0875
1500.22882	12559.8875
1503.61521	13276.1875
1506.99934	14037.5875
1510.38121	14727.3875
1513.76081	14810.6875
1517.13816	14231.3875
1520.51324	13246.8875
1523.88607	12399.3875
1527.25665	11847.1875
1530.62498	11528.6875
1533.99105	11345.4875
1537.35488	11184.2875
1540.71647	11000.5875
1544.07581	10821.3875
1547.4329	10669.1875
1550.78776	10545.0875
1554.14038	10430.9875
1557.49077	10367.4875
1560.83892	10375.9875
1564.18484	10447.9875
1567.52853	10526.1875
1570.86999	10701.5875
1574.20922	10892.3875
1577.54624	10985.1875
1580.88103	10851.3875
1584.2136	10635.4875
1587.54395	10617.6875
1590.87208	10865.8875
1594.19801	11372.9875
1597.52172	11935.0875
1600.84321	12274.9875
1604.16251	12083.2875
1607.47959	11397.2875
1610.79447	10605.2875
1614.10715	9816.7875
1617.41763	9271.9875
1620.7259	8894.1875
1624.03199	8714.9875
1627.33587	8717.3875
1630.63757	8880.1875
1633.93707	9169.9875
1637.23439	9702.1875
1640.52951	10565.0875
1643.82246	11769.0875
1647.11321	12952.4875
1650.40179	13524.5875
1653.68819	12992.6875
1656.97241	11605.9875
1660.25446	10146.9875
1663.53433	9099.5875
1666.81203	8464.8875
1670.08756	8108.1875
1673.36092	7871.8875
1676.63211	7755.9875
1679.90115	7633.1875
1683.16801	7550.2875
1686.43272	7487.3875
1689.69527	7454.5875
1692.95567	7387.0875
1696.2139	7327.3875
1699.46999	7297.9875
1702.72392	7275.4875
1705.97571	7275.3875
1709.22535	7306.5875
1712.47284	7315.1875
1715.71819	7334.3875
1718.96139	7331.4875
1722.20246	7338.8875
1725.44139	7320.3875
1728.67818	7277.7875
1731.91284	7255.9875
1735.14537	7230.9875
1738.37576	7220.1875
1741.60403	7190.9875
1744.83017	7169.8875
1748.05418	7152.0875
1751.27607	7148.7875
1754.49584	7127.2875
1757.71349	7118.9875
1760.92903	7104.5875
1764.14244	7068.0875
1767.35375	7066.2875
1770.56294	7048.7875
1773.77002	7013.9875
1776.97499	7030.5875
1780.17785	7050.6875
1783.37861	7046.5875
1786.57727	7046.1875
1789.77382	7047.6875
1792.96828	7010.4875
1796.16064	6991.8875
1799.3509	6991.6875
1802.53907	6969.6875
1805.72514	6969.3875
1808.90913	6936.7875
1812.09102	6928.8875
1815.27083	6916.7875
1818.44856	6916.3875
1821.6242	6881.1875
1824.79776	6888.8875
1827.96924	6872.5875
1831.13864	6866.3875
1834.30597	6890.5875
1837.47122	6866.7875
1840.6344	6880.8875
1843.7955	6836.4875
1846.95454	6841.0875
1850.11151	6859.0875
1853.26642	6849.6875
1856.41926	6854.4875
1859.57004	6857.3875
1862.71876	6832.4875
1865.86542	6832.5875
1869.01003	6820.2875
1872.15258	6825.2875
1875.29308	6813.9875
1878.43152	6819.4875
1881.56792	6815.3875
1884.70227	6782.8875
1887.83457	6792.5875
1890.96482	6777.8875
1894.09304	6763.9875
1897.21921	6763.2875
1900.34335	6762.4875
1903.46544	6756.1875
1906.58551	6762.9875
1909.70353	6737.1875
1912.81953	6735.5875
1915.93349	6717.0875
1919.04543	6713.4875
1922.15534	6710.0875
1925.26322	6687.5875
1928.36908	6702.3875
1931.47292	6670.6875
1934.57473	6660.2875
1937.67453	6630.4875
1940.77232	6634.1875
1943.86808	6611.1875
1946.96184	6583.1875
1950.05358	6583.2875
1953.14331	6540.9875
1956.23103	6549.6875
1959.31675	6523.2875
1962.40046	6522.0875
1965.48217	6481.1875
1968.56188	6467.3875
1971.63959	6451.4875
1974.7153	6433.5875
1977.78901	6418.2875
1980.86073	6393.2875
1983.93046	6392.8875
1986.99819	6355.3875
1990.06394	6357.5875
1993.1277	6330.8875
1996.18947	6298.6875
1999.24925	6292.8875
2002.30706	6277.3875
2005.36288	6264.1875
2008.41672	6253.7875
2011.46859	6213.8875
2014.51848	6206.0875
2017.56639	6194.0875
2020.61233	6190.1875
2023.6563	6178.1875
2026.6983	6168.8875
2029.73833	6169.4875
2032.7764	6134.7875
2035.8125	6123.4875
2038.84664	6113.6875
2041.87881	6111.4875
2044.90903	6109.3875
2047.93729	6087.5875
2050.96359	6076.1875
2053.98794	6063.5875
2057.01034	6065.6875
2060.03078	6069.1875
2063.04927	6065.2875
2066.06582	6056.5875
2069.08042	6069.8875
2072.09307	6052.6875
2075.10378	6063.6875
2078.11255	6045.5875
2081.11938	6021.0875
2084.12426	6054.7875
2087.12722	6048.0875
2090.12824	6039.2875
2093.12732	6063.9875
2096.12447	6043.6875
2099.11969	6049.6875
2102.11299	6051.5875
2105.10435	6049.6875
2108.09379	6061.2875
2111.08131	6056.1875
2114.0669	6057.4875
2117.05057	6068.6875
2120.03233	6081.4875
2123.01216	6072.6875
2125.99008	6087.6875
2128.96609	6104.7875
2131.94018	6092.4875
2134.91236	6107.0875
2137.88263	6125.4875
2140.851	6114.0875
2143.81746	6110.7875
2146.78201	6115.2875
2149.74466	6116.0875
2152.7054	6130.7875
2155.66425	6112.3875
2158.6212	6105.2875
2161.57625	6112.4875
2164.52941	6112.7875
2167.48067	6126.5875
2170.43004	6127.1875
2173.37752	6126.5875
2176.32311	6118.1875
2179.26681	6128.2875
2182.20863	6114.3875
2185.14856	6113.7875
2188.08661	6114.9875
2191.02278	6126.0875
2193.95707	6113.6875
2196.88948	6123.4875
2199.82001	6124.7875
2202.74867	6109.4875
2205.67545	6102.1875
2208.60037	6106.6875
2211.52341	6100.6875
2214.44458	6075.6875
2217.36388	6069.6875
2220.28132	6053.3875
2223.1969	6043.0875
2226.11061	6051.0875
2229.02246	6041.8875
2231.93245	6026.0875
2234.84058	6024.9875
2237.74686	6013.5875
2240.65128	5998.9875
2243.55385	6002.3875
2246.45456	5995.1875
2249.35343	5978.9875
2252.25044	5965.1875
2255.14561	5957.8875
2258.03893	5970.8875
2260.93041	5953.9875
2263.82004	5940.8875
2266.70783	5924.9875
2269.59378	5903.2875
2272.4779	5910.1875
2275.36017	5891.9875
2278.24061	5881.4875
2281.11922	5883.9875
2283.996	5887.9875
2286.87094	5870.0875
2289.74405	5863.8875
2292.61534	5841.9875
2295.4848	5846.5875
2298.35243	5871.5875
2301.21824	5837.5875
2304.08223	5858.3875
2306.94439	5859.9875
2309.80474	5850.3875
2312.66327	5858.8875
2315.51999	5853.4875
2318.37489	5852.6875
2321.22797	5843.3875
2324.07925	5824.5875
2326.92871	5822.5875
2329.77637	5826.3875
2332.62222	5820.8875
2335.46626	5806.3875
2338.3085	5812.7875
2341.14893	5801.6875
2343.98756	5816.1875
2346.8244	5788.5875
2349.65943	5794.6875
2352.49267	5790.3875
2355.32411	5795.2875
2358.15376	5800.2875
2360.98161	5798.7875
2363.80768	5794.5875
2366.63195	5774.0875
2369.45444	5782.2875
2372.27514	5779.2875
2375.09405	5766.5875
2377.91118	5764.3875
2380.72652	5735.3875
2383.54009	5708.5875
2386.35187	5722.3875
2389.16188	5695.5875
2391.97011	5704.6875
2394.77657	5685.1875
2397.58125	5671.9875
2400.38416	5678.3875
2403.18529	5659.0875
2405.98466	5658.1875
2408.78226	5660.5875
2411.57809	5651.6875
2414.37216	5627.8875
2417.16446	5611.5875
2419.955	5610.9875
2422.74378	5626.8875
2425.5308	5616.3875
2428.31606	5630.9875
2431.09956	5611.0875
2433.88131	5637.9875
2436.6613	5605.7875
2439.43954	5624.1875
2442.21603	5599.4875
2444.99077	5600.2875
2447.76377	5596.8875
2450.53501	5620.7875
2453.30451	5617.2875
2456.07226	5598.5875
2458.83827	5584.1875
2461.60254	5589.3875
2464.36507	5604.4875
2467.12586	5600.6875
2469.88492	5581.5875
2472.64224	5583.3875
2475.39782	5592.8875
2478.15167	5576.9875
2480.90379	5572.3875
2483.65417	5579.3875
2486.40283	5588.8875
2489.14976	5587.0875
2491.89497	5597.5875
2494.63845	5575.2875
2497.3802	5578.9875
2500.12024	5584.9875
2502.85855	5579.4875
2505.59514	5575.9875
2508.33002	5555.0875
2511.06318	5556.0875
2513.79462	5560.9875
2516.52435	5559.9875
2519.25237	5536.2875
2521.97867	5529.3875
2524.70327	5535.2875
2527.42616	5512.2875
2530.14734	5531.0875
2532.86681	5502.2875
2535.58458	5489.1875
2538.30065	5502.7875
2541.01501	5486.8875
2543.72768	5490.7875
2546.43864	5474.6875
2549.14791	5465.4875
2551.85548	5471.5875
2554.56136	5461.7875
2557.26554	5445.9875
2559.96803	5458.3875
2562.66883	5463.4875
2565.36794	5446.8875
2568.06536	5453.0875
2570.7611	5444.2875
2573.45514	5426.3875
2576.14751	5418.3875
2578.83819	5423.1875
2581.52719	5433.8875
2584.21451	5402.4875
2586.90015	5408.6875
2589.58411	5403.9875
2592.2664	5414.6875
2594.94701	5395.8875
2597.62594	5387.1875
2600.30321	5357.4875
2602.9788	5372.4875
2605.65273	5369.1875
2608.32498	5379.4875
2610.99557	5378.7875
2613.66449	5353.2875
2616.33175	5340.1875
2618.99734	5349.6875
2621.66128	5348.4875
2624.32355	5321.1875
2626.98416	5336.5875
2629.64311	5326.0875
2632.30041	5324.4875
2634.95605	5311.7875
2637.61004	5295.6875
2640.26238	5280.4875
2642.91306	5303.6875
2645.56209	5304.8875
2648.20948	5282.8875
2650.85521	5293.0875
2653.4993	5301.2875
2656.14175	5288.3875
2658.78255	5293.6875
2661.42171	5304.6875
2664.05923	5319.3875
2666.6951	5307.2875
2669.32934	5305.2875
2671.96194	5296.1875
2674.59291	5294.4875
2677.22224	5295.4875
2679.84993	5313.0875
2682.476	5295.3875
2685.10043	5297.5875
2687.72324	5294.2875
2690.34441	5286.1875
2692.96396	5292.4875
2695.58188	5306.7875
2698.19818	5309.8875
2700.81285	5295.0875
2703.4259	5287.2875
2706.03733	5294.7875
2708.64714	5298.7875
2711.25533	5304.1875
2713.86191	5316.1875
2716.46687	5313.8875
2719.07021	5319.1875
2721.67194	5342.1875
2724.27206	5307.0875
2726.87057	5337.4875
2729.46747	5333.1875
2732.06276	5343.2875
2734.65644	5310.6875
2737.24852	5325.3875
2739.83899	5320.1875
2742.42786	5300.9875
2745.01513	5297.9875
2747.60079	5297.9875
2750.18486	5313.6875
2752.76733	5302.5875
2755.3482	5288.1875
2757.92747	5268.7875
2760.50515	5275.1875
2763.08123	5293.4875
2765.65573	5290.7875
2768.22863	5289.0875
2770.79994	5270.4875
2773.36967	5279.1875
2775.9378	5271.8875
2778.50435	5257.1875
2781.06932	5256.5875
2783.6327	5253.5875
2786.1945	5260.0875
2788.75471	5236.5875
2791.31335	5230.9875
2793.87041	5239.4875
2796.42589	5220.8875
2798.97979	5224.7875
2801.53212	5213.3875
2804.08288	5216.8875
2806.63206	5219.0875
2809.17967	5185.9875
2811.72571	5207.1875
2814.27018	5170.5875
2816.81308	5176.8875
2819.35442	5166.6875
2821.89419	5179.5875
2824.43239	5170.0875
2826.96904	5167.6875
2829.50412	5177.3875
2832.03763	5159.8875
2834.56959	5173.8875
2837.1	5177.4875
2839.62884	5188.9875
2842.15613	5211.8875
2844.68186	5240.2875
2847.20604	5258.0875
2849.72867	5279.8875
2852.24974	5279.3875
2854.76927	5259.0875
2857.28724	5265.4875
2859.80367	5261.9875
2862.31855	5266.0875
2864.83189	5275.6875
2867.34368	5240.9875
2869.85393	5239.3875
2872.36264	5243.5875
2874.8698	5226.4875
2877.37543	5242.6875
2879.87952	5255.7875
2882.38207	5220.2875
2884.88308	5235.1875
2887.38256	5255.7875
2889.88051	5232.4875
2892.37692	5236.3875
2894.8718	5266.2875
2897.36515	5252.9875
2899.85698	5264.1875
2902.34727	5293.3875
2904.83604	5283.3875
2907.32328	5302.1875
2909.809	5303.6875
2912.29319	5302.1875
2914.77587	5300.5875
2917.25702	5313.4875
2919.73665	5295.1875
2922.21476	5310.0875
2924.69136	5296.6875
2927.16644	5310.2875
2929.64	5307.7875
2932.11205	5291.9875
2934.58258	5285.5875
2937.05161	5294.8875
2939.51912	5302.0875
2941.98513	5273.3875
2944.44962	5258.0875
2946.91261	5216.7875
2949.37409	5241.2875
2951.83407	5222.8875
2954.29254	5231.0875
2956.74951	5215.9875
2959.20498	5203.1875
2961.65895	5195.9875
2964.11142	5196.4875
2966.56239	5185.0875
2969.01186	5154.4875
2971.45984	5154.2875
2973.90632	5152.6875
2976.35131	5142.5875
2978.7948	5139.5875
2981.23681	5133.8875
2983.67732	5127.7875
2986.11635	5091.1875
2988.55388	5104.2875
2990.98993	5078.8875
2993.4245	5078.9875
2995.85758	5074.3875
2998.28917	5067.4875
3000.71928	5064.3875
3003.14791	5052.3875
3005.57506	5034.5875
3008.00073	5050.8875
3010.42493	5026.3875
3012.84764	5014.8875
3015.26888	5054.3875
3017.68865	5036.5875
3020.10694	5029.6875
3022.52376	5005.3875
3024.9391	5000.2875
3027.35298	5015.1875
3029.76539	4992.2875
3032.17632	4985.8875
3034.5858	4999.5875
3036.9938	5004.3875
3039.40034	4991.0875
3041.80542	4991.7875
3044.20903	4981.3875
3046.61118	4982.4875
3049.01187	4954.4875
3051.4111	4980.5875
3053.80888	4973.0875
3056.20519	4963.6875
3058.60005	4958.1875
3060.99345	4960.1875
3063.3854	4946.2875
3065.7759	4937.2875
3068.16494	4927.8875
3070.55254	4916.4875
3072.93868	4962.3875
3075.32338	4969.1875
3077.70662	4925.3875
3080.08842	4893.6875
3082.46878	4916.5875
3084.84769	4919.2875
3087.22515	4910.2875
3089.60118	4913.8875
3091.97576	4917.3875
3094.3489	4932.6875
3096.72061	4923.7875
3099.09087	4918.7875
3101.4597	4944.7875
3103.82709	4946.0875
3106.19305	4927.3875
3108.55757	4955.8875
3110.92066	4930.6875
