Data from AgNPs_FTO_APTES_UA_1uM_CRN_1uM_R6G_10uM_NaF_0.1M_Addition_RamanShift__11__12-24-59-493.txt Node

Date: Thu Jan 27 12:24:59 GMT 2022
User: TCL
Spectrometer: QEP01345
Trigger mode: 4
Integration Time (sec): 7.000000E0
Scans to average: 10
Electric dark correction enabled: true
Nonlinearity correction enabled: false
Boxcar width: 0
XAxis mode: Raman Shifts
Number of Pixels in Spectrum: 1044
>>>>>Begin Spectral Data<<<<<
46.04893	1.025
50.45542	1.125
54.85868	-1.875
59.25871	-0.775
63.6555	61.825
68.04907	64.725
72.43941	62.725
76.82654	70.225
81.21044	72.025
85.59113	72.525
89.96862	74.925
94.34289	80.025
98.71396	81.725
103.08183	80.325
107.4465	84.325
111.80798	84.025
116.16626	91.325
120.52136	94.425
124.87327	99.125
129.222	99.025
133.56755	101.425
137.90993	112.925
142.24913	125.325
146.58517	139.425
150.91804	154.825
155.24774	186.825
159.57429	226.925
163.89768	292.225
168.21792	388.225
172.53501	521.425
176.84895	719.525
181.15975	1007.625
185.46741	1410.625
189.77193	1951.925
194.07331	2611.325
198.37157	3395.525
202.6667	4197.925
206.9587	5006.825
211.24758	5798.125
215.53334	6591.725
219.81599	7413.925
224.09553	8327.725
228.37195	9314.125
232.64527	10433.025
236.91549	11610.225
241.18261	12833.525
245.44663	13967.125
249.70755	15006.325
253.96539	15943.925
258.22014	16684.825
262.4718	17300.625
266.72039	17710.025
270.96589	17888.125
275.20832	17870.525
279.44768	17708.625
283.68397	17478.025
287.91719	17271.725
292.14735	17103.825
296.37445	16983.725
300.59849	16922.325
304.81948	16969.825
309.03742	17006.225
313.25231	16956.225
317.46415	16773.025
321.67296	16495.025
325.87872	16284.825
330.08145	16186.425
334.28114	16224.625
338.47781	16325.225
342.67145	16509.925
346.86207	16742.925
351.04966	17024.325
355.23424	17359.025
359.4158	17647.925
363.59435	17850.425
367.76989	17998.025
371.94243	18099.625
376.11196	18177.725
380.27849	18222.925
384.44203	18292.525
388.60257	18381.725
392.76012	18516.725
396.91468	18774.625
401.06626	19054.725
405.21485	19177.625
409.36047	19162.725
413.50311	18941.925
417.64277	18839.425
421.77947	18825.125
425.9132	18926.025
430.04396	19013.925
434.17176	19111.325
438.2966	19202.525
442.41849	19340.625
446.53742	19603.625
450.6534	19900.425
454.76644	20109.425
458.87653	20213.225
462.98368	20230.025
467.08789	20116.225
471.18916	19955.825
475.2875	19733.125
479.38291	19529.225
483.4754	19463.725
487.56496	19343.925
491.6516	19244.425
495.73531	19163.725
499.81612	19143.625
503.89401	19245.125
507.96899	19391.225
512.04106	19388.225
516.11023	19397.625
520.1765	19349.625
524.23987	19188.025
528.30034	19095.125
532.35792	18980.625
536.41261	18890.425
540.46441	18711.725
544.51333	18674.125
548.55936	18803.125
552.60252	19003.725
556.64279	19273.225
560.6802	19488.925
564.71473	19491.425
568.7464	19620.525
572.7752	19888.325
576.80114	20228.325
580.82422	20641.525
584.84444	21198.225
588.86181	21994.325
592.87633	22738.025
596.888	22810.225
600.89682	22096.425
604.9028	21826.625
608.90594	22892.825
612.90624	24366.025
616.90371	23525.125
620.89834	20780.025
624.89015	19479.625
628.87913	19274.425
632.86528	19438.425
636.84862	19535.525
640.82913	19338.225
644.80683	19045.625
648.78172	18805.425
652.75379	18748.525
656.72306	18949.825
660.68952	19212.225
664.65319	19198.925
668.61405	18953.825
672.57211	18899.725
676.52738	18993.425
680.47986	18967.325
684.42955	18858.125
688.37646	18786.425
692.32058	18843.525
696.26192	18988.525
700.20048	19176.825
704.13626	19307.225
708.06928	19331.025
711.99952	19254.225
715.927	19243.725
719.85171	19253.025
723.77365	19165.325
727.69284	19022.825
731.60928	18844.625
735.52295	18763.725
739.43388	18723.325
743.34206	18788.225
747.24749	18866.425
751.15017	18987.825
755.05012	19190.025
758.94733	19494.425
762.8418	20106.425
766.73354	21073.925
770.62254	22065.525
774.50882	22398.325
778.39237	21866.625
782.27321	20930.625
786.15132	20078.425
790.02671	19512.925
793.89938	19157.925
797.76935	18968.825
801.6366	18864.925
805.50115	18796.025
809.36299	18748.625
813.22213	18653.425
817.07857	18570.725
820.93231	18556.625
824.78336	18524.625
828.63172	18515.525
832.47738	18491.425
836.32036	18451.425
840.16066	18452.425
843.99827	18439.925
847.8332	18426.925
851.66546	18450.025
855.49504	18481.625
859.32195	18545.225
863.1462	18513.525
866.96777	18483.525
870.78668	18501.825
874.60293	18565.925
878.41652	18546.625
882.22745	18613.525
886.03573	18660.525
889.84136	18677.025
893.64433	18653.625
897.44466	18650.325
901.24235	18596.725
905.0374	18538.525
908.8298	18525.225
912.61957	18478.925
916.40671	18607.425
920.19121	18690.725
923.97308	18829.925
927.75233	18900.225
931.52895	18868.525
935.30295	18659.725
939.07433	18414.525
942.84309	18272.825
946.60924	18146.925
950.37278	18104.525
954.13371	18073.825
957.89203	18077.325
961.64774	18033.025
965.40086	18007.025
969.15137	17957.125
972.89929	17921.625
976.64461	17883.125
980.38733	17852.425
984.12747	17853.225
987.86502	17918.025
991.59999	17978.625
995.33237	18043.825
999.06217	18198.525
1002.78939	18445.325
1006.51404	18692.625
1010.23611	18951.825
1013.95561	19149.625
1017.67255	19171.825
1021.38692	19069.325
1025.09872	18882.625
1028.80796	18633.725
1032.51465	18530.625
1036.21877	18557.225
1039.92035	18583.525
1043.61937	18623.225
1047.31584	18670.725
1051.00976	18746.425
1054.70114	18764.025
1058.38998	18799.025
1062.07627	18967.225
1065.76003	19059.925
1069.44126	19270.325
1073.11995	19545.725
1076.79611	19826.225
1080.46974	19995.025
1084.14085	20070.325
1087.80943	20169.225
1091.47549	20223.025
1095.13903	20329.725
1098.80005	20204.425
1102.45857	19900.525
1106.11456	19613.025
1109.76805	19420.725
1113.41903	19307.925
1117.06751	19363.825
1120.71348	19428.625
1124.35696	19570.225
1127.99793	19697.525
1131.63641	19841.425
1135.2724	19754.925
1138.90589	19652.825
1142.5369	19570.525
1146.16542	19647.625
1149.79145	19679.725
1153.415	19658.325
1157.03607	19740.025
1160.65467	19957.125
1164.27079	20424.025
1167.88443	21094.225
1171.49561	21834.525
1175.10432	22780.025
1178.71056	23890.225
1182.31434	25051.625
1185.91565	25739.225
1189.51451	25853.425
1193.11091	25639.625
1196.70485	25102.925
1200.29634	24409.525
1203.88538	23806.125
1207.47197	23380.525
1211.05612	22983.225
1214.63782	22632.725
1218.21708	22243.625
1221.79391	21795.425
1225.36829	21496.925
1228.94024	21371.125
1232.50976	21297.825
1236.07685	21170.125
1239.6415	21087.725
1243.20374	21081.925
1246.76355	21143.725
1250.32093	21325.325
1253.8759	21561.025
1257.42845	21995.625
1260.97859	22464.925
1264.52631	22964.125
1268.07163	23388.225
1271.61453	23808.225
1275.15503	24216.125
1278.69312	24548.825
1282.22882	24998.725
1285.76211	25460.525
1289.29301	26089.925
1292.82151	26708.625
1296.34761	27567.225
1299.87133	28467.825
1303.39266	29520.225
1306.9116	30528.825
1310.42815	31353.625
1313.94233	31797.625
1317.45412	31685.825
1320.96354	31198.725
1324.47058	30717.025
1327.97525	30398.725
1331.47754	30113.425
1334.97747	29939.325
1338.47502	29778.425
1341.97022	29776.125
1345.46305	29945.725
1348.95352	30230.425
1352.44163	30517.425
1355.92738	31001.225
1359.41078	31928.525
1362.89183	32751.425
1366.37053	32590.125
1369.84688	30690.325
1373.32088	28079.025
1376.79254	25963.925
1380.26186	24958.525
1383.72883	24615.125
1387.19347	24389.225
1390.65578	24039.725
1394.11575	23734.425
1397.57339	23684.825
1401.0287	23868.625
1404.48168	24014.825
1407.93234	23998.525
1411.38068	23762.225
1414.82669	23376.625
1418.27039	22906.825
1421.71177	22436.125
1425.15083	22068.525
1428.58758	21875.125
1432.02203	21996.625
1435.45416	22295.525
1438.88399	22614.825
1442.31151	22766.425
1445.73673	22878.725
1449.15965	22910.125
1452.58027	22929.625
1455.9986	22878.525
1459.41463	23029.925
1462.82837	23363.925
1466.23982	23725.125
1469.64898	24075.825
1473.05586	24278.225
1476.46045	24384.525
1479.86276	24359.025
1483.26279	24318.025
1486.66054	24314.925
1490.05602	24474.425
1493.44922	24889.125
1496.84016	25407.625
1500.22882	26049.525
1503.61521	26877.825
1506.99934	27749.725
1510.38121	28381.225
1513.76081	28486.525
1517.13816	27971.625
1520.51324	27093.325
1523.88607	26326.925
1527.25665	25848.125
1530.62498	25564.425
1533.99105	25236.325
1537.35488	24834.925
1540.71647	24377.325
1544.07581	23904.825
1547.4329	23499.825
1550.78776	23145.525
1554.14038	22912.625
1557.49077	22831.425
1560.83892	22831.525
1564.18484	22888.325
1567.52853	22954.425
1570.86999	23138.325
1574.20922	23363.925
1577.54624	23568.025
1580.88103	23488.825
1584.2136	23325.225
1587.54395	23568.125
1590.87208	24196.425
1594.19801	25141.025
1597.52172	26077.825
1600.84321	26417.125
1604.16251	25756.825
1607.47959	24396.025
1610.79447	23018.825
1614.10715	21671.225
1617.41763	20534.725
1620.7259	19801.025
1624.03199	19337.225
1627.33587	19296.825
1630.63757	19558.525
1633.93707	20288.725
1637.23439	21554.525
1640.52951	23535.625
1643.82246	25969.825
1647.11321	28047.225
1650.40179	28651.425
1653.68819	27149.225
1656.97241	24345.625
1660.25446	21637.525
1663.53433	19684.625
1666.81203	18392.725
1670.08756	17669.025
1673.36092	17248.525
1676.63211	16950.425
1679.90115	16713.325
1683.16801	16518.225
1686.43272	16396.925
1689.69527	16307.025
1692.95567	16194.025
1696.2139	16125.325
1699.46999	16033.825
1702.72392	15978.025
1705.97571	15976.325
1709.22535	16019.625
1712.47284	16052.025
1715.71819	16013.525
1718.96139	16005.125
1722.20246	15985.825
1725.44139	15916.525
1728.67818	15879.725
1731.91284	15794.425
1735.14537	15706.725
1738.37576	15687.925
1741.60403	15615.525
1744.83017	15523.425
1748.05418	15501.925
1751.27607	15491.825
1754.49584	15425.425
1757.71349	15407.025
1760.92903	15381.525
1764.14244	15373.125
1767.35375	15333.925
1770.56294	15333.225
1773.77002	15327.125
1776.97499	15301.425
1780.17785	15302.925
1783.37861	15300.025
1786.57727	15274.225
1789.77382	15270.725
1792.96828	15266.925
1796.16064	15219.025
1799.3509	15181.225
1802.53907	15166.425
1805.72514	15146.625
1808.90913	15108.625
1812.09102	15076.825
1815.27083	15016.225
1818.44856	15028.625
1821.6242	15032.125
1824.79776	14993.625
1827.96924	14986.525
1831.13864	14968.925
1834.30597	14975.225
1837.47122	14954.625
1840.6344	14968.425
1843.7955	14984.425
1846.95454	15002.525
1850.11151	14973.825
1853.26642	14954.725
1856.41926	14938.225
1859.57004	14941.825
1862.71876	14894.825
1865.86542	14911.525
1869.01003	14895.125
1872.15258	14842.125
1875.29308	14817.325
1878.43152	14790.325
1881.56792	14791.425
1884.70227	14733.025
1887.83457	14681.425
1890.96482	14679.725
1894.09304	14657.825
1897.21921	14639.525
1900.34335	14631.225
1903.46544	14587.825
1906.58551	14607.925
1909.70353	14566.425
1912.81953	14549.525
1915.93349	14506.425
1919.04543	14505.425
1922.15534	14445.825
1925.26322	14415.025
1928.36908	14388.925
1931.47292	14316.725
1934.57473	14329.625
1937.67453	14283.325
1940.77232	14255.025
1943.86808	14212.325
1946.96184	14164.025
1950.05358	14139.325
1953.14331	14091.425
1956.23103	14054.425
1959.31675	14035.925
1962.40046	13998.825
1965.48217	13960.325
1968.56188	13873.925
1971.63959	13844.725
1974.7153	13811.725
1977.78901	13774.425
1980.86073	13735.525
1983.93046	13688.225
1986.99819	13639.325
1990.06394	13591.525
1993.1277	13560.525
1996.18947	13507.425
1999.24925	13484.725
2002.30706	13411.625
2005.36288	13370.425
2008.41672	13364.525
2011.46859	13303.825
2014.51848	13281.425
2017.56639	13226.725
2020.61233	13195.825
2023.6563	13151.225
2026.6983	13120.625
2029.73833	13108.725
2032.7764	13054.925
2035.8125	13034.625
2038.84664	12994.125
2041.87881	13004.725
2044.90903	12963.625
2047.93729	12926.425
2050.96359	12906.325
2053.98794	12877.925
2057.01034	12845.525
2060.03078	12854.925
2063.04927	12853.525
2066.06582	12883.725
2069.08042	12859.725
2072.09307	12853.925
2075.10378	12822.625
2078.11255	12852.525
2081.11938	12853.025
2084.12426	12848.725
2087.12722	12853.625
2090.12824	12824.925
2093.12732	12816.825
2096.12447	12817.525
2099.11969	12787.925
2102.11299	12845.825
2105.10435	12845.625
2108.09379	12802.125
2111.08131	12807.725
2114.0669	12820.225
2117.05057	12820.125
2120.03233	12831.025
2123.01216	12825.825
2125.99008	12842.625
2128.96609	12846.425
2131.94018	12866.425
2134.91236	12832.625
2137.88263	12859.025
2140.851	12841.925
2143.81746	12879.825
2146.78201	12874.925
2149.74466	12879.125
2152.7054	12899.425
2155.66425	12844.125
2158.6212	12891.725
2161.57625	12835.725
2164.52941	12851.825
2167.48067	12830.725
2170.43004	12850.225
2173.37752	12819.925
2176.32311	12819.425
2179.26681	12809.525
2182.20863	12812.225
2185.14856	12821.325
2188.08661	12791.325
2191.02278	12812.025
2193.95707	12806.425
2196.88948	12793.725
2199.82001	12776.825
2202.74867	12761.625
2205.67545	12740.225
2208.60037	12712.725
2211.52341	12704.925
2214.44458	12678.025
2217.36388	12655.325
2220.28132	12621.125
2223.1969	12587.625
2226.11061	12559.325
2229.02246	12568.225
2231.93245	12526.025
2234.84058	12535.525
2237.74686	12498.225
2240.65128	12498.125
2243.55385	12462.025
2246.45456	12465.525
2249.35343	12440.125
2252.25044	12415.825
2255.14561	12373.425
2258.03893	12358.425
2260.93041	12338.925
2263.82004	12317.025
2266.70783	12263.625
2269.59378	12244.825
2272.4779	12238.025
2275.36017	12198.625
2278.24061	12200.525
2281.11922	12182.125
2283.996	12147.925
2286.87094	12120.125
2289.74405	12078.225
2292.61534	12082.525
2295.4848	12083.525
2298.35243	12074.025
2301.21824	12018.225
2304.08223	12020.725
2306.94439	12036.825
2309.80474	12003.625
2312.66327	12005.525
2315.51999	11986.925
2318.37489	11960.125
2321.22797	11963.625
2324.07925	11922.925
2326.92871	11892.725
2329.77637	11902.325
2332.62222	11862.925
2335.46626	11857.225
2338.3085	11817.625
2341.14893	11817.725
2343.98756	11825.625
2346.8244	11811.725
2349.65943	11786.125
2352.49267	11757.025
2355.32411	11775.925
2358.15376	11780.525
2360.98161	11768.325
2363.80768	11744.925
2366.63195	11747.025
2369.45444	11766.625
2372.27514	11750.325
2375.09405	11719.325
2377.91118	11699.225
2380.72652	11649.025
2383.54009	11654.125
2386.35187	11625.225
2389.16188	11583.625
2391.97011	11553.925
2394.77657	11537.925
2397.58125	11507.125
2400.38416	11515.225
2403.18529	11475.025
2405.98466	11457.225
2408.78226	11431.225
2411.57809	11440.225
2414.37216	11431.025
2417.16446	11401.525
2419.955	11375.825
2422.74378	11411.925
2425.5308	11388.525
2428.31606	11356.625
2431.09956	11343.225
2433.88131	11319.625
2436.6613	11322.525
2439.43954	11317.325
2442.21603	11317.025
2444.99077	11309.525
2447.76377	11325.625
2450.53501	11303.725
2453.30451	11297.525
2456.07226	11257.225
2458.83827	11234.025
2461.60254	11242.625
2464.36507	11228.625
2467.12586	11225.125
2469.88492	11230.725
2472.64224	11208.725
2475.39782	11200.925
2478.15167	11190.425
2480.90379	11191.325
2483.65417	11194.725
2486.40283	11167.025
2489.14976	11162.725
2491.89497	11155.325
2494.63845	11152.825
2497.3802	11148.725
2500.12024	11127.825
2502.85855	11111.925
2505.59514	11107.525
2508.33002	11100.125
2511.06318	11092.025
2513.79462	11055.325
2516.52435	11042.825
2519.25237	11056.525
2521.97867	11030.225
2524.70327	11031.225
2527.42616	10994.325
2530.14734	10976.525
2532.86681	10991.025
2535.58458	10966.025
2538.30065	10943.725
2541.01501	10967.225
2543.72768	10949.025
2546.43864	10890.725
2549.14791	10897.125
2551.85548	10857.525
2554.56136	10848.525
2557.26554	10834.025
2559.96803	10815.625
2562.66883	10804.225
2565.36794	10802.125
2568.06536	10789.625
2570.7611	10766.625
2573.45514	10740.025
2576.14751	10717.025
2578.83819	10664.025
2581.52719	10671.625
2584.21451	10679.025
2586.90015	10648.925
2589.58411	10635.925
2592.2664	10621.325
2594.94701	10587.425
2597.62594	10555.025
2600.30321	10564.725
2602.9788	10538.425
2605.65273	10522.725
2608.32498	10496.325
2610.99557	10491.625
2613.66449	10483.125
2616.33175	10472.425
2618.99734	10438.025
2621.66128	10439.125
2624.32355	10413.125
2626.98416	10419.325
2629.64311	10389.625
2632.30041	10398.925
2634.95605	10373.825
2637.61004	10351.325
2640.26238	10331.325
2642.91306	10336.425
2645.56209	10335.725
2648.20948	10322.925
2650.85521	10325.625
2653.4993	10317.925
2656.14175	10321.725
2658.78255	10341.025
2661.42171	10341.125
2664.05923	10336.525
2666.6951	10333.125
2669.32934	10324.525
2671.96194	10319.125
2674.59291	10321.925
2677.22224	10306.825
2679.84993	10319.625
2682.476	10305.325
2685.10043	10309.825
2687.72324	10275.825
2690.34441	10307.425
2692.96396	10292.925
2695.58188	10323.625
2698.19818	10264.225
2700.81285	10299.825
2703.4259	10258.125
2706.03733	10266.225
2708.64714	10261.225
2711.25533	10274.125
2713.86191	10280.325
2716.46687	10294.425
2719.07021	10266.925
2721.67194	10291.525
2724.27206	10286.925
2726.87057	10294.225
2729.46747	10313.325
2732.06276	10271.625
2734.65644	10258.725
2737.24852	10283.625
2739.83899	10258.825
2742.42786	10257.525
2745.01513	10214.825
2747.60079	10212.125
2750.18486	10188.625
2752.76733	10175.025
2755.3482	10168.525
2757.92747	10169.225
2760.50515	10159.625
2763.08123	10146.725
2765.65573	10120.625
2768.22863	10128.025
2770.79994	10117.525
2773.36967	10102.625
2775.9378	10113.925
2778.50435	10095.425
2781.06932	10056.325
2783.6327	10043.825
2786.1945	10045.125
2788.75471	10033.425
2791.31335	10001.925
2793.87041	9992.825
2796.42589	9983.425
2798.97979	9954.325
2801.53212	9934.525
2804.08288	9928.925
2806.63206	9905.225
2809.17967	9893.025
2811.72571	9844.825
2814.27018	9821.325
2816.81308	9807.025
2819.35442	9773.525
2821.89419	9769.525
2824.43239	9782.625
2826.96904	9767.825
2829.50412	9773.125
2832.03763	9724.925
2834.56959	9735.025
2837.1	9731.625
2839.62884	9713.325
2842.15613	9690.125
2844.68186	9730.525
2847.20604	9709.225
2849.72867	9738.525
2852.24974	9699.625
2854.76927	9698.025
2857.28724	9682.325
2859.80367	9656.725
2862.31855	9672.925
2864.83189	9640.625
2867.34368	9607.625
2869.85393	9634.625
2872.36264	9609.725
2874.8698	9571.925
2877.37543	9588.125
2879.87952	9598.325
2882.38207	9580.125
2884.88308	9583.425
2887.38256	9585.925
2889.88051	9563.525
2892.37692	9575.425
2894.8718	9568.925
2897.36515	9594.525
2899.85698	9569.625
2902.34727	9593.625
2904.83604	9590.125
2907.32328	9615.425
2909.809	9578.725
2912.29319	9581.025
2914.77587	9591.525
2917.25702	9573.025
2919.73665	9568.925
2922.21476	9549.325
2924.69136	9549.425
2927.16644	9562.925
2929.64	9554.225
2932.11205	9550.425
2934.58258	9507.825
2937.05161	9503.525
2939.51912	9506.425
2941.98513	9494.525
2944.44962	9473.625
2946.91261	9447.825
2949.37409	9449.225
2951.83407	9448.025
2954.29254	9416.225
2956.74951	9394.325
2959.20498	9419.425
2961.65895	9380.225
2964.11142	9387.725
2966.56239	9360.125
2969.01186	9361.525
2971.45984	9334.825
2973.90632	9327.825
2976.35131	9298.325
2978.7948	9280.825
2981.23681	9266.525
2983.67732	9279.525
2986.11635	9258.525
2988.55388	9216.625
2990.98993	9174.025
2993.4245	9137.425
2995.85758	9136.725
2998.28917	9094.525
3000.71928	9093.025
3003.14791	9083.525
3005.57506	9054.325
3008.00073	9038.825
3010.42493	9038.125
3012.84764	9010.125
3015.26888	9017.625
3017.68865	8991.425
3020.10694	8985.925
3022.52376	8962.025
3024.9391	8952.025
3027.35298	8925.525
3029.76539	8907.125
3032.17632	8919.925
3034.5858	8888.025
3036.9938	8894.925
3039.40034	8869.925
3041.80542	8870.025
3044.20903	8852.525
3046.61118	8831.825
3049.01187	8820.825
3051.4111	8800.625
3053.80888	8777.725
3056.20519	8782.725
3058.60005	8745.025
3060.99345	8738.525
3063.3854	8720.525
3065.7759	8677.125
3068.16494	8686.025
3070.55254	8672.625
3072.93868	8643.125
3075.32338	8632.025
3077.70662	8636.325
3080.08842	8606.725
3082.46878	8583.525
3084.84769	8558.625
3087.22515	8564.025
3089.60118	8538.325
3091.97576	8559.325
3094.3489	8585.425
3096.72061	8560.125
3099.09087	8541.625
3101.4597	8544.525
3103.82709	8543.525
3106.19305	8519.225
3108.55757	8518.425
3110.92066	8508.125
3113.28232	8468.025
3115.64255	8469.625
3118.00134	8458.625
3120.35871	8427.925
3122.71466	8422.825
3125.06917	8426.425
3127.42226	8403.225
3129.77393	8385.725
3132.12417	8373.225
3134.47299	8371.025
3136.82039	8363.925
3139.16636	8374.225
3141.51092	8371.625
3143.85406	8372.025
3146.19579	8390.225
