Data from AgNPs_FTO_APTES_UA_1uM_CRN_500uM_R6G_10uM_NaF_0.1M_Addition_RamanShift__40__18-31-19-911.txt Node

Date: Thu Jan 27 18:31:19 GMT 2022
User: TCL
Spectrometer: QEP01345
Trigger mode: 4
Integration Time (sec): 7.000000E0
Scans to average: 10
Electric dark correction enabled: true
Nonlinearity correction enabled: false
Boxcar width: 0
XAxis mode: Raman Shifts
Number of Pixels in Spectrum: 1044
>>>>>Begin Spectral Data<<<<<
46.04893	2.4875
50.45542	0.3875
54.85868	-0.9125
59.25871	-1.5125
63.6555	0.8875
68.04907	2.0875
72.43941	1.1875
76.82654	2.4875
81.21044	1.3875
85.59113	-1.7125
89.96862	-0.2125
94.34289	-0.4125
98.71396	2.7875
103.08183	-0.6125
107.4465	2.4875
111.80798	1.9875
116.16626	0.7875
120.52136	5.0875
124.87327	3.1875
129.222	-0.3125
133.56755	-0.6125
137.90993	0.0875
142.24913	1.0875
146.58517	1.7875
150.91804	2.0875
155.24774	1.6875
159.57429	3.1875
163.89768	6.7875
168.21792	9.6875
172.53501	14.2875
176.84895	16.2875
181.15975	26.6875
185.46741	36.9875
189.77193	47.6875
194.07331	66.2875
198.37157	86.6875
202.6667	110.9875
206.9587	130.8875
211.24758	143.9875
215.53334	166.0875
219.81599	187.9875
224.09553	205.8875
228.37195	235.5875
232.64527	253.7875
236.91549	287.0875
241.18261	319.5875
245.44663	350.1875
249.70755	383.2875
253.96539	418.2875
258.22014	444.2875
262.4718	460.2875
266.72039	475.2875
270.96589	482.1875
275.20832	480.5875
279.44768	482.4875
283.68397	477.6875
287.91719	471.2875
292.14735	464.1875
296.37445	458.7875
300.59849	451.1875
304.81948	454.7875
309.03742	447.3875
313.25231	450.7875
317.46415	440.3875
321.67296	437.7875
325.87872	434.7875
330.08145	439.5875
334.28114	438.9875
338.47781	448.9875
342.67145	449.1875
346.86207	457.1875
351.04966	464.1875
355.23424	471.7875
359.4158	478.5875
363.59435	483.8875
367.76989	492.1875
371.94243	500.1875
376.11196	499.4875
380.27849	523.0875
384.44203	528.6875
388.60257	543.1875
392.76012	560.1875
396.91468	599.3875
401.06626	634.2875
405.21485	685.8875
409.36047	773.7875
413.50311	907.2875
417.64277	1123.2875
421.77947	1455.7875
425.9132	1836.0875
430.04396	2127.1875
434.17176	2126.5875
438.2966	1849.8875
442.41849	1488.7875
446.53742	1237.3875
450.6534	1120.6875
454.76644	1047.0875
458.87653	948.1875
462.98368	841.2875
467.08789	751.2875
471.18916	722.2875
475.2875	751.7875
479.38291	814.7875
483.4754	906.5875
487.56496	1030.8875
491.6516	1105.0875
495.73531	1108.9875
499.81612	1029.6875
503.89401	926.2875
507.96899	844.4875
512.04106	774.4875
516.11023	733.2875
520.1765	709.8875
524.23987	696.5875
528.30034	693.5875
532.35792	679.6875
536.41261	671.0875
540.46441	664.4875
544.51333	650.0875
548.55936	649.3875
552.60252	640.5875
556.64279	634.3875
560.6802	632.2875
564.71473	623.2875
568.7464	627.0875
572.7752	621.1875
576.80114	624.2875
580.82422	633.4875
584.84444	653.6875
588.86181	689.2875
592.87633	729.9875
596.888	773.5875
600.89682	821.1875
604.9028	833.5875
608.90594	806.3875
612.90624	730.2875
616.90371	652.9875
620.89834	601.6875
624.89015	557.2875
628.87913	529.7875
632.86528	518.9875
636.84862	512.9875
640.82913	516.3875
644.80683	514.9875
648.78172	511.4875
652.75379	505.0875
656.72306	497.9875
660.68952	489.8875
664.65319	484.9875
668.61405	486.5875
672.57211	491.4875
676.52738	513.5875
680.47986	537.8875
684.42955	596.0875
688.37646	687.4875
692.32058	821.8875
696.26192	1051.4875
700.20048	1360.3875
704.13626	1675.4875
708.06928	1821.7875
711.99952	1703.6875
715.927	1431.0875
719.85171	1152.8875
723.77365	967.1875
727.69284	850.8875
731.60928	803.6875
735.52295	773.9875
739.43388	750.1875
743.34206	710.5875
747.24749	653.9875
751.15017	609.0875
755.05012	588.7875
758.94733	570.6875
762.8418	566.6875
766.73354	555.0875
770.62254	547.1875
774.50882	537.1875
778.39237	539.6875
782.27321	545.4875
786.15132	545.5875
790.02671	550.6875
793.89938	555.1875
797.76935	554.6875
801.6366	570.1875
805.50115	576.8875
809.36299	588.7875
813.22213	585.0875
817.07857	591.9875
820.93231	593.3875
824.78336	589.3875
828.63172	585.4875
832.47738	575.2875
836.32036	561.4875
840.16066	563.5875
843.99827	549.6875
847.8332	546.8875
851.66546	541.9875
855.49504	534.9875
859.32195	534.1875
863.1462	527.6875
866.96777	532.6875
870.78668	523.7875
874.60293	525.1875
878.41652	515.5875
882.22745	509.0875
886.03573	521.7875
889.84136	515.5875
893.64433	518.3875
897.44466	516.2875
901.24235	524.0875
905.0374	523.4875
908.8298	523.9875
912.61957	537.4875
916.40671	546.9875
920.19121	524.9875
923.97308	510.1875
927.75233	501.7875
931.52895	489.7875
935.30295	487.9875
939.07433	482.2875
942.84309	480.4875
946.60924	474.8875
950.37278	476.6875
954.13371	465.8875
957.89203	457.8875
961.64774	454.5875
965.40086	455.0875
969.15137	447.8875
972.89929	443.1875
976.64461	437.3875
980.38733	436.2875
984.12747	440.2875
987.86502	434.4875
991.59999	431.7875
995.33237	432.2875
999.06217	421.1875
1002.78939	425.0875
1006.51404	420.6875
1010.23611	414.5875
1013.95561	416.4875
1017.67255	413.2875
1021.38692	418.1875
1025.09872	417.4875
1028.80796	419.9875
1032.51465	422.5875
1036.21877	417.7875
1039.92035	420.9875
1043.61937	425.8875
1047.31584	428.4875
1051.00976	432.1875
1054.70114	434.1875
1058.38998	440.7875
1062.07627	447.9875
1065.76003	457.0875
1069.44126	463.6875
1073.11995	476.9875
1076.79611	488.1875
1080.46974	498.0875
1084.14085	512.0875
1087.80943	527.8875
1091.47549	537.1875
1095.13903	554.5875
1098.80005	566.4875
1102.45857	582.3875
1106.11456	584.9875
1109.76805	590.5875
1113.41903	595.8875
1117.06751	594.9875
1120.71348	584.4875
1124.35696	569.7875
1127.99793	562.7875
1131.63641	548.0875
1135.2724	531.5875
1138.90589	516.1875
1142.5369	500.6875
1146.16542	490.2875
1149.79145	482.4875
1153.415	472.1875
1157.03607	470.3875
1160.65467	466.0875
1164.27079	466.5875
1167.88443	466.3875
1171.49561	467.7875
1175.10432	461.2875
1178.71056	463.2875
1182.31434	461.5875
1185.91565	462.0875
1189.51451	462.6875
1193.11091	467.8875
1196.70485	478.2875
1200.29634	486.8875
1203.88538	496.1875
1207.47197	511.6875
1211.05612	522.2875
1214.63782	547.9875
1218.21708	562.6875
1221.79391	588.4875
1225.36829	622.7875
1228.94024	653.6875
1232.50976	705.3875
1236.07685	787.2875
1239.6415	876.0875
1243.20374	999.2875
1246.76355	1150.6875
1250.32093	1325.2875
1253.8759	1488.3875
1257.42845	1624.7875
1260.97859	1690.3875
1264.52631	1702.5875
1268.07163	1638.5875
1271.61453	1505.9875
1275.15503	1328.2875
1278.69312	1147.3875
1282.22882	989.6875
1285.76211	849.5875
1289.29301	734.0875
1292.82151	649.2875
1296.34761	582.9875
1299.87133	527.6875
1303.39266	485.8875
1306.9116	434.7875
1310.42815	403.7875
1313.94233	372.3875
1317.45412	343.0875
1320.96354	351.1875
1324.47058	557.4875
1327.97525	833.3875
1331.47754	434.6875
1334.97747	288.9875
1338.47502	275.5875
1341.97022	270.0875
1345.46305	271.4875
1348.95352	276.5875
1352.44163	278.6875
1355.92738	280.4875
1359.41078	293.9875
1362.89183	315.2875
1366.37053	341.3875
1369.84688	393.3875
1373.32088	483.0875
1376.79254	640.2875
1380.26186	912.3875
1383.72883	1341.3875
1387.19347	1786.6875
1390.65578	1819.7875
1394.11575	1398.9875
1397.57339	943.4875
1401.0287	641.9875
1404.48168	474.3875
1407.93234	377.0875
1411.38068	308.4875
1414.82669	275.1875
1418.27039	252.7875
1421.71177	236.3875
1425.15083	233.3875
1428.58758	237.2875
1432.02203	247.0875
1435.45416	245.6875
1438.88399	229.8875
1442.31151	244.9875
1445.73673	453.6875
1449.15965	550.8875
1452.58027	249.6875
1455.9986	176.3875
1459.41463	166.1875
1462.82837	162.2875
1466.23982	165.8875
1469.64898	164.0875
1473.05586	163.4875
1476.46045	164.7875
1479.86276	172.0875
1483.26279	166.3875
1486.66054	174.8875
1490.05602	173.1875
1493.44922	179.4875
1496.84016	179.0875
1500.22882	176.9875
1503.61521	180.8875
1506.99934	182.5875
1510.38121	188.0875
1513.76081	191.6875
1517.13816	195.8875
1520.51324	200.0875
1523.88607	198.8875
1527.25665	200.7875
1530.62498	211.5875
1533.99105	212.7875
1537.35488	219.1875
1540.71647	223.0875
1544.07581	226.1875
1547.4329	231.4875
1550.78776	232.8875
1554.14038	242.7875
1557.49077	255.4875
1560.83892	266.5875
1564.18484	267.5875
1567.52853	277.7875
1570.86999	291.4875
1574.20922	301.0875
1577.54624	323.8875
1580.88103	342.7875
1584.2136	368.7875
1587.54395	410.7875
1590.87208	469.4875
1594.19801	560.0875
1597.52172	651.6875
1600.84321	700.7875
1604.16251	680.9875
1607.47959	638.1875
1610.79447	628.1875
1614.10715	653.8875
1617.41763	708.9875
1620.7259	798.6875
1624.03199	910.8875
1627.33587	1053.6875
1630.63757	1238.8875
1633.93707	1452.2875
1637.23439	1692.9875
1640.52951	1969.3875
1643.82246	2294.2875
1647.11321	2659.0875
1650.40179	3102.8875
1653.68819	3722.3875
1656.97241	3951.9875
1660.25446	3954.2875
1663.53433	3872.9875
1666.81203	3637.1875
1670.08756	3159.6875
1673.36092	2598.0875
1676.63211	2108.6875
1679.90115	1777.3875
1683.16801	1712.6875
1686.43272	1758.8875
1689.69527	2126.3875
1692.95567	3082.3875
1696.2139	4663.3875
1699.46999	6268.4875
1702.72392	6468.4875
1705.97571	5052.6875
1709.22535	3327.0875
1712.47284	2125.0875
1715.71819	1446.6875
1718.96139	1092.0875
1722.20246	898.2875
1725.44139	782.1875
1728.67818	739.3875
1731.91284	727.9875
1735.14537	755.3875
1738.37576	836.7875
1741.60403	973.3875
1744.83017	1136.1875
1748.05418	1400.1875
1751.27607	1886.9875
1754.49584	2698.9875
1757.71349	3697.0875
1760.92903	4249.4875
1764.14244	4171.2875
1767.35375	4080.5875
1770.56294	4107.7875
1773.77002	3675.3875
1776.97499	2676.1875
1780.17785	1764.3875
1783.37861	1173.8875
1786.57727	840.2875
1789.77382	644.3875
1792.96828	518.5875
1796.16064	435.7875
1799.3509	369.0875
1802.53907	325.4875
1805.72514	287.7875
1808.90913	269.5875
1812.09102	268.8875
1815.27083	237.5875
1818.44856	208.2875
1821.6242	188.4875
1824.79776	180.3875
1827.96924	179.6875
1831.13864	165.1875
1834.30597	161.5875
1837.47122	158.1875
1840.6344	151.6875
1843.7955	147.8875
1846.95454	148.0875
1850.11151	146.5875
1853.26642	141.1875
1856.41926	137.4875
1859.57004	140.0875
1862.71876	137.7875
1865.86542	132.0875
1869.01003	129.8875
1872.15258	127.9875
1875.29308	121.2875
1878.43152	120.5875
1881.56792	121.7875
1884.70227	116.5875
1887.83457	116.0875
1890.96482	115.0875
1894.09304	118.8875
1897.21921	126.0875
1900.34335	119.9875
1903.46544	120.3875
1906.58551	118.7875
1909.70353	113.4875
1912.81953	112.0875
1915.93349	111.0875
1919.04543	110.0875
1922.15534	110.8875
1925.26322	109.9875
1928.36908	111.1875
1931.47292	110.0875
1934.57473	111.2875
1937.67453	112.4875
1940.77232	112.9875
1943.86808	111.8875
1946.96184	110.5875
1950.05358	111.8875
1953.14331	109.6875
1956.23103	105.0875
1959.31675	107.0875
1962.40046	103.2875
1965.48217	105.1875
1968.56188	97.4875
1971.63959	97.6875
1974.7153	101.2875
1977.78901	96.6875
1980.86073	93.7875
1983.93046	92.2875
1986.99819	90.2875
1990.06394	92.3875
1993.1277	92.4875
1996.18947	92.3875
1999.24925	91.3875
2002.30706	92.3875
2005.36288	94.4875
2008.41672	94.4875
2011.46859	95.7875
2014.51848	89.8875
2017.56639	93.7875
2020.61233	91.5875
2023.6563	89.7875
2026.6983	91.5875
2029.73833	88.3875
2032.7764	90.9875
2035.8125	92.7875
2038.84664	88.2875
2041.87881	87.6875
2044.90903	84.8875
2047.93729	87.0875
2050.96359	113.6875
2053.98794	176.1875
2057.01034	138.7875
2060.03078	110.7875
2063.04927	97.9875
2066.06582	89.6875
2069.08042	91.5875
2072.09307	89.1875
2075.10378	88.3875
2078.11255	83.2875
2081.11938	84.5875
2084.12426	85.1875
2087.12722	82.2875
2090.12824	77.9875
2093.12732	81.7875
2096.12447	80.6875
2099.11969	81.4875
2102.11299	84.7875
2105.10435	84.7875
2108.09379	78.5875
2111.08131	81.8875
2114.0669	81.2875
2117.05057	78.0875
2120.03233	78.2875
2123.01216	74.4875
2125.99008	77.8875
2128.96609	75.2875
2131.94018	77.1875
2134.91236	73.0875
2137.88263	71.4875
2140.851	74.8875
2143.81746	70.5875
2146.78201	68.3875
2149.74466	66.1875
2152.7054	68.8875
2155.66425	69.5875
2158.6212	65.9875
2161.57625	67.2875
2164.52941	67.9875
2167.48067	65.2875
2170.43004	61.1875
2173.37752	65.5875
2176.32311	62.6875
2179.26681	63.8875
2182.20863	59.1875
2185.14856	55.3875
2188.08661	58.5875
2191.02278	58.1875
2193.95707	52.5875
2196.88948	55.9875
2199.82001	55.4875
2202.74867	55.9875
2205.67545	58.4875
2208.60037	54.8875
2211.52341	59.7875
2214.44458	55.9875
2217.36388	55.5875
2220.28132	55.1875
2223.1969	57.3875
2226.11061	55.3875
2229.02246	56.3875
2231.93245	54.1875
2234.84058	57.5875
2237.74686	63.4875
2240.65128	60.9875
2243.55385	58.1875
2246.45456	52.2875
2249.35343	54.4875
2252.25044	57.6875
2255.14561	76.0875
2258.03893	252.3875
2260.93041	617.9875
2263.82004	356.4875
2266.70783	199.4875
2269.59378	137.3875
2272.4779	81.7875
2275.36017	63.5875
2278.24061	55.0875
2281.11922	54.2875
2283.996	51.4875
2286.87094	58.6875
2289.74405	57.2875
2292.61534	54.2875
2295.4848	56.7875
2298.35243	61.6875
2301.21824	64.8875
2304.08223	68.6875
2306.94439	71.9875
2309.80474	75.7875
2312.66327	82.6875
2315.51999	92.4875
2318.37489	98.6875
2321.22797	108.0875
2324.07925	120.5875
2326.92871	130.8875
2329.77637	147.2875
2332.62222	161.3875
2335.46626	168.3875
2338.3085	181.8875
2341.14893	186.6875
2343.98756	179.3875
2346.8244	163.8875
2349.65943	145.5875
2352.49267	129.4875
2355.32411	109.9875
2358.15376	92.2875
2360.98161	82.9875
2363.80768	74.3875
2366.63195	61.8875
2369.45444	57.0875
2372.27514	57.1875
2375.09405	51.5875
2377.91118	48.6875
2380.72652	48.0875
2383.54009	44.2875
2386.35187	48.9875
2389.16188	51.6875
2391.97011	53.2875
2394.77657	54.2875
2397.58125	55.8875
2400.38416	62.0875
2403.18529	70.9875
2405.98466	85.8875
2408.78226	98.5875
2411.57809	111.0875
2414.37216	109.6875
2417.16446	104.8875
2419.955	91.5875
2422.74378	74.0875
2425.5308	64.5875
2428.31606	55.7875
2431.09956	54.2875
2433.88131	45.0875
2436.6613	48.2875
2439.43954	47.2875
2442.21603	40.5875
2444.99077	39.6875
2447.76377	39.2875
2450.53501	35.2875
2453.30451	34.3875
2456.07226	33.1875
2458.83827	30.9875
2461.60254	39.6875
2464.36507	37.7875
2467.12586	42.1875
2469.88492	43.0875
2472.64224	81.1875
2475.39782	335.2875
2478.15167	454.4875
2480.90379	219.9875
2483.65417	150.7875
2486.40283	115.5875
2489.14976	84.7875
2491.89497	105.7875
2494.63845	408.1875
2497.3802	519.6875
2500.12024	241.7875
2502.85855	152.8875
2505.59514	119.2875
2508.33002	81.3875
2511.06318	51.9875
2513.79462	43.3875
2516.52435	41.8875
2519.25237	42.3875
2521.97867	46.8875
2524.70327	43.7875
2527.42616	40.7875
2530.14734	41.0875
2532.86681	37.2875
2535.58458	36.6875
2538.30065	34.9875
2541.01501	34.1875
2543.72768	31.6875
2546.43864	32.6875
2549.14791	28.9875
2551.85548	26.9875
2554.56136	29.5875
2557.26554	28.1875
2559.96803	24.8875
2562.66883	25.5875
2565.36794	25.3875
2568.06536	26.3875
2570.7611	25.6875
2573.45514	24.4875
2576.14751	24.1875
2578.83819	25.5875
2581.52719	27.2875
2584.21451	25.6875
2586.90015	26.4875
2589.58411	25.0875
2592.2664	28.4875
2594.94701	35.5875
2597.62594	32.6875
2600.30321	35.2875
2602.9788	31.4875
2605.65273	28.7875
2608.32498	28.7875
2610.99557	26.3875
2613.66449	22.6875
2616.33175	25.2875
2618.99734	24.9875
2621.66128	39.5875
2624.32355	53.1875
2626.98416	36.6875
2629.64311	29.0875
2632.30041	31.2875
2634.95605	25.0875
2637.61004	25.9875
2640.26238	27.2875
2642.91306	27.2875
2645.56209	59.8875
2648.20948	146.8875
2650.85521	93.7875
2653.4993	59.6875
2656.14175	49.6875
2658.78255	44.3875
2661.42171	37.8875
2664.05923	28.4875
2666.6951	23.3875
2669.32934	27.9875
2671.96194	25.9875
2674.59291	29.3875
2677.22224	22.5875
2679.84993	27.0875
2682.476	24.0875
2685.10043	26.6875
2687.72324	31.1875
2690.34441	28.7875
2692.96396	36.7875
2695.58188	41.3875
2698.19818	54.9875
2700.81285	114.4875
2703.4259	741.6875
2706.03733	2248.1875
2708.64714	1329.2875
2711.25533	670.4875
2713.86191	470.5875
2716.46687	355.2875
2719.07021	233.4875
2721.67194	111.7875
2724.27206	59.1875
2726.87057	47.7875
2729.46747	35.6875
2732.06276	35.6875
2734.65644	29.0875
2737.24852	29.9875
2739.83899	32.0875
2742.42786	30.0875
2745.01513	23.0875
2747.60079	26.2875
2750.18486	24.7875
2752.76733	22.5875
2755.3482	22.1875
2757.92747	27.8875
2760.50515	24.8875
2763.08123	23.1875
2765.65573	26.5875
2768.22863	28.5875
2770.79994	26.8875
2773.36967	16.9875
2775.9378	24.8875
2778.50435	28.5875
2781.06932	23.2875
2783.6327	25.2875
2786.1945	26.3875
2788.75471	26.9875
2791.31335	31.4875
2793.87041	26.6875
2796.42589	31.4875
2798.97979	27.6875
2801.53212	24.7875
2804.08288	28.6875
2806.63206	39.5875
2809.17967	32.1875
2811.72571	30.4875
2814.27018	26.2875
2816.81308	26.6875
2819.35442	27.1875
2821.89419	28.0875
2824.43239	24.0875
2826.96904	27.6875
2829.50412	27.6875
2832.03763	27.7875
2834.56959	29.1875
2837.1	30.1875
2839.62884	24.8875
2842.15613	28.0875
2844.68186	31.5875
2847.20604	33.4875
2849.72867	40.9875
2852.24974	69.8875
2854.76927	351.6875
2857.28724	734.6875
2859.80367	401.4875
2862.31855	250.4875
2864.83189	229.8875
2867.34368	170.9875
2869.85393	132.2875
2872.36264	83.1875
2874.8698	56.4875
2877.37543	45.9875
2879.87952	38.9875
2882.38207	35.9875
2884.88308	36.8875
2887.38256	32.6875
2889.88051	31.6875
2892.37692	29.7875
2894.8718	29.8875
2897.36515	29.1875
2899.85698	27.2875
2902.34727	26.8875
2904.83604	29.0875
2907.32328	25.6875
2909.809	21.8875
2912.29319	20.2875
2914.77587	21.5875
2917.25702	21.2875
2919.73665	20.7875
2922.21476	19.1875
2924.69136	20.4875
2927.16644	19.4875
2929.64	19.4875
2932.11205	21.4875
2934.58258	17.7875
2937.05161	14.8875
2939.51912	18.3875
2941.98513	18.2875
2944.44962	18.8875
2946.91261	13.8875
2949.37409	19.2875
2951.83407	16.0875
2954.29254	14.4875
2956.74951	16.7875
2959.20498	19.0875
2961.65895	15.2875
2964.11142	19.4875
2966.56239	15.7875
2969.01186	15.3875
2971.45984	16.5875
2973.90632	15.7875
2976.35131	16.4875
2978.7948	16.8875
2981.23681	17.9875
2983.67732	20.2875
2986.11635	18.9875
2988.55388	16.1875
2990.98993	15.0875
2993.4245	13.0875
2995.85758	16.0875
2998.28917	17.0875
3000.71928	13.8875
3003.14791	18.0875
3005.57506	16.3875
3008.00073	23.6875
3010.42493	5.8875
3012.84764	15.2875
3015.26888	16.4875
3017.68865	17.7875
3020.10694	15.0875
3022.52376	14.2875
3024.9391	15.2875
3027.35298	12.9875
3029.76539	15.3875
3032.17632	12.6875
3034.5858	13.8875
3036.9938	11.1875
3039.40034	13.1875
3041.80542	16.2875
3044.20903	14.5875
3046.61118	13.2875
3049.01187	12.3875
3051.4111	14.3875
3053.80888	12.3875
3056.20519	14.7875
3058.60005	12.6875
3060.99345	15.0875
3063.3854	15.1875
3065.7759	12.7875
3068.16494	14.4875
3070.55254	21.7875
3072.93868	28.9875
3075.32338	19.3875
3077.70662	18.0875
3080.08842	15.0875
3082.46878	19.7875
3084.84769	19.1875
3087.22515	15.3875
3089.60118	12.2875
3091.97576	11.2875
3094.3489	13.7875
3096.72061	12.2875
3099.09087	13.9875
3101.4597	12.5875
3103.82709	11.8875
3106.19305	13.3875
3108.55757	14.0875
3110.92066	13.1875
3113.28232	9.5875
3115.64255	9.1875
3118.00134	11.8875
3120.35871	8.9875
3122.71466	9.8875
3125.06917	11.5875
3127.42226	10.8875
3129.77393	12.9875
3132.12417	15.0875
3134.47299	9.7875
3136.82039	11.8875
3139.16636	10.5875
3141.51092	12.5875
3143.85406	14.0875
3146.19579	8.8875
3148.53609	13.0875
3150.87499	15.3875
3153.21246	13.9875
3155.54853	12.2875
3157.88318	14.1875
3160.21642	14.5875
3162.54826	14.8875
3164.87868	11.9875
3167.2077	10.8875
3169.5353	13.4875
3171.86151	8.2875
3174.18631	10.7875
3176.5097	13.4875
3178.83169	13.5875
3181.15228	8.8875
3183.47147	12.4875
3185.78926	14.3875
3188.10565	13.9875
3190.42065	14.1875
3192.73424	10.1875
3195.04645	12.9875
3197.35725	9.7875
3199.66667	13.2875
3201.97469	13.6875
3204.28132	15.2875
3206.58656	14.5875
3208.8904	13.2875
3211.19287	17.4875
3213.49394	18.8875
3215.79363	28.2875
3218.09193	53.5875
3220.38884	345.0875
3222.68438	685.9875
3224.97853	361.7875
3227.2713	212.6875
3229.56269	152.5875
3231.8527	128.8875
3234.14133	106.1875
3236.42858	86.6875
3238.71446	60.1875
3240.99896	35.3875
3243.28209	25.2875
3245.56384	16.4875
3247.84423	16.6875
3250.12324	17.8875
3252.40088	15.6875
3254.67715	11.7875
3256.95205	15.9875
3259.22558	13.6875
3261.49775	14.5875
3263.76855	14.9875
3266.03799	11.9875
3268.30606	12.1875
3270.57277	15.4875
3272.83812	13.5875
3275.10211	14.3875
3277.36474	12.2875
