Data from AgNPs_FTO_APTES_UA_1uM_CRN_10uM_R6G_20uM_NaF_0.1M_Addition_RamanShift__23__15-24-39-699.txt Node

Date: Thu Jan 27 15:24:39 GMT 2022
User: TCL
Spectrometer: QEP01345
Trigger mode: 4
Integration Time (sec): 7.000000E0
Scans to average: 10
Electric dark correction enabled: true
Nonlinearity correction enabled: false
Boxcar width: 0
XAxis mode: Raman Shifts
Number of Pixels in Spectrum: 1044
>>>>>Begin Spectral Data<<<<<
46.04893	0.2375
50.45542	0.5375
54.85868	-1.3625
59.25871	-1.0625
63.6555	50.2375
68.04907	51.7375
72.43941	54.0375
76.82654	54.9375
81.21044	58.7375
85.59113	61.3375
89.96862	61.2375
94.34289	60.3375
98.71396	64.2375
103.08183	67.9375
107.4465	73.7375
111.80798	72.3375
116.16626	72.7375
120.52136	77.8375
124.87327	77.9375
129.222	80.9375
133.56755	82.2375
137.90993	85.0375
142.24913	91.2375
146.58517	104.7375
150.91804	120.6375
155.24774	135.9375
159.57429	165.2375
163.89768	210.1375
168.21792	276.3375
172.53501	376.0375
176.84895	508.0375
181.15975	710.4375
185.46741	989.1375
189.77193	1358.8375
194.07331	1821.7375
198.37157	2335.3375
202.6667	2896.6375
206.9587	3434.4375
211.24758	3987.1375
215.53334	4514.1375
219.81599	5092.4375
224.09553	5720.5375
228.37195	6435.4375
232.64527	7216.7375
236.91549	8034.2375
241.18261	8859.0375
245.44663	9582.3375
249.70755	10265.7375
253.96539	10860.4375
258.22014	11367.7375
262.4718	11823.7375
266.72039	12131.7375
270.96589	12331.5375
275.20832	12401.0375
279.44768	12357.5375
283.68397	12286.7375
287.91719	12244.3375
292.14735	12199.3375
296.37445	12240.6375
300.59849	12337.3375
304.81948	12417.9375
309.03742	12429.2375
313.25231	12250.5375
317.46415	11931.2375
321.67296	11481.8375
325.87872	11139.5375
330.08145	10962.8375
334.28114	10961.9375
338.47781	11066.9375
342.67145	11252.4375
346.86207	11457.6375
351.04966	11755.4375
355.23424	12063.6375
359.4158	12334.9375
363.59435	12529.6375
367.76989	12617.6375
371.94243	12700.1375
376.11196	12775.9375
380.27849	12790.7375
384.44203	12879.2375
388.60257	12935.3375
392.76012	13013.5375
396.91468	13159.2375
401.06626	13370.5375
405.21485	13551.2375
409.36047	13485.3375
413.50311	13232.7375
417.64277	13003.5375
421.77947	12970.2375
425.9132	13008.5375
430.04396	13074.6375
434.17176	13167.1375
438.2966	13310.7375
442.41849	13541.3375
446.53742	13839.5375
450.6534	14235.2375
454.76644	14559.2375
458.87653	14690.5375
462.98368	14654.1375
467.08789	14481.5375
471.18916	14328.1375
475.2875	14105.9375
479.38291	13962.6375
483.4754	13881.9375
487.56496	13696.7375
491.6516	13486.4375
495.73531	13308.9375
499.81612	13238.4375
503.89401	13287.8375
507.96899	13326.3375
512.04106	13331.3375
516.11023	13297.8375
520.1765	13228.3375
524.23987	13183.5375
528.30034	13024.6375
532.35792	12880.7375
536.41261	12733.4375
540.46441	12596.2375
544.51333	12610.8375
548.55936	12757.0375
552.60252	12997.6375
556.64279	13275.0375
560.6802	13418.2375
564.71473	13544.8375
568.7464	13744.5375
572.7752	14015.3375
576.80114	14133.2375
580.82422	14199.7375
584.84444	14325.7375
588.86181	14430.2375
592.87633	14622.0375
596.888	14779.2375
600.89682	14914.3375
604.9028	15489.8375
608.90594	16968.8375
612.90624	18752.6375
616.90371	17907.8375
620.89834	14931.6375
624.89015	13514.7375
628.87913	13363.0375
632.86528	13372.3375
636.84862	13329.0375
640.82913	13089.2375
644.80683	12729.1375
648.78172	12491.2375
652.75379	12423.4375
656.72306	12594.4375
660.68952	12855.3375
664.65319	12812.3375
668.61405	12580.1375
672.57211	12460.8375
676.52738	12487.9375
680.47986	12494.7375
684.42955	12463.2375
688.37646	12434.5375
692.32058	12475.7375
696.26192	12547.1375
700.20048	12680.0375
704.13626	12747.7375
708.06928	12707.4375
711.99952	12622.4375
715.927	12579.2375
719.85171	12570.0375
723.77365	12587.9375
727.69284	12474.7375
731.60928	12359.6375
735.52295	12330.7375
739.43388	12398.9375
743.34206	12403.4375
747.24749	12463.3375
751.15017	12603.9375
755.05012	12796.8375
758.94733	13171.1375
762.8418	13882.2375
766.73354	14918.8375
770.62254	16019.7375
774.50882	16389.2375
778.39237	15716.0375
782.27321	14456.2375
786.15132	13391.5375
790.02671	12804.8375
793.89938	12518.3375
797.76935	12422.8375
801.6366	12435.1375
805.50115	12366.2375
809.36299	12311.3375
813.22213	12234.2375
817.07857	12216.2375
820.93231	12191.5375
824.78336	12191.0375
828.63172	12184.0375
832.47738	12209.5375
836.32036	12250.2375
840.16066	12248.2375
843.99827	12290.1375
847.8332	12267.3375
851.66546	12215.4375
855.49504	12162.0375
859.32195	12145.1375
863.1462	12102.9375
866.96777	12062.1375
870.78668	12047.9375
874.60293	12029.9375
878.41652	12011.4375
882.22745	12051.1375
886.03573	12092.6375
889.84136	12109.7375
893.64433	12035.9375
897.44466	12015.2375
901.24235	11965.2375
905.0374	11924.5375
908.8298	11907.1375
912.61957	11924.6375
916.40671	12043.5375
920.19121	12193.2375
923.97308	12340.5375
927.75233	12395.6375
931.52895	12360.2375
935.30295	12248.9375
939.07433	12027.0375
942.84309	11849.1375
946.60924	11785.3375
950.37278	11741.7375
954.13371	11665.7375
957.89203	11608.8375
961.64774	11572.1375
965.40086	11534.5375
969.15137	11490.0375
972.89929	11416.7375
976.64461	11401.1375
980.38733	11387.9375
984.12747	11450.7375
987.86502	11568.3375
991.59999	11712.7375
995.33237	11923.3375
999.06217	12317.2375
1002.78939	12788.8375
1006.51404	13025.6375
1010.23611	13180.8375
1013.95561	13276.7375
1017.67255	13289.0375
1021.38692	13193.5375
1025.09872	13095.1375
1028.80796	13204.5375
1032.51465	13620.7375
1036.21877	14016.5375
1039.92035	13996.8375
1043.61937	13793.4375
1047.31584	13397.7375
1051.00976	12981.4375
1054.70114	12781.7375
1058.38998	12730.2375
1062.07627	12775.0375
1065.76003	12826.8375
1069.44126	12878.1375
1073.11995	12992.5375
1076.79611	13096.6375
1080.46974	13159.9375
1084.14085	13236.4375
1087.80943	13354.7375
1091.47549	13408.7375
1095.13903	13379.6375
1098.80005	13193.3375
1102.45857	12931.6375
1106.11456	12781.2375
1109.76805	12754.6375
1113.41903	12851.2375
1117.06751	12965.5375
1120.71348	13169.9375
1124.35696	13329.3375
1127.99793	13507.5375
1131.63641	13568.0375
1135.2724	13420.3375
1138.90589	13227.1375
1142.5369	13133.2375
1146.16542	13109.6375
1149.79145	13067.8375
1153.415	13180.0375
1157.03607	13315.6375
1160.65467	13554.3375
1164.27079	13990.7375
1167.88443	14623.0375
1171.49561	15495.2375
1175.10432	16695.0375
1178.71056	18241.0375
1182.31434	19622.5375
1185.91565	20378.1375
1189.51451	20456.5375
1193.11091	19838.5375
1196.70485	18898.0375
1200.29634	17999.8375
1203.88538	17308.1375
1207.47197	16729.1375
1211.05612	16273.2375
1214.63782	16001.0375
1218.21708	15841.1375
1221.79391	15810.2375
1225.36829	15850.3375
1228.94024	15785.0375
1232.50976	15562.1375
1236.07685	15431.9375
1239.6415	15324.5375
1243.20374	15294.9375
1246.76355	15363.9375
1250.32093	15519.9375
1253.8759	15854.7375
1257.42845	16272.7375
1260.97859	16691.7375
1264.52631	17045.8375
1268.07163	17428.8375
1271.61453	17865.8375
1275.15503	18380.7375
1278.69312	18932.3375
1282.22882	19380.4375
1285.76211	19800.1375
1289.29301	20202.8375
1292.82151	20744.7375
1296.34761	21480.8375
1299.87133	22493.6375
1303.39266	23797.8375
1306.9116	25392.4375
1310.42815	27069.1375
1313.94233	28205.3375
1317.45412	28205.1375
1320.96354	27551.3375
1324.47058	26768.9375
1327.97525	26037.1375
1331.47754	25522.0375
1334.97747	25395.7375
1338.47502	25509.0375
1341.97022	25710.0375
1345.46305	25650.5375
1348.95352	25324.0375
1352.44163	25051.8375
1355.92738	25298.2375
1359.41078	26382.1375
1362.89183	27650.8375
1366.37053	27318.5375
1369.84688	24979.1375
1373.32088	22343.7375
1376.79254	20469.0375
1380.26186	19637.8375
1383.72883	19431.2375
1387.19347	19331.6375
1390.65578	19204.5375
1394.11575	19205.2375
1397.57339	19423.7375
1401.0287	19870.5375
1404.48168	20319.9375
1407.93234	20602.0375
1411.38068	20652.7375
1414.82669	20292.6375
1418.27039	19628.1375
1421.71177	18853.4375
1425.15083	18178.7375
1428.58758	17747.6375
1432.02203	17691.0375
1435.45416	17848.2375
1438.88399	18147.7375
1442.31151	18447.2375
1445.73673	18685.4375
1449.15965	18996.2375
1452.58027	19170.0375
1455.9986	19234.8375
1459.41463	19321.8375
1462.82837	19530.6375
1466.23982	19860.3375
1469.64898	20172.8375
1473.05586	20388.0375
1476.46045	20432.9375
1479.86276	20384.6375
1483.26279	20315.9375
1486.66054	20266.7375
1490.05602	20368.2375
1493.44922	20576.4375
1496.84016	20788.5375
1500.22882	21101.0375
1503.61521	21662.5375
1506.99934	22448.1375
1510.38121	23298.2375
1513.76081	23768.7375
1517.13816	23424.0375
1520.51324	22373.1375
1523.88607	21305.0375
1527.25665	20488.4375
1530.62498	20021.3375
1533.99105	19782.2375
1537.35488	19600.4375
1540.71647	19486.1375
1544.07581	19259.0375
1547.4329	19021.1375
1550.78776	18848.9375
1554.14038	18689.9375
1557.49077	18699.2375
1560.83892	18704.7375
1564.18484	18730.9375
1567.52853	18705.0375
1570.86999	18711.8375
1574.20922	18825.6375
1577.54624	18963.7375
1580.88103	18908.5375
1584.2136	18873.5375
1587.54395	19240.7375
1590.87208	20060.9375
1594.19801	21204.7375
1597.52172	22502.0375
1600.84321	22985.1375
1604.16251	22216.3375
1607.47959	20678.3375
1610.79447	19028.9375
1614.10715	17475.4375
1617.41763	16265.3375
1620.7259	15383.3375
1624.03199	14914.9375
1627.33587	14896.8375
1630.63757	15265.3375
1633.93707	16102.0375
1637.23439	17290.8375
1640.52951	18843.5375
1643.82246	20479.6375
1647.11321	21749.4375
1650.40179	22046.3375
1653.68819	20911.0375
1656.97241	18644.5375
1660.25446	16272.0375
1663.53433	14499.9375
1666.81203	13359.0375
1670.08756	12630.2375
1673.36092	12182.3375
1676.63211	11941.2375
1679.90115	11682.2375
1683.16801	11519.7375
1686.43272	11411.4375
1689.69527	11330.9375
1692.95567	11214.6375
1696.2139	11155.9375
1699.46999	11099.5375
1702.72392	11024.9375
1705.97571	11048.0375
1709.22535	11060.5375
1712.47284	11096.3375
1715.71819	11090.4375
1718.96139	11095.7375
1722.20246	11051.1375
1725.44139	11050.5375
1728.67818	10960.3375
1731.91284	10916.1375
1735.14537	10878.1375
1738.37576	10828.1375
1741.60403	10786.8375
1744.83017	10752.3375
1748.05418	10708.8375
1751.27607	10708.6375
1754.49584	10672.3375
1757.71349	10632.7375
1760.92903	10624.2375
1764.14244	10596.6375
1767.35375	10604.1375
1770.56294	10594.7375
1773.77002	10558.3375
1776.97499	10589.9375
1780.17785	10616.9375
1783.37861	10614.5375
1786.57727	10620.3375
1789.77382	10579.4375
1792.96828	10581.6375
1796.16064	10581.0375
1799.3509	10554.6375
1802.53907	10579.2375
1805.72514	10536.5375
1808.90913	10506.4375
1812.09102	10472.1375
1815.27083	10489.6375
1818.44856	10455.1375
1821.6242	10442.1375
1824.79776	10436.9375
1827.96924	10423.9375
1831.13864	10427.7375
1834.30597	10418.5375
1837.47122	10416.0375
1840.6344	10430.0375
1843.7955	10422.9375
1846.95454	10421.7375
1850.11151	10439.8375
1853.26642	10410.0375
1856.41926	10450.4375
1859.57004	10473.3375
1862.71876	10442.7375
1865.86542	10456.4375
1869.01003	10454.4375
1872.15258	10452.1375
1875.29308	10444.4375
1878.43152	10450.7375
1881.56792	10404.3375
1884.70227	10417.9375
1887.83457	10430.7375
1890.96482	10451.9375
1894.09304	10446.6375
1897.21921	10432.8375
1900.34335	10442.0375
1903.46544	10462.7375
1906.58551	10450.0375
1909.70353	10437.0375
1912.81953	10441.4375
1915.93349	10437.9375
1919.04543	10392.8375
1922.15534	10394.9375
1925.26322	10382.2375
1928.36908	10349.6375
1931.47292	10339.7375
1934.57473	10298.5375
1937.67453	10253.3375
1940.77232	10216.3375
1943.86808	10177.1375
1946.96184	10160.0375
1950.05358	10111.0375
1953.14331	10078.5375
1956.23103	10045.3375
1959.31675	9985.0375
1962.40046	9984.8375
1965.48217	9939.8375
1968.56188	9945.1375
1971.63959	9893.9375
1974.7153	9864.4375
1977.78901	9834.4375
1980.86073	9799.6375
1983.93046	9785.0375
1986.99819	9751.8375
1990.06394	9705.0375
1993.1277	9675.4375
1996.18947	9663.4375
1999.24925	9617.4375
2002.30706	9590.7375
2005.36288	9584.0375
2008.41672	9539.9375
2011.46859	9546.2375
2014.51848	9522.6375
2017.56639	9503.6375
2020.61233	9481.9375
2023.6563	9468.2375
2026.6983	9438.8375
2029.73833	9409.5375
2032.7764	9411.6375
2035.8125	9380.2375
2038.84664	9350.4375
2041.87881	9375.2375
2044.90903	9354.6375
2047.93729	9337.4375
2050.96359	9323.2375
2053.98794	9313.6375
2057.01034	9298.3375
2060.03078	9299.6375
2063.04927	9297.6375
2066.06582	9291.5375
2069.08042	9280.3375
2072.09307	9286.7375
2075.10378	9279.6375
2078.11255	9257.0375
2081.11938	9267.4375
2084.12426	9247.8375
2087.12722	9244.9375
2090.12824	9229.4375
2093.12732	9241.4375
2096.12447	9237.2375
2099.11969	9225.6375
2102.11299	9241.3375
2105.10435	9259.3375
2108.09379	9272.0375
2111.08131	9269.9375
2114.0669	9276.3375
2117.05057	9267.0375
2120.03233	9263.1375
2123.01216	9281.0375
2125.99008	9269.2375
2128.96609	9273.2375
2131.94018	9273.3375
2134.91236	9297.9375
2137.88263	9299.3375
2140.851	9317.1375
2143.81746	9314.6375
2146.78201	9302.6375
2149.74466	9338.8375
2152.7054	9330.6375
2155.66425	9334.4375
2158.6212	9324.8375
2161.57625	9337.8375
2164.52941	9321.4375
2167.48067	9305.7375
2170.43004	9319.5375
2173.37752	9328.1375
2176.32311	9317.9375
2179.26681	9327.5375
2182.20863	9341.4375
2185.14856	9340.2375
2188.08661	9322.6375
2191.02278	9327.8375
2193.95707	9324.0375
2196.88948	9335.5375
2199.82001	9331.1375
2202.74867	9307.0375
2205.67545	9322.6375
2208.60037	9313.8375
2211.52341	9305.1375
2214.44458	9309.0375
2217.36388	9284.4375
2220.28132	9283.1375
2223.1969	9274.7375
2226.11061	9259.2375
2229.02246	9239.3375
2231.93245	9232.2375
2234.84058	9195.0375
2237.74686	9174.7375
2240.65128	9192.5375
2243.55385	9167.1375
2246.45456	9162.1375
2249.35343	9147.0375
2252.25044	9131.3375
2255.14561	9130.3375
2258.03893	9099.8375
2260.93041	9069.3375
2263.82004	9077.4375
2266.70783	9083.8375
2269.59378	9031.6375
2272.4779	9001.3375
2275.36017	8998.7375
2278.24061	8984.8375
2281.11922	8988.9375
2283.996	8962.4375
2286.87094	8966.6375
2289.74405	8942.1375
2292.61534	8933.1375
2295.4848	8911.4375
2298.35243	8931.8375
2301.21824	8907.9375
2304.08223	8924.1375
2306.94439	8959.2375
2309.80474	8951.3375
2312.66327	8956.2375
2315.51999	8943.7375
2318.37489	8944.7375
2321.22797	8950.6375
2324.07925	8928.8375
2326.92871	8933.7375
2329.77637	8933.1375
2332.62222	8929.9375
2335.46626	8912.7375
2338.3085	8901.1375
2341.14893	8918.5375
2343.98756	8927.8375
2346.8244	8924.0375
2349.65943	8915.3375
2352.49267	8928.6375
2355.32411	8926.9375
2358.15376	8895.5375
2360.98161	8898.6375
2363.80768	8892.6375
2366.63195	8899.4375
2369.45444	8884.3375
2372.27514	8851.5375
2375.09405	8832.3375
2377.91118	8836.6375
2380.72652	8798.5375
2383.54009	8763.5375
2386.35187	8769.0375
2389.16188	8751.3375
2391.97011	8747.1375
2394.77657	8719.0375
2397.58125	8708.3375
2400.38416	8697.9375
2403.18529	8700.3375
2405.98466	8684.2375
2408.78226	8662.9375
2411.57809	8647.5375
2414.37216	8620.9375
2417.16446	8600.2375
2419.955	8604.9375
2422.74378	8596.2375
2425.5308	8591.2375
2428.31606	8585.1375
2431.09956	8571.1375
2433.88131	8576.8375
2436.6613	8583.4375
2439.43954	8601.2375
2442.21603	8576.3375
2444.99077	8557.0375
2447.76377	8566.4375
2450.53501	8550.4375
2453.30451	8531.0375
2456.07226	8552.1375
2458.83827	8536.8375
2461.60254	8547.3375
2464.36507	8554.6375
2467.12586	8543.9375
2469.88492	8522.2375
2472.64224	8564.5375
2475.39782	8574.1375
2478.15167	8540.2375
2480.90379	8539.9375
2483.65417	8559.9375
2486.40283	8570.1375
2489.14976	8588.9375
2491.89497	8579.5375
2494.63845	8604.5375
2497.3802	8597.2375
2500.12024	8583.9375
2502.85855	8578.5375
2505.59514	8588.7375
2508.33002	8565.2375
2511.06318	8574.5375
2513.79462	8548.1375
2516.52435	8555.9375
2519.25237	8563.0375
2521.97867	8530.9375
2524.70327	8536.0375
2527.42616	8522.4375
2530.14734	8494.7375
2532.86681	8513.3375
2535.58458	8515.7375
2538.30065	8502.6375
2541.01501	8487.3375
2543.72768	8500.0375
2546.43864	8483.6375
2549.14791	8465.1375
2551.85548	8492.1375
2554.56136	8464.2375
2557.26554	8457.6375
2559.96803	8442.2375
2562.66883	8445.5375
2565.36794	8440.1375
2568.06536	8425.1375
2570.7611	8439.1375
2573.45514	8419.7375
2576.14751	8404.2375
2578.83819	8409.1375
2581.52719	8412.7375
2584.21451	8416.8375
2586.90015	8423.3375
2589.58411	8396.7375
2592.2664	8417.7375
2594.94701	8398.7375
2597.62594	8373.2375
2600.30321	8379.5375
2602.9788	8385.6375
2605.65273	8405.7375
2608.32498	8387.0375
2610.99557	8386.5375
2613.66449	8392.6375
2616.33175	8396.6375
2618.99734	8407.9375
2621.66128	8406.9375
2624.32355	8395.4375
2626.98416	8404.5375
2629.64311	8401.4375
2632.30041	8404.7375
2634.95605	8395.3375
2637.61004	8401.6375
2640.26238	8373.1375
2642.91306	8350.8375
2645.56209	8357.1375
2648.20948	8348.2375
2650.85521	8330.7375
2653.4993	8351.9375
2656.14175	8355.9375
2658.78255	8360.6375
2661.42171	8376.7375
2664.05923	8371.3375
2666.6951	8383.1375
2669.32934	8378.9375
2671.96194	8376.3375
2674.59291	8394.9375
2677.22224	8374.7375
2679.84993	8373.9375
2682.476	8373.9375
2685.10043	8381.0375
2687.72324	8354.9375
2690.34441	8350.6375
2692.96396	8352.0375
2695.58188	8366.7375
2698.19818	8341.1375
2700.81285	8348.5375
2703.4259	8337.7375
2706.03733	8341.8375
2708.64714	8328.4375
2711.25533	8336.4375
2713.86191	8353.3375
2716.46687	8376.3375
2719.07021	8380.4375
2721.67194	8379.0375
2724.27206	8386.2375
2726.87057	8390.3375
2729.46747	8405.2375
2732.06276	8378.2375
2734.65644	8388.9375
2737.24852	8388.3375
2739.83899	8390.8375
2742.42786	8401.3375
2745.01513	8380.2375
2747.60079	8368.1375
2750.18486	8383.5375
2752.76733	8375.4375
2755.3482	8369.5375
2757.92747	8370.2375
2760.50515	8371.1375
2763.08123	8372.5375
2765.65573	8352.6375
2768.22863	8358.1375
2770.79994	8358.0375
2773.36967	8349.0375
2775.9378	8361.0375
2778.50435	8345.2375
2781.06932	8332.6375
2783.6327	8335.5375
2786.1945	8335.2375
2788.75471	8332.1375
2791.31335	8321.0375
2793.87041	8314.9375
2796.42589	8295.0375
2798.97979	8300.2375
2801.53212	8281.5375
2804.08288	8269.7375
2806.63206	8241.6375
2809.17967	8227.3375
2811.72571	8221.4375
2814.27018	8203.3375
2816.81308	8204.0375
2819.35442	8186.2375
2821.89419	8201.4375
2824.43239	8215.0375
2826.96904	8191.8375
2829.50412	8194.2375
2832.03763	8176.1375
2834.56959	8183.3375
2837.1	8180.1375
2839.62884	8177.6375
2842.15613	8162.2375
2844.68186	8172.2375
2847.20604	8186.2375
2849.72867	8183.0375
2852.24974	8174.6375
2854.76927	8174.4375
2857.28724	8156.0375
2859.80367	8120.3375
2862.31855	8143.3375
2864.83189	8141.9375
2867.34368	8111.2375
2869.85393	8136.8375
2872.36264	8119.8375
2874.8698	8104.7375
2877.37543	8124.5375
2879.87952	8144.9375
2882.38207	8116.7375
2884.88308	8103.7375
2887.38256	8126.7375
2889.88051	8122.4375
2892.37692	8143.2375
2894.8718	8133.8375
2897.36515	8146.2375
2899.85698	8132.9375
2902.34727	8147.6375
2904.83604	8141.7375
2907.32328	8159.2375
2909.809	8176.9375
2912.29319	8179.5375
2914.77587	8180.9375
2917.25702	8172.0375
2919.73665	8160.8375
2922.21476	8178.6375
2924.69136	8158.4375
2927.16644	8160.6375
2929.64	8143.5375
2932.11205	8144.1375
2934.58258	8126.7375
2937.05161	8114.9375
2939.51912	8140.5375
2941.98513	8106.6375
2944.44962	8090.3375
2946.91261	8066.0375
2949.37409	8086.4375
2951.83407	8083.3375
2954.29254	8062.6375
2956.74951	8074.0375
2959.20498	8051.5375
2961.65895	8029.9375
2964.11142	8041.8375
2966.56239	8024.5375
2969.01186	8012.9375
2971.45984	7986.3375
2973.90632	7989.0375
2976.35131	7978.0375
2978.7948	7964.9375
2981.23681	7949.9375
2983.67732	7947.7375
2986.11635	7937.2375
2988.55388	7900.7375
2990.98993	7878.9375
2993.4245	7881.5375
2995.85758	7852.9375
2998.28917	7831.6375
3000.71928	7839.2375
3003.14791	7812.2375
3005.57506	7802.5375
3008.00073	7787.5375
3010.42493	7791.6375
3012.84764	7801.9375
3015.26888	7788.1375
3017.68865	7758.5375
3020.10694	7760.4375
3022.52376	7744.6375
3024.9391	7718.1375
3027.35298	7722.7375
3029.76539	7737.8375
3032.17632	7708.8375
3034.5858	7696.2375
3036.9938	7693.7375
3039.40034	7689.8375
3041.80542	7710.8375
3044.20903	7684.6375
3046.61118	7681.1375
3049.01187	7671.8375
3051.4111	7659.4375
3053.80888	7664.0375
3056.20519	7637.8375
3058.60005	7620.1375
3060.99345	7580.8375
3063.3854	7588.8375
3065.7759	7547.6375
3068.16494	7544.8375
3070.55254	7514.8375
