Data from AgNPs_FTO_APTES_UA_1uM_CRN_10uM_R6G_50uM_NaF_0.1M_Addition_RamanShift__21__16-05-29-745.txt Node

Date: Thu Jan 27 16:05:29 GMT 2022
User: TCL
Spectrometer: QEP01345
Trigger mode: 4
Integration Time (sec): 7.000000E0
Scans to average: 10
Electric dark correction enabled: true
Nonlinearity correction enabled: false
Boxcar width: 0
XAxis mode: Raman Shifts
Number of Pixels in Spectrum: 1044
>>>>>Begin Spectral Data<<<<<
46.04893	1.5875
50.45542	-0.6125
54.85868	-1.1125
59.25871	-1.0125
63.6555	46.1875
68.04907	45.6875
72.43941	48.2875
76.82654	55.2875
81.21044	54.2875
85.59113	56.3875
89.96862	56.2875
94.34289	58.4875
98.71396	63.2875
103.08183	62.3875
107.4465	67.8875
111.80798	71.8875
116.16626	71.0875
120.52136	74.7875
124.87327	73.9875
129.222	75.4875
133.56755	78.3875
137.90993	86.1875
142.24913	90.0875
146.58517	102.3875
150.91804	115.2875
155.24774	135.0875
159.57429	159.8875
163.89768	202.1875
168.21792	267.4875
172.53501	360.4875
176.84895	493.7875
181.15975	691.9875
185.46741	958.5875
189.77193	1326.7875
194.07331	1773.2875
198.37157	2287.2875
202.6667	2826.9875
206.9587	3355.6875
211.24758	3876.4875
215.53334	4394.6875
219.81599	4936.2875
224.09553	5553.5875
228.37195	6232.5875
232.64527	6953.5875
236.91549	7782.8875
241.18261	8555.8875
245.44663	9301.5875
249.70755	9984.5875
253.96539	10571.5875
258.22014	11082.5875
262.4718	11516.3875
266.72039	11848.6875
270.96589	12009.6875
275.20832	12087.2875
279.44768	12070.5875
283.68397	11999.1875
287.91719	11925.8875
292.14735	11911.4875
296.37445	11926.3875
300.59849	11976.7875
304.81948	12011.6875
309.03742	11939.4875
313.25231	11750.9875
317.46415	11448.1875
321.67296	11121.5875
325.87872	10861.7875
330.08145	10737.0875
334.28114	10740.0875
338.47781	10825.9875
342.67145	10947.6875
346.86207	11141.2875
351.04966	11367.6875
355.23424	11592.2875
359.4158	11791.7875
363.59435	11942.4875
367.76989	12045.7875
371.94243	12147.7875
376.11196	12220.1875
380.27849	12291.1875
384.44203	12350.7875
388.60257	12427.5875
392.76012	12536.5875
396.91468	12703.7875
401.06626	12871.0875
405.21485	13023.2875
409.36047	13000.6875
413.50311	12831.7875
417.64277	12649.0875
421.77947	12652.8875
425.9132	12719.2875
430.04396	12765.9875
434.17176	12874.1875
438.2966	13027.2875
442.41849	13246.0875
446.53742	13527.8875
450.6534	13907.6875
454.76644	14219.8875
458.87653	14338.9875
462.98368	14320.1875
467.08789	14216.0875
471.18916	14022.2875
475.2875	13891.2875
479.38291	13865.4875
483.4754	13725.1875
487.56496	13594.7875
491.6516	13345.1875
495.73531	13165.4875
499.81612	13078.1875
503.89401	13130.0875
507.96899	13157.6875
512.04106	13136.2875
516.11023	13051.7875
520.1765	12973.0875
524.23987	12883.9875
528.30034	12752.4875
532.35792	12658.0875
536.41261	12528.9875
540.46441	12443.7875
544.51333	12467.0875
548.55936	12590.4875
552.60252	12831.9875
556.64279	13093.4875
560.6802	13243.9875
564.71473	13330.3875
568.7464	13520.2875
572.7752	13745.6875
576.80114	13900.0875
580.82422	14054.1875
584.84444	14194.5875
588.86181	14324.2875
592.87633	14530.9875
596.888	14718.0875
600.89682	14850.4875
604.9028	15217.8875
608.90594	16244.3875
612.90624	17404.2875
616.90371	16537.2875
620.89834	14223.5875
624.89015	13191.3875
628.87913	13141.1875
632.86528	13223.8875
636.84862	13163.5875
640.82913	12981.7875
644.80683	12633.8875
648.78172	12392.6875
652.75379	12308.7875
656.72306	12374.8875
660.68952	12577.4875
664.65319	12543.3875
668.61405	12373.1875
672.57211	12312.6875
676.52738	12331.8875
680.47986	12319.7875
684.42955	12287.6875
688.37646	12273.9875
692.32058	12301.2875
696.26192	12375.5875
700.20048	12506.2875
704.13626	12548.1875
708.06928	12555.5875
711.99952	12461.2875
715.927	12409.6875
719.85171	12423.3875
723.77365	12426.8875
727.69284	12331.8875
731.60928	12244.2875
735.52295	12217.4875
739.43388	12224.7875
743.34206	12254.0875
747.24749	12320.2875
751.15017	12436.5875
755.05012	12619.8875
758.94733	12960.1875
762.8418	13525.6875
766.73354	14416.1875
770.62254	15288.2875
774.50882	15488.6875
778.39237	14861.9875
782.27321	13833.1875
786.15132	13011.7875
790.02671	12526.9875
793.89938	12300.2875
797.76935	12261.4875
801.6366	12230.7875
805.50115	12212.2875
809.36299	12142.5875
813.22213	12080.4875
817.07857	12058.8875
820.93231	12037.1875
824.78336	12055.4875
828.63172	12032.3875
832.47738	12015.2875
836.32036	12040.7875
840.16066	12095.1875
843.99827	12098.0875
847.8332	12111.3875
851.66546	12023.1875
855.49504	12009.7875
859.32195	11984.5875
863.1462	11970.2875
866.96777	11910.0875
870.78668	11894.4875
874.60293	11876.6875
878.41652	11881.7875
882.22745	11918.0875
886.03573	11941.1875
889.84136	11953.9875
893.64433	11919.5875
897.44466	11857.3875
901.24235	11839.5875
905.0374	11787.4875
908.8298	11764.7875
912.61957	11806.2875
916.40671	11880.5875
920.19121	12043.2875
923.97308	12173.2875
927.75233	12184.6875
931.52895	12156.1875
935.30295	12036.9875
939.07433	11880.5875
942.84309	11721.2875
946.60924	11652.3875
950.37278	11587.3875
954.13371	11536.5875
957.89203	11484.8875
961.64774	11474.7875
965.40086	11436.3875
969.15137	11386.4875
972.89929	11338.9875
976.64461	11301.0875
980.38733	11272.5875
984.12747	11345.5875
987.86502	11423.1875
991.59999	11570.5875
995.33237	11789.8875
999.06217	12119.3875
1002.78939	12517.3875
1006.51404	12705.8875
1010.23611	12807.4875
1013.95561	12908.0875
1017.67255	12913.3875
1021.38692	12853.0875
1025.09872	12744.3875
1028.80796	12847.3875
1032.51465	13205.9875
1036.21877	13540.8875
1039.92035	13590.1875
1043.61937	13387.5875
1047.31584	13039.5875
1051.00976	12708.6875
1054.70114	12527.5875
1058.38998	12497.2875
1062.07627	12586.8875
1065.76003	12633.2875
1069.44126	12713.1875
1073.11995	12813.6875
1076.79611	12890.1875
1080.46974	12938.4875
1084.14085	12951.7875
1087.80943	13077.8875
1091.47549	13126.1875
1095.13903	13116.4875
1098.80005	12978.4875
1102.45857	12764.1875
1106.11456	12626.9875
1109.76805	12568.0875
1113.41903	12667.4875
1117.06751	12775.1875
1120.71348	12904.8875
1124.35696	13025.1875
1127.99793	13141.1875
1131.63641	13202.9875
1135.2724	13115.5875
1138.90589	12992.5875
1142.5369	12917.2875
1146.16542	12898.6875
1149.79145	12920.6875
1153.415	13048.3875
1157.03607	13202.3875
1160.65467	13443.7875
1164.27079	13900.0875
1167.88443	14491.0875
1171.49561	15338.4875
1175.10432	16341.2875
1178.71056	17670.1875
1182.31434	18903.4875
1185.91565	19588.5875
1189.51451	19678.6875
1193.11091	19214.5875
1196.70485	18484.6875
1200.29634	17706.6875
1203.88538	17097.5875
1207.47197	16635.5875
1211.05612	16271.2875
1214.63782	15974.4875
1218.21708	15790.8875
1221.79391	15675.3875
1225.36829	15644.4875
1228.94024	15539.6875
1232.50976	15309.8875
1236.07685	15125.5875
1239.6415	15005.7875
1243.20374	15010.3875
1246.76355	15043.0875
1250.32093	15219.5875
1253.8759	15518.0875
1257.42845	15915.2875
1260.97859	16279.7875
1264.52631	16575.3875
1268.07163	16916.0875
1271.61453	17354.2875
1275.15503	17840.8875
1278.69312	18371.9875
1282.22882	18869.0875
1285.76211	19265.5875
1289.29301	19722.9875
1292.82151	20309.4875
1296.34761	21104.7875
1299.87133	22140.3875
1303.39266	23363.8875
1306.9116	24777.4875
1310.42815	26143.9875
1313.94233	27016.2875
1317.45412	27037.9875
1320.96354	26657.2875
1324.47058	26075.1875
1327.97525	25530.1875
1331.47754	25177.3875
1334.97747	25023.5875
1338.47502	25129.2875
1341.97022	25305.1875
1345.46305	25156.4875
1348.95352	24820.2875
1352.44163	24363.4875
1355.92738	24290.8875
1359.41078	24965.9875
1362.89183	25716.0875
1366.37053	25323.7875
1369.84688	23453.6875
1373.32088	21312.8875
1376.79254	19766.6875
1380.26186	19114.0875
1383.72883	19016.7875
1387.19347	19113.6875
1390.65578	19047.5875
1394.11575	19107.5875
1397.57339	19403.5875
1401.0287	19881.2875
1404.48168	20283.0875
1407.93234	20486.6875
1411.38068	20400.3875
1414.82669	19940.7875
1418.27039	19197.8875
1421.71177	18381.3875
1425.15083	17669.3875
1428.58758	17242.8875
1432.02203	17144.9875
1435.45416	17369.3875
1438.88399	17788.3875
1442.31151	18110.2875
1445.73673	18437.3875
1449.15965	18744.3875
1452.58027	19004.3875
1455.9986	19157.9875
1459.41463	19274.0875
1462.82837	19478.1875
1466.23982	19791.6875
1469.64898	20053.0875
1473.05586	20236.7875
1476.46045	20199.8875
1479.86276	20113.9875
1483.26279	19935.7875
1486.66054	19790.5875
1490.05602	19752.6875
1493.44922	19876.1875
1496.84016	19905.5875
1500.22882	20050.0875
1503.61521	20412.0875
1506.99934	20969.4875
1510.38121	21577.8875
1513.76081	21842.7875
1517.13816	21578.2875
1520.51324	20865.4875
1523.88607	20178.5875
1527.25665	19731.4875
1530.62498	19520.3875
1533.99105	19432.2875
1537.35488	19334.2875
1540.71647	19212.5875
1544.07581	18992.3875
1547.4329	18745.1875
1550.78776	18442.7875
1554.14038	18296.7875
1557.49077	18228.0875
1560.83892	18204.3875
1564.18484	18184.9875
1567.52853	18129.7875
1570.86999	18160.0875
1574.20922	18313.4875
1577.54624	18497.8875
1580.88103	18545.2875
1584.2136	18645.0875
1587.54395	19064.9875
1590.87208	19849.0875
1594.19801	20900.3875
1597.52172	22046.6875
1600.84321	22477.4875
1604.16251	21817.6875
1607.47959	20380.8875
1610.79447	18804.1875
1614.10715	17332.6875
1617.41763	16115.3875
1620.7259	15257.8875
1624.03199	14762.0875
1627.33587	14704.5875
1630.63757	15050.9875
1633.93707	15825.0875
1637.23439	16980.3875
1640.52951	18524.6875
1643.82246	20212.4875
1647.11321	21488.6875
1650.40179	21692.1875
1653.68819	20572.8875
1656.97241	18412.8875
1660.25446	16163.7875
1663.53433	14423.5875
1666.81203	13331.3875
1670.08756	12582.7875
1673.36092	12139.0875
1676.63211	11864.9875
1679.90115	11620.8875
1683.16801	11456.2875
1686.43272	11321.5875
1689.69527	11247.0875
1692.95567	11147.0875
1696.2139	11087.3875
1699.46999	11037.6875
1702.72392	10965.5875
1705.97571	10980.9875
1709.22535	10968.5875
1712.47284	11031.7875
1715.71819	10991.1875
1718.96139	10984.1875
1722.20246	10949.7875
1725.44139	10900.3875
1728.67818	10880.4875
1731.91284	10825.9875
1735.14537	10758.6875
1738.37576	10724.9875
1741.60403	10709.2875
1744.83017	10662.2875
1748.05418	10635.4875
1751.27607	10630.3875
1754.49584	10590.0875
1757.71349	10582.5875
1760.92903	10559.7875
1764.14244	10525.2875
1767.35375	10537.0875
1770.56294	10520.6875
1773.77002	10484.1875
1776.97499	10511.9875
1780.17785	10507.6875
1783.37861	10501.3875
1786.57727	10504.5875
1789.77382	10502.6875
1792.96828	10494.7875
1796.16064	10476.7875
1799.3509	10475.8875
1802.53907	10461.9875
1805.72514	10419.3875
1808.90913	10406.3875
1812.09102	10399.4875
1815.27083	10359.5875
1818.44856	10367.0875
1821.6242	10337.1875
1824.79776	10321.3875
1827.96924	10312.7875
1831.13864	10310.4875
1834.30597	10315.7875
1837.47122	10303.9875
1840.6344	10322.9875
1843.7955	10307.8875
1846.95454	10309.1875
1850.11151	10312.4875
1853.26642	10305.1875
1856.41926	10293.3875
1859.57004	10331.3875
1862.71876	10336.7875
1865.86542	10309.7875
1869.01003	10292.2875
1872.15258	10332.5875
1875.29308	10269.2875
1878.43152	10291.1875
1881.56792	10300.0875
1884.70227	10260.4875
1887.83457	10280.7875
1890.96482	10292.5875
1894.09304	10263.6875
1897.21921	10245.5875
1900.34335	10256.1875
1903.46544	10246.6875
1906.58551	10241.1875
1909.70353	10243.5875
1912.81953	10223.5875
1915.93349	10233.0875
1919.04543	10188.2875
1922.15534	10199.8875
1925.26322	10185.7875
1928.36908	10163.4875
1931.47292	10141.5875
1934.57473	10112.7875
1937.67453	10087.9875
1940.77232	10070.8875
1943.86808	10041.4875
1946.96184	10014.7875
1950.05358	9971.8875
1953.14331	9925.4875
1956.23103	9903.5875
1959.31675	9884.2875
1962.40046	9866.5875
1965.48217	9816.4875
1968.56188	9802.3875
1971.63959	9757.1875
1974.7153	9756.2875
1977.78901	9723.2875
1980.86073	9704.6875
1983.93046	9652.4875
1986.99819	9631.3875
1990.06394	9598.4875
1993.1277	9596.2875
1996.18947	9545.7875
1999.24925	9522.4875
2002.30706	9493.3875
2005.36288	9464.0875
2008.41672	9469.8875
2011.46859	9422.9875
2014.51848	9392.2875
2017.56639	9380.0875
2020.61233	9369.0875
2023.6563	9343.5875
2026.6983	9338.7875
2029.73833	9299.8875
2032.7764	9295.9875
2035.8125	9274.1875
2038.84664	9256.1875
2041.87881	9240.7875
2044.90903	9235.5875
2047.93729	9214.7875
2050.96359	9225.7875
2053.98794	9212.8875
2057.01034	9204.6875
2060.03078	9211.9875
2063.04927	9217.8875
2066.06582	9199.1875
2069.08042	9173.9875
2072.09307	9175.7875
2075.10378	9179.0875
2078.11255	9158.1875
2081.11938	9172.4875
2084.12426	9161.7875
2087.12722	9140.0875
2090.12824	9152.2875
2093.12732	9138.6875
2096.12447	9159.4875
2099.11969	9147.9875
2102.11299	9116.1875
2105.10435	9146.1875
2108.09379	9146.4875
2111.08131	9162.2875
2114.0669	9153.1875
2117.05057	9179.9875
2120.03233	9171.2875
2123.01216	9185.5875
2125.99008	9189.1875
2128.96609	9217.1875
2131.94018	9235.8875
2134.91236	9203.4875
2137.88263	9239.8875
2140.851	9236.8875
2143.81746	9239.9875
2146.78201	9243.6875
2149.74466	9245.6875
2152.7054	9245.0875
2155.66425	9226.5875
2158.6212	9242.9875
2161.57625	9231.9875
2164.52941	9240.0875
2167.48067	9231.2875
2170.43004	9227.9875
2173.37752	9243.0875
2176.32311	9228.6875
2179.26681	9255.5875
2182.20863	9248.9875
2185.14856	9241.0875
2188.08661	9231.1875
2191.02278	9253.1875
2193.95707	9255.3875
2196.88948	9232.4875
2199.82001	9245.6875
2202.74867	9224.8875
2205.67545	9265.6875
2208.60037	9233.1875
2211.52341	9247.4875
2214.44458	9225.8875
2217.36388	9194.1875
2220.28132	9187.7875
2223.1969	9169.1875
2226.11061	9185.3875
2229.02246	9142.3875
2231.93245	9144.1875
2234.84058	9133.5875
2237.74686	9109.1875
2240.65128	9095.1875
2243.55385	9072.9875
2246.45456	9057.7875
2249.35343	9053.9875
2252.25044	9043.8875
2255.14561	9022.9875
2258.03893	9017.9875
2260.93041	9013.7875
2263.82004	8990.7875
2266.70783	8976.2875
2269.59378	8935.8875
2272.4779	8917.9875
2275.36017	8905.5875
2278.24061	8884.2875
2281.11922	8895.5875
2283.996	8878.9875
2286.87094	8848.0875
2289.74405	8858.8875
2292.61534	8864.8875
2295.4848	8843.1875
2298.35243	8841.3875
2301.21824	8866.1875
2304.08223	8851.8875
2306.94439	8871.1875
2309.80474	8847.4875
2312.66327	8871.6875
2315.51999	8872.0875
2318.37489	8854.7875
2321.22797	8846.0875
2324.07925	8860.8875
2326.92871	8839.7875
2329.77637	8838.3875
2332.62222	8836.6875
2335.46626	8802.8875
2338.3085	8823.1875
2341.14893	8825.1875
2343.98756	8832.0875
2346.8244	8837.0875
2349.65943	8807.4875
2352.49267	8833.1875
2355.32411	8837.0875
2358.15376	8804.1875
2360.98161	8801.0875
2363.80768	8795.2875
2366.63195	8794.4875
2369.45444	8775.7875
2372.27514	8753.1875
2375.09405	8742.5875
2377.91118	8741.4875
2380.72652	8700.4875
2383.54009	8681.6875
2386.35187	8679.9875
2389.16188	8665.1875
2391.97011	8642.5875
2394.77657	8633.8875
2397.58125	8610.3875
2400.38416	8618.6875
2403.18529	8598.5875
2405.98466	8578.9875
2408.78226	8563.6875
2411.57809	8578.1875
2414.37216	8544.6875
2417.16446	8535.2875
2419.955	8522.6875
2422.74378	8521.9875
2425.5308	8520.5875
2428.31606	8526.0875
2431.09956	8518.2875
2433.88131	8474.6875
2436.6613	8503.9875
2439.43954	8496.1875
2442.21603	8506.0875
2444.99077	8477.4875
2447.76377	8487.3875
2450.53501	8495.9875
2453.30451	8489.1875
2456.07226	8473.4875
2458.83827	8445.0875
2461.60254	8454.7875
2464.36507	8472.3875
2467.12586	8452.2875
2469.88492	8456.0875
2472.64224	8455.0875
2475.39782	8469.9875
2478.15167	8464.5875
2480.90379	8450.3875
2483.65417	8481.7875
2486.40283	8476.7875
2489.14976	8502.8875
2491.89497	8490.8875
2494.63845	8489.2875
2497.3802	8501.1875
2500.12024	8490.9875
2502.85855	8452.3875
2505.59514	8465.6875
2508.33002	8492.0875
2511.06318	8467.1875
2513.79462	8466.3875
2516.52435	8442.4875
2519.25237	8451.2875
2521.97867	8421.2875
2524.70327	8435.2875
2527.42616	8441.5875
2530.14734	8423.3875
2532.86681	8421.1875
2535.58458	8412.0875
2538.30065	8403.6875
2541.01501	8414.8875
2543.72768	8388.2875
2546.43864	8384.5875
2549.14791	8392.6875
2551.85548	8402.3875
2554.56136	8367.5875
2557.26554	8349.9875
2559.96803	8349.5875
2562.66883	8351.8875
2565.36794	8333.7875
2568.06536	8337.8875
2570.7611	8328.7875
2573.45514	8333.9875
2576.14751	8304.0875
2578.83819	8316.9875
2581.52719	8295.6875
2584.21451	8295.8875
2586.90015	8299.7875
2589.58411	8289.5875
2592.2664	8301.0875
2594.94701	8310.1875
2597.62594	8293.1875
2600.30321	8269.5875
2602.9788	8287.3875
2605.65273	8261.9875
2608.32498	8287.5875
2610.99557	8274.6875
2613.66449	8281.1875
2616.33175	8249.0875
2618.99734	8291.8875
2621.66128	8301.3875
2624.32355	8277.7875
2626.98416	8282.5875
2629.64311	8293.9875
2632.30041	8296.8875
2634.95605	8286.4875
2637.61004	8277.3875
2640.26238	8262.7875
2642.91306	8246.6875
2645.56209	8243.0875
2648.20948	8231.7875
2650.85521	8226.4875
2653.4993	8223.7875
2656.14175	8240.3875
2658.78255	8233.6875
2661.42171	8231.3875
2664.05923	8257.0875
2666.6951	8279.5875
2669.32934	8278.4875
2671.96194	8241.8875
2674.59291	8265.3875
2677.22224	8239.3875
2679.84993	8261.4875
2682.476	8248.8875
2685.10043	8242.7875
2687.72324	8222.1875
2690.34441	8224.9875
2692.96396	8228.1875
2695.58188	8247.4875
2698.19818	8244.0875
2700.81285	8228.1875
2703.4259	8233.3875
2706.03733	8247.6875
2708.64714	8213.2875
2711.25533	8239.9875
2713.86191	8243.2875
2716.46687	8258.6875
2719.07021	8263.6875
2721.67194	8283.5875
2724.27206	8280.7875
2726.87057	8294.0875
2729.46747	8294.2875
2732.06276	8293.9875
2734.65644	8267.6875
2737.24852	8291.1875
2739.83899	8248.1875
2742.42786	8271.1875
2745.01513	8262.4875
2747.60079	8263.6875
2750.18486	8266.3875
2752.76733	8250.5875
2755.3482	8269.4875
2757.92747	8271.4875
2760.50515	8260.4875
2763.08123	8244.6875
2765.65573	8250.7875
2768.22863	8246.5875
2770.79994	8252.8875
2773.36967	8242.5875
2775.9378	8253.6875
2778.50435	8249.8875
2781.06932	8247.5875
2783.6327	8238.0875
2786.1945	8239.8875
2788.75471	8234.0875
2791.31335	8220.7875
2793.87041	8180.3875
2796.42589	8205.2875
2798.97979	8188.1875
2801.53212	8188.4875
2804.08288	8160.7875
2806.63206	8152.0875
2809.17967	8136.5875
2811.72571	8145.8875
2814.27018	8130.9875
2816.81308	8094.7875
2819.35442	8098.6875
2821.89419	8082.2875
2824.43239	8102.5875
2826.96904	8064.8875
2829.50412	8078.3875
2832.03763	8079.0875
2834.56959	8090.5875
2837.1	8081.1875
2839.62884	8058.3875
2842.15613	8044.6875
2844.68186	8085.8875
2847.20604	8087.9875
2849.72867	8089.8875
2852.24974	8075.2875
2854.76927	8079.7875
2857.28724	8066.3875
2859.80367	8049.5875
2862.31855	8036.6875
2864.83189	8062.9875
2867.34368	8013.7875
2869.85393	8007.9875
2872.36264	8018.2875
2874.8698	8032.2875
2877.37543	8028.7875
2879.87952	8017.3875
2882.38207	8023.0875
2884.88308	8001.9875
2887.38256	8015.7875
2889.88051	8042.2875
2892.37692	8037.4875
2894.8718	8038.2875
2897.36515	8022.0875
2899.85698	8037.3875
2902.34727	8069.1875
2904.83604	8087.1875
2907.32328	8102.2875
2909.809	8085.6875
2912.29319	8088.3875
2914.77587	8111.2875
2917.25702	8092.3875
2919.73665	8070.4875
2922.21476	8051.9875
2924.69136	8076.9875
2927.16644	8059.3875
2929.64	8051.5875
2932.11205	8054.8875
2934.58258	8029.0875
2937.05161	8047.5875
2939.51912	8038.3875
2941.98513	8036.8875
2944.44962	8018.5875
2946.91261	7972.9875
2949.37409	8004.1875
2951.83407	7992.5875
2954.29254	8000.4875
2956.74951	7980.5875
2959.20498	7985.9875
2961.65895	7965.6875
2964.11142	7987.4875
2966.56239	7953.7875
2969.01186	7960.9875
2971.45984	7937.2875
2973.90632	7905.3875
2976.35131	7897.9875
2978.7948	7893.5875
2981.23681	7881.2875
2983.67732	7877.7875
2986.11635	7850.5875
2988.55388	7847.0875
2990.98993	7822.3875
2993.4245	7830.3875
2995.85758	7820.3875
2998.28917	7809.0875
3000.71928	7750.4875
3003.14791	7765.5875
3005.57506	7743.7875
3008.00073	7745.6875
3010.42493	7727.5875
3012.84764	7708.9875
3015.26888	7711.5875
3017.68865	7708.6875
3020.10694	7669.1875
3022.52376	7685.4875
3024.9391	7654.8875
3027.35298	7661.3875
3029.76539	7655.7875
3032.17632	7644.3875
3034.5858	7638.5875
3036.9938	7659.1875
3039.40034	7646.8875
3041.80542	7649.3875
3044.20903	7629.4875
3046.61118	7626.3875
3049.01187	7603.6875
3051.4111	7639.4875
3053.80888	7597.1875
3056.20519	7596.3875
3058.60005	7583.3875
3060.99345	7565.3875
3063.3854	7536.9875
3065.7759	7521.9875
3068.16494	7531.9875
3070.55254	7498.6875
