Data from AgNPs_FTO_APTES_UA_1uM_CRN_100uM_R6G_10uM_NaF_0.1M_Addition_RamanShift__24__16-48-39-794.txt Node

Date: Thu Jan 27 16:48:39 GMT 2022
User: TCL
Spectrometer: QEP01345
Trigger mode: 4
Integration Time (sec): 7.000000E0
Scans to average: 10
Electric dark correction enabled: true
Nonlinearity correction enabled: false
Boxcar width: 0
XAxis mode: Raman Shifts
Number of Pixels in Spectrum: 1044
>>>>>Begin Spectral Data<<<<<
46.04893	0.5125
50.45542	0.8125
54.85868	-1.0875
59.25871	-1.2875
63.6555	45.1125
68.04907	51.8125
72.43941	50.5125
76.82654	56.4125
81.21044	55.4125
85.59113	60.5125
89.96862	63.1125
94.34289	62.3125
98.71396	65.5125
103.08183	64.4125
107.4465	70.8125
111.80798	71.3125
116.16626	72.1125
120.52136	79.3125
124.87327	77.4125
129.222	77.9125
133.56755	81.5125
137.90993	82.7125
142.24913	93.2125
146.58517	106.1125
150.91804	121.2125
155.24774	135.9125
159.57429	167.5125
163.89768	212.3125
168.21792	276.4125
172.53501	373.4125
176.84895	513.7125
181.15975	713.9125
185.46741	999.2125
189.77193	1394.1125
194.07331	1854.0125
198.37157	2385.6125
202.6667	2948.6125
206.9587	3513.7125
211.24758	4063.6125
215.53334	4596.3125
219.81599	5204.6125
224.09553	5846.4125
228.37195	6566.3125
232.64527	7343.5125
236.91549	8175.6125
241.18261	9013.3125
245.44663	9784.4125
249.70755	10448.5125
253.96539	11091.8125
258.22014	11599.0125
262.4718	12046.5125
266.72039	12380.4125
270.96589	12584.9125
275.20832	12645.3125
279.44768	12641.9125
283.68397	12526.6125
287.91719	12461.9125
292.14735	12439.9125
296.37445	12497.1125
300.59849	12602.4125
304.81948	12656.8125
309.03742	12630.0125
313.25231	12449.6125
317.46415	12116.6125
321.67296	11667.1125
325.87872	11351.5125
330.08145	11192.4125
334.28114	11207.7125
338.47781	11283.6125
342.67145	11468.1125
346.86207	11699.3125
351.04966	11982.8125
355.23424	12280.2125
359.4158	12566.4125
363.59435	12747.6125
367.76989	12854.5125
371.94243	12937.2125
376.11196	13024.5125
380.27849	13067.2125
384.44203	13136.6125
388.60257	13161.4125
392.76012	13263.3125
396.91468	13397.4125
401.06626	13588.5125
405.21485	13762.7125
409.36047	13722.3125
413.50311	13463.3125
417.64277	13261.9125
421.77947	13200.4125
425.9132	13227.4125
430.04396	13317.8125
434.17176	13391.1125
438.2966	13537.8125
442.41849	13778.4125
446.53742	14077.0125
450.6534	14486.3125
454.76644	14788.7125
458.87653	14899.5125
462.98368	14877.8125
467.08789	14728.4125
471.18916	14578.5125
475.2875	14445.7125
479.38291	14377.7125
483.4754	14277.6125
487.56496	14143.3125
491.6516	13867.9125
495.73531	13715.3125
499.81612	13631.3125
503.89401	13656.5125
507.96899	13710.2125
512.04106	13701.6125
516.11023	13654.4125
520.1765	13629.8125
524.23987	13587.1125
528.30034	13434.6125
532.35792	13297.6125
536.41261	13155.9125
540.46441	13079.8125
544.51333	13069.3125
548.55936	13164.8125
552.60252	13453.2125
556.64279	13715.2125
560.6802	13879.2125
564.71473	14014.0125
568.7464	14194.7125
572.7752	14428.5125
576.80114	14547.1125
580.82422	14592.6125
584.84444	14659.0125
588.86181	14746.2125
592.87633	14939.0125
596.888	15109.2125
600.89682	15233.9125
604.9028	15708.1125
608.90594	17068.0125
612.90624	18768.1125
616.90371	18016.4125
620.89834	15149.9125
624.89015	13891.6125
628.87913	13727.6125
632.86528	13797.7125
636.84862	13767.8125
640.82913	13636.0125
644.80683	13289.4125
648.78172	13049.2125
652.75379	12955.3125
656.72306	13089.2125
660.68952	13338.7125
664.65319	13339.3125
668.61405	13130.6125
672.57211	13013.8125
676.52738	13046.0125
680.47986	13039.0125
684.42955	12991.5125
688.37646	12986.2125
692.32058	13016.4125
696.26192	13099.4125
700.20048	13221.8125
704.13626	13260.7125
708.06928	13241.3125
711.99952	13163.5125
715.927	13144.8125
719.85171	13143.9125
723.77365	13127.0125
727.69284	13067.6125
731.60928	12986.5125
735.52295	12949.6125
739.43388	12968.3125
743.34206	13014.2125
747.24749	13075.0125
751.15017	13161.1125
755.05012	13356.1125
758.94733	13697.1125
762.8418	14349.1125
766.73354	15345.9125
770.62254	16355.8125
774.50882	16752.8125
778.39237	16125.2125
782.27321	14908.7125
786.15132	13898.4125
790.02671	13340.9125
793.89938	13069.8125
797.76935	12962.0125
801.6366	12936.1125
805.50115	12894.8125
809.36299	12857.8125
813.22213	12805.5125
817.07857	12807.9125
820.93231	12815.4125
824.78336	12792.5125
828.63172	12775.5125
832.47738	12789.3125
836.32036	12790.4125
840.16066	12833.9125
843.99827	12849.4125
847.8332	12808.9125
851.66546	12764.7125
855.49504	12752.7125
859.32195	12745.2125
863.1462	12714.9125
866.96777	12694.1125
870.78668	12634.8125
874.60293	12641.5125
878.41652	12626.1125
882.22745	12684.3125
886.03573	12678.5125
889.84136	12666.1125
893.64433	12654.4125
897.44466	12635.9125
901.24235	12604.7125
905.0374	12538.7125
908.8298	12517.0125
912.61957	12542.6125
916.40671	12644.5125
920.19121	12762.7125
923.97308	12863.9125
927.75233	12902.6125
931.52895	12920.7125
935.30295	12794.0125
939.07433	12595.3125
942.84309	12461.4125
946.60924	12349.1125
950.37278	12289.7125
954.13371	12234.8125
957.89203	12200.9125
961.64774	12190.7125
965.40086	12144.0125
969.15137	12082.1125
972.89929	12032.7125
976.64461	11987.1125
980.38733	11986.8125
984.12747	12023.3125
987.86502	12111.1125
991.59999	12225.4125
995.33237	12412.0125
999.06217	12690.7125
1002.78939	13028.4125
1006.51404	13243.4125
1010.23611	13367.3125
1013.95561	13446.4125
1017.67255	13483.5125
1021.38692	13387.6125
1025.09872	13324.3125
1028.80796	13346.1125
1032.51465	13592.8125
1036.21877	13857.8125
1039.92035	13904.0125
1043.61937	13747.8125
1047.31584	13492.3125
1051.00976	13252.3125
1054.70114	13126.9125
1058.38998	13110.0125
1062.07627	13173.9125
1065.76003	13263.0125
1069.44126	13326.8125
1073.11995	13404.6125
1076.79611	13473.6125
1080.46974	13518.1125
1084.14085	13592.5125
1087.80943	13720.4125
1091.47549	13781.6125
1095.13903	13766.3125
1098.80005	13593.5125
1102.45857	13391.8125
1106.11456	13211.2125
1109.76805	13215.6125
1113.41903	13309.5125
1117.06751	13473.7125
1120.71348	13619.7125
1124.35696	13794.2125
1127.99793	13991.8125
1131.63641	14023.1125
1135.2724	13862.5125
1138.90589	13661.7125
1142.5369	13529.1125
1146.16542	13507.6125
1149.79145	13501.1125
1153.415	13605.6125
1157.03607	13752.4125
1160.65467	13975.7125
1164.27079	14406.9125
1167.88443	14988.6125
1171.49561	15740.2125
1175.10432	16803.0125
1178.71056	18125.4125
1182.31434	19325.7125
1185.91565	19983.6125
1189.51451	19925.3125
1193.11091	19440.2125
1196.70485	18717.7125
1200.29634	18011.2125
1203.88538	17400.4125
1207.47197	16939.4125
1211.05612	16499.6125
1214.63782	16189.7125
1218.21708	16010.2125
1221.79391	15869.1125
1225.36829	15830.9125
1228.94024	15718.9125
1232.50976	15586.5125
1236.07685	15430.2125
1239.6415	15348.5125
1243.20374	15327.9125
1246.76355	15412.6125
1250.32093	15578.8125
1253.8759	15873.8125
1257.42845	16230.1125
1260.97859	16574.6125
1264.52631	16860.9125
1268.07163	17166.6125
1271.61453	17536.3125
1275.15503	17951.2125
1278.69312	18412.2125
1282.22882	18758.9125
1285.76211	19153.4125
1289.29301	19622.7125
1292.82151	20203.3125
1296.34761	21016.5125
1299.87133	21985.3125
1303.39266	23177.5125
1306.9116	24577.1125
1310.42815	26053.3125
1313.94233	27010.3125
1317.45412	27088.6125
1320.96354	26509.9125
1324.47058	25835.6125
1327.97525	25228.0125
1331.47754	24757.3125
1334.97747	24639.0125
1338.47502	24772.6125
1341.97022	24925.0125
1345.46305	24956.7125
1348.95352	24648.2125
1352.44163	24371.3125
1355.92738	24584.9125
1359.41078	25541.8125
1362.89183	26607.9125
1366.37053	26289.7125
1369.84688	24186.4125
1373.32088	21720.3125
1376.79254	20042.0125
1380.26186	19318.4125
1383.72883	19171.0125
1387.19347	19195.0125
1390.65578	19154.8125
1394.11575	19165.7125
1397.57339	19430.3125
1401.0287	19861.5125
1404.48168	20274.9125
1407.93234	20522.3125
1411.38068	20474.4125
1414.82669	20101.7125
1418.27039	19382.6125
1421.71177	18622.1125
1425.15083	17946.1125
1428.58758	17485.8125
1432.02203	17423.3125
1435.45416	17572.6125
1438.88399	17853.9125
1442.31151	18143.5125
1445.73673	18420.5125
1449.15965	18679.0125
1452.58027	18936.2125
1455.9986	19068.0125
1459.41463	19171.0125
1462.82837	19350.4125
1466.23982	19631.6125
1469.64898	19928.6125
1473.05586	20035.9125
1476.46045	20055.1125
1479.86276	20013.2125
1483.26279	19858.1125
1486.66054	19800.1125
1490.05602	19794.4125
1493.44922	19957.3125
1496.84016	20114.6125
1500.22882	20397.8125
1503.61521	20957.3125
1506.99934	21809.3125
1510.38121	22710.1125
1513.76081	23201.7125
1517.13816	22874.9125
1520.51324	21859.6125
1523.88607	20758.9125
1527.25665	20064.5125
1530.62498	19695.0125
1533.99105	19466.5125
1537.35488	19368.4125
1540.71647	19234.0125
1544.07581	19063.2125
1547.4329	18849.8125
1550.78776	18631.5125
1554.14038	18475.2125
1557.49077	18449.4125
1560.83892	18490.7125
1564.18484	18532.8125
1567.52853	18556.1125
1570.86999	18638.3125
1574.20922	18763.8125
1577.54624	18915.2125
1580.88103	18898.0125
1584.2136	18839.8125
1587.54395	19116.5125
1590.87208	19844.6125
1594.19801	20808.2125
1597.52172	21916.8125
1600.84321	22315.6125
1604.16251	21698.7125
1607.47959	20361.9125
1610.79447	18867.6125
1614.10715	17476.8125
1617.41763	16334.8125
1620.7259	15512.5125
1624.03199	15074.9125
1627.33587	15023.1125
1630.63757	15326.1125
1633.93707	16021.2125
1637.23439	17055.6125
1640.52951	18495.0125
1643.82246	20071.6125
1647.11321	21383.7125
1650.40179	21846.6125
1653.68819	20975.6125
1656.97241	18901.7125
1660.25446	16676.5125
1663.53433	14948.6125
1666.81203	13832.8125
1670.08756	13136.5125
1673.36092	12694.8125
1676.63211	12443.5125
1679.90115	12212.5125
1683.16801	12059.0125
1686.43272	11909.6125
1689.69527	11804.6125
1692.95567	11746.1125
1696.2139	11688.9125
1699.46999	11611.8125
1702.72392	11568.3125
1705.97571	11558.7125
1709.22535	11578.6125
1712.47284	11608.2125
1715.71819	11637.2125
1718.96139	11614.3125
1722.20246	11594.0125
1725.44139	11575.2125
1728.67818	11519.6125
1731.91284	11436.3125
1735.14537	11393.7125
1738.37576	11373.1125
1741.60403	11323.5125
1744.83017	11319.3125
1748.05418	11283.3125
1751.27607	11265.0125
1754.49584	11222.6125
1757.71349	11213.9125
1760.92903	11172.2125
1764.14244	11166.4125
1767.35375	11147.6125
1770.56294	11127.7125
1773.77002	11130.1125
1776.97499	11156.3125
1780.17785	11160.2125
1783.37861	11140.1125
1786.57727	11142.2125
1789.77382	11123.7125
1792.96828	11111.5125
1796.16064	11093.8125
1799.3509	11093.2125
1802.53907	11067.0125
1805.72514	11068.9125
1808.90913	11040.3125
1812.09102	11032.2125
1815.27083	11014.2125
1818.44856	10991.4125
1821.6242	10950.6125
1824.79776	10944.0125
1827.96924	10952.2125
1831.13864	10941.9125
1834.30597	10928.2125
1837.47122	10945.5125
1840.6344	10933.6125
1843.7955	10932.4125
1846.95454	10918.2125
1850.11151	10904.3125
1853.26642	10932.4125
1856.41926	10925.7125
1859.57004	10942.4125
1862.71876	10926.4125
1865.86542	10938.9125
1869.01003	10949.0125
1872.15258	10934.6125
1875.29308	10940.6125
1878.43152	10943.1125
1881.56792	10919.2125
1884.70227	10892.5125
1887.83457	10915.6125
1890.96482	10906.3125
1894.09304	10891.5125
1897.21921	10914.6125
1900.34335	10903.2125
1903.46544	10881.3125
1906.58551	10887.2125
1909.70353	10871.8125
1912.81953	10884.9125
1915.93349	10860.2125
1919.04543	10848.5125
1922.15534	10829.7125
1925.26322	10820.5125
1928.36908	10797.8125
1931.47292	10778.4125
1934.57473	10747.8125
1937.67453	10734.7125
1940.77232	10682.2125
1943.86808	10637.2125
1946.96184	10612.8125
1950.05358	10577.0125
1953.14331	10556.0125
1956.23103	10525.3125
1959.31675	10503.9125
1962.40046	10480.6125
1965.48217	10451.1125
1968.56188	10396.4125
1971.63959	10382.9125
1974.7153	10361.4125
1977.78901	10326.3125
1980.86073	10302.7125
1983.93046	10270.3125
1986.99819	10233.2125
1990.06394	10217.7125
1993.1277	10187.9125
1996.18947	10123.3125
1999.24925	10144.2125
2002.30706	10115.4125
2005.36288	10084.2125
2008.41672	10065.1125
2011.46859	10043.5125
2014.51848	9998.6125
2017.56639	9957.2125
2020.61233	9949.7125
2023.6563	9936.4125
2026.6983	9913.8125
2029.73833	9924.6125
2032.7764	9878.2125
2035.8125	9882.8125
2038.84664	9853.3125
2041.87881	9829.2125
2044.90903	9829.3125
2047.93729	9794.4125
2050.96359	9787.0125
2053.98794	9792.9125
2057.01034	9785.6125
2060.03078	9782.7125
2063.04927	9788.7125
2066.06582	9756.5125
2069.08042	9748.1125
2072.09307	9768.4125
2075.10378	9747.4125
2078.11255	9725.6125
2081.11938	9749.4125
2084.12426	9741.3125
2087.12722	9751.0125
2090.12824	9713.2125
2093.12732	9705.6125
2096.12447	9703.7125
2099.11969	9712.1125
2102.11299	9722.0125
2105.10435	9727.9125
2108.09379	9721.9125
2111.08131	9749.6125
2114.0669	9755.9125
2117.05057	9761.5125
2120.03233	9768.8125
2123.01216	9766.3125
2125.99008	9785.1125
2128.96609	9781.7125
2131.94018	9780.9125
2134.91236	9804.8125
2137.88263	9811.5125
2140.851	9800.2125
2143.81746	9839.6125
2146.78201	9818.5125
2149.74466	9852.4125
2152.7054	9836.2125
2155.66425	9815.1125
2158.6212	9823.6125
2161.57625	9821.0125
2164.52941	9804.3125
2167.48067	9819.9125
2170.43004	9808.5125
2173.37752	9824.6125
2176.32311	9816.9125
2179.26681	9817.0125
2182.20863	9820.0125
2185.14856	9829.3125
2188.08661	9814.5125
2191.02278	9855.9125
2193.95707	9819.7125
2196.88948	9830.7125
2199.82001	9817.6125
2202.74867	9813.9125
2205.67545	9817.2125
2208.60037	9811.4125
2211.52341	9782.6125
2214.44458	9771.1125
2217.36388	9770.2125
2220.28132	9796.1125
2223.1969	9751.0125
2226.11061	9734.2125
2229.02246	9709.8125
2231.93245	9689.8125
2234.84058	9696.1125
2237.74686	9666.5125
2240.65128	9663.9125
2243.55385	9627.1125
2246.45456	9623.0125
2249.35343	9614.5125
2252.25044	9594.0125
2255.14561	9579.2125
2258.03893	9604.2125
2260.93041	9549.8125
2263.82004	9522.1125
2266.70783	9524.3125
2269.59378	9505.5125
2272.4779	9480.9125
2275.36017	9460.0125
2278.24061	9479.8125
2281.11922	9442.9125
2283.996	9432.9125
2286.87094	9419.9125
2289.74405	9400.7125
2292.61534	9400.9125
2295.4848	9392.2125
2298.35243	9409.0125
2301.21824	9410.9125
2304.08223	9388.1125
2306.94439	9394.5125
2309.80474	9415.8125
2312.66327	9428.7125
2315.51999	9388.2125
2318.37489	9409.3125
2321.22797	9364.1125
2324.07925	9374.1125
2326.92871	9353.7125
2329.77637	9357.6125
2332.62222	9333.2125
2335.46626	9350.3125
2338.3085	9334.6125
2341.14893	9318.6125
2343.98756	9337.0125
2346.8244	9340.3125
2349.65943	9330.7125
2352.49267	9341.4125
2355.32411	9340.2125
2358.15376	9342.1125
2360.98161	9324.2125
2363.80768	9326.6125
2366.63195	9326.0125
2369.45444	9288.9125
2372.27514	9290.9125
2375.09405	9271.1125
2377.91118	9268.9125
2380.72652	9219.9125
2383.54009	9212.1125
2386.35187	9196.8125
2389.16188	9183.7125
2391.97011	9158.6125
2394.77657	9139.0125
2397.58125	9117.1125
2400.38416	9109.2125
2403.18529	9117.6125
2405.98466	9111.9125
2408.78226	9095.2125
2411.57809	9080.7125
2414.37216	9059.4125
2417.16446	9048.1125
2419.955	9026.9125
2422.74378	9036.0125
2425.5308	9027.5125
2428.31606	9032.9125
2431.09956	9015.8125
2433.88131	9025.1125
2436.6613	9006.2125
2439.43954	9030.2125
2442.21603	9004.9125
2444.99077	8987.1125
2447.76377	9008.6125
2450.53501	8977.9125
2453.30451	9002.2125
2456.07226	8977.9125
2458.83827	8964.1125
2461.60254	8969.7125
2464.36507	8968.2125
2467.12586	8949.3125
2469.88492	8939.9125
2472.64224	8945.9125
2475.39782	8954.8125
2478.15167	8952.9125
2480.90379	8957.6125
2483.65417	8983.4125
2486.40283	8984.8125
2489.14976	9004.2125
2491.89497	8960.8125
2494.63845	8970.3125
2497.3802	8955.8125
2500.12024	8980.0125
2502.85855	8963.6125
2505.59514	8981.4125
2508.33002	8957.0125
2511.06318	8967.5125
2513.79462	8950.8125
2516.52435	8915.6125
2519.25237	8951.2125
2521.97867	8923.7125
2524.70327	8921.3125
2527.42616	8905.6125
2530.14734	8915.7125
2532.86681	8885.8125
2535.58458	8888.6125
2538.30065	8856.8125
2541.01501	8869.7125
2543.72768	8836.9125
2546.43864	8848.8125
2549.14791	8829.2125
2551.85548	8826.7125
2554.56136	8821.8125
2557.26554	8802.9125
2559.96803	8808.6125
2562.66883	8796.1125
2565.36794	8792.2125
2568.06536	8810.1125
2570.7611	8783.0125
2573.45514	8765.1125
2576.14751	8758.5125
2578.83819	8769.0125
2581.52719	8784.0125
2584.21451	8751.7125
2586.90015	8756.1125
2589.58411	8739.2125
2592.2664	8748.0125
2594.94701	8720.0125
2597.62594	8725.0125
2600.30321	8722.8125
2602.9788	8712.1125
2605.65273	8695.8125
2608.32498	8735.3125
2610.99557	8683.0125
2613.66449	8715.7125
2616.33175	8698.3125
2618.99734	8692.7125
2621.66128	8712.8125
2624.32355	8697.6125
2626.98416	8711.3125
2629.64311	8711.3125
2632.30041	8705.1125
2634.95605	8681.3125
2637.61004	8687.2125
2640.26238	8650.9125
2642.91306	8676.9125
2645.56209	8655.9125
2648.20948	8648.6125
2650.85521	8627.8125
2653.4993	8607.5125
2656.14175	8652.9125
2658.78255	8655.4125
2661.42171	8634.1125
2664.05923	8674.7125
2666.6951	8674.4125
2669.32934	8680.0125
2671.96194	8656.8125
2674.59291	8674.4125
2677.22224	8659.1125
2679.84993	8653.6125
2682.476	8655.9125
2685.10043	8646.5125
2687.72324	8654.5125
2690.34441	8640.1125
2692.96396	8633.1125
2695.58188	8637.2125
2698.19818	8667.8125
2700.81285	8655.0125
2703.4259	8633.8125
2706.03733	8610.1125
2708.64714	8639.5125
2711.25533	8651.4125
2713.86191	8653.5125
2716.46687	8652.3125
2719.07021	8665.6125
2721.67194	8672.4125
2724.27206	8673.8125
2726.87057	8675.8125
2729.46747	8688.7125
2732.06276	8685.6125
2734.65644	8699.9125
2737.24852	8706.2125
2739.83899	8661.7125
2742.42786	8693.2125
2745.01513	8652.1125
2747.60079	8664.3125
2750.18486	8659.3125
2752.76733	8666.6125
2755.3482	8670.7125
2757.92747	8644.2125
2760.50515	8661.4125
2763.08123	8646.2125
2765.65573	8635.5125
2768.22863	8651.7125
2770.79994	8634.9125
2773.36967	8638.3125
2775.9378	8633.3125
2778.50435	8638.9125
2781.06932	8612.4125
2783.6327	8616.1125
2786.1945	8600.1125
2788.75471	8620.5125
2791.31335	8608.0125
2793.87041	8591.5125
2796.42589	8561.1125
2798.97979	8563.5125
2801.53212	8552.1125
2804.08288	8546.2125
2806.63206	8539.0125
2809.17967	8526.1125
2811.72571	8497.8125
2814.27018	8494.0125
2816.81308	8464.3125
2819.35442	8459.0125
2821.89419	8447.7125
2824.43239	8480.7125
2826.96904	8438.1125
2829.50412	8474.9125
2832.03763	8446.7125
2834.56959	8432.0125
2837.1	8421.8125
2839.62884	8429.8125
2842.15613	8434.9125
2844.68186	8438.0125
2847.20604	8460.8125
2849.72867	8460.8125
2852.24974	8450.2125
2854.76927	8447.3125
2857.28724	8415.7125
2859.80367	8435.1125
2862.31855	8404.0125
2864.83189	8386.5125
2867.34368	8392.0125
2869.85393	8406.2125
2872.36264	8379.4125
2874.8698	8370.9125
2877.37543	8389.2125
2879.87952	8393.5125
2882.38207	8389.7125
2884.88308	8385.1125
2887.38256	8391.2125
2889.88051	8391.9125
2892.37692	8408.9125
2894.8718	8402.5125
2897.36515	8415.3125
2899.85698	8426.3125
2902.34727	8435.3125
2904.83604	8437.5125
2907.32328	8448.7125
2909.809	8439.7125
2912.29319	8456.4125
2914.77587	8475.0125
2917.25702	8474.4125
2919.73665	8446.0125
2922.21476	8461.1125
2924.69136	8445.3125
2927.16644	8439.4125
2929.64	8428.1125
2932.11205	8426.8125
2934.58258	8405.0125
2937.05161	8396.3125
2939.51912	8409.4125
2941.98513	8405.4125
2944.44962	8387.4125
2946.91261	8360.6125
2949.37409	8369.7125
2951.83407	8377.0125
2954.29254	8374.9125
2956.74951	8333.7125
2959.20498	8340.8125
2961.65895	8323.0125
2964.11142	8339.5125
2966.56239	8315.0125
2969.01186	8306.4125
2971.45984	8282.7125
2973.90632	8279.0125
2976.35131	8277.7125
2978.7948	8258.1125
2981.23681	8255.7125
2983.67732	8235.7125
2986.11635	8208.6125
2988.55388	8194.2125
2990.98993	8193.0125
2993.4245	8160.5125
2995.85758	8154.1125
2998.28917	8122.8125
3000.71928	8142.4125
3003.14791	8103.5125
3005.57506	8106.8125
3008.00073	8084.7125
3010.42493	8080.8125
3012.84764	8087.6125
3015.26888	8082.4125
3017.68865	8065.0125
3020.10694	8035.6125
3022.52376	8014.6125
3024.9391	8000.9125
3027.35298	8002.9125
3029.76539	7997.2125
3032.17632	8003.8125
3034.5858	7995.0125
3036.9938	7989.9125
3039.40034	7996.1125
3041.80542	7990.9125
3044.20903	7994.1125
3046.61118	7970.7125
3049.01187	7966.2125
3051.4111	7953.6125
3053.80888	7931.7125
3056.20519	7920.1125
3058.60005	7913.3125
3060.99345	7884.9125
3063.3854	7865.4125
3065.7759	7854.6125
3068.16494	7836.1125
