Data from AgNPs_FTO_APTES_UA_1uM_CRN_1000uM_R6G_10uM_NaF_0.1M_Addition_RamanShift__17__18-53-29-936.txt Node

Date: Thu Jan 27 18:53:29 GMT 2022
User: TCL
Spectrometer: QEP01345
Trigger mode: 4
Integration Time (sec): 7.000000E0
Scans to average: 10
Electric dark correction enabled: true
Nonlinearity correction enabled: false
Boxcar width: 0
XAxis mode: Raman Shifts
Number of Pixels in Spectrum: 1044
>>>>>Begin Spectral Data<<<<<
46.04893	0.475
50.45542	0.775
54.85868	-1.825
59.25871	-1.525
63.6555	44.775
68.04907	45.675
72.43941	48.675
76.82654	52.275
81.21044	52.675
85.59113	55.175
89.96862	55.575
94.34289	61.075
98.71396	64.275
103.08183	56.375
107.4465	66.975
111.80798	64.175
116.16626	66.475
120.52136	70.975
124.87327	71.875
129.222	69.175
133.56755	72.975
137.90993	80.975
142.24913	88.075
146.58517	94.075
150.91804	108.375
155.24774	130.075
159.57429	153.175
163.89768	194.675
168.21792	255.975
172.53501	346.475
176.84895	467.175
181.15975	654.275
185.46741	916.775
189.77193	1262.975
194.07331	1692.775
198.37157	2205.775
202.6667	2732.875
206.9587	3264.275
211.24758	3804.975
215.53334	4327.275
219.81599	4884.975
224.09553	5498.375
228.37195	6154.775
232.64527	6838.175
236.91549	7565.975
241.18261	8324.575
245.44663	8980.575
249.70755	9575.375
253.96539	10086.575
258.22014	10483.675
262.4718	10825.575
266.72039	11029.075
270.96589	11135.375
275.20832	11109.175
279.44768	10991.975
283.68397	10838.675
287.91719	10707.875
292.14735	10615.375
296.37445	10578.075
300.59849	10612.075
304.81948	10681.475
309.03742	10663.275
313.25231	10576.775
317.46415	10289.675
321.67296	10018.675
325.87872	9760.075
330.08145	9642.075
334.28114	9629.775
338.47781	9701.375
342.67145	9820.875
346.86207	9988.175
351.04966	10159.775
355.23424	10402.275
359.4158	10600.575
363.59435	10738.275
367.76989	10831.375
371.94243	10917.775
376.11196	10970.875
380.27849	11032.575
384.44203	11083.275
388.60257	11159.275
392.76012	11206.575
396.91468	11265.875
401.06626	11413.075
405.21485	11553.475
409.36047	11499.975
413.50311	11315.375
417.64277	11163.275
421.77947	11121.375
425.9132	11139.075
430.04396	11203.875
434.17176	11240.075
438.2966	11332.175
442.41849	11462.775
446.53742	11735.175
450.6534	11996.075
454.76644	12203.675
458.87653	12252.375
462.98368	12221.575
467.08789	12096.875
471.18916	11970.875
475.2875	11859.475
479.38291	11753.275
483.4754	11700.375
487.56496	11565.875
491.6516	11437.375
495.73531	11356.575
499.81612	11303.175
503.89401	11374.175
507.96899	11438.975
512.04106	11441.875
516.11023	11457.075
520.1765	11394.775
524.23987	11304.975
528.30034	11222.975
532.35792	11108.275
536.41261	11032.275
540.46441	10910.675
544.51333	10840.375
548.55936	10923.175
552.60252	11084.375
556.64279	11285.875
560.6802	11430.975
564.71473	11517.975
568.7464	11702.675
572.7752	11967.875
576.80114	12119.075
580.82422	12250.675
584.84444	12359.975
588.86181	12580.975
592.87633	12757.475
596.888	12793.475
600.89682	12653.575
604.9028	12883.675
608.90594	13848.375
612.90624	15161.075
616.90371	14597.475
620.89834	12331.175
624.89015	11242.175
628.87913	11064.975
632.86528	11137.475
636.84862	11214.575
640.82913	11158.775
644.80683	10977.475
648.78172	10823.275
652.75379	10771.675
656.72306	10850.575
660.68952	11008.475
664.65319	11011.675
668.61405	10901.375
672.57211	10949.775
676.52738	11149.575
680.47986	11299.675
684.42955	11276.575
688.37646	11117.675
692.32058	10942.475
696.26192	10929.975
700.20048	10948.175
704.13626	10962.875
708.06928	10946.275
711.99952	10868.875
715.927	10811.875
719.85171	10816.275
723.77365	10794.675
727.69284	10742.275
731.60928	10684.175
735.52295	10638.875
739.43388	10615.475
743.34206	10654.875
747.24749	10648.375
751.15017	10710.275
755.05012	10858.875
758.94733	11062.475
762.8418	11504.475
766.73354	12258.975
770.62254	13129.075
774.50882	13519.075
778.39237	13101.875
782.27321	12190.275
786.15132	11343.675
790.02671	10815.975
793.89938	10588.275
797.76935	10479.175
801.6366	10450.275
805.50115	10393.275
809.36299	10336.075
813.22213	10294.075
817.07857	10210.175
820.93231	10171.775
824.78336	10160.975
828.63172	10137.775
832.47738	10147.875
836.32036	10089.775
840.16066	10127.375
843.99827	10102.775
847.8332	10108.475
851.66546	10078.675
855.49504	10069.575
859.32195	10114.975
863.1462	10126.775
866.96777	10174.875
870.78668	10139.975
874.60293	10110.575
878.41652	10118.875
882.22745	10097.975
886.03573	10143.175
889.84136	10140.775
893.64433	10120.475
897.44466	10061.375
901.24235	10024.675
905.0374	9942.075
908.8298	9893.975
912.61957	9886.475
916.40671	9935.175
920.19121	10041.275
923.97308	10139.475
927.75233	10191.075
931.52895	10193.775
935.30295	10106.575
939.07433	9964.575
942.84309	9781.275
946.60924	9676.275
950.37278	9619.075
954.13371	9568.475
957.89203	9517.875
961.64774	9518.175
965.40086	9494.675
969.15137	9457.075
972.89929	9398.475
976.64461	9354.975
980.38733	9348.475
984.12747	9327.275
987.86502	9356.975
991.59999	9427.475
995.33237	9497.975
999.06217	9659.875
1002.78939	9850.375
1006.51404	9961.875
1010.23611	10047.175
1013.95561	10163.175
1017.67255	10201.975
1021.38692	10129.475
1025.09872	10024.775
1028.80796	9989.575
1032.51465	10030.775
1036.21877	10106.675
1039.92035	10168.375
1043.61937	10148.175
1047.31584	10078.375
1051.00976	10042.775
1054.70114	10030.175
1058.38998	10059.475
1062.07627	10079.275
1065.76003	10166.975
1069.44126	10212.775
1073.11995	10353.775
1076.79611	10499.775
1080.46974	10513.975
1084.14085	10492.475
1087.80943	10508.975
1091.47549	10511.175
1095.13903	10530.075
1098.80005	10399.975
1102.45857	10217.275
1106.11456	10057.575
1109.76805	10014.475
1113.41903	10044.075
1117.06751	10155.575
1120.71348	10295.275
1124.35696	10488.075
1127.99793	10678.875
1131.63641	10800.675
1135.2724	10670.075
1138.90589	10504.175
1142.5369	10413.275
1146.16542	10354.675
1149.79145	10357.175
1153.415	10371.875
1157.03607	10481.275
1160.65467	10714.075
1164.27079	11067.775
1167.88443	11558.075
1171.49561	12178.175
1175.10432	12939.775
1178.71056	13970.275
1182.31434	14973.075
1185.91565	15441.475
1189.51451	15363.275
1193.11091	14905.675
1196.70485	14296.375
1200.29634	13671.175
1203.88538	13180.475
1207.47197	12778.375
1211.05612	12442.575
1214.63782	12210.375
1218.21708	12041.775
1221.79391	11933.875
1225.36829	11914.575
1228.94024	11817.275
1232.50976	11645.875
1236.07685	11487.875
1239.6415	11369.475
1243.20374	11352.375
1246.76355	11390.375
1250.32093	11483.675
1253.8759	11647.775
1257.42845	11880.775
1260.97859	12140.275
1264.52631	12437.275
1268.07163	12746.675
1271.61453	13063.075
1275.15503	13330.075
1278.69312	13660.175
1282.22882	13917.475
1285.76211	14247.175
1289.29301	14598.375
1292.82151	15130.775
1296.34761	15770.075
1299.87133	16609.975
1303.39266	17551.575
1306.9116	18624.575
1310.42815	19662.475
1313.94233	20323.875
1317.45412	20294.275
1320.96354	19756.875
1324.47058	19129.775
1327.97525	18551.375
1331.47754	18186.775
1334.97747	17983.375
1338.47502	17918.975
1341.97022	17859.775
1345.46305	17791.775
1348.95352	17837.875
1352.44163	18087.075
1355.92738	18658.875
1359.41078	19570.475
1362.89183	20498.375
1366.37053	20417.475
1369.84688	18790.675
1373.32088	16674.375
1376.79254	15100.175
1380.26186	14376.075
1383.72883	14130.675
1387.19347	14027.275
1390.65578	13866.575
1394.11575	13746.775
1397.57339	13865.675
1401.0287	14135.575
1404.48168	14380.375
1407.93234	14466.575
1411.38068	14346.675
1414.82669	14048.475
1418.27039	13652.975
1421.71177	13216.175
1425.15083	12826.475
1428.58758	12567.175
1432.02203	12552.675
1435.45416	12742.775
1438.88399	13043.975
1442.31151	13278.875
1445.73673	13424.075
1449.15965	13593.575
1452.58027	13728.275
1455.9986	13756.875
1459.41463	13800.175
1462.82837	13944.775
1466.23982	14145.075
1469.64898	14372.075
1473.05586	14506.275
1476.46045	14500.675
1479.86276	14462.475
1483.26279	14358.275
1486.66054	14266.075
1490.05602	14279.075
1493.44922	14419.875
1496.84016	14562.075
1500.22882	14873.975
1503.61521	15504.175
1506.99934	16307.875
1510.38121	17063.275
1513.76081	17339.175
1517.13816	16778.375
1520.51324	15878.175
1523.88607	14973.575
1527.25665	14379.975
1530.62498	14101.575
1533.99105	13968.475
1537.35488	13846.775
1540.71647	13696.575
1544.07581	13478.775
1547.4329	13328.275
1550.78776	13147.175
1554.14038	12996.775
1557.49077	12929.475
1560.83892	12938.575
1564.18484	12982.775
1567.52853	13054.275
1570.86999	13235.175
1574.20922	13487.175
1577.54624	13704.575
1580.88103	13685.475
1584.2136	13527.275
1587.54395	13562.475
1590.87208	13872.375
1594.19801	14504.875
1597.52172	15278.675
1600.84321	15707.275
1604.16251	15356.575
1607.47959	14431.575
1610.79447	13343.175
1614.10715	12288.675
1617.41763	11407.475
1620.7259	10784.175
1624.03199	10439.075
1627.33587	10366.175
1630.63757	10550.675
1633.93707	11019.575
1637.23439	11851.975
1640.52951	13106.275
1643.82246	14687.775
1647.11321	16099.075
1650.40179	16703.675
1653.68819	15910.175
1656.97241	14065.475
1660.25446	12188.275
1663.53433	10758.075
1666.81203	9866.175
1670.08756	9353.175
1673.36092	9010.275
1676.63211	8822.075
1679.90115	8669.775
1683.16801	8559.875
1686.43272	8452.875
1689.69527	8365.375
1692.95567	8305.175
1696.2139	8221.075
1699.46999	8128.075
1702.72392	8098.575
1705.97571	8052.875
1709.22535	8103.675
1712.47284	8082.575
1715.71819	8077.675
1718.96139	8082.375
1722.20246	8044.975
1725.44139	8047.175
1728.67818	7980.375
1731.91284	7926.875
1735.14537	7915.375
1738.37576	7917.375
1741.60403	7872.775
1744.83017	7877.975
1748.05418	7881.975
1751.27607	7895.775
1754.49584	7908.875
1757.71349	7883.875
1760.92903	7855.875
1764.14244	7798.575
1767.35375	7752.775
1770.56294	7664.775
1773.77002	7638.075
1776.97499	7591.375
1780.17785	7593.975
1783.37861	7586.875
1786.57727	7531.975
1789.77382	7520.275
1792.96828	7495.675
1796.16064	7455.475
1799.3509	7432.075
1802.53907	7393.875
1805.72514	7391.875
1808.90913	7362.975
1812.09102	7351.875
1815.27083	7320.475
1818.44856	7322.575
1821.6242	7284.775
1824.79776	7272.575
1827.96924	7261.275
1831.13864	7257.075
1834.30597	7269.575
1837.47122	7248.975
1840.6344	7239.275
1843.7955	7221.375
1846.95454	7209.375
1850.11151	7211.775
1853.26642	7210.375
1856.41926	7204.775
1859.57004	7209.375
1862.71876	7202.475
1865.86542	7192.275
1869.01003	7176.275
1872.15258	7169.375
1875.29308	7158.975
1878.43152	7168.975
1881.56792	7162.275
1884.70227	7130.675
1887.83457	7121.975
1890.96482	7127.175
1894.09304	7113.275
1897.21921	7111.975
1900.34335	7101.675
1903.46544	7100.175
1906.58551	7078.975
1909.70353	7072.075
1912.81953	7048.875
1915.93349	7040.275
1919.04543	7028.975
1922.15534	7004.275
1925.26322	7005.875
1928.36908	6979.875
1931.47292	6985.575
1934.57473	6939.075
1937.67453	6936.675
1940.77232	6904.675
1943.86808	6879.975
1946.96184	6865.375
1950.05358	6842.175
1953.14331	6814.075
1956.23103	6801.875
1959.31675	6782.475
1962.40046	6767.975
1965.48217	6742.075
1968.56188	6735.175
1971.63959	6683.775
1974.7153	6682.975
1977.78901	6659.375
1980.86073	6629.175
1983.93046	6627.475
1986.99819	6610.175
1990.06394	6567.775
1993.1277	6566.575
1996.18947	6547.675
1999.24925	6530.075
2002.30706	6506.175
2005.36288	6473.575
2008.41672	6466.175
2011.46859	6440.475
2014.51848	6413.975
2017.56639	6419.875
2020.61233	6381.075
2023.6563	6375.875
2026.6983	6380.475
2029.73833	6361.775
2032.7764	6339.575
2035.8125	6333.475
2038.84664	6303.875
2041.87881	6296.675
2044.90903	6271.675
2047.93729	6268.175
2050.96359	6258.275
2053.98794	6245.175
2057.01034	6230.475
2060.03078	6241.675
2063.04927	6236.275
2066.06582	6224.675
2069.08042	6235.275
2072.09307	6225.075
2075.10378	6225.875
2078.11255	6223.475
2081.11938	6200.475
2084.12426	6209.475
2087.12722	6184.675
2090.12824	6197.475
2093.12732	6178.275
2096.12447	6196.175
2099.11969	6191.475
2102.11299	6206.275
2105.10435	6202.675
2108.09379	6194.675
2111.08131	6196.675
2114.0669	6196.275
2117.05057	6214.175
2120.03233	6194.075
2123.01216	6199.275
2125.99008	6218.875
2128.96609	6221.375
2131.94018	6228.675
2134.91236	6216.275
2137.88263	6234.375
2140.851	6217.575
2143.81746	6226.275
2146.78201	6223.475
2149.74466	6228.975
2152.7054	6242.275
2155.66425	6212.775
2158.6212	6206.275
2161.57625	6192.475
2164.52941	6207.375
2167.48067	6221.575
2170.43004	6205.675
2173.37752	6209.775
2176.32311	6204.675
2179.26681	6214.175
2182.20863	6202.675
2185.14856	6187.675
2188.08661	6198.175
2191.02278	6213.075
2193.95707	6181.675
2196.88948	6169.875
2199.82001	6158.875
2202.74867	6157.775
2205.67545	6161.775
2208.60037	6164.975
2211.52341	6133.475
2214.44458	6137.375
2217.36388	6123.475
2220.28132	6113.875
2223.1969	6113.975
2226.11061	6088.775
2229.02246	6070.275
2231.93245	6067.575
2234.84058	6072.975
2237.74686	6054.375
2240.65128	6041.275
2243.55385	6011.475
2246.45456	5995.475
2249.35343	5999.675
2252.25044	5998.575
2255.14561	5981.975
2258.03893	5964.375
2260.93041	5944.275
2263.82004	5932.275
2266.70783	5944.675
2269.59378	5914.775
2272.4779	5896.275
2275.36017	5888.575
2278.24061	5890.775
2281.11922	5877.675
2283.996	5858.575
2286.87094	5846.975
2289.74405	5835.575
2292.61534	5817.675
2295.4848	5818.375
2298.35243	5834.375
2301.21824	5819.275
2304.08223	5812.575
2306.94439	5815.775
2309.80474	5823.175
2312.66327	5802.775
2315.51999	5806.175
2318.37489	5808.175
2321.22797	5800.775
2324.07925	5787.775
2326.92871	5775.375
2329.77637	5764.175
2332.62222	5753.475
2335.46626	5739.075
2338.3085	5735.475
2341.14893	5751.075
2343.98756	5751.275
2346.8244	5725.975
2349.65943	5721.275
2352.49267	5725.075
2355.32411	5730.875
2358.15376	5733.475
2360.98161	5732.075
2363.80768	5708.375
2366.63195	5710.175
2369.45444	5731.475
2372.27514	5701.975
2375.09405	5692.875
2377.91118	5692.375
2380.72652	5674.175
2383.54009	5658.175
2386.35187	5645.475
2389.16188	5626.675
2391.97011	5619.775
2394.77657	5597.475
2397.58125	5613.675
2400.38416	5578.975
2403.18529	5592.875
2405.98466	5555.775
2408.78226	5552.675
2411.57809	5560.775
2414.37216	5534.875
2417.16446	5528.775
2419.955	5509.075
2422.74378	5519.175
2425.5308	5523.475
2428.31606	5524.175
2431.09956	5510.375
2433.88131	5509.575
2436.6613	5499.375
2439.43954	5507.075
2442.21603	5493.775
2444.99077	5499.575
2447.76377	5501.475
2450.53501	5496.775
2453.30451	5490.475
2456.07226	5477.175
2458.83827	5473.375
2461.60254	5459.475
2464.36507	5471.575
2467.12586	5459.875
2469.88492	5455.175
2472.64224	5452.275
2475.39782	5456.975
2478.15167	5439.675
2480.90379	5436.675
2483.65417	5457.775
2486.40283	5460.875
2489.14976	5460.375
2491.89497	5452.775
2494.63845	5442.175
2497.3802	5432.675
2500.12024	5429.475
2502.85855	5450.875
2505.59514	5442.375
2508.33002	5433.275
2511.06318	5421.075
2513.79462	5413.275
2516.52435	5397.075
2519.25237	5382.375
2521.97867	5387.875
2524.70327	5371.275
2527.42616	5366.975
2530.14734	5372.375
2532.86681	5348.875
2535.58458	5350.975
2538.30065	5340.075
2541.01501	5341.175
2543.72768	5334.475
2546.43864	5336.375
2549.14791	5304.675
2551.85548	5313.275
2554.56136	5313.575
2557.26554	5297.875
2559.96803	5286.075
2562.66883	5290.675
2565.36794	5308.875
2568.06536	5286.575
2570.7611	5283.075
2573.45514	5275.675
2576.14751	5252.875
2578.83819	5242.175
2581.52719	5245.775
2584.21451	5234.375
2586.90015	5235.175
2589.58411	5231.875
2592.2664	5230.675
2594.94701	5192.975
2597.62594	5193.875
2600.30321	5180.975
2602.9788	5189.875
2605.65273	5189.675
2608.32498	5183.275
2610.99557	5195.075
2613.66449	5172.175
2616.33175	5159.675
2618.99734	5166.175
2621.66128	5178.375
2624.32355	5161.175
2626.98416	5157.175
2629.64311	5160.075
2632.30041	5142.975
2634.95605	5152.475
2637.61004	5136.275
2640.26238	5132.175
2642.91306	5124.775
2645.56209	5125.675
2648.20948	5118.775
2650.85521	5105.475
2653.4993	5113.175
2656.14175	5132.075
2658.78255	5126.675
2661.42171	5135.275
2664.05923	5143.475
2666.6951	5120.375
2669.32934	5147.975
2671.96194	5147.075
2674.59291	5151.275
2677.22224	5136.975
2679.84993	5108.075
2682.476	5109.275
2685.10043	5121.975
2687.72324	5120.375
2690.34441	5108.775
2692.96396	5128.075
2695.58188	5123.075
2698.19818	5117.575
2700.81285	5120.575
2703.4259	5104.475
2706.03733	5086.175
2708.64714	5100.775
2711.25533	5107.975
2713.86191	5108.175
2716.46687	5117.675
2719.07021	5114.375
2721.67194	5126.175
2724.27206	5117.475
2726.87057	5152.275
2729.46747	5127.475
2732.06276	5143.275
2734.65644	5127.375
2737.24852	5129.775
2739.83899	5125.675
2742.42786	5110.775
2745.01513	5112.575
2747.60079	5105.075
2750.18486	5110.675
2752.76733	5095.975
2755.3482	5086.575
2757.92747	5093.175
2760.50515	5090.675
2763.08123	5094.575
2765.65573	5085.675
2768.22863	5092.675
2770.79994	5083.775
2773.36967	5086.675
2775.9378	5075.475
2778.50435	5082.775
2781.06932	5082.775
2783.6327	5076.675
2786.1945	5065.375
2788.75471	5073.975
2791.31335	5041.875
2793.87041	5034.975
2796.42589	5042.975
2798.97979	5046.375
2801.53212	5032.375
2804.08288	5032.775
2806.63206	5014.075
2809.17967	5012.075
2811.72571	5001.175
2814.27018	5012.575
2816.81308	4996.375
2819.35442	5008.675
2821.89419	4988.675
2824.43239	4986.075
2826.96904	4990.675
2829.50412	4984.975
2832.03763	4993.175
2834.56959	4992.375
2837.1	4986.075
2839.62884	5002.775
2842.15613	5000.175
2844.68186	5056.775
2847.20604	5076.575
2849.72867	5108.975
2852.24974	5087.075
2854.76927	5103.275
2857.28724	5096.675
2859.80367	5078.075
2862.31855	5068.875
2864.83189	5069.975
2867.34368	5059.075
2869.85393	5051.075
2872.36264	5056.875
2874.8698	5058.875
2877.37543	5069.375
2879.87952	5070.075
2882.38207	5067.575
2884.88308	5063.775
2887.38256	5075.175
2889.88051	5088.075
2892.37692	5087.075
2894.8718	5109.775
2897.36515	5117.175
2899.85698	5121.575
2902.34727	5136.475
2904.83604	5161.675
2907.32328	5183.675
2909.809	5183.775
2912.29319	5187.375
2914.77587	5191.175
2917.25702	5196.275
2919.73665	5194.275
2922.21476	5216.075
2924.69136	5221.475
2927.16644	5233.675
2929.64	5217.875
2932.11205	5220.475
2934.58258	5206.275
2937.05161	5227.975
2939.51912	5222.775
2941.98513	5178.575
2944.44962	5184.675
2946.91261	5140.675
2949.37409	5146.875
2951.83407	5144.775
2954.29254	5145.175
2956.74951	5107.175
2959.20498	5102.875
2961.65895	5078.975
2964.11142	5074.175
2966.56239	5045.175
2969.01186	5018.475
2971.45984	5015.375
2973.90632	4982.775
2976.35131	4963.775
2978.7948	4948.375
2981.23681	4948.275
2983.67732	4921.875
2986.11635	4898.875
2988.55388	4900.775
2990.98993	4886.875
2993.4245	4867.175
2995.85758	4848.375
2998.28917	4837.275
3000.71928	4841.375
3003.14791	4824.675
3005.57506	4821.475
3008.00073	4818.375
3010.42493	4782.275
3012.84764	4791.975
3015.26888	4798.075
3017.68865	4785.275
3020.10694	4769.975
3022.52376	4769.675
3024.9391	4737.575
3027.35298	4738.175
3029.76539	4745.175
3032.17632	4736.075
3034.5858	4717.175
3036.9938	4721.575
3039.40034	4709.875
3041.80542	4707.175
3044.20903	4687.075
3046.61118	4698.175
3049.01187	4682.475
3051.4111	4679.375
3053.80888	4681.975
3056.20519	4676.675
3058.60005	4664.075
3060.99345	4648.175
3063.3854	4632.275
3065.7759	4628.875
3068.16494	4614.275
3070.55254	4618.175
3072.93868	4608.775
3075.32338	4606.875
3077.70662	4598.775
3080.08842	4571.675
3082.46878	4606.675
3084.84769	4584.375
3087.22515	4576.275
3089.60118	4597.775
3091.97576	4596.875
3094.3489	4592.075
3096.72061	4597.975
3099.09087	4615.075
3101.4597	4612.275
3103.82709	4594.275
3106.19305	4602.175
3108.55757	4614.775
3110.92066	4597.775
3113.28232	4592.675
3115.64255	4579.375
3118.00134	4587.775
3120.35871	4576.675
3122.71466	4582.875
3125.06917	4574.875
3127.42226	4567.775
3129.77393	4576.875
3132.12417	4575.275
3134.47299	4568.875
3136.82039	4587.575
3139.16636	4585.775
3141.51092	4602.075
3143.85406	4579.275
3146.19579	4591.175
3148.53609	4613.475
3150.87499	4614.775
3153.21246	4620.575
3155.54853	4637.775
3157.88318	4655.475
3160.21642	4649.975
3162.54826	4659.675
3164.87868	4659.875
3167.2077	4652.375
3169.5353	4669.975
3171.86151	4655.975
3174.18631	4687.775
3176.5097	4671.475
3178.83169	4672.075
3181.15228	4670.375
3183.47147	4679.475
3185.78926	4674.275
3188.10565	4668.175
3190.42065	4678.275
3192.73424	4667.575
3195.04645	4673.075
