Data from AgNPs_FTO_APTES_UA_1uM_CRN_1000uM_R6G_10uM_NaF_0.1M_Addition_RamanShift__30__19-08-39-954.txt Node

Date: Thu Jan 27 19:08:39 GMT 2022
User: TCL
Spectrometer: QEP01345
Trigger mode: 4
Integration Time (sec): 7.000000E0
Scans to average: 10
Electric dark correction enabled: true
Nonlinearity correction enabled: false
Boxcar width: 0
XAxis mode: Raman Shifts
Number of Pixels in Spectrum: 1044
>>>>>Begin Spectral Data<<<<<
46.04893	0.425
50.45542	0.025
54.85868	-1.075
59.25871	-0.675
63.6555	29.725
68.04907	35.325
72.43941	35.925
76.82654	40.925
81.21044	41.225
85.59113	42.025
89.96862	47.425
94.34289	47.625
98.71396	48.325
103.08183	46.825
107.4465	50.125
111.80798	49.825
116.16626	49.525
120.52136	52.925
124.87327	51.625
129.222	51.125
133.56755	53.925
137.90993	51.025
142.24913	57.425
146.58517	60.525
150.91804	70.925
155.24774	81.925
159.57429	91.925
163.89768	109.425
168.21792	140.225
172.53501	182.925
176.84895	242.425
181.15975	337.425
185.46741	456.525
189.77193	636.725
194.07331	852.725
198.37157	1095.125
202.6667	1348.925
206.9587	1619.425
211.24758	1865.725
215.53334	2132.525
219.81599	2422.025
224.09553	2771.225
228.37195	3130.925
232.64527	3539.625
236.91549	3930.725
241.18261	4293.825
245.44663	4580.525
249.70755	4802.625
253.96539	4964.825
258.22014	5098.625
262.4718	5212.425
266.72039	5290.725
270.96589	5308.725
275.20832	5286.225
279.44768	5228.125
283.68397	5104.925
287.91719	5038.925
292.14735	5040.625
296.37445	5148.225
300.59849	5391.725
304.81948	5693.225
309.03742	5961.125
313.25231	5974.825
317.46415	5658.425
321.67296	5158.725
325.87872	4711.825
330.08145	4506.025
334.28114	4487.825
338.47781	4576.525
342.67145	4743.325
346.86207	5005.625
351.04966	5390.025
355.23424	5815.025
359.4158	6121.825
363.59435	6264.925
367.76989	6285.325
371.94243	6250.825
376.11196	6173.625
380.27849	6116.025
384.44203	5987.725
388.60257	5845.825
392.76012	5780.225
396.91468	5825.225
401.06626	6023.925
405.21485	6143.025
409.36047	6041.725
413.50311	5652.325
417.64277	5269.225
421.77947	5021.425
425.9132	4914.525
430.04396	4858.325
434.17176	4878.625
438.2966	4940.125
442.41849	5075.925
446.53742	5232.325
450.6534	5387.225
454.76644	5466.625
458.87653	5485.925
462.98368	5456.525
467.08789	5375.225
471.18916	5249.325
475.2875	5080.125
479.38291	4972.025
483.4754	4884.225
487.56496	4806.325
491.6516	4780.625
495.73531	4760.325
499.81612	4770.325
503.89401	4848.925
507.96899	4937.825
512.04106	5062.825
516.11023	5204.125
520.1765	5333.725
524.23987	5321.525
528.30034	5182.525
532.35792	5011.625
536.41261	4843.125
540.46441	4691.125
544.51333	4586.925
548.55936	4612.925
552.60252	4700.125
556.64279	4849.125
560.6802	4921.025
564.71473	5034.125
568.7464	5308.525
572.7752	5478.725
576.80114	5268.425
580.82422	4968.625
584.84444	4831.725
588.86181	4787.325
592.87633	4783.325
596.888	4843.025
600.89682	5070.025
604.9028	5773.325
608.90594	7720.325
612.90624	10516.325
616.90371	10474.225
620.89834	7011.225
624.89015	5256.825
628.87913	4863.425
632.86528	4827.625
636.84862	4914.825
640.82913	4863.225
644.80683	4684.425
648.78172	4512.925
652.75379	4572.325
656.72306	4825.625
660.68952	5164.325
664.65319	5109.925
668.61405	4792.225
672.57211	4618.025
676.52738	4637.225
680.47986	4695.225
684.42955	4671.625
688.37646	4620.425
692.32058	4636.225
696.26192	4679.425
700.20048	4766.125
704.13626	4807.125
708.06928	4751.125
711.99952	4655.125
715.927	4596.625
719.85171	4583.825
723.77365	4586.925
727.69284	4547.725
731.60928	4489.325
735.52295	4490.625
739.43388	4505.825
743.34206	4498.325
747.24749	4521.225
751.15017	4565.325
755.05012	4678.725
758.94733	4921.125
762.8418	5505.325
766.73354	6528.825
770.62254	7695.825
774.50882	8465.625
778.39237	8254.125
782.27321	7077.025
786.15132	5772.025
790.02671	5021.025
793.89938	4714.325
797.76935	4585.525
801.6366	4538.325
805.50115	4491.525
809.36299	4500.325
813.22213	4487.825
817.07857	4469.125
820.93231	4463.525
824.78336	4481.825
828.63172	4510.225
832.47738	4517.125
836.32036	4500.425
840.16066	4478.125
843.99827	4474.425
847.8332	4459.025
851.66546	4447.625
855.49504	4459.425
859.32195	4460.825
863.1462	4456.525
866.96777	4417.525
870.78668	4391.625
874.60293	4372.125
878.41652	4353.425
882.22745	4370.925
886.03573	4401.125
889.84136	4422.125
893.64433	4392.925
897.44466	4349.325
901.24235	4370.125
905.0374	4346.925
908.8298	4302.925
912.61957	4306.925
916.40671	4321.025
920.19121	4367.125
923.97308	4421.625
927.75233	4512.825
931.52895	4601.525
935.30295	4554.425
939.07433	4385.925
942.84309	4217.125
946.60924	4079.225
950.37278	4024.325
954.13371	3977.025
957.89203	3929.225
961.64774	3909.725
965.40086	3876.325
969.15137	3878.525
972.89929	3849.925
976.64461	3844.025
980.38733	3848.925
984.12747	3851.525
987.86502	3870.225
991.59999	3875.225
995.33237	3902.725
999.06217	3969.425
1002.78939	4023.925
1006.51404	4097.825
1010.23611	4198.525
1013.95561	4257.525
1017.67255	4264.125
1021.38692	4203.025
1025.09872	4134.025
1028.80796	4099.025
1032.51465	4105.925
1036.21877	4173.525
1039.92035	4284.325
1043.61937	4333.425
1047.31584	4337.325
1051.00976	4341.625
1054.70114	4306.225
1058.38998	4273.725
1062.07627	4275.425
1065.76003	4290.825
1069.44126	4309.425
1073.11995	4378.325
1076.79611	4482.225
1080.46974	4595.725
1084.14085	4723.725
1087.80943	4828.025
1091.47549	4839.325
1095.13903	4715.325
1098.80005	4507.525
1102.45857	4350.925
1106.11456	4276.325
1109.76805	4306.125
1113.41903	4441.725
1117.06751	4637.825
1120.71348	4927.925
1124.35696	5247.425
1127.99793	5528.825
1131.63641	5481.025
1135.2724	5111.525
1138.90589	4745.825
1142.5369	4531.925
1146.16542	4410.825
1149.79145	4317.225
1153.415	4292.525
1157.03607	4326.625
1160.65467	4435.525
1164.27079	4605.625
1167.88443	4860.325
1171.49561	5329.125
1175.10432	6130.225
1178.71056	7171.025
1182.31434	7786.225
1185.91565	7704.425
1189.51451	7385.925
1193.11091	6838.725
1196.70485	6262.325
1200.29634	5852.925
1203.88538	5548.525
1207.47197	5172.825
1211.05612	4835.425
1214.63782	4646.425
1218.21708	4579.825
1221.79391	4565.225
1225.36829	4616.425
1228.94024	4671.625
1232.50976	4709.525
1236.07685	4737.825
1239.6415	4755.125
1243.20374	4756.225
1246.76355	4782.225
1250.32093	4827.125
1253.8759	4903.225
1257.42845	5041.125
1260.97859	5210.325
1264.52631	5390.225
1268.07163	5586.825
1271.61453	5721.525
1275.15503	5817.625
1278.69312	5814.225
1282.22882	5781.225
1285.76211	5868.625
1289.29301	6069.825
1292.82151	6297.325
1296.34761	6476.825
1299.87133	6818.525
1303.39266	7388.425
1306.9116	8338.325
1310.42815	9484.825
1313.94233	10156.125
1317.45412	9894.225
1320.96354	8944.625
1324.47058	7950.925
1327.97525	7184.925
1331.47754	6739.825
1334.97747	6573.525
1338.47502	6605.025
1341.97022	6827.525
1345.46305	7233.225
1348.95352	7909.625
1352.44163	8856.525
1355.92738	10109.225
1359.41078	11883.425
1362.89183	13499.725
1366.37053	13065.325
1369.84688	10826.925
1373.32088	8656.025
1376.79254	7232.025
1380.26186	6498.625
1383.72883	6083.625
1387.19347	5768.525
1390.65578	5434.425
1394.11575	5151.025
1397.57339	4991.725
1401.0287	4941.825
1404.48168	4956.925
1407.93234	5003.525
1411.38068	5062.025
1414.82669	5104.625
1418.27039	5104.925
1421.71177	5091.025
1425.15083	5058.725
1428.58758	5035.725
1432.02203	5083.425
1435.45416	5125.425
1438.88399	5161.425
1442.31151	5108.025
1445.73673	5057.525
1449.15965	5067.625
1452.58027	5016.625
1455.9986	4941.725
1459.41463	4911.325
1462.82837	4943.725
1466.23982	5047.225
1469.64898	5125.225
1473.05586	5196.925
1476.46045	5253.025
1479.86276	5361.625
1483.26279	5494.025
1486.66054	5686.225
1490.05602	5941.925
1493.44922	6300.825
1496.84016	6900.125
1500.22882	7816.825
1503.61521	9011.625
1506.99934	10304.625
1510.38121	11580.625
1513.76081	12262.025
1517.13816	11613.125
1520.51324	9897.025
1523.88607	8139.125
1527.25665	6946.125
1530.62498	6318.825
1533.99105	5962.425
1537.35488	5715.225
1540.71647	5611.125
1544.07581	5563.725
1547.4329	5569.325
1550.78776	5589.825
1554.14038	5629.225
1557.49077	5692.125
1560.83892	5854.525
1564.18484	6063.025
1567.52853	6328.825
1570.86999	6582.325
1574.20922	6748.825
1577.54624	6732.625
1580.88103	6356.925
1584.2136	5735.725
1587.54395	5320.725
1590.87208	5217.825
1594.19801	5398.625
1597.52172	5778.725
1600.84321	5959.625
1604.16251	5785.825
1607.47959	5443.425
1610.79447	5081.025
1614.10715	4742.525
1617.41763	4447.425
1620.7259	4285.125
1624.03199	4199.925
1627.33587	4194.025
1630.63757	4262.325
1633.93707	4409.125
1637.23439	4650.425
1640.52951	5084.825
1643.82246	5742.325
1647.11321	6639.925
1650.40179	7418.925
1653.68819	7374.425
1656.97241	6415.925
1660.25446	5249.525
1663.53433	4440.725
1666.81203	3968.525
1670.08756	3751.325
1673.36092	3609.525
1676.63211	3508.825
1679.90115	3452.025
1683.16801	3413.825
1686.43272	3344.825
1689.69527	3296.825
1692.95567	3254.925
1696.2139	3201.025
1699.46999	3146.525
1702.72392	3107.625
1705.97571	3132.625
1709.22535	3161.125
1712.47284	3204.125
1715.71819	3242.125
1718.96139	3267.125
1722.20246	3269.025
1725.44139	3269.525
1728.67818	3227.425
1731.91284	3187.525
1735.14537	3151.025
1738.37576	3121.525
1741.60403	3080.125
1744.83017	3059.725
1748.05418	3056.325
1751.27607	3025.925
1754.49584	3004.425
1757.71349	2962.025
1760.92903	2926.125
1764.14244	2916.525
1767.35375	2891.725
1770.56294	2874.525
1773.77002	2873.525
1776.97499	2859.925
1780.17785	2866.725
1783.37861	2874.325
1786.57727	2861.225
1789.77382	2872.325
1792.96828	2853.925
1796.16064	2847.925
1799.3509	2845.125
1802.53907	2836.325
1805.72514	2827.525
1808.90913	2808.025
1812.09102	2795.725
1815.27083	2791.025
1818.44856	2775.825
1821.6242	2781.025
1824.79776	2766.825
1827.96924	2765.225
1831.13864	2769.025
1834.30597	2738.025
1837.47122	2734.025
1840.6344	2748.625
1843.7955	2731.925
1846.95454	2729.325
1850.11151	2726.825
1853.26642	2723.325
1856.41926	2716.325
1859.57004	2721.225
1862.71876	2717.225
1865.86542	2709.725
1869.01003	2706.825
1872.15258	2709.325
1875.29308	2706.925
1878.43152	2701.525
1881.56792	2706.325
1884.70227	2694.725
1887.83457	2693.325
1890.96482	2683.125
1894.09304	2690.825
1897.21921	2679.125
1900.34335	2677.625
1903.46544	2681.625
1906.58551	2679.325
1909.70353	2675.525
1912.81953	2688.025
1915.93349	2666.125
1919.04543	2671.725
1922.15534	2667.025
1925.26322	2655.525
1928.36908	2649.325
1931.47292	2635.825
1934.57473	2623.825
1937.67453	2624.625
1940.77232	2601.925
1943.86808	2585.525
1946.96184	2580.025
1950.05358	2553.825
1953.14331	2551.225
1956.23103	2543.425
1959.31675	2543.225
1962.40046	2536.425
1965.48217	2532.325
1968.56188	2522.625
1971.63959	2519.425
1974.7153	2506.625
1977.78901	2487.525
1980.86073	2491.425
1983.93046	2470.325
1986.99819	2472.725
1990.06394	2464.625
1993.1277	2443.425
1996.18947	2441.425
1999.24925	2430.925
2002.30706	2420.525
2005.36288	2415.925
2008.41672	2405.525
2011.46859	2390.725
2014.51848	2397.425
2017.56639	2392.325
2020.61233	2378.325
2023.6563	2379.225
2026.6983	2360.225
2029.73833	2342.625
2032.7764	2344.525
2035.8125	2328.825
2038.84664	2323.025
2041.87881	2329.125
2044.90903	2317.825
2047.93729	2314.225
2050.96359	2308.625
2053.98794	2310.425
2057.01034	2303.225
2060.03078	2302.925
2063.04927	2290.225
2066.06582	2284.425
2069.08042	2288.225
2072.09307	2275.525
2075.10378	2278.525
2078.11255	2284.425
2081.11938	2283.125
2084.12426	2267.525
2087.12722	2277.925
2090.12824	2269.125
2093.12732	2279.725
2096.12447	2266.125
2099.11969	2264.125
2102.11299	2263.525
2105.10435	2263.525
2108.09379	2277.125
2111.08131	2264.225
2114.0669	2263.225
2117.05057	2266.825
2120.03233	2272.025
2123.01216	2267.125
2125.99008	2273.725
2128.96609	2278.225
2131.94018	2284.625
2134.91236	2271.825
2137.88263	2274.025
2140.851	2268.025
2143.81746	2264.325
2146.78201	2270.725
2149.74466	2260.925
2152.7054	2268.925
2155.66425	2257.725
2158.6212	2266.125
2161.57625	2246.425
2164.52941	2250.525
2167.48067	2242.425
2170.43004	2249.625
2173.37752	2246.025
2176.32311	2246.525
2179.26681	2236.825
2182.20863	2237.225
2185.14856	2229.125
2188.08661	2238.925
2191.02278	2240.325
2193.95707	2219.725
2196.88948	2222.325
2199.82001	2222.225
2202.74867	2221.025
2205.67545	2209.225
2208.60037	2222.625
2211.52341	2211.625
2214.44458	2197.125
2217.36388	2192.525
2220.28132	2184.825
2223.1969	2171.325
2226.11061	2176.525
2229.02246	2174.225
2231.93245	2166.725
2234.84058	2156.725
2237.74686	2152.025
2240.65128	2159.825
2243.55385	2145.125
2246.45456	2137.525
2249.35343	2148.325
2252.25044	2139.925
2255.14561	2144.625
2258.03893	2135.125
2260.93041	2127.425
2263.82004	2134.925
2266.70783	2122.225
2269.59378	2125.625
2272.4779	2111.625
2275.36017	2106.425
2278.24061	2103.125
2281.11922	2103.125
2283.996	2095.325
2286.87094	2091.625
2289.74405	2080.225
2292.61534	2064.725
2295.4848	2068.625
2298.35243	2079.925
2301.21824	2065.425
2304.08223	2065.025
2306.94439	2074.225
2309.80474	2059.825
2312.66327	2062.725
2315.51999	2054.325
2318.37489	2047.125
2321.22797	2049.425
2324.07925	2052.125
2326.92871	2039.925
2329.77637	2030.625
2332.62222	2034.625
2335.46626	2020.525
2338.3085	2020.125
2341.14893	2020.525
2343.98756	2023.025
2346.8244	2016.725
2349.65943	2015.625
2352.49267	2028.525
2355.32411	2021.525
2358.15376	2022.425
2360.98161	2031.725
2363.80768	2039.825
2366.63195	2042.125
2369.45444	2045.825
2372.27514	2049.725
2375.09405	2039.325
2377.91118	2032.525
2380.72652	2021.925
2383.54009	2005.425
2386.35187	1999.725
2389.16188	1990.525
2391.97011	1978.525
2394.77657	1972.225
2397.58125	1965.525
2400.38416	1957.625
2403.18529	1946.325
2405.98466	1949.025
2408.78226	1941.225
2411.57809	1942.025
2414.37216	1932.825
2417.16446	1931.325
2419.955	1931.125
2422.74378	1944.225
2425.5308	1934.425
2428.31606	1937.425
2431.09956	1923.925
2433.88131	1924.925
2436.6613	1930.925
2439.43954	1926.825
2442.21603	1917.525
2444.99077	1935.525
2447.76377	1925.425
2450.53501	1923.725
2453.30451	1925.025
2456.07226	1935.125
2458.83827	1922.025
2461.60254	1918.125
2464.36507	1919.325
2467.12586	1909.525
2469.88492	1909.825
2472.64224	1908.325
2475.39782	1906.525
2478.15167	1895.725
2480.90379	1914.325
2483.65417	1918.325
2486.40283	1918.325
2489.14976	1922.825
2491.89497	1933.525
2494.63845	1926.425
2497.3802	1928.025
2500.12024	1906.025
2502.85855	1905.525
2505.59514	1908.325
2508.33002	1902.825
2511.06318	1889.225
2513.79462	1883.425
2516.52435	1875.025
2519.25237	1855.325
2521.97867	1860.925
2524.70327	1860.425
2527.42616	1849.225
2530.14734	1833.125
2532.86681	1839.925
2535.58458	1839.925
2538.30065	1832.825
2541.01501	1830.925
2543.72768	1828.425
2546.43864	1836.225
2549.14791	1833.525
2551.85548	1829.925
2554.56136	1833.725
2557.26554	1831.525
2559.96803	1816.425
2562.66883	1816.925
2565.36794	1826.125
2568.06536	1812.625
2570.7611	1816.525
2573.45514	1803.925
2576.14751	1807.725
2578.83819	1809.825
2581.52719	1796.525
2584.21451	1783.625
2586.90015	1797.825
2589.58411	1790.725
2592.2664	1783.325
2594.94701	1775.225
2597.62594	1776.425
2600.30321	1778.325
2602.9788	1771.825
2605.65273	1767.325
2608.32498	1770.125
2610.99557	1768.925
2613.66449	1764.825
2616.33175	1759.325
2618.99734	1759.925
2621.66128	1759.125
2624.32355	1758.525
2626.98416	1755.025
2629.64311	1749.925
2632.30041	1756.325
2634.95605	1746.825
2637.61004	1726.625
2640.26238	1740.525
2642.91306	1736.625
2645.56209	1724.625
2648.20948	1722.025
2650.85521	1729.325
2653.4993	1727.725
2656.14175	1733.725
2658.78255	1747.925
2661.42171	1731.925
2664.05923	1739.725
2666.6951	1730.325
2669.32934	1743.025
2671.96194	1733.025
2674.59291	1756.825
2677.22224	1748.925
2679.84993	1750.925
2682.476	1747.425
2685.10043	1748.025
2687.72324	1745.625
2690.34441	1751.425
2692.96396	1760.925
2695.58188	1756.125
2698.19818	1755.825
2700.81285	1755.925
2703.4259	1748.025
2706.03733	1740.025
2708.64714	1739.325
2711.25533	1773.125
2713.86191	1769.125
2716.46687	1788.225
2719.07021	1776.825
2721.67194	1785.225
2724.27206	1796.525
2726.87057	1792.825
2729.46747	1791.025
2732.06276	1780.525
2734.65644	1782.725
2737.24852	1770.325
2739.83899	1771.025
2742.42786	1765.125
2745.01513	1749.925
2747.60079	1744.625
2750.18486	1739.825
2752.76733	1739.825
2755.3482	1729.825
2757.92747	1734.125
2760.50515	1729.525
2763.08123	1733.225
2765.65573	1730.825
2768.22863	1734.225
2770.79994	1726.125
2773.36967	1727.225
2775.9378	1732.925
2778.50435	1740.025
2781.06932	1738.225
2783.6327	1744.325
2786.1945	1745.925
2788.75471	1751.025
2791.31335	1746.725
2793.87041	1752.925
2796.42589	1758.825
2798.97979	1772.625
2801.53212	1785.825
2804.08288	1789.325
2806.63206	1796.925
2809.17967	1806.925
2811.72571	1816.325
2814.27018	1823.525
2816.81308	1836.425
2819.35442	1837.525
2821.89419	1859.125
2824.43239	1853.725
2826.96904	1864.925
2829.50412	1869.525
2832.03763	1875.925
2834.56959	1901.825
2837.1	1921.825
2839.62884	1963.225
2842.15613	2028.425
2844.68186	2135.925
2847.20604	2230.625
2849.72867	2332.425
2852.24974	2362.325
2854.76927	2379.725
2857.28724	2336.225
2859.80367	2326.525
2862.31855	2304.025
2864.83189	2281.025
2867.34368	2256.525
2869.85393	2255.725
2872.36264	2258.825
2874.8698	2256.525
2877.37543	2244.325
2879.87952	2249.725
2882.38207	2236.125
2884.88308	2242.525
2887.38256	2251.925
2889.88051	2248.025
2892.37692	2253.025
2894.8718	2255.925
2897.36515	2269.225
2899.85698	2268.225
2902.34727	2285.625
2904.83604	2287.025
2907.32328	2290.325
2909.809	2271.525
2912.29319	2282.725
2914.77587	2267.425
2917.25702	2261.625
2919.73665	2250.525
2922.21476	2257.525
2924.69136	2245.525
2927.16644	2252.525
2929.64	2235.825
2932.11205	2229.325
2934.58258	2207.325
2937.05161	2181.025
2939.51912	2149.725
2941.98513	2105.025
2944.44962	2051.525
2946.91261	1980.225
2949.37409	1949.425
2951.83407	1909.725
2954.29254	1877.925
2956.74951	1857.025
2959.20498	1845.125
2961.65895	1812.025
2964.11142	1809.025
2966.56239	1788.125
2969.01186	1780.825
2971.45984	1747.825
2973.90632	1740.125
2976.35131	1730.925
2978.7948	1714.325
2981.23681	1712.825
2983.67732	1699.125
2986.11635	1680.125
2988.55388	1668.925
2990.98993	1654.525
2993.4245	1661.725
2995.85758	1642.525
2998.28917	1640.825
3000.71928	1634.725
3003.14791	1618.925
3005.57506	1624.925
3008.00073	1624.825
3010.42493	1609.025
3012.84764	1613.325
3015.26888	1614.625
3017.68865	1615.025
3020.10694	1611.525
3022.52376	1609.825
3024.9391	1604.825
3027.35298	1605.825
3029.76539	1607.825
3032.17632	1615.725
3034.5858	1604.125
3036.9938	1605.125
3039.40034	1594.025
3041.80542	1600.025
3044.20903	1598.325
3046.61118	1595.625
3049.01187	1599.025
3051.4111	1602.625
3053.80888	1596.025
3056.20519	1594.825
3058.60005	1591.725
3060.99345	1600.025
3063.3854	1604.125
3065.7759	1609.725
3068.16494	1604.825
3070.55254	1600.425
3072.93868	1605.825
3075.32338	1603.625
3077.70662	1595.025
3080.08842	1581.925
3082.46878	1589.125
3084.84769	1591.225
3087.22515	1580.125
3089.60118	1583.525
3091.97576	1580.225
3094.3489	1581.825
3096.72061	1585.625
3099.09087	1589.825
3101.4597	1582.525
3103.82709	1590.325
3106.19305	1586.025
3108.55757	1595.125
3110.92066	1587.525
3113.28232	1592.225
3115.64255	1589.925
3118.00134	1606.325
3120.35871	1603.325
3122.71466	1597.625
3125.06917	1607.625
3127.42226	1612.525
3129.77393	1610.825
3132.12417	1620.825
3134.47299	1628.825
3136.82039	1632.225
3139.16636	1645.825
3141.51092	1649.425
3143.85406	1652.825
3146.19579	1661.225
3148.53609	1666.725
3150.87499	1673.125
3153.21246	1683.625
3155.54853	1688.825
3157.88318	1693.225
3160.21642	1701.525
3162.54826	1707.525
3164.87868	1714.225
3167.2077	1714.425
3169.5353	1722.825
3171.86151	1733.825
3174.18631	1735.425
3176.5097	1743.025
3178.83169	1739.325
3181.15228	1743.325
3183.47147	1751.525
3185.78926	1757.925
3188.10565	1759.825
3190.42065	1767.125
3192.73424	1763.425
3195.04645	1778.825
3197.35725	1786.925
3199.66667	1778.325
3201.97469	1783.625
3204.28132	1799.525
3206.58656	1802.125
3208.8904	1805.325
3211.19287	1807.325
3213.49394	1819.425
3215.79363	1823.525
3218.09193	1827.625
3220.38884	1834.325
3222.68438	1828.125
3224.97853	1818.725
3227.2713	1831.425
3229.56269	1831.425
3231.8527	1835.625
3234.14133	1841.225
