Data from AgNPs_FTO_APTES_UA_1uM_CRN_1uM_R6G_10uM_NaF_0.1M_Addition_RamanShift__9__12-22-39-490.txt Node

Date: Thu Jan 27 12:22:39 GMT 2022
User: TCL
Spectrometer: QEP01345
Trigger mode: 4
Integration Time (sec): 7.000000E0
Scans to average: 10
Electric dark correction enabled: true
Nonlinearity correction enabled: false
Boxcar width: 0
XAxis mode: Raman Shifts
Number of Pixels in Spectrum: 1044
>>>>>Begin Spectral Data<<<<<
46.04893	-0.975
50.45542	-0.275
54.85868	-1.375
59.25871	-0.875
63.6555	54.825
68.04907	61.125
72.43941	61.325
76.82654	65.725
81.21044	68.425
85.59113	70.525
89.96862	72.925
94.34289	75.525
98.71396	77.125
103.08183	77.425
107.4465	83.525
111.80798	82.725
116.16626	85.725
120.52136	91.025
124.87327	91.525
129.222	92.725
133.56755	101.525
137.90993	106.125
142.24913	117.125
146.58517	132.925
150.91804	148.025
155.24774	178.025
159.57429	214.625
163.89768	271.725
168.21792	354.425
172.53501	480.325
176.84895	667.025
181.15975	928.725
185.46741	1301.825
189.77193	1799.825
194.07331	2406.825
198.37157	3107.325
202.6667	3845.725
206.9587	4575.625
211.24758	5290.625
215.53334	6019.125
219.81599	6778.625
224.09553	7621.425
228.37195	8568.725
232.64527	9583.725
236.91549	10672.125
241.18261	11754.225
245.44663	12781.825
249.70755	13694.925
253.96539	14510.125
258.22014	15170.825
262.4718	15689.525
266.72039	16086.725
270.96589	16268.525
275.20832	16234.125
279.44768	16099.625
283.68397	15891.525
287.91719	15684.525
292.14735	15552.325
296.37445	15471.525
300.59849	15488.025
304.81948	15581.725
309.03742	15623.825
313.25231	15618.925
317.46415	15412.025
321.67296	15094.725
325.87872	14844.825
330.08145	14744.125
334.28114	14733.425
338.47781	14834.825
342.67145	15008.925
346.86207	15254.725
351.04966	15571.125
355.23424	15857.225
359.4158	16147.125
363.59435	16373.225
367.76989	16544.425
371.94243	16628.425
376.11196	16680.025
380.27849	16706.725
384.44203	16768.025
388.60257	16863.025
392.76012	17008.725
396.91468	17222.125
401.06626	17486.125
405.21485	17636.225
409.36047	17557.125
413.50311	17324.825
417.64277	17212.125
421.77947	17224.625
425.9132	17302.425
430.04396	17385.625
434.17176	17453.925
438.2966	17519.925
442.41849	17664.225
446.53742	17987.125
450.6534	18364.425
454.76644	18576.925
458.87653	18655.725
462.98368	18557.225
467.08789	18427.625
471.18916	18188.225
475.2875	17915.425
479.38291	17720.625
483.4754	17579.325
487.56496	17444.925
491.6516	17373.825
495.73531	17315.225
499.81612	17311.225
503.89401	17473.825
507.96899	17565.725
512.04106	17588.225
516.11023	17541.325
520.1765	17475.625
524.23987	17326.425
528.30034	17239.625
532.35792	17075.425
536.41261	16911.825
540.46441	16708.925
544.51333	16686.825
548.55936	16768.325
552.60252	17028.125
556.64279	17332.825
560.6802	17553.325
564.71473	17627.825
568.7464	17730.825
572.7752	18000.225
576.80114	18324.625
580.82422	18788.925
584.84444	19455.225
588.86181	20359.525
592.87633	21165.725
596.888	21106.225
600.89682	20225.125
604.9028	20001.925
608.90594	21225.925
612.90624	22940.425
616.90371	22036.725
620.89834	18947.625
624.89015	17470.425
628.87913	17223.325
632.86528	17378.625
636.84862	17417.225
640.82913	17222.925
644.80683	16886.025
648.78172	16655.925
652.75379	16659.425
656.72306	16837.125
660.68952	17110.725
664.65319	17039.825
668.61405	16773.725
672.57211	16722.225
676.52738	16804.025
680.47986	16790.725
684.42955	16653.325
688.37646	16591.125
692.32058	16643.925
696.26192	16854.625
700.20048	17065.025
704.13626	17185.325
708.06928	17175.025
711.99952	17103.425
715.927	17074.525
719.85171	17133.425
723.77365	17073.025
727.69284	16867.625
731.60928	16659.325
735.52295	16583.225
739.43388	16555.525
743.34206	16627.025
747.24749	16715.125
751.15017	16838.525
755.05012	17041.325
758.94733	17364.725
762.8418	18046.625
766.73354	19094.025
770.62254	20212.525
774.50882	20523.625
778.39237	19953.125
782.27321	18878.325
786.15132	17962.125
790.02671	17320.425
793.89938	16982.625
797.76935	16806.725
801.6366	16726.625
805.50115	16689.625
809.36299	16646.825
813.22213	16529.625
817.07857	16436.625
820.93231	16329.525
824.78336	16293.825
828.63172	16265.125
832.47738	16263.825
836.32036	16253.425
840.16066	16276.925
843.99827	16273.725
847.8332	16265.525
851.66546	16249.025
855.49504	16262.725
859.32195	16292.925
863.1462	16235.225
866.96777	16207.125
870.78668	16232.025
874.60293	16239.925
878.41652	16257.425
882.22745	16358.125
886.03573	16380.825
889.84136	16407.525
893.64433	16374.825
897.44466	16342.125
901.24235	16261.025
905.0374	16202.925
908.8298	16186.925
912.61957	16161.025
916.40671	16228.125
920.19121	16384.125
923.97308	16524.925
927.75233	16625.625
931.52895	16552.125
935.30295	16422.625
939.07433	16185.425
942.84309	16000.825
946.60924	15884.925
950.37278	15869.425
954.13371	15851.425
957.89203	15847.325
961.64774	15805.025
965.40086	15763.725
969.15137	15763.725
972.89929	15717.625
976.64461	15688.825
980.38733	15695.825
984.12747	15721.325
987.86502	15783.725
991.59999	15871.125
995.33237	16023.525
999.06217	16235.825
1002.78939	16493.125
1006.51404	16829.225
1010.23611	17106.325
1013.95561	17265.725
1017.67255	17261.125
1021.38692	17120.425
1025.09872	16910.625
1028.80796	16711.325
1032.51465	16734.425
1036.21877	16854.125
1039.92035	16872.625
1043.61937	16914.325
1047.31584	16844.425
1051.00976	16802.025
1054.70114	16782.625
1058.38998	16765.125
1062.07627	16892.725
1065.76003	17038.625
1069.44126	17188.825
1073.11995	17448.325
1076.79611	17797.725
1080.46974	17927.025
1084.14085	18064.025
1087.80943	18176.225
1091.47549	18319.625
1095.13903	18324.025
1098.80005	18121.125
1102.45857	17745.125
1106.11456	17459.025
1109.76805	17262.925
1113.41903	17247.125
1117.06751	17268.025
1120.71348	17410.825
1124.35696	17528.425
1127.99793	17726.425
1131.63641	17835.625
1135.2724	17757.625
1138.90589	17620.725
1142.5369	17596.925
1146.16542	17632.025
1149.79145	17693.025
1153.415	17699.425
1157.03607	17756.325
1160.65467	18072.325
1164.27079	18681.525
1167.88443	19425.325
1171.49561	20276.925
1175.10432	21333.725
1178.71056	22662.525
1182.31434	24105.125
1185.91565	24812.525
1189.51451	24809.425
1193.11091	24313.925
1196.70485	23569.525
1200.29634	22825.925
1203.88538	22208.325
1207.47197	21798.425
1211.05612	21446.925
1214.63782	21070.925
1218.21708	20595.425
1221.79391	20160.625
1225.36829	19877.525
1228.94024	19760.025
1232.50976	19628.625
1236.07685	19445.725
1239.6415	19307.325
1243.20374	19287.025
1246.76355	19386.825
1250.32093	19623.225
1253.8759	19933.225
1257.42845	20385.925
1260.97859	20935.425
1264.52631	21510.625
1268.07163	22066.025
1271.61453	22508.625
1275.15503	22983.625
1278.69312	23402.725
1282.22882	23856.825
1285.76211	24443.125
1289.29301	25129.725
1292.82151	25890.625
1296.34761	26920.025
1299.87133	28172.725
1303.39266	29519.225
1306.9116	30785.725
1310.42815	31901.925
1313.94233	32407.225
1317.45412	32242.925
1320.96354	31496.325
1324.47058	30784.725
1327.97525	30319.825
1331.47754	30007.525
1334.97747	29736.325
1338.47502	29417.725
1341.97022	29196.025
1345.46305	29038.625
1348.95352	29082.425
1352.44163	29452.525
1355.92738	30287.325
1359.41078	31679.725
1362.89183	32992.625
1366.37053	32928.825
1369.84688	30718.825
1373.32088	27465.725
1376.79254	25020.425
1380.26186	23903.325
1383.72883	23661.925
1387.19347	23507.825
1390.65578	23113.025
1394.11575	22784.125
1397.57339	22813.625
1401.0287	23069.425
1404.48168	23294.625
1407.93234	23328.925
1411.38068	23119.525
1414.82669	22631.725
1418.27039	22124.025
1421.71177	21572.525
1425.15083	21129.825
1428.58758	20938.125
1432.02203	21113.525
1435.45416	21585.125
1438.88399	22043.725
1442.31151	22317.125
1445.73673	22409.725
1449.15965	22387.625
1452.58027	22286.325
1455.9986	22143.925
1459.41463	22207.925
1462.82837	22528.125
1466.23982	22978.025
1469.64898	23390.625
1473.05586	23644.525
1476.46045	23739.725
1479.86276	23672.625
1483.26279	23607.225
1486.66054	23585.625
1490.05602	23747.325
1493.44922	24066.525
1496.84016	24514.125
1500.22882	25089.425
1503.61521	25870.325
1506.99934	26822.525
1510.38121	27577.525
1513.76081	27739.025
1517.13816	27147.625
1520.51324	26157.925
1523.88607	25272.225
1527.25665	24710.225
1530.62498	24389.025
1533.99105	24156.625
1537.35488	23771.725
1540.71647	23348.625
1544.07581	22803.825
1547.4329	22398.525
1550.78776	21972.425
1554.14038	21724.825
1557.49077	21609.425
1560.83892	21577.125
1564.18484	21580.425
1567.52853	21677.025
1570.86999	21809.225
1574.20922	22122.125
1577.54624	22346.425
1580.88103	22305.825
1584.2136	22267.725
1587.54395	22651.725
1590.87208	23546.125
1594.19801	24791.125
1597.52172	26066.425
1600.84321	26485.525
1604.16251	25550.225
1607.47959	23836.425
1610.79447	22032.325
1614.10715	20404.625
1617.41763	19085.525
1620.7259	18267.625
1624.03199	17841.325
1627.33587	17811.425
1630.63757	18188.525
1633.93707	19093.225
1637.23439	20619.125
1640.52951	22947.125
1643.82246	25845.725
1647.11321	28171.825
1650.40179	28725.825
1653.68819	26853.025
1656.97241	23511.325
1660.25446	20351.225
1663.53433	18130.225
1666.81203	16812.725
1670.08756	16003.725
1673.36092	15507.125
1676.63211	15219.725
1679.90115	14952.825
1683.16801	14763.825
1686.43272	14661.925
1689.69527	14531.825
1692.95567	14437.425
1696.2139	14335.125
1699.46999	14266.825
1702.72392	14251.225
1705.97571	14231.725
1709.22535	14276.025
1712.47284	14279.225
1715.71819	14291.725
1718.96139	14268.525
1722.20246	14240.625
1725.44139	14155.425
1728.67818	14122.125
1731.91284	14029.925
1735.14537	13946.825
1738.37576	13928.825
1741.60403	13865.025
1744.83017	13805.525
1748.05418	13745.625
1751.27607	13728.925
1754.49584	13703.325
1757.71349	13688.925
1760.92903	13663.725
1764.14244	13612.725
1767.35375	13647.625
1770.56294	13588.525
1773.77002	13584.125
1776.97499	13584.025
1780.17785	13594.825
1783.37861	13582.025
1786.57727	13562.625
1789.77382	13514.225
1792.96828	13519.125
1796.16064	13489.325
1799.3509	13480.125
1802.53907	13446.825
1805.72514	13416.325
1808.90913	13381.825
1812.09102	13372.625
1815.27083	13352.625
1818.44856	13357.925
1821.6242	13337.325
1824.79776	13345.625
1827.96924	13301.125
1831.13864	13337.625
1834.30597	13317.325
1837.47122	13307.425
1840.6344	13336.625
1843.7955	13316.325
1846.95454	13314.025
1850.11151	13321.825
1853.26642	13296.825
1856.41926	13280.325
1859.57004	13286.725
1862.71876	13256.325
1865.86542	13236.125
1869.01003	13242.025
1872.15258	13222.425
1875.29308	13184.625
1878.43152	13178.325
1881.56792	13160.625
1884.70227	13124.925
1887.83457	13097.225
1890.96482	13079.025
1894.09304	13053.625
1897.21921	13062.825
1900.34335	13049.525
1903.46544	13007.625
1906.58551	12994.425
1909.70353	12984.825
1912.81953	12948.725
1915.93349	12945.825
1919.04543	12913.825
1922.15534	12868.125
1925.26322	12840.525
1928.36908	12814.525
1931.47292	12784.825
1934.57473	12753.225
1937.67453	12744.325
1940.77232	12699.325
1943.86808	12642.825
1946.96184	12656.625
1950.05358	12618.325
1953.14331	12559.125
1956.23103	12518.025
1959.31675	12527.425
1962.40046	12489.025
1965.48217	12434.325
1968.56188	12393.325
1971.63959	12360.825
1974.7153	12353.825
1977.78901	12295.325
1980.86073	12257.825
1983.93046	12211.625
1986.99819	12190.125
1990.06394	12115.025
1993.1277	12104.625
1996.18947	12082.125
1999.24925	12048.025
2002.30706	11993.825
2005.36288	11976.125
2008.41672	11938.325
2011.46859	11901.825
2014.51848	11854.325
2017.56639	11836.025
2020.61233	11824.125
2023.6563	11785.625
2026.6983	11769.125
2029.73833	11730.225
2032.7764	11700.325
2035.8125	11709.325
2038.84664	11658.225
2041.87881	11623.225
2044.90903	11610.525
2047.93729	11556.125
2050.96359	11590.925
2053.98794	11554.025
2057.01034	11542.325
2060.03078	11528.425
2063.04927	11534.625
2066.06582	11529.325
2069.08042	11539.125
2072.09307	11495.725
2075.10378	11504.525
2078.11255	11515.425
2081.11938	11551.025
2084.12426	11499.625
2087.12722	11521.025
2090.12824	11486.825
2093.12732	11500.425
2096.12447	11512.125
2099.11969	11512.625
2102.11299	11531.625
2105.10435	11529.825
2108.09379	11520.825
2111.08131	11499.625
2114.0669	11531.125
2117.05057	11537.525
2120.03233	11551.325
2123.01216	11552.325
2125.99008	11563.425
2128.96609	11538.425
2131.94018	11566.025
2134.91236	11578.325
2137.88263	11565.825
2140.851	11581.025
2143.81746	11587.125
2146.78201	11580.625
2149.74466	11591.025
2152.7054	11601.125
2155.66425	11585.125
2158.6212	11580.725
2161.57625	11572.425
2164.52941	11577.725
2167.48067	11553.625
2170.43004	11547.525
2173.37752	11537.125
2176.32311	11569.225
2179.26681	11571.825
2182.20863	11562.425
2185.14856	11577.425
2188.08661	11568.025
2191.02278	11562.125
2193.95707	11554.325
2196.88948	11539.525
2199.82001	11517.025
2202.74867	11540.725
2205.67545	11557.825
2208.60037	11510.225
2211.52341	11474.925
2214.44458	11477.225
2217.36388	11427.125
2220.28132	11411.325
2223.1969	11374.225
2226.11061	11348.325
2229.02246	11365.425
2231.93245	11339.225
2234.84058	11337.425
2237.74686	11320.325
2240.65128	11313.025
2243.55385	11288.325
2246.45456	11276.825
2249.35343	11266.525
2252.25044	11260.825
2255.14561	11225.825
2258.03893	11203.125
2260.93041	11180.825
2263.82004	11155.525
2266.70783	11130.725
2269.59378	11117.325
2272.4779	11111.325
2275.36017	11079.025
2278.24061	11063.825
2281.11922	11070.825
2283.996	11016.125
2286.87094	11013.425
2289.74405	10984.725
2292.61534	10973.525
2295.4848	10964.125
2298.35243	10948.025
2301.21824	10938.225
2304.08223	10956.625
2306.94439	10947.025
2309.80474	10917.525
2312.66327	10940.925
2315.51999	10894.725
2318.37489	10927.425
2321.22797	10890.425
2324.07925	10888.225
2326.92871	10897.625
2329.77637	10876.525
2332.62222	10850.625
2335.46626	10803.325
2338.3085	10811.425
2341.14893	10814.525
2343.98756	10800.325
2346.8244	10797.125
2349.65943	10805.825
2352.49267	10762.325
2355.32411	10779.325
2358.15376	10772.625
2360.98161	10767.025
2363.80768	10740.025
2366.63195	10751.125
2369.45444	10754.125
2372.27514	10734.525
2375.09405	10722.225
2377.91118	10702.725
2380.72652	10679.925
2383.54009	10658.525
2386.35187	10642.525
2389.16188	10608.125
2391.97011	10581.825
2394.77657	10568.925
2397.58125	10551.225
2400.38416	10531.125
2403.18529	10505.625
2405.98466	10492.825
2408.78226	10510.925
2411.57809	10490.625
2414.37216	10487.925
2417.16446	10456.825
2419.955	10468.325
2422.74378	10443.625
2425.5308	10435.925
2428.31606	10432.725
2431.09956	10413.125
2433.88131	10412.425
2436.6613	10399.925
2439.43954	10396.025
2442.21603	10406.525
2444.99077	10388.725
2447.76377	10415.525
2450.53501	10406.125
2453.30451	10378.925
2456.07226	10358.425
2458.83827	10358.525
2461.60254	10336.125
2464.36507	10353.225
2467.12586	10335.225
2469.88492	10346.525
2472.64224	10355.625
2475.39782	10347.625
2478.15167	10327.325
2480.90379	10345.925
2483.65417	10311.925
2486.40283	10315.225
2489.14976	10334.525
2491.89497	10319.425
2494.63845	10314.125
2497.3802	10288.225
2500.12024	10294.525
2502.85855	10277.225
2505.59514	10273.825
2508.33002	10293.325
2511.06318	10260.125
2513.79462	10241.325
2516.52435	10236.725
2519.25237	10222.625
2521.97867	10219.525
2524.70327	10212.925
2527.42616	10173.325
2530.14734	10156.325
2532.86681	10170.325
2535.58458	10175.725
2538.30065	10143.725
2541.01501	10175.525
2543.72768	10154.925
2546.43864	10115.125
2549.14791	10128.525
2551.85548	10093.625
2554.56136	10093.825
2557.26554	10068.125
2559.96803	10058.125
2562.66883	10038.625
2565.36794	10047.725
2568.06536	10049.925
2570.7611	10021.925
2573.45514	9998.425
2576.14751	9997.825
2578.83819	9982.625
2581.52719	9968.225
2584.21451	9972.325
2586.90015	9969.425
2589.58411	9938.525
2592.2664	9899.025
2594.94701	9896.325
2597.62594	9877.125
2600.30321	9875.025
2602.9788	9867.425
2605.65273	9851.625
2608.32498	9839.425
2610.99557	9822.925
2613.66449	9873.225
2616.33175	9831.425
2618.99734	9822.525
2621.66128	9797.225
2624.32355	9774.325
2626.98416	9761.425
2629.64311	9759.325
2632.30041	9775.825
2634.95605	9753.125
2637.61004	9713.225
2640.26238	9699.525
2642.91306	9700.125
2645.56209	9736.125
2648.20948	9705.325
2650.85521	9707.225
2653.4993	9698.125
2656.14175	9729.225
2658.78255	9722.825
2661.42171	9717.125
2664.05923	9749.725
2666.6951	9737.825
2669.32934	9742.625
2671.96194	9732.525
2674.59291	9754.225
2677.22224	9725.025
2679.84993	9742.925
2682.476	9722.525
2685.10043	9721.925
2687.72324	9710.625
2690.34441	9710.825
2692.96396	9700.125
2695.58188	9729.725
2698.19818	9722.625
2700.81285	9717.725
2703.4259	9709.225
2706.03733	9702.725
2708.64714	9674.825
2711.25533	9709.225
2713.86191	9704.625
2716.46687	9725.925
2719.07021	9717.725
2721.67194	9740.425
2724.27206	9740.925
2726.87057	9737.125
2729.46747	9738.325
2732.06276	9730.325
2734.65644	9721.125
2737.24852	9735.725
2739.83899	9718.325
2742.42786	9728.325
2745.01513	9696.125
2747.60079	9683.325
2750.18486	9664.025
2752.76733	9674.725
2755.3482	9666.825
2757.92747	9650.525
2760.50515	9649.425
2763.08123	9650.625
2765.65573	9638.825
2768.22863	9641.525
2770.79994	9623.725
2773.36967	9618.625
2775.9378	9625.525
2778.50435	9605.625
2781.06932	9605.425
2783.6327	9581.525
2786.1945	9585.425
2788.75471	9562.725
2791.31335	9549.825
2793.87041	9531.325
2796.42589	9528.725
2798.97979	9543.925
2801.53212	9491.425
2804.08288	9476.225
2806.63206	9464.825
2809.17967	9448.325
2811.72571	9441.825
2814.27018	9421.325
2816.81308	9358.625
2819.35442	9388.525
2821.89419	9337.325
2824.43239	9357.225
2826.96904	9353.925
2829.50412	9372.325
2832.03763	9328.825
2834.56959	9329.925
2837.1	9348.825
2839.62884	9331.625
2842.15613	9318.125
2844.68186	9329.025
2847.20604	9317.325
2849.72867	9348.025
2852.24974	9329.725
2854.76927	9317.625
2857.28724	9315.525
2859.80367	9310.425
2862.31855	9276.925
2864.83189	9279.525
2867.34368	9253.125
2869.85393	9275.525
2872.36264	9275.925
2874.8698	9249.525
2877.37543	9250.325
2879.87952	9240.425
2882.38207	9231.125
2884.88308	9242.525
2887.38256	9248.325
2889.88051	9239.525
2892.37692	9246.125
2894.8718	9251.725
2897.36515	9274.325
2899.85698	9263.725
2902.34727	9293.225
2904.83604	9316.325
2907.32328	9296.525
2909.809	9285.525
2912.29319	9289.225
2914.77587	9282.325
2917.25702	9257.825
2919.73665	9245.525
2922.21476	9262.925
2924.69136	9251.725
2927.16644	9260.425
2929.64	9253.225
2932.11205	9248.925
2934.58258	9228.925
2937.05161	9231.425
2939.51912	9226.425
2941.98513	9218.025
2944.44962	9195.925
2946.91261	9156.825
2949.37409	9182.825
2951.83407	9137.625
2954.29254	9140.425
2956.74951	9117.125
2959.20498	9124.925
2961.65895	9125.125
2964.11142	9113.925
2966.56239	9102.925
2969.01186	9083.425
2971.45984	9054.925
2973.90632	9050.225
2976.35131	9034.525
2978.7948	9006.525
2981.23681	8963.525
2983.67732	8990.125
2986.11635	8975.225
2988.55388	8896.525
2990.98993	8905.025
2993.4245	8873.025
2995.85758	8864.125
2998.28917	8836.025
3000.71928	8821.425
3003.14791	8821.825
3005.57506	8774.625
3008.00073	8757.625
3010.42493	8779.625
3012.84764	8747.025
3015.26888	8752.525
3017.68865	8741.325
3020.10694	8708.625
3022.52376	8697.925
3024.9391	8704.725
3027.35298	8695.625
3029.76539	8689.625
3032.17632	8663.425
3034.5858	8639.825
3036.9938	8640.425
3039.40034	8645.125
3041.80542	8643.525
3044.20903	8621.525
3046.61118	8599.825
3049.01187	8594.725
3051.4111	8574.025
3053.80888	8555.525
3056.20519	8553.125
3058.60005	8536.125
3060.99345	8526.625
3063.3854	8515.725
3065.7759	8480.325
3068.16494	8474.525
3070.55254	8442.325
3072.93868	8438.925
3075.32338	8407.625
3077.70662	8413.725
3080.08842	8370.225
3082.46878	8382.025
3084.84769	8358.125
3087.22515	8347.725
3089.60118	8334.425
3091.97576	8356.525
3094.3489	8362.225
3096.72061	8356.325
3099.09087	8351.925
3101.4597	8354.325
3103.82709	8346.725
3106.19305	8335.925
3108.55757	8334.025
3110.92066	8296.825
3113.28232	8321.425
3115.64255	8256.425
3118.00134	8275.725
3120.35871	8253.925
3122.71466	8230.925
3125.06917	8237.825
3127.42226	8213.525
3129.77393	8218.325
3132.12417	8175.925
3134.47299	8195.725
3136.82039	8183.225
3139.16636	8201.625
3141.51092	8196.925
3143.85406	8200.625
3146.19579	8203.525
3148.53609	8209.125
3150.87499	8225.325
3153.21246	8225.725
3155.54853	8228.325
