Data from AgNPs_FTO_APTES_UA_1uM_CRN_1000uM_R6G_10uM_NaF_0.1M_Addition_RamanShift__8__18-42-59-924.txt Node

Date: Thu Jan 27 18:42:59 GMT 2022
User: TCL
Spectrometer: QEP01345
Trigger mode: 4
Integration Time (sec): 7.000000E0
Scans to average: 10
Electric dark correction enabled: true
Nonlinearity correction enabled: false
Boxcar width: 0
XAxis mode: Raman Shifts
Number of Pixels in Spectrum: 1044
>>>>>Begin Spectral Data<<<<<
46.04893	0.8875
50.45542	0.7875
54.85868	-1.0125
59.25871	-1.1125
63.6555	42.7875
68.04907	43.9875
72.43941	45.6875
76.82654	52.7875
81.21044	52.1875
85.59113	53.0875
89.96862	54.1875
94.34289	55.8875
98.71396	61.7875
103.08183	60.1875
107.4465	64.9875
111.80798	66.4875
116.16626	66.4875
120.52136	71.6875
124.87327	70.6875
129.222	72.4875
133.56755	74.8875
137.90993	79.3875
142.24913	85.4875
146.58517	91.5875
150.91804	109.4875
155.24774	128.0875
159.57429	153.4875
163.89768	189.9875
168.21792	250.4875
172.53501	336.1875
176.84895	463.5875
181.15975	644.3875
185.46741	914.6875
189.77193	1254.8875
194.07331	1685.9875
198.37157	2186.6875
202.6667	2708.3875
206.9587	3243.8875
211.24758	3761.2875
215.53334	4280.2875
219.81599	4800.6875
224.09553	5383.8875
228.37195	6022.4875
232.64527	6729.0875
236.91549	7446.0875
241.18261	8186.5875
245.44663	8914.7875
249.70755	9558.8875
253.96539	10119.2875
258.22014	10584.8875
262.4718	10931.8875
266.72039	11186.2875
270.96589	11280.8875
275.20832	11279.3875
279.44768	11189.1875
283.68397	11020.7875
287.91719	10875.7875
292.14735	10752.7875
296.37445	10693.2875
300.59849	10691.3875
304.81948	10726.6875
309.03742	10737.8875
313.25231	10640.2875
317.46415	10471.9875
321.67296	10225.7875
325.87872	10035.6875
330.08145	9961.4875
334.28114	9956.3875
338.47781	10050.6875
342.67145	10129.0875
346.86207	10313.0875
351.04966	10497.3875
355.23424	10685.6875
359.4158	10834.0875
363.59435	10975.1875
367.76989	11056.0875
371.94243	11133.4875
376.11196	11193.7875
380.27849	11240.3875
384.44203	11291.1875
388.60257	11364.5875
392.76012	11433.8875
396.91468	11524.3875
401.06626	11677.5875
405.21485	11781.0875
409.36047	11764.2875
413.50311	11604.6875
417.64277	11496.4875
421.77947	11487.5875
425.9132	11481.2875
430.04396	11527.5875
434.17176	11587.7875
438.2966	11612.2875
442.41849	11691.0875
446.53742	11864.4875
450.6534	12070.3875
454.76644	12200.4875
458.87653	12227.8875
462.98368	12206.4875
467.08789	12129.8875
471.18916	12017.7875
475.2875	11850.2875
479.38291	11759.7875
483.4754	11678.3875
487.56496	11595.8875
491.6516	11478.8875
495.73531	11473.2875
499.81612	11482.7875
503.89401	11562.3875
507.96899	11602.8875
512.04106	11651.8875
516.11023	11667.4875
520.1765	11623.6875
524.23987	11554.2875
528.30034	11493.3875
532.35792	11407.6875
536.41261	11312.4875
540.46441	11202.2875
544.51333	11183.4875
548.55936	11241.7875
552.60252	11380.1875
556.64279	11577.7875
560.6802	11711.8875
564.71473	11700.2875
568.7464	11757.7875
572.7752	11952.0875
576.80114	12090.3875
580.82422	12319.6875
584.84444	12648.7875
588.86181	13086.2875
592.87633	13410.6875
596.888	13378.5875
600.89682	12988.6875
604.9028	12932.1875
608.90594	13621.7875
612.90624	14757.6875
616.90371	14317.1875
620.89834	12410.4875
624.89015	11428.2875
628.87913	11279.6875
632.86528	11328.0875
636.84862	11415.7875
640.82913	11385.2875
644.80683	11254.0875
648.78172	11109.0875
652.75379	11084.2875
656.72306	11182.7875
660.68952	11319.2875
664.65319	11278.6875
668.61405	11160.9875
672.57211	11153.4875
676.52738	11276.7875
680.47986	11345.7875
684.42955	11330.4875
688.37646	11223.3875
692.32058	11146.4875
696.26192	11125.6875
700.20048	11189.6875
704.13626	11250.3875
708.06928	11253.7875
711.99952	11227.7875
715.927	11212.6875
719.85171	11207.3875
723.77365	11172.7875
727.69284	11109.3875
731.60928	11061.4875
735.52295	11004.9875
739.43388	11002.1875
743.34206	11007.1875
747.24749	11040.9875
751.15017	11082.6875
755.05012	11198.6875
758.94733	11383.6875
762.8418	11771.2875
766.73354	12411.8875
770.62254	13126.2875
774.50882	13513.1875
778.39237	13204.0875
782.27321	12448.4875
786.15132	11711.4875
790.02671	11253.7875
793.89938	11035.7875
797.76935	10948.2875
801.6366	10904.3875
805.50115	10846.4875
809.36299	10794.2875
813.22213	10737.9875
817.07857	10697.3875
820.93231	10687.5875
824.78336	10654.0875
828.63172	10621.8875
832.47738	10622.0875
836.32036	10614.0875
840.16066	10608.4875
843.99827	10589.2875
847.8332	10584.6875
851.66546	10593.5875
855.49504	10580.3875
859.32195	10573.4875
863.1462	10583.9875
866.96777	10593.3875
870.78668	10599.6875
874.60293	10573.7875
878.41652	10582.4875
882.22745	10622.5875
886.03573	10638.6875
889.84136	10666.4875
893.64433	10668.7875
897.44466	10614.6875
901.24235	10576.4875
905.0374	10529.9875
908.8298	10486.6875
912.61957	10482.9875
916.40671	10514.6875
920.19121	10604.5875
923.97308	10644.5875
927.75233	10697.1875
931.52895	10669.4875
935.30295	10576.6875
939.07433	10411.6875
942.84309	10289.8875
946.60924	10199.6875
950.37278	10148.6875
954.13371	10099.6875
957.89203	10105.9875
961.64774	10075.8875
965.40086	10073.0875
969.15137	10043.4875
972.89929	9993.7875
976.64461	9931.0875
980.38733	9960.6875
984.12747	9919.0875
987.86502	9938.1875
991.59999	9966.7875
995.33237	9996.4875
999.06217	10081.6875
1002.78939	10170.4875
1006.51404	10259.7875
1010.23611	10401.4875
1013.95561	10520.1875
1017.67255	10548.3875
1021.38692	10513.0875
1025.09872	10418.7875
1028.80796	10287.9875
1032.51465	10205.7875
1036.21877	10221.4875
1039.92035	10233.8875
1043.61937	10276.2875
1047.31584	10344.9875
1051.00976	10388.3875
1054.70114	10445.9875
1058.38998	10480.6875
1062.07627	10519.2875
1065.76003	10619.7875
1069.44126	10745.1875
1073.11995	10874.2875
1076.79611	10995.5875
1080.46974	11023.2875
1084.14085	10968.2875
1087.80943	10917.2875
1091.47549	10955.5875
1095.13903	10978.9875
1098.80005	10895.7875
1102.45857	10736.1875
1106.11456	10571.9875
1109.76805	10491.9875
1113.41903	10505.6875
1117.06751	10571.7875
1120.71348	10692.2875
1124.35696	10838.4875
1127.99793	11008.9875
1131.63641	11150.7875
1135.2724	11012.0875
1138.90589	10819.9875
1142.5369	10736.6875
1146.16542	10727.6875
1149.79145	10717.8875
1153.415	10729.4875
1157.03607	10742.5875
1160.65467	10902.9875
1164.27079	11244.5875
1167.88443	11674.0875
1171.49561	12130.6875
1175.10432	12739.1875
1178.71056	13546.4875
1182.31434	14352.4875
1185.91565	14733.4875
1189.51451	14645.9875
1193.11091	14316.2875
1196.70485	13797.1875
1200.29634	13311.8875
1203.88538	12871.7875
1207.47197	12553.6875
1211.05612	12274.5875
1214.63782	12041.0875
1218.21708	11824.2875
1221.79391	11640.8875
1225.36829	11540.5875
1228.94024	11542.9875
1232.50976	11490.1875
1236.07685	11429.0875
1239.6415	11334.8875
1243.20374	11302.1875
1246.76355	11322.8875
1250.32093	11393.5875
1253.8759	11489.2875
1257.42845	11681.6875
1260.97859	11903.0875
1264.52631	12100.8875
1268.07163	12304.5875
1271.61453	12531.1875
1275.15503	12735.7875
1278.69312	12972.1875
1282.22882	13192.8875
1285.76211	13493.2875
1289.29301	13857.6875
1292.82151	14332.0875
1296.34761	14867.7875
1299.87133	15562.2875
1303.39266	16256.6875
1306.9116	17035.7875
1310.42815	17741.2875
1313.94233	18151.9875
1317.45412	18039.5875
1320.96354	17532.4875
1324.47058	16953.0875
1327.97525	16498.5875
1331.47754	16222.7875
1334.97747	16021.8875
1338.47502	15894.7875
1341.97022	15883.8875
1345.46305	15939.3875
1348.95352	16135.0875
1352.44163	16613.0875
1355.92738	17282.6875
1359.41078	18243.2875
1362.89183	19047.2875
1366.37053	18977.6875
1369.84688	17570.0875
1373.32088	15659.7875
1376.79254	14189.4875
1380.26186	13495.0875
1383.72883	13272.7875
1387.19347	13064.7875
1390.65578	12811.9875
1394.11575	12692.5875
1397.57339	12697.9875
1401.0287	12833.8875
1404.48168	12973.6875
1407.93234	12966.4875
1411.38068	12868.2875
1414.82669	12627.0875
1418.27039	12408.3875
1421.71177	12095.0875
1425.15083	11815.5875
1428.58758	11685.5875
1432.02203	11680.2875
1435.45416	11852.1875
1438.88399	12041.9875
1442.31151	12118.1875
1445.73673	12181.6875
1449.15965	12214.6875
1452.58027	12253.0875
1455.9986	12208.7875
1459.41463	12246.8875
1462.82837	12381.2875
1466.23982	12594.4875
1469.64898	12784.9875
1473.05586	12934.6875
1476.46045	13008.8875
1479.86276	13009.5875
1483.26279	13000.2875
1486.66054	13040.5875
1490.05602	13194.1875
1493.44922	13419.4875
1496.84016	13769.0875
1500.22882	14260.2875
1503.61521	14953.9875
1506.99934	15745.5875
1510.38121	16361.9875
1513.76081	16464.8875
1517.13816	15919.4875
1520.51324	15057.7875
1523.88607	14270.8875
1527.25665	13776.6875
1530.62498	13519.9875
1533.99105	13360.1875
1537.35488	13198.0875
1540.71647	12987.1875
1544.07581	12798.0875
1547.4329	12582.9875
1550.78776	12364.0875
1554.14038	12206.0875
1557.49077	12096.5875
1560.83892	12059.2875
1564.18484	12112.1875
1567.52853	12217.3875
1570.86999	12391.3875
1574.20922	12635.6875
1577.54624	12790.8875
1580.88103	12750.3875
1584.2136	12503.4875
1587.54395	12414.3875
1590.87208	12601.7875
1594.19801	13059.5875
1597.52172	13675.6875
1600.84321	14068.0875
1604.16251	13852.9875
1607.47959	13199.8875
1610.79447	12404.6875
1614.10715	11593.7875
1617.41763	10930.4875
1620.7259	10453.6875
1624.03199	10129.9875
1627.33587	10067.2875
1630.63757	10144.4875
1633.93707	10489.9875
1637.23439	11126.7875
1640.52951	12160.4875
1643.82246	13530.7875
1647.11321	14867.3875
1650.40179	15454.8875
1653.68819	14817.2875
1656.97241	13250.8875
1660.25446	11620.7875
1663.53433	10467.1875
1666.81203	9757.2875
1670.08756	9312.3875
1673.36092	9045.2875
1676.63211	8883.7875
1679.90115	8757.5875
1683.16801	8671.7875
1686.43272	8588.0875
1689.69527	8523.0875
1692.95567	8452.7875
1696.2139	8388.8875
1699.46999	8320.9875
1702.72392	8274.7875
1705.97571	8274.6875
1709.22535	8296.4875
1712.47284	8323.6875
1715.71819	8347.2875
1718.96139	8322.7875
1722.20246	8293.3875
1725.44139	8276.7875
1728.67818	8209.1875
1731.91284	8196.0875
1735.14537	8178.6875
1738.37576	8152.9875
1741.60403	8117.9875
1744.83017	8088.0875
1748.05418	8087.0875
1751.27607	8092.4875
1754.49584	8109.5875
1757.71349	8109.6875
1760.92903	8080.3875
1764.14244	8040.7875
1767.35375	8044.8875
1770.56294	7971.9875
1773.77002	7947.3875
1776.97499	7941.6875
1780.17785	7903.7875
1783.37861	7926.1875
1786.57727	7911.4875
1789.77382	7872.5875
1792.96828	7848.0875
1796.16064	7816.2875
1799.3509	7778.3875
1802.53907	7782.8875
1805.72514	7748.5875
1808.90913	7742.8875
1812.09102	7716.3875
1815.27083	7695.8875
1818.44856	7688.3875
1821.6242	7640.7875
1824.79776	7640.5875
1827.96924	7648.8875
1831.13864	7620.4875
1834.30597	7618.3875
1837.47122	7607.8875
1840.6344	7615.2875
1843.7955	7568.3875
1846.95454	7589.6875
1850.11151	7584.5875
1853.26642	7569.2875
1856.41926	7557.3875
1859.57004	7559.5875
1862.71876	7553.7875
1865.86542	7544.7875
1869.01003	7529.5875
1872.15258	7529.0875
1875.29308	7518.7875
1878.43152	7495.4875
1881.56792	7504.6875
1884.70227	7475.1875
1887.83457	7461.9875
1890.96482	7440.8875
1894.09304	7429.6875
1897.21921	7431.5875
1900.34335	7392.4875
1903.46544	7405.8875
1906.58551	7409.9875
1909.70353	7376.6875
1912.81953	7363.1875
1915.93349	7347.5875
1919.04543	7350.1875
1922.15534	7327.7875
1925.26322	7305.2875
1928.36908	7279.9875
1931.47292	7255.2875
1934.57473	7234.7875
1937.67453	7255.0875
1940.77232	7201.8875
1943.86808	7190.9875
1946.96184	7187.2875
1950.05358	7143.2875
1953.14331	7126.3875
1956.23103	7113.8875
1959.31675	7088.1875
1962.40046	7066.8875
1965.48217	7056.5875
1968.56188	7020.3875
1971.63959	6991.2875
1974.7153	6968.2875
1977.78901	6961.4875
1980.86073	6924.0875
1983.93046	6910.1875
1986.99819	6895.1875
1990.06394	6856.1875
1993.1277	6845.7875
1996.18947	6813.5875
1999.24925	6811.5875
2002.30706	6769.5875
2005.36288	6771.8875
2008.41672	6733.1875
2011.46859	6739.4875
2014.51848	6707.6875
2017.56639	6684.6875
2020.61233	6674.4875
2023.6563	6640.1875
2026.6983	6637.1875
2029.73833	6609.1875
2032.7764	6605.4875
2035.8125	6570.1875
2038.84664	6535.7875
2041.87881	6530.1875
2044.90903	6526.2875
2047.93729	6507.8875
2050.96359	6496.5875
2053.98794	6489.0875
2057.01034	6470.4875
2060.03078	6481.8875
2063.04927	6473.9875
2066.06582	6472.4875
2069.08042	6462.9875
2072.09307	6458.5875
2075.10378	6452.8875
2078.11255	6446.6875
2081.11938	6456.4875
2084.12426	6422.3875
2087.12722	6434.2875
2090.12824	6414.9875
2093.12732	6409.0875
2096.12447	6409.4875
2099.11969	6442.8875
2102.11299	6404.5875
2105.10435	6422.2875
2108.09379	6417.2875
2111.08131	6435.4875
2114.0669	6422.7875
2117.05057	6424.7875
2120.03233	6436.7875
2123.01216	6416.1875
2125.99008	6440.4875
2128.96609	6431.5875
2131.94018	6459.1875
2134.91236	6452.5875
2137.88263	6447.1875
2140.851	6443.7875
2143.81746	6454.8875
2146.78201	6438.7875
2149.74466	6437.3875
2152.7054	6430.4875
2155.66425	6429.9875
2158.6212	6426.2875
2161.57625	6409.9875
2164.52941	6406.3875
2167.48067	6432.2875
2170.43004	6411.6875
2173.37752	6416.8875
2176.32311	6421.5875
2179.26681	6413.9875
2182.20863	6380.7875
2185.14856	6393.1875
2188.08661	6399.9875
2191.02278	6404.2875
2193.95707	6401.3875
2196.88948	6383.3875
2199.82001	6372.8875
2202.74867	6355.6875
2205.67545	6354.9875
2208.60037	6327.3875
2211.52341	6317.8875
2214.44458	6299.7875
2217.36388	6306.9875
2220.28132	6284.9875
2223.1969	6271.3875
2226.11061	6270.0875
2229.02246	6246.3875
2231.93245	6243.6875
2234.84058	6223.5875
2237.74686	6228.0875
2240.65128	6213.9875
2243.55385	6187.1875
2246.45456	6172.0875
2249.35343	6176.2875
2252.25044	6149.0875
2255.14561	6153.8875
2258.03893	6134.7875
2260.93041	6129.2875
2263.82004	6113.8875
2266.70783	6101.1875
2269.59378	6061.0875
2272.4779	6074.3875
2275.36017	6047.5875
2278.24061	6060.1875
2281.11922	6030.2875
2283.996	6013.8875
2286.87094	5995.4875
2289.74405	5988.2875
2292.61534	5978.0875
2295.4848	5955.7875
2298.35243	5957.1875
2301.21824	5968.6875
2304.08223	5967.9875
2306.94439	5951.9875
2309.80474	5950.2875
2312.66327	5947.4875
2315.51999	5928.2875
2318.37489	5935.8875
2321.22797	5905.8875
2324.07925	5904.7875
2326.92871	5889.6875
2329.77637	5871.8875
2332.62222	5865.3875
2335.46626	5877.7875
2338.3085	5852.8875
2341.14893	5851.3875
2343.98756	5837.9875
2346.8244	5833.5875
2349.65943	5823.3875
2352.49267	5820.1875
2355.32411	5821.1875
2358.15376	5800.8875
2360.98161	5821.0875
2363.80768	5806.4875
2366.63195	5807.2875
2369.45444	5822.8875
2372.27514	5794.3875
2375.09405	5791.2875
2377.91118	5792.7875
2380.72652	5775.7875
2383.54009	5756.2875
2386.35187	5734.8875
2389.16188	5719.4875
2391.97011	5706.2875
2394.77657	5697.0875
2397.58125	5672.4875
2400.38416	5657.5875
2403.18529	5661.7875
2405.98466	5654.1875
2408.78226	5624.0875
2411.57809	5621.6875
2414.37216	5614.1875
2417.16446	5605.0875
2419.955	5604.7875
2422.74378	5600.5875
2425.5308	5599.2875
2428.31606	5601.4875
2431.09956	5592.4875
2433.88131	5572.2875
2436.6613	5565.9875
2439.43954	5573.3875
2442.21603	5574.8875
2444.99077	5553.6875
2447.76377	5565.0875
2450.53501	5553.3875
2453.30451	5545.2875
2456.07226	5533.3875
2458.83827	5541.8875
2461.60254	5524.3875
2464.36507	5522.5875
2467.12586	5512.1875
2469.88492	5495.8875
2472.64224	5499.0875
2475.39782	5485.7875
2478.15167	5491.6875
2480.90379	5473.9875
2483.65417	5478.8875
2486.40283	5470.1875
2489.14976	5477.3875
2491.89497	5463.7875
2494.63845	5452.7875
2497.3802	5438.2875
2500.12024	5452.5875
2502.85855	5437.5875
2505.59514	5447.3875
2508.33002	5452.2875
2511.06318	5423.5875
2513.79462	5413.9875
2516.52435	5411.4875
2519.25237	5405.9875
2521.97867	5367.2875
2524.70327	5373.2875
2527.42616	5367.7875
2530.14734	5342.3875
2532.86681	5351.1875
2535.58458	5340.4875
2538.30065	5323.9875
2541.01501	5341.8875
2543.72768	5333.1875
2546.43864	5318.1875
2549.14791	5305.6875
2551.85548	5294.8875
2554.56136	5285.8875
2557.26554	5289.3875
2559.96803	5270.8875
2562.66883	5288.7875
2565.36794	5250.6875
2568.06536	5255.5875
2570.7611	5229.2875
2573.45514	5216.3875
2576.14751	5207.7875
2578.83819	5201.1875
2581.52719	5193.7875
2584.21451	5179.9875
2586.90015	5162.3875
2589.58411	5163.0875
2592.2664	5156.2875
2594.94701	5151.4875
2597.62594	5137.9875
2600.30321	5129.6875
2602.9788	5123.7875
2605.65273	5113.2875
2608.32498	5096.0875
2610.99557	5093.5875
2613.66449	5096.3875
2616.33175	5075.5875
2618.99734	5067.6875
2621.66128	5077.3875
2624.32355	5052.8875
2626.98416	5068.3875
2629.64311	5059.4875
2632.30041	5055.4875
2634.95605	5035.9875
2637.61004	5008.4875
2640.26238	5011.4875
2642.91306	5008.7875
2645.56209	5007.7875
2648.20948	5002.8875
2650.85521	4999.3875
2653.4993	4997.4875
2656.14175	5014.5875
2658.78255	4993.4875
2661.42171	5004.7875
2664.05923	5018.9875
2666.6951	5012.8875
2669.32934	5008.8875
2671.96194	4996.7875
2674.59291	4999.1875
2677.22224	4994.6875
2679.84993	5003.8875
2682.476	4985.7875
2685.10043	4986.4875
2687.72324	4971.8875
2690.34441	4976.8875
2692.96396	4966.7875
2695.58188	4982.0875
2698.19818	4969.6875
2700.81285	4980.2875
2703.4259	4968.1875
2706.03733	4954.5875
2708.64714	4968.0875
2711.25533	4966.5875
2713.86191	4971.7875
2716.46687	4966.3875
2719.07021	4964.6875
2721.67194	4980.2875
2724.27206	4973.7875
2726.87057	4983.7875
2729.46747	4983.2875
2732.06276	4969.9875
2734.65644	4960.9875
2737.24852	4975.8875
2739.83899	4936.5875
2742.42786	4941.0875
2745.01513	4929.9875
2747.60079	4929.3875
2750.18486	4938.2875
2752.76733	4913.2875
2755.3482	4911.0875
2757.92747	4885.6875
2760.50515	4897.3875
2763.08123	4887.9875
2765.65573	4894.6875
2768.22863	4893.7875
2770.79994	4875.3875
2773.36967	4872.6875
2775.9378	4865.5875
2778.50435	4871.1875
2781.06932	4857.3875
2783.6327	4850.2875
2786.1945	4839.1875
2788.75471	4843.0875
2791.31335	4827.4875
2793.87041	4814.6875
2796.42589	4794.6875
2798.97979	4796.6875
2801.53212	4785.8875
2804.08288	4795.9875
2806.63206	4757.9875
2809.17967	4752.3875
2811.72571	4753.4875
2814.27018	4745.1875
2816.81308	4743.4875
2819.35442	4723.3875
2821.89419	4734.1875
2824.43239	4735.6875
2826.96904	4730.5875
2829.50412	4706.3875
2832.03763	4715.5875
2834.56959	4716.1875
2837.1	4731.4875
2839.62884	4751.5875
2842.15613	4750.6875
2844.68186	4797.3875
2847.20604	4824.2875
2849.72867	4839.7875
2852.24974	4833.1875
2854.76927	4837.5875
2857.28724	4824.8875
2859.80367	4814.5875
2862.31855	4800.0875
2864.83189	4799.5875
2867.34368	4798.1875
2869.85393	4781.8875
2872.36264	4792.8875
2874.8698	4792.2875
2877.37543	4787.1875
2879.87952	4775.3875
2882.38207	4768.1875
2884.88308	4760.7875
2887.38256	4772.0875
2889.88051	4754.1875
2892.37692	4753.8875
2894.8718	4763.7875
2897.36515	4792.7875
2899.85698	4788.9875
2902.34727	4800.8875
2904.83604	4811.7875
2907.32328	4820.1875
2909.809	4803.7875
2912.29319	4803.0875
2914.77587	4806.6875
2917.25702	4797.3875
2919.73665	4799.3875
2922.21476	4810.2875
2924.69136	4813.4875
2927.16644	4816.5875
2929.64	4814.5875
2932.11205	4811.0875
2934.58258	4799.7875
2937.05161	4818.5875
2939.51912	4808.0875
2941.98513	4794.4875
2944.44962	4778.7875
2946.91261	4737.1875
2949.37409	4750.7875
2951.83407	4732.8875
2954.29254	4721.0875
2956.74951	4699.8875
2959.20498	4707.1875
2961.65895	4686.2875
2964.11142	4678.6875
2966.56239	4663.8875
2969.01186	4638.4875
2971.45984	4625.8875
2973.90632	4619.5875
2976.35131	4591.4875
2978.7948	4567.8875
2981.23681	4559.1875
2983.67732	4537.4875
2986.11635	4538.7875
2988.55388	4531.1875
2990.98993	4509.7875
2993.4245	4497.3875
2995.85758	4488.2875
2998.28917	4480.1875
3000.71928	4474.9875
3003.14791	4461.9875
3005.57506	4465.0875
3008.00073	4442.1875
3010.42493	4427.5875
3012.84764	4444.2875
3015.26888	4423.9875
3017.68865	4430.2875
3020.10694	4422.4875
3022.52376	4409.8875
3024.9391	4395.1875
3027.35298	4387.0875
3029.76539	4383.5875
3032.17632	4382.9875
3034.5858	4368.5875
3036.9938	4373.8875
3039.40034	4343.4875
3041.80542	4354.6875
3044.20903	4353.8875
3046.61118	4342.1875
3049.01187	4346.7875
3051.4111	4333.6875
3053.80888	4336.5875
3056.20519	4313.5875
3058.60005	4318.2875
3060.99345	4303.1875
3063.3854	4303.1875
3065.7759	4289.6875
3068.16494	4296.8875
3070.55254	4257.0875
3072.93868	4273.5875
3075.32338	4267.0875
3077.70662	4263.3875
3080.08842	4240.0875
3082.46878	4246.3875
