Data from AgNPs_FTO_APTES_UA_1uM_CRN_500uM_R6G_10uM_NaF_0.1M_Addition_RamanShift__22__18-10-19-887.txt Node

Date: Thu Jan 27 18:10:19 GMT 2022
User: TCL
Spectrometer: QEP01345
Trigger mode: 4
Integration Time (sec): 7.000000E0
Scans to average: 10
Electric dark correction enabled: true
Nonlinearity correction enabled: false
Boxcar width: 0
XAxis mode: Raman Shifts
Number of Pixels in Spectrum: 1044
>>>>>Begin Spectral Data<<<<<
46.04893	-0.125
50.45542	0.275
54.85868	-1.925
59.25871	-2.225
63.6555	46.075
68.04907	49.375
72.43941	53.575
76.82654	56.575
81.21044	54.275
85.59113	57.375
89.96862	58.975
94.34289	62.075
98.71396	67.275
103.08183	61.475
107.4465	67.675
111.80798	72.475
116.16626	67.775
120.52136	76.675
124.87327	71.775
129.222	74.575
133.56755	76.875
137.90993	83.375
142.24913	88.575
146.58517	95.775
150.91804	108.475
155.24774	126.775
159.57429	148.675
163.89768	188.375
168.21792	246.575
172.53501	326.275
176.84895	449.775
181.15975	628.475
185.46741	875.175
189.77193	1189.575
194.07331	1607.275
198.37157	2075.375
202.6667	2566.175
206.9587	3052.175
211.24758	3531.875
215.53334	4019.075
219.81599	4532.575
224.09553	5087.575
228.37195	5709.175
232.64527	6382.175
236.91549	7090.975
241.18261	7815.475
245.44663	8460.675
249.70755	9066.075
253.96539	9565.875
258.22014	10008.275
262.4718	10366.075
266.72039	10620.075
270.96589	10738.975
275.20832	10751.875
279.44768	10684.575
283.68397	10579.075
287.91719	10456.775
292.14735	10360.975
296.37445	10369.675
300.59849	10405.775
304.81948	10430.575
309.03742	10420.075
313.25231	10285.075
317.46415	10054.475
321.67296	9751.275
325.87872	9498.175
330.08145	9373.175
334.28114	9387.775
338.47781	9454.175
342.67145	9552.275
346.86207	9690.375
351.04966	9902.275
355.23424	10128.675
359.4158	10302.375
363.59435	10429.675
367.76989	10544.775
371.94243	10613.075
376.11196	10714.775
380.27849	10771.975
384.44203	10881.375
388.60257	10919.175
392.76012	10972.675
396.91468	11093.075
401.06626	11239.775
405.21485	11393.775
409.36047	11371.175
413.50311	11240.375
417.64277	11107.075
421.77947	11062.175
425.9132	11117.175
430.04396	11214.475
434.17176	11277.375
438.2966	11359.875
442.41849	11566.675
446.53742	11837.875
450.6534	12143.275
454.76644	12417.575
458.87653	12498.275
462.98368	12408.675
467.08789	12237.275
471.18916	12061.275
475.2875	11917.575
479.38291	11847.175
483.4754	11778.675
487.56496	11663.975
491.6516	11485.775
495.73531	11373.975
499.81612	11346.275
503.89401	11392.675
507.96899	11409.575
512.04106	11410.675
516.11023	11359.975
520.1765	11271.775
524.23987	11199.475
528.30034	11090.675
532.35792	10992.275
536.41261	10888.475
540.46441	10818.975
544.51333	10780.775
548.55936	10864.775
552.60252	11025.775
556.64279	11277.675
560.6802	11422.075
564.71473	11550.475
568.7464	11714.775
572.7752	11946.875
576.80114	12113.975
580.82422	12223.875
584.84444	12400.775
588.86181	12624.975
592.87633	12873.175
596.888	13049.775
600.89682	12971.175
604.9028	13131.575
608.90594	13997.075
612.90624	15038.975
616.90371	14364.875
620.89834	12220.775
624.89015	11258.375
628.87913	11154.075
632.86528	11215.675
636.84862	11236.975
640.82913	11123.275
644.80683	10862.975
648.78172	10680.475
652.75379	10627.875
656.72306	10688.075
660.68952	10850.375
664.65319	10840.675
668.61405	10710.475
672.57211	10677.075
676.52738	10736.675
680.47986	10773.875
684.42955	10739.475
688.37646	10681.175
692.32058	10670.575
696.26192	10690.575
700.20048	10792.575
704.13626	10854.775
708.06928	10839.175
711.99952	10736.175
715.927	10695.775
719.85171	10675.575
723.77365	10676.075
727.69284	10621.075
731.60928	10590.075
735.52295	10580.475
739.43388	10593.875
743.34206	10588.975
747.24749	10622.375
751.15017	10693.475
755.05012	10846.075
758.94733	11048.675
762.8418	11536.375
766.73354	12269.175
770.62254	13106.775
774.50882	13402.575
778.39237	12921.175
782.27321	11986.975
786.15132	11207.975
790.02671	10757.375
793.89938	10549.775
797.76935	10480.275
801.6366	10467.275
805.50115	10456.475
809.36299	10421.575
813.22213	10314.475
817.07857	10275.775
820.93231	10275.975
824.78336	10242.775
828.63172	10221.975
832.47738	10198.075
836.32036	10253.875
840.16066	10255.175
843.99827	10252.875
847.8332	10216.675
851.66546	10203.875
855.49504	10201.275
859.32195	10212.975
863.1462	10249.475
866.96777	10247.075
870.78668	10217.375
874.60293	10162.475
878.41652	10149.875
882.22745	10167.175
886.03573	10212.075
889.84136	10223.375
893.64433	10215.775
897.44466	10129.375
901.24235	10101.775
905.0374	10049.975
908.8298	10016.275
912.61957	10005.075
916.40671	10072.775
920.19121	10160.875
923.97308	10282.275
927.75233	10336.275
931.52895	10336.275
935.30295	10254.175
939.07433	10074.875
942.84309	9940.075
946.60924	9845.375
950.37278	9808.575
954.13371	9739.475
957.89203	9703.575
961.64774	9664.575
965.40086	9628.975
969.15137	9601.875
972.89929	9545.475
976.64461	9490.175
980.38733	9489.175
984.12747	9514.275
987.86502	9581.375
991.59999	9686.475
995.33237	9843.975
999.06217	10030.975
1002.78939	10279.075
1006.51404	10448.675
1010.23611	10524.175
1013.95561	10603.975
1017.67255	10623.375
1021.38692	10532.975
1025.09872	10386.475
1028.80796	10373.975
1032.51465	10520.375
1036.21877	10682.475
1039.92035	10740.375
1043.61937	10668.375
1047.31584	10536.675
1051.00976	10380.575
1054.70114	10311.475
1058.38998	10316.775
1062.07627	10350.275
1065.76003	10408.475
1069.44126	10486.275
1073.11995	10601.575
1076.79611	10694.575
1080.46974	10721.975
1084.14085	10736.075
1087.80943	10786.975
1091.47549	10831.775
1095.13903	10842.275
1098.80005	10715.475
1102.45857	10542.475
1106.11456	10400.375
1109.76805	10384.975
1113.41903	10459.375
1117.06751	10553.975
1120.71348	10696.775
1124.35696	10830.075
1127.99793	11001.975
1131.63641	11113.775
1135.2724	10976.275
1138.90589	10826.375
1142.5369	10755.075
1146.16542	10718.675
1149.79145	10686.975
1153.415	10742.875
1157.03607	10878.575
1160.65467	11104.475
1164.27079	11524.075
1167.88443	12070.275
1171.49561	12735.775
1175.10432	13619.175
1178.71056	14691.675
1182.31434	15711.975
1185.91565	16200.475
1189.51451	16120.375
1193.11091	15622.775
1196.70485	15008.675
1200.29634	14392.875
1203.88538	13940.375
1207.47197	13575.075
1211.05612	13268.075
1214.63782	13013.075
1218.21708	12823.675
1221.79391	12754.275
1225.36829	12717.475
1228.94024	12597.175
1232.50976	12358.075
1236.07685	12169.875
1239.6415	12032.375
1243.20374	12001.675
1246.76355	12013.275
1250.32093	12172.475
1253.8759	12364.675
1257.42845	12645.775
1260.97859	12929.175
1264.52631	13194.675
1268.07163	13528.475
1271.61453	13876.875
1275.15503	14239.875
1278.69312	14646.575
1282.22882	14969.575
1285.76211	15299.875
1289.29301	15713.375
1292.82151	16294.775
1296.34761	17009.875
1299.87133	17961.875
1303.39266	19046.475
1306.9116	20253.075
1310.42815	21446.075
1313.94233	22227.175
1317.45412	22267.375
1320.96354	21767.575
1324.47058	21197.375
1327.97525	20555.675
1331.47754	20193.375
1334.97747	20028.875
1338.47502	20013.275
1341.97022	19957.975
1345.46305	19776.275
1348.95352	19569.675
1352.44163	19507.475
1355.92738	19902.975
1359.41078	20705.275
1362.89183	21574.775
1366.37053	21512.075
1369.84688	19854.675
1373.32088	17749.275
1376.79254	16121.875
1380.26186	15395.675
1383.72883	15238.875
1387.19347	15212.875
1390.65578	15067.375
1394.11575	15061.175
1397.57339	15295.775
1401.0287	15783.275
1404.48168	16240.175
1407.93234	16499.075
1411.38068	16497.475
1414.82669	16125.875
1418.27039	15570.075
1421.71177	14874.075
1425.15083	14263.775
1428.58758	13901.375
1432.02203	13874.575
1435.45416	14107.175
1438.88399	14459.175
1442.31151	14762.975
1445.73673	15028.875
1449.15965	15245.275
1452.58027	15399.675
1455.9986	15435.875
1459.41463	15436.875
1462.82837	15560.875
1466.23982	15899.875
1469.64898	16251.675
1473.05586	16488.775
1476.46045	16561.075
1479.86276	16549.475
1483.26279	16391.475
1486.66054	16224.875
1490.05602	16145.775
1493.44922	16165.275
1496.84016	16066.175
1500.22882	16155.175
1503.61521	16418.175
1506.99934	16915.675
1510.38121	17515.475
1513.76081	17705.275
1517.13816	17374.375
1520.51324	16616.175
1523.88607	15879.475
1527.25665	15427.775
1530.62498	15256.375
1533.99105	15191.875
1537.35488	15101.975
1540.71647	15026.375
1544.07581	14886.675
1547.4329	14723.075
1550.78776	14485.375
1554.14038	14351.875
1557.49077	14256.075
1560.83892	14177.775
1564.18484	14162.075
1567.52853	14176.175
1570.86999	14282.075
1574.20922	14448.575
1577.54624	14640.675
1580.88103	14641.575
1584.2136	14645.975
1587.54395	14931.175
1590.87208	15564.375
1594.19801	16497.975
1597.52172	17607.175
1600.84321	18163.375
1604.16251	17723.275
1607.47959	16508.775
1610.79447	15053.075
1614.10715	13716.575
1617.41763	12640.375
1620.7259	11882.775
1624.03199	11516.775
1627.33587	11448.375
1630.63757	11706.475
1633.93707	12337.675
1637.23439	13334.475
1640.52951	14783.475
1643.82246	16577.275
1647.11321	17982.475
1650.40179	18394.075
1653.68819	17319.375
1656.97241	15235.175
1660.25446	13129.375
1663.53433	11609.375
1666.81203	10668.575
1670.08756	10079.875
1673.36092	9728.375
1676.63211	9485.875
1679.90115	9306.975
1683.16801	9206.075
1686.43272	9098.475
1689.69527	9017.675
1692.95567	8935.675
1696.2139	8867.575
1699.46999	8815.675
1702.72392	8744.275
1705.97571	8752.475
1709.22535	8754.075
1712.47284	8784.675
1715.71819	8770.975
1718.96139	8768.475
1722.20246	8746.075
1725.44139	8702.875
1728.67818	8666.775
1731.91284	8643.775
1735.14537	8600.575
1738.37576	8573.975
1741.60403	8542.275
1744.83017	8569.275
1748.05418	8521.275
1751.27607	8517.075
1754.49584	8505.875
1757.71349	8479.975
1760.92903	8439.075
1764.14244	8425.775
1767.35375	8385.275
1770.56294	8374.575
1773.77002	8357.575
1776.97499	8367.275
1780.17785	8352.075
1783.37861	8348.975
1786.57727	8334.075
1789.77382	8323.275
1792.96828	8292.975
1796.16064	8285.075
1799.3509	8273.975
1802.53907	8268.875
1805.72514	8250.675
1808.90913	8253.175
1812.09102	8220.675
1815.27083	8170.075
1818.44856	8181.775
1821.6242	8169.575
1824.79776	8141.275
1827.96924	8162.575
1831.13864	8137.975
1834.30597	8154.275
1837.47122	8134.275
1840.6344	8150.675
1843.7955	8155.175
1846.95454	8129.675
1850.11151	8142.475
1853.26642	8148.075
1856.41926	8136.675
1859.57004	8165.175
1862.71876	8174.375
1865.86542	8163.375
1869.01003	8146.475
1872.15258	8143.375
1875.29308	8140.575
1878.43152	8107.675
1881.56792	8124.675
1884.70227	8133.375
1887.83457	8088.975
1890.96482	8091.875
1894.09304	8100.075
1897.21921	8091.375
1900.34335	8094.175
1903.46544	8091.375
1906.58551	8089.875
1909.70353	8076.375
1912.81953	8065.875
1915.93349	8066.875
1919.04543	8024.575
1922.15534	8036.775
1925.26322	8020.575
1928.36908	7999.775
1931.47292	7961.675
1934.57473	7939.675
1937.67453	7927.975
1940.77232	7914.675
1943.86808	7864.175
1946.96184	7876.275
1950.05358	7858.675
1953.14331	7804.475
1956.23103	7784.975
1959.31675	7780.175
1962.40046	7747.775
1965.48217	7728.775
1968.56188	7696.275
1971.63959	7688.375
1974.7153	7676.175
1977.78901	7644.175
1980.86073	7597.575
1983.93046	7593.375
1986.99819	7579.975
1990.06394	7555.075
1993.1277	7541.675
1996.18947	7529.575
1999.24925	7500.175
2002.30706	7495.675
2005.36288	7456.775
2008.41672	7423.975
2011.46859	7404.075
2014.51848	7411.175
2017.56639	7399.575
2020.61233	7385.175
2023.6563	7346.975
2026.6983	7347.975
2029.73833	7313.675
2032.7764	7318.475
2035.8125	7301.975
2038.84664	7273.875
2041.87881	7286.475
2044.90903	7251.475
2047.93729	7262.775
2050.96359	7240.075
2053.98794	7239.275
2057.01034	7240.475
2060.03078	7229.075
2063.04927	7230.275
2066.06582	7230.575
2069.08042	7222.775
2072.09307	7212.275
2075.10378	7222.175
2078.11255	7198.575
2081.11938	7192.475
2084.12426	7206.875
2087.12722	7185.275
2090.12824	7166.475
2093.12732	7198.175
2096.12447	7184.175
2099.11969	7181.975
2102.11299	7184.575
2105.10435	7195.875
2108.09379	7215.175
2111.08131	7207.275
2114.0669	7210.175
2117.05057	7223.575
2120.03233	7206.275
2123.01216	7215.675
2125.99008	7212.975
2128.96609	7228.875
2131.94018	7248.775
2134.91236	7253.775
2137.88263	7260.475
2140.851	7248.675
2143.81746	7267.675
2146.78201	7255.475
2149.74466	7262.675
2152.7054	7259.275
2155.66425	7256.375
2158.6212	7251.975
2161.57625	7258.775
2164.52941	7244.175
2167.48067	7243.075
2170.43004	7256.075
2173.37752	7245.875
2176.32311	7261.575
2179.26681	7260.275
2182.20863	7259.975
2185.14856	7241.475
2188.08661	7258.175
2191.02278	7262.575
2193.95707	7235.075
2196.88948	7263.275
2199.82001	7243.675
2202.74867	7234.275
2205.67545	7243.675
2208.60037	7235.375
2211.52341	7213.375
2214.44458	7231.275
2217.36388	7197.675
2220.28132	7183.675
2223.1969	7182.075
2226.11061	7182.875
2229.02246	7161.575
2231.93245	7161.175
2234.84058	7134.975
2237.74686	7122.375
2240.65128	7138.275
2243.55385	7104.375
2246.45456	7087.275
2249.35343	7078.475
2252.25044	7067.675
2255.14561	7049.275
2258.03893	7051.175
2260.93041	7034.575
2263.82004	7016.775
2266.70783	7022.375
2269.59378	6992.175
2272.4779	6972.775
2275.36017	6963.575
2278.24061	6974.575
2281.11922	6941.675
2283.996	6952.075
2286.87094	6911.075
2289.74405	6925.175
2292.61534	6909.275
2295.4848	6896.075
2298.35243	6880.675
2301.21824	6892.775
2304.08223	6899.775
2306.94439	6889.475
2309.80474	6948.875
2312.66327	6905.275
2315.51999	6913.675
2318.37489	6876.975
2321.22797	6896.475
2324.07925	6880.575
2326.92871	6875.675
2329.77637	6870.475
2332.62222	6851.775
2335.46626	6869.175
2338.3085	6861.075
2341.14893	6853.875
2343.98756	6847.075
2346.8244	6830.575
2349.65943	6841.375
2352.49267	6839.575
2355.32411	6845.575
2358.15376	6812.275
2360.98161	6831.675
2363.80768	6828.175
2366.63195	6852.775
2369.45444	6830.975
2372.27514	6835.275
2375.09405	6813.575
2377.91118	6808.575
2380.72652	6771.075
2383.54009	6769.075
2386.35187	6757.175
2389.16188	6728.275
2391.97011	6727.675
2394.77657	6712.975
2397.58125	6702.175
2400.38416	6691.375
2403.18529	6679.575
2405.98466	6668.375
2408.78226	6651.975
2411.57809	6651.775
2414.37216	6645.175
2417.16446	6632.175
2419.955	6625.575
2422.74378	6625.175
2425.5308	6620.975
2428.31606	6635.475
2431.09956	6631.675
2433.88131	6612.075
2436.6613	6593.775
2439.43954	6586.775
2442.21603	6614.375
2444.99077	6609.275
2447.76377	6585.275
2450.53501	6603.375
2453.30451	6600.575
2456.07226	6587.575
2458.83827	6607.375
2461.60254	6584.375
2464.36507	6574.175
2467.12586	6594.375
2469.88492	6581.775
2472.64224	6585.775
2475.39782	6577.875
2478.15167	6568.975
2480.90379	6578.775
2483.65417	6586.975
2486.40283	6586.775
2489.14976	6593.075
2491.89497	6576.175
2494.63845	6587.975
2497.3802	6573.475
2500.12024	6586.275
2502.85855	6575.875
2505.59514	6581.175
2508.33002	6571.875
2511.06318	6586.275
2513.79462	6560.375
2516.52435	6534.575
2519.25237	6544.475
2521.97867	6529.175
2524.70327	6539.175
2527.42616	6530.975
2530.14734	6527.675
2532.86681	6504.975
2535.58458	6511.075
2538.30065	6511.675
2541.01501	6520.375
2543.72768	6504.675
2546.43864	6489.475
2549.14791	6498.075
2551.85548	6485.175
2554.56136	6466.375
2557.26554	6475.375
2559.96803	6472.175
2562.66883	6452.575
2565.36794	6451.875
2568.06536	6451.775
2570.7611	6437.175
2573.45514	6435.375
2576.14751	6428.275
2578.83819	6408.275
2581.52719	6412.375
2584.21451	6420.475
2586.90015	6397.675
2589.58411	6395.675
2592.2664	6399.275
2594.94701	6402.375
2597.62594	6389.875
2600.30321	6370.175
2602.9788	6376.375
2605.65273	6371.275
2608.32498	6368.875
2610.99557	6351.175
2613.66449	6377.775
2616.33175	6370.475
2618.99734	6354.275
2621.66128	6357.075
2624.32355	6350.575
2626.98416	6352.275
2629.64311	6363.275
2632.30041	6376.775
2634.95605	6355.975
2637.61004	6325.675
2640.26238	6341.875
2642.91306	6345.475
2645.56209	6328.275
2648.20948	6326.675
2650.85521	6321.275
2653.4993	6314.775
2656.14175	6336.275
2658.78255	6332.675
2661.42171	6334.575
2664.05923	6352.975
2666.6951	6353.775
2669.32934	6349.775
2671.96194	6335.075
2674.59291	6367.075
2677.22224	6336.675
2679.84993	6346.275
2682.476	6323.675
2685.10043	6329.575
2687.72324	6342.875
2690.34441	6346.475
2692.96396	6340.175
2695.58188	6331.675
2698.19818	6329.375
2700.81285	6339.475
2703.4259	6311.575
2706.03733	6311.575
2708.64714	6325.975
2711.25533	6343.375
2713.86191	6323.875
2716.46687	6354.975
2719.07021	6363.575
2721.67194	6364.675
2724.27206	6371.675
2726.87057	6361.175
2729.46747	6362.075
2732.06276	6379.675
2734.65644	6366.675
2737.24852	6356.075
2739.83899	6366.375
2742.42786	6367.875
2745.01513	6353.575
2747.60079	6359.375
2750.18486	6351.975
2752.76733	6345.475
2755.3482	6345.175
2757.92747	6338.175
2760.50515	6326.075
2763.08123	6347.875
2765.65573	6363.175
2768.22863	6355.675
2770.79994	6337.975
2773.36967	6333.575
2775.9378	6335.975
2778.50435	6333.075
2781.06932	6321.575
2783.6327	6337.175
2786.1945	6339.575
2788.75471	6335.775
2791.31335	6312.275
2793.87041	6317.175
2796.42589	6292.175
2798.97979	6308.075
2801.53212	6310.375
2804.08288	6284.475
2806.63206	6271.675
2809.17967	6267.075
2811.72571	6273.075
2814.27018	6249.075
2816.81308	6244.075
2819.35442	6248.475
2821.89419	6231.775
2824.43239	6237.175
2826.96904	6225.675
2829.50412	6229.075
2832.03763	6213.375
2834.56959	6221.375
2837.1	6218.275
2839.62884	6237.575
2842.15613	6243.175
2844.68186	6287.075
2847.20604	6271.775
2849.72867	6311.275
2852.24974	6307.075
2854.76927	6297.975
2857.28724	6276.175
2859.80367	6282.575
2862.31855	6269.375
2864.83189	6283.375
2867.34368	6260.875
2869.85393	6262.875
2872.36264	6286.975
2874.8698	6256.375
2877.37543	6279.875
2879.87952	6252.975
2882.38207	6271.375
2884.88308	6282.375
2887.38256	6287.775
2889.88051	6282.075
2892.37692	6306.175
2894.8718	6294.375
2897.36515	6309.075
2899.85698	6312.975
2902.34727	6350.375
2904.83604	6339.875
2907.32328	6370.975
2909.809	6365.775
2912.29319	6373.675
2914.77587	6372.275
2917.25702	6378.575
2919.73665	6371.275
2922.21476	6385.275
2924.69136	6385.975
2927.16644	6376.575
2929.64	6381.175
2932.11205	6372.875
2934.58258	6366.775
2937.05161	6371.675
2939.51912	6363.175
2941.98513	6348.275
2944.44962	6345.775
2946.91261	6310.375
2949.37409	6300.675
2951.83407	6292.575
2954.29254	6287.275
2956.74951	6273.275
2959.20498	6281.175
2961.65895	6262.675
2964.11142	6245.375
2966.56239	6228.575
2969.01186	6229.275
2971.45984	6174.275
2973.90632	6190.575
2976.35131	6178.075
2978.7948	6157.375
2981.23681	6134.975
2983.67732	6130.075
2986.11635	6136.375
2988.55388	6102.375
2990.98993	6096.875
2993.4245	6067.175
2995.85758	6063.675
2998.28917	6048.875
3000.71928	6055.375
3003.14791	6031.875
3005.57506	6021.375
3008.00073	6003.375
3010.42493	5997.975
3012.84764	5994.375
3015.26888	6006.675
3017.68865	6004.075
3020.10694	5983.475
3022.52376	5963.675
3024.9391	5949.175
3027.35298	5964.675
3029.76539	5963.575
3032.17632	5959.475
3034.5858	5953.175
3036.9938	5929.175
3039.40034	5943.175
3041.80542	5928.275
3044.20903	5931.675
3046.61118	5922.075
3049.01187	5928.975
3051.4111	5913.275
3053.80888	5900.175
3056.20519	5907.775
3058.60005	5887.975
3060.99345	5868.475
3063.3854	5867.375
3065.7759	5854.775
3068.16494	5837.475
3070.55254	5827.375
3072.93868	5832.075
3075.32338	5811.875
3077.70662	5815.475
3080.08842	5801.275
3082.46878	5797.175
3084.84769	5788.275
3087.22515	5790.375
3089.60118	5809.875
3091.97576	5796.375
3094.3489	5809.175
3096.72061	5815.175
3099.09087	5819.675
3101.4597	5812.075
3103.82709	5829.575
3106.19305	5815.175
3108.55757	5816.775
3110.92066	5793.875
3113.28232	5812.875
3115.64255	5791.975
3118.00134	5773.475
3120.35871	5778.775
3122.71466	5787.175
3125.06917	5762.375
3127.42226	5745.675
3129.77393	5774.975
3132.12417	5764.675
3134.47299	5749.175
3136.82039	5764.775
3139.16636	5782.475
3141.51092	5783.475
3143.85406	5778.175
3146.19579	5789.475
3148.53609	5788.775
3150.87499	5823.775
3153.21246	5818.975
3155.54853	5833.075
3157.88318	5839.275
3160.21642	5836.175
3162.54826	5834.175
3164.87868	5828.275
3167.2077	5836.675
3169.5353	5849.875
3171.86151	5843.175
3174.18631	5850.575
3176.5097	5859.375
3178.83169	5842.575
3181.15228	5844.875
3183.47147	5830.575
3185.78926	5833.175
3188.10565	5842.075
3190.42065	5827.375
3192.73424	5859.675
3195.04645	5853.375
