Data from AgNPs_FTO_APTES_UA_1uM_CRN_2uM_R6G_10uM_NaF_0.1M_Addition_RamanShift__7__13-03-29-537.txt Node

Date: Thu Jan 27 13:03:29 GMT 2022
User: TCL
Spectrometer: QEP01345
Trigger mode: 4
Integration Time (sec): 7.000000E0
Scans to average: 10
Electric dark correction enabled: true
Nonlinearity correction enabled: false
Boxcar width: 0
XAxis mode: Raman Shifts
Number of Pixels in Spectrum: 1044
>>>>>Begin Spectral Data<<<<<
46.04893	-0.1375
50.45542	0.9625
54.85868	-2.1375
59.25871	-2.2375
63.6555	59.6625
68.04907	60.8625
72.43941	62.7625
76.82654	69.2625
81.21044	70.0625
85.59113	72.2625
89.96862	78.6625
94.34289	78.3625
98.71396	82.6625
103.08183	81.6625
107.4465	85.1625
111.80798	88.2625
116.16626	89.0625
120.52136	94.8625
124.87327	96.2625
129.222	97.3625
133.56755	100.8625
137.90993	113.2625
142.24913	122.4625
146.58517	137.5625
150.91804	155.4625
155.24774	184.9625
159.57429	227.2625
163.89768	288.2625
168.21792	381.1625
172.53501	519.1625
176.84895	715.2625
181.15975	994.5625
185.46741	1390.8625
189.77193	1938.2625
194.07331	2580.5625
198.37157	3312.9625
202.6667	4103.1625
206.9587	4884.6625
211.24758	5646.2625
215.53334	6411.8625
219.81599	7207.3625
224.09553	8094.2625
228.37195	9060.3625
232.64527	10140.6625
236.91549	11311.0625
241.18261	12461.0625
245.44663	13528.6625
249.70755	14534.9625
253.96539	15401.0625
258.22014	16116.8625
262.4718	16702.3625
266.72039	17101.1625
270.96589	17300.3625
275.20832	17261.6625
279.44768	17178.6625
283.68397	16993.6625
287.91719	16772.0625
292.14735	16632.6625
296.37445	16546.0625
300.59849	16549.3625
304.81948	16636.1625
309.03742	16634.7625
313.25231	16610.6625
317.46415	16425.3625
321.67296	16194.4625
325.87872	15975.9625
330.08145	15903.3625
334.28114	15883.3625
338.47781	15973.7625
342.67145	16140.4625
346.86207	16382.6625
351.04966	16720.9625
355.23424	17007.8625
359.4158	17230.6625
363.59435	17451.6625
367.76989	17636.1625
371.94243	17717.3625
376.11196	17786.7625
380.27849	17878.8625
384.44203	17976.0625
388.60257	18120.3625
392.76012	18276.4625
396.91468	18492.6625
401.06626	18744.2625
405.21485	18889.3625
409.36047	18891.6625
413.50311	18772.9625
417.64277	18694.5625
421.77947	18827.9625
425.9132	18982.8625
430.04396	19072.9625
434.17176	19142.5625
438.2966	19227.7625
442.41849	19372.0625
446.53742	19816.9625
450.6534	20249.1625
454.76644	20523.9625
458.87653	20591.3625
462.98368	20454.6625
467.08789	20257.2625
471.18916	19968.8625
475.2875	19605.6625
479.38291	19331.2625
483.4754	19158.7625
487.56496	19001.7625
491.6516	18817.8625
495.73531	18707.2625
499.81612	18711.7625
503.89401	18871.4625
507.96899	19015.5625
512.04106	19011.1625
516.11023	18929.3625
520.1765	18777.9625
524.23987	18618.5625
528.30034	18485.7625
532.35792	18316.2625
536.41261	18136.2625
540.46441	17974.5625
544.51333	17915.4625
548.55936	18060.7625
552.60252	18266.9625
556.64279	18629.9625
560.6802	18903.0625
564.71473	19044.0625
568.7464	19152.3625
572.7752	19523.6625
576.80114	20072.5625
580.82422	20733.6625
584.84444	21713.5625
588.86181	22942.2625
592.87633	24001.9625
596.888	23933.5625
600.89682	22748.5625
604.9028	22075.1625
608.90594	22838.3625
612.90624	24030.5625
616.90371	22968.9625
620.89834	20136.2625
624.89015	18781.0625
628.87913	18609.5625
632.86528	18707.6625
636.84862	18686.1625
640.82913	18373.7625
644.80683	18033.0625
648.78172	17812.3625
652.75379	17858.4625
656.72306	18020.3625
660.68952	18264.0625
664.65319	18136.9625
668.61405	17908.4625
672.57211	17870.3625
676.52738	17963.3625
680.47986	17963.1625
684.42955	17809.4625
688.37646	17724.3625
692.32058	17831.1625
696.26192	18080.3625
700.20048	18316.6625
704.13626	18459.3625
708.06928	18458.0625
711.99952	18358.8625
715.927	18382.7625
719.85171	18456.8625
723.77365	18397.6625
727.69284	18152.8625
731.60928	17903.5625
735.52295	17777.5625
739.43388	17802.2625
743.34206	17882.6625
747.24749	17933.6625
751.15017	18111.3625
755.05012	18361.4625
758.94733	18742.8625
762.8418	19436.3625
766.73354	20402.7625
770.62254	21316.0625
774.50882	21521.2625
778.39237	20852.7625
782.27321	19808.8625
786.15132	18921.9625
790.02671	18370.7625
793.89938	18047.9625
797.76935	17933.1625
801.6366	17886.3625
805.50115	17865.8625
809.36299	17803.0625
813.22213	17657.1625
817.07857	17535.9625
820.93231	17500.1625
824.78336	17426.2625
828.63172	17405.4625
832.47738	17393.0625
836.32036	17417.2625
840.16066	17444.8625
843.99827	17423.6625
847.8332	17412.3625
851.66546	17373.0625
855.49504	17408.0625
859.32195	17399.3625
863.1462	17363.5625
866.96777	17346.5625
870.78668	17360.3625
874.60293	17348.1625
878.41652	17359.1625
882.22745	17451.6625
886.03573	17468.8625
889.84136	17492.8625
893.64433	17394.4625
897.44466	17321.4625
901.24235	17279.1625
905.0374	17214.0625
908.8298	17191.7625
912.61957	17214.0625
916.40671	17350.6625
920.19121	17539.4625
923.97308	17719.7625
927.75233	17788.2625
931.52895	17649.5625
935.30295	17480.1625
939.07433	17213.7625
942.84309	17025.2625
946.60924	16945.9625
950.37278	16962.6625
954.13371	16935.8625
957.89203	16901.3625
961.64774	16837.5625
965.40086	16849.8625
969.15137	16843.4625
972.89929	16814.1625
976.64461	16774.5625
980.38733	16829.7625
984.12747	16857.0625
987.86502	16926.0625
991.59999	16995.7625
995.33237	17179.0625
999.06217	17510.5625
1002.78939	17850.9625
1006.51404	18229.5625
1010.23611	18560.9625
1013.95561	18685.3625
1017.67255	18693.9625
1021.38692	18455.5625
1025.09872	18209.6625
1028.80796	18064.2625
1032.51465	18161.2625
1036.21877	18380.6625
1039.92035	18498.1625
1043.61937	18471.8625
1047.31584	18319.3625
1051.00976	18162.4625
1054.70114	18052.7625
1058.38998	18080.1625
1062.07627	18209.6625
1065.76003	18310.6625
1069.44126	18508.2625
1073.11995	18816.7625
1076.79611	19038.4625
1080.46974	19213.7625
1084.14085	19302.6625
1087.80943	19400.2625
1091.47549	19575.1625
1095.13903	19612.7625
1098.80005	19385.8625
1102.45857	19015.7625
1106.11456	18693.7625
1109.76805	18495.6625
1113.41903	18474.9625
1117.06751	18467.3625
1120.71348	18603.5625
1124.35696	18707.2625
1127.99793	18908.6625
1131.63641	19047.5625
1135.2724	18983.6625
1138.90589	18929.5625
1142.5369	18949.7625
1146.16542	19059.5625
1149.79145	19159.6625
1153.415	19213.5625
1157.03607	19336.5625
1160.65467	19756.1625
1164.27079	20511.4625
1167.88443	21383.9625
1171.49561	22297.5625
1175.10432	23380.2625
1178.71056	24767.8625
1182.31434	26150.9625
1185.91565	26880.5625
1189.51451	26776.1625
1193.11091	26192.6625
1196.70485	25527.1625
1200.29634	24822.9625
1203.88538	24320.5625
1207.47197	24090.9625
1211.05612	23931.0625
1214.63782	23567.1625
1218.21708	23021.9625
1221.79391	22459.2625
1225.36829	22037.3625
1228.94024	21782.0625
1232.50976	21593.9625
1236.07685	21314.9625
1239.6415	21108.4625
1243.20374	21096.1625
1246.76355	21245.6625
1250.32093	21559.3625
1253.8759	21954.3625
1257.42845	22480.0625
1260.97859	23059.4625
1264.52631	23668.8625
1268.07163	24264.1625
1271.61453	24890.9625
1275.15503	25457.1625
1278.69312	26055.6625
1282.22882	26652.8625
1285.76211	27432.8625
1289.29301	28270.6625
1292.82151	29288.0625
1296.34761	30615.3625
1299.87133	32265.6625
1303.39266	33977.6625
1306.9116	35471.5625
1310.42815	36645.9625
1313.94233	37054.6625
1317.45412	36640.3625
1320.96354	35724.1625
1324.47058	34984.5625
1327.97525	34545.3625
1331.47754	34250.2625
1334.97747	34044.3625
1338.47502	33732.8625
1341.97022	33273.7625
1345.46305	32728.1625
1348.95352	32320.2625
1352.44163	32428.0625
1355.92738	33339.5625
1359.41078	34862.5625
1362.89183	36152.2625
1366.37053	35882.9625
1369.84688	33579.5625
1373.32088	30168.0625
1376.79254	27649.9625
1380.26186	26638.2625
1383.72883	26556.4625
1387.19347	26595.2625
1390.65578	26252.6625
1394.11575	26018.8625
1397.57339	26166.8625
1401.0287	26534.2625
1404.48168	26943.2625
1407.93234	27043.6625
1411.38068	26787.5625
1414.82669	26190.4625
1418.27039	25343.4625
1421.71177	24532.5625
1425.15083	23859.6625
1428.58758	23585.4625
1432.02203	23777.0625
1435.45416	24440.8625
1438.88399	25149.6625
1442.31151	25624.0625
1445.73673	25748.8625
1449.15965	25757.1625
1452.58027	25612.0625
1455.9986	25441.9625
1459.41463	25466.7625
1462.82837	25805.4625
1466.23982	26358.8625
1469.64898	26854.1625
1473.05586	27189.4625
1476.46045	27300.4625
1479.86276	27140.8625
1483.26279	26896.6625
1486.66054	26719.9625
1490.05602	26762.3625
1493.44922	26974.8625
1496.84016	27221.5625
1500.22882	27534.8625
1503.61521	28010.9625
1506.99934	28609.0625
1510.38121	29109.8625
1513.76081	29079.8625
1517.13816	28584.7625
1520.51324	27933.3625
1523.88607	27385.8625
1527.25665	27198.1625
1530.62498	27192.1625
1533.99105	27137.1625
1537.35488	26745.0625
1540.71647	26265.4625
1544.07581	25669.6625
1547.4329	25113.4625
1550.78776	24616.5625
1554.14038	24296.0625
1557.49077	24082.7625
1560.83892	23859.4625
1564.18484	23746.5625
1567.52853	23755.2625
1570.86999	23876.5625
1574.20922	24226.1625
1577.54624	24557.0625
1580.88103	24700.6625
1584.2136	24979.8625
1587.54395	25781.4625
1590.87208	27140.5625
1594.19801	28907.5625
1597.52172	30524.0625
1600.84321	31019.1625
1604.16251	29770.1625
1607.47959	27406.3625
1610.79447	24930.0625
1614.10715	22844.6625
1617.41763	21272.7625
1620.7259	20236.9625
1624.03199	19784.3625
1627.33587	19774.5625
1630.63757	20295.7625
1633.93707	21482.7625
1637.23439	23381.3625
1640.52951	26236.2625
1643.82246	29597.2625
1647.11321	32264.5625
1650.40179	32702.2625
1653.68819	30136.4625
1656.97241	26124.8625
1660.25446	22478.2625
1663.53433	19953.7625
1666.81203	18421.3625
1670.08756	17448.7625
1673.36092	16897.1625
1676.63211	16561.4625
1679.90115	16264.9625
1683.16801	16061.8625
1686.43272	15907.1625
1689.69527	15751.6625
1692.95567	15653.3625
1696.2139	15560.3625
1699.46999	15471.3625
1702.72392	15434.4625
1705.97571	15450.2625
1709.22535	15454.0625
1712.47284	15471.3625
1715.71819	15432.3625
1718.96139	15422.7625
1722.20246	15373.7625
1725.44139	15316.2625
1728.67818	15254.0625
1731.91284	15184.8625
1735.14537	15130.8625
1738.37576	15058.4625
1741.60403	14960.0625
1744.83017	14913.2625
1748.05418	14867.1625
1751.27607	14853.4625
1754.49584	14805.5625
1757.71349	14807.2625
1760.92903	14801.6625
1764.14244	14746.7625
1767.35375	14714.1625
1770.56294	14710.6625
1773.77002	14721.8625
1776.97499	14707.0625
1780.17785	14700.2625
1783.37861	14713.7625
1786.57727	14669.0625
1789.77382	14669.0625
1792.96828	14622.6625
1796.16064	14571.2625
1799.3509	14585.6625
1802.53907	14556.3625
1805.72514	14517.1625
1808.90913	14496.1625
1812.09102	14483.7625
1815.27083	14437.1625
1818.44856	14424.0625
1821.6242	14397.0625
1824.79776	14359.6625
1827.96924	14376.4625
1831.13864	14403.4625
1834.30597	14359.5625
1837.47122	14368.3625
1840.6344	14363.7625
1843.7955	14351.9625
1846.95454	14382.7625
1850.11151	14345.2625
1853.26642	14335.4625
1856.41926	14361.9625
1859.57004	14378.9625
1862.71876	14295.5625
1865.86542	14277.9625
1869.01003	14281.2625
1872.15258	14268.9625
1875.29308	14243.5625
1878.43152	14236.2625
1881.56792	14211.7625
1884.70227	14198.2625
1887.83457	14166.4625
1890.96482	14134.8625
1894.09304	14122.1625
1897.21921	14131.2625
1900.34335	14100.7625
1903.46544	14089.9625
1906.58551	14085.6625
1909.70353	14051.8625
1912.81953	14031.1625
1915.93349	14027.1625
1919.04543	13979.7625
1922.15534	13953.3625
1925.26322	13947.0625
1928.36908	13897.1625
1931.47292	13857.3625
1934.57473	13841.5625
1937.67453	13805.0625
1940.77232	13776.4625
1943.86808	13738.8625
1946.96184	13713.9625
1950.05358	13685.3625
1953.14331	13610.4625
1956.23103	13577.1625
1959.31675	13579.0625
1962.40046	13524.6625
1965.48217	13504.5625
1968.56188	13452.2625
1971.63959	13422.6625
1974.7153	13371.4625
1977.78901	13327.3625
1980.86073	13292.9625
1983.93046	13258.8625
1986.99819	13210.0625
1990.06394	13160.3625
1993.1277	13134.1625
1996.18947	13093.1625
1999.24925	13053.1625
2002.30706	13010.4625
2005.36288	12989.4625
2008.41672	12945.6625
2011.46859	12931.6625
2014.51848	12906.2625
2017.56639	12866.6625
2020.61233	12838.0625
2023.6563	12819.9625
2026.6983	12766.2625
2029.73833	12745.8625
2032.7764	12707.8625
2035.8125	12695.9625
2038.84664	12686.8625
2041.87881	12662.7625
2044.90903	12647.5625
2047.93729	12598.5625
2050.96359	12611.7625
2053.98794	12554.4625
2057.01034	12567.3625
2060.03078	12551.7625
2063.04927	12584.3625
2066.06582	12558.0625
2069.08042	12534.4625
2072.09307	12536.3625
2075.10378	12519.3625
2078.11255	12536.1625
2081.11938	12498.0625
2084.12426	12522.1625
2087.12722	12492.0625
2090.12824	12506.3625
2093.12732	12505.3625
2096.12447	12494.8625
2099.11969	12495.4625
2102.11299	12527.7625
2105.10435	12519.5625
2108.09379	12539.1625
2111.08131	12542.2625
2114.0669	12538.2625
2117.05057	12545.5625
2120.03233	12551.1625
2123.01216	12564.4625
2125.99008	12548.8625
2128.96609	12586.8625
2131.94018	12592.1625
2134.91236	12586.3625
2137.88263	12607.6625
2140.851	12589.9625
2143.81746	12613.9625
2146.78201	12604.1625
2149.74466	12645.2625
2152.7054	12647.6625
2155.66425	12612.5625
2158.6212	12619.9625
2161.57625	12616.3625
2164.52941	12593.8625
2167.48067	12601.9625
2170.43004	12566.1625
2173.37752	12597.3625
2176.32311	12587.9625
2179.26681	12569.6625
2182.20863	12571.9625
2185.14856	12587.4625
2188.08661	12590.6625
2191.02278	12590.9625
2193.95707	12574.3625
2196.88948	12573.5625
2199.82001	12568.6625
2202.74867	12534.1625
2205.67545	12538.1625
2208.60037	12525.1625
2211.52341	12500.4625
2214.44458	12489.4625
2217.36388	12464.5625
2220.28132	12445.4625
2223.1969	12409.9625
2226.11061	12418.1625
2229.02246	12402.3625
2231.93245	12403.0625
2234.84058	12368.5625
2237.74686	12324.4625
2240.65128	12353.9625
2243.55385	12321.4625
2246.45456	12290.3625
2249.35343	12260.0625
2252.25044	12254.3625
2255.14561	12230.4625
2258.03893	12216.0625
2260.93041	12169.3625
2263.82004	12146.7625
2266.70783	12151.3625
2269.59378	12080.8625
2272.4779	12087.4625
2275.36017	12056.7625
2278.24061	12028.8625
2281.11922	12037.1625
2283.996	12006.5625
2286.87094	12031.9625
2289.74405	11988.4625
2292.61534	11967.0625
2295.4848	11971.6625
2298.35243	11965.7625
2301.21824	11960.1625
2304.08223	11946.1625
2306.94439	11934.2625
2309.80474	11931.2625
2312.66327	11907.9625
2315.51999	11922.6625
2318.37489	11924.2625
2321.22797	11914.6625
2324.07925	11891.9625
2326.92871	11873.3625
2329.77637	11858.4625
2332.62222	11849.1625
2335.46626	11851.1625
2338.3085	11825.8625
2341.14893	11797.1625
2343.98756	11803.2625
2346.8244	11821.6625
2349.65943	11789.6625
2352.49267	11763.2625
2355.32411	11780.6625
2358.15376	11770.1625
2360.98161	11743.5625
2363.80768	11768.2625
2366.63195	11749.6625
2369.45444	11753.3625
2372.27514	11712.8625
2375.09405	11708.1625
2377.91118	11701.5625
2380.72652	11674.0625
2383.54009	11633.5625
2386.35187	11650.7625
2389.16188	11592.2625
2391.97011	11576.8625
2394.77657	11548.7625
2397.58125	11545.3625
2400.38416	11533.6625
2403.18529	11507.9625
2405.98466	11514.4625
2408.78226	11479.2625
2411.57809	11489.0625
2414.37216	11463.7625
2417.16446	11461.5625
2419.955	11443.2625
2422.74378	11458.1625
2425.5308	11438.2625
2428.31606	11417.7625
2431.09956	11408.5625
2433.88131	11408.7625
2436.6613	11401.7625
2439.43954	11418.6625
2442.21603	11386.4625
2444.99077	11391.9625
2447.76377	11400.2625
2450.53501	11381.6625
2453.30451	11368.8625
2456.07226	11345.2625
2458.83827	11354.6625
2461.60254	11346.7625
2464.36507	11367.9625
2467.12586	11335.8625
2469.88492	11327.4625
2472.64224	11332.5625
2475.39782	11338.1625
2478.15167	11340.8625
2480.90379	11335.2625
2483.65417	11336.4625
2486.40283	11318.8625
2489.14976	11305.6625
2491.89497	11326.9625
2494.63845	11339.5625
2497.3802	11303.4625
2500.12024	11305.9625
2502.85855	11310.9625
2505.59514	11286.0625
2508.33002	11268.1625
2511.06318	11244.2625
2513.79462	11262.3625
2516.52435	11248.8625
2519.25237	11237.7625
2521.97867	11231.1625
2524.70327	11250.5625
2527.42616	11201.0625
2530.14734	11205.4625
2532.86681	11188.5625
2535.58458	11194.6625
2538.30065	11174.2625
2541.01501	11179.2625
2543.72768	11165.2625
2546.43864	11191.2625
2549.14791	11166.0625
2551.85548	11128.9625
2554.56136	11127.1625
2557.26554	11123.8625
2559.96803	11103.0625
2562.66883	11105.6625
2565.36794	11121.7625
2568.06536	11076.9625
2570.7611	11069.3625
2573.45514	11024.7625
2576.14751	11026.4625
2578.83819	11021.7625
2581.52719	11007.8625
2584.21451	11008.8625
2586.90015	10985.6625
2589.58411	10967.8625
2592.2664	10983.2625
2594.94701	10947.6625
2597.62594	10941.1625
2600.30321	10921.2625
2602.9788	10921.6625
2605.65273	10907.5625
2608.32498	10912.5625
2610.99557	10891.5625
2613.66449	10918.4625
2616.33175	10880.7625
2618.99734	10863.4625
2621.66128	10864.6625
2624.32355	10839.8625
2626.98416	10868.9625
2629.64311	10841.5625
2632.30041	10843.3625
2634.95605	10807.5625
2637.61004	10795.5625
2640.26238	10785.8625
2642.91306	10781.6625
2645.56209	10792.5625
2648.20948	10792.3625
2650.85521	10803.8625
2653.4993	10793.9625
2656.14175	10806.2625
2658.78255	10811.3625
2661.42171	10809.4625
2664.05923	10799.4625
2666.6951	10812.4625
2669.32934	10840.8625
2671.96194	10816.7625
2674.59291	10827.8625
2677.22224	10832.4625
2679.84993	10825.3625
2682.476	10811.3625
2685.10043	10796.9625
2687.72324	10787.2625
2690.34441	10794.2625
2692.96396	10772.5625
2695.58188	10792.8625
2698.19818	10779.3625
2700.81285	10812.1625
2703.4259	10768.1625
2706.03733	10768.8625
2708.64714	10756.4625
2711.25533	10778.1625
2713.86191	10801.9625
2716.46687	10810.8625
2719.07021	10800.8625
2721.67194	10822.2625
2724.27206	10830.5625
2726.87057	10835.3625
2729.46747	10817.4625
2732.06276	10845.6625
2734.65644	10829.3625
2737.24852	10826.1625
2739.83899	10811.8625
2742.42786	10818.2625
2745.01513	10797.0625
2747.60079	10767.4625
2750.18486	10776.9625
2752.76733	10794.0625
2755.3482	10768.1625
2757.92747	10770.3625
2760.50515	10749.3625
2763.08123	10747.8625
2765.65573	10739.1625
2768.22863	10728.5625
2770.79994	10718.4625
2773.36967	10723.4625
2775.9378	10709.9625
2778.50435	10688.8625
2781.06932	10677.1625
2783.6327	10685.9625
2786.1945	10695.0625
2788.75471	10665.7625
2791.31335	10649.3625
2793.87041	10649.5625
2796.42589	10609.5625
2798.97979	10623.6625
2801.53212	10616.1625
2804.08288	10581.5625
2806.63206	10524.0625
2809.17967	10509.3625
2811.72571	10483.3625
2814.27018	10465.5625
2816.81308	10468.2625
2819.35442	10453.9625
2821.89419	10435.8625
2824.43239	10437.6625
2826.96904	10400.7625
2829.50412	10415.0625
2832.03763	10402.8625
2834.56959	10415.7625
2837.1	10383.5625
2839.62884	10375.8625
2842.15613	10364.3625
2844.68186	10397.7625
2847.20604	10403.6625
2849.72867	10413.3625
2852.24974	10405.9625
2854.76927	10387.1625
2857.28724	10372.7625
2859.80367	10360.4625
2862.31855	10363.9625
2864.83189	10324.5625
2867.34368	10303.4625
2869.85393	10317.7625
2872.36264	10302.9625
2874.8698	10289.7625
2877.37543	10291.0625
2879.87952	10296.5625
2882.38207	10271.6625
2884.88308	10280.3625
2887.38256	10291.7625
2889.88051	10283.5625
2892.37692	10287.0625
2894.8718	10289.7625
2897.36515	10316.0625
2899.85698	10306.1625
2902.34727	10304.8625
2904.83604	10316.2625
2907.32328	10351.2625
2909.809	10336.1625
2912.29319	10319.1625
2914.77587	10328.1625
2917.25702	10326.7625
2919.73665	10312.1625
2922.21476	10301.0625
2924.69136	10303.0625
2927.16644	10287.0625
2929.64	10291.9625
2932.11205	10293.0625
2934.58258	10271.4625
2937.05161	10280.9625
2939.51912	10255.9625
2941.98513	10227.3625
2944.44962	10202.1625
2946.91261	10166.5625
2949.37409	10191.0625
2951.83407	10186.4625
2954.29254	10162.5625
2956.74951	10163.4625
2959.20498	10136.2625
2961.65895	10151.8625
2964.11142	10136.3625
2966.56239	10108.2625
2969.01186	10122.5625
2971.45984	10089.1625
2973.90632	10097.5625
2976.35131	10070.5625
2978.7948	10054.2625
2981.23681	10000.7625
2983.67732	9994.9625
2986.11635	9977.5625
2988.55388	9933.4625
2990.98993	9929.6625
2993.4245	9897.8625
2995.85758	9902.9625
2998.28917	9864.8625
3000.71928	9846.6625
3003.14791	9837.3625
3005.57506	9812.3625
3008.00073	9789.5625
3010.42493	9816.8625
3012.84764	9793.4625
3015.26888	9771.2625
3017.68865	9751.8625
3020.10694	9744.5625
3022.52376	9711.3625
3024.9391	9725.3625
3027.35298	9686.6625
