Data from AgNPs_FTO_APTES_UA_1uM_CRN_500uM_R6G_10uM_NaF_0.1M_Addition_RamanShift__7__17-52-49-867.txt Node

Date: Thu Jan 27 17:52:49 GMT 2022
User: TCL
Spectrometer: QEP01345
Trigger mode: 4
Integration Time (sec): 7.000000E0
Scans to average: 10
Electric dark correction enabled: true
Nonlinearity correction enabled: false
Boxcar width: 0
XAxis mode: Raman Shifts
Number of Pixels in Spectrum: 1044
>>>>>Begin Spectral Data<<<<<
46.04893	-0.175
50.45542	0.925
54.85868	0.525
59.25871	-1.375
63.6555	43.625
68.04907	43.725
72.43941	47.525
76.82654	51.125
81.21044	51.725
85.59113	54.225
89.96862	55.025
94.34289	57.525
98.71396	63.025
103.08183	62.025
107.4465	61.925
111.80798	67.525
116.16626	65.525
120.52136	69.325
124.87327	69.925
129.222	67.025
133.56755	72.825
137.90993	75.925
142.24913	77.325
146.58517	87.225
150.91804	99.025
155.24774	114.525
159.57429	131.825
163.89768	166.825
168.21792	221.425
172.53501	295.725
176.84895	397.425
181.15975	557.125
185.46741	775.125
189.77193	1069.825
194.07331	1424.725
198.37157	1848.225
202.6667	2287.025
206.9587	2721.425
211.24758	3137.925
215.53334	3572.125
219.81599	4021.625
224.09553	4510.925
228.37195	5051.825
232.64527	5622.325
236.91549	6235.225
241.18261	6858.925
245.44663	7493.625
249.70755	8030.325
253.96539	8512.125
258.22014	8902.125
262.4718	9211.125
266.72039	9421.125
270.96589	9518.125
275.20832	9516.825
279.44768	9421.425
283.68397	9321.225
287.91719	9155.025
292.14735	9082.225
296.37445	9050.225
300.59849	9047.525
304.81948	9072.225
309.03742	9064.225
313.25231	8998.325
317.46415	8851.125
321.67296	8717.225
325.87872	8555.125
330.08145	8492.025
334.28114	8491.225
338.47781	8524.325
342.67145	8615.125
346.86207	8734.725
351.04966	8884.525
355.23424	8995.525
359.4158	9149.425
363.59435	9215.425
367.76989	9284.525
371.94243	9349.225
376.11196	9393.725
380.27849	9447.725
384.44203	9523.325
388.60257	9593.725
392.76012	9658.825
396.91468	9766.325
401.06626	9882.625
405.21485	9979.725
409.36047	9994.125
413.50311	9880.425
417.64277	9875.925
421.77947	9910.425
425.9132	9955.625
430.04396	10030.625
434.17176	10081.525
438.2966	10078.225
442.41849	10155.625
446.53742	10367.725
450.6534	10563.125
454.76644	10692.725
458.87653	10693.225
462.98368	10631.625
467.08789	10518.625
471.18916	10364.725
475.2875	10246.025
479.38291	10134.625
483.4754	10045.125
487.56496	9978.125
491.6516	9912.225
495.73531	9867.925
499.81612	9862.425
503.89401	9898.225
507.96899	9977.225
512.04106	9956.525
516.11023	9897.625
520.1765	9809.325
524.23987	9748.425
528.30034	9673.325
532.35792	9651.325
536.41261	9551.625
540.46441	9480.925
544.51333	9454.325
548.55936	9527.025
552.60252	9686.825
556.64279	9850.625
560.6802	9982.125
564.71473	9989.025
568.7464	10063.625
572.7752	10257.425
576.80114	10507.625
580.82422	10818.625
584.84444	11312.925
588.86181	11939.025
592.87633	12431.025
596.888	12347.025
600.89682	11674.525
604.9028	11289.225
608.90594	11695.425
612.90624	12340.825
616.90371	11864.825
620.89834	10379.025
624.89015	9651.125
628.87913	9559.825
632.86528	9624.425
636.84862	9666.325
640.82913	9566.625
644.80683	9405.025
648.78172	9337.925
652.75379	9363.825
656.72306	9420.325
660.68952	9493.725
664.65319	9449.625
668.61405	9325.225
672.57211	9316.325
676.52738	9395.625
680.47986	9448.725
684.42955	9408.425
688.37646	9336.025
692.32058	9319.325
696.26192	9387.625
700.20048	9441.525
704.13626	9501.225
708.06928	9523.925
711.99952	9516.825
715.927	9518.325
719.85171	9546.625
723.77365	9500.925
727.69284	9410.825
731.60928	9360.125
735.52295	9285.025
739.43388	9304.325
743.34206	9333.125
747.24749	9357.825
751.15017	9428.725
755.05012	9530.425
758.94733	9704.325
762.8418	10020.925
766.73354	10541.325
770.62254	11087.325
774.50882	11290.225
778.39237	10990.625
782.27321	10390.425
786.15132	9844.425
790.02671	9504.925
793.89938	9342.825
797.76935	9307.625
801.6366	9248.325
805.50115	9241.125
809.36299	9179.325
813.22213	9137.825
817.07857	9073.725
820.93231	9048.025
824.78336	9018.325
828.63172	8975.925
832.47738	8945.225
836.32036	8968.425
840.16066	8971.825
843.99827	8942.625
847.8332	8971.425
851.66546	8946.025
855.49504	8972.425
859.32195	8961.025
863.1462	8938.725
866.96777	8956.425
870.78668	8950.525
874.60293	8942.425
878.41652	8952.325
882.22745	8947.225
886.03573	8993.925
889.84136	9018.625
893.64433	8998.125
897.44466	8951.225
901.24235	8928.525
905.0374	8914.325
908.8298	8858.825
912.61957	8847.525
916.40671	8894.925
920.19121	8987.525
923.97308	9023.725
927.75233	9071.925
931.52895	9044.025
935.30295	8938.625
939.07433	8802.925
942.84309	8674.625
946.60924	8611.725
950.37278	8547.625
954.13371	8540.225
957.89203	8549.225
961.64774	8543.425
965.40086	8534.025
969.15137	8521.125
972.89929	8438.225
976.64461	8425.725
980.38733	8404.725
984.12747	8394.025
987.86502	8422.125
991.59999	8430.325
995.33237	8470.825
999.06217	8566.725
1002.78939	8676.725
1006.51404	8761.825
1010.23611	8903.925
1013.95561	9022.325
1017.67255	9031.525
1021.38692	9034.725
1025.09872	8877.325
1028.80796	8771.825
1032.51465	8725.025
1036.21877	8712.425
1039.92035	8759.425
1043.61937	8771.825
1047.31584	8798.125
1051.00976	8818.425
1054.70114	8865.625
1058.38998	8896.125
1062.07627	8934.525
1065.76003	9042.125
1069.44126	9144.325
1073.11995	9283.025
1076.79611	9387.025
1080.46974	9394.825
1084.14085	9379.225
1087.80943	9379.125
1091.47549	9432.725
1095.13903	9468.725
1098.80005	9368.725
1102.45857	9219.025
1106.11456	9056.125
1109.76805	8980.625
1113.41903	8998.825
1117.06751	9023.525
1120.71348	9107.325
1124.35696	9228.925
1127.99793	9389.325
1131.63641	9500.225
1135.2724	9433.025
1138.90589	9305.425
1142.5369	9297.525
1146.16542	9335.425
1149.79145	9341.325
1153.415	9363.425
1157.03607	9447.125
1160.65467	9645.225
1164.27079	10040.225
1167.88443	10499.325
1171.49561	10947.125
1175.10432	11491.525
1178.71056	12201.225
1182.31434	12928.425
1185.91565	13222.325
1189.51451	13083.325
1193.11091	12753.125
1196.70485	12294.925
1200.29634	11882.725
1203.88538	11576.525
1207.47197	11372.925
1211.05612	11213.225
1214.63782	11027.525
1218.21708	10796.125
1221.79391	10545.625
1225.36829	10449.425
1228.94024	10387.925
1232.50976	10299.025
1236.07685	10205.325
1239.6415	10100.125
1243.20374	10062.325
1246.76355	10067.925
1250.32093	10159.525
1253.8759	10282.125
1257.42845	10471.025
1260.97859	10722.525
1264.52631	10957.925
1268.07163	11148.525
1271.61453	11374.525
1275.15503	11614.025
1278.69312	11888.125
1282.22882	12230.025
1285.76211	12626.225
1289.29301	13087.025
1292.82151	13663.125
1296.34761	14341.025
1299.87133	15088.025
1303.39266	15907.325
1306.9116	16625.925
1310.42815	17253.525
1313.94233	17575.425
1317.45412	17366.925
1320.96354	16924.725
1324.47058	16404.925
1327.97525	16041.125
1331.47754	15806.925
1334.97747	15602.925
1338.47502	15371.325
1341.97022	15155.625
1345.46305	14993.825
1348.95352	15037.325
1352.44163	15381.325
1355.92738	16059.325
1359.41078	16981.525
1362.89183	17641.525
1366.37053	17580.025
1369.84688	16336.525
1373.32088	14509.025
1376.79254	13148.225
1380.26186	12579.025
1383.72883	12474.725
1387.19347	12352.825
1390.65578	12080.325
1394.11575	11975.825
1397.57339	12115.925
1401.0287	12402.925
1404.48168	12626.325
1407.93234	12677.625
1411.38068	12507.525
1414.82669	12203.025
1418.27039	11846.325
1421.71177	11438.725
1425.15083	11067.125
1428.58758	10887.125
1432.02203	10945.725
1435.45416	11191.925
1438.88399	11457.125
1442.31151	11625.525
1445.73673	11701.225
1449.15965	11744.325
1452.58027	11724.825
1455.9986	11629.625
1459.41463	11624.125
1462.82837	11747.025
1466.23982	12039.625
1469.64898	12251.825
1473.05586	12429.325
1476.46045	12554.525
1479.86276	12519.525
1483.26279	12449.025
1486.66054	12461.625
1490.05602	12529.925
1493.44922	12675.625
1496.84016	12854.925
1500.22882	13112.225
1503.61521	13498.725
1506.99934	13932.025
1510.38121	14295.825
1513.76081	14302.325
1517.13816	13975.325
1520.51324	13426.025
1523.88607	13059.925
1527.25665	12858.225
1530.62498	12784.825
1533.99105	12657.725
1537.35488	12453.025
1540.71647	12251.825
1544.07581	11999.325
1547.4329	11745.025
1550.78776	11476.825
1554.14038	11238.325
1557.49077	11081.125
1560.83892	10996.625
1564.18484	10978.825
1567.52853	11013.025
1570.86999	11166.925
1574.20922	11385.125
1577.54624	11551.725
1580.88103	11584.925
1584.2136	11567.325
1587.54395	11720.525
1590.87208	12186.325
1594.19801	12889.825
1597.52172	13661.025
1600.84321	14038.425
1604.16251	13709.625
1607.47959	12786.225
1610.79447	11727.525
1614.10715	10737.125
1617.41763	9975.225
1620.7259	9472.525
1624.03199	9216.525
1627.33587	9155.925
1630.63757	9362.025
1633.93707	9785.525
1637.23439	10600.325
1640.52951	11876.725
1643.82246	13567.025
1647.11321	15050.425
1650.40179	15487.225
1653.68819	14430.125
1656.97241	12534.625
1660.25446	10758.225
1663.53433	9525.225
1666.81203	8789.325
1670.08756	8369.225
1673.36092	8098.425
1676.63211	7940.025
1679.90115	7800.525
1683.16801	7688.125
1686.43272	7601.925
1689.69527	7562.925
1692.95567	7488.825
1696.2139	7431.925
1699.46999	7377.225
1702.72392	7334.325
1705.97571	7334.025
1709.22535	7359.225
1712.47284	7377.625
1715.71819	7373.525
1718.96139	7382.625
1722.20246	7355.525
1725.44139	7317.125
1728.67818	7301.825
1731.91284	7263.525
1735.14537	7227.125
1738.37576	7197.925
1741.60403	7165.425
1744.83017	7168.925
1748.05418	7148.925
1751.27607	7130.925
1754.49584	7129.225
1757.71349	7118.925
1760.92903	7112.425
1764.14244	7098.225
1767.35375	7076.125
1770.56294	7030.725
1773.77002	7021.325
1776.97499	7000.925
1780.17785	7025.725
1783.37861	7014.425
1786.57727	7021.825
1789.77382	6982.225
1792.96828	6979.725
1796.16064	6963.825
1799.3509	6941.125
1802.53907	6923.125
1805.72514	6903.625
1808.90913	6877.125
1812.09102	6888.625
1815.27083	6869.825
1818.44856	6849.725
1821.6242	6841.925
1824.79776	6818.525
1827.96924	6838.225
1831.13864	6830.825
1834.30597	6850.925
1837.47122	6819.025
1840.6344	6803.325
1843.7955	6826.625
1846.95454	6806.225
1850.11151	6811.225
1853.26642	6798.425
1856.41926	6783.725
1859.57004	6787.925
1862.71876	6777.825
1865.86542	6774.725
1869.01003	6766.525
1872.15258	6763.625
1875.29308	6765.825
1878.43152	6747.025
1881.56792	6740.025
1884.70227	6718.625
1887.83457	6698.325
1890.96482	6692.825
1894.09304	6676.125
1897.21921	6674.525
1900.34335	6672.925
1903.46544	6674.125
1906.58551	6652.925
1909.70353	6647.425
1912.81953	6620.225
1915.93349	6617.925
1919.04543	6602.725
1922.15534	6579.825
1925.26322	6573.525
1928.36908	6558.625
1931.47292	6539.625
1934.57473	6520.325
1937.67453	6501.725
1940.77232	6500.525
1943.86808	6476.025
1946.96184	6465.225
1950.05358	6446.525
1953.14331	6429.125
1956.23103	6406.225
1959.31675	6401.125
1962.40046	6362.625
1965.48217	6352.625
1968.56188	6341.725
1971.63959	6308.125
1974.7153	6288.625
1977.78901	6267.025
1980.86073	6267.525
1983.93046	6232.425
1986.99819	6212.225
1990.06394	6199.625
1993.1277	6176.125
1996.18947	6165.825
1999.24925	6145.725
2002.30706	6130.925
2005.36288	6093.225
2008.41672	6108.825
2011.46859	6099.025
2014.51848	6070.425
2017.56639	6045.425
2020.61233	6041.025
2023.6563	6015.025
2026.6983	5998.625
2029.73833	5981.325
2032.7764	5970.425
2035.8125	5949.025
2038.84664	5946.825
2041.87881	5924.125
2044.90903	5915.125
2047.93729	5904.725
2050.96359	5902.025
2053.98794	5888.125
2057.01034	5869.925
2060.03078	5889.325
2063.04927	5873.225
2066.06582	5879.025
2069.08042	5874.625
2072.09307	5857.025
2075.10378	5858.425
2078.11255	5868.025
2081.11938	5854.225
2084.12426	5846.225
2087.12722	5851.025
2090.12824	5863.125
2093.12732	5862.825
2096.12447	5841.725
2099.11969	5851.025
2102.11299	5838.525
2105.10435	5834.125
2108.09379	5850.125
2111.08131	5863.725
2114.0669	5853.425
2117.05057	5860.125
2120.03233	5868.225
2123.01216	5877.325
2125.99008	5871.425
2128.96609	5888.525
2131.94018	5885.625
2134.91236	5871.925
2137.88263	5865.125
2140.851	5881.925
2143.81746	5875.425
2146.78201	5867.725
2149.74466	5878.525
2152.7054	5847.025
2155.66425	5838.425
2158.6212	5868.725
2161.57625	5869.725
2164.52941	5857.825
2167.48067	5861.125
2170.43004	5865.025
2173.37752	5840.125
2176.32311	5864.525
2179.26681	5842.125
2182.20863	5854.125
2185.14856	5870.625
2188.08661	5832.025
2191.02278	5856.425
2193.95707	5840.325
2196.88948	5836.325
2199.82001	5825.825
2202.74867	5820.225
2205.67545	5805.725
2208.60037	5811.125
2211.52341	5786.025
2214.44458	5775.525
2217.36388	5771.025
2220.28132	5754.825
2223.1969	5755.725
2226.11061	5731.925
2229.02246	5733.925
2231.93245	5730.825
2234.84058	5703.125
2237.74686	5707.825
2240.65128	5712.425
2243.55385	5691.725
2246.45456	5678.825
2249.35343	5662.725
2252.25044	5651.125
2255.14561	5630.425
2258.03893	5631.725
2260.93041	5616.425
2263.82004	5613.225
2266.70783	5594.025
2269.59378	5579.125
2272.4779	5579.525
2275.36017	5565.625
2278.24061	5561.825
2281.11922	5533.725
2283.996	5515.825
2286.87094	5532.725
2289.74405	5517.025
2292.61534	5502.725
2295.4848	5502.825
2298.35243	5491.425
2301.21824	5476.125
2304.08223	5499.525
2306.94439	5494.825
2309.80474	5469.825
2312.66327	5468.925
2315.51999	5458.625
2318.37489	5459.425
2321.22797	5445.825
2324.07925	5438.725
2326.92871	5439.825
2329.77637	5421.325
2332.62222	5411.625
2335.46626	5415.125
2338.3085	5399.225
2341.14893	5407.425
2343.98756	5382.525
2346.8244	5386.925
2349.65943	5377.225
2352.49267	5372.525
2355.32411	5373.925
2358.15376	5371.025
2360.98161	5369.925
2363.80768	5363.225
2366.63195	5381.925
2369.45444	5364.425
2372.27514	5358.225
2375.09405	5358.525
2377.91118	5351.225
2380.72652	5335.625
2383.54009	5308.025
2386.35187	5290.325
2389.16188	5285.925
2391.97011	5282.225
2394.77657	5281.225
2397.58125	5269.825
2400.38416	5247.125
2403.18529	5231.625
2405.98466	5240.025
2408.78226	5227.525
2411.57809	5224.625
2414.37216	5200.725
2417.16446	5204.925
2419.955	5189.225
2422.74378	5208.325
2425.5308	5199.925
2428.31606	5209.225
2431.09956	5203.525
2433.88131	5181.125
2436.6613	5178.225
2439.43954	5180.125
2442.21603	5179.825
2444.99077	5161.625
2447.76377	5175.525
2450.53501	5168.025
2453.30451	5169.725
2456.07226	5153.225
2458.83827	5143.825
2461.60254	5150.225
2464.36507	5144.825
2467.12586	5154.025
2469.88492	5124.625
2472.64224	5131.125
2475.39782	5115.725
2478.15167	5114.125
2480.90379	5113.025
2483.65417	5108.525
2486.40283	5103.925
2489.14976	5116.925
2491.89497	5109.225
2494.63845	5106.025
2497.3802	5091.425
2500.12024	5087.525
2502.85855	5102.425
2505.59514	5086.225
2508.33002	5094.525
2511.06318	5083.325
2513.79462	5085.925
2516.52435	5065.025
2519.25237	5051.725
2521.97867	5031.625
2524.70327	5050.525
2527.42616	5044.925
2530.14734	5034.225
2532.86681	5026.025
2535.58458	5019.225
2538.30065	5000.125
2541.01501	5015.325
2543.72768	4996.225
2546.43864	4992.625
2549.14791	4990.825
2551.85548	4981.925
2554.56136	4963.425
2557.26554	4966.525
2559.96803	4970.825
2562.66883	4940.525
2565.36794	4952.825
2568.06536	4945.125
2570.7611	4934.225
2573.45514	4923.825
2576.14751	4915.425
2578.83819	4917.825
2581.52719	4891.425
2584.21451	4895.125
2586.90015	4886.225
2589.58411	4880.125
2592.2664	4873.225
2594.94701	4873.725
2597.62594	4859.825
2600.30321	4850.825
2602.9788	4846.425
2605.65273	4835.825
2608.32498	4833.825
2610.99557	4835.625
2613.66449	4833.725
2616.33175	4824.725
2618.99734	4826.125
2621.66128	4830.025
2624.32355	4807.825
2626.98416	4803.125
2629.64311	4798.625
2632.30041	4791.025
2634.95605	4769.925
2637.61004	4768.725
2640.26238	4764.525
2642.91306	4757.525
2645.56209	4755.825
2648.20948	4756.525
2650.85521	4767.325
2653.4993	4767.325
2656.14175	4774.925
2658.78255	4774.825
2661.42171	4778.525
2664.05923	4783.725
2666.6951	4787.425
2669.32934	4772.325
2671.96194	4755.725
2674.59291	4775.225
2677.22224	4765.225
2679.84993	4764.525
2682.476	4757.325
2685.10043	4772.525
2687.72324	4759.125
2690.34441	4750.525
2692.96396	4756.725
2695.58188	4752.625
2698.19818	4765.425
2700.81285	4760.225
2703.4259	4761.825
2706.03733	4732.125
2708.64714	4732.625
2711.25533	4756.725
2713.86191	4752.525
2716.46687	4760.425
2719.07021	4773.825
2721.67194	4770.825
2724.27206	4763.325
2726.87057	4776.125
2729.46747	4770.525
2732.06276	4774.725
2734.65644	4756.025
2737.24852	4777.225
2739.83899	4760.025
2742.42786	4765.325
2745.01513	4737.225
2747.60079	4738.425
2750.18486	4749.125
2752.76733	4737.525
2755.3482	4722.425
2757.92747	4720.325
2760.50515	4728.625
2763.08123	4719.725
2765.65573	4720.025
2768.22863	4714.525
2770.79994	4708.125
2773.36967	4690.725
2775.9378	4704.125
2778.50435	4708.225
2781.06932	4691.325
2783.6327	4688.625
2786.1945	4678.425
2788.75471	4679.925
2791.31335	4657.025
2793.87041	4642.625
2796.42589	4631.825
2798.97979	4644.325
2801.53212	4659.725
2804.08288	4648.325
2806.63206	4628.025
2809.17967	4609.625
2811.72571	4616.225
2814.27018	4601.425
2816.81308	4595.525
2819.35442	4590.525
2821.89419	4579.725
2824.43239	4569.425
2826.96904	4574.225
2829.50412	4570.325
2832.03763	4562.625
2834.56959	4563.225
2837.1	4569.825
2839.62884	4574.425
2842.15613	4597.125
2844.68186	4629.425
2847.20604	4653.125
2849.72867	4660.225
2852.24974	4657.825
2854.76927	4658.225
2857.28724	4638.825
2859.80367	4638.625
2862.31855	4621.725
2864.83189	4615.425
2867.34368	4612.025
2869.85393	4617.525
2872.36264	4605.025
2874.8698	4605.225
2877.37543	4604.325
2879.87952	4599.325
2882.38207	4602.625
2884.88308	4600.025
2887.38256	4590.125
2889.88051	4592.625
2892.37692	4594.325
2894.8718	4603.225
2897.36515	4624.025
2899.85698	4610.725
2902.34727	4621.825
2904.83604	4622.825
2907.32328	4640.725
2909.809	4635.125
2912.29319	4627.925
2914.77587	4638.425
2917.25702	4612.725
2919.73665	4629.125
2922.21476	4636.425
2924.69136	4649.425
2927.16644	4635.225
2929.64	4640.025
2932.11205	4641.425
2934.58258	4618.425
2937.05161	4643.925
2939.51912	4622.825
2941.98513	4612.725
2944.44962	4608.825
2946.91261	4569.325
2949.37409	4580.525
2951.83407	4555.125
2954.29254	4560.525
2956.74951	4534.025
2959.20498	4549.125
2961.65895	4536.225
2964.11142	4526.225
2966.56239	4512.925
2969.01186	4495.625
2971.45984	4492.525
2973.90632	4487.025
2976.35131	4470.025
2978.7948	4450.825
2981.23681	4438.525
2983.67732	4427.625
2986.11635	4415.325
2988.55388	4413.125
2990.98993	4397.325
2993.4245	4390.725
2995.85758	4376.225
2998.28917	4371.325
3000.71928	4355.825
3003.14791	4359.125
3005.57506	4341.925
3008.00073	4347.325
3010.42493	4333.525
3012.84764	4334.725
3015.26888	4335.325
3017.68865	4325.325
3020.10694	4326.025
3022.52376	4318.325
3024.9391	4290.625
3027.35298	4311.325
3029.76539	4290.325
3032.17632	4292.525
3034.5858	4277.625
3036.9938	4281.425
3039.40034	4283.625
3041.80542	4269.625
3044.20903	4280.425
3046.61118	4265.125
3049.01187	4257.625
3051.4111	4260.625
3053.80888	4244.725
3056.20519	4255.725
3058.60005	4239.125
3060.99345	4239.225
3063.3854	4217.425
3065.7759	4210.925
3068.16494	4200.825
3070.55254	4186.625
3072.93868	4180.425
3075.32338	4187.925
3077.70662	4177.125
3080.08842	4172.125
3082.46878	4177.425
3084.84769	4173.025
3087.22515	4173.925
3089.60118	4171.925
3091.97576	4174.625
3094.3489	4191.825
3096.72061	4179.725
3099.09087	4191.225
3101.4597	4175.325
3103.82709	4190.925
3106.19305	4168.925
3108.55757	4178.425
3110.92066	4164.225
3113.28232	4172.525
3115.64255	4155.425
3118.00134	4161.925
3120.35871	4154.025
3122.71466	4163.825
3125.06917	4161.225
3127.42226	4134.925
3129.77393	4150.325
3132.12417	4153.025
3134.47299	4143.425
3136.82039	4166.625
3139.16636	4163.325
3141.51092	4157.125
3143.85406	4161.725
3146.19579	4171.025
3148.53609	4170.225
3150.87499	4187.625
3153.21246	4194.625
3155.54853	4196.625
3157.88318	4201.425
3160.21642	4206.725
3162.54826	4193.325
3164.87868	4209.925
3167.2077	4215.425
3169.5353	4225.325
3171.86151	4221.825
3174.18631	4224.625
3176.5097	4248.225
3178.83169	4229.725
3181.15228	4214.325
3183.47147	4217.525
3185.78926	4219.325
3188.10565	4207.825
3190.42065	4221.025
3192.73424	4219.725
3195.04645	4216.225
3197.35725	4202.625
3199.66667	4218.525
3201.97469	4214.825
3204.28132	4225.025
3206.58656	4213.725
3208.8904	4234.825
3211.19287	4231.425
3213.49394	4241.525
3215.79363	4241.625
