Data from AgNPs_FTO_APTES_UA_1uM_CRN_1000uM_R6G_10uM_NaF_0.1M_Addition_RamanShift__4__18-38-19-918.txt Node

Date: Thu Jan 27 18:38:19 GMT 2022
User: TCL
Spectrometer: QEP01345
Trigger mode: 4
Integration Time (sec): 7.000000E0
Scans to average: 10
Electric dark correction enabled: true
Nonlinearity correction enabled: false
Boxcar width: 0
XAxis mode: Raman Shifts
Number of Pixels in Spectrum: 1044
>>>>>Begin Spectral Data<<<<<
46.04893	1.4375
50.45542	0.1375
54.85868	-1.4625
59.25871	-0.2625
63.6555	42.5375
68.04907	46.6375
72.43941	48.6375
76.82654	49.8375
81.21044	51.2375
85.59113	52.6375
89.96862	56.2375
94.34289	56.8375
98.71396	58.7375
103.08183	57.3375
107.4465	64.8375
111.80798	65.9375
116.16626	66.1375
120.52136	71.3375
124.87327	69.5375
129.222	66.8375
133.56755	70.5375
137.90993	73.9375
142.24913	81.4375
146.58517	90.4375
150.91804	103.0375
155.24774	122.6375
159.57429	146.5375
163.89768	184.4375
168.21792	242.5375
172.53501	320.7375
176.84895	454.2375
181.15975	630.2375
185.46741	872.9375
189.77193	1205.1375
194.07331	1620.6375
198.37157	2086.0375
202.6667	2598.7375
206.9587	3099.4375
211.24758	3596.1375
215.53334	4096.3375
219.81599	4614.1375
224.09553	5183.2375
228.37195	5818.7375
232.64527	6482.7375
236.91549	7197.7375
241.18261	7907.5375
245.44663	8561.1375
249.70755	9149.1375
253.96539	9648.7375
258.22014	10067.4375
262.4718	10388.4375
266.72039	10631.3375
270.96589	10728.5375
275.20832	10707.5375
279.44768	10546.6375
283.68397	10401.1375
287.91719	10225.5375
292.14735	10133.1375
296.37445	10086.7375
300.59849	10145.3375
304.81948	10231.2375
309.03742	10232.3375
313.25231	10184.2375
317.46415	10009.1375
321.67296	9717.7375
325.87872	9490.5375
330.08145	9399.4375
334.28114	9376.0375
338.47781	9474.6375
342.67145	9552.2375
346.86207	9749.4375
351.04966	9964.6375
355.23424	10156.8375
359.4158	10339.6375
363.59435	10474.0375
367.76989	10544.0375
371.94243	10627.6375
376.11196	10678.7375
380.27849	10736.2375
384.44203	10758.1375
388.60257	10804.8375
392.76012	10880.2375
396.91468	10980.4375
401.06626	11142.9375
405.21485	11259.8375
409.36047	11231.8375
413.50311	11027.7375
417.64277	10856.2375
421.77947	10807.5375
425.9132	10775.0375
430.04396	10786.3375
434.17176	10862.1375
438.2966	10901.7375
442.41849	10990.6375
446.53742	11211.0375
450.6534	11463.2375
454.76644	11600.2375
458.87653	11586.4375
462.98368	11537.5375
467.08789	11395.9375
471.18916	11249.3375
475.2875	11089.2375
479.38291	10948.4375
483.4754	10842.8375
487.56496	10766.4375
491.6516	10699.0375
495.73531	10670.0375
499.81612	10663.1375
503.89401	10726.8375
507.96899	10821.0375
512.04106	10799.1375
516.11023	10828.2375
520.1765	10830.6375
524.23987	10763.8375
528.30034	10702.7375
532.35792	10607.2375
536.41261	10486.6375
540.46441	10352.0375
544.51333	10329.8375
548.55936	10370.1375
552.60252	10544.5375
556.64279	10725.5375
560.6802	10871.8375
564.71473	10879.8375
568.7464	10961.4375
572.7752	11116.3375
576.80114	11251.9375
580.82422	11462.4375
584.84444	11808.2375
588.86181	12254.1375
592.87633	12642.5375
596.888	12650.8375
600.89682	12275.7375
604.9028	12256.1375
608.90594	13200.3375
612.90624	14603.1375
616.90371	14170.3375
620.89834	11854.1375
624.89015	10706.5375
628.87913	10463.9375
632.86528	10566.2375
636.84862	10623.7375
640.82913	10568.3375
644.80683	10362.3375
648.78172	10240.5375
652.75379	10221.6375
656.72306	10328.8375
660.68952	10451.6375
664.65319	10437.6375
668.61405	10215.4375
672.57211	10220.7375
676.52738	10306.8375
680.47986	10394.9375
684.42955	10342.7375
688.37646	10247.3375
692.32058	10152.8375
696.26192	10203.0375
700.20048	10266.8375
704.13626	10305.6375
708.06928	10286.6375
711.99952	10269.4375
715.927	10256.5375
719.85171	10267.0375
723.77365	10273.7375
727.69284	10171.8375
731.60928	10107.9375
735.52295	10062.4375
739.43388	10086.4375
743.34206	10109.9375
747.24749	10104.4375
751.15017	10180.0375
755.05012	10291.4375
758.94733	10487.4375
762.8418	10937.3375
766.73354	11712.9375
770.62254	12613.0375
774.50882	13082.3375
778.39237	12747.1375
782.27321	11791.0375
786.15132	10910.8375
790.02671	10372.8375
793.89938	10125.4375
797.76935	10044.4375
801.6366	9978.7375
805.50115	9940.0375
809.36299	9888.8375
813.22213	9834.2375
817.07857	9778.6375
820.93231	9752.8375
824.78336	9752.9375
828.63172	9733.8375
832.47738	9710.1375
836.32036	9730.7375
840.16066	9717.0375
843.99827	9714.6375
847.8332	9696.1375
851.66546	9682.3375
855.49504	9650.3375
859.32195	9656.6375
863.1462	9670.3375
866.96777	9656.1375
870.78668	9662.6375
874.60293	9665.1375
878.41652	9652.8375
882.22745	9678.7375
886.03573	9762.6375
889.84136	9746.8375
893.64433	9726.6375
897.44466	9659.7375
901.24235	9643.3375
905.0374	9579.3375
908.8298	9534.7375
912.61957	9518.8375
916.40671	9588.2375
920.19121	9651.7375
923.97308	9734.6375
927.75233	9787.5375
931.52895	9823.2375
935.30295	9734.2375
939.07433	9545.4375
942.84309	9422.8375
946.60924	9305.9375
950.37278	9237.0375
954.13371	9218.5375
957.89203	9177.8375
961.64774	9150.3375
965.40086	9164.7375
969.15137	9134.4375
972.89929	9074.3375
976.64461	9066.3375
980.38733	9067.0375
984.12747	9039.7375
987.86502	9052.5375
991.59999	9130.2375
995.33237	9186.0375
999.06217	9319.5375
1002.78939	9462.4375
1006.51404	9544.2375
1010.23611	9688.9375
1013.95561	9794.8375
1017.67255	9848.0375
1021.38692	9814.5375
1025.09872	9684.3375
1028.80796	9614.4375
1032.51465	9636.2375
1036.21877	9741.8375
1039.92035	9799.9375
1043.61937	9800.6375
1047.31584	9761.4375
1051.00976	9711.5375
1054.70114	9693.6375
1058.38998	9693.6375
1062.07627	9741.1375
1065.76003	9813.5375
1069.44126	9920.7375
1073.11995	10076.2375
1076.79611	10219.0375
1080.46974	10201.8375
1084.14085	10163.5375
1087.80943	10178.6375
1091.47549	10213.2375
1095.13903	10207.5375
1098.80005	10083.1375
1102.45857	9884.2375
1106.11456	9746.4375
1109.76805	9673.1375
1113.41903	9712.0375
1117.06751	9803.0375
1120.71348	9966.1375
1124.35696	10140.4375
1127.99793	10337.7375
1131.63641	10493.6375
1135.2724	10338.0375
1138.90589	10101.1375
1142.5369	9983.9375
1146.16542	9963.8375
1149.79145	9917.3375
1153.415	9916.5375
1157.03607	9981.6375
1160.65467	10153.1375
1164.27079	10514.2375
1167.88443	10970.6375
1171.49561	11543.6375
1175.10432	12304.7375
1178.71056	13314.3375
1182.31434	14259.5375
1185.91565	14719.1375
1189.51451	14564.3375
1193.11091	14030.1375
1196.70485	13341.2375
1200.29634	12721.5375
1203.88538	12236.6375
1207.47197	11837.4375
1211.05612	11516.4375
1214.63782	11264.8375
1218.21708	11075.0375
1221.79391	10970.4375
1225.36829	10927.5375
1228.94024	10902.2375
1232.50976	10818.6375
1236.07685	10697.8375
1239.6415	10591.8375
1243.20374	10561.7375
1246.76355	10584.1375
1250.32093	10675.7375
1253.8759	10831.5375
1257.42845	11014.6375
1260.97859	11286.6375
1264.52631	11515.4375
1268.07163	11798.4375
1271.61453	12044.5375
1275.15503	12327.5375
1278.69312	12621.8375
1282.22882	12863.9375
1285.76211	13138.8375
1289.29301	13579.9375
1292.82151	14086.6375
1296.34761	14686.9375
1299.87133	15472.1375
1303.39266	16349.4375
1306.9116	17384.4375
1310.42815	18404.9375
1313.94233	18967.4375
1317.45412	18776.2375
1320.96354	18055.8375
1324.47058	17215.8375
1327.97525	16471.1375
1331.47754	15971.7375
1334.97747	15675.5375
1338.47502	15494.9375
1341.97022	15416.1375
1345.46305	15422.6375
1348.95352	15744.8375
1352.44163	16366.2375
1355.92738	17387.0375
1359.41078	18706.7375
1362.89183	19872.3375
1366.37053	19865.8375
1369.84688	18114.7375
1373.32088	15778.7375
1376.79254	14064.9375
1380.26186	13240.1375
1383.72883	12938.9375
1387.19347	12680.3375
1390.65578	12399.0375
1394.11575	12215.3375
1397.57339	12257.4375
1401.0287	12441.4375
1404.48168	12583.3375
1407.93234	12605.1375
1411.38068	12481.3375
1414.82669	12302.2375
1418.27039	12064.2375
1421.71177	11784.5375
1425.15083	11496.7375
1428.58758	11334.8375
1432.02203	11351.8375
1435.45416	11571.1375
1438.88399	11779.1375
1442.31151	11885.7375
1445.73673	11927.1375
1449.15965	11995.6375
1452.58027	11977.1375
1455.9986	11933.6375
1459.41463	11922.9375
1462.82837	12024.7375
1466.23982	12265.4375
1469.64898	12485.6375
1473.05586	12671.3375
1476.46045	12759.6375
1479.86276	12851.8375
1483.26279	12853.9375
1486.66054	12910.8375
1490.05602	13086.3375
1493.44922	13363.2375
1496.84016	13749.5375
1500.22882	14294.7375
1503.61521	15140.8375
1506.99934	16080.1375
1510.38121	16900.0375
1513.76081	17090.8375
1517.13816	16378.4375
1520.51324	15240.2375
1523.88607	14183.8375
1527.25665	13487.7375
1530.62498	13139.1375
1533.99105	12940.8375
1537.35488	12748.0375
1540.71647	12567.9375
1544.07581	12354.1375
1547.4329	12169.4375
1550.78776	11966.8375
1554.14038	11813.7375
1557.49077	11740.5375
1560.83892	11725.9375
1564.18484	11738.8375
1567.52853	11920.1375
1570.86999	12125.1375
1574.20922	12395.3375
1577.54624	12589.1375
1580.88103	12452.0375
1584.2136	12180.1375
1587.54395	12060.7375
1590.87208	12340.3375
1594.19801	12864.6375
1597.52172	13625.0375
1600.84321	14097.7375
1604.16251	13822.7375
1607.47959	13075.2375
1610.79447	12136.3375
1614.10715	11190.3375
1617.41763	10436.5375
1620.7259	9885.9375
1624.03199	9637.3375
1627.33587	9580.1375
1630.63757	9715.0375
1633.93707	10090.2375
1637.23439	10819.0375
1640.52951	11962.1375
1643.82246	13541.0375
1647.11321	15088.4375
1650.40179	15782.0375
1653.68819	15097.2375
1656.97241	13292.2375
1660.25446	11438.7375
1663.53433	10145.2375
1666.81203	9311.5375
1670.08756	8841.4375
1673.36092	8575.7375
1676.63211	8379.5375
1679.90115	8286.0375
1683.16801	8137.4375
1686.43272	8049.6375
1689.69527	7998.3375
1692.95567	7919.0375
1696.2139	7862.1375
1699.46999	7776.6375
1702.72392	7757.1375
1705.97571	7758.4375
1709.22535	7770.7375
1712.47284	7801.6375
1715.71819	7804.6375
1718.96139	7803.4375
1722.20246	7790.6375
1725.44139	7782.8375
1728.67818	7723.3375
1731.91284	7691.3375
1735.14537	7667.4375
1738.37576	7653.6375
1741.60403	7623.9375
1744.83017	7606.1375
1748.05418	7592.3375
1751.27607	7609.2375
1754.49584	7594.2375
1757.71349	7605.0375
1760.92903	7574.8375
1764.14244	7527.5375
1767.35375	7481.8375
1770.56294	7425.0375
1773.77002	7422.5375
1776.97499	7426.0375
1780.17785	7423.2375
1783.37861	7418.1375
1786.57727	7404.7375
1789.77382	7372.2375
1792.96828	7363.8375
1796.16064	7324.6375
1799.3509	7303.2375
1802.53907	7287.5375
1805.72514	7263.9375
1808.90913	7251.5375
1812.09102	7248.6375
1815.27083	7224.2375
1818.44856	7219.2375
1821.6242	7182.0375
1824.79776	7184.1375
1827.96924	7158.4375
1831.13864	7161.1375
1834.30597	7171.1375
1837.47122	7166.6375
1840.6344	7127.4375
1843.7955	7123.5375
1846.95454	7137.8375
1850.11151	7122.0375
1853.26642	7121.6375
1856.41926	7097.8375
1859.57004	7123.6375
1862.71876	7115.4375
1865.86542	7086.4375
1869.01003	7084.7375
1872.15258	7069.4375
1875.29308	7072.3375
1878.43152	7053.7375
1881.56792	7068.4375
1884.70227	7044.0375
1887.83457	7025.9375
1890.96482	7013.3375
1894.09304	7003.1375
1897.21921	7004.3375
1900.34335	6994.1375
1903.46544	6978.5375
1906.58551	6993.0375
1909.70353	6969.1375
1912.81953	6952.2375
1915.93349	6962.1375
1919.04543	6923.6375
1922.15534	6914.3375
1925.26322	6897.8375
1928.36908	6889.1375
1931.47292	6880.0375
1934.57473	6845.7375
1937.67453	6840.9375
1940.77232	6835.9375
1943.86808	6797.6375
1946.96184	6764.0375
1950.05358	6757.5375
1953.14331	6728.9375
1956.23103	6735.0375
1959.31675	6709.4375
1962.40046	6679.1375
1965.48217	6674.2375
1968.56188	6638.5375
1971.63959	6624.2375
1974.7153	6609.0375
1977.78901	6586.6375
1980.86073	6575.3375
1983.93046	6526.5375
1986.99819	6529.4375
1990.06394	6493.3375
1993.1277	6484.5375
1996.18947	6449.7375
1999.24925	6449.9375
2002.30706	6424.9375
2005.36288	6399.7375
2008.41672	6405.0375
2011.46859	6365.9375
2014.51848	6361.0375
2017.56639	6346.8375
2020.61233	6328.1375
2023.6563	6315.3375
2026.6983	6280.2375
2029.73833	6265.8375
2032.7764	6268.5375
2035.8125	6252.1375
2038.84664	6208.3375
2041.87881	6222.0375
2044.90903	6214.6375
2047.93729	6195.5375
2050.96359	6184.7375
2053.98794	6166.8375
2057.01034	6164.4375
2060.03078	6152.2375
2063.04927	6164.5375
2066.06582	6156.4375
2069.08042	6145.0375
2072.09307	6155.8375
2075.10378	6152.9375
2078.11255	6140.3375
2081.11938	6147.5375
2084.12426	6132.1375
2087.12722	6125.9375
2090.12824	6116.9375
2093.12732	6125.5375
2096.12447	6132.2375
2099.11969	6130.3375
2102.11299	6120.2375
2105.10435	6135.1375
2108.09379	6144.1375
2111.08131	6138.7375
2114.0669	6121.7375
2117.05057	6152.7375
2120.03233	6132.9375
2123.01216	6141.2375
2125.99008	6151.1375
2128.96609	6163.1375
2131.94018	6172.1375
2134.91236	6182.1375
2137.88263	6159.0375
2140.851	6155.8375
2143.81746	6159.7375
2146.78201	6150.3375
2149.74466	6148.5375
2152.7054	6159.4375
2155.66425	6162.4375
2158.6212	6133.8375
2161.57625	6138.0375
2164.52941	6153.9375
2167.48067	6132.1375
2170.43004	6141.0375
2173.37752	6143.6375
2176.32311	6152.1375
2179.26681	6125.1375
2182.20863	6129.2375
2185.14856	6129.3375
2188.08661	6139.9375
2191.02278	6159.1375
2193.95707	6126.4375
2196.88948	6133.5375
2199.82001	6105.6375
2202.74867	6102.5375
2205.67545	6091.6375
2208.60037	6100.0375
2211.52341	6085.9375
2214.44458	6066.2375
2217.36388	6057.3375
2220.28132	6053.8375
2223.1969	6048.0375
2226.11061	6029.1375
2229.02246	6019.5375
2231.93245	6003.9375
2234.84058	6007.5375
2237.74686	5993.6375
2240.65128	6000.9375
2243.55385	5958.6375
2246.45456	5946.9375
2249.35343	5954.6375
2252.25044	5930.0375
2255.14561	5938.2375
2258.03893	5930.1375
2260.93041	5905.8375
2263.82004	5887.7375
2266.70783	5869.9375
2269.59378	5864.0375
2272.4779	5855.3375
2275.36017	5845.9375
2278.24061	5831.3375
2281.11922	5824.9375
2283.996	5816.0375
2286.87094	5813.1375
2289.74405	5789.4375
2292.61534	5779.6375
2295.4848	5764.9375
2298.35243	5781.1375
2301.21824	5781.7375
2304.08223	5784.7375
2306.94439	5774.9375
2309.80474	5783.8375
2312.66327	5764.8375
2315.51999	5744.7375
2318.37489	5758.2375
2321.22797	5744.5375
2324.07925	5743.6375
2326.92871	5725.2375
2329.77637	5732.0375
2332.62222	5711.6375
2335.46626	5699.9375
2338.3085	5705.6375
2341.14893	5696.5375
2343.98756	5696.7375
2346.8244	5690.3375
2349.65943	5675.0375
2352.49267	5666.4375
2355.32411	5674.2375
2358.15376	5673.7375
2360.98161	5674.4375
2363.80768	5669.6375
2366.63195	5684.4375
2369.45444	5670.1375
2372.27514	5658.9375
2375.09405	5659.2375
2377.91118	5654.3375
2380.72652	5614.3375
2383.54009	5616.9375
2386.35187	5602.7375
2389.16188	5579.6375
2391.97011	5567.2375
2394.77657	5571.4375
2397.58125	5544.5375
2400.38416	5555.7375
2403.18529	5528.9375
2405.98466	5522.8375
2408.78226	5518.3375
2411.57809	5505.1375
2414.37216	5487.8375
2417.16446	5480.4375
2419.955	5491.1375
2422.74378	5491.8375
2425.5308	5484.3375
2428.31606	5493.2375
2431.09956	5480.8375
2433.88131	5477.3375
2436.6613	5472.3375
2439.43954	5454.9375
2442.21603	5456.4375
2444.99077	5450.2375
2447.76377	5440.6375
2450.53501	5450.0375
2453.30451	5444.5375
2456.07226	5451.9375
2458.83827	5445.8375
2461.60254	5426.2375
2464.36507	5435.0375
2467.12586	5418.3375
2469.88492	5431.3375
2472.64224	5431.0375
2475.39782	5436.6375
2478.15167	5421.3375
2480.90379	5415.6375
2483.65417	5420.2375
2486.40283	5396.7375
2489.14976	5421.3375
2491.89497	5412.6375
2494.63845	5418.7375
2497.3802	5401.0375
2500.12024	5406.9375
2502.85855	5396.0375
2505.59514	5383.6375
2508.33002	5367.1375
2511.06318	5379.2375
2513.79462	5374.5375
2516.52435	5351.0375
2519.25237	5358.5375
2521.97867	5327.5375
2524.70327	5333.8375
2527.42616	5317.1375
2530.14734	5311.2375
2532.86681	5314.4375
2535.58458	5302.5375
2538.30065	5297.7375
2541.01501	5304.7375
2543.72768	5280.6375
2546.43864	5281.9375
2549.14791	5269.9375
2551.85548	5268.1375
2554.56136	5253.2375
2557.26554	5258.4375
2559.96803	5238.5375
2562.66883	5256.0375
2565.36794	5239.8375
2568.06536	5228.9375
2570.7611	5237.6375
2573.45514	5214.6375
2576.14751	5211.7375
2578.83819	5193.3375
2581.52719	5182.6375
2584.21451	5184.5375
2586.90015	5184.3375
2589.58411	5181.9375
2592.2664	5154.4375
2594.94701	5159.4375
2597.62594	5158.6375
2600.30321	5141.4375
2602.9788	5135.0375
2605.65273	5132.0375
2608.32498	5118.9375
2610.99557	5116.2375
2613.66449	5113.9375
2616.33175	5097.0375
2618.99734	5107.0375
2621.66128	5098.1375
2624.32355	5089.4375
2626.98416	5096.4375
2629.64311	5097.7375
2632.30041	5087.0375
2634.95605	5066.4375
2637.61004	5045.0375
2640.26238	5056.7375
2642.91306	5061.8375
2645.56209	5054.9375
2648.20948	5038.3375
2650.85521	5036.3375
2653.4993	5035.6375
2656.14175	5047.1375
2658.78255	5054.2375
2661.42171	5040.5375
2664.05923	5076.4375
2666.6951	5053.0375
2669.32934	5068.8375
2671.96194	5052.9375
2674.59291	5057.2375
2677.22224	5018.1375
2679.84993	5045.5375
2682.476	5038.3375
2685.10043	5039.7375
2687.72324	5035.5375
2690.34441	5026.2375
2692.96396	5034.4375
2695.58188	5045.2375
2698.19818	5035.5375
2700.81285	5053.4375
2703.4259	5029.9375
2706.03733	5021.7375
2708.64714	5014.6375
2711.25533	5043.3375
2713.86191	5030.6375
2716.46687	5036.8375
2719.07021	5042.0375
2721.67194	5047.0375
2724.27206	5040.0375
2726.87057	5051.0375
2729.46747	5055.6375
2732.06276	5055.0375
2734.65644	5046.1375
2737.24852	5046.1375
2739.83899	5034.8375
2742.42786	5041.7375
2745.01513	5033.7375
2747.60079	5026.2375
2750.18486	5017.8375
2752.76733	5021.4375
2755.3482	4998.5375
2757.92747	5007.4375
2760.50515	5011.1375
2763.08123	4991.1375
2765.65573	5001.9375
2768.22863	5006.3375
2770.79994	4985.3375
2773.36967	4972.0375
2775.9378	4962.7375
2778.50435	4978.6375
2781.06932	4973.1375
2783.6327	4974.9375
2786.1945	4954.7375
2788.75471	4950.3375
2791.31335	4943.4375
2793.87041	4940.1375
2796.42589	4920.3375
2798.97979	4930.5375
2801.53212	4940.7375
2804.08288	4921.4375
2806.63206	4909.5375
2809.17967	4905.8375
2811.72571	4890.4375
2814.27018	4885.5375
2816.81308	4902.0375
2819.35442	4870.1375
2821.89419	4873.4375
2824.43239	4888.3375
2826.96904	4873.2375
2829.50412	4874.8375
2832.03763	4875.6375
2834.56959	4873.3375
2837.1	4887.5375
2839.62884	4902.5375
2842.15613	4924.2375
2844.68186	4967.6375
2847.20604	4999.7375
2849.72867	5005.9375
2852.24974	5012.6375
2854.76927	5006.9375
2857.28724	4989.0375
2859.80367	4986.0375
2862.31855	4992.6375
2864.83189	4981.1375
2867.34368	4976.6375
2869.85393	4991.3375
2872.36264	4970.4375
2874.8698	4974.0375
2877.37543	4979.5375
2879.87952	4984.5375
2882.38207	4947.4375
2884.88308	4969.1375
2887.38256	4975.2375
2889.88051	4944.4375
2892.37692	4975.6375
2894.8718	4985.1375
2897.36515	4996.1375
2899.85698	5001.0375
2902.34727	5020.0375
2904.83604	5033.9375
2907.32328	5041.2375
2909.809	5026.3375
2912.29319	5024.2375
2914.77587	5053.0375
2917.25702	5028.2375
2919.73665	5038.4375
2922.21476	5038.2375
2924.69136	5039.9375
2927.16644	5062.5375
2929.64	5052.9375
2932.11205	5050.7375
2934.58258	5036.9375
2937.05161	5039.0375
2939.51912	5040.3375
2941.98513	5020.4375
2944.44962	5000.1375
2946.91261	4967.3375
2949.37409	4977.9375
2951.83407	4964.9375
2954.29254	4943.5375
2956.74951	4935.0375
2959.20498	4936.2375
2961.65895	4905.2375
2964.11142	4906.2375
2966.56239	4871.1375
2969.01186	4862.1375
2971.45984	4851.0375
2973.90632	4848.6375
2976.35131	4822.1375
2978.7948	4808.8375
2981.23681	4769.1375
2983.67732	4788.5375
2986.11635	4771.0375
2988.55388	4755.6375
2990.98993	4747.4375
2993.4245	4732.0375
2995.85758	4724.6375
2998.28917	4711.7375
3000.71928	4704.3375
3003.14791	4697.3375
3005.57506	4703.6375
3008.00073	4678.6375
3010.42493	4672.1375
3012.84764	4662.2375
3015.26888	4693.4375
3017.68865	4663.1375
3020.10694	4641.8375
3022.52376	4631.9375
3024.9391	4622.2375
3027.35298	4625.6375
3029.76539	4640.7375
3032.17632	4618.7375
3034.5858	4607.9375
3036.9938	4602.3375
3039.40034	4596.8375
3041.80542	4602.9375
3044.20903	4585.8375
3046.61118	4571.6375
3049.01187	4577.9375
3051.4111	4583.3375
3053.80888	4574.9375
3056.20519	4561.2375
3058.60005	4569.4375
3060.99345	4556.8375
3063.3854	4549.5375
3065.7759	4523.7375
3068.16494	4540.5375
3070.55254	4521.1375
3072.93868	4519.3375
3075.32338	4515.7375
3077.70662	4509.0375
3080.08842	4505.1375
3082.46878	4496.7375
3084.84769	4490.4375
3087.22515	4509.9375
3089.60118	4499.7375
3091.97576	4497.4375
