Data from AgNPs_FTO_APTES_UA_1uM_CRN_10uM_R6G_10uM_NaF_0.1M_Addition_RamanShift__16__14-34-29-641.txt Node

Date: Thu Jan 27 14:34:29 GMT 2022
User: TCL
Spectrometer: QEP01345
Trigger mode: 4
Integration Time (sec): 7.000000E0
Scans to average: 10
Electric dark correction enabled: true
Nonlinearity correction enabled: false
Boxcar width: 0
XAxis mode: Raman Shifts
Number of Pixels in Spectrum: 1044
>>>>>Begin Spectral Data<<<<<
46.04893	1.425
50.45542	0.625
54.85868	-1.175
59.25871	-1.975
63.6555	45.225
68.04907	47.725
72.43941	49.525
76.82654	54.225
81.21044	54.225
85.59113	55.625
89.96862	56.625
94.34289	59.925
98.71396	66.325
103.08183	61.425
107.4465	66.025
111.80798	67.725
116.16626	70.425
120.52136	72.425
124.87327	74.425
129.222	77.225
133.56755	78.525
137.90993	83.225
142.24913	91.725
146.58517	98.325
150.91804	114.825
155.24774	137.825
159.57429	158.325
163.89768	203.425
168.21792	272.325
172.53501	365.225
176.84895	496.725
181.15975	690.425
185.46741	969.625
189.77193	1341.825
194.07331	1789.125
198.37157	2314.025
202.6667	2862.525
206.9587	3387.425
211.24758	3910.925
215.53334	4427.125
219.81599	5007.025
224.09553	5593.125
228.37195	6280.025
232.64527	7018.725
236.91549	7840.525
241.18261	8617.725
245.44663	9375.725
249.70755	10052.225
253.96539	10664.425
258.22014	11153.025
262.4718	11587.225
266.72039	11879.425
270.96589	12056.025
275.20832	12081.025
279.44768	12036.725
283.68397	11937.725
287.91719	11871.425
292.14735	11802.825
296.37445	11821.125
300.59849	11874.425
304.81948	11911.025
309.03742	11893.525
313.25231	11740.225
317.46415	11446.025
321.67296	11110.025
325.87872	10843.325
330.08145	10675.725
334.28114	10662.025
338.47781	10716.425
342.67145	10855.225
346.86207	11048.525
351.04966	11279.125
355.23424	11510.725
359.4158	11693.725
363.59435	11859.625
367.76989	11956.925
371.94243	12046.025
376.11196	12094.125
380.27849	12159.725
384.44203	12201.825
388.60257	12275.825
392.76012	12401.625
396.91468	12553.325
401.06626	12754.025
405.21485	12852.525
409.36047	12807.825
413.50311	12591.625
417.64277	12442.025
421.77947	12374.325
425.9132	12393.625
430.04396	12478.225
434.17176	12505.325
438.2966	12634.825
442.41849	12772.225
446.53742	13044.125
450.6534	13369.325
454.76644	13631.225
458.87653	13724.225
462.98368	13687.225
467.08789	13606.925
471.18916	13471.225
475.2875	13332.425
479.38291	13260.325
483.4754	13192.025
487.56496	13064.725
491.6516	12853.425
495.73531	12725.625
499.81612	12672.725
503.89401	12743.125
507.96899	12775.925
512.04106	12758.825
516.11023	12707.725
520.1765	12639.825
524.23987	12494.425
528.30034	12399.725
532.35792	12267.725
536.41261	12145.225
540.46441	12027.525
544.51333	12011.725
548.55936	12177.825
552.60252	12437.425
556.64279	12704.225
560.6802	12845.325
564.71473	12894.825
568.7464	13055.625
572.7752	13310.125
576.80114	13572.825
580.82422	13789.325
584.84444	13879.625
588.86181	14008.125
592.87633	14084.125
596.888	14128.525
600.89682	14139.025
604.9028	14561.025
608.90594	15758.125
612.90624	17044.125
616.90371	16192.725
620.89834	13754.725
624.89015	12693.125
628.87913	12662.925
632.86528	12687.225
636.84862	12617.225
640.82913	12423.725
644.80683	12116.925
648.78172	11881.925
652.75379	11834.525
656.72306	11947.925
660.68952	12108.325
664.65319	12076.825
668.61405	11907.825
672.57211	11786.525
676.52738	11814.725
680.47986	11787.925
684.42955	11769.525
688.37646	11726.925
692.32058	11763.625
696.26192	11888.825
700.20048	11972.325
704.13626	12070.325
708.06928	12050.525
711.99952	11988.425
715.927	11933.525
719.85171	11949.525
723.77365	11958.925
727.69284	11829.325
731.60928	11736.225
735.52295	11668.525
739.43388	11683.125
743.34206	11731.425
747.24749	11760.025
751.15017	11831.025
755.05012	12038.125
758.94733	12369.325
762.8418	12927.825
766.73354	13812.425
770.62254	14731.925
774.50882	15019.125
778.39237	14431.025
782.27321	13417.625
786.15132	12586.025
790.02671	12095.125
793.89938	11877.925
797.76935	11792.925
801.6366	11737.925
805.50115	11714.125
809.36299	11638.325
813.22213	11567.925
817.07857	11516.425
820.93231	11494.025
824.78336	11442.925
828.63172	11433.925
832.47738	11419.225
836.32036	11463.025
840.16066	11484.425
843.99827	11536.925
847.8332	11524.625
851.66546	11443.525
855.49504	11397.825
859.32195	11410.725
863.1462	11386.625
866.96777	11341.325
870.78668	11321.825
874.60293	11322.925
878.41652	11307.025
882.22745	11342.025
886.03573	11375.225
889.84136	11385.725
893.64433	11359.325
897.44466	11299.325
901.24235	11255.125
905.0374	11222.225
908.8298	11157.425
912.61957	11188.325
916.40671	11276.325
920.19121	11431.725
923.97308	11568.725
927.75233	11610.325
931.52895	11572.625
935.30295	11492.725
939.07433	11273.925
942.84309	11102.425
946.60924	11019.525
950.37278	10978.925
954.13371	10949.525
957.89203	10889.425
961.64774	10866.725
965.40086	10828.425
969.15137	10795.225
972.89929	10749.925
976.64461	10711.425
980.38733	10728.425
984.12747	10769.225
987.86502	10869.525
991.59999	11014.625
995.33237	11232.425
999.06217	11540.425
1002.78939	11891.425
1006.51404	12044.525
1010.23611	12092.725
1013.95561	12191.425
1017.67255	12208.025
1021.38692	12096.525
1025.09872	11978.725
1028.80796	12061.025
1032.51465	12437.525
1036.21877	12823.725
1039.92035	12884.225
1043.61937	12683.425
1047.31584	12347.725
1051.00976	12029.125
1054.70114	11885.825
1058.38998	11905.225
1062.07627	11962.325
1065.76003	12016.325
1069.44126	12083.625
1073.11995	12215.625
1076.79611	12329.225
1080.46974	12424.425
1084.14085	12505.625
1087.80943	12629.825
1091.47549	12691.625
1095.13903	12687.425
1098.80005	12552.225
1102.45857	12330.325
1106.11456	12153.825
1109.76805	12063.225
1113.41903	12071.325
1117.06751	12171.425
1120.71348	12264.525
1124.35696	12389.125
1127.99793	12548.925
1131.63641	12600.625
1135.2724	12501.025
1138.90589	12417.125
1142.5369	12359.325
1146.16542	12336.425
1149.79145	12365.725
1153.415	12418.125
1157.03607	12555.525
1160.65467	12829.125
1164.27079	13291.025
1167.88443	13905.925
1171.49561	14718.325
1175.10432	15766.325
1178.71056	17056.025
1182.31434	18293.425
1185.91565	19012.425
1189.51451	19012.925
1193.11091	18526.125
1196.70485	17758.925
1200.29634	17001.125
1203.88538	16388.225
1207.47197	15922.125
1211.05612	15561.625
1214.63782	15261.625
1218.21708	15074.425
1221.79391	14907.625
1225.36829	14827.525
1228.94024	14693.925
1232.50976	14438.125
1236.07685	14244.325
1239.6415	14136.125
1243.20374	14118.425
1246.76355	14191.025
1250.32093	14344.925
1253.8759	14663.425
1257.42845	15018.325
1260.97859	15447.725
1264.52631	15813.125
1268.07163	16207.625
1271.61453	16663.125
1275.15503	17148.525
1278.69312	17702.725
1282.22882	18121.525
1285.76211	18456.625
1289.29301	18833.625
1292.82151	19346.925
1296.34761	20075.325
1299.87133	21072.225
1303.39266	22305.525
1306.9116	23739.025
1310.42815	25105.425
1313.94233	25910.025
1317.45412	25846.825
1320.96354	25324.525
1324.47058	24748.325
1327.97525	24189.825
1331.47754	23805.825
1334.97747	23602.525
1338.47502	23499.325
1341.97022	23505.225
1345.46305	23403.825
1348.95352	23159.725
1352.44163	22929.625
1355.92738	23114.325
1359.41078	23945.425
1362.89183	24737.025
1366.37053	24415.025
1369.84688	22530.925
1373.32088	20328.725
1376.79254	18762.225
1380.26186	18055.625
1383.72883	17929.425
1387.19347	17884.525
1390.65578	17723.225
1394.11575	17672.525
1397.57339	17742.225
1401.0287	18019.525
1404.48168	18253.625
1407.93234	18324.825
1411.38068	18089.425
1414.82669	17619.425
1418.27039	17009.025
1421.71177	16378.125
1425.15083	15857.425
1428.58758	15587.925
1432.02203	15578.225
1435.45416	15835.525
1438.88399	16270.525
1442.31151	16583.225
1445.73673	16856.325
1449.15965	17122.925
1452.58027	17253.825
1455.9986	17371.925
1459.41463	17470.825
1462.82837	17704.225
1466.23982	18032.725
1469.64898	18292.625
1473.05586	18492.625
1476.46045	18501.125
1479.86276	18376.125
1483.26279	18154.425
1486.66054	18012.325
1490.05602	18008.025
1493.44922	18124.925
1496.84016	18305.925
1500.22882	18729.425
1503.61521	19403.025
1506.99934	20213.625
1510.38121	20884.525
1513.76081	21186.225
1517.13816	20731.125
1520.51324	19904.525
1523.88607	19094.225
1527.25665	18524.625
1530.62498	18274.925
1533.99105	18145.825
1537.35488	18002.025
1540.71647	17851.125
1544.07581	17556.625
1547.4329	17277.025
1550.78776	17017.425
1554.14038	16821.325
1557.49077	16754.825
1560.83892	16693.625
1564.18484	16678.425
1567.52853	16724.925
1570.86999	16872.825
1574.20922	17049.025
1577.54624	17246.325
1580.88103	17231.125
1584.2136	17236.325
1587.54395	17530.825
1590.87208	18154.325
1594.19801	19135.125
1597.52172	20191.425
1600.84321	20613.125
1604.16251	19858.525
1607.47959	18515.125
1610.79447	17066.225
1614.10715	15757.425
1617.41763	14626.525
1620.7259	13849.325
1624.03199	13376.425
1627.33587	13338.225
1630.63757	13647.925
1633.93707	14356.225
1637.23439	15525.025
1640.52951	17122.725
1643.82246	18866.525
1647.11321	20201.225
1650.40179	20511.525
1653.68819	19400.625
1656.97241	17239.025
1660.25446	15026.425
1663.53433	13305.425
1666.81203	12211.125
1670.08756	11534.625
1673.36092	11080.625
1676.63211	10817.325
1679.90115	10587.325
1683.16801	10443.725
1686.43272	10325.725
1689.69527	10195.125
1692.95567	10136.625
1696.2139	10069.525
1699.46999	9990.725
1702.72392	9956.125
1705.97571	9946.725
1709.22535	9953.025
1712.47284	9955.025
1715.71819	9972.825
1718.96139	9935.625
1722.20246	9931.225
1725.44139	9894.425
1728.67818	9839.625
1731.91284	9774.325
1735.14537	9734.025
1738.37576	9688.825
1741.60403	9669.125
1744.83017	9603.625
1748.05418	9619.525
1751.27607	9567.525
1754.49584	9546.125
1757.71349	9497.925
1760.92903	9501.825
1764.14244	9470.525
1767.35375	9469.125
1770.56294	9461.525
1773.77002	9470.825
1776.97499	9431.225
1780.17785	9455.325
1783.37861	9458.425
1786.57727	9442.925
1789.77382	9432.925
1792.96828	9423.125
1796.16064	9402.025
1799.3509	9402.525
1802.53907	9381.225
1805.72514	9349.425
1808.90913	9311.425
1812.09102	9296.225
1815.27083	9294.225
1818.44856	9301.225
1821.6242	9281.125
1824.79776	9242.425
1827.96924	9249.725
1831.13864	9242.925
1834.30597	9253.125
1837.47122	9254.325
1840.6344	9221.825
1843.7955	9257.125
1846.95454	9252.925
1850.11151	9264.125
1853.26642	9247.225
1856.41926	9249.725
1859.57004	9272.725
1862.71876	9254.125
1865.86542	9244.325
1869.01003	9211.225
1872.15258	9216.825
1875.29308	9200.225
1878.43152	9213.625
1881.56792	9192.325
1884.70227	9179.925
1887.83457	9160.325
1890.96482	9181.125
1894.09304	9158.925
1897.21921	9153.425
1900.34335	9129.925
1903.46544	9152.625
1906.58551	9124.525
1909.70353	9115.425
1912.81953	9087.125
1915.93349	9079.325
1919.04543	9068.525
1922.15534	9040.625
1925.26322	9020.625
1928.36908	8992.025
1931.47292	8990.925
1934.57473	8973.225
1937.67453	8926.225
1940.77232	8896.325
1943.86808	8884.425
1946.96184	8821.025
1950.05358	8823.925
1953.14331	8770.525
1956.23103	8765.525
1959.31675	8737.725
1962.40046	8714.625
1965.48217	8673.125
1968.56188	8654.325
1971.63959	8650.125
1974.7153	8638.025
1977.78901	8602.325
1980.86073	8576.625
1983.93046	8542.625
1986.99819	8530.725
1990.06394	8497.425
1993.1277	8470.725
1996.18947	8434.925
1999.24925	8433.925
2002.30706	8378.425
2005.36288	8363.425
2008.41672	8348.525
2011.46859	8328.025
2014.51848	8290.625
2017.56639	8283.725
2020.61233	8271.025
2023.6563	8250.525
2026.6983	8232.225
2029.73833	8227.525
2032.7764	8204.225
2035.8125	8208.025
2038.84664	8162.525
2041.87881	8172.325
2044.90903	8132.525
2047.93729	8132.025
2050.96359	8147.925
2053.98794	8114.325
2057.01034	8116.825
2060.03078	8108.625
2063.04927	8111.025
2066.06582	8105.725
2069.08042	8109.825
2072.09307	8106.225
2075.10378	8092.825
2078.11255	8070.525
2081.11938	8081.025
2084.12426	8052.825
2087.12722	8058.225
2090.12824	8041.625
2093.12732	8064.325
2096.12447	8049.025
2099.11969	8069.125
2102.11299	8067.125
2105.10435	8062.825
2108.09379	8101.525
2111.08131	8080.925
2114.0669	8061.125
2117.05057	8091.825
2120.03233	8095.325
2123.01216	8082.925
2125.99008	8120.925
2128.96609	8118.525
2131.94018	8113.625
2134.91236	8117.125
2137.88263	8155.825
2140.851	8142.325
2143.81746	8130.925
2146.78201	8145.525
2149.74466	8154.325
2152.7054	8168.925
2155.66425	8143.625
2158.6212	8150.025
2161.57625	8136.625
2164.52941	8141.525
2167.48067	8133.325
2170.43004	8119.225
2173.37752	8141.225
2176.32311	8131.825
2179.26681	8141.525
2182.20863	8121.225
2185.14856	8131.425
2188.08661	8133.125
2191.02278	8141.525
2193.95707	8126.225
2196.88948	8118.225
2199.82001	8133.025
2202.74867	8124.025
2205.67545	8123.425
2208.60037	8128.625
2211.52341	8113.825
2214.44458	8096.625
2217.36388	8100.625
2220.28132	8079.725
2223.1969	8068.525
2226.11061	8054.825
2229.02246	8045.125
2231.93245	8037.925
2234.84058	7991.525
2237.74686	7981.625
2240.65128	7979.225
2243.55385	7973.525
2246.45456	7958.525
2249.35343	7946.125
2252.25044	7931.325
2255.14561	7929.225
2258.03893	7907.325
2260.93041	7903.325
2263.82004	7865.625
2266.70783	7866.825
2269.59378	7843.225
2272.4779	7848.725
2275.36017	7813.025
2278.24061	7788.325
2281.11922	7774.725
2283.996	7816.825
2286.87094	7781.325
2289.74405	7755.425
2292.61534	7741.225
2295.4848	7748.925
2298.35243	7771.725
2301.21824	7751.425
2304.08223	7766.525
2306.94439	7759.825
2309.80474	7764.325
2312.66327	7771.325
2315.51999	7771.425
2318.37489	7766.025
2321.22797	7738.325
2324.07925	7747.425
2326.92871	7738.225
2329.77637	7716.025
2332.62222	7710.425
2335.46626	7698.425
2338.3085	7687.725
2341.14893	7701.425
2343.98756	7713.625
2346.8244	7707.125
2349.65943	7712.125
2352.49267	7721.925
2355.32411	7716.225
2358.15376	7733.525
2360.98161	7711.625
2363.80768	7689.925
2366.63195	7699.225
2369.45444	7683.125
2372.27514	7662.225
2375.09405	7643.425
2377.91118	7627.425
2380.72652	7612.025
2383.54009	7572.325
2386.35187	7601.025
2389.16188	7550.025
2391.97011	7562.325
2394.77657	7546.425
2397.58125	7533.925
2400.38416	7528.625
2403.18529	7501.525
2405.98466	7508.625
2408.78226	7492.025
2411.57809	7467.825
2414.37216	7465.425
2417.16446	7446.525
2419.955	7439.025
2422.74378	7459.425
2425.5308	7444.725
2428.31606	7437.725
2431.09956	7446.225
2433.88131	7424.025
2436.6613	7439.525
2439.43954	7436.425
2442.21603	7420.125
2444.99077	7392.725
2447.76377	7420.825
2450.53501	7418.625
2453.30451	7424.725
2456.07226	7396.825
2458.83827	7385.625
2461.60254	7399.825
2464.36507	7396.825
2467.12586	7398.125
2469.88492	7383.625
2472.64224	7394.925
2475.39782	7400.325
2478.15167	7416.525
2480.90379	7411.525
2483.65417	7425.625
2486.40283	7432.125
2489.14976	7429.825
2491.89497	7419.125
2494.63845	7412.825
2497.3802	7407.125
2500.12024	7411.025
2502.85855	7407.325
2505.59514	7416.525
2508.33002	7391.925
2511.06318	7385.925
2513.79462	7365.625
2516.52435	7368.925
2519.25237	7383.325
2521.97867	7359.225
2524.70327	7392.625
2527.42616	7347.225
2530.14734	7348.225
2532.86681	7351.125
2535.58458	7344.125
2538.30065	7335.725
2541.01501	7333.925
2543.72768	7302.425
2546.43864	7325.125
2549.14791	7329.725
2551.85548	7280.325
2554.56136	7299.825
2557.26554	7286.525
2559.96803	7270.225
2562.66883	7289.725
2565.36794	7294.725
2568.06536	7265.325
2570.7611	7267.825
2573.45514	7244.525
2576.14751	7236.225
2578.83819	7250.225
2581.52719	7238.725
2584.21451	7232.325
2586.90015	7230.425
2589.58411	7227.925
2592.2664	7234.525
2594.94701	7205.225
2597.62594	7206.825
2600.30321	7201.925
2602.9788	7186.225
2605.65273	7169.525
2608.32498	7195.225
2610.99557	7184.825
2613.66449	7207.325
2616.33175	7196.725
2618.99734	7178.125
2621.66128	7205.925
2624.32355	7188.225
2626.98416	7181.125
2629.64311	7196.025
2632.30041	7186.925
2634.95605	7180.025
2637.61004	7183.925
2640.26238	7151.325
2642.91306	7159.625
2645.56209	7135.725
2648.20948	7150.525
2650.85521	7139.625
2653.4993	7136.425
2656.14175	7159.025
2658.78255	7155.725
2661.42171	7156.525
2664.05923	7162.725
2666.6951	7154.325
2669.32934	7160.525
2671.96194	7141.825
2674.59291	7174.725
2677.22224	7155.525
2679.84993	7150.325
2682.476	7146.425
2685.10043	7136.625
2687.72324	7125.225
2690.34441	7132.925
2692.96396	7124.325
2695.58188	7123.625
2698.19818	7118.825
2700.81285	7117.525
2703.4259	7119.825
2706.03733	7126.025
2708.64714	7111.525
2711.25533	7138.925
2713.86191	7142.525
2716.46687	7155.225
2719.07021	7126.725
2721.67194	7173.625
2724.27206	7168.925
2726.87057	7169.425
2729.46747	7165.125
2732.06276	7165.425
2734.65644	7136.025
2737.24852	7171.025
2739.83899	7150.925
2742.42786	7152.725
2745.01513	7141.725
2747.60079	7138.025
2750.18486	7137.725
2752.76733	7127.225
2755.3482	7124.425
2757.92747	7129.125
2760.50515	7144.125
2763.08123	7123.125
2765.65573	7118.425
2768.22863	7109.225
2770.79994	7155.825
2773.36967	7107.425
2775.9378	7128.725
2778.50435	7109.225
2781.06932	7103.225
2783.6327	7085.825
2786.1945	7096.425
2788.75471	7102.625
2791.31335	7082.025
2793.87041	7069.425
2796.42589	7058.625
2798.97979	7072.025
2801.53212	7038.225
2804.08288	7026.225
2806.63206	7004.225
2809.17967	7011.925
2811.72571	6983.525
2814.27018	6970.625
2816.81308	6996.725
2819.35442	6971.825
2821.89419	6965.825
2824.43239	6979.725
2826.96904	6959.925
2829.50412	6964.425
2832.03763	6936.925
2834.56959	6951.925
2837.1	6934.625
2839.62884	6923.425
2842.15613	6935.025
2844.68186	6934.025
2847.20604	6950.925
2849.72867	6956.225
2852.24974	6944.925
2854.76927	6966.425
2857.28724	6935.325
2859.80367	6962.725
2862.31855	6927.225
2864.83189	6917.925
2867.34368	6906.525
2869.85393	6919.525
2872.36264	6907.925
2874.8698	6917.225
2877.37543	6911.525
2879.87952	6907.425
2882.38207	6908.525
2884.88308	6904.025
2887.38256	6931.125
2889.88051	6903.325
2892.37692	6908.425
2894.8718	6903.725
2897.36515	6924.625
2899.85698	6928.525
2902.34727	6933.425
2904.83604	6957.625
2907.32328	6963.925
2909.809	6951.925
2912.29319	6958.225
2914.77587	6967.525
2917.25702	6954.625
2919.73665	6959.825
2922.21476	6956.225
2924.69136	6951.525
2927.16644	6946.925
2929.64	6941.225
2932.11205	6951.625
2934.58258	6926.325
2937.05161	6922.625
2939.51912	6919.525
2941.98513	6912.525
2944.44962	6878.925
2946.91261	6852.825
2949.37409	6873.825
2951.83407	6875.625
2954.29254	6862.525
2956.74951	6852.725
2959.20498	6847.325
2961.65895	6852.325
2964.11142	6862.125
2966.56239	6845.925
2969.01186	6838.125
2971.45984	6817.825
2973.90632	6809.725
2976.35131	6793.625
2978.7948	6781.525
2981.23681	6773.925
2983.67732	6752.025
2986.11635	6739.325
2988.55388	6751.625
2990.98993	6725.225
2993.4245	6691.725
2995.85758	6698.025
2998.28917	6688.225
3000.71928	6678.725
3003.14791	6657.825
3005.57506	6656.425
3008.00073	6648.725
3010.42493	6652.425
3012.84764	6635.925
3015.26888	6625.025
3017.68865	6627.325
3020.10694	6612.525
3022.52376	6594.825
3024.9391	6575.125
3027.35298	6588.525
3029.76539	6581.325
3032.17632	6577.825
3034.5858	6581.325
3036.9938	6567.125
3039.40034	6578.525
3041.80542	6581.525
3044.20903	6552.425
3046.61118	6558.025
3049.01187	6554.025
3051.4111	6554.325
3053.80888	6528.825
3056.20519	6523.625
3058.60005	6507.725
3060.99345	6484.525
3063.3854	6470.925
3065.7759	6463.025
3068.16494	6463.325
3070.55254	6439.025
3072.93868	6428.525
3075.32338	6422.825
3077.70662	6421.825
3080.08842	6412.325
3082.46878	6404.325
3084.84769	6399.125
3087.22515	6392.725
3089.60118	6382.725
3091.97576	6384.225
3094.3489	6375.425
3096.72061	6413.725
3099.09087	6408.325
3101.4597	6408.625
3103.82709	6413.925
3106.19305	6407.725
3108.55757	6414.225
3110.92066	6375.425
3113.28232	6377.325
3115.64255	6388.825
3118.00134	6365.825
3120.35871	6363.525
3122.71466	6348.025
3125.06917	6332.125
3127.42226	6324.925
3129.77393	6333.025
3132.12417	6305.925
3134.47299	6312.625
3136.82039	6320.325
3139.16636	6349.425
3141.51092	6331.325
3143.85406	6341.625
3146.19579	6347.725
3148.53609	6352.925
3150.87499	6355.025
3153.21246	6366.725
3155.54853	6376.425
3157.88318	6368.925
3160.21642	6384.725
3162.54826	6380.925
3164.87868	6394.125
3167.2077	6379.525
3169.5353	6380.425
3171.86151	6386.225
3174.18631	6392.625
3176.5097	6386.625
3178.83169	6385.225
3181.15228	6367.425
3183.47147	6373.425
3185.78926	6369.625
3188.10565	6363.525
3190.42065	6362.425
