Data from AgNPs_FTO_APTES_UA_1uM_CRN_100uM_R6G_10uM_NaF_0.1M_Addition_RamanShift__16__16-39-19-783.txt Node

Date: Thu Jan 27 16:39:19 GMT 2022
User: TCL
Spectrometer: QEP01345
Trigger mode: 4
Integration Time (sec): 7.000000E0
Scans to average: 10
Electric dark correction enabled: true
Nonlinearity correction enabled: false
Boxcar width: 0
XAxis mode: Raman Shifts
Number of Pixels in Spectrum: 1044
>>>>>Begin Spectral Data<<<<<
46.04893	0.8125
50.45542	1.3125
54.85868	-1.9875
59.25871	-1.6875
63.6555	40.2125
68.04907	43.3125
72.43941	44.3125
76.82654	50.2125
81.21044	55.1125
85.59113	51.4125
89.96862	53.2125
94.34289	53.9125
98.71396	56.8125
103.08183	57.1125
107.4465	62.5125
111.80798	64.8125
116.16626	62.1125
120.52136	69.1125
124.87327	66.8125
129.222	67.0125
133.56755	70.9125
137.90993	75.5125
142.24913	80.0125
146.58517	89.6125
150.91804	101.9125
155.24774	119.1125
159.57429	141.3125
163.89768	177.6125
168.21792	233.9125
172.53501	312.0125
176.84895	430.8125
181.15975	594.4125
185.46741	834.2125
189.77193	1156.0125
194.07331	1540.4125
198.37157	1976.5125
202.6667	2459.3125
206.9587	2916.1125
211.24758	3373.4125
215.53334	3814.0125
219.81599	4301.9125
224.09553	4815.6125
228.37195	5387.8125
232.64527	6037.1125
236.91549	6690.5125
241.18261	7364.3125
245.44663	8008.3125
249.70755	8597.3125
253.96539	9121.7125
258.22014	9579.0125
262.4718	9914.4125
266.72039	10208.6125
270.96589	10302.2125
275.20832	10352.3125
279.44768	10330.1125
283.68397	10269.7125
287.91719	10206.7125
292.14735	10175.5125
296.37445	10188.7125
300.59849	10209.9125
304.81948	10239.2125
309.03742	10186.2125
313.25231	10041.7125
317.46415	9805.6125
321.67296	9511.5125
325.87872	9324.5125
330.08145	9187.2125
334.28114	9194.8125
338.47781	9217.6125
342.67145	9339.1125
346.86207	9459.2125
351.04966	9643.8125
355.23424	9779.9125
359.4158	9926.0125
363.59435	10069.1125
367.76989	10119.5125
371.94243	10184.3125
376.11196	10251.3125
380.27849	10311.3125
384.44203	10373.6125
388.60257	10444.5125
392.76012	10535.4125
396.91468	10667.3125
401.06626	10798.7125
405.21485	10922.7125
409.36047	10880.2125
413.50311	10721.7125
417.64277	10603.2125
421.77947	10596.2125
425.9132	10616.3125
430.04396	10668.7125
434.17176	10728.9125
438.2966	10787.1125
442.41849	10952.6125
446.53742	11159.4125
450.6534	11392.3125
454.76644	11599.8125
458.87653	11706.7125
462.98368	11728.8125
467.08789	11692.2125
471.18916	11618.0125
475.2875	11557.5125
479.38291	11515.1125
483.4754	11460.4125
487.56496	11371.5125
491.6516	11170.6125
495.73531	11030.9125
499.81612	10961.3125
503.89401	10994.9125
507.96899	11022.5125
512.04106	10982.5125
516.11023	10958.4125
520.1765	10875.3125
524.23987	10795.3125
528.30034	10675.1125
532.35792	10593.3125
536.41261	10520.2125
540.46441	10439.2125
544.51333	10478.4125
548.55936	10603.9125
552.60252	10818.8125
556.64279	11015.6125
560.6802	11144.5125
564.71473	11206.7125
568.7464	11361.9125
572.7752	11551.1125
576.80114	11724.5125
580.82422	11875.0125
584.84444	12007.6125
588.86181	12097.3125
592.87633	12136.8125
596.888	12164.0125
600.89682	12168.1125
604.9028	12443.0125
608.90594	13227.5125
612.90624	13995.1125
616.90371	13309.9125
620.89834	11600.4125
624.89015	10883.9125
628.87913	10843.4125
632.86528	10926.3125
636.84862	10911.3125
640.82913	10788.0125
644.80683	10609.0125
648.78172	10436.0125
652.75379	10340.5125
656.72306	10395.6125
660.68952	10488.4125
664.65319	10493.8125
668.61405	10368.4125
672.57211	10329.7125
676.52738	10342.2125
680.47986	10355.6125
684.42955	10361.1125
688.37646	10318.5125
692.32058	10282.8125
696.26192	10367.8125
700.20048	10414.2125
704.13626	10481.4125
708.06928	10474.8125
711.99952	10462.3125
715.927	10442.4125
719.85171	10416.6125
723.77365	10433.2125
727.69284	10360.7125
731.60928	10244.8125
735.52295	10238.0125
739.43388	10218.2125
743.34206	10233.6125
747.24749	10269.8125
751.15017	10352.8125
755.05012	10478.2125
758.94733	10737.5125
762.8418	11198.8125
766.73354	11830.4125
770.62254	12502.3125
774.50882	12689.4125
778.39237	12188.2125
782.27321	11449.6125
786.15132	10803.9125
790.02671	10469.5125
793.89938	10283.8125
797.76935	10205.7125
801.6366	10181.9125
805.50115	10162.0125
809.36299	10114.5125
813.22213	10064.2125
817.07857	10036.6125
820.93231	9995.6125
824.78336	9985.9125
828.63172	9953.6125
832.47738	9954.8125
836.32036	9956.3125
840.16066	9975.9125
843.99827	10003.7125
847.8332	10019.2125
851.66546	9943.6125
855.49504	9943.0125
859.32195	9933.3125
863.1462	9922.0125
866.96777	9907.9125
870.78668	9883.9125
874.60293	9854.5125
878.41652	9835.9125
882.22745	9876.4125
886.03573	9907.8125
889.84136	9899.9125
893.64433	9860.8125
897.44466	9840.2125
901.24235	9818.8125
905.0374	9793.3125
908.8298	9747.7125
912.61957	9773.0125
916.40671	9860.8125
920.19121	9961.9125
923.97308	10048.3125
927.75233	10039.6125
931.52895	9980.3125
935.30295	9921.2125
939.07433	9745.9125
942.84309	9649.8125
946.60924	9566.0125
950.37278	9533.7125
954.13371	9491.4125
957.89203	9491.0125
961.64774	9476.3125
965.40086	9438.8125
969.15137	9405.8125
972.89929	9365.4125
976.64461	9327.6125
980.38733	9331.7125
984.12747	9343.5125
987.86502	9392.7125
991.59999	9475.2125
995.33237	9590.8125
999.06217	9804.8125
1002.78939	10033.9125
1006.51404	10130.3125
1010.23611	10148.6125
1013.95561	10220.5125
1017.67255	10232.0125
1021.38692	10196.0125
1025.09872	10109.7125
1028.80796	10155.0125
1032.51465	10311.2125
1036.21877	10501.9125
1039.92035	10564.6125
1043.61937	10490.0125
1047.31584	10320.4125
1051.00976	10177.3125
1054.70114	10126.9125
1058.38998	10140.3125
1062.07627	10212.5125
1065.76003	10293.5125
1069.44126	10373.7125
1073.11995	10439.7125
1076.79611	10526.0125
1080.46974	10571.0125
1084.14085	10603.0125
1087.80943	10678.6125
1091.47549	10720.7125
1095.13903	10733.2125
1098.80005	10650.5125
1102.45857	10490.4125
1106.11456	10348.6125
1109.76805	10249.0125
1113.41903	10299.2125
1117.06751	10324.8125
1120.71348	10417.5125
1124.35696	10514.3125
1127.99793	10584.5125
1131.63641	10707.7125
1135.2724	10632.9125
1138.90589	10536.2125
1142.5369	10516.9125
1146.16542	10521.5125
1149.79145	10538.2125
1153.415	10642.5125
1157.03607	10774.5125
1160.65467	10982.3125
1164.27079	11346.7125
1167.88443	11812.3125
1171.49561	12415.3125
1175.10432	13170.8125
1178.71056	14070.5125
1182.31434	14986.2125
1185.91565	15497.6125
1189.51451	15557.5125
1193.11091	15257.1125
1196.70485	14749.6125
1200.29634	14202.1125
1203.88538	13746.9125
1207.47197	13438.3125
1211.05612	13166.8125
1214.63782	12906.5125
1218.21708	12713.0125
1221.79391	12528.6125
1225.36829	12394.2125
1228.94024	12240.7125
1232.50976	12061.8125
1236.07685	11917.6125
1239.6415	11821.9125
1243.20374	11824.6125
1246.76355	11897.7125
1250.32093	12023.3125
1253.8759	12207.7125
1257.42845	12486.6125
1260.97859	12753.2125
1264.52631	12990.2125
1268.07163	13288.8125
1271.61453	13569.5125
1275.15503	13926.2125
1278.69312	14290.9125
1282.22882	14632.3125
1285.76211	14944.5125
1289.29301	15316.4125
1292.82151	15838.9125
1296.34761	16517.8125
1299.87133	17319.1125
1303.39266	18210.8125
1306.9116	19162.5125
1310.42815	20032.4125
1313.94233	20583.5125
1317.45412	20567.4125
1320.96354	20250.7125
1324.47058	19952.6125
1327.97525	19695.2125
1331.47754	19504.9125
1334.97747	19401.5125
1338.47502	19395.3125
1341.97022	19407.5125
1345.46305	19304.4125
1348.95352	19117.2125
1352.44163	18871.6125
1355.92738	18862.1125
1359.41078	19176.8125
1362.89183	19636.5125
1366.37053	19328.4125
1369.84688	18020.0125
1373.32088	16492.7125
1376.79254	15380.5125
1380.26186	14883.2125
1383.72883	14852.9125
1387.19347	14943.7125
1390.65578	14862.1125
1394.11575	14865.6125
1397.57339	14990.0125
1401.0287	15198.8125
1404.48168	15371.3125
1407.93234	15352.1125
1411.38068	15128.4125
1414.82669	14665.0125
1418.27039	14064.4125
1421.71177	13553.1125
1425.15083	13089.9125
1428.58758	12807.5125
1432.02203	12795.5125
1435.45416	12965.5125
1438.88399	13277.3125
1442.31151	13585.4125
1445.73673	13808.4125
1449.15965	14020.3125
1452.58027	14208.6125
1455.9986	14330.8125
1459.41463	14478.6125
1462.82837	14625.9125
1466.23982	14847.1125
1469.64898	15003.6125
1473.05586	15104.0125
1476.46045	15076.7125
1479.86276	14963.0125
1483.26279	14779.8125
1486.66054	14660.6125
1490.05602	14632.1125
1493.44922	14694.6125
1496.84016	14828.4125
1500.22882	15093.7125
1503.61521	15589.1125
1506.99934	16145.4125
1510.38121	16687.4125
1513.76081	16869.1125
1517.13816	16603.6125
1520.51324	16087.1125
1523.88607	15601.0125
1527.25665	15281.4125
1530.62498	15173.5125
1533.99105	15106.2125
1537.35488	14978.4125
1540.71647	14769.4125
1544.07581	14578.0125
1547.4329	14315.2125
1550.78776	14029.7125
1554.14038	13885.1125
1557.49077	13827.8125
1560.83892	13805.8125
1564.18484	13808.2125
1567.52853	13859.2125
1570.86999	13953.8125
1574.20922	14144.0125
1577.54624	14343.0125
1580.88103	14383.2125
1584.2136	14408.5125
1587.54395	14607.2125
1590.87208	15035.0125
1594.19801	15681.2125
1597.52172	16372.6125
1600.84321	16598.5125
1604.16251	16040.6125
1607.47959	15093.2125
1610.79447	14085.8125
1614.10715	13095.7125
1617.41763	12270.2125
1620.7259	11666.0125
1624.03199	11265.2125
1627.33587	11207.4125
1630.63757	11399.6125
1633.93707	11889.5125
1637.23439	12712.3125
1640.52951	13910.0125
1643.82246	15265.3125
1647.11321	16387.3125
1650.40179	16744.2125
1653.68819	15968.8125
1656.97241	14442.5125
1660.25446	12734.0125
1663.53433	11367.7125
1666.81203	10463.6125
1670.08756	9865.6125
1673.36092	9489.5125
1676.63211	9261.3125
1679.90115	9053.2125
1683.16801	8936.7125
1686.43272	8816.6125
1689.69527	8742.2125
1692.95567	8680.8125
1696.2139	8598.5125
1699.46999	8547.0125
1702.72392	8483.2125
1705.97571	8500.9125
1709.22535	8528.3125
1712.47284	8534.5125
1715.71819	8519.4125
1718.96139	8535.9125
1722.20246	8491.8125
1725.44139	8481.4125
1728.67818	8436.7125
1731.91284	8394.7125
1735.14537	8356.9125
1738.37576	8320.2125
1741.60403	8311.9125
1744.83017	8268.6125
1748.05418	8265.6125
1751.27607	8224.3125
1754.49584	8214.4125
1757.71349	8182.9125
1760.92903	8146.4125
1764.14244	8148.3125
1767.35375	8162.5125
1770.56294	8113.6125
1773.77002	8103.2125
1776.97499	8107.9125
1780.17785	8099.3125
1783.37861	8112.9125
1786.57727	8089.3125
1789.77382	8082.0125
1792.96828	8066.1125
1796.16064	8046.2125
1799.3509	8014.2125
1802.53907	8015.8125
1805.72514	8004.6125
1808.90913	7987.4125
1812.09102	7987.7125
1815.27083	7972.7125
1818.44856	7935.2125
1821.6242	7925.2125
1824.79776	7900.4125
1827.96924	7878.4125
1831.13864	7885.1125
1834.30597	7906.7125
1837.47122	7900.0125
1840.6344	7897.8125
1843.7955	7894.9125
1846.95454	7877.1125
1850.11151	7850.4125
1853.26642	7865.7125
1856.41926	7879.1125
1859.57004	7871.9125
1862.71876	7846.6125
1865.86542	7864.4125
1869.01003	7849.3125
1872.15258	7853.9125
1875.29308	7818.4125
1878.43152	7806.4125
1881.56792	7814.6125
1884.70227	7809.2125
1887.83457	7764.9125
1890.96482	7781.1125
1894.09304	7770.5125
1897.21921	7753.3125
1900.34335	7758.6125
1903.46544	7740.4125
1906.58551	7744.2125
1909.70353	7730.8125
1912.81953	7713.2125
1915.93349	7709.3125
1919.04543	7705.2125
1922.15534	7699.0125
1925.26322	7658.6125
1928.36908	7662.5125
1931.47292	7635.6125
1934.57473	7629.0125
1937.67453	7626.6125
1940.77232	7589.3125
1943.86808	7579.6125
1946.96184	7539.9125
1950.05358	7510.0125
1953.14331	7483.2125
1956.23103	7469.4125
1959.31675	7438.2125
1962.40046	7428.9125
1965.48217	7411.0125
1968.56188	7397.8125
1971.63959	7374.3125
1974.7153	7357.5125
1977.78901	7338.1125
1980.86073	7306.7125
1983.93046	7290.5125
1986.99819	7253.1125
1990.06394	7251.7125
1993.1277	7228.0125
1996.18947	7190.6125
1999.24925	7183.6125
2002.30706	7175.4125
2005.36288	7149.6125
2008.41672	7110.1125
2011.46859	7083.0125
2014.51848	7099.9125
2017.56639	7069.7125
2020.61233	7044.2125
2023.6563	7052.8125
2026.6983	7034.5125
2029.73833	7003.6125
2032.7764	6975.0125
2035.8125	6987.4125
2038.84664	6961.7125
2041.87881	6945.9125
2044.90903	6934.4125
2047.93729	6943.5125
2050.96359	6936.1125
2053.98794	6883.1125
2057.01034	6900.5125
2060.03078	6901.2125
2063.04927	6903.6125
2066.06582	6903.7125
2069.08042	6882.3125
2072.09307	6877.9125
2075.10378	6868.1125
2078.11255	6879.3125
2081.11938	6873.3125
2084.12426	6864.2125
2087.12722	6859.3125
2090.12824	6840.6125
2093.12732	6863.6125
2096.12447	6858.1125
2099.11969	6829.6125
2102.11299	6842.2125
2105.10435	6852.9125
2108.09379	6854.1125
2111.08131	6878.3125
2114.0669	6857.4125
2117.05057	6886.1125
2120.03233	6862.0125
2123.01216	6874.4125
2125.99008	6909.6125
2128.96609	6908.7125
2131.94018	6918.2125
2134.91236	6917.9125
2137.88263	6913.9125
2140.851	6898.6125
2143.81746	6946.1125
2146.78201	6903.7125
2149.74466	6913.4125
2152.7054	6925.0125
2155.66425	6921.1125
2158.6212	6920.4125
2161.57625	6907.6125
2164.52941	6900.5125
2167.48067	6922.6125
2170.43004	6921.1125
2173.37752	6912.0125
2176.32311	6922.4125
2179.26681	6904.2125
2182.20863	6925.9125
2185.14856	6901.9125
2188.08661	6919.2125
2191.02278	6922.2125
2193.95707	6907.5125
2196.88948	6903.9125
2199.82001	6893.6125
2202.74867	6887.3125
2205.67545	6895.2125
2208.60037	6876.5125
2211.52341	6875.9125
2214.44458	6860.3125
2217.36388	6859.2125
2220.28132	6842.4125
2223.1969	6833.6125
2226.11061	6814.2125
2229.02246	6805.9125
2231.93245	6799.3125
2234.84058	6790.9125
2237.74686	6780.8125
2240.65128	6760.9125
2243.55385	6747.0125
2246.45456	6744.6125
2249.35343	6738.3125
2252.25044	6723.9125
2255.14561	6718.9125
2258.03893	6709.7125
2260.93041	6693.2125
2263.82004	6688.3125
2266.70783	6659.1125
2269.59378	6647.5125
2272.4779	6632.9125
2275.36017	6613.0125
2278.24061	6611.7125
2281.11922	6605.2125
2283.996	6580.8125
2286.87094	6595.6125
2289.74405	6581.3125
2292.61534	6549.0125
2295.4848	6553.2125
2298.35243	6570.1125
2301.21824	6550.2125
2304.08223	6575.8125
2306.94439	6575.1125
2309.80474	6566.1125
2312.66327	6561.1125
2315.51999	6569.2125
2318.37489	6565.2125
2321.22797	6544.5125
2324.07925	6520.4125
2326.92871	6522.9125
2329.77637	6520.0125
2332.62222	6506.9125
2335.46626	6495.8125
2338.3085	6491.2125
2341.14893	6481.2125
2343.98756	6487.0125
2346.8244	6499.8125
2349.65943	6502.2125
2352.49267	6504.7125
2355.32411	6494.1125
2358.15376	6493.8125
2360.98161	6469.5125
2363.80768	6456.9125
2366.63195	6456.3125
2369.45444	6452.0125
2372.27514	6439.6125
2375.09405	6438.7125
2377.91118	6428.9125
2380.72652	6417.9125
2383.54009	6396.4125
2386.35187	6371.2125
2389.16188	6365.2125
2391.97011	6358.4125
2394.77657	6348.9125
2397.58125	6328.5125
2400.38416	6331.5125
2403.18529	6310.4125
2405.98466	6317.7125
2408.78226	6306.8125
2411.57809	6308.1125
2414.37216	6288.0125
2417.16446	6284.0125
2419.955	6255.9125
2422.74378	6277.4125
2425.5308	6253.9125
2428.31606	6252.1125
2431.09956	6256.7125
2433.88131	6244.2125
2436.6613	6238.3125
2439.43954	6249.3125
2442.21603	6252.8125
2444.99077	6242.2125
2447.76377	6259.6125
2450.53501	6233.2125
2453.30451	6233.3125
2456.07226	6215.9125
2458.83827	6242.8125
2461.60254	6223.5125
2464.36507	6205.2125
2467.12586	6235.3125
2469.88492	6210.9125
2472.64224	6216.1125
2475.39782	6214.4125
2478.15167	6210.3125
2480.90379	6209.0125
2483.65417	6211.1125
2486.40283	6213.5125
2489.14976	6214.9125
2491.89497	6219.9125
2494.63845	6204.6125
2497.3802	6206.5125
2500.12024	6213.9125
2502.85855	6200.4125
2505.59514	6198.9125
2508.33002	6195.0125
2511.06318	6183.4125
2513.79462	6197.2125
2516.52435	6171.0125
2519.25237	6172.5125
2521.97867	6162.6125
2524.70327	6163.9125
2527.42616	6149.5125
2530.14734	6149.8125
2532.86681	6133.0125
2535.58458	6132.7125
2538.30065	6136.0125
2541.01501	6141.8125
2543.72768	6122.3125
2546.43864	6112.6125
2549.14791	6103.8125
2551.85548	6096.9125
2554.56136	6075.3125
2557.26554	6083.0125
2559.96803	6071.9125
2562.66883	6067.1125
2565.36794	6051.2125
2568.06536	6073.6125
2570.7611	6066.8125
2573.45514	6040.8125
2576.14751	6047.0125
2578.83819	6024.2125
2581.52719	6046.0125
2584.21451	6016.9125
2586.90015	6013.7125
2589.58411	6001.4125
2592.2664	6020.0125
2594.94701	6001.4125
2597.62594	5997.5125
2600.30321	5982.7125
2602.9788	6000.9125
2605.65273	5980.2125
2608.32498	5981.7125
2610.99557	5975.7125
2613.66449	5997.5125
2616.33175	5953.1125
2618.99734	5980.3125
2621.66128	5950.6125
2624.32355	5967.5125
2626.98416	5965.5125
2629.64311	5962.7125
2632.30041	5968.0125
2634.95605	5948.4125
2637.61004	5938.5125
2640.26238	5942.2125
2642.91306	5939.0125
2645.56209	5945.4125
2648.20948	5930.1125
2650.85521	5912.2125
2653.4993	5930.9125
2656.14175	5929.3125
2658.78255	5906.0125
2661.42171	5942.6125
2664.05923	5926.0125
2666.6951	5940.5125
2669.32934	5938.5125
2671.96194	5915.3125
2674.59291	5940.5125
2677.22224	5921.0125
2679.84993	5934.2125
2682.476	5928.0125
2685.10043	5929.6125
2687.72324	5908.1125
2690.34441	5916.5125
2692.96396	5915.3125
2695.58188	5921.0125
2698.19818	5904.7125
2700.81285	5899.7125
2703.4259	5905.4125
2706.03733	5881.2125
2708.64714	5879.8125
2711.25533	5901.4125
2713.86191	5924.4125
2716.46687	5912.7125
2719.07021	5922.4125
2721.67194	5915.2125
2724.27206	5922.3125
2726.87057	5947.2125
2729.46747	5944.0125
2732.06276	5927.4125
2734.65644	5928.6125
2737.24852	5920.3125
2739.83899	5918.1125
2742.42786	5933.0125
2745.01513	5924.8125
2747.60079	5898.4125
2750.18486	5904.3125
2752.76733	5920.1125
2755.3482	5902.0125
2757.92747	5902.5125
2760.50515	5897.8125
2763.08123	5894.6125
2765.65573	5881.5125
2768.22863	5890.8125
2770.79994	5888.9125
2773.36967	5874.6125
2775.9378	5858.8125
2778.50435	5855.8125
2781.06932	5869.3125
2783.6327	5874.2125
2786.1945	5864.0125
2788.75471	5856.8125
2791.31335	5842.2125
2793.87041	5833.3125
2796.42589	5823.9125
2798.97979	5831.1125
2801.53212	5828.9125
2804.08288	5806.5125
2806.63206	5798.3125
2809.17967	5801.7125
2811.72571	5790.1125
2814.27018	5778.1125
2816.81308	5753.7125
2819.35442	5760.8125
2821.89419	5753.8125
2824.43239	5764.5125
2826.96904	5743.4125
2829.50412	5740.6125
2832.03763	5714.0125
2834.56959	5730.1125
2837.1	5720.8125
2839.62884	5710.4125
2842.15613	5724.9125
2844.68186	5741.8125
2847.20604	5744.3125
2849.72867	5749.3125
2852.24974	5738.7125
2854.76927	5749.9125
2857.28724	5733.2125
2859.80367	5715.7125
2862.31855	5724.8125
2864.83189	5712.6125
2867.34368	5701.5125
2869.85393	5697.6125
2872.36264	5702.1125
2874.8698	5694.0125
2877.37543	5688.8125
2879.87952	5697.7125
2882.38207	5684.0125
2884.88308	5694.1125
2887.38256	5685.3125
2889.88051	5691.1125
2892.37692	5688.1125
2894.8718	5708.1125
2897.36515	5706.6125
2899.85698	5704.5125
2902.34727	5739.5125
2904.83604	5744.5125
2907.32328	5725.5125
2909.809	5722.8125
2912.29319	5744.6125
2914.77587	5749.4125
2917.25702	5742.9125
2919.73665	5749.0125
2922.21476	5748.8125
2924.69136	5740.1125
2927.16644	5737.6125
2929.64	5717.4125
2932.11205	5726.1125
2934.58258	5706.4125
2937.05161	5732.1125
2939.51912	5711.7125
2941.98513	5708.3125
2944.44962	5688.1125
2946.91261	5674.1125
2949.37409	5701.9125
2951.83407	5691.8125
2954.29254	5688.0125
2956.74951	5665.8125
2959.20498	5688.2125
2961.65895	5660.7125
2964.11142	5683.1125
2966.56239	5629.9125
2969.01186	5640.3125
2971.45984	5626.2125
2973.90632	5627.8125
2976.35131	5609.8125
2978.7948	5605.6125
2981.23681	5609.4125
2983.67732	5592.2125
2986.11635	5594.6125
2988.55388	5576.3125
2990.98993	5539.5125
2993.4245	5534.0125
2995.85758	5549.4125
2998.28917	5544.8125
3000.71928	5515.4125
3003.14791	5500.6125
3005.57506	5511.4125
3008.00073	5507.1125
3010.42493	5478.2125
3012.84764	5494.7125
3015.26888	5469.9125
3017.68865	5485.0125
3020.10694	5469.7125
3022.52376	5451.6125
3024.9391	5446.6125
3027.35298	5445.5125
3029.76539	5445.5125
3032.17632	5424.7125
3034.5858	5430.6125
3036.9938	5428.1125
3039.40034	5430.7125
3041.80542	5442.4125
3044.20903	5421.2125
3046.61118	5426.9125
3049.01187	5419.7125
3051.4111	5414.2125
3053.80888	5410.6125
3056.20519	5403.1125
3058.60005	5383.3125
3060.99345	5384.2125
3063.3854	5360.6125
3065.7759	5344.2125
3068.16494	5341.2125
3070.55254	5329.0125
3072.93868	5329.6125
3075.32338	5296.4125
3077.70662	5311.9125
3080.08842	5302.0125
3082.46878	5313.0125
3084.84769	5295.6125
3087.22515	5304.9125
