Data from AgNPs_FTO_APTES_UA_1uM_CRN_0uM_R6G_10uM_NaF_0.1M_Addition_RamanShift__50__12-03-59-469.txt Node

Date: Thu Jan 27 12:03:59 GMT 2022
User: TCL
Spectrometer: QEP01345
Trigger mode: 4
Integration Time (sec): 7.000000E0
Scans to average: 10
Electric dark correction enabled: true
Nonlinearity correction enabled: false
Boxcar width: 0
XAxis mode: Raman Shifts
Number of Pixels in Spectrum: 1044
>>>>>Begin Spectral Data<<<<<
46.04893	-0.175
50.45542	1.125
54.85868	0.025
59.25871	-1.575
63.6555	36.725
68.04907	40.225
72.43941	42.125
76.82654	44.325
81.21044	47.425
85.59113	46.425
89.96862	48.925
94.34289	48.925
98.71396	53.725
103.08183	53.425
107.4465	52.825
111.80798	59.625
116.16626	55.325
120.52136	63.425
124.87327	60.125
129.222	59.325
133.56755	61.425
137.90993	60.625
142.24913	70.425
146.58517	77.025
150.91804	82.725
155.24774	98.325
159.57429	113.925
163.89768	141.925
168.21792	185.425
172.53501	240.025
176.84895	323.025
181.15975	452.125
185.46741	623.525
189.77193	853.125
194.07331	1137.225
198.37157	1461.625
202.6667	1817.525
206.9587	2156.725
211.24758	2501.825
215.53334	2856.725
219.81599	3252.425
224.09553	3678.125
228.37195	4156.725
232.64527	4676.125
236.91549	5206.325
241.18261	5695.725
245.44663	6113.725
249.70755	6460.825
253.96539	6774.325
258.22014	7046.425
262.4718	7302.925
266.72039	7468.825
270.96589	7579.025
275.20832	7584.325
279.44768	7534.125
283.68397	7437.525
287.91719	7376.825
292.14735	7368.425
296.37445	7424.025
300.59849	7629.525
304.81948	7876.725
309.03742	8058.725
313.25231	8063.125
317.46415	7755.525
321.67296	7265.925
325.87872	6860.825
330.08145	6694.225
334.28114	6640.725
338.47781	6754.525
342.67145	6932.025
346.86207	7183.625
351.04966	7539.525
355.23424	7968.525
359.4158	8327.625
363.59435	8507.225
367.76989	8546.225
371.94243	8547.625
376.11196	8498.125
380.27849	8487.825
384.44203	8420.325
388.60257	8354.425
392.76012	8299.725
396.91468	8442.825
401.06626	8658.225
405.21485	8837.625
409.36047	8752.325
413.50311	8413.725
417.64277	8119.925
421.77947	7945.925
425.9132	7881.625
430.04396	7892.825
434.17176	7952.625
438.2966	8069.525
442.41849	8306.125
446.53742	8600.325
450.6534	8906.925
454.76644	9126.225
458.87653	9150.225
462.98368	9045.225
467.08789	8873.225
471.18916	8658.925
475.2875	8422.225
479.38291	8289.725
483.4754	8163.525
487.56496	8066.725
491.6516	7959.825
495.73531	7880.125
499.81612	7873.425
503.89401	7945.925
507.96899	8018.925
512.04106	8077.825
516.11023	8140.125
520.1765	8204.825
524.23987	8200.925
528.30034	8068.425
532.35792	7933.725
536.41261	7802.025
540.46441	7640.025
544.51333	7555.925
548.55936	7627.725
552.60252	7757.225
556.64279	7953.425
560.6802	8040.325
564.71473	8145.425
568.7464	8430.625
572.7752	8712.425
576.80114	8610.425
580.82422	8474.125
584.84444	8423.825
588.86181	8483.425
592.87633	8619.825
596.888	8756.225
600.89682	8997.225
604.9028	9659.925
608.90594	11558.025
612.90624	14089.925
616.90371	13707.925
620.89834	10209.125
624.89015	8476.425
628.87913	8126.825
632.86528	8104.325
636.84862	8116.325
640.82913	7970.625
644.80683	7716.425
648.78172	7516.825
652.75379	7551.125
656.72306	7799.625
660.68952	8154.825
664.65319	8136.925
668.61405	7808.425
672.57211	7646.625
676.52738	7635.425
680.47986	7629.925
684.42955	7570.125
688.37646	7555.525
692.32058	7589.525
696.26192	7634.125
700.20048	7711.725
704.13626	7803.225
708.06928	7778.225
711.99952	7700.025
715.927	7663.925
719.85171	7650.625
723.77365	7649.325
727.69284	7537.925
731.60928	7493.625
735.52295	7498.025
739.43388	7543.625
743.34206	7625.025
747.24749	7685.925
751.15017	7744.225
755.05012	7882.825
758.94733	8177.925
762.8418	8807.825
766.73354	9951.425
770.62254	11182.525
774.50882	11787.725
778.39237	11348.225
782.27321	10142.425
786.15132	8927.025
790.02671	8193.625
793.89938	7849.125
797.76935	7709.525
801.6366	7644.525
805.50115	7608.825
809.36299	7533.125
813.22213	7503.725
817.07857	7502.825
820.93231	7504.325
824.78336	7535.325
828.63172	7570.125
832.47738	7603.725
836.32036	7589.725
840.16066	7604.525
843.99827	7557.925
847.8332	7532.325
851.66546	7515.325
855.49504	7486.725
859.32195	7484.725
863.1462	7436.025
866.96777	7417.325
870.78668	7412.325
874.60293	7420.225
878.41652	7439.625
882.22745	7493.925
886.03573	7530.325
889.84136	7519.925
893.64433	7464.525
897.44466	7440.225
901.24235	7440.825
905.0374	7433.525
908.8298	7394.725
912.61957	7396.625
916.40671	7447.125
920.19121	7543.525
923.97308	7627.725
927.75233	7719.425
931.52895	7762.725
935.30295	7708.825
939.07433	7509.725
942.84309	7356.025
946.60924	7259.125
950.37278	7224.925
954.13371	7171.825
957.89203	7148.225
961.64774	7104.525
965.40086	7073.325
969.15137	7071.325
972.89929	7040.825
976.64461	7021.925
980.38733	7041.925
984.12747	7076.925
987.86502	7127.725
991.59999	7201.525
995.33237	7308.825
999.06217	7529.125
1002.78939	7816.225
1006.51404	8019.625
1010.23611	8217.525
1013.95561	8291.625
1017.67255	8292.325
1021.38692	8163.025
1025.09872	8008.225
1028.80796	7951.125
1032.51465	8051.125
1036.21877	8198.325
1039.92035	8254.325
1043.61937	8203.325
1047.31584	8061.525
1051.00976	7906.325
1054.70114	7823.725
1058.38998	7772.225
1062.07627	7775.025
1065.76003	7811.225
1069.44126	7874.625
1073.11995	7956.825
1076.79611	8061.425
1080.46974	8161.825
1084.14085	8280.425
1087.80943	8449.725
1091.47549	8507.725
1095.13903	8387.725
1098.80005	8157.825
1102.45857	7913.125
1106.11456	7811.225
1109.76805	7800.025
1113.41903	7938.825
1117.06751	8090.325
1120.71348	8311.225
1124.35696	8568.725
1127.99793	8850.825
1131.63641	8866.725
1135.2724	8622.925
1138.90589	8322.025
1142.5369	8134.125
1146.16542	8014.425
1149.79145	7940.925
1153.415	7953.625
1157.03607	8006.525
1160.65467	8165.825
1164.27079	8408.125
1167.88443	8820.225
1171.49561	9460.225
1175.10432	10493.425
1178.71056	11854.725
1182.31434	12988.825
1185.91565	13500.625
1189.51451	13406.825
1193.11091	12828.425
1196.70485	11918.225
1200.29634	11086.525
1203.88538	10426.025
1207.47197	9820.525
1211.05612	9347.025
1214.63782	9140.325
1218.21708	9097.625
1221.79391	9206.225
1225.36829	9322.025
1228.94024	9420.525
1232.50976	9447.125
1236.07685	9425.825
1239.6415	9378.825
1243.20374	9303.425
1246.76355	9242.925
1250.32093	9307.625
1253.8759	9505.825
1257.42845	9804.025
1260.97859	10099.925
1264.52631	10406.125
1268.07163	10679.825
1271.61453	10968.225
1275.15503	11235.925
1278.69312	11418.625
1282.22882	11583.125
1285.76211	11895.225
1289.29301	12272.525
1292.82151	12648.025
1296.34761	13072.925
1299.87133	13560.625
1303.39266	14348.725
1306.9116	15578.425
1310.42815	17131.725
1313.94233	18261.425
1317.45412	18375.325
1320.96354	17690.325
1324.47058	16691.725
1327.97525	15842.725
1331.47754	15298.225
1334.97747	14986.225
1338.47502	14938.525
1341.97022	14995.325
1345.46305	15066.025
1348.95352	15345.525
1352.44163	15900.025
1355.92738	16916.725
1359.41078	18545.325
1362.89183	20273.825
1366.37053	20178.125
1369.84688	17895.525
1373.32088	15266.025
1376.79254	13462.925
1380.26186	12640.525
1383.72883	12278.125
1387.19347	11957.325
1390.65578	11613.625
1394.11575	11325.625
1397.57339	11276.125
1401.0287	11455.725
1404.48168	11693.825
1407.93234	11968.225
1411.38068	12118.525
1414.82669	12072.325
1418.27039	11759.325
1421.71177	11361.825
1425.15083	11059.825
1428.58758	10923.525
1432.02203	10914.325
1435.45416	11041.125
1438.88399	11099.625
1442.31151	11163.225
1445.73673	11171.325
1449.15965	11212.025
1452.58027	11183.025
1455.9986	11082.725
1459.41463	11049.025
1462.82837	11105.025
1466.23982	11296.825
1469.64898	11500.525
1473.05586	11641.025
1476.46045	11739.025
1479.86276	11839.225
1483.26279	11968.425
1486.66054	12156.325
1490.05602	12408.925
1493.44922	12743.625
1496.84016	13170.825
1500.22882	13837.625
1503.61521	14740.825
1506.99934	15864.425
1510.38121	17065.725
1513.76081	17856.025
1517.13816	17392.825
1520.51324	15948.125
1523.88607	14316.925
1527.25665	13138.225
1530.62498	12440.325
1533.99105	12127.625
1537.35488	11859.325
1540.71647	11714.825
1544.07581	11593.525
1547.4329	11499.125
1550.78776	11313.625
1554.14038	11214.425
1557.49077	11202.325
1560.83892	11253.525
1564.18484	11372.325
1567.52853	11556.125
1570.86999	11683.425
1574.20922	11808.225
1577.54624	11830.925
1580.88103	11536.425
1584.2136	11124.725
1587.54395	10998.825
1590.87208	11393.025
1594.19801	12189.025
1597.52172	13235.925
1600.84321	13791.525
1604.16251	13504.625
1607.47959	12547.525
1610.79447	11409.525
1614.10715	10295.225
1617.41763	9474.725
1620.7259	8994.525
1624.03199	8775.525
1627.33587	8785.425
1630.63757	9033.725
1633.93707	9502.225
1637.23439	10244.225
1640.52951	11299.825
1643.82246	12483.625
1647.11321	13602.125
1650.40179	14174.425
1653.68819	13635.925
1656.97241	12029.925
1660.25446	10214.925
1663.53433	8834.225
1666.81203	8035.825
1670.08756	7565.725
1673.36092	7314.625
1676.63211	7136.025
1679.90115	7024.725
1683.16801	6898.625
1686.43272	6849.525
1689.69527	6797.625
1692.95567	6731.325
1696.2139	6695.025
1699.46999	6618.625
1702.72392	6613.625
1705.97571	6616.725
1709.22535	6656.825
1712.47284	6665.525
1715.71819	6727.725
1718.96139	6724.025
1722.20246	6724.125
1725.44139	6699.325
1728.67818	6653.125
1731.91284	6598.925
1735.14537	6553.425
1738.37576	6534.525
1741.60403	6504.025
1744.83017	6454.425
1748.05418	6425.125
1751.27607	6388.125
1754.49584	6401.225
1757.71349	6366.725
1760.92903	6354.125
1764.14244	6343.125
1767.35375	6321.025
1770.56294	6323.825
1773.77002	6317.725
1776.97499	6330.425
1780.17785	6328.925
1783.37861	6339.025
1786.57727	6331.625
1789.77382	6348.925
1792.96828	6329.525
1796.16064	6316.425
1799.3509	6326.525
1802.53907	6316.025
1805.72514	6293.325
1808.90913	6272.625
1812.09102	6261.525
1815.27083	6261.425
1818.44856	6259.225
1821.6242	6232.925
1824.79776	6228.425
1827.96924	6232.425
1831.13864	6202.425
1834.30597	6214.425
1837.47122	6205.025
1840.6344	6211.925
1843.7955	6216.325
1846.95454	6212.725
1850.11151	6208.225
1853.26642	6204.325
1856.41926	6205.925
1859.57004	6225.325
1862.71876	6230.525
1865.86542	6218.125
1869.01003	6244.825
1872.15258	6243.425
1875.29308	6246.625
1878.43152	6239.925
1881.56792	6261.625
1884.70227	6242.325
1887.83457	6249.525
1890.96482	6257.825
1894.09304	6256.925
1897.21921	6283.925
1900.34335	6272.025
1903.46544	6263.125
1906.58551	6286.325
1909.70353	6281.425
1912.81953	6258.225
1915.93349	6279.325
1919.04543	6261.525
1922.15534	6265.025
1925.26322	6249.625
1928.36908	6219.325
1931.47292	6203.325
1934.57473	6178.025
1937.67453	6149.625
1940.77232	6117.525
1943.86808	6080.125
1946.96184	6042.625
1950.05358	6019.025
1953.14331	5980.325
1956.23103	5960.225
1959.31675	5944.625
1962.40046	5918.525
1965.48217	5878.625
1968.56188	5860.125
1971.63959	5868.025
1974.7153	5844.625
1977.78901	5817.725
1980.86073	5810.225
1983.93046	5778.525
1986.99819	5764.725
1990.06394	5737.425
1993.1277	5716.925
1996.18947	5714.025
1999.24925	5709.725
2002.30706	5684.125
2005.36288	5648.825
2008.41672	5636.025
2011.46859	5625.925
2014.51848	5599.025
2017.56639	5599.725
2020.61233	5574.825
2023.6563	5583.125
2026.6983	5547.225
2029.73833	5548.125
2032.7764	5506.825
2035.8125	5525.725
2038.84664	5513.925
2041.87881	5498.325
2044.90903	5476.625
2047.93729	5468.625
2050.96359	5451.925
2053.98794	5468.125
2057.01034	5459.925
2060.03078	5458.125
2063.04927	5448.825
2066.06582	5430.425
2069.08042	5427.925
2072.09307	5446.725
2075.10378	5433.625
2078.11255	5416.525
2081.11938	5439.125
2084.12426	5421.425
2087.12722	5413.425
2090.12824	5405.625
2093.12732	5394.925
2096.12447	5407.625
2099.11969	5411.725
2102.11299	5406.125
2105.10435	5416.725
2108.09379	5412.925
2111.08131	5408.625
2114.0669	5412.625
2117.05057	5407.525
2120.03233	5402.025
2123.01216	5378.325
2125.99008	5399.325
2128.96609	5419.425
2131.94018	5422.025
2134.91236	5416.725
2137.88263	5410.725
2140.851	5423.825
2143.81746	5428.625
2146.78201	5427.525
2149.74466	5405.625
2152.7054	5409.925
2155.66425	5401.725
2158.6212	5409.125
2161.57625	5413.025
2164.52941	5407.025
2167.48067	5405.225
2170.43004	5403.725
2173.37752	5400.225
2176.32311	5379.425
2179.26681	5410.625
2182.20863	5388.825
2185.14856	5402.025
2188.08661	5393.625
2191.02278	5409.025
2193.95707	5395.325
2196.88948	5389.725
2199.82001	5381.725
2202.74867	5385.825
2205.67545	5373.725
2208.60037	5357.725
2211.52341	5362.125
2214.44458	5359.225
2217.36388	5340.825
2220.28132	5341.725
2223.1969	5323.025
2226.11061	5317.525
2229.02246	5299.125
2231.93245	5290.725
2234.84058	5285.325
2237.74686	5280.525
2240.65128	5272.625
2243.55385	5266.625
2246.45456	5256.925
2249.35343	5254.225
2252.25044	5239.225
2255.14561	5240.725
2258.03893	5229.825
2260.93041	5223.125
2263.82004	5200.825
2266.70783	5188.325
2269.59378	5192.625
2272.4779	5166.525
2275.36017	5164.225
2278.24061	5130.325
2281.11922	5137.525
2283.996	5129.725
2286.87094	5138.225
2289.74405	5108.325
2292.61534	5110.425
2295.4848	5090.725
2298.35243	5084.025
2301.21824	5087.525
2304.08223	5097.725
2306.94439	5098.825
2309.80474	5097.325
2312.66327	5089.825
2315.51999	5093.225
2318.37489	5077.025
2321.22797	5078.225
2324.07925	5071.425
2326.92871	5065.925
2329.77637	5066.325
2332.62222	5062.625
2335.46626	5039.825
2338.3085	5043.325
2341.14893	5046.625
2343.98756	5062.625
2346.8244	5050.425
2349.65943	5060.925
2352.49267	5045.825
2355.32411	5039.825
2358.15376	5057.425
2360.98161	5062.425
2363.80768	5045.125
2366.63195	5034.725
2369.45444	5049.425
2372.27514	5035.625
2375.09405	5042.325
2377.91118	5006.425
2380.72652	4992.725
2383.54009	4981.025
2386.35187	4965.025
2389.16188	4938.025
2391.97011	4932.825
2394.77657	4923.525
2397.58125	4910.325
2400.38416	4910.125
2403.18529	4900.425
2405.98466	4882.825
2408.78226	4874.325
2411.57809	4880.025
2414.37216	4850.625
2417.16446	4861.425
2419.955	4843.025
2422.74378	4862.225
2425.5308	4826.325
2428.31606	4843.625
2431.09956	4825.625
2433.88131	4827.825
2436.6613	4829.925
2439.43954	4815.625
2442.21603	4818.125
2444.99077	4818.725
2447.76377	4837.925
2450.53501	4812.325
2453.30451	4834.425
2456.07226	4824.725
2458.83827	4795.925
2461.60254	4799.625
2464.36507	4797.925
2467.12586	4789.625
2469.88492	4796.425
2472.64224	4797.225
2475.39782	4801.725
2478.15167	4795.925
2480.90379	4805.225
2483.65417	4808.725
2486.40283	4805.325
2489.14976	4812.925
2491.89497	4813.125
2494.63845	4814.125
2497.3802	4803.125
2500.12024	4810.325
2502.85855	4813.725
2505.59514	4798.125
2508.33002	4786.425
2511.06318	4780.525
2513.79462	4780.325
2516.52435	4761.725
2519.25237	4743.725
2521.97867	4750.025
2524.70327	4746.725
2527.42616	4743.525
2530.14734	4715.425
2532.86681	4708.825
2535.58458	4717.825
2538.30065	4710.325
2541.01501	4715.525
2543.72768	4706.825
2546.43864	4715.025
2549.14791	4715.725
2551.85548	4697.825
2554.56136	4694.525
2557.26554	4685.625
2559.96803	4667.425
2562.66883	4666.725
2565.36794	4687.225
2568.06536	4650.825
2570.7611	4659.425
2573.45514	4645.825
2576.14751	4647.825
2578.83819	4644.125
2581.52719	4631.225
2584.21451	4665.925
2586.90015	4640.725
2589.58411	4615.825
2592.2664	4623.525
2594.94701	4635.225
2597.62594	4614.025
2600.30321	4619.825
2602.9788	4621.125
2605.65273	4616.625
2608.32498	4614.025
2610.99557	4614.925
2613.66449	4613.025
2616.33175	4603.825
2618.99734	4606.025
2621.66128	4596.525
2624.32355	4595.625
2626.98416	4586.725
2629.64311	4583.825
2632.30041	4578.325
2634.95605	4587.625
2637.61004	4562.725
2640.26238	4553.625
2642.91306	4559.125
2645.56209	4550.325
2648.20948	4548.725
2650.85521	4531.325
2653.4993	4546.025
2656.14175	4554.425
2658.78255	4561.725
2661.42171	4551.425
2664.05923	4568.925
2666.6951	4558.325
2669.32934	4559.525
2671.96194	4575.425
2674.59291	4578.625
2677.22224	4562.725
2679.84993	4593.725
2682.476	4574.925
2685.10043	4576.725
2687.72324	4565.025
2690.34441	4563.925
2692.96396	4550.025
2695.58188	4584.025
2698.19818	4564.725
2700.81285	4560.725
2703.4259	4548.625
2706.03733	4538.225
2708.64714	4531.425
2711.25533	4555.925
2713.86191	4574.825
2716.46687	4564.925
2719.07021	4568.525
2721.67194	4585.525
2724.27206	4588.425
2726.87057	4602.725
2729.46747	4583.625
2732.06276	4579.925
2734.65644	4582.225
2737.24852	4578.525
2739.83899	4569.325
2742.42786	4578.025
2745.01513	4547.625
2747.60079	4560.625
2750.18486	4547.625
2752.76733	4559.925
2755.3482	4543.925
2757.92747	4555.525
2760.50515	4539.425
2763.08123	4535.525
2765.65573	4528.925
2768.22863	4531.125
2770.79994	4524.525
2773.36967	4531.525
2775.9378	4539.825
2778.50435	4543.325
2781.06932	4523.225
2783.6327	4534.125
2786.1945	4536.925
2788.75471	4523.725
2791.31335	4526.125
2793.87041	4533.025
2796.42589	4515.825
2798.97979	4515.925
2801.53212	4502.125
2804.08288	4510.125
2806.63206	4504.025
2809.17967	4496.825
2811.72571	4488.025
2814.27018	4493.725
2816.81308	4494.525
2819.35442	4495.525
2821.89419	4493.525
2824.43239	4489.125
2826.96904	4509.225
2829.50412	4501.625
2832.03763	4512.125
2834.56959	4487.425
2837.1	4512.825
2839.62884	4522.325
2842.15613	4533.825
2844.68186	4575.925
2847.20604	4607.225
2849.72867	4640.225
2852.24974	4650.125
2854.76927	4633.625
2857.28724	4632.825
2859.80367	4611.925
2862.31855	4604.925
2864.83189	4591.125
2867.34368	4586.925
2869.85393	4572.125
2872.36264	4576.125
2874.8698	4564.725
2877.37543	4559.725
2879.87952	4570.425
2882.38207	4555.325
2884.88308	4549.125
2887.38256	4562.225
2889.88051	4540.825
2892.37692	4555.125
2894.8718	4559.725
2897.36515	4567.125
2899.85698	4574.825
2902.34727	4575.225
2904.83604	4571.625
2907.32328	4574.025
2909.809	4567.425
2912.29319	4556.225
2914.77587	4553.625
2917.25702	4551.125
2919.73665	4554.925
2922.21476	4537.125
2924.69136	4528.225
2927.16644	4529.325
2929.64	4543.525
2932.11205	4524.225
2934.58258	4489.225
2937.05161	4508.125
2939.51912	4499.225
2941.98513	4469.925
2944.44962	4447.825
2946.91261	4408.525
2949.37409	4411.625
2951.83407	4379.325
2954.29254	4365.125
2956.74951	4359.425
2959.20498	4343.925
2961.65895	4330.425
2964.11142	4339.425
2966.56239	4288.725
2969.01186	4309.325
2971.45984	4286.325
2973.90632	4271.925
2976.35131	4279.725
2978.7948	4251.525
2981.23681	4222.825
2983.67732	4224.925
2986.11635	4217.125
2988.55388	4197.625
2990.98993	4166.525
2993.4245	4164.925
2995.85758	4158.025
2998.28917	4149.025
3000.71928	4123.825
3003.14791	4139.325
3005.57506	4107.925
3008.00073	4115.725
3010.42493	4099.125
3012.84764	4096.725
3015.26888	4089.425
3017.68865	4096.725
3020.10694	4087.525
3022.52376	4073.325
3024.9391	4068.425
3027.35298	4051.525
3029.76539	4059.725
3032.17632	4052.625
3034.5858	4043.925
3036.9938	4053.925
3039.40034	4059.625
3041.80542	4040.725
3044.20903	4036.925
3046.61118	4034.225
3049.01187	4005.725
3051.4111	4016.425
3053.80888	4008.425
3056.20519	3996.925
3058.60005	3985.425
3060.99345	3985.725
3063.3854	3967.925
3065.7759	3959.825
3068.16494	3950.625
3070.55254	3937.225
3072.93868	3950.525
3075.32338	3934.925
3077.70662	3925.925
3080.08842	3913.625
3082.46878	3913.025
3084.84769	3901.925
3087.22515	3889.425
3089.60118	3885.025
3091.97576	3883.225
3094.3489	3892.225
3096.72061	3897.125
3099.09087	3879.125
3101.4597	3884.025
3103.82709	3876.225
3106.19305	3868.225
3108.55757	3877.025
3110.92066	3878.725
3113.28232	3860.025
3115.64255	3859.225
3118.00134	3857.425
3120.35871	3841.325
3122.71466	3839.125
3125.06917	3835.625
3127.42226	3831.925
3129.77393	3833.525
3132.12417	3832.625
3134.47299	3835.625
3136.82039	3830.425
3139.16636	3842.925
3141.51092	3828.625
3143.85406	3862.425
3146.19579	3840.525
3148.53609	3849.225
3150.87499	3853.225
3153.21246	3872.525
3155.54853	3875.125
3157.88318	3875.425
3160.21642	3875.725
3162.54826	3868.225
3164.87868	3859.325
3167.2077	3868.825
3169.5353	3878.525
3171.86151	3870.425
3174.18631	3894.325
3176.5097	3878.525
3178.83169	3879.525
3181.15228	3874.825
3183.47147	3869.025
3185.78926	3856.025
3188.10565	3873.125
3190.42065	3878.425
3192.73424	3876.825
3195.04645	3868.225
3197.35725	3882.825
3199.66667	3877.325
3201.97469	3887.725
3204.28132	3885.625
3206.58656	3888.125
3208.8904	3884.625
3211.19287	3898.625
3213.49394	3901.425
3215.79363	3901.225
3218.09193	3919.725
3220.38884	3903.625
