Data from AgNPs_FTO_APTES_UA_1uM_CRN_10uM_R6G_50uM_NaF_0.1M_Addition_RamanShift__11__15-53-49-732.txt Node

Date: Thu Jan 27 15:53:49 GMT 2022
User: TCL
Spectrometer: QEP01345
Trigger mode: 4
Integration Time (sec): 7.000000E0
Scans to average: 10
Electric dark correction enabled: true
Nonlinearity correction enabled: false
Boxcar width: 0
XAxis mode: Raman Shifts
Number of Pixels in Spectrum: 1044
>>>>>Begin Spectral Data<<<<<
46.04893	1.7
50.45542	-0.1
54.85868	-1.2
59.25871	-2
63.6555	45.7
68.04907	49.6
72.43941	47.3
76.82654	54.7
81.21044	56.3
85.59113	58
89.96862	58.2
94.34289	61.5
98.71396	65.2
103.08183	63.7
107.4465	68.3
111.80798	67.8
116.16626	67.3
120.52136	74
124.87327	74.9
129.222	75.1
133.56755	76.2
137.90993	87.1
142.24913	90.9
146.58517	101.6
150.91804	115.8
155.24774	134
159.57429	163.6
163.89768	206.3
168.21792	273
172.53501	372
176.84895	506.8
181.15975	706.3
185.46741	992.6
189.77193	1371.2
194.07331	1831.1
198.37157	2375.9
202.6667	2955.8
206.9587	3524
211.24758	4071.9
215.53334	4608.3
219.81599	5168.7
224.09553	5778.8
228.37195	6479.8
232.64527	7206.9
236.91549	8004.1
241.18261	8817
245.44663	9601.1
249.70755	10366.6
253.96539	10977.8
258.22014	11537.8
262.4718	11971.4
266.72039	12281.8
270.96589	12452.9
275.20832	12483.9
279.44768	12452.6
283.68397	12339.5
287.91719	12254.3
292.14735	12169.5
296.37445	12147.8
300.59849	12128.7
304.81948	12109.7
309.03742	12092.3
313.25231	11980.8
317.46415	11850.2
321.67296	11653.2
325.87872	11481.2
330.08145	11426.1
334.28114	11404.6
338.47781	11491.4
342.67145	11612.1
346.86207	11745.5
351.04966	11905
355.23424	12035.2
359.4158	12168.3
363.59435	12305.9
367.76989	12396.6
371.94243	12490.7
376.11196	12515.3
380.27849	12554.7
384.44203	12623.1
388.60257	12687.4
392.76012	12805.3
396.91468	12958.4
401.06626	13128.1
405.21485	13251.9
409.36047	13232.1
413.50311	13140.6
417.64277	13081.2
421.77947	13075.4
425.9132	13163.2
430.04396	13237.9
434.17176	13284.9
438.2966	13366.4
442.41849	13456.6
446.53742	13642.7
450.6534	13882.5
454.76644	14037.6
458.87653	14131.1
462.98368	14131.7
467.08789	14117.5
471.18916	14078.5
475.2875	13987.4
479.38291	13963.4
483.4754	13903.2
487.56496	13810.2
491.6516	13689.4
495.73531	13555.8
499.81612	13507.7
503.89401	13525.7
507.96899	13579.7
512.04106	13609.6
516.11023	13576.9
520.1765	13484.8
524.23987	13381.1
528.30034	13283.2
532.35792	13220.6
536.41261	13139.7
540.46441	13063.2
544.51333	13069.5
548.55936	13168.3
552.60252	13342.1
556.64279	13529.5
560.6802	13657.5
564.71473	13779.4
568.7464	13910.9
572.7752	14186
576.80114	14543.3
580.82422	14879.6
584.84444	15156.4
588.86181	15364.4
592.87633	15604.6
596.888	15533.7
600.89682	15260.7
604.9028	15147.1
608.90594	15585.5
612.90624	16117.5
616.90371	15450.4
620.89834	14017.8
624.89015	13382.1
628.87913	13343.3
632.86528	13435.9
636.84862	13509.9
640.82913	13406.1
644.80683	13191.9
648.78172	13081
652.75379	13043.3
656.72306	13084.9
660.68952	13211.6
664.65319	13206.8
668.61405	13107.4
672.57211	13082.9
676.52738	13118.1
680.47986	13110.7
684.42955	13093.9
688.37646	13046.2
692.32058	13067.1
696.26192	13134.3
700.20048	13261.9
704.13626	13355.6
708.06928	13411.3
711.99952	13382.7
715.927	13366.3
719.85171	13296
723.77365	13263.3
727.69284	13147.4
731.60928	13044.6
735.52295	12976
739.43388	12963.7
743.34206	12949.6
747.24749	13032.9
751.15017	13109.9
755.05012	13246.1
758.94733	13487.1
762.8418	13855.4
766.73354	14473.3
770.62254	14997.4
774.50882	15067.5
778.39237	14655.4
782.27321	14064.8
786.15132	13563.2
790.02671	13225.4
793.89938	13055
797.76935	12982.5
801.6366	12927.1
805.50115	12860.5
809.36299	12833
813.22213	12771.8
817.07857	12785.8
820.93231	12755.7
824.78336	12753
828.63172	12712.6
832.47738	12668
836.32036	12659.9
840.16066	12650.9
843.99827	12623.6
847.8332	12651.4
851.66546	12665.9
855.49504	12655.3
859.32195	12679.4
863.1462	12669
866.96777	12647.7
870.78668	12646.9
874.60293	12649.5
878.41652	12635.1
882.22745	12656.7
886.03573	12695.9
889.84136	12704.6
893.64433	12693.1
897.44466	12640.5
901.24235	12645.5
905.0374	12618.6
908.8298	12602.1
912.61957	12611.9
916.40671	12682.8
920.19121	12770.9
923.97308	12851.6
927.75233	12837.2
931.52895	12721.5
935.30295	12587.1
939.07433	12462.3
942.84309	12364.6
946.60924	12276.7
950.37278	12237.5
954.13371	12222.2
957.89203	12212.6
961.64774	12176.8
965.40086	12176.2
969.15137	12167.2
972.89929	12120.5
976.64461	12106
980.38733	12054.8
984.12747	12033
987.86502	12045.2
991.59999	12091.3
995.33237	12109.8
999.06217	12200.9
1002.78939	12315.8
1006.51404	12434.2
1010.23611	12529.5
1013.95561	12652.8
1017.67255	12642.3
1021.38692	12615.6
1025.09872	12518.4
1028.80796	12412
1032.51465	12370.7
1036.21877	12376.6
1039.92035	12418
1043.61937	12474.3
1047.31584	12489
1051.00976	12547.1
1054.70114	12585.7
1058.38998	12644.2
1062.07627	12766.9
1065.76003	12897.6
1069.44126	13043.8
1073.11995	13155
1076.79611	13260.3
1080.46974	13334.6
1084.14085	13336.9
1087.80943	13373.5
1091.47549	13434.9
1095.13903	13480.3
1098.80005	13430.3
1102.45857	13249.2
1106.11456	13053.4
1109.76805	12897.5
1113.41903	12837.5
1117.06751	12843.6
1120.71348	12924.9
1124.35696	13005.2
1127.99793	13113.3
1131.63641	13170
1135.2724	13150.9
1138.90589	13088.7
1142.5369	13121.4
1146.16542	13143.6
1149.79145	13224.2
1153.415	13284
1157.03607	13351.8
1160.65467	13581.1
1164.27079	13872.2
1167.88443	14283.6
1171.49561	14771.9
1175.10432	15313.9
1178.71056	15947.5
1182.31434	16607.6
1185.91565	16984.9
1189.51451	17130.8
1193.11091	17017.3
1196.70485	16753.2
1200.29634	16372.4
1203.88538	16015.6
1207.47197	15826.5
1211.05612	15639.4
1214.63782	15452.8
1218.21708	15146.3
1221.79391	14825.9
1225.36829	14500.9
1228.94024	14352.3
1232.50976	14230.8
1236.07685	14186.7
1239.6415	14149.8
1243.20374	14182.5
1246.76355	14219.6
1250.32093	14343.2
1253.8759	14496.5
1257.42845	14728.1
1260.97859	15015.1
1264.52631	15291.2
1268.07163	15516.7
1271.61453	15763.7
1275.15503	16022.2
1278.69312	16319.4
1282.22882	16621.8
1285.76211	16939.3
1289.29301	17349.3
1292.82151	17887.9
1296.34761	18462.1
1299.87133	19097.5
1303.39266	19756.7
1306.9116	20276.5
1310.42815	20684.9
1313.94233	20903.7
1317.45412	20793.9
1320.96354	20707.4
1324.47058	20635.6
1327.97525	20544.1
1331.47754	20577.3
1334.97747	20577.1
1338.47502	20648.8
1341.97022	20718.7
1345.46305	20824.4
1348.95352	20828.9
1352.44163	20725.5
1355.92738	20614.3
1359.41078	20780.7
1362.89183	20889.2
1366.37053	20573.8
1369.84688	19568.5
1373.32088	18264.1
1376.79254	17219.3
1380.26186	16770.2
1383.72883	16712.1
1387.19347	16702.8
1390.65578	16596.3
1394.11575	16464.9
1397.57339	16417.9
1401.0287	16491.6
1404.48168	16541.6
1407.93234	16482.7
1411.38068	16244.7
1414.82669	15851.1
1418.27039	15414.1
1421.71177	14967.1
1425.15083	14635.9
1428.58758	14461.7
1432.02203	14502.8
1435.45416	14697.1
1438.88399	14895.5
1442.31151	15124
1445.73673	15254.9
1449.15965	15382
1452.58027	15494.9
1455.9986	15576.2
1459.41463	15644.7
1462.82837	15839.3
1466.23982	16002.1
1469.64898	16183.9
1473.05586	16319.8
1476.46045	16363.1
1479.86276	16319.6
1483.26279	16278.1
1486.66054	16262.3
1490.05602	16333.7
1493.44922	16539.4
1496.84016	16795.6
1500.22882	17112.7
1503.61521	17597
1506.99934	18028.2
1510.38121	18325.2
1513.76081	18423
1517.13816	18221.6
1520.51324	17883.5
1523.88607	17643.1
1527.25665	17526
1530.62498	17479.6
1533.99105	17333.7
1537.35488	17114.3
1540.71647	16831.9
1544.07581	16463.1
1547.4329	16095
1550.78776	15774.6
1554.14038	15557.6
1557.49077	15512.4
1560.83892	15457
1564.18484	15469
1567.52853	15476.2
1570.86999	15553.5
1574.20922	15765.9
1577.54624	15952.2
1580.88103	15976.1
1584.2136	15974.4
1587.54395	16139.5
1590.87208	16494.5
1594.19801	16933.8
1597.52172	17463.5
1600.84321	17515.3
1604.16251	17044.9
1607.47959	16306.1
1610.79447	15495.6
1614.10715	14700.4
1617.41763	14010.4
1620.7259	13481.2
1624.03199	13113.4
1627.33587	13024.3
1630.63757	13157.1
1633.93707	13603.3
1637.23439	14373.8
1640.52951	15545.3
1643.82246	16993
1647.11321	18251.9
1650.40179	18733.8
1653.68819	18042.7
1656.97241	16487.4
1660.25446	14813.4
1663.53433	13446.6
1666.81203	12552
1670.08756	11959.1
1673.36092	11585.2
1676.63211	11348.3
1679.90115	11171.3
1683.16801	11032.9
1686.43272	10918.2
1689.69527	10829.9
1692.95567	10766.9
1696.2139	10698.8
1699.46999	10634.4
1702.72392	10593.2
1705.97571	10605
1709.22535	10603.2
1712.47284	10602.4
1715.71819	10619.4
1718.96139	10580.7
1722.20246	10592.8
1725.44139	10527.5
1728.67818	10468
1731.91284	10447
1735.14537	10401.6
1738.37576	10364.9
1741.60403	10293.9
1744.83017	10290.4
1748.05418	10260.7
1751.27607	10235.2
1754.49584	10204.6
1757.71349	10189.9
1760.92903	10160
1764.14244	10138.5
1767.35375	10147.3
1770.56294	10119.2
1773.77002	10119.1
1776.97499	10098.9
1780.17785	10106.7
1783.37861	10106.6
1786.57727	10086.9
1789.77382	10079.6
1792.96828	10067.5
1796.16064	10034.4
1799.3509	10006.5
1802.53907	9978.8
1805.72514	9971.7
1808.90913	9965.6
1812.09102	9936.3
1815.27083	9917.4
1818.44856	9913.7
1821.6242	9869.8
1824.79776	9869.9
1827.96924	9858.2
1831.13864	9853.3
1834.30597	9836.2
1837.47122	9823.8
1840.6344	9803.4
1843.7955	9819.5
1846.95454	9814.9
1850.11151	9771.9
1853.26642	9769.7
1856.41926	9774.2
1859.57004	9774.1
1862.71876	9756
1865.86542	9730.1
1869.01003	9740.5
1872.15258	9727.2
1875.29308	9715.5
1878.43152	9678.4
1881.56792	9667.4
1884.70227	9633.8
1887.83457	9624.2
1890.96482	9600.7
1894.09304	9597.7
1897.21921	9587.3
1900.34335	9534.5
1903.46544	9536.1
1906.58551	9567.9
1909.70353	9511.5
1912.81953	9520.4
1915.93349	9493
1919.04543	9491.9
1922.15534	9462.5
1925.26322	9439.5
1928.36908	9406.4
1931.47292	9407.9
1934.57473	9374.8
1937.67453	9367.4
1940.77232	9341.2
1943.86808	9294.1
1946.96184	9270.9
1950.05358	9225.3
1953.14331	9207
1956.23103	9197.8
1959.31675	9171.8
1962.40046	9160.2
1965.48217	9116.8
1968.56188	9097.4
1971.63959	9074.1
1974.7153	9060.1
1977.78901	9008.5
1980.86073	8981.6
1983.93046	8968.4
1986.99819	8956.9
1990.06394	8896.6
1993.1277	8870.2
1996.18947	8821.5
1999.24925	8834.6
2002.30706	8785.8
2005.36288	8770
2008.41672	8729.6
2011.46859	8705.2
2014.51848	8685.8
2017.56639	8647.4
2020.61233	8635.9
2023.6563	8618.6
2026.6983	8584.9
2029.73833	8571.1
2032.7764	8561.6
2035.8125	8529
2038.84664	8503.6
2041.87881	8471.3
2044.90903	8452.6
2047.93729	8440.4
2050.96359	8437.6
2053.98794	8407.7
2057.01034	8425.1
2060.03078	8420.9
2063.04927	8396.3
2066.06582	8401.1
2069.08042	8385.4
2072.09307	8405.4
2075.10378	8364
2078.11255	8359.1
2081.11938	8374.3
2084.12426	8360.7
2087.12722	8353.3
2090.12824	8361.4
2093.12732	8346
2096.12447	8328.4
2099.11969	8332.8
2102.11299	8336.4
2105.10435	8321.4
2108.09379	8330.6
2111.08131	8337.7
2114.0669	8352.4
2117.05057	8364.4
2120.03233	8354.4
2123.01216	8346.8
2125.99008	8356.9
2128.96609	8376.1
2131.94018	8374.4
2134.91236	8380.9
2137.88263	8364.3
2140.851	8394.4
2143.81746	8367.9
2146.78201	8384.4
2149.74466	8388.8
2152.7054	8386.3
2155.66425	8371
2158.6212	8372.4
2161.57625	8350.1
2164.52941	8352.8
2167.48067	8349.7
2170.43004	8359.3
2173.37752	8369.7
2176.32311	8347.8
2179.26681	8351.9
2182.20863	8336.4
2185.14856	8349.7
2188.08661	8321.8
2191.02278	8362.1
2193.95707	8328.9
2196.88948	8313.9
2199.82001	8319.8
2202.74867	8283.3
2205.67545	8280.1
2208.60037	8257.4
2211.52341	8246.3
2214.44458	8240.4
2217.36388	8209
2220.28132	8208.3
2223.1969	8173.7
2226.11061	8153.3
2229.02246	8148.5
2231.93245	8154.4
2234.84058	8116.5
2237.74686	8087.6
2240.65128	8101.2
2243.55385	8093.4
2246.45456	8066.8
2249.35343	8040.9
2252.25044	8035.1
2255.14561	8037.4
2258.03893	8023.2
2260.93041	7982.2
2263.82004	7959.6
2266.70783	7956.8
2269.59378	7924.6
2272.4779	7913.4
2275.36017	7904.8
2278.24061	7882.5
2281.11922	7879.2
2283.996	7860.5
2286.87094	7833.2
2289.74405	7829.7
2292.61534	7793.8
2295.4848	7801
2298.35243	7812.8
2301.21824	7772.7
2304.08223	7771.5
2306.94439	7767.6
2309.80474	7785.9
2312.66327	7749.8
2315.51999	7759
2318.37489	7716.4
2321.22797	7717.3
2324.07925	7685.6
2326.92871	7679.8
2329.77637	7677.3
2332.62222	7652.9
2335.46626	7642.7
2338.3085	7645.8
2341.14893	7632.2
2343.98756	7616.5
2346.8244	7601.1
2349.65943	7612.2
2352.49267	7590.9
2355.32411	7603.5
2358.15376	7600.3
2360.98161	7586.2
2363.80768	7578.5
2366.63195	7590
2369.45444	7565.4
2372.27514	7572.8
2375.09405	7551.8
2377.91118	7524.4
2380.72652	7538.4
2383.54009	7495.5
2386.35187	7495.1
2389.16188	7467.7
2391.97011	7451.9
2394.77657	7426.1
2397.58125	7420.9
2400.38416	7408.9
2403.18529	7392.5
2405.98466	7395.5
2408.78226	7376
2411.57809	7357.9
2414.37216	7358.6
2417.16446	7343.9
2419.955	7307.2
2422.74378	7324.9
2425.5308	7326
2428.31606	7327
2431.09956	7316
2433.88131	7294.5
2436.6613	7300.2
2439.43954	7294.2
2442.21603	7292.7
2444.99077	7272.6
2447.76377	7270.3
2450.53501	7255.2
2453.30451	7240.9
2456.07226	7230.2
2458.83827	7221.1
2461.60254	7225.6
2464.36507	7210.7
2467.12586	7199.5
2469.88492	7187.4
2472.64224	7177.5
2475.39782	7189.2
2478.15167	7158.7
2480.90379	7150.6
2483.65417	7182.3
2486.40283	7155.9
2489.14976	7158
2491.89497	7135.8
2494.63845	7141.9
2497.3802	7141.1
2500.12024	7136.4
2502.85855	7113
2505.59514	7110.8
2508.33002	7101.1
2511.06318	7095.7
2513.79462	7083.6
2516.52435	7087
2519.25237	7074.7
2521.97867	7058.5
2524.70327	7051.8
2527.42616	7040.4
2530.14734	7012.8
2532.86681	7026.7
2535.58458	7021.3
2538.30065	6999.3
2541.01501	6998.5
2543.72768	6976.9
2546.43864	6987.2
2549.14791	6957.8
2551.85548	6953.1
2554.56136	6939.1
2557.26554	6923.7
2559.96803	6903.4
2562.66883	6909.4
2565.36794	6898.8
2568.06536	6868.8
2570.7611	6853.9
2573.45514	6833.6
2576.14751	6839.9
2578.83819	6843.6
2581.52719	6816.8
2584.21451	6816.4
2586.90015	6791.1
2589.58411	6774.9
2592.2664	6778.1
2594.94701	6772.1
2597.62594	6764.7
2600.30321	6739.7
2602.9788	6718.2
2605.65273	6707.6
2608.32498	6725.5
2610.99557	6711.6
2613.66449	6713.1
2616.33175	6682.1
2618.99734	6694.6
2621.66128	6693.8
2624.32355	6686.2
2626.98416	6670.6
2629.64311	6662.9
2632.30041	6643.7
2634.95605	6636.9
2637.61004	6612.8
2640.26238	6619.8
2642.91306	6611.6
2645.56209	6598.9
2648.20948	6602.8
2650.85521	6599.5
2653.4993	6583.8
2656.14175	6596.4
2658.78255	6604.8
2661.42171	6604.2
2664.05923	6612.5
2666.6951	6599.1
2669.32934	6603.1
2671.96194	6565.5
2674.59291	6586.1
2677.22224	6571.9
2679.84993	6591.2
2682.476	6551.2
2685.10043	6558
2687.72324	6569.5
2690.34441	6564.5
2692.96396	6574.6
2695.58188	6567.2
2698.19818	6555.8
2700.81285	6547.4
2703.4259	6567.6
2706.03733	6552.8
2708.64714	6535.8
2711.25533	6544.1
2713.86191	6545.9
2716.46687	6542
2719.07021	6546.1
2721.67194	6558
2724.27206	6555.8
2726.87057	6568.9
2729.46747	6580.3
2732.06276	6560.4
2734.65644	6543.7
2737.24852	6541.6
2739.83899	6532.4
2742.42786	6521.3
2745.01513	6500.5
2747.60079	6517.2
2750.18486	6512.1
2752.76733	6510.2
2755.3482	6506.3
2757.92747	6497.2
2760.50515	6486.2
2763.08123	6462.1
2765.65573	6470.3
2768.22863	6455.5
2770.79994	6446.1
2773.36967	6453.1
2775.9378	6440.1
2778.50435	6428.1
2781.06932	6411.4
2783.6327	6391.3
2786.1945	6405.4
2788.75471	6402.9
2791.31335	6364.3
2793.87041	6355.6
2796.42589	6361.2
2798.97979	6339.7
2801.53212	6333.7
2804.08288	6323.7
2806.63206	6299.8
2809.17967	6294.6
2811.72571	6272.2
2814.27018	6262.6
2816.81308	6246.1
2819.35442	6251.7
2821.89419	6236
2824.43239	6233.2
2826.96904	6230.8
2829.50412	6202.9
2832.03763	6182.1
2834.56959	6178.8
2837.1	6173.9
2839.62884	6209
2842.15613	6183.9
2844.68186	6201.6
2847.20604	6202.6
2849.72867	6191.9
2852.24974	6180.8
2854.76927	6180.5
2857.28724	6160.9
2859.80367	6148
2862.31855	6160.2
2864.83189	6129.1
2867.34368	6127.3
2869.85393	6117.1
2872.36264	6129.8
2874.8698	6117.1
2877.37543	6092.4
2879.87952	6098
2882.38207	6101.8
2884.88308	6074.7
2887.38256	6076.2
2889.88051	6064.9
2892.37692	6077.8
2894.8718	6063.7
2897.36515	6068.6
2899.85698	6072.4
2902.34727	6067.3
2904.83604	6085.6
2907.32328	6095.6
2909.809	6076.8
2912.29319	6078
2914.77587	6075.3
2917.25702	6074.2
2919.73665	6064
2922.21476	6063.1
2924.69136	6062.8
2927.16644	6084.8
2929.64	6058.9
2932.11205	6061
2934.58258	6032
2937.05161	6042.7
2939.51912	6044
2941.98513	6019.1
2944.44962	6002.4
2946.91261	5989.5
2949.37409	5993.2
2951.83407	5981.8
2954.29254	5971.9
2956.74951	5975.1
2959.20498	5976.8
2961.65895	5971.9
2964.11142	5953.9
2966.56239	5949.2
2969.01186	5949.9
2971.45984	5942.1
2973.90632	5935.3
2976.35131	5927.9
2978.7948	5918.4
2981.23681	5903.5
2983.67732	5907.4
2986.11635	5871.8
2988.55388	5880.5
2990.98993	5864.4
2993.4245	5859.9
2995.85758	5828.5
2998.28917	5836.9
3000.71928	5821
3003.14791	5798.9
3005.57506	5770.2
3008.00073	5793.1
3010.42493	5783.3
3012.84764	5759.1
3015.26888	5766.2
3017.68865	5749.1
3020.10694	5737.8
3022.52376	5707
3024.9391	5707.1
3027.35298	5713.9
3029.76539	5693.6
3032.17632	5671.2
3034.5858	5687.2
3036.9938	5678
3039.40034	5681.4
3041.80542	5675.1
3044.20903	5648.7
3046.61118	5653.2
3049.01187	5640.2
3051.4111	5636.8
3053.80888	5616
3056.20519	5636.6
3058.60005	5606.9
3060.99345	5584.5
3063.3854	5578
3065.7759	5559.5
3068.16494	5551.9
3070.55254	5554.2
3072.93868	5534.4
3075.32338	5529.4
3077.70662	5523.6
3080.08842	5526.1
3082.46878	5498.6
3084.84769	5495.8
3087.22515	5493.4
3089.60118	5474.7
3091.97576	5485.7
3094.3489	5482.3
3096.72061	5495.4
3099.09087	5504.3
3101.4597	5467.7
3103.82709	5484.4
3106.19305	5492.6
3108.55757	5497.9
3110.92066	5472.7
3113.28232	5458.7
3115.64255	5438.5
3118.00134	5434.3
3120.35871	5440.4
3122.71466	5431.9
3125.06917	5430.7
3127.42226	5398.4
3129.77393	5399.8
3132.12417	5388.2
3134.47299	5393.5
3136.82039	5397.4
3139.16636	5405.3
3141.51092	5410.8
3143.85406	5411.6
3146.19579	5405.1
3148.53609	5408.1
3150.87499	5421.1
3153.21246	5440.6
3155.54853	5415.9
3157.88318	5429.2
3160.21642	5418.2
3162.54826	5429.6
3164.87868	5425.2
3167.2077	5424.9
3169.5353	5434.1
3171.86151	5428.8
3174.18631	5406.9
3176.5097	5422.7
3178.83169	5417.9
3181.15228	5415.6
3183.47147	5406.4
3185.78926	5416.9
3188.10565	5388
3190.42065	5387.5
3192.73424	5389.1
3195.04645	5390.2
3197.35725	5373.1
3199.66667	5386.4
3201.97469	5369.2
3204.28132	5371.1
3206.58656	5395
3208.8904	5392.3
3211.19287	5405.6
3213.49394	5396
3215.79363	5400.8
3218.09193	5422.5
3220.38884	5394.2
3222.68438	5380.1
3224.97853	5386.3
3227.2713	5376.1
3229.56269	5376.6
3231.8527	5380.6
3234.14133	5368
3236.42858	5352.2
3238.71446	5355.2
3240.99896	5337
3243.28209	5318.8
3245.56384	5332.7
3247.84423	5335.2
3250.12324	5325
3252.40088	5308
3254.67715	5311.8
3256.95205	5319.8
3259.22558	5308.6
3261.49775	5303.9
3263.76855	5276.9
3266.03799	5280.7
3268.30606	5260.8
3270.57277	5272
3272.83812	5231.3
3275.10211	5216.2
3277.36474	5216.7
3279.62601	5201.5
3281.88593	5209.5
3284.14448	5205
3286.40168	5208.7
3288.65753	5209.2
3290.91202	5207
3293.16516	5191.3
3295.41695	5176.4
3297.66738	5120
3299.91647	5104.9
3302.16421	5075.5
3304.4106	5064.9
3306.65564	5034.5
3308.89933	5008.5
3311.14169	4975.1
3313.38269	4943.7
3315.62236	4902.4
3317.86068	4846.9
3320.09766	4838.4
3322.3333	4804.7
3324.5676	4778.2
3326.80056	4695.9
3329.03219	4671.2
3331.26248	1.8
3333.49143	-0.4
3335.71905	-0.3
