Data from AgNPs_FTO_APTES_UA_1uM_CRN_1uM_R6G_10uM_NaF_0.1M_Addition_RamanShift__27__12-43-39-514.txt Node

Date: Thu Jan 27 12:43:39 GMT 2022
User: TCL
Spectrometer: QEP01345
Trigger mode: 4
Integration Time (sec): 7.000000E0
Scans to average: 10
Electric dark correction enabled: true
Nonlinearity correction enabled: false
Boxcar width: 0
XAxis mode: Raman Shifts
Number of Pixels in Spectrum: 1044
>>>>>Begin Spectral Data<<<<<
46.04893	-0.175
50.45542	-0.075
54.85868	-1.375
59.25871	-1.175
63.6555	49.625
68.04907	50.025
72.43941	53.425
76.82654	54.325
81.21044	57.025
85.59113	59.725
89.96862	61.325
94.34289	63.125
98.71396	67.125
103.08183	68.725
107.4465	69.025
111.80798	70.725
116.16626	74.825
120.52136	78.625
124.87327	78.225
129.222	76.925
133.56755	81.425
137.90993	85.125
142.24913	92.425
146.58517	101.425
150.91804	113.525
155.24774	131.925
159.57429	157.425
163.89768	197.825
168.21792	259.325
172.53501	346.425
176.84895	474.825
181.15975	657.625
185.46741	914.325
189.77193	1257.525
194.07331	1686.225
198.37157	2155.925
202.6667	2678.625
206.9587	3181.125
211.24758	3700.525
215.53334	4228.525
219.81599	4796.425
224.09553	5449.725
228.37195	6176.425
232.64527	6965.625
236.91549	7741.625
241.18261	8489.925
245.44663	9147.225
249.70755	9681.525
253.96539	10155.125
258.22014	10605.825
262.4718	10962.825
266.72039	11262.325
270.96589	11438.425
275.20832	11457.525
279.44768	11399.025
283.68397	11239.225
287.91719	11134.025
292.14735	11112.325
296.37445	11201.325
300.59849	11488.125
304.81948	11830.725
309.03742	12080.225
313.25231	12046.425
317.46415	11615.325
321.67296	10917.125
325.87872	10318.325
330.08145	10079.025
334.28114	10047.825
338.47781	10198.825
342.67145	10453.825
346.86207	10806.425
351.04966	11351.925
355.23424	11938.925
359.4158	12462.325
363.59435	12735.025
367.76989	12844.325
371.94243	12849.925
376.11196	12841.625
380.27849	12804.125
384.44203	12757.725
388.60257	12658.225
392.76012	12596.125
396.91468	12766.625
401.06626	13084.425
405.21485	13341.625
409.36047	13225.125
413.50311	12762.325
417.64277	12353.525
421.77947	12104.725
425.9132	12014.225
430.04396	12020.925
434.17176	12145.325
438.2966	12270.825
442.41849	12607.725
446.53742	13042.625
450.6534	13482.125
454.76644	13801.825
458.87653	13874.325
462.98368	13774.025
467.08789	13496.625
471.18916	13141.925
475.2875	12847.225
479.38291	12616.025
483.4754	12461.225
487.56496	12326.925
491.6516	12158.625
495.73531	12074.225
499.81612	12051.625
503.89401	12133.825
507.96899	12246.225
512.04106	12354.225
516.11023	12454.525
520.1765	12552.325
524.23987	12547.125
528.30034	12360.225
532.35792	12138.325
536.41261	11926.625
540.46441	11692.025
544.51333	11647.425
548.55936	11745.225
552.60252	11992.625
556.64279	12239.225
560.6802	12362.225
564.71473	12457.725
568.7464	12832.925
572.7752	13154.425
576.80114	13094.425
580.82422	12899.425
584.84444	12833.025
588.86181	12902.025
592.87633	13084.025
596.888	13265.025
600.89682	13637.125
604.9028	14653.425
608.90594	17434.225
612.90624	21047.525
616.90371	20490.925
620.89834	15529.825
624.89015	13126.125
628.87913	12653.225
632.86528	12598.525
636.84862	12590.325
640.82913	12419.525
644.80683	12015.025
648.78172	11724.025
652.75379	11745.825
656.72306	12091.225
660.68952	12596.025
664.65319	12582.125
668.61405	12160.325
672.57211	11918.525
676.52738	11904.225
680.47986	11900.625
684.42955	11840.525
688.37646	11833.325
692.32058	11864.225
696.26192	11927.325
700.20048	12063.625
704.13626	12158.625
708.06928	12117.425
711.99952	12020.625
715.927	11976.225
719.85171	11975.825
723.77365	11923.925
727.69284	11846.325
731.60928	11752.925
735.52295	11766.425
739.43388	11829.625
743.34206	11915.325
747.24749	12013.925
751.15017	12094.825
755.05012	12347.225
758.94733	12747.625
762.8418	13656.825
766.73354	15205.025
770.62254	16921.925
774.50882	17749.425
778.39237	17132.025
782.27321	15369.725
786.15132	13691.425
790.02671	12710.925
793.89938	12267.725
797.76935	12067.025
801.6366	11982.625
805.50115	11913.125
809.36299	11873.825
813.22213	11811.925
817.07857	11814.025
820.93231	11833.925
824.78336	11834.825
828.63172	11913.825
832.47738	11950.725
836.32036	11961.825
840.16066	11984.425
843.99827	11990.925
847.8332	11930.225
851.66546	11883.425
855.49504	11855.525
859.32195	11858.525
863.1462	11786.825
866.96777	11739.825
870.78668	11747.825
874.60293	11742.725
878.41652	11784.225
882.22745	11851.825
886.03573	11926.825
889.84136	11889.425
893.64433	11823.325
897.44466	11796.125
901.24235	11789.225
905.0374	11763.525
908.8298	11738.325
912.61957	11755.225
916.40671	11824.225
920.19121	11927.525
923.97308	12107.925
927.75233	12214.125
931.52895	12312.525
935.30295	12249.325
939.07433	11978.625
942.84309	11756.025
946.60924	11624.125
950.37278	11550.025
954.13371	11491.525
957.89203	11405.725
961.64774	11382.325
965.40086	11333.425
969.15137	11282.925
972.89929	11245.325
976.64461	11262.325
980.38733	11287.425
984.12747	11346.625
987.86502	11447.825
991.59999	11599.725
995.33237	11822.625
999.06217	12160.925
1002.78939	12621.825
1006.51404	12916.625
1010.23611	13172.025
1013.95561	13325.325
1017.67255	13372.625
1021.38692	13226.725
1025.09872	13085.725
1028.80796	13085.325
1032.51465	13338.025
1036.21877	13593.825
1039.92035	13614.125
1043.61937	13471.025
1047.31584	13122.725
1051.00976	12775.925
1054.70114	12574.525
1058.38998	12558.325
1062.07627	12572.825
1065.76003	12598.925
1069.44126	12683.625
1073.11995	12779.825
1076.79611	12903.425
1080.46974	13001.625
1084.14085	13168.025
1087.80943	13413.925
1091.47549	13521.125
1095.13903	13368.125
1098.80005	13047.425
1102.45857	12734.325
1106.11456	12594.825
1109.76805	12610.325
1113.41903	12773.825
1117.06751	13010.625
1120.71348	13363.325
1124.35696	13712.725
1127.99793	14023.625
1131.63641	14092.125
1135.2724	13723.425
1138.90589	13294.525
1142.5369	13001.225
1146.16542	12823.825
1149.79145	12731.825
1153.415	12762.425
1157.03607	12844.925
1160.65467	13050.125
1164.27079	13414.625
1167.88443	13987.025
1171.49561	14892.825
1175.10432	16277.525
1178.71056	18188.325
1182.31434	19820.125
1185.91565	20640.225
1189.51451	20594.725
1193.11091	19699.425
1196.70485	18311.625
1200.29634	17121.125
1203.88538	16298.325
1207.47197	15475.725
1211.05612	14867.825
1214.63782	14530.825
1218.21708	14492.525
1221.79391	14627.625
1225.36829	14799.525
1228.94024	14962.625
1232.50976	14970.725
1236.07685	14932.925
1239.6415	14904.325
1243.20374	14788.725
1246.76355	14762.425
1250.32093	14873.725
1253.8759	15198.625
1257.42845	15629.625
1260.97859	16116.425
1264.52631	16494.325
1268.07163	16898.425
1271.61453	17299.425
1275.15503	17719.825
1278.69312	18083.425
1282.22882	18394.925
1285.76211	18771.625
1289.29301	19271.125
1292.82151	19701.225
1296.34761	20237.325
1299.87133	20936.825
1303.39266	22084.725
1306.9116	23871.125
1310.42815	26104.925
1313.94233	27690.425
1317.45412	27849.725
1320.96354	26823.825
1324.47058	25516.525
1327.97525	24252.825
1331.47754	23469.725
1334.97747	23075.925
1338.47502	23064.725
1341.97022	23274.625
1345.46305	23431.825
1348.95352	23716.925
1352.44163	24365.125
1355.92738	25544.425
1359.41078	27793.325
1362.89183	30332.325
1366.37053	30241.425
1369.84688	26906.425
1373.32088	23126.925
1376.79254	20580.625
1380.26186	19382.325
1383.72883	18836.025
1387.19347	18445.925
1390.65578	18007.225
1394.11575	17654.525
1397.57339	17639.325
1401.0287	17847.425
1404.48168	18279.725
1407.93234	18692.625
1411.38068	19001.225
1414.82669	19002.325
1418.27039	18620.725
1421.71177	18086.525
1425.15083	17650.825
1428.58758	17410.625
1432.02203	17377.225
1435.45416	17541.925
1438.88399	17625.425
1442.31151	17668.425
1445.73673	17720.525
1449.15965	17785.325
1452.58027	17765.025
1455.9986	17585.825
1459.41463	17536.925
1462.82837	17638.025
1466.23982	17899.825
1469.64898	18154.325
1473.05586	18407.425
1476.46045	18540.125
1479.86276	18716.325
1483.26279	18939.025
1486.66054	19242.825
1490.05602	19600.525
1493.44922	20123.625
1496.84016	20724.825
1500.22882	21549.325
1503.61521	22740.325
1506.99934	24327.025
1510.38121	26007.825
1513.76081	27068.825
1517.13816	26514.225
1520.51324	24490.025
1523.88607	22219.025
1527.25665	20529.525
1530.62498	19493.225
1533.99105	18898.325
1537.35488	18505.925
1540.71647	18285.925
1544.07581	18138.625
1547.4329	18055.125
1550.78776	17897.725
1554.14038	17772.625
1557.49077	17871.525
1560.83892	18000.425
1564.18484	18182.425
1567.52853	18303.725
1570.86999	18406.825
1574.20922	18546.225
1577.54624	18540.825
1580.88103	18184.025
1584.2136	17656.125
1587.54395	17617.225
1590.87208	18222.425
1594.19801	19395.625
1597.52172	20838.425
1600.84321	21619.625
1604.16251	21137.925
1607.47959	19778.225
1610.79447	18085.325
1614.10715	16580.225
1617.41763	15430.525
1620.7259	14747.925
1624.03199	14402.225
1627.33587	14460.025
1630.63757	14840.425
1633.93707	15597.425
1637.23439	16712.225
1640.52951	18116.625
1643.82246	19601.025
1647.11321	21015.725
1650.40179	21671.425
1653.68819	20955.125
1656.97241	18658.325
1660.25446	16143.125
1663.53433	14297.225
1666.81203	13167.825
1670.08756	12542.025
1673.36092	12143.825
1676.63211	11910.925
1679.90115	11738.425
1683.16801	11566.625
1686.43272	11485.625
1689.69527	11419.125
1692.95567	11338.525
1696.2139	11299.925
1699.46999	11249.825
1702.72392	11207.125
1705.97571	11243.825
1709.22535	11258.825
1712.47284	11292.325
1715.71819	11289.925
1718.96139	11326.325
1722.20246	11295.725
1725.44139	11267.525
1728.67818	11202.125
1731.91284	11173.125
1735.14537	11074.225
1738.37576	11056.625
1741.60403	11011.725
1744.83017	10957.025
1748.05418	10938.025
1751.27607	10912.725
1754.49584	10889.225
1757.71349	10857.325
1760.92903	10851.825
1764.14244	10862.825
1767.35375	10851.625
1770.56294	10833.325
1773.77002	10843.425
1776.97499	10844.325
1780.17785	10834.225
1783.37861	10836.725
1786.57727	10830.225
1789.77382	10859.925
1792.96828	10838.525
1796.16064	10824.925
1799.3509	10790.825
1802.53907	10783.325
1805.72514	10792.225
1808.90913	10752.425
1812.09102	10739.325
1815.27083	10707.825
1818.44856	10690.525
1821.6242	10681.625
1824.79776	10678.925
1827.96924	10670.825
1831.13864	10677.625
1834.30597	10674.225
1837.47122	10654.525
1840.6344	10668.325
1843.7955	10679.425
1846.95454	10667.025
1850.11151	10676.825
1853.26642	10685.325
1856.41926	10698.225
1859.57004	10690.925
1862.71876	10714.625
1865.86542	10727.025
1869.01003	10716.825
1872.15258	10735.425
1875.29308	10743.625
1878.43152	10740.325
1881.56792	10747.725
1884.70227	10764.025
1887.83457	10760.925
1890.96482	10737.525
1894.09304	10748.925
1897.21921	10755.125
1900.34335	10762.925
1903.46544	10757.025
1906.58551	10779.225
1909.70353	10785.525
1912.81953	10777.925
1915.93349	10775.525
1919.04543	10767.925
1922.15534	10750.525
1925.26322	10714.725
1928.36908	10692.625
1931.47292	10659.125
1934.57473	10627.925
1937.67453	10570.025
1940.77232	10503.725
1943.86808	10465.825
1946.96184	10450.025
1950.05358	10395.125
1953.14331	10364.525
1956.23103	10327.925
1959.31675	10305.125
1962.40046	10256.025
1965.48217	10225.125
1968.56188	10173.225
1971.63959	10156.625
1974.7153	10132.425
1977.78901	10108.725
1980.86073	10086.525
1983.93046	10029.825
1986.99819	9997.225
1990.06394	9966.025
1993.1277	9932.025
1996.18947	9915.125
1999.24925	9899.025
2002.30706	9851.325
2005.36288	9842.725
2008.41672	9811.625
2011.46859	9794.925
2014.51848	9737.625
2017.56639	9725.525
2020.61233	9719.025
2023.6563	9695.925
2026.6983	9666.225
2029.73833	9666.325
2032.7764	9635.525
2035.8125	9624.125
2038.84664	9604.525
2041.87881	9588.025
2044.90903	9571.025
2047.93729	9544.325
2050.96359	9549.125
2053.98794	9526.825
2057.01034	9498.525
2060.03078	9508.625
2063.04927	9528.125
2066.06582	9496.925
2069.08042	9514.425
2072.09307	9508.325
2075.10378	9471.825
2078.11255	9501.825
2081.11938	9473.825
2084.12426	9476.625
2087.12722	9468.725
2090.12824	9455.025
2093.12732	9457.025
2096.12447	9446.125
2099.11969	9451.425
2102.11299	9452.425
2105.10435	9464.725
2108.09379	9453.325
2111.08131	9460.725
2114.0669	9451.125
2117.05057	9479.025
2120.03233	9493.325
2123.01216	9470.325
2125.99008	9505.425
2128.96609	9486.425
2131.94018	9499.225
2134.91236	9507.825
2137.88263	9516.125
2140.851	9505.025
2143.81746	9529.325
2146.78201	9509.125
2149.74466	9532.925
2152.7054	9552.825
2155.66425	9522.025
2158.6212	9526.925
2161.57625	9503.525
2164.52941	9524.225
2167.48067	9518.925
2170.43004	9508.825
2173.37752	9510.225
2176.32311	9505.825
2179.26681	9513.925
2182.20863	9503.925
2185.14856	9528.625
2188.08661	9524.625
2191.02278	9512.425
2193.95707	9522.025
2196.88948	9512.425
2199.82001	9510.725
2202.74867	9510.425
2205.67545	9542.425
2208.60037	9514.825
2211.52341	9487.925
2214.44458	9474.425
2217.36388	9473.225
2220.28132	9463.825
2223.1969	9406.225
2226.11061	9407.225
2229.02246	9406.825
2231.93245	9375.325
2234.84058	9365.925
2237.74686	9356.425
2240.65128	9330.525
2243.55385	9323.225
2246.45456	9314.125
2249.35343	9315.425
2252.25044	9301.025
2255.14561	9292.625
2258.03893	9287.425
2260.93041	9264.925
2263.82004	9264.925
2266.70783	9225.025
2269.59378	9209.025
2272.4779	9177.025
2275.36017	9182.425
2278.24061	9148.325
2281.11922	9147.825
2283.996	9148.125
2286.87094	9113.025
2289.74405	9094.025
2292.61534	9065.125
2295.4848	9065.025
2298.35243	9075.725
2301.21824	9074.725
2304.08223	9079.925
2306.94439	9071.725
2309.80474	9093.725
2312.66327	9086.325
2315.51999	9083.325
2318.37489	9082.225
2321.22797	9083.425
2324.07925	9043.425
2326.92871	9051.625
2329.77637	9059.725
2332.62222	9037.225
2335.46626	9021.325
2338.3085	9023.425
2341.14893	9030.425
2343.98756	9039.725
2346.8244	9059.025
2349.65943	9051.525
2352.49267	9003.125
2355.32411	9018.025
2358.15376	9013.825
2360.98161	8995.325
2363.80768	8997.725
2366.63195	9013.925
2369.45444	8998.625
2372.27514	8999.125
2375.09405	8972.025
2377.91118	8940.325
2380.72652	8921.625
2383.54009	8899.925
2386.35187	8885.225
2389.16188	8863.125
2391.97011	8861.025
2394.77657	8829.625
2397.58125	8806.625
2400.38416	8809.425
2403.18529	8795.525
2405.98466	8750.825
2408.78226	8753.925
2411.57809	8725.425
2414.37216	8681.425
2417.16446	8700.925
2419.955	8693.425
2422.74378	8695.225
2425.5308	8688.525
2428.31606	8679.525
2431.09956	8665.025
2433.88131	8678.125
2436.6613	8661.225
2439.43954	8654.125
2442.21603	8655.725
2444.99077	8636.925
2447.76377	8655.025
2450.53501	8651.325
2453.30451	8636.325
2456.07226	8620.225
2458.83827	8625.025
2461.60254	8616.025
2464.36507	8620.825
2467.12586	8609.725
2469.88492	8599.325
2472.64224	8624.725
2475.39782	8609.425
2478.15167	8629.925
2480.90379	8625.325
2483.65417	8608.925
2486.40283	8628.925
2489.14976	8639.025
2491.89497	8651.225
2494.63845	8650.125
2497.3802	8646.325
2500.12024	8646.925
2502.85855	8627.025
2505.59514	8648.425
2508.33002	8628.125
2511.06318	8602.225
2513.79462	8584.925
2516.52435	8592.025
2519.25237	8557.525
2521.97867	8546.425
2524.70327	8544.725
2527.42616	8521.325
2530.14734	8514.825
2532.86681	8493.725
2535.58458	8523.325
2538.30065	8499.425
2541.01501	8512.225
2543.72768	8495.125
2546.43864	8474.625
2549.14791	8472.725
2551.85548	8470.725
2554.56136	8456.625
2557.26554	8461.825
2559.96803	8415.925
2562.66883	8409.125
2565.36794	8435.625
2568.06536	8407.825
2570.7611	8408.825
2573.45514	8387.025
2576.14751	8374.625
2578.83819	8358.325
2581.52719	8370.625
2584.21451	8389.625
2586.90015	8383.625
2589.58411	8350.125
2592.2664	8365.925
2594.94701	8361.225
2597.62594	8356.125
2600.30321	8342.825
2602.9788	8346.625
2605.65273	8310.425
2608.32498	8313.225
2610.99557	8313.425
2613.66449	8306.225
2616.33175	8310.025
2618.99734	8308.525
2621.66128	8315.225
2624.32355	8305.125
2626.98416	8302.425
2629.64311	8303.925
2632.30041	8300.825
2634.95605	8306.125
2637.61004	8281.725
2640.26238	8265.025
2642.91306	8268.525
2645.56209	8228.125
2648.20948	8233.425
2650.85521	8221.825
2653.4993	8213.225
2656.14175	8222.425
2658.78255	8229.425
2661.42171	8242.025
2664.05923	8260.525
2666.6951	8256.725
2669.32934	8276.925
2671.96194	8247.525
2674.59291	8273.225
2677.22224	8257.925
2679.84993	8290.525
2682.476	8268.625
2685.10043	8248.025
2687.72324	8243.125
2690.34441	8253.025
2692.96396	8255.525
2695.58188	8249.325
2698.19818	8244.925
2700.81285	8255.525
2703.4259	8258.125
2706.03733	8238.425
2708.64714	8209.125
2711.25533	8248.525
2713.86191	8251.625
2716.46687	8268.425
2719.07021	8242.625
2721.67194	8231.825
2724.27206	8262.125
2726.87057	8256.625
2729.46747	8265.725
2732.06276	8248.625
2734.65644	8258.125
2737.24852	8253.425
2739.83899	8253.725
2742.42786	8253.125
2745.01513	8222.725
2747.60079	8218.125
2750.18486	8215.325
2752.76733	8205.625
2755.3482	8200.725
2757.92747	8220.525
2760.50515	8185.225
2763.08123	8197.425
2765.65573	8184.625
2768.22863	8188.725
2770.79994	8171.625
2773.36967	8179.125
2775.9378	8196.425
2778.50435	8176.725
2781.06932	8152.225
2783.6327	8163.825
2786.1945	8159.525
2788.75471	8155.725
2791.31335	8137.725
2793.87041	8151.425
2796.42589	8113.025
2798.97979	8123.925
2801.53212	8082.825
2804.08288	8086.725
2806.63206	8079.325
2809.17967	8046.125
2811.72571	8022.725
2814.27018	8031.525
2816.81308	8018.225
2819.35442	8021.925
2821.89419	8034.825
2824.43239	8028.525
2826.96904	8018.925
2829.50412	8019.625
2832.03763	7996.925
2834.56959	8005.825
2837.1	8028.525
2839.62884	8047.325
2842.15613	8027.225
2844.68186	8077.025
2847.20604	8085.025
2849.72867	8121.725
2852.24974	8108.725
2854.76927	8117.925
2857.28724	8087.625
2859.80367	8074.625
2862.31855	8059.425
2864.83189	8059.325
2867.34368	8023.825
2869.85393	8038.025
2872.36264	8014.425
2874.8698	8004.925
2877.37543	8016.625
2879.87952	8011.825
2882.38207	8002.825
2884.88308	8000.625
2887.38256	8023.125
2889.88051	7996.025
2892.37692	7985.125
2894.8718	8006.125
2897.36515	8030.825
2899.85698	8040.825
2902.34727	8016.525
2904.83604	8029.025
2907.32328	8047.225
2909.809	8037.125
2912.29319	8033.725
2914.77587	8022.225
2917.25702	8016.925
2919.73665	8015.825
2922.21476	8011.625
2924.69136	8001.725
2927.16644	7985.825
2929.64	7989.625
2932.11205	7979.025
2934.58258	7960.025
2937.05161	7942.325
2939.51912	7953.025
2941.98513	7943.625
2944.44962	7889.925
2946.91261	7863.725
2949.37409	7864.125
2951.83407	7839.125
2954.29254	7838.425
2956.74951	7803.325
2959.20498	7804.125
2961.65895	7780.725
2964.11142	7801.825
2966.56239	7780.925
2969.01186	7768.225
2971.45984	7739.125
2973.90632	7730.625
2976.35131	7707.825
2978.7948	7706.225
2981.23681	7680.725
2983.67732	7666.625
2986.11635	7639.725
2988.55388	7607.925
2990.98993	7616.025
2993.4245	7584.125
2995.85758	7550.225
2998.28917	7547.725
3000.71928	7538.225
3003.14791	7500.625
3005.57506	7509.525
3008.00073	7488.625
3010.42493	7472.425
3012.84764	7478.925
3015.26888	7464.025
3017.68865	7457.725
3020.10694	7445.525
3022.52376	7398.425
3024.9391	7416.125
3027.35298	7403.525
3029.76539	7402.025
3032.17632	7386.525
3034.5858	7364.525
3036.9938	7365.025
3039.40034	7381.025
3041.80542	7364.125
3044.20903	7335.925
3046.61118	7352.825
3049.01187	7339.125
3051.4111	7305.625
3053.80888	7311.725
3056.20519	7292.825
3058.60005	7262.525
3060.99345	7257.925
3063.3854	7222.825
3065.7759	7205.425
3068.16494	7192.625
3070.55254	7181.025
3072.93868	7170.425
3075.32338	7155.825
3077.70662	7147.225
3080.08842	7113.425
3082.46878	7112.625
3084.84769	7084.625
3087.22515	7090.625
3089.60118	7087.425
3091.97576	7088.625
3094.3489	7097.725
3096.72061	7072.725
3099.09087	7076.825
3101.4597	7071.825
3103.82709	7090.525
3106.19305	7080.625
3108.55757	7062.825
3110.92066	7040.425
3113.28232	7037.825
3115.64255	7003.525
3118.00134	6997.725
3120.35871	7011.725
3122.71466	7007.325
3125.06917	7004.225
3127.42226	6949.825
3129.77393	6987.925
3132.12417	6976.225
3134.47299	6965.525
3136.82039	6946.125
3139.16636	6951.725
3141.51092	6964.225
3143.85406	6971.625
3146.19579	6960.725
3148.53609	6963.625
3150.87499	6989.725
3153.21246	6982.825
3155.54853	6979.325
3157.88318	6994.025
3160.21642	6990.325
3162.54826	6972.325
3164.87868	6966.425
3167.2077	6987.425
3169.5353	6966.525
3171.86151	6961.625
3174.18631	6970.325
3176.5097	6980.825
3178.83169	6968.425
3181.15228	6966.325
