Data from AgNPs_FTO_APTES_UA_1uM_CRN_500uM_R6G_10uM_NaF_0.1M_Addition_RamanShift__24__18-12-39-890.txt Node

Date: Thu Jan 27 18:12:39 GMT 2022
User: TCL
Spectrometer: QEP01345
Trigger mode: 4
Integration Time (sec): 7.000000E0
Scans to average: 10
Electric dark correction enabled: true
Nonlinearity correction enabled: false
Boxcar width: 0
XAxis mode: Raman Shifts
Number of Pixels in Spectrum: 1044
>>>>>Begin Spectral Data<<<<<
46.04893	0.225
50.45542	0.325
54.85868	-1.075
59.25871	-0.775
63.6555	47.725
68.04907	47.825
72.43941	50.725
76.82654	55.325
81.21044	54.225
85.59113	56.725
89.96862	57.725
94.34289	59.325
98.71396	66.925
103.08183	65.525
107.4465	69.425
111.80798	69.625
116.16626	68.925
120.52136	78.525
124.87327	75.725
129.222	73.225
133.56755	80.025
137.90993	79.325
142.24913	89.925
146.58517	98.425
150.91804	110.925
155.24774	129.725
159.57429	150.125
163.89768	194.325
168.21792	252.025
172.53501	340.825
176.84895	469.625
181.15975	648.225
185.46741	907.025
189.77193	1244.625
194.07331	1666.225
198.37157	2145.725
202.6667	2663.025
206.9587	3176.225
211.24758	3673.325
215.53334	4177.025
219.81599	4707.625
224.09553	5328.625
228.37195	5945.625
232.64527	6676.625
236.91549	7428.125
241.18261	8147.225
245.44663	8851.125
249.70755	9470.025
253.96539	9992.325
258.22014	10440.125
262.4718	10815.225
266.72039	11064.025
270.96589	11232.725
275.20832	11226.625
279.44768	11155.425
283.68397	11042.525
287.91719	10917.025
292.14735	10842.425
296.37445	10858.825
300.59849	10911.525
304.81948	10992.525
309.03742	10990.925
313.25231	10864.225
317.46415	10567.125
321.67296	10187.625
325.87872	9958.425
330.08145	9821.125
334.28114	9804.525
338.47781	9880.325
342.67145	10022.425
346.86207	10176.425
351.04966	10432.925
355.23424	10670.625
359.4158	10921.325
363.59435	11069.325
367.76989	11208.225
371.94243	11271.525
376.11196	11354.325
380.27849	11423.025
384.44203	11489.225
388.60257	11555.225
392.76012	11572.525
396.91468	11693.225
401.06626	11853.325
405.21485	11987.025
409.36047	11998.625
413.50311	11796.625
417.64277	11616.725
421.77947	11564.925
425.9132	11601.225
430.04396	11660.025
434.17176	11753.125
438.2966	11880.625
442.41849	12079.925
446.53742	12348.325
450.6534	12718.725
454.76644	12977.925
458.87653	13052.825
462.98368	12954.225
467.08789	12796.425
471.18916	12600.925
475.2875	12436.825
479.38291	12369.925
483.4754	12256.025
487.56496	12131.925
491.6516	11988.325
495.73531	11838.825
499.81612	11806.225
503.89401	11863.825
507.96899	11872.525
512.04106	11900.825
516.11023	11857.425
520.1765	11811.025
524.23987	11719.625
528.30034	11609.025
532.35792	11523.025
536.41261	11433.325
540.46441	11270.625
544.51333	11284.625
548.55936	11336.225
552.60252	11526.225
556.64279	11773.225
560.6802	11941.925
564.71473	12063.325
568.7464	12251.525
572.7752	12512.925
576.80114	12613.225
580.82422	12659.825
584.84444	12763.825
588.86181	12997.225
592.87633	13270.325
596.888	13428.825
600.89682	13441.425
604.9028	13698.925
608.90594	14742.225
612.90624	16126.625
616.90371	15515.325
620.89834	12986.625
624.89015	11801.325
628.87913	11669.925
632.86528	11732.725
636.84862	11738.125
640.82913	11644.325
644.80683	11376.825
648.78172	11171.525
652.75379	11093.325
656.72306	11211.825
660.68952	11368.525
664.65319	11357.625
668.61405	11209.825
672.57211	11136.025
676.52738	11194.125
680.47986	11254.225
684.42955	11238.825
688.37646	11129.025
692.32058	11131.525
696.26192	11172.425
700.20048	11274.925
704.13626	11339.225
708.06928	11309.925
711.99952	11218.425
715.927	11154.725
719.85171	11169.625
723.77365	11141.025
727.69284	11132.725
731.60928	11052.225
735.52295	11048.325
739.43388	11085.425
743.34206	11092.125
747.24749	11140.725
751.15017	11195.825
755.05012	11309.425
758.94733	11591.825
762.8418	12086.425
766.73354	12943.125
770.62254	13904.725
774.50882	14285.525
778.39237	13762.925
782.27321	12754.125
786.15132	11825.725
790.02671	11294.225
793.89938	11063.625
797.76935	10958.525
801.6366	10922.025
805.50115	10927.725
809.36299	10883.525
813.22213	10844.325
817.07857	10785.025
820.93231	10763.625
824.78336	10713.225
828.63172	10719.425
832.47738	10706.325
836.32036	10754.025
840.16066	10758.225
843.99827	10742.525
847.8332	10724.325
851.66546	10705.925
855.49504	10697.025
859.32195	10711.025
863.1462	10715.125
866.96777	10743.925
870.78668	10692.325
874.60293	10637.125
878.41652	10651.725
882.22745	10639.825
886.03573	10678.725
889.84136	10690.125
893.64433	10666.425
897.44466	10621.025
901.24235	10573.625
905.0374	10523.025
908.8298	10480.525
912.61957	10473.125
916.40671	10544.925
920.19121	10650.325
923.97308	10766.525
927.75233	10826.925
931.52895	10841.625
935.30295	10753.525
939.07433	10565.625
942.84309	10394.925
946.60924	10295.125
950.37278	10239.825
954.13371	10183.825
957.89203	10136.725
961.64774	10137.925
965.40086	10078.625
969.15137	10018.925
972.89929	9982.225
976.64461	9934.025
980.38733	9947.025
984.12747	9974.025
987.86502	10037.325
991.59999	10140.725
995.33237	10275.425
999.06217	10498.625
1002.78939	10758.325
1006.51404	10927.325
1010.23611	11008.525
1013.95561	11092.425
1017.67255	11102.025
1021.38692	10993.725
1025.09872	10878.425
1028.80796	10883.825
1032.51465	10995.925
1036.21877	11189.825
1039.92035	11227.525
1043.61937	11154.025
1047.31584	11011.525
1051.00976	10851.125
1054.70114	10759.425
1058.38998	10734.425
1062.07627	10790.025
1065.76003	10880.125
1069.44126	10945.325
1073.11995	11016.325
1076.79611	11128.425
1080.46974	11145.425
1084.14085	11187.225
1087.80943	11257.325
1091.47549	11318.425
1095.13903	11300.725
1098.80005	11159.225
1102.45857	10957.325
1106.11456	10863.325
1109.76805	10851.725
1113.41903	10910.425
1117.06751	11063.125
1120.71348	11195.225
1124.35696	11357.325
1127.99793	11561.925
1131.63641	11669.125
1135.2724	11517.325
1138.90589	11303.425
1142.5369	11186.825
1146.16542	11159.625
1149.79145	11113.425
1153.415	11176.225
1157.03607	11260.225
1160.65467	11502.625
1164.27079	11890.825
1167.88443	12440.425
1171.49561	13144.025
1175.10432	14065.025
1178.71056	15249.625
1182.31434	16337.025
1185.91565	16814.125
1189.51451	16668.725
1193.11091	16139.225
1196.70485	15438.625
1200.29634	14808.025
1203.88538	14338.025
1207.47197	13935.425
1211.05612	13593.125
1214.63782	13343.125
1218.21708	13182.325
1221.79391	13117.125
1225.36829	13094.625
1228.94024	12929.825
1232.50976	12739.525
1236.07685	12565.625
1239.6415	12429.725
1243.20374	12379.225
1246.76355	12435.125
1250.32093	12560.625
1253.8759	12784.525
1257.42845	13056.825
1260.97859	13360.525
1264.52631	13632.325
1268.07163	13942.825
1271.61453	14323.525
1275.15503	14689.525
1278.69312	15056.425
1282.22882	15368.425
1285.76211	15690.925
1289.29301	16103.225
1292.82151	16684.725
1296.34761	17395.425
1299.87133	18283.525
1303.39266	19424.225
1306.9116	20715.125
1310.42815	22083.625
1313.94233	22964.325
1317.45412	22978.725
1320.96354	22406.425
1324.47058	21632.325
1327.97525	20958.325
1331.47754	20452.325
1334.97747	20243.625
1338.47502	20254.425
1341.97022	20254.525
1345.46305	20133.525
1348.95352	19936.825
1352.44163	19977.825
1355.92738	20510.225
1359.41078	21544.125
1362.89183	22704.525
1366.37053	22608.025
1369.84688	20799.525
1373.32088	18377.125
1376.79254	16626.025
1380.26186	15796.025
1383.72883	15630.625
1387.19347	15564.025
1390.65578	15443.225
1394.11575	15400.325
1397.57339	15632.025
1401.0287	16124.725
1404.48168	16527.925
1407.93234	16809.425
1411.38068	16799.125
1414.82669	16517.125
1418.27039	15933.625
1421.71177	15244.825
1425.15083	14672.125
1428.58758	14289.225
1432.02203	14271.425
1435.45416	14473.725
1438.88399	14808.925
1442.31151	15075.925
1445.73673	15288.425
1449.15965	15538.025
1452.58027	15716.525
1455.9986	15695.325
1459.41463	15707.225
1462.82837	15877.425
1466.23982	16198.625
1469.64898	16527.325
1473.05586	16776.325
1476.46045	16865.625
1479.86276	16834.725
1483.26279	16707.925
1486.66054	16604.925
1490.05602	16552.825
1493.44922	16594.725
1496.84016	16592.425
1500.22882	16709.925
1503.61521	17099.225
1506.99934	17780.925
1510.38121	18512.325
1513.76081	18866.125
1517.13816	18438.125
1520.51324	17507.825
1523.88607	16547.825
1527.25665	15950.725
1530.62498	15721.225
1533.99105	15555.025
1537.35488	15449.925
1540.71647	15381.625
1544.07581	15260.625
1547.4329	15087.425
1550.78776	14954.725
1554.14038	14789.125
1557.49077	14709.125
1560.83892	14694.025
1564.18484	14688.725
1567.52853	14720.325
1570.86999	14841.525
1574.20922	15001.625
1577.54624	15164.925
1580.88103	15127.625
1584.2136	15047.225
1587.54395	15269.625
1590.87208	15859.125
1594.19801	16798.625
1597.52172	17936.025
1600.84321	18510.825
1604.16251	18025.925
1607.47959	16815.025
1610.79447	15375.025
1614.10715	14051.625
1617.41763	12956.425
1620.7259	12237.025
1624.03199	11866.025
1627.33587	11828.225
1630.63757	12066.225
1633.93707	12683.425
1637.23439	13694.425
1640.52951	15099.925
1643.82246	16837.825
1647.11321	18281.025
1650.40179	18729.325
1653.68819	17751.525
1656.97241	15664.825
1660.25446	13511.025
1663.53433	11963.125
1666.81203	11016.625
1670.08756	10437.025
1673.36092	10036.325
1676.63211	9834.025
1679.90115	9664.525
1683.16801	9504.425
1686.43272	9396.025
1689.69527	9331.725
1692.95567	9254.025
1696.2139	9181.125
1699.46999	9131.925
1702.72392	9087.825
1705.97571	9097.925
1709.22535	9078.025
1712.47284	9110.925
1715.71819	9112.025
1718.96139	9132.125
1722.20246	9116.525
1725.44139	9064.325
1728.67818	9011.425
1731.91284	8976.025
1735.14537	8937.425
1738.37576	8915.925
1741.60403	8884.125
1744.83017	8870.325
1748.05418	8842.525
1751.27607	8864.625
1754.49584	8806.525
1757.71349	8783.725
1760.92903	8753.225
1764.14244	8721.325
1767.35375	8720.825
1770.56294	8697.025
1773.77002	8684.225
1776.97499	8674.425
1780.17785	8681.725
1783.37861	8696.125
1786.57727	8660.325
1789.77382	8665.325
1792.96828	8625.325
1796.16064	8615.425
1799.3509	8608.025
1802.53907	8600.725
1805.72514	8553.225
1808.90913	8562.425
1812.09102	8544.725
1815.27083	8524.625
1818.44856	8532.525
1821.6242	8495.525
1824.79776	8484.425
1827.96924	8502.225
1831.13864	8491.125
1834.30597	8473.025
1837.47122	8493.325
1840.6344	8465.325
1843.7955	8469.625
1846.95454	8472.425
1850.11151	8463.525
1853.26642	8461.025
1856.41926	8479.225
1859.57004	8483.425
1862.71876	8464.925
1865.86542	8466.225
1869.01003	8457.725
1872.15258	8468.125
1875.29308	8469.825
1878.43152	8449.825
1881.56792	8454.925
1884.70227	8433.325
1887.83457	8432.625
1890.96482	8434.825
1894.09304	8432.225
1897.21921	8441.525
1900.34335	8429.425
1903.46544	8422.525
1906.58551	8417.725
1909.70353	8414.425
1912.81953	8403.325
1915.93349	8392.925
1919.04543	8383.625
1922.15534	8381.125
1925.26322	8344.025
1928.36908	8320.625
1931.47292	8310.325
1934.57473	8274.525
1937.67453	8266.725
1940.77232	8237.725
1943.86808	8195.925
1946.96184	8172.525
1950.05358	8146.025
1953.14331	8128.725
1956.23103	8098.325
1959.31675	8101.625
1962.40046	8068.725
1965.48217	8026.925
1968.56188	8018.625
1971.63959	7999.425
1974.7153	7957.825
1977.78901	7949.325
1980.86073	7915.225
1983.93046	7907.525
1986.99819	7884.025
1990.06394	7851.225
1993.1277	7810.425
1996.18947	7795.625
1999.24925	7799.025
2002.30706	7772.025
2005.36288	7748.025
2008.41672	7741.025
2011.46859	7726.425
2014.51848	7718.825
2017.56639	7680.925
2020.61233	7671.725
2023.6563	7661.725
2026.6983	7627.225
2029.73833	7623.625
2032.7764	7604.525
2035.8125	7605.425
2038.84664	7578.225
2041.87881	7572.425
2044.90903	7541.825
2047.93729	7537.125
2050.96359	7543.925
2053.98794	7511.325
2057.01034	7520.325
2060.03078	7540.425
2063.04927	7497.425
2066.06582	7505.525
2069.08042	7514.125
2072.09307	7499.925
2075.10378	7483.625
2078.11255	7483.325
2081.11938	7494.825
2084.12426	7480.925
2087.12722	7450.425
2090.12824	7468.925
2093.12732	7475.225
2096.12447	7456.925
2099.11969	7483.625
2102.11299	7474.325
2105.10435	7493.025
2108.09379	7463.225
2111.08131	7491.025
2114.0669	7479.925
2117.05057	7499.225
2120.03233	7495.225
2123.01216	7528.525
2125.99008	7501.425
2128.96609	7526.225
2131.94018	7514.825
2134.91236	7539.825
2137.88263	7546.825
2140.851	7526.925
2143.81746	7524.025
2146.78201	7525.725
2149.74466	7527.025
2152.7054	7551.725
2155.66425	7546.225
2158.6212	7537.325
2161.57625	7519.825
2164.52941	7522.025
2167.48067	7522.225
2170.43004	7541.925
2173.37752	7540.625
2176.32311	7525.825
2179.26681	7520.825
2182.20863	7513.825
2185.14856	7546.525
2188.08661	7530.725
2191.02278	7547.025
2193.95707	7534.725
2196.88948	7513.925
2199.82001	7514.525
2202.74867	7507.425
2205.67545	7532.325
2208.60037	7491.925
2211.52341	7512.825
2214.44458	7480.325
2217.36388	7487.825
2220.28132	7460.325
2223.1969	7439.625
2226.11061	7464.425
2229.02246	7438.225
2231.93245	7428.825
2234.84058	7411.125
2237.74686	7407.025
2240.65128	7397.225
2243.55385	7400.625
2246.45456	7355.225
2249.35343	7356.225
2252.25044	7357.825
2255.14561	7349.125
2258.03893	7310.525
2260.93041	7308.325
2263.82004	7286.025
2266.70783	7275.225
2269.59378	7247.325
2272.4779	7241.025
2275.36017	7236.425
2278.24061	7203.525
2281.11922	7230.225
2283.996	7204.125
2286.87094	7196.425
2289.74405	7189.025
2292.61534	7159.025
2295.4848	7168.625
2298.35243	7166.625
2301.21824	7138.325
2304.08223	7161.125
2306.94439	7163.825
2309.80474	7163.025
2312.66327	7171.325
2315.51999	7158.125
2318.37489	7148.125
2321.22797	7160.025
2324.07925	7137.025
2326.92871	7112.325
2329.77637	7139.025
2332.62222	7125.225
2335.46626	7089.425
2338.3085	7113.925
2341.14893	7100.925
2343.98756	7116.925
2346.8244	7113.425
2349.65943	7097.025
2352.49267	7114.425
2355.32411	7105.625
2358.15376	7095.825
2360.98161	7093.225
2363.80768	7103.225
2366.63195	7073.025
2369.45444	7076.825
2372.27514	7080.925
2375.09405	7077.225
2377.91118	7045.225
2380.72652	7040.425
2383.54009	7016.825
2386.35187	6998.125
2389.16188	6979.025
2391.97011	6960.725
2394.77657	6967.925
2397.58125	6954.525
2400.38416	6935.425
2403.18529	6932.725
2405.98466	6917.225
2408.78226	6913.425
2411.57809	6900.925
2414.37216	6891.525
2417.16446	6883.525
2419.955	6883.625
2422.74378	6862.225
2425.5308	6885.425
2428.31606	6861.625
2431.09956	6853.125
2433.88131	6824.125
2436.6613	6864.025
2439.43954	6847.525
2442.21603	6848.025
2444.99077	6850.825
2447.76377	6849.525
2450.53501	6838.125
2453.30451	6826.225
2456.07226	6847.825
2458.83827	6825.925
2461.60254	6830.425
2464.36507	6830.525
2467.12586	6836.525
2469.88492	6819.225
2472.64224	6827.525
2475.39782	6816.125
2478.15167	6810.125
2480.90379	6808.125
2483.65417	6814.625
2486.40283	6821.925
2489.14976	6826.325
2491.89497	6825.225
2494.63845	6822.225
2497.3802	6818.225
2500.12024	6824.325
2502.85855	6814.025
2505.59514	6821.025
2508.33002	6799.125
2511.06318	6805.225
2513.79462	6798.025
2516.52435	6769.925
2519.25237	6772.525
2521.97867	6740.325
2524.70327	6764.725
2527.42616	6755.625
2530.14734	6752.925
2532.86681	6743.425
2535.58458	6733.025
2538.30065	6734.625
2541.01501	6745.025
2543.72768	6703.625
2546.43864	6743.925
2549.14791	6716.425
2551.85548	6707.125
2554.56136	6691.625
2557.26554	6696.625
2559.96803	6672.325
2562.66883	6675.025
2565.36794	6665.725
2568.06536	6671.325
2570.7611	6659.625
2573.45514	6663.225
2576.14751	6646.025
2578.83819	6627.925
2581.52719	6638.125
2584.21451	6630.425
2586.90015	6639.125
2589.58411	6620.225
2592.2664	6627.025
2594.94701	6611.625
2597.62594	6618.325
2600.30321	6599.625
2602.9788	6592.825
2605.65273	6591.925
2608.32498	6589.425
2610.99557	6571.525
2613.66449	6584.225
2616.33175	6590.725
2618.99734	6565.625
2621.66128	6585.925
2624.32355	6570.325
2626.98416	6590.125
2629.64311	6578.325
2632.30041	6567.825
2634.95605	6555.925
2637.61004	6559.425
2640.26238	6539.925
2642.91306	6534.925
2645.56209	6535.425
2648.20948	6529.825
2650.85521	6536.025
2653.4993	6531.225
2656.14175	6544.725
2658.78255	6541.825
2661.42171	6531.125
2664.05923	6548.725
2666.6951	6552.625
2669.32934	6557.225
2671.96194	6553.925
2674.59291	6546.025
2677.22224	6556.825
2679.84993	6555.525
2682.476	6532.625
2685.10043	6546.825
2687.72324	6523.925
2690.34441	6532.925
2692.96396	6543.025
2695.58188	6521.825
2698.19818	6543.225
2700.81285	6536.325
2703.4259	6532.225
2706.03733	6526.025
2708.64714	6510.125
2711.25533	6534.825
2713.86191	6528.425
2716.46687	6537.825
2719.07021	6547.425
2721.67194	6568.925
2724.27206	6560.925
2726.87057	6563.625
2729.46747	6589.125
2732.06276	6574.525
2734.65644	6565.825
2737.24852	6574.125
2739.83899	6564.325
2742.42786	6566.225
2745.01513	6542.525
2747.60079	6546.725
2750.18486	6544.425
2752.76733	6541.425
2755.3482	6536.725
2757.92747	6535.625
2760.50515	6524.525
2763.08123	6530.225
2765.65573	6538.325
2768.22863	6534.125
2770.79994	6524.825
2773.36967	6509.325
2775.9378	6518.725
2778.50435	6530.425
2781.06932	6522.725
2783.6327	6508.825
2786.1945	6504.525
2788.75471	6516.825
2791.31335	6510.825
2793.87041	6505.725
2796.42589	6489.125
2798.97979	6478.825
2801.53212	6482.525
2804.08288	6473.825
2806.63206	6460.325
2809.17967	6454.025
2811.72571	6427.425
2814.27018	6425.025
2816.81308	6425.625
2819.35442	6424.725
2821.89419	6422.525
2824.43239	6400.125
2826.96904	6428.225
2829.50412	6402.225
2832.03763	6397.225
2834.56959	6403.025
2837.1	6391.925
2839.62884	6411.825
2842.15613	6424.125
2844.68186	6474.425
2847.20604	6485.225
2849.72867	6503.025
2852.24974	6493.325
2854.76927	6488.625
2857.28724	6466.225
2859.80367	6454.825
2862.31855	6466.125
2864.83189	6437.425
2867.34368	6434.425
2869.85393	6439.625
2872.36264	6424.625
2874.8698	6455.325
2877.37543	6457.225
2879.87952	6432.825
2882.38207	6449.825
2884.88308	6448.325
2887.38256	6457.425
2889.88051	6466.725
2892.37692	6460.325
2894.8718	6466.925
2897.36515	6486.225
2899.85698	6512.725
2902.34727	6517.225
2904.83604	6540.025
2907.32328	6531.925
2909.809	6533.725
2912.29319	6548.625
2914.77587	6549.425
2917.25702	6556.525
2919.73665	6540.925
2922.21476	6560.225
2924.69136	6552.625
2927.16644	6555.725
2929.64	6546.425
2932.11205	6557.025
2934.58258	6519.825
2937.05161	6547.225
2939.51912	6527.025
2941.98513	6501.925
2944.44962	6484.825
2946.91261	6464.225
2949.37409	6463.325
2951.83407	6447.125
2954.29254	6415.625
2956.74951	6428.325
2959.20498	6425.925
2961.65895	6402.425
2964.11142	6392.125
2966.56239	6375.325
2969.01186	6367.225
2971.45984	6349.425
2973.90632	6340.325
2976.35131	6313.825
2978.7948	6307.325
2981.23681	6290.625
2983.67732	6300.225
2986.11635	6251.425
2988.55388	6260.425
2990.98993	6231.825
2993.4245	6208.125
2995.85758	6223.925
2998.28917	6204.425
3000.71928	6194.325
3003.14791	6183.625
3005.57506	6180.925
3008.00073	6140.725
3010.42493	6143.525
3012.84764	6162.425
3015.26888	6161.525
3017.68865	6140.325
3020.10694	6129.525
3022.52376	6103.025
3024.9391	6095.125
3027.35298	6086.525
3029.76539	6087.825
3032.17632	6074.625
3034.5858	6082.225
3036.9938	6078.025
3039.40034	6076.425
3041.80542	6083.125
3044.20903	6072.425
3046.61118	6061.825
3049.01187	6068.325
3051.4111	6049.225
3053.80888	6040.325
3056.20519	6037.725
3058.60005	6019.025
3060.99345	6005.425
3063.3854	6015.025
3065.7759	5963.925
3068.16494	5989.425
3070.55254	5955.825
3072.93868	5969.925
3075.32338	5951.925
3077.70662	5949.525
3080.08842	5921.025
3082.46878	5925.725
3084.84769	5922.825
3087.22515	5930.625
3089.60118	5927.625
3091.97576	5924.925
3094.3489	5958.025
3096.72061	5940.725
3099.09087	5952.625
3101.4597	5934.725
3103.82709	5934.325
3106.19305	5936.725
3108.55757	5950.425
3110.92066	5922.325
3113.28232	5916.225
3115.64255	5910.225
3118.00134	5892.725
3120.35871	5898.325
3122.71466	5904.125
3125.06917	5899.025
3127.42226	5875.625
3129.77393	5870.225
3132.12417	5875.325
3134.47299	5887.025
3136.82039	5892.225
3139.16636	5899.425
3141.51092	5908.725
3143.85406	5889.425
3146.19579	5897.025
3148.53609	5897.225
3150.87499	5924.225
3153.21246	5919.625
3155.54853	5939.525
3157.88318	5934.825
3160.21642	5934.625
3162.54826	5933.025
3164.87868	5955.525
3167.2077	5939.125
3169.5353	5960.625
3171.86151	5952.625
3174.18631	5951.525
3176.5097	5958.625
3178.83169	5947.925
3181.15228	5964.225
3183.47147	5952.825
3185.78926	5948.225
3188.10565	5946.925
3190.42065	5949.625
3192.73424	5938.225
