Data from AgNPs_FTO_APTES_UA_1uM_CRN_0uM_R6G_10uM_NaF_0.1M_Addition_RamanShift__3__11-09-09-405.txt Node

Date: Thu Jan 27 11:09:09 GMT 2022
User: TCL
Spectrometer: QEP01345
Trigger mode: 4
Integration Time (sec): 7.000000E0
Scans to average: 10
Electric dark correction enabled: true
Nonlinearity correction enabled: false
Boxcar width: 0
XAxis mode: Raman Shifts
Number of Pixels in Spectrum: 1044
>>>>>Begin Spectral Data<<<<<
46.04893	0.0625
50.45542	0.0625
54.85868	0.1625
59.25871	-0.1375
63.6555	23.3625
68.04907	24.5625
72.43941	27.9625
76.82654	29.0625
81.21044	27.1625
85.59113	28.7625
89.96862	30.6625
94.34289	30.6625
98.71396	36.8625
103.08183	35.1625
107.4465	39.1625
111.80798	38.7625
116.16626	38.3625
120.52136	40.8625
124.87327	36.5625
129.222	38.8625
133.56755	39.2625
137.90993	41.2625
142.24913	47.1625
146.58517	51.0625
150.91804	58.6625
155.24774	66.7625
159.57429	77.1625
163.89768	95.5625
168.21792	124.8625
172.53501	159.3625
176.84895	216.5625
181.15975	302.9625
185.46741	413.7625
189.77193	572.9625
194.07331	776.1625
198.37157	1011.9625
202.6667	1261.3625
206.9587	1505.6625
211.24758	1756.2625
215.53334	1991.3625
219.81599	2248.1625
224.09553	2501.2625
228.37195	2780.1625
232.64527	3089.4625
236.91549	3393.6625
241.18261	3715.4625
245.44663	4001.2625
249.70755	4266.2625
253.96539	4476.1625
258.22014	4659.9625
262.4718	4792.8625
266.72039	4872.0625
270.96589	4869.4625
275.20832	4857.5625
279.44768	4783.8625
283.68397	4683.5625
287.91719	4601.7625
292.14735	4497.2625
296.37445	4424.9625
300.59849	4404.3625
304.81948	4418.8625
309.03742	4410.7625
313.25231	4400.6625
317.46415	4322.1625
321.67296	4226.8625
325.87872	4133.8625
330.08145	4087.3625
334.28114	4067.1625
338.47781	4082.4625
342.67145	4109.5625
346.86207	4144.6625
351.04966	4204.2625
355.23424	4272.3625
359.4158	4322.2625
363.59435	4383.7625
367.76989	4405.0625
371.94243	4405.4625
376.11196	4395.0625
380.27849	4409.9625
384.44203	4402.8625
388.60257	4405.5625
392.76012	4374.5625
396.91468	4410.1625
401.06626	4441.1625
405.21485	4464.3625
409.36047	4422.9625
413.50311	4359.1625
417.64277	4289.5625
421.77947	4235.2625
425.9132	4210.0625
430.04396	4218.7625
434.17176	4234.3625
438.2966	4276.2625
442.41849	4326.8625
446.53742	4381.0625
450.6534	4443.1625
454.76644	4479.8625
458.87653	4477.9625
462.98368	4471.7625
467.08789	4449.8625
471.18916	4445.7625
475.2875	4419.1625
479.38291	4417.0625
483.4754	4390.9625
487.56496	4388.3625
491.6516	4369.4625
495.73531	4397.1625
499.81612	4388.7625
503.89401	4421.1625
507.96899	4472.8625
512.04106	4478.2625
516.11023	4520.6625
520.1765	4537.1625
524.23987	4533.1625
528.30034	4502.1625
532.35792	4456.5625
536.41261	4448.7625
540.46441	4412.4625
544.51333	4402.3625
548.55936	4421.6625
552.60252	4424.0625
556.64279	4466.2625
560.6802	4485.7625
564.71473	4469.6625
568.7464	4505.9625
572.7752	4511.7625
576.80114	4481.0625
580.82422	4408.2625
584.84444	4373.2625
588.86181	4377.2625
592.87633	4421.1625
596.888	4470.6625
600.89682	4488.8625
604.9028	4601.2625
608.90594	5012.4625
612.90624	5649.9625
616.90371	5730.8625
620.89834	4983.3625
624.89015	4545.4625
628.87913	4414.3625
632.86528	4415.8625
636.84862	4443.4625
640.82913	4439.5625
644.80683	4416.6625
648.78172	4371.9625
652.75379	4379.2625
656.72306	4439.8625
660.68952	4516.6625
664.65319	4512.4625
668.61405	4487.4625
672.57211	4457.8625
676.52738	4495.2625
680.47986	4531.5625
684.42955	4557.9625
688.37646	4521.6625
692.32058	4499.5625
696.26192	4451.6625
700.20048	4404.5625
704.13626	4399.1625
708.06928	4398.5625
711.99952	4396.8625
715.927	4412.8625
719.85171	4437.6625
723.77365	4471.3625
727.69284	4494.2625
731.60928	4515.1625
735.52295	4520.7625
739.43388	4521.3625
743.34206	4494.3625
747.24749	4478.7625
751.15017	4482.8625
755.05012	4484.6625
758.94733	4517.8625
762.8418	4607.2625
766.73354	4838.0625
770.62254	5114.6625
774.50882	5316.3625
778.39237	5255.5625
782.27321	4995.5625
786.15132	4723.0625
790.02671	4561.3625
793.89938	4502.2625
797.76935	4488.3625
801.6366	4498.9625
805.50115	4495.4625
809.36299	4444.4625
813.22213	4385.2625
817.07857	4357.7625
820.93231	4313.4625
824.78336	4284.1625
828.63172	4296.3625
832.47738	4302.6625
836.32036	4308.3625
840.16066	4294.3625
843.99827	4292.7625
847.8332	4266.9625
851.66546	4253.6625
855.49504	4229.3625
859.32195	4201.5625
863.1462	4197.4625
866.96777	4189.3625
870.78668	4179.5625
874.60293	4185.1625
878.41652	4175.8625
882.22745	4168.5625
886.03573	4186.6625
889.84136	4209.7625
893.64433	4223.5625
897.44466	4243.7625
901.24235	4259.9625
905.0374	4284.7625
908.8298	4307.0625
912.61957	4366.0625
916.40671	4434.6625
920.19121	4539.5625
923.97308	4621.1625
927.75233	4703.4625
931.52895	4734.3625
935.30295	4724.9625
939.07433	4674.6625
942.84309	4565.4625
946.60924	4527.4625
950.37278	4462.6625
954.13371	4398.6625
957.89203	4330.5625
961.64774	4279.2625
965.40086	4205.7625
969.15137	4162.4625
972.89929	4117.7625
976.64461	4081.9625
980.38733	4063.5625
984.12747	4059.0625
987.86502	4058.8625
991.59999	4069.3625
995.33237	4110.9625
999.06217	4154.3625
1002.78939	4227.1625
1006.51404	4246.2625
1010.23611	4309.4625
1013.95561	4351.0625
1017.67255	4329.0625
1021.38692	4331.1625
1025.09872	4296.2625
1028.80796	4247.4625
1032.51465	4206.8625
1036.21877	4170.6625
1039.92035	4165.3625
1043.61937	4146.6625
1047.31584	4155.3625
1051.00976	4167.8625
1054.70114	4187.4625
1058.38998	4189.2625
1062.07627	4179.6625
1065.76003	4154.2625
1069.44126	4139.6625
1073.11995	4114.7625
1076.79611	4096.2625
1080.46974	4101.0625
1084.14085	4117.5625
1087.80943	4134.2625
1091.47549	4113.4625
1095.13903	4080.6625
1098.80005	4000.8625
1102.45857	3944.9625
1106.11456	3912.2625
1109.76805	3911.0625
1113.41903	3925.9625
1117.06751	3963.1625
1120.71348	4006.2625
1124.35696	4065.8625
1127.99793	4110.2625
1131.63641	4147.8625
1135.2724	4097.0625
1138.90589	3994.7625
1142.5369	3929.3625
1146.16542	3857.5625
1149.79145	3828.0625
1153.415	3796.0625
1157.03607	3791.0625
1160.65467	3806.8625
1164.27079	3846.5625
1167.88443	3925.1625
1171.49561	4057.2625
1175.10432	4276.1625
1178.71056	4581.9625
1182.31434	4861.1625
1185.91565	4992.8625
1189.51451	4940.5625
1193.11091	4780.7625
1196.70485	4616.7625
1200.29634	4432.0625
1203.88538	4290.9625
1207.47197	4120.2625
1211.05612	3981.1625
1214.63782	3910.0625
1218.21708	3877.7625
1221.79391	3894.7625
1225.36829	3958.5625
1228.94024	3996.1625
1232.50976	4009.1625
1236.07685	4006.6625
1239.6415	3969.6625
1243.20374	3955.0625
1246.76355	3943.2625
1250.32093	3954.5625
1253.8759	3982.3625
1257.42845	3999.9625
1260.97859	4045.7625
1264.52631	4116.7625
1268.07163	4180.9625
1271.61453	4251.9625
1275.15503	4313.8625
1278.69312	4380.4625
1282.22882	4429.8625
1285.76211	4513.1625
1289.29301	4633.3625
1292.82151	4739.1625
1296.34761	4825.6625
1299.87133	4917.9625
1303.39266	5051.4625
1306.9116	5241.0625
1310.42815	5464.2625
1313.94233	5594.6625
1317.45412	5525.2625
1320.96354	5255.1625
1324.47058	4977.5625
1327.97525	4735.2625
1331.47754	4615.8625
1334.97747	4592.4625
1338.47502	4630.6625
1341.97022	4716.0625
1345.46305	4869.3625
1348.95352	5077.7625
1352.44163	5341.0625
1355.92738	5710.9625
1359.41078	6193.8625
1362.89183	6684.9625
1366.37053	6809.3625
1369.84688	6302.6625
1373.32088	5629.9625
1376.79254	5147.2625
1380.26186	4924.6625
1383.72883	4810.8625
1387.19347	4749.4625
1390.65578	4666.0625
1394.11575	4623.8625
1397.57339	4602.1625
1401.0287	4565.3625
1404.48168	4519.1625
1407.93234	4470.8625
1411.38068	4442.9625
1414.82669	4403.7625
1418.27039	4382.9625
1421.71177	4354.7625
1425.15083	4319.7625
1428.58758	4261.6625
1432.02203	4229.0625
1435.45416	4238.9625
1438.88399	4219.4625
1442.31151	4233.3625
1445.73673	4196.4625
1449.15965	4169.3625
1452.58027	4170.0625
1455.9986	4164.2625
1459.41463	4132.0625
1462.82837	4134.6625
1466.23982	4162.4625
1469.64898	4204.0625
1473.05586	4242.6625
1476.46045	4281.5625
1479.86276	4312.6625
1483.26279	4348.3625
1486.66054	4386.6625
1490.05602	4433.1625
1493.44922	4485.5625
1496.84016	4587.2625
1500.22882	4761.3625
1503.61521	5043.8625
1506.99934	5374.7625
1510.38121	5687.6625
1513.76081	5831.9625
1517.13816	5648.9625
1520.51324	5234.0625
1523.88607	4756.3625
1527.25665	4447.3625
1530.62498	4275.9625
1533.99105	4165.1625
1537.35488	4097.2625
1540.71647	4044.8625
1544.07581	3993.1625
1547.4329	3982.6625
1550.78776	3977.0625
1554.14038	3983.1625
1557.49077	3992.5625
1560.83892	3990.8625
1564.18484	4015.1625
1567.52853	4050.3625
1570.86999	4111.4625
1574.20922	4171.7625
1577.54624	4174.0625
1580.88103	4069.0625
1584.2136	3896.5625
1587.54395	3765.3625
1590.87208	3684.5625
1594.19801	3673.0625
1597.52172	3740.1625
1600.84321	3771.1625
1604.16251	3710.7625
1607.47959	3641.3625
1610.79447	3545.6625
1614.10715	3463.9625
1617.41763	3388.8625
1620.7259	3337.9625
1624.03199	3294.9625
1627.33587	3292.7625
1630.63757	3267.3625
1633.93707	3293.4625
1637.23439	3304.3625
1640.52951	3379.5625
1643.82246	3512.4625
1647.11321	3727.3625
1650.40179	3881.7625
1653.68819	3848.2625
1656.97241	3582.4625
1660.25446	3258.4625
1663.53433	2998.8625
1666.81203	2852.7625
1670.08756	2774.6625
1673.36092	2721.1625
1676.63211	2678.5625
1679.90115	2654.7625
1683.16801	2605.9625
1686.43272	2562.2625
1689.69527	2530.4625
1692.95567	2458.1625
1696.2139	2397.6625
1699.46999	2310.0625
1702.72392	2270.9625
1705.97571	2308.2625
1709.22535	2359.8625
1712.47284	2387.4625
1715.71819	2410.0625
1718.96139	2409.6625
1722.20246	2406.0625
1725.44139	2400.6625
1728.67818	2380.4625
1731.91284	2353.7625
1735.14537	2337.4625
1738.37576	2334.7625
1741.60403	2304.9625
1744.83017	2285.1625
1748.05418	2277.6625
1751.27607	2259.6625
1754.49584	2227.4625
1757.71349	2181.0625
1760.92903	2149.7625
1764.14244	2129.4625
1767.35375	2123.3625
1770.56294	2104.1625
1773.77002	2111.5625
1776.97499	2125.4625
1780.17785	2148.9625
1783.37861	2163.5625
1786.57727	2171.2625
1789.77382	2173.0625
1792.96828	2158.0625
1796.16064	2153.8625
1799.3509	2141.3625
1802.53907	2145.4625
1805.72514	2131.4625
1808.90913	2120.3625
1812.09102	2120.9625
1815.27083	2110.2625
1818.44856	2108.6625
1821.6242	2091.4625
1824.79776	2092.5625
1827.96924	2095.7625
1831.13864	2087.6625
1834.30597	2071.9625
1837.47122	2082.9625
1840.6344	2067.4625
1843.7955	2057.5625
1846.95454	2062.5625
1850.11151	2055.4625
1853.26642	2048.1625
1856.41926	2036.6625
1859.57004	2046.7625
1862.71876	2038.0625
1865.86542	2034.5625
1869.01003	2036.6625
1872.15258	2021.7625
1875.29308	2019.2625
1878.43152	2022.8625
1881.56792	2011.3625
1884.70227	2005.2625
1887.83457	1989.2625
1890.96482	1998.0625
1894.09304	1986.8625
1897.21921	1992.3625
1900.34335	1981.9625
1903.46544	1984.3625
1906.58551	1982.7625
1909.70353	1979.5625
1912.81953	1967.5625
1915.93349	1960.9625
1919.04543	1956.0625
1922.15534	1953.2625
1925.26322	1951.2625
1928.36908	1939.1625
1931.47292	1924.2625
1934.57473	1928.8625
1937.67453	1922.1625
1940.77232	1916.0625
1943.86808	1905.5625
1946.96184	1902.8625
1950.05358	1880.9625
1953.14331	1885.2625
1956.23103	1877.2625
1959.31675	1873.8625
1962.40046	1864.4625
1965.48217	1858.1625
1968.56188	1855.3625
1971.63959	1842.3625
1974.7153	1838.4625
1977.78901	1835.8625
1980.86073	1827.5625
1983.93046	1824.8625
1986.99819	1821.5625
1990.06394	1795.3625
1993.1277	1795.5625
1996.18947	1788.0625
1999.24925	1781.8625
2002.30706	1769.5625
2005.36288	1766.7625
2008.41672	1767.1625
2011.46859	1762.4625
2014.51848	1744.1625
2017.56639	1743.3625
2020.61233	1740.8625
2023.6563	1726.7625
2026.6983	1725.7625
2029.73833	1713.5625
2032.7764	1711.6625
2035.8125	1708.6625
2038.84664	1693.1625
2041.87881	1693.4625
2044.90903	1686.6625
2047.93729	1680.8625
2050.96359	1695.0625
2053.98794	1670.6625
2057.01034	1678.5625
2060.03078	1672.9625
2063.04927	1668.6625
2066.06582	1669.1625
2069.08042	1665.4625
2072.09307	1672.3625
2075.10378	1659.0625
2078.11255	1649.4625
2081.11938	1655.6625
2084.12426	1667.0625
2087.12722	1663.3625
2090.12824	1652.4625
2093.12732	1649.6625
2096.12447	1641.8625
2099.11969	1639.4625
2102.11299	1634.1625
2105.10435	1644.6625
2108.09379	1640.8625
2111.08131	1644.9625
2114.0669	1637.5625
2117.05057	1636.6625
2120.03233	1635.0625
2123.01216	1639.8625
2125.99008	1635.2625
2128.96609	1631.7625
2131.94018	1630.6625
2134.91236	1637.0625
2137.88263	1622.9625
2140.851	1631.9625
2143.81746	1625.2625
2146.78201	1631.6625
2149.74466	1633.9625
2152.7054	1623.7625
2155.66425	1618.2625
2158.6212	1612.1625
2161.57625	1611.2625
2164.52941	1619.1625
2167.48067	1604.5625
2170.43004	1611.0625
2173.37752	1598.5625
2176.32311	1606.0625
2179.26681	1604.4625
2182.20863	1592.9625
2185.14856	1595.2625
2188.08661	1589.3625
2191.02278	1600.2625
2193.95707	1589.9625
2196.88948	1587.2625
2199.82001	1583.2625
2202.74867	1578.8625
2205.67545	1572.3625
2208.60037	1575.1625
2211.52341	1574.6625
2214.44458	1570.6625
2217.36388	1557.2625
2220.28132	1553.6625
2223.1969	1551.6625
2226.11061	1541.7625
2229.02246	1550.4625
2231.93245	1544.6625
2234.84058	1535.4625
2237.74686	1526.9625
2240.65128	1523.0625
2243.55385	1523.8625
2246.45456	1512.4625
2249.35343	1524.2625
2252.25044	1519.7625
2255.14561	1510.0625
2258.03893	1499.2625
2260.93041	1471.4625
2263.82004	1484.1625
2266.70783	1491.2625
2269.59378	1484.5625
2272.4779	1469.7625
2275.36017	1483.4625
2278.24061	1462.9625
2281.11922	1478.2625
2283.996	1468.1625
2286.87094	1463.9625
2289.74405	1452.9625
2292.61534	1451.9625
2295.4848	1445.2625
2298.35243	1449.2625
2301.21824	1450.3625
2304.08223	1444.4625
2306.94439	1438.7625
2309.80474	1430.1625
2312.66327	1420.5625
2315.51999	1428.9625
2318.37489	1421.6625
2321.22797	1419.6625
2324.07925	1414.1625
2326.92871	1410.3625
2329.77637	1411.3625
2332.62222	1402.9625
2335.46626	1388.7625
2338.3085	1394.2625
2341.14893	1392.0625
2343.98756	1385.6625
2346.8244	1386.5625
2349.65943	1376.9625
2352.49267	1382.2625
2355.32411	1380.7625
2358.15376	1374.7625
2360.98161	1387.2625
2363.80768	1384.2625
2366.63195	1379.0625
2369.45444	1371.9625
2372.27514	1383.0625
2375.09405	1377.5625
2377.91118	1368.9625
2380.72652	1355.1625
2383.54009	1358.6625
2386.35187	1358.2625
2389.16188	1346.2625
2391.97011	1339.4625
2394.77657	1341.4625
2397.58125	1323.9625
2400.38416	1334.3625
2403.18529	1326.0625
2405.98466	1314.4625
2408.78226	1316.3625
2411.57809	1307.9625
2414.37216	1320.8625
2417.16446	1310.1625
2419.955	1303.7625
2422.74378	1307.4625
2425.5308	1312.6625
2428.31606	1298.3625
2431.09956	1300.7625
2433.88131	1290.6625
2436.6613	1296.5625
2439.43954	1293.4625
2442.21603	1291.1625
2444.99077	1292.2625
2447.76377	1289.1625
2450.53501	1280.7625
2453.30451	1281.5625
2456.07226	1279.0625
2458.83827	1265.6625
2461.60254	1273.5625
2464.36507	1261.8625
2467.12586	1260.7625
2469.88492	1261.5625
2472.64224	1264.7625
2475.39782	1253.7625
2478.15167	1238.6625
2480.90379	1245.4625
2483.65417	1254.5625
2486.40283	1243.6625
2489.14976	1252.5625
2491.89497	1249.6625
2494.63845	1233.0625
2497.3802	1227.3625
2500.12024	1234.6625
2502.85855	1239.8625
2505.59514	1238.2625
2508.33002	1230.1625
2511.06318	1229.6625
2513.79462	1233.9625
2516.52435	1223.2625
2519.25237	1217.2625
2521.97867	1215.6625
2524.70327	1211.7625
2527.42616	1206.8625
2530.14734	1204.2625
2532.86681	1206.4625
2535.58458	1196.3625
2538.30065	1198.8625
2541.01501	1210.0625
2543.72768	1189.4625
2546.43864	1199.8625
2549.14791	1186.4625
2551.85548	1191.3625
2554.56136	1183.9625
2557.26554	1185.1625
2559.96803	1180.2625
2562.66883	1183.7625
2565.36794	1171.5625
2568.06536	1165.6625
2570.7611	1171.9625
2573.45514	1170.8625
2576.14751	1163.6625
2578.83819	1167.8625
2581.52719	1163.6625
2584.21451	1155.4625
2586.90015	1147.4625
2589.58411	1142.8625
2592.2664	1148.8625
2594.94701	1143.3625
2597.62594	1140.6625
2600.30321	1134.7625
2602.9788	1132.2625
2605.65273	1135.0625
2608.32498	1122.4625
2610.99557	1130.8625
2613.66449	1131.7625
2616.33175	1126.6625
2618.99734	1128.4625
2621.66128	1119.1625
2624.32355	1117.8625
2626.98416	1115.5625
2629.64311	1114.7625
2632.30041	1124.7625
2634.95605	1112.4625
2637.61004	1109.6625
2640.26238	1111.9625
2642.91306	1100.6625
2645.56209	1108.2625
2648.20948	1093.3625
2650.85521	1107.8625
2653.4993	1106.5625
2656.14175	1108.8625
2658.78255	1107.8625
2661.42171	1115.3625
2664.05923	1112.4625
2666.6951	1114.1625
2669.32934	1113.7625
2671.96194	1101.3625
2674.59291	1112.6625
2677.22224	1109.2625
2679.84993	1111.5625
2682.476	1111.4625
2685.10043	1107.4625
2687.72324	1107.5625
2690.34441	1106.1625
2692.96396	1111.5625
2695.58188	1115.7625
2698.19818	1110.6625
2700.81285	1108.8625
2703.4259	1091.0625
2706.03733	1023.9625
2708.64714	1057.1625
2711.25533	1095.7625
2713.86191	1106.5625
2716.46687	1112.7625
2719.07021	1119.0625
2721.67194	1126.3625
2724.27206	1132.4625
2726.87057	1135.4625
2729.46747	1137.9625
2732.06276	1139.7625
2734.65644	1137.6625
2737.24852	1149.6625
2739.83899	1147.2625
2742.42786	1148.8625
2745.01513	1147.5625
2747.60079	1142.0625
2750.18486	1150.7625
2752.76733	1142.8625
2755.3482	1152.8625
2757.92747	1159.3625
2760.50515	1158.5625
2763.08123	1150.5625
2765.65573	1147.8625
2768.22863	1151.5625
2770.79994	1148.0625
2773.36967	1148.1625
2775.9378	1152.4625
2778.50435	1155.0625
2781.06932	1156.5625
2783.6327	1149.1625
2786.1945	1154.2625
2788.75471	1150.7625
2791.31335	1141.1625
2793.87041	1144.4625
2796.42589	1142.5625
2798.97979	1154.5625
2801.53212	1149.5625
2804.08288	1143.3625
2806.63206	1142.1625
2809.17967	1140.0625
2811.72571	1133.6625
2814.27018	1129.6625
2816.81308	1127.6625
2819.35442	1128.3625
2821.89419	1126.4625
2824.43239	1131.6625
2826.96904	1130.4625
2829.50412	1128.9625
2832.03763	1120.2625
2834.56959	1132.1625
2837.1	1131.9625
2839.62884	1132.8625
2842.15613	1131.9625
2844.68186	1150.4625
2847.20604	1158.9625
2849.72867	1169.0625
2852.24974	1177.2625
2854.76927	1173.9625
2857.28724	1171.9625
2859.80367	1185.1625
2862.31855	1205.2625
2864.83189	1218.6625
2867.34368	1224.5625
2869.85393	1236.3625
2872.36264	1252.0625
2874.8698	1262.7625
2877.37543	1274.7625
2879.87952	1283.0625
2882.38207	1285.5625
2884.88308	1306.5625
2887.38256	1305.5625
2889.88051	1305.9625
2892.37692	1309.2625
2894.8718	1313.1625
2897.36515	1311.4625
2899.85698	1323.5625
2902.34727	1323.8625
2904.83604	1334.0625
2907.32328	1328.8625
2909.809	1342.4625
2912.29319	1344.7625
2914.77587	1344.6625
2917.25702	1344.9625
2919.73665	1359.4625
2922.21476	1358.0625
2924.69136	1361.0625
2927.16644	1369.8625
2929.64	1376.5625
2932.11205	1360.7625
2934.58258	1360.8625
2937.05161	1353.9625
2939.51912	1357.9625
2941.98513	1339.1625
2944.44962	1321.5625
2946.91261	1291.4625
2949.37409	1284.9625
2951.83407	1263.1625
2954.29254	1236.7625
2956.74951	1230.4625
2959.20498	1203.1625
2961.65895	1187.1625
2964.11142	1173.8625
2966.56239	1148.6625
2969.01186	1127.5625
2971.45984	1118.9625
2973.90632	1113.4625
2976.35131	1092.9625
2978.7948	1080.3625
2981.23681	1067.3625
2983.67732	1063.3625
2986.11635	1052.5625
2988.55388	1039.9625
2990.98993	1029.6625
2993.4245	1025.9625
2995.85758	1010.5625
2998.28917	1011.9625
3000.71928	1001.9625
3003.14791	995.1625
3005.57506	999.4625
3008.00073	993.2625
3010.42493	994.9625
3012.84764	986.2625
3015.26888	990.6625
3017.68865	984.2625
3020.10694	980.4625
3022.52376	980.8625
3024.9391	977.0625
3027.35298	973.3625
3029.76539	970.8625
3032.17632	967.1625
3034.5858	977.4625
3036.9938	962.1625
3039.40034	962.8625
3041.80542	968.8625
3044.20903	962.1625
3046.61118	964.7625
3049.01187	962.2625
3051.4111	963.2625
3053.80888	958.7625
3056.20519	962.2625
3058.60005	959.4625
3060.99345	966.9625
3063.3854	956.7625
3065.7759	959.1625
3068.16494	954.3625
3070.55254	959.1625
3072.93868	955.2625
3075.32338	961.2625
3077.70662	963.2625
3080.08842	961.2625
3082.46878	965.3625
3084.84769	967.6625
3087.22515	964.5625
3089.60118	967.2625
3091.97576	975.7625
3094.3489	977.0625
3096.72061	976.3625
3099.09087	985.4625
3101.4597	983.1625
3103.82709	986.8625
3106.19305	989.5625
3108.55757	1002.6625
3110.92066	995.8625
3113.28232	996.2625
3115.64255	997.6625
3118.00134	1009.0625
3120.35871	999.0625
3122.71466	1004.1625
3125.06917	1010.7625
3127.42226	1010.1625
3129.77393	1015.7625
3132.12417	1012.1625
