Data from AgNPs_FTO_APTES_UA_1uM_CRN_1000uM_R6G_10uM_NaF_0.1M_Addition_RamanShift__1__18-34-49-915.txt Node

Date: Thu Jan 27 18:34:49 GMT 2022
User: TCL
Spectrometer: QEP01345
Trigger mode: 4
Integration Time (sec): 7.000000E0
Scans to average: 10
Electric dark correction enabled: true
Nonlinearity correction enabled: false
Boxcar width: 0
XAxis mode: Raman Shifts
Number of Pixels in Spectrum: 1044
>>>>>Begin Spectral Data<<<<<
46.04893	0.125
50.45542	0.625
54.85868	-0.275
59.25871	-0.175
63.6555	39.225
68.04907	41.425
72.43941	40.525
76.82654	51.325
81.21044	48.525
85.59113	49.625
89.96862	54.325
94.34289	54.725
98.71396	57.925
103.08183	53.425
107.4465	59.825
111.80798	59.225
116.16626	61.425
120.52136	65.725
124.87327	67.925
129.222	63.825
133.56755	68.325
137.90993	73.625
142.24913	78.825
146.58517	87.525
150.91804	99.225
155.24774	112.925
159.57429	138.325
163.89768	171.025
168.21792	223.925
172.53501	301.525
176.84895	414.425
181.15975	576.125
185.46741	819.625
189.77193	1125.125
194.07331	1504.325
198.37157	1947.525
202.6667	2415.125
206.9587	2887.725
211.24758	3352.325
215.53334	3823.925
219.81599	4326.025
224.09553	4872.525
228.37195	5466.425
232.64527	6102.925
236.91549	6788.725
241.18261	7463.425
245.44663	8064.725
249.70755	8590.925
253.96539	9013.925
258.22014	9375.025
262.4718	9660.225
266.72039	9889.525
270.96589	9965.125
275.20832	9922.125
279.44768	9801.925
283.68397	9627.725
287.91719	9457.225
292.14735	9359.825
296.37445	9312.025
300.59849	9394.325
304.81948	9515.525
309.03742	9583.025
313.25231	9533.625
317.46415	9316.725
321.67296	8998.425
325.87872	8763.525
330.08145	8610.225
334.28114	8639.525
338.47781	8707.125
342.67145	8819.025
346.86207	9020.925
351.04966	9259.125
355.23424	9483.525
359.4158	9691.125
363.59435	9808.725
367.76989	9880.825
371.94243	9952.125
376.11196	9960.325
380.27849	10016.525
384.44203	10023.625
388.60257	10014.725
392.76012	10091.225
396.91468	10186.425
401.06626	10357.025
405.21485	10517.525
409.36047	10480.925
413.50311	10227.425
417.64277	9976.325
421.77947	9797.825
425.9132	9740.825
430.04396	9711.225
434.17176	9735.225
438.2966	9795.525
442.41849	9898.625
446.53742	10094.125
450.6534	10299.725
454.76644	10410.025
458.87653	10438.325
462.98368	10348.325
467.08789	10253.325
471.18916	10137.725
475.2875	10002.625
479.38291	9869.225
483.4754	9815.625
487.56496	9680.225
491.6516	9639.925
495.73531	9629.625
499.81612	9616.125
503.89401	9678.625
507.96899	9732.925
512.04106	9807.725
516.11023	9852.725
520.1765	9882.325
524.23987	9844.825
528.30034	9767.925
532.35792	9703.225
536.41261	9585.525
540.46441	9461.025
544.51333	9350.525
548.55936	9417.925
552.60252	9556.225
556.64279	9739.725
560.6802	9828.225
564.71473	9815.125
568.7464	9906.125
572.7752	10048.325
576.80114	10082.525
580.82422	10163.125
584.84444	10394.825
588.86181	10726.025
592.87633	10964.425
596.888	10952.125
600.89682	10792.225
604.9028	11002.425
608.90594	12277.725
612.90624	14082.625
616.90371	13718.225
620.89834	11120.725
624.89015	9759.625
628.87913	9492.225
632.86528	9571.225
636.84862	9690.525
640.82913	9657.525
644.80683	9457.925
648.78172	9291.125
652.75379	9306.825
656.72306	9380.425
660.68952	9568.925
664.65319	9507.025
668.61405	9310.125
672.57211	9234.125
676.52738	9347.425
680.47986	9380.025
684.42955	9339.525
688.37646	9233.025
692.32058	9160.025
696.26192	9204.225
700.20048	9267.925
704.13626	9302.625
708.06928	9287.525
711.99952	9253.125
715.927	9243.225
719.85171	9272.525
723.77365	9271.225
727.69284	9221.525
731.60928	9167.425
735.52295	9107.425
739.43388	9117.825
743.34206	9129.725
747.24749	9176.025
751.15017	9203.125
755.05012	9288.225
758.94733	9500.225
762.8418	9949.925
766.73354	10795.925
770.62254	11839.125
774.50882	12451.425
778.39237	12144.325
782.27321	11108.825
786.15132	10083.625
790.02671	9463.425
793.89938	9185.525
797.76935	9046.125
801.6366	8996.725
805.50115	8954.425
809.36299	8906.025
813.22213	8867.425
817.07857	8830.825
820.93231	8821.225
824.78336	8797.225
828.63172	8829.325
832.47738	8822.825
836.32036	8812.125
840.16066	8801.725
843.99827	8775.225
847.8332	8776.125
851.66546	8753.025
855.49504	8725.325
859.32195	8738.325
863.1462	8729.425
866.96777	8739.725
870.78668	8750.325
874.60293	8747.725
878.41652	8727.825
882.22745	8771.925
886.03573	8810.725
889.84136	8838.325
893.64433	8810.625
897.44466	8743.125
901.24235	8715.625
905.0374	8672.325
908.8298	8609.325
912.61957	8611.225
916.40671	8629.025
920.19121	8680.925
923.97308	8763.325
927.75233	8850.525
931.52895	8911.525
935.30295	8848.625
939.07433	8670.625
942.84309	8513.025
946.60924	8412.525
950.37278	8339.125
954.13371	8298.325
957.89203	8277.025
961.64774	8244.125
965.40086	8218.425
969.15137	8199.025
972.89929	8163.225
976.64461	8153.825
980.38733	8132.825
984.12747	8126.325
987.86502	8152.625
991.59999	8203.025
995.33237	8213.025
999.06217	8316.925
1002.78939	8452.425
1006.51404	8527.725
1010.23611	8626.225
1013.95561	8724.025
1017.67255	8768.325
1021.38692	8728.225
1025.09872	8619.825
1028.80796	8551.925
1032.51465	8560.025
1036.21877	8628.025
1039.92035	8686.625
1043.61937	8707.625
1047.31584	8686.825
1051.00976	8699.925
1054.70114	8722.325
1058.38998	8678.725
1062.07627	8732.125
1065.76003	8807.025
1069.44126	8885.925
1073.11995	9033.325
1076.79611	9134.125
1080.46974	9172.525
1084.14085	9133.525
1087.80943	9131.225
1091.47549	9171.925
1095.13903	9186.425
1098.80005	9051.525
1102.45857	8872.725
1106.11456	8715.825
1109.76805	8673.525
1113.41903	8708.525
1117.06751	8839.525
1120.71348	9011.325
1124.35696	9203.625
1127.99793	9460.525
1131.63641	9578.425
1135.2724	9356.925
1138.90589	9114.025
1142.5369	8952.025
1146.16542	8830.525
1149.79145	8779.025
1153.415	8766.725
1157.03607	8814.125
1160.65467	8945.425
1164.27079	9208.125
1167.88443	9606.125
1171.49561	10111.825
1175.10432	10840.325
1178.71056	11873.925
1182.31434	12824.125
1185.91565	13230.225
1189.51451	12980.925
1193.11091	12427.025
1196.70485	11762.325
1200.29634	11106.725
1203.88538	10641.125
1207.47197	10220.425
1211.05612	9838.825
1214.63782	9597.525
1218.21708	9488.525
1221.79391	9428.425
1225.36829	9430.025
1228.94024	9463.625
1232.50976	9424.525
1236.07685	9339.925
1239.6415	9258.725
1243.20374	9249.825
1246.76355	9260.625
1250.32093	9315.925
1253.8759	9418.925
1257.42845	9587.825
1260.97859	9793.525
1264.52631	10019.325
1268.07163	10264.125
1271.61453	10513.225
1275.15503	10728.425
1278.69312	10907.825
1282.22882	11064.525
1285.76211	11285.525
1289.29301	11625.225
1292.82151	12049.825
1296.34761	12506.525
1299.87133	13067.425
1303.39266	13822.425
1306.9116	14774.425
1310.42815	15823.225
1313.94233	16491.725
1317.45412	16350.025
1320.96354	15635.525
1324.47058	14736.225
1327.97525	13932.825
1331.47754	13320.325
1334.97747	12950.825
1338.47502	12787.125
1341.97022	12728.625
1345.46305	12871.425
1348.95352	13305.925
1352.44163	14105.725
1355.92738	15259.625
1359.41078	16796.125
1362.89183	18218.825
1366.37053	18306.725
1369.84688	16447.725
1373.32088	14060.325
1376.79254	12365.325
1380.26186	11510.725
1383.72883	11123.425
1387.19347	10817.825
1390.65578	10495.925
1394.11575	10262.425
1397.57339	10194.725
1401.0287	10236.425
1404.48168	10261.825
1407.93234	10270.725
1411.38068	10202.025
1414.82669	10145.725
1418.27039	10055.225
1421.71177	9911.925
1425.15083	9730.925
1428.58758	9608.625
1432.02203	9610.625
1435.45416	9707.325
1438.88399	9830.425
1442.31151	9874.225
1445.73673	9895.925
1449.15965	9923.025
1452.58027	9919.825
1455.9986	9869.925
1459.41463	9866.225
1462.82837	9936.225
1466.23982	10130.125
1469.64898	10298.125
1473.05586	10469.625
1476.46045	10578.125
1479.86276	10658.725
1483.26279	10782.425
1486.66054	10937.425
1490.05602	11168.925
1493.44922	11540.125
1496.84016	12060.125
1500.22882	12854.325
1503.61521	13954.025
1506.99934	15208.925
1510.38121	16260.825
1513.76081	16477.125
1517.13816	15655.325
1520.51324	14185.625
1523.88607	12807.625
1527.25665	11865.725
1530.62498	11328.325
1533.99105	11042.325
1537.35488	10849.225
1540.71647	10649.425
1544.07581	10475.525
1547.4329	10330.425
1550.78776	10224.825
1554.14038	10138.625
1557.49077	10150.225
1560.83892	10166.825
1564.18484	10270.825
1567.52853	10497.925
1570.86999	10779.725
1574.20922	11050.025
1577.54624	11147.825
1580.88103	10906.125
1584.2136	10510.425
1587.54395	10204.325
1590.87208	10239.525
1594.19801	10591.225
1597.52172	11127.725
1600.84321	11508.625
1604.16251	11365.925
1607.47959	10803.325
1610.79447	10119.625
1614.10715	9412.925
1617.41763	8850.125
1620.7259	8435.325
1624.03199	8227.825
1627.33587	8212.125
1630.63757	8300.825
1633.93707	8562.925
1637.23439	9057.225
1640.52951	9913.525
1643.82246	11188.525
1647.11321	12586.225
1650.40179	13467.025
1653.68819	13142.725
1656.97241	11700.525
1660.25446	10068.825
1663.53433	8852.725
1666.81203	8130.425
1670.08756	7698.325
1673.36092	7460.825
1676.63211	7294.525
1679.90115	7188.925
1683.16801	7094.525
1686.43272	7016.825
1689.69527	6959.125
1692.95567	6899.625
1696.2139	6823.625
1699.46999	6776.425
1702.72392	6730.025
1705.97571	6753.125
1709.22535	6765.425
1712.47284	6784.925
1715.71819	6804.425
1718.96139	6806.725
1722.20246	6810.125
1725.44139	6796.025
1728.67818	6748.325
1731.91284	6712.425
1735.14537	6680.525
1738.37576	6668.225
1741.60403	6642.825
1744.83017	6619.125
1748.05418	6627.125
1751.27607	6629.125
1754.49584	6618.225
1757.71349	6627.125
1760.92903	6582.625
1764.14244	6554.025
1767.35375	6520.425
1770.56294	6469.125
1773.77002	6436.725
1776.97499	6445.125
1780.17785	6449.525
1783.37861	6438.625
1786.57727	6426.925
1789.77382	6406.225
1792.96828	6383.625
1796.16064	6379.625
1799.3509	6345.825
1802.53907	6330.625
1805.72514	6308.425
1808.90913	6276.125
1812.09102	6271.925
1815.27083	6274.425
1818.44856	6241.125
1821.6242	6229.225
1824.79776	6224.525
1827.96924	6216.425
1831.13864	6215.725
1834.30597	6213.125
1837.47122	6210.225
1840.6344	6171.625
1843.7955	6166.025
1846.95454	6173.625
1850.11151	6168.825
1853.26642	6162.525
1856.41926	6143.525
1859.57004	6153.325
1862.71876	6156.525
1865.86542	6137.925
1869.01003	6130.125
1872.15258	6118.325
1875.29308	6110.825
1878.43152	6112.125
1881.56792	6085.925
1884.70227	6081.125
1887.83457	6083.125
1890.96482	6056.125
1894.09304	6061.725
1897.21921	6050.025
1900.34335	6024.725
1903.46544	6036.225
1906.58551	6025.225
1909.70353	6023.625
1912.81953	6007.425
1915.93349	5990.125
1919.04543	5971.625
1922.15534	5969.325
1925.26322	5942.125
1928.36908	5932.225
1931.47292	5926.725
1934.57473	5928.825
1937.67453	5888.925
1940.77232	5855.425
1943.86808	5841.725
1946.96184	5830.325
1950.05358	5817.225
1953.14331	5806.325
1956.23103	5794.525
1959.31675	5791.925
1962.40046	5756.125
1965.48217	5750.925
1968.56188	5739.225
1971.63959	5696.425
1974.7153	5696.825
1977.78901	5684.625
1980.86073	5649.925
1983.93046	5638.625
1986.99819	5614.925
1990.06394	5596.525
1993.1277	5572.025
1996.18947	5566.025
1999.24925	5550.025
2002.30706	5524.825
2005.36288	5511.725
2008.41672	5507.225
2011.46859	5475.025
2014.51848	5463.425
2017.56639	5440.325
2020.61233	5434.525
2023.6563	5419.825
2026.6983	5399.725
2029.73833	5385.925
2032.7764	5384.025
2035.8125	5362.025
2038.84664	5326.125
2041.87881	5341.025
2044.90903	5328.525
2047.93729	5323.325
2050.96359	5291.725
2053.98794	5282.125
2057.01034	5289.725
2060.03078	5286.125
2063.04927	5257.625
2066.06582	5269.625
2069.08042	5282.025
2072.09307	5261.925
2075.10378	5262.325
2078.11255	5262.325
2081.11938	5263.425
2084.12426	5255.925
2087.12722	5237.025
2090.12824	5247.225
2093.12732	5245.825
2096.12447	5222.925
2099.11969	5230.025
2102.11299	5233.425
2105.10435	5246.525
2108.09379	5234.525
2111.08131	5248.125
2114.0669	5239.825
2117.05057	5253.525
2120.03233	5257.025
2123.01216	5259.825
2125.99008	5251.125
2128.96609	5270.525
2131.94018	5260.925
2134.91236	5259.025
2137.88263	5272.825
2140.851	5266.725
2143.81746	5271.225
2146.78201	5266.625
2149.74466	5263.025
2152.7054	5249.025
2155.66425	5247.425
2158.6212	5252.225
2161.57625	5232.525
2164.52941	5227.725
2167.48067	5232.125
2170.43004	5231.125
2173.37752	5237.725
2176.32311	5232.625
2179.26681	5221.725
2182.20863	5211.125
2185.14856	5230.725
2188.08661	5229.325
2191.02278	5229.425
2193.95707	5216.825
2196.88948	5200.125
2199.82001	5205.325
2202.74867	5192.525
2205.67545	5192.225
2208.60037	5170.125
2211.52341	5148.325
2214.44458	5167.625
2217.36388	5140.225
2220.28132	5142.525
2223.1969	5134.225
2226.11061	5125.325
2229.02246	5098.325
2231.93245	5104.925
2234.84058	5085.825
2237.74686	5065.425
2240.65128	5067.125
2243.55385	5062.825
2246.45456	5045.425
2249.35343	5043.425
2252.25044	5034.725
2255.14561	5022.925
2258.03893	5020.625
2260.93041	5004.525
2263.82004	4987.425
2266.70783	4986.525
2269.59378	4976.825
2272.4779	4966.625
2275.36017	4960.725
2278.24061	4948.125
2281.11922	4937.525
2283.996	4943.025
2286.87094	4923.025
2289.74405	4903.125
2292.61534	4900.325
2295.4848	4889.825
2298.35243	4894.225
2301.21824	4893.625
2304.08223	4885.225
2306.94439	4878.525
2309.80474	4870.125
2312.66327	4867.725
2315.51999	4842.225
2318.37489	4851.625
2321.22797	4842.525
2324.07925	4832.725
2326.92871	4837.625
2329.77637	4834.525
2332.62222	4818.625
2335.46626	4819.325
2338.3085	4798.425
2341.14893	4822.425
2343.98756	4786.025
2346.8244	4789.125
2349.65943	4798.825
2352.49267	4786.525
2355.32411	4784.225
2358.15376	4773.725
2360.98161	4790.625
2363.80768	4797.625
2366.63195	4781.125
2369.45444	4795.725
2372.27514	4777.225
2375.09405	4770.425
2377.91118	4759.225
2380.72652	4749.325
2383.54009	4738.225
2386.35187	4726.625
2389.16188	4696.025
2391.97011	4684.225
2394.77657	4677.925
2397.58125	4671.725
2400.38416	4658.925
2403.18529	4627.325
2405.98466	4630.225
2408.78226	4633.625
2411.57809	4617.325
2414.37216	4619.525
2417.16446	4618.325
2419.955	4594.725
2422.74378	4614.225
2425.5308	4605.225
2428.31606	4604.825
2431.09956	4600.925
2433.88131	4598.325
2436.6613	4596.325
2439.43954	4582.325
2442.21603	4575.325
2444.99077	4563.225
2447.76377	4577.525
2450.53501	4578.125
2453.30451	4563.025
2456.07226	4562.225
2458.83827	4555.925
2461.60254	4565.425
2464.36507	4560.425
2467.12586	4554.825
2469.88492	4543.325
2472.64224	4573.025
2475.39782	4553.225
2478.15167	4557.825
2480.90379	4535.125
2483.65417	4538.825
2486.40283	4531.825
2489.14976	4518.825
2491.89497	4526.625
2494.63845	4525.225
2497.3802	4516.225
2500.12024	4519.525
2502.85855	4507.825
2505.59514	4519.225
2508.33002	4512.525
2511.06318	4484.225
2513.79462	4476.525
2516.52435	4468.125
2519.25237	4446.325
2521.97867	4457.525
2524.70327	4440.225
2527.42616	4432.525
2530.14734	4437.925
2532.86681	4418.925
2535.58458	4401.325
2538.30065	4406.825
2541.01501	4408.625
2543.72768	4400.725
2546.43864	4403.625
2549.14791	4389.725
2551.85548	4387.125
2554.56136	4376.625
2557.26554	4358.925
2559.96803	4350.325
2562.66883	4352.525
2565.36794	4358.425
2568.06536	4346.525
2570.7611	4339.925
2573.45514	4324.225
2576.14751	4319.325
2578.83819	4315.925
2581.52719	4305.025
2584.21451	4293.025
2586.90015	4286.725
2589.58411	4281.925
2592.2664	4285.425
2594.94701	4257.725
2597.62594	4267.125
2600.30321	4256.525
2602.9788	4250.625
2605.65273	4240.625
2608.32498	4238.725
2610.99557	4234.425
2613.66449	4219.725
2616.33175	4214.625
2618.99734	4211.825
2621.66128	4203.625
2624.32355	4211.525
2626.98416	4201.725
2629.64311	4192.025
2632.30041	4198.825
2634.95605	4166.325
2637.61004	4160.725
2640.26238	4159.625
2642.91306	4159.625
2645.56209	4141.625
2648.20948	4143.825
2650.85521	4142.725
2653.4993	4152.925
2656.14175	4152.925
2658.78255	4146.125
2661.42171	4158.425
2664.05923	4182.825
2666.6951	4152.925
2669.32934	4169.025
2671.96194	4155.525
2674.59291	4151.325
2677.22224	4153.925
2679.84993	4152.725
2682.476	4147.825
2685.10043	4153.325
2687.72324	4142.825
2690.34441	4128.825
2692.96396	4126.325
2695.58188	4141.525
2698.19818	4149.625
2700.81285	4135.725
2703.4259	4136.025
2706.03733	4129.225
2708.64714	4116.025
2711.25533	4126.225
2713.86191	4124.625
2716.46687	4139.725
2719.07021	4142.025
2721.67194	4144.125
2724.27206	4133.225
2726.87057	4146.525
2729.46747	4141.525
2732.06276	4133.825
2734.65644	4147.925
2737.24852	4133.325
2739.83899	4120.625
2742.42786	4140.725
2745.01513	4100.825
2747.60079	4097.825
2750.18486	4105.225
2752.76733	4104.825
2755.3482	4085.525
2757.92747	4085.425
2760.50515	4082.525
2763.08123	4068.725
2765.65573	4064.325
2768.22863	4070.425
2770.79994	4054.325
2773.36967	4068.025
2775.9378	4045.525
2778.50435	4057.125
2781.06932	4032.625
2783.6327	4037.325
2786.1945	4037.825
2788.75471	4030.825
2791.31335	4017.825
2793.87041	4020.025
2796.42589	4011.625
2798.97979	4019.425
2801.53212	4018.625
2804.08288	4018.325
2806.63206	4006.525
2809.17967	4002.025
2811.72571	3986.525
2814.27018	3972.525
2816.81308	3970.025
2819.35442	3977.525
2821.89419	3973.025
2824.43239	3971.325
2826.96904	3971.525
2829.50412	3984.425
2832.03763	3985.225
2834.56959	3981.625
2837.1	3979.125
2839.62884	4000.225
2842.15613	4025.225
2844.68186	4079.725
2847.20604	4084.925
2849.72867	4117.325
2852.24974	4125.425
2854.76927	4113.625
2857.28724	4107.725
2859.80367	4105.425
2862.31855	4104.625
2864.83189	4096.425
2867.34368	4086.525
2869.85393	4098.125
2872.36264	4109.625
2874.8698	4076.125
2877.37543	4091.625
2879.87952	4088.225
2882.38207	4082.225
2884.88308	4088.925
2887.38256	4075.225
2889.88051	4083.625
2892.37692	4075.925
2894.8718	4086.925
2897.36515	4094.225
2899.85698	4109.025
2902.34727	4121.025
2904.83604	4126.625
2907.32328	4133.925
2909.809	4137.125
2912.29319	4161.325
2914.77587	4148.825
2917.25702	4144.425
2919.73665	4153.025
2922.21476	4137.125
2924.69136	4154.725
2927.16644	4151.525
2929.64	4158.625
2932.11205	4161.225
2934.58258	4142.925
2937.05161	4150.725
2939.51912	4148.425
2941.98513	4134.925
2944.44962	4101.725
2946.91261	4068.425
2949.37409	4054.925
2951.83407	4042.425
2954.29254	4032.025
2956.74951	4025.125
2959.20498	4020.225
2961.65895	3997.725
2964.11142	3997.825
2966.56239	3956.425
2969.01186	3964.925
2971.45984	3949.025
2973.90632	3932.625
2976.35131	3910.025
2978.7948	3898.925
2981.23681	3898.425
2983.67732	3880.325
2986.11635	3863.625
2988.55388	3864.425
2990.98993	3845.325
2993.4245	3839.425
2995.85758	3822.225
2998.28917	3841.925
3000.71928	3807.925
3003.14791	3797.025
3005.57506	3812.425
3008.00073	3790.825
3010.42493	3783.625
3012.84764	3795.225
3015.26888	3785.525
3017.68865	3775.925
3020.10694	3772.925
3022.52376	3769.725
3024.9391	3755.925
3027.35298	3742.925
3029.76539	3743.625
3032.17632	3735.425
3034.5858	3720.225
3036.9938	3736.125
3039.40034	3718.225
3041.80542	3716.425
3044.20903	3718.125
3046.61118	3714.525
3049.01187	3708.725
3051.4111	3696.725
3053.80888	3704.725
3056.20519	3700.725
3058.60005	3690.925
3060.99345	3689.125
3063.3854	3678.225
3065.7759	3661.525
3068.16494	3671.625
3070.55254	3663.925
3072.93868	3655.525
3075.32338	3660.225
3077.70662	3664.325
3080.08842	3643.425
3082.46878	3662.625
3084.84769	3648.725
3087.22515	3650.525
3089.60118	3658.225
3091.97576	3648.625
3094.3489	3662.325
3096.72061	3671.125
3099.09087	3656.025
3101.4597	3659.525
3103.82709	3662.925
3106.19305	3662.725
3108.55757	3654.125
3110.92066	3656.425
3113.28232	3658.125
3115.64255	3639.825
3118.00134	3655.025
3120.35871	3647.725
3122.71466	3662.125
3125.06917	3649.825
3127.42226	3642.025
3129.77393	3661.325
3132.12417	3664.125
3134.47299	3651.425
3136.82039	3658.525
3139.16636	3670.525
3141.51092	3663.925
3143.85406	3677.625
3146.19579	3678.325
3148.53609	3688.325
3150.87499	3697.925
3153.21246	3708.525
3155.54853	3716.925
3157.88318	3704.625
3160.21642	3734.625
3162.54826	3720.725
3164.87868	3742.925
3167.2077	3738.225
3169.5353	3749.325
3171.86151	3749.725
3174.18631	3749.125
3176.5097	3752.325
3178.83169	3743.525
3181.15228	3746.525
3183.47147	3745.125
3185.78926	3749.225
3188.10565	3733.925
3190.42065	3750.725
3192.73424	3740.525
3195.04645	3755.725
3197.35725	3761.525
3199.66667	3754.125
3201.97469	3764.425
3204.28132	3762.225
3206.58656	3775.725
3208.8904	3774.325
3211.19287	3777.825
3213.49394	3788.025
3215.79363	3787.825
3218.09193	3788.625
3220.38884	3799.925
