Data from AgNPs_FTO_APTES_UA_1uM_CRN_2uM_R6G_10uM_NaF_0.1M_Addition_RamanShift__24__13-23-19-559.txt Node

Date: Thu Jan 27 13:23:19 GMT 2022
User: TCL
Spectrometer: QEP01345
Trigger mode: 4
Integration Time (sec): 7.000000E0
Scans to average: 10
Electric dark correction enabled: true
Nonlinearity correction enabled: false
Boxcar width: 0
XAxis mode: Raman Shifts
Number of Pixels in Spectrum: 1044
>>>>>Begin Spectral Data<<<<<
46.04893	0.775
50.45542	-0.425
54.85868	-0.625
59.25871	-1.825
63.6555	58.175
68.04907	62.375
72.43941	64.775
76.82654	71.475
81.21044	69.375
85.59113	70.875
89.96862	75.475
94.34289	74.575
98.71396	83.775
103.08183	78.975
107.4465	85.075
111.80798	85.275
116.16626	89.075
120.52136	93.275
124.87327	97.075
129.222	92.675
133.56755	101.775
137.90993	107.875
142.24913	117.275
146.58517	131.575
150.91804	155.075
155.24774	175.675
159.57429	216.775
163.89768	273.375
168.21792	361.375
172.53501	488.275
176.84895	674.775
181.15975	938.075
185.46741	1317.575
189.77193	1807.775
194.07331	2427.575
198.37157	3133.575
202.6667	3887.975
206.9587	4618.075
211.24758	5352.075
215.53334	6105.075
219.81599	6893.575
224.09553	7797.675
228.37195	8766.575
232.64527	9863.675
236.91549	11009.275
241.18261	12121.075
245.44663	13122.675
249.70755	14002.575
253.96539	14769.775
258.22014	15426.675
262.4718	15986.075
266.72039	16460.375
270.96589	16714.075
275.20832	16747.575
279.44768	16701.475
283.68397	16548.775
287.91719	16379.675
292.14735	16363.575
296.37445	16447.975
300.59849	16667.175
304.81948	16921.175
309.03742	17043.275
313.25231	16935.075
317.46415	16400.175
321.67296	15693.075
325.87872	15080.875
330.08145	14800.575
334.28114	14798.675
338.47781	14944.775
342.67145	15214.675
346.86207	15671.675
351.04966	16207.875
355.23424	16841.875
359.4158	17347.575
363.59435	17662.075
367.76989	17831.975
371.94243	17911.775
376.11196	17997.375
380.27849	17977.875
384.44203	18015.275
388.60257	18042.375
392.76012	18121.675
396.91468	18293.375
401.06626	18679.975
405.21485	18957.275
409.36047	18884.875
413.50311	18448.575
417.64277	18053.175
421.77947	17840.975
425.9132	17864.775
430.04396	17935.575
434.17176	18043.875
438.2966	18247.775
442.41849	18577.275
446.53742	19031.875
450.6534	19632.075
454.76644	20078.075
458.87653	20263.475
462.98368	20172.675
467.08789	19896.775
471.18916	19526.575
475.2875	19094.375
479.38291	18803.775
483.4754	18604.875
487.56496	18429.675
491.6516	18203.075
495.73531	18010.575
499.81612	17951.475
503.89401	18058.875
507.96899	18164.375
512.04106	18190.675
516.11023	18251.775
520.1765	18307.475
524.23987	18241.575
528.30034	18015.075
532.35792	17769.075
536.41261	17525.875
540.46441	17295.775
544.51333	17266.775
548.55936	17389.575
552.60252	17744.875
556.64279	18070.075
560.6802	18240.275
564.71473	18341.775
568.7464	18706.275
572.7752	19091.675
576.80114	19139.575
580.82422	19125.375
584.84444	19205.275
588.86181	19367.175
592.87633	19621.875
596.888	19878.075
600.89682	20211.175
604.9028	21293.075
608.90594	24277.575
612.90624	27959.975
616.90371	27020.975
620.89834	21678.375
624.89015	19186.075
628.87913	18846.575
632.86528	18746.275
636.84862	18631.575
640.82913	18202.575
644.80683	17655.775
648.78172	17281.175
652.75379	17260.475
656.72306	17602.975
660.68952	18117.175
664.65319	18130.275
668.61405	17667.275
672.57211	17446.075
676.52738	17409.075
680.47986	17422.375
684.42955	17380.275
688.37646	17358.575
692.32058	17441.675
696.26192	17555.175
700.20048	17737.375
704.13626	17833.175
708.06928	17753.175
711.99952	17596.675
715.927	17538.875
719.85171	17573.275
723.77365	17505.175
727.69284	17388.175
731.60928	17248.275
735.52295	17203.675
739.43388	17280.475
743.34206	17366.175
747.24749	17513.575
751.15017	17621.275
755.05012	17945.175
758.94733	18516.875
762.8418	19540.375
766.73354	21295.875
770.62254	23171.175
774.50882	23977.275
778.39237	23017.075
782.27321	21017.975
786.15132	19228.175
790.02671	18173.375
793.89938	17724.775
797.76935	17585.875
801.6366	17533.975
805.50115	17442.075
809.36299	17353.475
813.22213	17272.675
817.07857	17237.475
820.93231	17242.775
824.78336	17245.075
828.63172	17310.075
832.47738	17379.975
836.32036	17433.275
840.16066	17504.075
843.99827	17558.575
847.8332	17527.275
851.66546	17400.375
855.49504	17356.875
859.32195	17300.175
863.1462	17221.975
866.96777	17141.875
870.78668	17106.575
874.60293	17114.675
878.41652	17095.875
882.22745	17174.775
886.03573	17244.175
889.84136	17261.775
893.64433	17145.575
897.44466	17095.275
901.24235	17029.775
905.0374	17022.875
908.8298	16958.575
912.61957	17008.875
916.40671	17155.875
920.19121	17401.475
923.97308	17609.975
927.75233	17773.875
931.52895	17865.675
935.30295	17766.475
939.07433	17391.175
942.84309	17081.475
946.60924	16966.575
950.37278	16894.875
954.13371	16761.175
957.89203	16628.075
961.64774	16575.075
965.40086	16487.575
969.15137	16430.075
972.89929	16334.775
976.64461	16307.175
980.38733	16340.675
984.12747	16476.575
987.86502	16656.775
991.59999	16946.275
995.33237	17353.275
999.06217	17997.575
1002.78939	18767.575
1006.51404	19225.775
1010.23611	19455.275
1013.95561	19622.075
1017.67255	19651.675
1021.38692	19483.075
1025.09872	19381.675
1028.80796	19673.375
1032.51465	20501.875
1036.21877	21260.475
1039.92035	21323.975
1043.61937	20820.275
1047.31584	20029.975
1051.00976	19146.575
1054.70114	18675.575
1058.38998	18499.275
1062.07627	18506.075
1065.76003	18507.575
1069.44126	18564.175
1073.11995	18699.575
1076.79611	18846.275
1080.46974	19003.875
1084.14085	19164.075
1087.80943	19382.875
1091.47549	19517.975
1095.13903	19324.275
1098.80005	18991.775
1102.45857	18586.875
1106.11456	18390.475
1109.76805	18383.775
1113.41903	18585.075
1117.06751	18814.775
1120.71348	19169.975
1124.35696	19475.175
1127.99793	19769.375
1131.63641	19875.675
1135.2724	19542.675
1138.90589	19149.075
1142.5369	18905.475
1146.16542	18733.175
1149.79145	18629.175
1153.415	18648.975
1157.03607	18861.475
1160.65467	19135.775
1164.27079	19665.575
1167.88443	20517.475
1171.49561	21750.975
1175.10432	23587.575
1178.71056	26045.475
1182.31434	28150.875
1185.91565	29327.775
1189.51451	29314.475
1193.11091	28203.875
1196.70485	26539.975
1200.29634	25129.175
1203.88538	24010.075
1207.47197	23105.475
1211.05612	22376.775
1214.63782	22024.875
1218.21708	21939.175
1221.79391	22086.075
1225.36829	22261.875
1228.94024	22300.075
1232.50976	22090.975
1236.07685	21898.175
1239.6415	21740.475
1243.20374	21675.475
1246.76355	21746.275
1250.32093	21991.075
1253.8759	22531.175
1257.42845	23183.275
1260.97859	23838.375
1264.52631	24320.875
1268.07163	24869.375
1271.61453	25565.575
1275.15503	26279.275
1278.69312	27080.775
1282.22882	27755.875
1285.76211	28298.675
1289.29301	28841.075
1292.82151	29460.975
1296.34761	30320.575
1299.87133	31561.875
1303.39266	33483.775
1306.9116	36088.075
1310.42815	38948.275
1313.94233	40868.175
1317.45412	40820.475
1320.96354	39351.675
1324.47058	37520.275
1327.97525	35925.475
1331.47754	34886.675
1334.97747	34492.575
1338.47502	34584.275
1341.97022	34896.675
1345.46305	34996.575
1348.95352	34864.375
1352.44163	34998.275
1355.92738	36006.475
1359.41078	38514.875
1362.89183	41271.275
1366.37053	40816.275
1369.84688	36787.075
1373.32088	32250.075
1376.79254	29190.975
1380.26186	27739.575
1383.72883	27159.475
1387.19347	26854.175
1390.65578	26440.675
1394.11575	26217.375
1397.57339	26429.175
1401.0287	26907.275
1404.48168	27478.975
1407.93234	27940.775
1411.38068	28262.875
1414.82669	28088.175
1418.27039	27425.775
1421.71177	26573.675
1425.15083	25832.775
1428.58758	25354.675
1432.02203	25248.675
1435.45416	25430.475
1438.88399	25669.575
1442.31151	25878.875
1445.73673	26061.875
1449.15965	26292.675
1452.58027	26332.075
1455.9986	26253.775
1459.41463	26187.175
1462.82837	26366.075
1466.23982	26777.975
1469.64898	27278.975
1473.05586	27625.975
1476.46045	27804.975
1479.86276	27938.975
1483.26279	28096.775
1486.66054	28299.275
1490.05602	28652.575
1493.44922	29158.475
1496.84016	29787.675
1500.22882	30519.475
1503.61521	31603.275
1506.99934	33168.975
1510.38121	34879.875
1513.76081	35888.075
1517.13816	35273.575
1520.51324	33196.975
1523.88607	30977.275
1527.25665	29275.975
1530.62498	28186.775
1533.99105	27583.175
1537.35488	27197.875
1540.71647	26942.275
1544.07581	26729.375
1547.4329	26553.475
1550.78776	26323.475
1554.14038	26210.175
1557.49077	26238.175
1560.83892	26307.275
1564.18484	26434.575
1567.52853	26443.175
1570.86999	26486.975
1574.20922	26530.875
1577.54624	26619.875
1580.88103	26426.775
1584.2136	26191.775
1587.54395	26550.475
1590.87208	27703.675
1594.19801	29539.075
1597.52172	31571.175
1600.84321	32466.775
1604.16251	31471.275
1607.47959	29158.675
1610.79447	26682.075
1614.10715	24456.175
1617.41763	22791.175
1620.7259	21665.075
1624.03199	21173.975
1627.33587	21280.575
1630.63757	21893.575
1633.93707	23065.275
1637.23439	24697.875
1640.52951	26664.075
1643.82246	28633.975
1647.11321	30201.475
1650.40179	30754.975
1653.68819	29364.875
1656.97241	26272.875
1660.25446	22990.275
1663.53433	20512.675
1666.81203	19003.275
1670.08756	18111.575
1673.36092	17537.375
1676.63211	17203.275
1679.90115	16943.475
1683.16801	16729.275
1686.43272	16582.175
1689.69527	16456.175
1692.95567	16352.275
1696.2139	16301.475
1699.46999	16262.975
1702.72392	16180.275
1705.97571	16204.975
1709.22535	16244.975
1712.47284	16241.875
1715.71819	16268.075
1718.96139	16238.375
1722.20246	16225.975
1725.44139	16168.975
1728.67818	16107.975
1731.91284	16009.075
1735.14537	15936.175
1738.37576	15908.075
1741.60403	15865.275
1744.83017	15802.275
1748.05418	15731.075
1751.27607	15732.275
1754.49584	15688.275
1757.71349	15651.775
1760.92903	15638.375
1764.14244	15653.775
1767.35375	15637.575
1770.56294	15609.675
1773.77002	15620.175
1776.97499	15616.575
1780.17785	15621.375
1783.37861	15639.375
1786.57727	15590.075
1789.77382	15619.375
1792.96828	15602.575
1796.16064	15555.175
1799.3509	15578.875
1802.53907	15591.675
1805.72514	15542.475
1808.90913	15508.775
1812.09102	15451.675
1815.27083	15446.175
1818.44856	15430.075
1821.6242	15436.475
1824.79776	15390.075
1827.96924	15386.775
1831.13864	15374.675
1834.30597	15376.775
1837.47122	15373.875
1840.6344	15373.675
1843.7955	15385.075
1846.95454	15409.675
1850.11151	15410.375
1853.26642	15377.575
1856.41926	15429.875
1859.57004	15470.675
1862.71876	15431.675
1865.86542	15449.075
1869.01003	15476.975
1872.15258	15469.575
1875.29308	15469.075
1878.43152	15507.275
1881.56792	15511.575
1884.70227	15498.475
1887.83457	15485.475
1890.96482	15517.075
1894.09304	15503.575
1897.21921	15503.775
1900.34335	15503.975
1903.46544	15509.675
1906.58551	15502.475
1909.70353	15473.075
1912.81953	15501.775
1915.93349	15464.475
1919.04543	15443.975
1922.15534	15445.475
1925.26322	15410.875
1928.36908	15374.375
1931.47292	15295.475
1934.57473	15290.675
1937.67453	15233.475
1940.77232	15192.475
1943.86808	15113.575
1946.96184	15059.175
1950.05358	15009.975
1953.14331	14954.975
1956.23103	14866.775
1959.31675	14842.675
1962.40046	14811.975
1965.48217	14766.775
1968.56188	14715.575
1971.63959	14672.975
1974.7153	14614.475
1977.78901	14596.775
1980.86073	14534.875
1983.93046	14541.575
1986.99819	14466.675
1990.06394	14411.775
1993.1277	14372.075
1996.18947	14309.975
1999.24925	14302.975
2002.30706	14211.675
2005.36288	14204.775
2008.41672	14200.575
2011.46859	14140.275
2014.51848	14086.375
2017.56639	14063.375
2020.61233	14032.675
2023.6563	14029.975
2026.6983	14007.775
2029.73833	13967.075
2032.7764	13940.075
2035.8125	13906.175
2038.84664	13908.175
2041.87881	13892.275
2044.90903	13851.675
2047.93729	13864.175
2050.96359	13844.675
2053.98794	13810.875
2057.01034	13808.775
2060.03078	13805.375
2063.04927	13790.375
2066.06582	13811.175
2069.08042	13760.375
2072.09307	13761.875
2075.10378	13729.975
2078.11255	13726.275
2081.11938	13719.175
2084.12426	13716.575
2087.12722	13712.975
2090.12824	13684.475
2093.12732	13692.875
2096.12447	13685.275
2099.11969	13698.775
2102.11299	13720.475
2105.10435	13709.275
2108.09379	13716.975
2111.08131	13725.475
2114.0669	13739.375
2117.05057	13757.375
2120.03233	13731.175
2123.01216	13743.675
2125.99008	13735.475
2128.96609	13764.175
2131.94018	13799.775
2134.91236	13778.575
2137.88263	13794.275
2140.851	13787.275
2143.81746	13796.775
2146.78201	13806.475
2149.74466	13816.375
2152.7054	13824.175
2155.66425	13836.575
2158.6212	13831.575
2161.57625	13820.875
2164.52941	13806.275
2167.48067	13807.275
2170.43004	13818.175
2173.37752	13830.875
2176.32311	13819.175
2179.26681	13820.875
2182.20863	13818.475
2185.14856	13812.975
2188.08661	13842.575
2191.02278	13842.975
2193.95707	13843.275
2196.88948	13849.675
2199.82001	13870.475
2202.74867	13847.875
2205.67545	13857.775
2208.60037	13826.975
2211.52341	13817.275
2214.44458	13807.675
2217.36388	13798.075
2220.28132	13774.375
2223.1969	13777.975
2226.11061	13777.875
2229.02246	13757.075
2231.93245	13705.775
2234.84058	13685.075
2237.74686	13660.075
2240.65128	13631.675
2243.55385	13592.175
2246.45456	13583.275
2249.35343	13589.375
2252.25044	13544.475
2255.14561	13562.975
2258.03893	13536.675
2260.93041	13510.275
2263.82004	13471.275
2266.70783	13460.975
2269.59378	13454.575
2272.4779	13398.875
2275.36017	13348.775
2278.24061	13330.675
2281.11922	13346.075
2283.996	13327.175
2286.87094	13305.175
2289.74405	13300.775
2292.61534	13268.375
2295.4848	13246.975
2298.35243	13304.675
2301.21824	13275.175
2304.08223	13304.975
2306.94439	13302.675
2309.80474	13311.475
2312.66327	13316.275
2315.51999	13355.175
2318.37489	13335.475
2321.22797	13333.175
2324.07925	13325.375
2326.92871	13309.875
2329.77637	13292.975
2332.62222	13293.475
2335.46626	13294.875
2338.3085	13318.675
2341.14893	13282.375
2343.98756	13329.875
2346.8244	13339.875
2349.65943	13317.775
2352.49267	13322.975
2355.32411	13330.875
2358.15376	13287.675
2360.98161	13307.575
2363.80768	13269.475
2366.63195	13241.875
2369.45444	13222.575
2372.27514	13198.875
2375.09405	13153.675
2377.91118	13126.375
2380.72652	13097.875
2383.54009	13084.975
2386.35187	13056.775
2389.16188	13023.875
2391.97011	12987.775
2394.77657	12994.675
2397.58125	12994.775
2400.38416	12959.175
2403.18529	12961.075
2405.98466	12919.975
2408.78226	12887.875
2411.57809	12855.675
2414.37216	12813.975
2417.16446	12818.775
2419.955	12776.475
2422.74378	12815.275
2425.5308	12800.575
2428.31606	12798.775
2431.09956	12773.975
2433.88131	12747.075
2436.6613	12768.875
2439.43954	12763.675
2442.21603	12760.375
2444.99077	12758.775
2447.76377	12715.475
2450.53501	12730.775
2453.30451	12723.875
2456.07226	12722.475
2458.83827	12709.675
2461.60254	12725.475
2464.36507	12702.475
2467.12586	12694.375
2469.88492	12717.875
2472.64224	12734.975
2475.39782	12716.575
2478.15167	12739.375
2480.90379	12739.175
2483.65417	12755.775
2486.40283	12752.675
2489.14976	12804.975
2491.89497	12798.375
2494.63845	12780.275
2497.3802	12775.375
2500.12024	12773.875
2502.85855	12802.775
2505.59514	12765.075
2508.33002	12738.775
2511.06318	12738.275
2513.79462	12727.375
2516.52435	12685.375
2519.25237	12686.175
2521.97867	12670.975
2524.70327	12669.475
2527.42616	12646.975
2530.14734	12648.975
2532.86681	12628.175
2535.58458	12650.475
2538.30065	12611.275
2541.01501	12625.975
2543.72768	12599.675
2546.43864	12635.875
2549.14791	12610.975
2551.85548	12587.775
2554.56136	12571.375
2557.26554	12542.775
2559.96803	12562.775
2562.66883	12560.175
2565.36794	12556.975
2568.06536	12533.275
2570.7611	12538.775
2573.45514	12496.875
2576.14751	12507.975
2578.83819	12498.075
2581.52719	12503.975
2584.21451	12496.775
2586.90015	12474.575
2589.58411	12483.275
2592.2664	12514.775
2594.94701	12487.875
2597.62594	12503.575
2600.30321	12482.075
2602.9788	12452.075
2605.65273	12448.875
2608.32498	12463.575
2610.99557	12448.675
2613.66449	12472.975
2616.33175	12461.175
2618.99734	12459.375
2621.66128	12446.575
2624.32355	12483.975
2626.98416	12484.875
2629.64311	12465.275
2632.30041	12474.975
2634.95605	12460.875
2637.61004	12421.775
2640.26238	12390.675
2642.91306	12426.375
2645.56209	12385.075
2648.20948	12401.375
2650.85521	12378.075
2653.4993	12344.675
2656.14175	12347.175
2658.78255	12353.375
2661.42171	12388.275
2664.05923	12379.275
2666.6951	12392.075
2669.32934	12418.775
2671.96194	12390.975
2674.59291	12436.175
2677.22224	12449.875
2679.84993	12435.375
2682.476	12396.775
2685.10043	12391.175
2687.72324	12361.375
2690.34441	12387.975
2692.96396	12365.575
2695.58188	12365.975
2698.19818	12361.475
2700.81285	12375.175
2703.4259	12357.175
2706.03733	12319.775
2708.64714	12329.275
2711.25533	12366.175
2713.86191	12368.675
2716.46687	12359.775
2719.07021	12354.075
2721.67194	12399.375
2724.27206	12384.875
2726.87057	12392.575
2729.46747	12408.675
2732.06276	12401.175
2734.65644	12385.175
2737.24852	12392.475
2739.83899	12382.875
2742.42786	12387.675
2745.01513	12336.275
2747.60079	12339.575
2750.18486	12346.475
2752.76733	12350.575
2755.3482	12360.975
2757.92747	12352.075
2760.50515	12318.575
2763.08123	12354.175
2765.65573	12314.075
2768.22863	12325.675
2770.79994	12307.575
2773.36967	12305.175
2775.9378	12323.075
2778.50435	12308.075
2781.06932	12310.875
2783.6327	12302.675
2786.1945	12298.275
2788.75471	12294.575
2791.31335	12257.975
2793.87041	12228.075
2796.42589	12212.775
2798.97979	12213.775
2801.53212	12170.175
2804.08288	12153.575
2806.63206	12134.675
2809.17967	12121.375
2811.72571	12105.775
2814.27018	12092.975
2816.81308	12070.975
2819.35442	12081.475
2821.89419	12061.375
2824.43239	12077.675
2826.96904	12078.675
2829.50412	12065.175
2832.03763	12072.675
2834.56959	12078.775
2837.1	12034.175
2839.62884	12066.075
2842.15613	12058.875
2844.68186	12089.975
2847.20604	12083.875
2849.72867	12097.675
2852.24974	12088.975
2854.76927	12084.775
2857.28724	12050.175
2859.80367	12075.875
2862.31855	12010.075
2864.83189	12034.075
2867.34368	11995.275
2869.85393	12023.675
2872.36264	11970.075
2874.8698	12002.875
2877.37543	11991.075
2879.87952	11986.175
2882.38207	11982.275
2884.88308	11982.675
2887.38256	11987.075
2889.88051	11978.875
2892.37692	11991.775
2894.8718	11992.675
2897.36515	11997.475
2899.85698	12014.575
2902.34727	12041.475
2904.83604	12048.175
2907.32328	12085.975
2909.809	12068.975
2912.29319	12078.875
2914.77587	12081.475
2917.25702	12063.575
2919.73665	12032.775
2922.21476	12043.575
2924.69136	12049.275
2927.16644	12044.675
2929.64	12004.075
2932.11205	11998.475
2934.58258	11957.575
2937.05161	11994.875
2939.51912	11971.275
2941.98513	11941.175
2944.44962	11924.975
2946.91261	11887.875
2949.37409	11897.875
2951.83407	11876.775
2954.29254	11886.175
2956.74951	11874.175
2959.20498	11849.875
2961.65895	11829.575
2964.11142	11842.375
2966.56239	11815.975
2969.01186	11818.975
2971.45984	11773.275
2973.90632	11770.975
2976.35131	11743.875
2978.7948	11709.675
2981.23681	11712.175
2983.67732	11654.875
2986.11635	11632.875
2988.55388	11589.375
2990.98993	11593.775
2993.4245	11571.875
2995.85758	11520.075
2998.28917	11521.775
3000.71928	11503.875
3003.14791	11469.775
3005.57506	11440.275
3008.00073	11437.775
3010.42493	11468.075
3012.84764	11443.675
3015.26888	11425.475
3017.68865	11399.875
3020.10694	11373.975
3022.52376	11338.875
3024.9391	11355.975
3027.35298	11331.275
3029.76539	11336.975
3032.17632	11307.475
3034.5858	11296.875
3036.9938	11288.175
3039.40034	11291.975
3041.80542	11295.775
3044.20903	11247.875
3046.61118	11258.675
3049.01187	11215.475
3051.4111	11221.675
3053.80888	11210.675
3056.20519	11170.775
3058.60005	11132.375
3060.99345	11127.075
3063.3854	11102.375
3065.7759	11047.275
3068.16494	11050.875
3070.55254	11042.575
3072.93868	11004.675
3075.32338	10974.675
3077.70662	10983.475
3080.08842	10916.975
3082.46878	10918.175
3084.84769	10887.975
3087.22515	10882.275
3089.60118	10898.975
3091.97576	10898.175
3094.3489	10894.375
3096.72061	10880.475
3099.09087	10897.375
3101.4597	10862.575
3103.82709	10856.175
3106.19305	10865.175
3108.55757	10870.975
3110.92066	10818.275
3113.28232	10806.475
3115.64255	10776.475
3118.00134	10787.075
3120.35871	10756.275
3122.71466	10736.975
3125.06917	10711.575
3127.42226	10715.675
3129.77393	10686.575
