Data from AgNPs_FTO_APTES_UA_1uM_CRN_1000uM_R6G_10uM_NaF_0.1M_Addition_RamanShift__25__19-02-49-947.txt Node

Date: Thu Jan 27 19:02:49 GMT 2022
User: TCL
Spectrometer: QEP01345
Trigger mode: 4
Integration Time (sec): 7.000000E0
Scans to average: 10
Electric dark correction enabled: true
Nonlinearity correction enabled: false
Boxcar width: 0
XAxis mode: Raman Shifts
Number of Pixels in Spectrum: 1044
>>>>>Begin Spectral Data<<<<<
46.04893	0.825
50.45542	1.225
54.85868	-1.075
59.25871	-1.575
63.6555	54.125
68.04907	57.325
72.43941	57.825
76.82654	63.325
81.21044	63.225
85.59113	62.925
89.96862	69.425
94.34289	71.225
98.71396	75.925
103.08183	73.625
107.4465	78.925
111.80798	79.425
116.16626	82.225
120.52136	86.825
124.87327	88.325
129.222	89.725
133.56755	94.225
137.90993	101.525
142.24913	111.025
146.58517	124.925
150.91804	145.325
155.24774	170.225
159.57429	210.325
163.89768	266.125
168.21792	357.825
172.53501	477.925
176.84895	665.325
181.15975	930.925
185.46741	1308.525
189.77193	1815.125
194.07331	2428.525
198.37157	3147.625
202.6667	3900.625
206.9587	4684.225
211.24758	5439.425
215.53334	6217.025
219.81599	7060.525
224.09553	8015.025
228.37195	9079.325
232.64527	10193.425
236.91549	11326.125
241.18261	12430.325
245.44663	13345.825
249.70755	14141.925
253.96539	14765.625
258.22014	15326.625
262.4718	15787.925
266.72039	16150.425
270.96589	16346.525
275.20832	16286.925
279.44768	16115.225
283.68397	15835.225
287.91719	15607.025
292.14735	15519.625
296.37445	15711.425
300.59849	16146.425
304.81948	16682.925
309.03742	17019.625
313.25231	16967.725
317.46415	16301.525
321.67296	15225.625
325.87872	14339.225
330.08145	13923.425
334.28114	13886.725
338.47781	14110.825
342.67145	14452.925
346.86207	14924.225
351.04966	15681.425
355.23424	16519.225
359.4158	17198.325
363.59435	17596.025
367.76989	17758.125
371.94243	17811.725
376.11196	17826.925
380.27849	17789.925
384.44203	17677.925
388.60257	17507.225
392.76012	17355.725
396.91468	17433.525
401.06626	17777.825
405.21485	18066.725
409.36047	17814.125
413.50311	17012.225
417.64277	16246.325
421.77947	15783.625
425.9132	15604.925
430.04396	15589.325
434.17176	15681.125
438.2966	15884.725
442.41849	16243.225
446.53742	16746.525
450.6534	17194.325
454.76644	17473.425
458.87653	17588.225
462.98368	17398.025
467.08789	17165.825
471.18916	16881.325
475.2875	16569.925
479.38291	16306.525
483.4754	16049.425
487.56496	15781.325
491.6516	15630.325
495.73531	15477.325
499.81612	15452.525
503.89401	15584.025
507.96899	15759.725
512.04106	15991.825
516.11023	16247.425
520.1765	16411.625
524.23987	16395.225
528.30034	16134.125
532.35792	15904.525
536.41261	15556.325
540.46441	15268.525
544.51333	15129.525
548.55936	15148.725
552.60252	15380.025
556.64279	15677.525
560.6802	15902.125
564.71473	16148.825
568.7464	16705.425
572.7752	17094.825
576.80114	16761.225
580.82422	16198.425
584.84444	15889.525
588.86181	15915.225
592.87633	16126.625
596.888	16375.325
600.89682	16733.525
604.9028	18122.725
608.90594	22109.225
612.90624	27789.025
616.90371	27316.825
620.89834	19969.325
624.89015	16231.925
628.87913	15454.925
632.86528	15470.425
636.84862	15658.825
640.82913	15524.325
644.80683	15024.125
648.78172	14604.825
652.75379	14598.125
656.72306	15050.825
660.68952	15646.525
664.65319	15591.625
668.61405	15026.025
672.57211	14740.125
676.52738	14782.125
680.47986	14848.525
684.42955	14741.325
688.37646	14644.025
692.32058	14607.225
696.26192	14702.825
700.20048	14863.425
704.13626	14967.725
708.06928	14898.425
711.99952	14699.025
715.927	14575.525
719.85171	14598.925
723.77365	14603.825
727.69284	14545.925
731.60928	14474.125
735.52295	14450.425
739.43388	14469.125
743.34206	14507.725
747.24749	14541.525
751.15017	14579.625
755.05012	14751.925
758.94733	15218.225
762.8418	16383.125
766.73354	18585.025
770.62254	21221.225
774.50882	22817.725
778.39237	22100.125
782.27321	19474.425
786.15132	16829.625
790.02671	15278.125
793.89938	14625.725
797.76935	14322.725
801.6366	14202.225
805.50115	14117.525
809.36299	14086.225
813.22213	14012.325
817.07857	13991.625
820.93231	13955.525
824.78336	13983.825
828.63172	14052.525
832.47738	14092.825
836.32036	14048.325
840.16066	14000.125
843.99827	13938.325
847.8332	13918.625
851.66546	13915.525
855.49504	13928.025
859.32195	13981.025
863.1462	13999.625
866.96777	14007.525
870.78668	13901.125
874.60293	13815.225
878.41652	13763.925
882.22745	13809.825
886.03573	13886.125
889.84136	13881.725
893.64433	13792.625
897.44466	13703.625
901.24235	13645.425
905.0374	13614.525
908.8298	13543.425
912.61957	13513.025
916.40671	13578.725
920.19121	13698.625
923.97308	13834.425
927.75233	14005.925
931.52895	14202.725
935.30295	14157.925
939.07433	13821.325
942.84309	13462.125
946.60924	13205.625
950.37278	13059.525
954.13371	12927.525
957.89203	12863.825
961.64774	12798.025
965.40086	12751.925
969.15137	12662.125
972.89929	12620.725
976.64461	12607.225
980.38733	12612.725
984.12747	12659.525
987.86502	12689.825
991.59999	12823.125
995.33237	12957.125
999.06217	13207.425
1002.78939	13507.025
1006.51404	13695.825
1010.23611	13916.925
1013.95561	14039.625
1017.67255	14007.325
1021.38692	13846.925
1025.09872	13676.525
1028.80796	13587.725
1032.51465	13672.225
1036.21877	13870.925
1039.92035	13937.225
1043.61937	13917.325
1047.31584	13783.625
1051.00976	13689.225
1054.70114	13573.125
1058.38998	13562.325
1062.07627	13609.825
1065.76003	13615.225
1069.44126	13660.825
1073.11995	13773.425
1076.79611	13967.125
1080.46974	14120.925
1084.14085	14356.125
1087.80943	14611.425
1091.47549	14717.725
1095.13903	14542.425
1098.80005	14174.725
1102.45857	13823.925
1106.11456	13717.225
1109.76805	13792.725
1113.41903	14049.625
1117.06751	14428.825
1120.71348	14941.625
1124.35696	15516.825
1127.99793	16008.825
1131.63641	16058.725
1135.2724	15444.825
1138.90589	14744.725
1142.5369	14286.625
1146.16542	14007.125
1149.79145	13844.925
1153.415	13774.725
1157.03607	13829.525
1160.65467	14040.025
1164.27079	14448.525
1167.88443	15158.025
1171.49561	16229.125
1175.10432	17974.025
1178.71056	20331.525
1182.31434	22214.225
1185.91565	22793.525
1189.51451	22185.625
1193.11091	20815.425
1196.70485	19265.125
1200.29634	18098.825
1203.88538	17288.025
1207.47197	16439.825
1211.05612	15684.725
1214.63782	15259.725
1218.21708	15184.025
1221.79391	15197.525
1225.36829	15163.525
1228.94024	15073.825
1232.50976	14952.025
1236.07685	14837.725
1239.6415	14817.825
1243.20374	14834.425
1246.76355	14916.725
1250.32093	15081.225
1253.8759	15376.325
1257.42845	15777.225
1260.97859	16208.725
1264.52631	16646.125
1268.07163	17087.725
1271.61453	17555.825
1275.15503	17917.025
1278.69312	18099.225
1282.22882	18240.425
1285.76211	18443.925
1289.29301	18923.425
1292.82151	19565.125
1296.34761	20305.025
1299.87133	21363.825
1303.39266	22970.625
1306.9116	25322.425
1310.42815	28150.025
1313.94233	29896.525
1317.45412	29428.025
1320.96354	27566.625
1324.47058	25433.625
1327.97525	23547.825
1331.47754	22291.525
1334.97747	21816.125
1338.47502	21830.025
1341.97022	22254.125
1345.46305	22858.725
1348.95352	23750.925
1352.44163	25256.625
1355.92738	27578.225
1359.41078	31193.925
1362.89183	34919.525
1366.37053	34540.625
1369.84688	29637.125
1373.32088	24387.925
1376.79254	21006.125
1380.26186	19379.225
1383.72883	18623.425
1387.19347	18140.925
1390.65578	17639.425
1394.11575	17213.625
1397.57339	17109.125
1401.0287	17296.625
1404.48168	17619.025
1407.93234	17872.425
1411.38068	17959.325
1414.82669	17883.625
1418.27039	17625.625
1421.71177	17246.425
1425.15083	16856.625
1428.58758	16559.525
1432.02203	16597.025
1435.45416	16738.425
1438.88399	16911.725
1442.31151	16909.225
1445.73673	16987.825
1449.15965	17115.025
1452.58027	17196.625
1455.9986	17102.825
1459.41463	17085.025
1462.82837	17243.125
1466.23982	17576.825
1469.64898	18004.825
1473.05586	18239.225
1476.46045	18390.625
1479.86276	18497.125
1483.26279	18666.325
1486.66054	18932.625
1490.05602	19271.625
1493.44922	19804.925
1496.84016	20564.225
1500.22882	21867.425
1503.61521	24028.525
1506.99934	26829.925
1510.38121	29672.825
1513.76081	31162.625
1517.13816	29835.925
1520.51324	26427.825
1523.88607	22886.325
1527.25665	20404.225
1530.62498	19039.325
1533.99105	18322.625
1537.35488	17912.025
1540.71647	17686.925
1544.07581	17588.225
1547.4329	17518.225
1550.78776	17533.425
1554.14038	17543.025
1557.49077	17701.925
1560.83892	17947.025
1564.18484	18342.525
1567.52853	18784.025
1570.86999	19231.825
1574.20922	19492.025
1577.54624	19556.025
1580.88103	18912.525
1584.2136	17828.225
1587.54395	17226.925
1590.87208	17378.325
1594.19801	18251.625
1597.52172	19551.225
1600.84321	20315.225
1604.16251	19853.125
1607.47959	18606.725
1610.79447	17142.625
1614.10715	15731.525
1617.41763	14689.125
1620.7259	13955.825
1624.03199	13627.825
1627.33587	13636.425
1630.63757	13909.525
1633.93707	14513.925
1637.23439	15488.325
1640.52951	16954.225
1643.82246	19002.125
1647.11321	21356.825
1650.40179	23053.725
1653.68819	22570.625
1656.97241	19800.425
1660.25446	16582.725
1663.53433	14322.125
1666.81203	13018.025
1670.08756	12263.425
1673.36092	11825.725
1676.63211	11516.425
1679.90115	11312.125
1683.16801	11160.725
1686.43272	11016.425
1689.69527	10931.425
1692.95567	10856.625
1696.2139	10752.025
1699.46999	10691.125
1702.72392	10663.725
1705.97571	10651.025
1709.22535	10671.225
1712.47284	10701.725
1715.71819	10716.425
1718.96139	10739.325
1722.20246	10710.425
1725.44139	10665.925
1728.67818	10604.025
1731.91284	10536.525
1735.14537	10485.325
1738.37576	10429.225
1741.60403	10392.625
1744.83017	10355.725
1748.05418	10325.025
1751.27607	10299.525
1754.49584	10259.725
1757.71349	10226.525
1760.92903	10165.125
1764.14244	10120.325
1767.35375	10109.625
1770.56294	10045.925
1773.77002	10032.525
1776.97499	10037.825
1780.17785	10025.125
1783.37861	10022.125
1786.57727	10007.725
1789.77382	9993.725
1792.96828	9975.625
1796.16064	9944.625
1799.3509	9892.525
1802.53907	9880.525
1805.72514	9870.025
1808.90913	9835.425
1812.09102	9819.225
1815.27083	9799.825
1818.44856	9783.525
1821.6242	9735.025
1824.79776	9711.125
1827.96924	9716.625
1831.13864	9690.725
1834.30597	9669.225
1837.47122	9659.325
1840.6344	9654.325
1843.7955	9643.725
1846.95454	9625.425
1850.11151	9645.425
1853.26642	9608.325
1856.41926	9642.625
1859.57004	9642.225
1862.71876	9639.825
1865.86542	9614.125
1869.01003	9604.225
1872.15258	9607.725
1875.29308	9621.125
1878.43152	9585.825
1881.56792	9585.725
1884.70227	9579.025
1887.83457	9563.925
1890.96482	9551.025
1894.09304	9556.325
1897.21921	9548.025
1900.34335	9527.725
1903.46544	9523.225
1906.58551	9537.925
1909.70353	9521.625
1912.81953	9508.725
1915.93349	9498.525
1919.04543	9479.925
1922.15534	9497.625
1925.26322	9423.825
1928.36908	9451.225
1931.47292	9417.725
1934.57473	9360.625
1937.67453	9355.325
1940.77232	9308.225
1943.86808	9260.025
1946.96184	9233.525
1950.05358	9235.025
1953.14331	9192.925
1956.23103	9161.725
1959.31675	9130.825
1962.40046	9114.425
1965.48217	9070.225
1968.56188	9037.425
1971.63959	9020.825
1974.7153	9003.425
1977.78901	8944.225
1980.86073	8920.525
1983.93046	8912.825
1986.99819	8862.425
1990.06394	8844.025
1993.1277	8797.825
1996.18947	8776.325
1999.24925	8750.525
2002.30706	8713.925
2005.36288	8699.325
2008.41672	8662.425
2011.46859	8658.425
2014.51848	8637.725
2017.56639	8607.925
2020.61233	8569.425
2023.6563	8549.625
2026.6983	8537.325
2029.73833	8526.125
2032.7764	8490.825
2035.8125	8473.125
2038.84664	8454.525
2041.87881	8420.725
2044.90903	8401.325
2047.93729	8398.725
2050.96359	8379.125
2053.98794	8371.425
2057.01034	8363.125
2060.03078	8365.825
2063.04927	8336.125
2066.06582	8336.525
2069.08042	8332.925
2072.09307	8319.225
2075.10378	8329.025
2078.11255	8307.225
2081.11938	8300.525
2084.12426	8303.225
2087.12722	8289.125
2090.12824	8287.925
2093.12732	8291.025
2096.12447	8269.025
2099.11969	8269.825
2102.11299	8280.925
2105.10435	8277.325
2108.09379	8286.125
2111.08131	8294.925
2114.0669	8280.525
2117.05057	8283.925
2120.03233	8299.025
2123.01216	8307.025
2125.99008	8323.725
2128.96609	8309.525
2131.94018	8337.525
2134.91236	8316.325
2137.88263	8347.325
2140.851	8334.725
2143.81746	8313.925
2146.78201	8341.425
2149.74466	8336.125
2152.7054	8314.625
2155.66425	8294.225
2158.6212	8297.325
2161.57625	8273.125
2164.52941	8268.725
2167.48067	8278.425
2170.43004	8279.725
2173.37752	8270.625
2176.32311	8268.325
2179.26681	8287.525
2182.20863	8268.825
2185.14856	8247.925
2188.08661	8268.825
2191.02278	8247.825
2193.95707	8247.725
2196.88948	8254.225
2199.82001	8229.125
2202.74867	8216.825
2205.67545	8217.125
2208.60037	8207.025
2211.52341	8202.725
2214.44458	8188.625
2217.36388	8180.925
2220.28132	8166.225
2223.1969	8149.925
2226.11061	8137.525
2229.02246	8121.525
2231.93245	8088.625
2234.84058	8077.225
2237.74686	8066.125
2240.65128	8066.725
2243.55385	8035.525
2246.45456	7999.525
2249.35343	8022.225
2252.25044	8007.925
2255.14561	8007.025
2258.03893	7982.425
2260.93041	7969.825
2263.82004	7965.325
2266.70783	7951.525
2269.59378	7911.125
2272.4779	7904.025
2275.36017	7891.725
2278.24061	7878.325
2281.11922	7865.325
2283.996	7853.625
2286.87094	7844.825
2289.74405	7815.525
2292.61534	7789.525
2295.4848	7791.425
2298.35243	7792.225
2301.21824	7769.625
2304.08223	7763.825
2306.94439	7764.425
2309.80474	7788.725
2312.66327	7778.525
2315.51999	7754.825
2318.37489	7753.225
2321.22797	7749.325
2324.07925	7739.625
2326.92871	7711.825
2329.77637	7711.425
2332.62222	7705.425
2335.46626	7690.325
2338.3085	7682.925
2341.14893	7692.525
2343.98756	7695.825
2346.8244	7667.825
2349.65943	7674.225
2352.49267	7688.425
2355.32411	7697.325
2358.15376	7682.425
2360.98161	7711.025
2363.80768	7679.625
2366.63195	7704.925
2369.45444	7694.725
2372.27514	7683.325
2375.09405	7660.325
2377.91118	7669.925
2380.72652	7627.525
2383.54009	7580.825
2386.35187	7564.625
2389.16188	7535.225
2391.97011	7520.225
2394.77657	7509.325
2397.58125	7486.625
2400.38416	7471.025
2403.18529	7438.325
2405.98466	7455.225
2408.78226	7427.525
2411.57809	7416.025
2414.37216	7396.225
2417.16446	7383.525
2419.955	7379.825
2422.74378	7381.725
2425.5308	7386.225
2428.31606	7367.125
2431.09956	7370.025
2433.88131	7356.725
2436.6613	7366.225
2439.43954	7354.925
2442.21603	7351.825
2444.99077	7337.825
2447.76377	7356.325
2450.53501	7352.725
2453.30451	7344.925
2456.07226	7343.625
2458.83827	7324.125
2461.60254	7328.925
2464.36507	7321.025
2467.12586	7306.825
2469.88492	7306.825
2472.64224	7320.125
2475.39782	7299.325
2478.15167	7285.625
2480.90379	7316.225
2483.65417	7314.925
2486.40283	7319.125
2489.14976	7335.125
2491.89497	7326.525
2494.63845	7328.325
2497.3802	7313.925
2500.12024	7309.125
2502.85855	7309.825
2505.59514	7302.025
2508.33002	7284.325
2511.06318	7253.725
2513.79462	7231.325
2516.52435	7203.725
2519.25237	7186.125
2521.97867	7184.225
2524.70327	7171.525
2527.42616	7141.825
2530.14734	7136.325
2532.86681	7146.025
2535.58458	7113.725
2538.30065	7124.725
2541.01501	7122.125
2543.72768	7132.525
2546.43864	7109.125
2549.14791	7095.125
2551.85548	7102.125
2554.56136	7079.925
2557.26554	7078.525
2559.96803	7065.125
2562.66883	7062.725
2565.36794	7038.925
2568.06536	7063.025
2570.7611	7039.425
2573.45514	7034.525
2576.14751	7013.225
2578.83819	6995.925
2581.52719	6989.625
2584.21451	6975.725
2586.90015	6977.325
2589.58411	6970.925
2592.2664	6959.025
2594.94701	6945.225
2597.62594	6937.525
2600.30321	6909.625
2602.9788	6913.325
2605.65273	6911.425
2608.32498	6900.325
2610.99557	6882.625
2613.66449	6884.325
2616.33175	6895.825
2618.99734	6883.625
2621.66128	6881.425
2624.32355	6882.625
2626.98416	6881.025
2629.64311	6881.125
2632.30041	6883.225
2634.95605	6861.925
2637.61004	6821.325
2640.26238	6822.525
2642.91306	6817.025
2645.56209	6795.825
2648.20948	6780.325
2650.85521	6781.325
2653.4993	6774.025
2656.14175	6800.625
2658.78255	6805.025
2661.42171	6808.625
2664.05923	6808.325
2666.6951	6825.425
2669.32934	6831.825
2671.96194	6801.825
2674.59291	6818.825
2677.22224	6809.025
2679.84993	6805.325
2682.476	6785.425
2685.10043	6794.425
2687.72324	6807.025
2690.34441	6803.725
2692.96396	6783.525
2695.58188	6797.625
2698.19818	6792.925
2700.81285	6802.525
2703.4259	6802.925
2706.03733	6764.825
2708.64714	6786.525
2711.25533	6800.125
2713.86191	6782.525
2716.46687	6810.125
2719.07021	6784.325
2721.67194	6819.925
2724.27206	6796.025
2726.87057	6825.325
2729.46747	6802.125
2732.06276	6810.825
2734.65644	6800.225
2737.24852	6793.225
2739.83899	6791.725
2742.42786	6775.325
2745.01513	6746.825
2747.60079	6745.225
2750.18486	6765.425
2752.76733	6741.425
2755.3482	6732.425
2757.92747	6730.425
2760.50515	6720.625
2763.08123	6715.425
2765.65573	6695.325
2768.22863	6723.725
2770.79994	6720.425
2773.36967	6686.925
2775.9378	6702.025
2778.50435	6702.125
2781.06932	6693.725
2783.6327	6686.925
2786.1945	6672.625
2788.75471	6666.025
2791.31335	6667.925
2793.87041	6658.225
2796.42589	6646.425
2798.97979	6661.825
2801.53212	6649.325
2804.08288	6649.125
2806.63206	6627.025
2809.17967	6632.925
2811.72571	6628.625
2814.27018	6629.625
2816.81308	6631.325
2819.35442	6622.525
2821.89419	6637.125
2824.43239	6638.825
2826.96904	6642.825
2829.50412	6635.225
2832.03763	6642.725
2834.56959	6641.125
2837.1	6645.025
2839.62884	6664.425
2842.15613	6700.125
2844.68186	6763.225
2847.20604	6792.825
2849.72867	6851.525
2852.24974	6847.525
2854.76927	6843.125
2857.28724	6841.325
2859.80367	6800.125
2862.31855	6816.325
2864.83189	6805.725
2867.34368	6785.625
2869.85393	6804.425
2872.36264	6817.725
2874.8698	6802.425
2877.37543	6818.125
2879.87952	6820.525
2882.38207	6805.625
2884.88308	6826.225
2887.38256	6831.225
2889.88051	6823.325
2892.37692	6849.125
2894.8718	6830.925
2897.36515	6862.525
2899.85698	6863.425
2902.34727	6895.525
2904.83604	6881.325
2907.32328	6917.025
2909.809	6907.925
2912.29319	6893.425
2914.77587	6920.025
2917.25702	6914.425
2919.73665	6882.125
2922.21476	6899.625
2924.69136	6904.725
2927.16644	6920.625
2929.64	6915.325
2932.11205	6887.425
2934.58258	6854.825
2937.05161	6849.125
2939.51912	6836.325
2941.98513	6784.525
2944.44962	6742.125
2946.91261	6688.525
2949.37409	6671.325
2951.83407	6633.325
2954.29254	6605.325
2956.74951	6599.525
2959.20498	6580.325
2961.65895	6558.025
2964.11142	6565.225
2966.56239	6516.025
2969.01186	6491.025
2971.45984	6468.025
2973.90632	6453.925
2976.35131	6407.625
2978.7948	6399.125
2981.23681	6374.625
2983.67732	6364.425
2986.11635	6334.625
2988.55388	6310.625
2990.98993	6318.725
2993.4245	6288.625
2995.85758	6287.425
2998.28917	6257.225
3000.71928	6246.725
3003.14791	6244.625
3005.57506	6218.825
3008.00073	6221.825
3010.42493	6171.225
3012.84764	6205.725
3015.26888	6204.325
3017.68865	6183.125
3020.10694	6178.325
3022.52376	6149.725
3024.9391	6141.725
3027.35298	6127.625
3029.76539	6123.525
3032.17632	6120.425
3034.5858	6100.025
3036.9938	6086.125
3039.40034	6093.725
3041.80542	6075.325
3044.20903	6068.925
3046.61118	6045.025
3049.01187	6039.825
3051.4111	6032.725
3053.80888	6034.225
3056.20519	6007.025
3058.60005	5997.325
3060.99345	5966.925
3063.3854	5968.625
3065.7759	5964.525
3068.16494	5940.325
3070.55254	5941.625
3072.93868	5937.625
3075.32338	5927.325
3077.70662	5904.925
3080.08842	5873.825
3082.46878	5896.325
3084.84769	5891.925
3087.22515	5873.625
3089.60118	5881.725
3091.97576	5889.025
3094.3489	5886.625
3096.72061	5880.425
3099.09087	5873.025
3101.4597	5861.225
3103.82709	5882.825
3106.19305	5879.425
3108.55757	5885.225
3110.92066	5852.225
3113.28232	5843.025
3115.64255	5801.525
3118.00134	5821.125
3120.35871	5831.325
3122.71466	5813.525
3125.06917	5795.125
3127.42226	5800.125
3129.77393	5819.125
3132.12417	5798.825
3134.47299	5795.625
3136.82039	5791.425
3139.16636	5816.725
3141.51092	5801.025
3143.85406	5830.625
3146.19579	5826.225
3148.53609	5823.825
3150.87499	5839.725
3153.21246	5847.025
3155.54853	5853.525
3157.88318	5874.225
3160.21642	5865.625
3162.54826	5857.925
3164.87868	5859.025
3167.2077	5848.025
3169.5353	5866.225
3171.86151	5867.925
3174.18631	5854.425
3176.5097	5867.625
3178.83169	5858.525
3181.15228	5858.925
3183.47147	5844.325
3185.78926	5866.325
