Data from AgNPs_FTO_APTES_UA_1uM_CRN_500uM_R6G_10uM_NaF_0.1M_Addition_RamanShift__11__17-57-29-859.txt Node

Date: Thu Jan 27 17:57:29 GMT 2022
User: TCL
Spectrometer: QEP01345
Trigger mode: 4
Integration Time (sec): 7.000000E0
Scans to average: 10
Electric dark correction enabled: true
Nonlinearity correction enabled: false
Boxcar width: 0
XAxis mode: Raman Shifts
Number of Pixels in Spectrum: 1044
>>>>>Begin Spectral Data<<<<<
46.04893	0.975
50.45542	-0.225
54.85868	-0.825
59.25871	-1.825
63.6555	39.575
68.04907	41.375
72.43941	44.075
76.82654	48.975
81.21044	48.975
85.59113	51.575
89.96862	51.275
94.34289	54.175
98.71396	57.275
103.08183	56.875
107.4465	61.075
111.80798	58.775
116.16626	57.475
120.52136	69.875
124.87327	63.775
129.222	63.675
133.56755	67.375
137.90993	71.275
142.24913	74.275
146.58517	84.675
150.91804	92.075
155.24774	110.275
159.57429	127.875
163.89768	152.575
168.21792	203.675
172.53501	267.575
176.84895	373.375
181.15975	519.175
185.46741	719.075
189.77193	985.775
194.07331	1318.375
198.37157	1707.175
202.6667	2117.075
206.9587	2526.075
211.24758	2911.375
215.53334	3301.875
219.81599	3711.575
224.09553	4171.875
228.37195	4640.175
232.64527	5188.475
236.91549	5762.875
241.18261	6345.075
245.44663	6930.375
249.70755	7417.775
253.96539	7886.275
258.22014	8266.175
262.4718	8542.575
266.72039	8772.075
270.96589	8853.275
275.20832	8855.975
279.44768	8784.475
283.68397	8655.375
287.91719	8547.175
292.14735	8465.975
296.37445	8400.275
300.59849	8402.075
304.81948	8393.375
309.03742	8392.575
313.25231	8328.775
317.46415	8217.575
321.67296	8063.075
325.87872	7914.475
330.08145	7863.975
334.28114	7863.075
338.47781	7912.175
342.67145	7976.875
346.86207	8099.575
351.04966	8236.675
355.23424	8352.175
359.4158	8489.975
363.59435	8561.875
367.76989	8602.475
371.94243	8647.875
376.11196	8716.175
380.27849	8748.775
384.44203	8782.175
388.60257	8814.375
392.76012	8918.575
396.91468	8974.775
401.06626	9132.175
405.21485	9198.575
409.36047	9222.875
413.50311	9114.775
417.64277	9072.975
421.77947	9122.475
425.9132	9177.575
430.04396	9218.375
434.17176	9283.675
438.2966	9299.575
442.41849	9342.275
446.53742	9474.475
450.6534	9614.375
454.76644	9713.075
458.87653	9728.375
462.98368	9682.575
467.08789	9659.775
471.18916	9550.375
475.2875	9464.875
479.38291	9374.575
483.4754	9290.375
487.56496	9233.975
491.6516	9186.875
495.73531	9156.975
499.81612	9176.875
503.89401	9233.775
507.96899	9276.275
512.04106	9275.975
516.11023	9242.375
520.1765	9184.175
524.23987	9116.875
528.30034	9055.375
532.35792	8965.475
536.41261	8929.175
540.46441	8843.175
544.51333	8842.175
548.55936	8946.075
552.60252	9035.075
556.64279	9176.675
560.6802	9264.975
564.71473	9281.975
568.7464	9332.975
572.7752	9492.075
576.80114	9703.275
580.82422	9995.675
584.84444	10364.975
588.86181	10875.975
592.87633	11284.975
596.888	11198.475
600.89682	10714.575
604.9028	10412.575
608.90594	10736.875
612.90624	11315.075
616.90371	10935.275
620.89834	9661.975
624.89015	9058.575
628.87913	8988.475
632.86528	9053.075
636.84862	9095.475
640.82913	9044.175
644.80683	8887.875
648.78172	8782.475
652.75379	8819.875
656.72306	8852.475
660.68952	8958.575
664.65319	8935.275
668.61405	8826.075
672.57211	8837.575
676.52738	8847.475
680.47986	8894.075
684.42955	8890.975
688.37646	8842.775
692.32058	8812.875
696.26192	8860.575
700.20048	8918.975
704.13626	8960.775
708.06928	8961.975
711.99952	8981.875
715.927	8974.375
719.85171	8959.175
723.77365	8914.575
727.69284	8843.675
731.60928	8781.975
735.52295	8740.575
739.43388	8734.175
743.34206	8756.675
747.24749	8777.675
751.15017	8859.375
755.05012	8962.675
758.94733	9122.475
762.8418	9384.175
766.73354	9816.475
770.62254	10326.275
774.50882	10499.375
778.39237	10205.675
782.27321	9686.375
786.15132	9244.275
790.02671	8947.775
793.89938	8794.175
797.76935	8730.075
801.6366	8712.975
805.50115	8665.675
809.36299	8627.075
813.22213	8586.375
817.07857	8553.275
820.93231	8523.375
824.78336	8495.775
828.63172	8480.075
832.47738	8480.575
836.32036	8478.275
840.16066	8460.075
843.99827	8475.975
847.8332	8449.175
851.66546	8473.975
855.49504	8461.075
859.32195	8442.075
863.1462	8429.275
866.96777	8442.575
870.78668	8452.075
874.60293	8444.675
878.41652	8443.975
882.22745	8481.875
886.03573	8494.675
889.84136	8514.075
893.64433	8497.275
897.44466	8476.875
901.24235	8449.375
905.0374	8430.575
908.8298	8388.075
912.61957	8405.575
916.40671	8433.275
920.19121	8516.775
923.97308	8557.275
927.75233	8589.775
931.52895	8542.975
935.30295	8452.475
939.07433	8329.275
942.84309	8217.375
946.60924	8145.975
950.37278	8117.175
954.13371	8102.775
957.89203	8080.675
961.64774	8081.275
965.40086	8054.175
969.15137	8047.975
972.89929	8001.975
976.64461	7959.875
980.38733	7942.475
984.12747	7937.775
987.86502	7943.175
991.59999	7950.175
995.33237	7991.175
999.06217	8041.475
1002.78939	8136.875
1006.51404	8199.875
1010.23611	8286.375
1013.95561	8376.075
1017.67255	8430.175
1021.38692	8398.975
1025.09872	8329.575
1028.80796	8216.975
1032.51465	8160.875
1036.21877	8157.475
1039.92035	8163.375
1043.61937	8224.275
1047.31584	8233.275
1051.00976	8298.675
1054.70114	8314.375
1058.38998	8350.775
1062.07627	8428.275
1065.76003	8475.375
1069.44126	8564.075
1073.11995	8671.075
1076.79611	8799.975
1080.46974	8794.975
1084.14085	8794.975
1087.80943	8786.575
1091.47549	8805.575
1095.13903	8854.975
1098.80005	8783.475
1102.45857	8641.275
1106.11456	8495.975
1109.76805	8419.775
1113.41903	8395.775
1117.06751	8428.775
1120.71348	8503.075
1124.35696	8604.175
1127.99793	8759.075
1131.63641	8838.175
1135.2724	8747.575
1138.90589	8663.375
1142.5369	8627.375
1146.16542	8658.175
1149.79145	8664.075
1153.415	8686.775
1157.03607	8736.375
1160.65467	8897.775
1164.27079	9156.975
1167.88443	9549.375
1171.49561	9898.575
1175.10432	10348.675
1178.71056	10893.075
1182.31434	11432.575
1185.91565	11737.875
1189.51451	11732.275
1193.11091	11479.775
1196.70485	11135.675
1200.29634	10827.175
1203.88538	10537.375
1207.47197	10350.975
1211.05612	10190.275
1214.63782	10020.275
1218.21708	9804.075
1221.79391	9601.875
1225.36829	9455.075
1228.94024	9406.975
1232.50976	9351.975
1236.07685	9281.875
1239.6415	9225.275
1243.20374	9206.875
1246.76355	9206.175
1250.32093	9274.575
1253.8759	9389.775
1257.42845	9517.975
1260.97859	9734.275
1264.52631	9927.075
1268.07163	10073.075
1271.61453	10290.475
1275.15503	10450.175
1278.69312	10682.175
1282.22882	10939.275
1285.76211	11199.875
1289.29301	11583.475
1292.82151	11968.375
1296.34761	12475.775
1299.87133	13052.675
1303.39266	13675.775
1306.9116	14201.175
1310.42815	14667.875
1313.94233	14891.075
1317.45412	14724.875
1320.96354	14378.075
1324.47058	14013.875
1327.97525	13798.275
1331.47754	13659.775
1334.97747	13551.375
1338.47502	13471.975
1341.97022	13370.275
1345.46305	13333.575
1348.95352	13406.375
1352.44163	13630.675
1355.92738	14092.075
1359.41078	14724.175
1362.89183	15224.975
1366.37053	15153.775
1369.84688	14135.275
1373.32088	12729.575
1376.79254	11625.475
1380.26186	11149.175
1383.72883	10993.175
1387.19347	10871.175
1390.65578	10671.775
1394.11575	10588.975
1397.57339	10625.975
1401.0287	10793.975
1404.48168	10918.675
1407.93234	10944.375
1411.38068	10778.175
1414.82669	10576.875
1418.27039	10260.375
1421.71177	9982.375
1425.15083	9727.675
1428.58758	9604.475
1432.02203	9616.675
1435.45416	9763.075
1438.88399	9935.675
1442.31151	10052.575
1445.73673	10069.775
1449.15965	10106.775
1452.58027	10101.675
1455.9986	10087.975
1459.41463	10141.075
1462.82837	10256.875
1466.23982	10448.175
1469.64898	10610.575
1473.05586	10767.575
1476.46045	10839.275
1479.86276	10831.075
1483.26279	10833.675
1486.66054	10862.675
1490.05602	10958.575
1493.44922	11093.275
1496.84016	11343.875
1500.22882	11664.975
1503.61521	12097.475
1506.99934	12528.575
1510.38121	12842.975
1513.76081	12867.975
1517.13816	12554.175
1520.51324	12089.375
1523.88607	11739.975
1527.25665	11521.975
1530.62498	11422.975
1533.99105	11290.675
1537.35488	11117.875
1540.71647	10920.975
1544.07581	10707.275
1547.4329	10455.875
1550.78776	10201.275
1554.14038	10046.375
1557.49077	9946.975
1560.83892	9902.375
1564.18484	9919.175
1567.52853	9955.675
1570.86999	10063.575
1574.20922	10201.575
1577.54624	10328.575
1580.88103	10309.475
1584.2136	10241.675
1587.54395	10291.075
1590.87208	10588.375
1594.19801	11087.075
1597.52172	11652.875
1600.84321	11964.075
1604.16251	11692.775
1607.47959	11037.775
1610.79447	10279.975
1614.10715	9566.675
1617.41763	8976.575
1620.7259	8575.775
1624.03199	8339.075
1627.33587	8287.075
1630.63757	8383.175
1633.93707	8672.675
1637.23439	9246.375
1640.52951	10198.675
1643.82246	11434.875
1647.11321	12596.675
1650.40179	13066.975
1653.68819	12445.275
1656.97241	11085.175
1660.25446	9667.575
1663.53433	8638.975
1666.81203	8010.875
1670.08756	7612.775
1673.36092	7383.775
1676.63211	7233.775
1679.90115	7122.275
1683.16801	7017.975
1686.43272	6945.175
1689.69527	6884.975
1692.95567	6840.175
1696.2139	6782.275
1699.46999	6727.375
1702.72392	6693.375
1705.97571	6702.375
1709.22535	6712.575
1712.47284	6737.475
1715.71819	6732.575
1718.96139	6732.475
1722.20246	6717.475
1725.44139	6707.575
1728.67818	6658.175
1731.91284	6605.175
1735.14537	6564.975
1738.37576	6578.775
1741.60403	6556.475
1744.83017	6524.975
1748.05418	6489.675
1751.27607	6504.975
1754.49584	6484.275
1757.71349	6497.275
1760.92903	6475.475
1764.14244	6435.975
1767.35375	6429.975
1770.56294	6415.875
1773.77002	6380.075
1776.97499	6374.975
1780.17785	6386.275
1783.37861	6395.675
1786.57727	6373.775
1789.77382	6358.875
1792.96828	6335.075
1796.16064	6356.475
1799.3509	6305.475
1802.53907	6289.575
1805.72514	6276.875
1808.90913	6264.775
1812.09102	6251.775
1815.27083	6230.975
1818.44856	6215.175
1821.6242	6199.175
1824.79776	6175.475
1827.96924	6188.075
1831.13864	6177.475
1834.30597	6185.275
1837.47122	6193.575
1840.6344	6172.475
1843.7955	6153.075
1846.95454	6146.375
1850.11151	6154.775
1853.26642	6154.175
1856.41926	6128.375
1859.57004	6148.775
1862.71876	6125.175
1865.86542	6126.775
1869.01003	6115.475
1872.15258	6081.375
1875.29308	6070.575
1878.43152	6062.575
1881.56792	6049.675
1884.70227	6057.375
1887.83457	6034.875
1890.96482	6016.575
1894.09304	6014.175
1897.21921	5998.775
1900.34335	5991.275
1903.46544	5979.175
1906.58551	5974.275
1909.70353	5964.375
1912.81953	5964.375
1915.93349	5946.175
1919.04543	5918.675
1922.15534	5929.975
1925.26322	5911.575
1928.36908	5913.875
1931.47292	5890.275
1934.57473	5852.075
1937.67453	5863.875
1940.77232	5824.975
1943.86808	5817.475
1946.96184	5802.475
1950.05358	5777.675
1953.14331	5770.175
1956.23103	5739.275
1959.31675	5726.075
1962.40046	5723.975
1965.48217	5708.075
1968.56188	5672.975
1971.63959	5639.275
1974.7153	5635.575
1977.78901	5618.375
1980.86073	5616.375
1983.93046	5585.275
1986.99819	5568.975
1990.06394	5547.875
1993.1277	5527.275
1996.18947	5512.775
1999.24925	5507.275
2002.30706	5478.275
2005.36288	5464.875
2008.41672	5463.375
2011.46859	5426.475
2014.51848	5423.375
2017.56639	5409.375
2020.61233	5400.475
2023.6563	5383.975
2026.6983	5346.075
2029.73833	5346.075
2032.7764	5325.475
2035.8125	5327.175
2038.84664	5273.875
2041.87881	5278.475
2044.90903	5271.275
2047.93729	5256.675
2050.96359	5241.075
2053.98794	5226.875
2057.01034	5225.775
2060.03078	5220.975
2063.04927	5221.275
2066.06582	5218.475
2069.08042	5219.175
2072.09307	5201.475
2075.10378	5206.875
2078.11255	5199.775
2081.11938	5198.375
2084.12426	5190.475
2087.12722	5184.275
2090.12824	5191.375
2093.12732	5202.675
2096.12447	5180.475
2099.11969	5165.875
2102.11299	5184.975
2105.10435	5193.375
2108.09379	5181.875
2111.08131	5179.775
2114.0669	5172.675
2117.05057	5200.175
2120.03233	5192.675
2123.01216	5192.575
2125.99008	5203.775
2128.96609	5196.175
2131.94018	5201.375
2134.91236	5216.175
2137.88263	5186.475
2140.851	5203.975
2143.81746	5195.175
2146.78201	5187.175
2149.74466	5205.275
2152.7054	5172.975
2155.66425	5168.175
2158.6212	5178.275
2161.57625	5172.075
2164.52941	5176.475
2167.48067	5168.275
2170.43004	5158.975
2173.37752	5167.375
2176.32311	5161.975
2179.26681	5160.375
2182.20863	5149.875
2185.14856	5154.475
2188.08661	5162.675
2191.02278	5165.175
2193.95707	5141.675
2196.88948	5131.275
2199.82001	5118.675
2202.74867	5128.875
2205.67545	5114.475
2208.60037	5100.775
2211.52341	5094.675
2214.44458	5093.575
2217.36388	5074.375
2220.28132	5060.975
2223.1969	5056.675
2226.11061	5039.775
2229.02246	5030.575
2231.93245	5022.675
2234.84058	5010.275
2237.74686	5004.675
2240.65128	5000.975
2243.55385	4983.775
2246.45456	4974.475
2249.35343	4969.575
2252.25044	4964.375
2255.14561	4945.275
2258.03893	4929.275
2260.93041	4929.075
2263.82004	4904.375
2266.70783	4888.775
2269.59378	4890.075
2272.4779	4864.375
2275.36017	4874.975
2278.24061	4858.575
2281.11922	4853.575
2283.996	4844.675
2286.87094	4819.475
2289.74405	4817.075
2292.61534	4818.375
2295.4848	4796.475
2298.35243	4797.775
2301.21824	4792.075
2304.08223	4786.875
2306.94439	4769.075
2309.80474	4789.175
2312.66327	4763.975
2315.51999	4763.475
2318.37489	4754.175
2321.22797	4749.775
2324.07925	4732.775
2326.92871	4717.075
2329.77637	4711.175
2332.62222	4711.175
2335.46626	4684.575
2338.3085	4674.575
2341.14893	4693.675
2343.98756	4673.075
2346.8244	4673.875
2349.65943	4663.075
2352.49267	4658.275
2355.32411	4679.975
2358.15376	4642.675
2360.98161	4668.475
2363.80768	4658.675
2366.63195	4642.375
2369.45444	4642.875
2372.27514	4647.475
2375.09405	4625.175
2377.91118	4644.475
2380.72652	4620.575
2383.54009	4605.775
2386.35187	4598.475
2389.16188	4579.375
2391.97011	4559.975
2394.77657	4555.475
2397.58125	4539.775
2400.38416	4542.775
2403.18529	4521.775
2405.98466	4508.375
2408.78226	4517.675
2411.57809	4518.975
2414.37216	4503.475
2417.16446	4482.775
2419.955	4490.575
2422.74378	4496.375
2425.5308	4489.975
2428.31606	4487.575
2431.09956	4474.675
2433.88131	4466.275
2436.6613	4452.075
2439.43954	4453.675
2442.21603	4452.775
2444.99077	4446.875
2447.76377	4446.775
2450.53501	4442.575
2453.30451	4445.175
2456.07226	4433.675
2458.83827	4412.375
2461.60254	4408.075
2464.36507	4412.975
2467.12586	4411.175
2469.88492	4404.275
2472.64224	4409.775
2475.39782	4393.475
2478.15167	4378.875
2480.90379	4379.975
2483.65417	4385.275
2486.40283	4384.575
2489.14976	4384.775
2491.89497	4360.775
2494.63845	4368.475
2497.3802	4354.575
2500.12024	4355.275
2502.85855	4355.275
2505.59514	4355.775
2508.33002	4342.675
2511.06318	4335.175
2513.79462	4321.575
2516.52435	4318.975
2519.25237	4306.975
2521.97867	4297.875
2524.70327	4291.975
2527.42616	4282.675
2530.14734	4279.875
2532.86681	4266.675
2535.58458	4271.275
2538.30065	4263.675
2541.01501	4257.075
2543.72768	4260.075
2546.43864	4247.975
2549.14791	4244.375
2551.85548	4243.275
2554.56136	4208.875
2557.26554	4218.075
2559.96803	4216.575
2562.66883	4196.975
2565.36794	4202.675
2568.06536	4196.875
2570.7611	4194.975
2573.45514	4164.175
2576.14751	4171.775
2578.83819	4160.475
2581.52719	4154.675
2584.21451	4141.475
2586.90015	4127.575
2589.58411	4131.275
2592.2664	4127.075
2594.94701	4116.375
2597.62594	4109.875
2600.30321	4086.675
2602.9788	4085.475
2605.65273	4087.975
2608.32498	4068.175
2610.99557	4078.175
2613.66449	4066.975
2616.33175	4069.975
2618.99734	4051.275
2621.66128	4065.575
2624.32355	4048.775
2626.98416	4043.275
2629.64311	4034.375
2632.30041	4042.375
2634.95605	4018.975
2637.61004	4017.275
2640.26238	4002.875
2642.91306	4020.975
2645.56209	4002.175
2648.20948	3996.975
2650.85521	3985.675
2653.4993	4003.175
2656.14175	4014.075
2658.78255	4009.675
2661.42171	4013.275
2664.05923	4005.175
2666.6951	3995.775
2669.32934	4003.375
2671.96194	4010.675
2674.59291	3996.875
2677.22224	3982.875
2679.84993	3981.575
2682.476	3974.775
2685.10043	3985.775
2687.72324	3979.775
2690.34441	3977.375
2692.96396	3978.575
2695.58188	3995.375
2698.19818	3983.975
2700.81285	3989.275
2703.4259	3969.775
2706.03733	3957.175
2708.64714	3952.675
2711.25533	3973.875
2713.86191	3969.675
2716.46687	3984.175
2719.07021	3967.875
2721.67194	3978.475
2724.27206	3976.175
2726.87057	3983.775
2729.46747	3996.175
2732.06276	3975.475
2734.65644	3969.675
2737.24852	3975.375
2739.83899	3963.875
2742.42786	3962.175
2745.01513	3943.375
2747.60079	3943.175
2750.18486	3941.675
2752.76733	3942.175
2755.3482	3929.975
2757.92747	3929.875
2760.50515	3933.875
2763.08123	3910.575
2765.65573	3922.475
2768.22863	3912.675
2770.79994	3907.675
2773.36967	3901.175
2775.9378	3896.475
2778.50435	3885.375
2781.06932	3892.575
2783.6327	3884.375
2786.1945	3877.875
2788.75471	3877.775
2791.31335	3865.775
2793.87041	3860.075
2796.42589	3847.775
2798.97979	3849.375
2801.53212	3845.875
2804.08288	3840.275
2806.63206	3817.375
2809.17967	3828.475
2811.72571	3822.175
2814.27018	3788.275
2816.81308	3798.375
2819.35442	3801.475
2821.89419	3799.575
2824.43239	3778.075
2826.96904	3769.175
2829.50412	3780.575
2832.03763	3765.375
2834.56959	3776.875
2837.1	3776.675
2839.62884	3792.775
2842.15613	3805.075
2844.68186	3835.775
2847.20604	3844.175
2849.72867	3852.875
2852.24974	3843.775
2854.76927	3857.075
2857.28724	3826.475
2859.80367	3827.975
2862.31855	3832.575
2864.83189	3831.975
2867.34368	3810.375
2869.85393	3817.975
2872.36264	3815.875
2874.8698	3802.375
2877.37543	3800.375
2879.87952	3799.375
2882.38207	3793.475
2884.88308	3787.975
2887.38256	3791.175
2889.88051	3798.675
2892.37692	3784.075
2894.8718	3787.175
2897.36515	3800.575
2899.85698	3807.275
2902.34727	3810.575
2904.83604	3821.775
2907.32328	3812.375
2909.809	3813.175
2912.29319	3809.975
2914.77587	3814.275
2917.25702	3806.175
2919.73665	3797.875
2922.21476	3813.475
2924.69136	3816.675
2927.16644	3817.375
2929.64	3807.675
2932.11205	3811.275
2934.58258	3803.275
2937.05161	3811.375
2939.51912	3804.175
2941.98513	3800.375
2944.44962	3785.175
2946.91261	3753.875
2949.37409	3760.875
2951.83407	3758.475
2954.29254	3735.975
2956.74951	3732.775
2959.20498	3718.575
2961.65895	3720.075
2964.11142	3721.075
2966.56239	3711.475
2969.01186	3703.075
2971.45984	3687.475
2973.90632	3680.275
2976.35131	3684.175
2978.7948	3649.675
2981.23681	3644.375
2983.67732	3639.175
2986.11635	3629.375
2988.55388	3613.275
2990.98993	3606.875
2993.4245	3592.575
2995.85758	3594.275
2998.28917	3593.375
3000.71928	3573.775
3003.14791	3561.675
3005.57506	3569.675
3008.00073	3569.575
3010.42493	3542.275
3012.84764	3550.375
3015.26888	3552.775
3017.68865	3546.975
3020.10694	3533.075
3022.52376	3507.575
3024.9391	3515.375
3027.35298	3515.675
3029.76539	3515.675
3032.17632	3501.975
3034.5858	3508.375
3036.9938	3500.275
3039.40034	3490.575
3041.80542	3496.375
3044.20903	3479.075
3046.61118	3483.275
3049.01187	3483.675
3051.4111	3486.275
3053.80888	3475.675
3056.20519	3463.475
3058.60005	3466.175
3060.99345	3457.775
3063.3854	3447.475
3065.7759	3433.075
3068.16494	3450.075
3070.55254	3436.975
3072.93868	3426.575
3075.32338	3424.575
3077.70662	3420.075
3080.08842	3417.975
3082.46878	3411.675
3084.84769	3418.675
3087.22515	3426.275
3089.60118	3410.375
3091.97576	3413.675
3094.3489	3431.575
3096.72061	3429.875
3099.09087	3437.475
3101.4597	3429.275
3103.82709	3427.275
3106.19305	3419.075
3108.55757	3432.275
3110.92066	3418.175
3113.28232	3414.975
3115.64255	3410.175
3118.00134	3425.775
3120.35871	3403.875
3122.71466	3406.675
3125.06917	3400.675
3127.42226	3384.975
3129.77393	3414.975
3132.12417	3404.675
3134.47299	3408.975
3136.82039	3404.575
3139.16636	3414.875
3141.51092	3425.175
3143.85406	3437.275
3146.19579	3424.075
3148.53609	3445.375
3150.87499	3449.775
3153.21246	3455.375
3155.54853	3466.275
3157.88318	3460.375
3160.21642	3464.275
3162.54826	3463.575
3164.87868	3468.975
3167.2077	3470.875
3169.5353	3482.475
3171.86151	3480.375
3174.18631	3489.075
3176.5097	3475.775
3178.83169	3483.575
3181.15228	3488.675
3183.47147	3484.775
3185.78926	3499.775
3188.10565	3482.075
3190.42065	3473.375
3192.73424	3474.875
3195.04645	3485.275
3197.35725	3486.475
3199.66667	3485.975
3201.97469	3493.375
3204.28132	3483.775
3206.58656	3496.775
3208.8904	3481.875
3211.19287	3500.875
3213.49394	3517.775
3215.79363	3509.975
3218.09193	3501.875
3220.38884	3502.575
3222.68438	3508.375
