Data from AgNPs_FTO_APTES_UA_1uM_CRN_0uM_R6G_10uM_NaF_0.1M_Addition_RamanShift__46__11-59-19-463.txt Node

Date: Thu Jan 27 11:59:19 GMT 2022
User: TCL
Spectrometer: QEP01345
Trigger mode: 4
Integration Time (sec): 7.000000E0
Scans to average: 10
Electric dark correction enabled: true
Nonlinearity correction enabled: false
Boxcar width: 0
XAxis mode: Raman Shifts
Number of Pixels in Spectrum: 1044
>>>>>Begin Spectral Data<<<<<
46.04893	1.8125
50.45542	0.2125
54.85868	-0.7875
59.25871	-0.8875
63.6555	55.2125
68.04907	54.9125
72.43941	57.1125
76.82654	61.9125
81.21044	63.7125
85.59113	61.8125
89.96862	69.7125
94.34289	66.9125
98.71396	74.3125
103.08183	73.4125
107.4465	74.5125
111.80798	80.1125
116.16626	77.4125
120.52136	82.7125
124.87327	83.3125
129.222	81.5125
133.56755	85.6125
137.90993	93.4125
142.24913	105.4125
146.58517	114.7125
150.91804	131.7125
155.24774	152.5125
159.57429	180.2125
163.89768	231.5125
168.21792	306.4125
172.53501	406.3125
176.84895	556.4125
181.15975	780.0125
185.46741	1090.6125
189.77193	1508.0125
194.07331	2007.1125
198.37157	2590.5125
202.6667	3201.2125
206.9587	3825.6125
211.24758	4407.9125
215.53334	5035.7125
219.81599	5703.3125
224.09553	6451.8125
228.37195	7287.4125
232.64527	8195.3125
236.91549	9123.6125
241.18261	10034.4125
245.44663	10837.0125
249.70755	11526.6125
253.96539	12128.3125
258.22014	12670.1125
262.4718	13134.7125
266.72039	13471.4125
270.96589	13683.5125
275.20832	13702.7125
279.44768	13631.6125
283.68397	13462.7125
287.91719	13368.9125
292.14735	13325.6125
296.37445	13400.6125
300.59849	13617.6125
304.81948	13893.6125
309.03742	14074.9125
313.25231	14036.6125
317.46415	13621.1125
321.67296	12963.0125
325.87872	12425.6125
330.08145	12180.6125
334.28114	12196.9125
338.47781	12368.4125
342.67145	12623.7125
346.86207	12969.3125
351.04966	13446.3125
355.23424	14089.2125
359.4158	14572.9125
363.59435	14882.5125
367.76989	14997.5125
371.94243	15047.3125
376.11196	15052.1125
380.27849	15061.2125
384.44203	15048.8125
388.60257	15023.8125
392.76012	15048.1125
396.91468	15206.9125
401.06626	15522.0125
405.21485	15806.7125
409.36047	15790.4125
413.50311	15341.1125
417.64277	14975.6125
421.77947	14768.0125
425.9132	14773.2125
430.04396	14826.1125
434.17176	14933.0125
438.2966	15149.4125
442.41849	15521.0125
446.53742	16010.4125
450.6534	16528.3125
454.76644	16932.6125
458.87653	17040.7125
462.98368	16887.4125
467.08789	16574.1125
471.18916	16166.0125
475.2875	15820.8125
479.38291	15577.3125
483.4754	15404.6125
487.56496	15261.4125
491.6516	15085.3125
495.73531	14963.2125
499.81612	14898.2125
503.89401	14987.9125
507.96899	15066.9125
512.04106	15169.2125
516.11023	15207.6125
520.1765	15284.6125
524.23987	15230.2125
528.30034	15106.8125
532.35792	14890.3125
536.41261	14632.1125
540.46441	14420.8125
544.51333	14350.9125
548.55936	14466.0125
552.60252	14748.7125
556.64279	15002.8125
560.6802	15167.1125
564.71473	15332.3125
568.7464	15712.9125
572.7752	16099.6125
576.80114	16056.1125
580.82422	15958.4125
584.84444	16005.9125
588.86181	16167.4125
592.87633	16492.7125
596.888	16797.5125
600.89682	17107.9125
604.9028	18027.9125
608.90594	20722.9125
612.90624	24139.8125
616.90371	23378.1125
620.89834	18486.4125
624.89015	16125.2125
628.87913	15794.0125
632.86528	15679.4125
636.84862	15554.6125
640.82913	15270.8125
644.80683	14789.2125
648.78172	14480.8125
652.75379	14470.0125
656.72306	14822.7125
660.68952	15318.4125
664.65319	15340.7125
668.61405	14920.9125
672.57211	14695.9125
676.52738	14666.0125
680.47986	14640.6125
684.42955	14601.2125
688.37646	14581.7125
692.32058	14645.1125
696.26192	14727.0125
700.20048	14849.4125
704.13626	14990.4125
708.06928	14896.7125
711.99952	14762.2125
715.927	14761.0125
719.85171	14774.8125
723.77365	14724.0125
727.69284	14590.3125
731.60928	14466.7125
735.52295	14486.2125
739.43388	14542.5125
743.34206	14663.0125
747.24749	14757.1125
751.15017	14890.6125
755.05012	15107.9125
758.94733	15544.2125
762.8418	16480.5125
766.73354	18131.0125
770.62254	19816.8125
774.50882	20619.6125
778.39237	19905.0125
782.27321	18168.4125
786.15132	16491.4125
790.02671	15473.9125
793.89938	15048.5125
797.76935	14829.7125
801.6366	14764.2125
805.50115	14716.3125
809.36299	14629.3125
813.22213	14549.7125
817.07857	14540.0125
820.93231	14559.6125
824.78336	14576.8125
828.63172	14641.9125
832.47738	14704.2125
836.32036	14750.5125
840.16066	14796.1125
843.99827	14828.8125
847.8332	14769.1125
851.66546	14667.7125
855.49504	14622.7125
859.32195	14624.7125
863.1462	14567.6125
866.96777	14500.3125
870.78668	14458.3125
874.60293	14443.5125
878.41652	14497.0125
882.22745	14586.9125
886.03573	14629.3125
889.84136	14640.8125
893.64433	14546.8125
897.44466	14484.7125
901.24235	14477.3125
905.0374	14459.9125
908.8298	14410.1125
912.61957	14415.3125
916.40671	14521.3125
920.19121	14700.8125
923.97308	14877.9125
927.75233	15076.0125
931.52895	15173.5125
935.30295	15053.5125
939.07433	14759.5125
942.84309	14474.0125
946.60924	14394.5125
950.37278	14318.8125
954.13371	14216.4125
957.89203	14116.7125
961.64774	14044.9125
965.40086	13988.7125
969.15137	13951.6125
972.89929	13884.7125
976.64461	13896.1125
980.38733	13941.0125
984.12747	14000.3125
987.86502	14172.1125
991.59999	14423.3125
995.33237	14733.5125
999.06217	15209.3125
1002.78939	15823.1125
1006.51404	16238.6125
1010.23611	16420.3125
1013.95561	16589.1125
1017.67255	16615.9125
1021.38692	16444.4125
1025.09872	16314.5125
1028.80796	16414.7125
1032.51465	16919.5125
1036.21877	17433.5125
1039.92035	17434.3125
1043.61937	17120.3125
1047.31584	16557.3125
1051.00976	16002.0125
1054.70114	15703.3125
1058.38998	15584.7125
1062.07627	15591.7125
1065.76003	15581.1125
1069.44126	15649.0125
1073.11995	15805.0125
1076.79611	15952.7125
1080.46974	16084.0125
1084.14085	16259.6125
1087.80943	16501.9125
1091.47549	16588.1125
1095.13903	16409.3125
1098.80005	16090.9125
1102.45857	15703.4125
1106.11456	15519.9125
1109.76805	15556.0125
1113.41903	15738.0125
1117.06751	16000.6125
1120.71348	16301.2125
1124.35696	16639.3125
1127.99793	16943.3125
1131.63641	17042.6125
1135.2724	16703.6125
1138.90589	16267.9125
1142.5369	16017.7125
1146.16542	15791.3125
1149.79145	15715.3125
1153.415	15755.9125
1157.03607	15859.3125
1160.65467	16121.9125
1164.27079	16547.1125
1167.88443	17265.9125
1171.49561	18392.3125
1175.10432	20043.0125
1178.71056	22227.3125
1182.31434	24206.3125
1185.91565	25185.8125
1189.51451	25143.8125
1193.11091	24200.6125
1196.70485	22636.3125
1200.29634	21265.0125
1203.88538	20210.2125
1207.47197	19293.5125
1211.05612	18546.1125
1214.63782	18223.1125
1218.21708	18228.3125
1221.79391	18430.6125
1225.36829	18729.1125
1228.94024	18813.9125
1232.50976	18682.0125
1236.07685	18506.4125
1239.6415	18326.3125
1243.20374	18163.2125
1246.76355	18142.8125
1250.32093	18298.4125
1253.8759	18690.5125
1257.42845	19268.3125
1260.97859	19847.0125
1264.52631	20320.7125
1268.07163	20790.8125
1271.61453	21396.5125
1275.15503	21930.0125
1278.69312	22510.7125
1282.22882	23088.8125
1285.76211	23573.2125
1289.29301	24108.9125
1292.82151	24685.7125
1296.34761	25374.5125
1299.87133	26425.0125
1303.39266	27964.6125
1306.9116	30227.3125
1310.42815	32912.6125
1313.94233	34840.1125
1317.45412	34971.1125
1320.96354	33659.7125
1324.47058	31956.7125
1327.97525	30385.2125
1331.47754	29353.8125
1334.97747	28878.0125
1338.47502	28810.0125
1341.97022	28965.5125
1345.46305	29040.5125
1348.95352	29140.0125
1352.44163	29562.9125
1355.92738	30783.0125
1359.41078	33157.4125
1362.89183	35768.8125
1366.37053	35578.6125
1369.84688	32046.4125
1373.32088	27929.0125
1376.79254	25032.1125
1380.26186	23670.9125
1383.72883	23131.3125
1387.19347	22727.9125
1390.65578	22258.9125
1394.11575	21991.6125
1397.57339	22030.0125
1401.0287	22432.6125
1404.48168	22980.2125
1407.93234	23420.2125
1411.38068	23675.6125
1414.82669	23561.5125
1418.27039	22998.6125
1421.71177	22252.6125
1425.15083	21662.7125
1428.58758	21336.4125
1432.02203	21307.5125
1435.45416	21528.5125
1438.88399	21671.5125
1442.31151	21779.4125
1445.73673	21827.6125
1449.15965	21991.0125
1452.58027	21969.1125
1455.9986	21850.3125
1459.41463	21798.0125
1462.82837	21963.4125
1466.23982	22323.4125
1469.64898	22669.9125
1473.05586	22924.8125
1476.46045	23116.9125
1479.86276	23291.8125
1483.26279	23483.2125
1486.66054	23744.0125
1490.05602	24071.2125
1493.44922	24561.3125
1496.84016	25086.7125
1500.22882	25821.0125
1503.61521	26910.5125
1506.99934	28355.4125
1510.38121	29977.5125
1513.76081	30977.4125
1517.13816	30392.8125
1520.51324	28439.8125
1523.88607	26250.2125
1527.25665	24638.5125
1530.62498	23680.2125
1533.99105	23132.0125
1537.35488	22755.1125
1540.71647	22613.7125
1544.07581	22477.2125
1547.4329	22293.9125
1550.78776	22043.8125
1554.14038	21897.9125
1557.49077	21870.7125
1560.83892	21919.8125
1564.18484	22036.2125
1567.52853	22139.5125
1570.86999	22164.3125
1574.20922	22283.4125
1577.54624	22329.0125
1580.88103	22048.1125
1584.2136	21635.4125
1587.54395	21801.6125
1590.87208	22681.3125
1594.19801	24282.5125
1597.52172	26171.2125
1600.84321	27257.7125
1604.16251	26629.6125
1607.47959	24766.5125
1610.79447	22502.0125
1614.10715	20480.6125
1617.41763	18990.9125
1620.7259	18050.0125
1624.03199	17638.6125
1627.33587	17654.9125
1630.63757	18158.1125
1633.93707	19152.4125
1637.23439	20555.2125
1640.52951	22379.8125
1643.82246	24331.9125
1647.11321	25946.3125
1650.40179	26561.1125
1653.68819	25361.1125
1656.97241	22563.2125
1660.25446	19618.6125
1663.53433	17406.6125
1666.81203	16073.0125
1670.08756	15294.0125
1673.36092	14818.7125
1676.63211	14517.8125
1679.90115	14296.2125
1683.16801	14134.5125
1686.43272	14003.1125
1689.69527	13930.0125
1692.95567	13820.5125
1696.2139	13756.3125
1699.46999	13676.5125
1702.72392	13629.2125
1705.97571	13680.4125
1709.22535	13720.2125
1712.47284	13720.4125
1715.71819	13772.2125
1718.96139	13792.8125
1722.20246	13739.8125
1725.44139	13720.2125
1728.67818	13664.6125
1731.91284	13563.1125
1735.14537	13493.2125
1738.37576	13451.7125
1741.60403	13416.4125
1744.83017	13360.4125
1748.05418	13346.4125
1751.27607	13293.4125
1754.49584	13281.7125
1757.71349	13251.7125
1760.92903	13252.0125
1764.14244	13234.6125
1767.35375	13201.9125
1770.56294	13191.3125
1773.77002	13205.8125
1776.97499	13207.4125
1780.17785	13223.7125
1783.37861	13214.3125
1786.57727	13210.8125
1789.77382	13232.0125
1792.96828	13231.1125
1796.16064	13203.5125
1799.3509	13170.2125
1802.53907	13183.9125
1805.72514	13145.7125
1808.90913	13119.0125
1812.09102	13087.2125
1815.27083	13079.1125
1818.44856	13058.4125
1821.6242	13016.8125
1824.79776	13031.8125
1827.96924	12984.3125
1831.13864	13006.2125
1834.30597	13018.7125
1837.47122	12996.7125
1840.6344	12992.3125
1843.7955	13008.7125
1846.95454	13008.5125
1850.11151	13028.3125
1853.26642	13025.2125
1856.41926	13034.2125
1859.57004	13057.9125
1862.71876	13029.4125
1865.86542	13072.9125
1869.01003	13085.1125
1872.15258	13064.4125
1875.29308	13087.3125
1878.43152	13068.1125
1881.56792	13108.9125
1884.70227	13095.9125
1887.83457	13081.2125
1890.96482	13109.8125
1894.09304	13109.7125
1897.21921	13104.7125
1900.34335	13134.2125
1903.46544	13138.5125
1906.58551	13137.5125
1909.70353	13120.4125
1912.81953	13123.7125
1915.93349	13091.3125
1919.04543	13122.8125
1922.15534	13098.9125
1925.26322	13055.1125
1928.36908	13047.7125
1931.47292	12984.8125
1934.57473	12948.1125
1937.67453	12914.9125
1940.77232	12887.4125
1943.86808	12796.0125
1946.96184	12734.5125
1950.05358	12684.2125
1953.14331	12628.2125
1956.23103	12589.2125
1959.31675	12568.7125
1962.40046	12508.3125
1965.48217	12467.2125
1968.56188	12458.7125
1971.63959	12401.1125
1974.7153	12361.6125
1977.78901	12335.4125
1980.86073	12295.5125
1983.93046	12264.3125
1986.99819	12212.6125
1990.06394	12186.2125
1993.1277	12148.6125
1996.18947	12106.9125
1999.24925	12067.5125
2002.30706	12063.0125
2005.36288	12008.7125
2008.41672	11999.7125
2011.46859	11966.5125
2014.51848	11916.2125
2017.56639	11886.7125
2020.61233	11870.1125
2023.6563	11835.8125
2026.6983	11825.8125
2029.73833	11794.0125
2032.7764	11771.2125
2035.8125	11759.1125
2038.84664	11759.4125
2041.87881	11736.3125
2044.90903	11730.7125
2047.93729	11695.7125
2050.96359	11673.9125
2053.98794	11649.5125
2057.01034	11663.5125
2060.03078	11630.7125
2063.04927	11648.9125
2066.06582	11624.3125
2069.08042	11623.7125
2072.09307	11610.4125
2075.10378	11593.6125
2078.11255	11590.6125
2081.11938	11601.0125
2084.12426	11578.7125
2087.12722	11585.0125
2090.12824	11559.9125
2093.12732	11564.4125
2096.12447	11566.9125
2099.11969	11549.3125
2102.11299	11586.9125
2105.10435	11581.0125
2108.09379	11568.9125
2111.08131	11587.5125
2114.0669	11579.3125
2117.05057	11637.3125
2120.03233	11592.9125
2123.01216	11627.5125
2125.99008	11607.8125
2128.96609	11621.7125
2131.94018	11647.5125
2134.91236	11645.6125
2137.88263	11649.2125
2140.851	11638.6125
2143.81746	11669.6125
2146.78201	11663.5125
2149.74466	11688.9125
2152.7054	11695.7125
2155.66425	11674.4125
2158.6212	11677.1125
2161.57625	11653.2125
2164.52941	11683.8125
2167.48067	11673.1125
2170.43004	11643.9125
2173.37752	11667.4125
2176.32311	11662.4125
2179.26681	11667.8125
2182.20863	11666.8125
2185.14856	11670.5125
2188.08661	11669.6125
2191.02278	11700.8125
2193.95707	11689.4125
2196.88948	11671.7125
2199.82001	11675.0125
2202.74867	11667.7125
2205.67545	11698.1125
2208.60037	11678.5125
2211.52341	11655.9125
2214.44458	11651.1125
2217.36388	11619.1125
2220.28132	11619.5125
2223.1969	11616.2125
2226.11061	11577.8125
2229.02246	11580.3125
2231.93245	11568.4125
2234.84058	11542.1125
2237.74686	11507.7125
2240.65128	11486.2125
2243.55385	11481.6125
2246.45456	11465.9125
2249.35343	11430.3125
2252.25044	11446.8125
2255.14561	11398.3125
2258.03893	11420.8125
2260.93041	11400.2125
2263.82004	11375.2125
2266.70783	11369.6125
2269.59378	11319.0125
2272.4779	11304.9125
2275.36017	11271.8125
2278.24061	11248.3125
2281.11922	11232.2125
2283.996	11228.8125
2286.87094	11213.2125
2289.74405	11177.5125
2292.61534	11169.6125
2295.4848	11183.4125
2298.35243	11168.5125
2301.21824	11164.6125
2304.08223	11177.6125
2306.94439	11189.1125
2309.80474	11195.9125
2312.66327	11215.3125
2315.51999	11221.1125
2318.37489	11197.5125
2321.22797	11210.1125
2324.07925	11201.1125
2326.92871	11181.5125
2329.77637	11173.4125
2332.62222	11177.7125
2335.46626	11135.0125
2338.3085	11160.6125
2341.14893	11158.2125
2343.98756	11163.2125
2346.8244	11151.4125
2349.65943	11165.9125
2352.49267	11171.2125
2355.32411	11186.4125
2358.15376	11162.6125
2360.98161	11168.0125
2363.80768	11127.2125
2366.63195	11138.2125
2369.45444	11123.8125
2372.27514	11116.2125
2375.09405	11061.4125
2377.91118	11038.3125
2380.72652	11013.8125
2383.54009	10973.3125
2386.35187	10974.6125
2389.16188	10944.6125
2391.97011	10906.3125
2394.77657	10917.1125
2397.58125	10889.1125
2400.38416	10874.3125
2403.18529	10837.7125
2405.98466	10837.4125
2408.78226	10810.8125
2411.57809	10818.6125
2414.37216	10777.9125
2417.16446	10758.9125
2419.955	10740.1125
2422.74378	10734.7125
2425.5308	10729.8125
2428.31606	10727.6125
2431.09956	10695.6125
2433.88131	10671.6125
2436.6613	10702.7125
2439.43954	10712.8125
2442.21603	10674.9125
2444.99077	10697.4125
2447.76377	10695.6125
2450.53501	10690.1125
2453.30451	10683.1125
2456.07226	10650.9125
2458.83827	10634.7125
2461.60254	10660.4125
2464.36507	10639.4125
2467.12586	10636.5125
2469.88492	10651.6125
2472.64224	10678.6125
2475.39782	10660.0125
2478.15167	10669.6125
2480.90379	10684.0125
2483.65417	10668.4125
2486.40283	10684.7125
2489.14976	10711.0125
2491.89497	10731.3125
2494.63845	10712.8125
2497.3802	10689.5125
2500.12024	10693.2125
2502.85855	10687.6125
2505.59514	10683.1125
2508.33002	10681.5125
2511.06318	10654.4125
2513.79462	10654.2125
2516.52435	10609.0125
2519.25237	10598.4125
2521.97867	10579.0125
2524.70327	10578.5125
2527.42616	10547.3125
2530.14734	10561.5125
2532.86681	10551.1125
2535.58458	10586.2125
2538.30065	10543.9125
2541.01501	10540.0125
2543.72768	10540.9125
2546.43864	10539.7125
2549.14791	10507.9125
2551.85548	10506.7125
2554.56136	10530.3125
2557.26554	10506.7125
2559.96803	10500.8125
2562.66883	10470.9125
2565.36794	10476.4125
2568.06536	10440.4125
2570.7611	10434.8125
2573.45514	10435.0125
2576.14751	10409.2125
2578.83819	10422.0125
2581.52719	10457.7125
2584.21451	10406.3125
2586.90015	10423.1125
2589.58411	10411.2125
2592.2664	10440.1125
2594.94701	10405.7125
2597.62594	10404.0125
2600.30321	10397.1125
2602.9788	10406.8125
2605.65273	10368.8125
2608.32498	10361.3125
2610.99557	10348.2125
2613.66449	10369.9125
2616.33175	10374.2125
2618.99734	10393.1125
2621.66128	10341.7125
2624.32355	10366.7125
2626.98416	10366.2125
2629.64311	10360.5125
2632.30041	10377.7125
2634.95605	10375.1125
2637.61004	10335.2125
2640.26238	10325.5125
2642.91306	10305.2125
2645.56209	10271.7125
2648.20948	10295.1125
2650.85521	10281.7125
2653.4993	10267.7125
2656.14175	10275.0125
2658.78255	10262.9125
2661.42171	10290.8125
2664.05923	10312.1125
2666.6951	10307.3125
2669.32934	10304.0125
2671.96194	10310.4125
2674.59291	10335.1125
2677.22224	10312.3125
2679.84993	10322.8125
2682.476	10311.1125
2685.10043	10303.0125
2687.72324	10272.3125
2690.34441	10287.2125
2692.96396	10272.5125
2695.58188	10274.9125
2698.19818	10285.3125
2700.81285	10295.5125
2703.4259	10253.9125
2706.03733	10254.3125
2708.64714	10243.9125
2711.25533	10265.6125
2713.86191	10260.6125
2716.46687	10297.5125
2719.07021	10291.5125
2721.67194	10306.3125
2724.27206	10288.8125
2726.87057	10327.9125
2729.46747	10295.2125
2732.06276	10318.9125
2734.65644	10314.3125
2737.24852	10311.0125
2739.83899	10285.2125
2742.42786	10333.7125
2745.01513	10280.2125
2747.60079	10249.5125
2750.18486	10262.3125
2752.76733	10243.6125
2755.3482	10243.4125
2757.92747	10262.5125
2760.50515	10241.7125
2763.08123	10266.4125
2765.65573	10242.4125
2768.22863	10236.2125
2770.79994	10237.9125
2773.36967	10239.4125
2775.9378	10249.8125
2778.50435	10238.2125
2781.06932	10226.2125
2783.6327	10219.8125
2786.1945	10226.3125
2788.75471	10201.4125
2791.31335	10187.8125
2793.87041	10200.1125
2796.42589	10178.3125
2798.97979	10149.9125
2801.53212	10148.0125
2804.08288	10128.6125
2806.63206	10113.2125
2809.17967	10085.0125
2811.72571	10054.9125
2814.27018	10050.3125
2816.81308	10032.9125
2819.35442	10032.8125
2821.89419	10025.9125
2824.43239	10025.5125
2826.96904	10035.7125
2829.50412	10067.1125
2832.03763	10048.2125
2834.56959	10046.6125
2837.1	10060.1125
2839.62884	10041.6125
2842.15613	10037.2125
2844.68186	10052.8125
2847.20604	10095.9125
2849.72867	10119.8125
2852.24974	10100.8125
2854.76927	10089.8125
2857.28724	10055.0125
2859.80367	10063.1125
2862.31855	10048.4125
2864.83189	10033.9125
2867.34368	10005.3125
2869.85393	10025.2125
2872.36264	10016.3125
2874.8698	10015.3125
2877.37543	9997.0125
2879.87952	10002.3125
2882.38207	10000.9125
2884.88308	9997.0125
2887.38256	10010.3125
2889.88051	9987.8125
2892.37692	10010.2125
2894.8718	10016.8125
2897.36515	10038.7125
2899.85698	10039.3125
2902.34727	10051.1125
2904.83604	10038.2125
2907.32328	10086.9125
2909.809	10061.1125
2912.29319	10052.2125
2914.77587	10061.4125
2917.25702	10025.4125
2919.73665	10034.6125
2922.21476	10025.4125
2924.69136	10010.6125
2927.16644	10003.5125
2929.64	9995.7125
2932.11205	10005.0125
2934.58258	9957.0125
2937.05161	9967.5125
2939.51912	9965.2125
2941.98513	9940.5125
2944.44962	9932.7125
2946.91261	9859.1125
2949.37409	9876.0125
2951.83407	9871.9125
2954.29254	9843.9125
2956.74951	9848.2125
2959.20498	9842.9125
2961.65895	9829.9125
2964.11142	9833.9125
2966.56239	9794.9125
2969.01186	9782.3125
2971.45984	9735.7125
2973.90632	9737.6125
2976.35131	9717.2125
2978.7948	9697.5125
2981.23681	9656.4125
2983.67732	9652.9125
2986.11635	9634.6125
2988.55388	9598.3125
2990.98993	9579.2125
2993.4245	9546.2125
2995.85758	9527.1125
2998.28917	9510.7125
3000.71928	9506.4125
3003.14791	9458.3125
3005.57506	9463.9125
3008.00073	9460.0125
3010.42493	9448.8125
3012.84764	9422.8125
3015.26888	9429.5125
3017.68865	9394.2125
3020.10694	9401.1125
3022.52376	9380.0125
3024.9391	9359.0125
3027.35298	9360.1125
3029.76539	9355.5125
