Data from AgNPs_FTO_APTES_UA_1uM_CRN_100uM_R6G_10uM_NaF_0.1M_Addition_RamanShift__13__16-35-49-780.txt Node

Date: Thu Jan 27 16:35:49 GMT 2022
User: TCL
Spectrometer: QEP01345
Trigger mode: 4
Integration Time (sec): 7.000000E0
Scans to average: 10
Electric dark correction enabled: true
Nonlinearity correction enabled: false
Boxcar width: 0
XAxis mode: Raman Shifts
Number of Pixels in Spectrum: 1044
>>>>>Begin Spectral Data<<<<<
46.04893	1.4125
50.45542	-0.0875
54.85868	-1.1875
59.25871	-0.7875
63.6555	43.2125
68.04907	46.4125
72.43941	47.5125
76.82654	51.4125
81.21044	51.2125
85.59113	50.4125
89.96862	54.3125
94.34289	58.4125
98.71396	61.9125
103.08183	60.6125
107.4465	65.8125
111.80798	65.0125
116.16626	65.1125
120.52136	71.1125
124.87327	69.0125
129.222	70.0125
133.56755	74.6125
137.90993	76.1125
142.24913	83.7125
146.58517	92.5125
150.91804	108.8125
155.24774	122.4125
159.57429	144.4125
163.89768	181.8125
168.21792	246.0125
172.53501	319.5125
176.84895	447.2125
181.15975	625.9125
185.46741	870.8125
189.77193	1201.2125
194.07331	1613.4125
198.37157	2087.2125
202.6667	2603.0125
206.9587	3105.3125
211.24758	3575.3125
215.53334	4041.9125
219.81599	4550.5125
224.09553	5095.1125
228.37195	5685.9125
232.64527	6335.1125
236.91549	7036.1125
241.18261	7733.9125
245.44663	8447.2125
249.70755	9102.7125
253.96539	9688.7125
258.22014	10177.8125
262.4718	10579.2125
266.72039	10875.9125
270.96589	11006.2125
275.20832	11053.4125
279.44768	11032.9125
283.68397	10940.7125
287.91719	10833.8125
292.14735	10797.2125
296.37445	10756.4125
300.59849	10730.8125
304.81948	10720.5125
309.03742	10678.1125
313.25231	10594.0125
317.46415	10420.7125
321.67296	10231.2125
325.87872	10088.5125
330.08145	10010.4125
334.28114	10041.9125
338.47781	10123.0125
342.67145	10199.1125
346.86207	10301.2125
351.04966	10455.8125
355.23424	10583.3125
359.4158	10688.4125
363.59435	10811.8125
367.76989	10884.3125
371.94243	10975.1125
376.11196	11028.0125
380.27849	11061.3125
384.44203	11086.9125
388.60257	11157.7125
392.76012	11262.5125
396.91468	11391.1125
401.06626	11532.8125
405.21485	11638.1125
409.36047	11654.9125
413.50311	11564.9125
417.64277	11499.2125
421.77947	11491.9125
425.9132	11528.4125
430.04396	11555.3125
434.17176	11626.5125
438.2966	11707.2125
442.41849	11823.6125
446.53742	11971.4125
450.6534	12145.0125
454.76644	12263.8125
458.87653	12354.9125
462.98368	12406.0125
467.08789	12406.6125
471.18916	12354.3125
475.2875	12297.3125
479.38291	12274.0125
483.4754	12232.4125
487.56496	12159.1125
491.6516	12043.8125
495.73531	11970.4125
499.81612	11915.2125
503.89401	11986.3125
507.96899	11994.0125
512.04106	11996.5125
516.11023	11998.0125
520.1765	11968.5125
524.23987	11861.1125
528.30034	11805.8125
532.35792	11720.9125
536.41261	11685.5125
540.46441	11610.4125
544.51333	11609.9125
548.55936	11691.9125
552.60252	11860.7125
556.64279	12037.2125
560.6802	12135.0125
564.71473	12192.8125
568.7464	12327.1125
572.7752	12497.5125
576.80114	12771.2125
580.82422	13005.1125
584.84444	13186.2125
588.86181	13302.4125
592.87633	13342.6125
596.888	13300.7125
600.89682	13169.3125
604.9028	13187.6125
608.90594	13618.7125
612.90624	14100.1125
616.90371	13625.9125
620.89834	12428.1125
624.89015	11883.3125
628.87913	11843.4125
632.86528	11919.4125
636.84862	11997.1125
640.82913	11896.5125
644.80683	11771.5125
648.78172	11646.6125
652.75379	11639.2125
656.72306	11682.7125
660.68952	11772.8125
664.65319	11791.1125
668.61405	11703.4125
672.57211	11711.4125
676.52738	11727.2125
680.47986	11682.9125
684.42955	11716.8125
688.37646	11665.5125
692.32058	11690.6125
696.26192	11748.2125
700.20048	11802.8125
704.13626	11891.3125
708.06928	11892.1125
711.99952	11910.6125
715.927	11902.5125
719.85171	11853.8125
723.77365	11818.2125
727.69284	11747.4125
731.60928	11669.7125
735.52295	11614.8125
739.43388	11582.2125
743.34206	11615.6125
747.24749	11611.3125
751.15017	11684.1125
755.05012	11800.5125
758.94733	11970.7125
762.8418	12314.7125
766.73354	12791.4125
770.62254	13247.9125
774.50882	13368.2125
778.39237	13052.6125
782.27321	12543.5125
786.15132	12117.7125
790.02671	11798.3125
793.89938	11659.5125
797.76935	11579.6125
801.6366	11475.5125
805.50115	11497.3125
809.36299	11458.6125
813.22213	11412.0125
817.07857	11445.3125
820.93231	11421.6125
824.78336	11422.1125
828.63172	11397.2125
832.47738	11366.0125
836.32036	11342.2125
840.16066	11350.5125
843.99827	11344.3125
847.8332	11356.5125
851.66546	11314.9125
855.49504	11342.6125
859.32195	11350.4125
863.1462	11380.9125
866.96777	11322.8125
870.78668	11350.5125
874.60293	11337.3125
878.41652	11337.5125
882.22745	11343.2125
886.03573	11377.8125
889.84136	11392.8125
893.64433	11339.1125
897.44466	11345.7125
901.24235	11315.7125
905.0374	11303.8125
908.8298	11274.4125
912.61957	11324.0125
916.40671	11355.1125
920.19121	11463.2125
923.97308	11494.7125
927.75233	11456.2125
931.52895	11417.2125
935.30295	11307.5125
939.07433	11198.3125
942.84309	11090.4125
946.60924	11020.5125
950.37278	11004.4125
954.13371	10940.4125
957.89203	10967.7125
961.64774	10953.9125
965.40086	10932.0125
969.15137	10915.7125
972.89929	10851.8125
976.64461	10839.1125
980.38733	10795.1125
984.12747	10823.9125
987.86502	10813.0125
991.59999	10830.1125
995.33237	10850.6125
999.06217	10920.2125
1002.78939	11005.9125
1006.51404	11083.6125
1010.23611	11157.1125
1013.95561	11226.2125
1017.67255	11267.4125
1021.38692	11236.5125
1025.09872	11155.4125
1028.80796	11077.8125
1032.51465	11038.5125
1036.21877	11052.1125
1039.92035	11068.5125
1043.61937	11087.2125
1047.31584	11160.1125
1051.00976	11194.5125
1054.70114	11248.6125
1058.38998	11304.8125
1062.07627	11409.0125
1065.76003	11492.2125
1069.44126	11630.5125
1073.11995	11733.3125
1076.79611	11826.4125
1080.46974	11829.5125
1084.14085	11839.4125
1087.80943	11825.5125
1091.47549	11879.6125
1095.13903	11927.2125
1098.80005	11909.3125
1102.45857	11767.3125
1106.11456	11602.2125
1109.76805	11476.1125
1113.41903	11416.5125
1117.06751	11419.9125
1120.71348	11500.8125
1124.35696	11573.6125
1127.99793	11659.2125
1131.63641	11734.2125
1135.2724	11679.8125
1138.90589	11623.2125
1142.5369	11592.0125
1146.16542	11631.8125
1149.79145	11687.9125
1153.415	11736.9125
1157.03607	11800.4125
1160.65467	11923.2125
1164.27079	12179.4125
1167.88443	12466.9125
1171.49561	12851.0125
1175.10432	13272.5125
1178.71056	13826.0125
1182.31434	14307.5125
1185.91565	14622.7125
1189.51451	14787.8125
1193.11091	14698.4125
1196.70485	14498.5125
1200.29634	14174.4125
1203.88538	13920.1125
1207.47197	13694.8125
1211.05612	13497.3125
1214.63782	13363.0125
1218.21708	13118.7125
1221.79391	12842.5125
1225.36829	12607.6125
1228.94024	12461.6125
1232.50976	12389.1125
1236.07685	12366.9125
1239.6415	12367.8125
1243.20374	12386.3125
1246.76355	12431.9125
1250.32093	12515.1125
1253.8759	12644.1125
1257.42845	12841.0125
1260.97859	13036.1125
1264.52631	13223.5125
1268.07163	13388.9125
1271.61453	13588.8125
1275.15503	13761.8125
1278.69312	13958.8125
1282.22882	14182.6125
1285.76211	14429.9125
1289.29301	14694.4125
1292.82151	15033.6125
1296.34761	15434.4125
1299.87133	15953.1125
1303.39266	16384.7125
1306.9116	16766.6125
1310.42815	17086.9125
1313.94233	17279.1125
1317.45412	17228.4125
1320.96354	17186.2125
1324.47058	17134.5125
1327.97525	17114.7125
1331.47754	17139.3125
1334.97747	17203.4125
1338.47502	17304.9125
1341.97022	17465.6125
1345.46305	17628.4125
1348.95352	17693.8125
1352.44163	17617.2125
1355.92738	17515.9125
1359.41078	17531.5125
1362.89183	17579.2125
1366.37053	17291.7125
1369.84688	16468.7125
1373.32088	15461.1125
1376.79254	14698.6125
1380.26186	14307.4125
1383.72883	14189.9125
1387.19347	14163.0125
1390.65578	14029.5125
1394.11575	13963.5125
1397.57339	13903.4125
1401.0287	13931.0125
1404.48168	13963.2125
1407.93234	13880.2125
1411.38068	13710.0125
1414.82669	13413.1125
1418.27039	13073.3125
1421.71177	12746.1125
1425.15083	12473.1125
1428.58758	12319.0125
1432.02203	12326.8125
1435.45416	12398.5125
1438.88399	12553.2125
1442.31151	12668.8125
1445.73673	12790.9125
1449.15965	12884.8125
1452.58027	13056.2125
1455.9986	13149.0125
1459.41463	13193.8125
1462.82837	13323.2125
1466.23982	13491.7125
1469.64898	13628.8125
1473.05586	13762.2125
1476.46045	13766.4125
1479.86276	13794.2125
1483.26279	13762.1125
1486.66054	13776.1125
1490.05602	13820.0125
1493.44922	14011.4125
1496.84016	14262.5125
1500.22882	14558.0125
1503.61521	15042.8125
1506.99934	15496.5125
1510.38121	15838.4125
1513.76081	15883.7125
1517.13816	15727.2125
1520.51324	15391.0125
1523.88607	15135.5125
1527.25665	14943.5125
1530.62498	14823.9125
1533.99105	14681.0125
1537.35488	14517.6125
1540.71647	14254.3125
1544.07581	13993.8125
1547.4329	13743.0125
1550.78776	13482.1125
1554.14038	13358.7125
1557.49077	13314.5125
1560.83892	13260.9125
1564.18484	13296.7125
1567.52853	13359.8125
1570.86999	13432.0125
1574.20922	13595.6125
1577.54624	13698.8125
1580.88103	13680.1125
1584.2136	13602.3125
1587.54395	13633.3125
1590.87208	13799.6125
1594.19801	14108.1125
1597.52172	14453.9125
1600.84321	14530.8125
1604.16251	14225.0125
1607.47959	13706.6125
1610.79447	13174.6125
1614.10715	12599.0125
1617.41763	12093.3125
1620.7259	11665.3125
1624.03199	11387.3125
1627.33587	11276.3125
1630.63757	11352.8125
1633.93707	11627.3125
1637.23439	12126.2125
1640.52951	12893.9125
1643.82246	13880.1125
1647.11321	14820.4125
1650.40179	15260.9125
1653.68819	14971.5125
1656.97241	14013.6125
1660.25446	12780.9125
1663.53433	11768.3125
1666.81203	11018.0125
1670.08756	10518.2125
1673.36092	10225.9125
1676.63211	9971.7125
1679.90115	9859.6125
1683.16801	9711.6125
1686.43272	9643.9125
1689.69527	9569.6125
1692.95567	9491.1125
1696.2139	9433.6125
1699.46999	9364.1125
1702.72392	9300.3125
1705.97571	9338.3125
1709.22535	9358.8125
1712.47284	9368.6125
1715.71819	9364.2125
1718.96139	9372.1125
1722.20246	9349.3125
1725.44139	9306.0125
1728.67818	9262.1125
1731.91284	9214.5125
1735.14537	9198.3125
1738.37576	9132.3125
1741.60403	9124.4125
1744.83017	9100.9125
1748.05418	9072.5125
1751.27607	9028.8125
1754.49584	9029.2125
1757.71349	8985.7125
1760.92903	8982.7125
1764.14244	8940.5125
1767.35375	8983.9125
1770.56294	8946.0125
1773.77002	8947.0125
1776.97499	8947.1125
1780.17785	8934.7125
1783.37861	8938.5125
1786.57727	8916.2125
1789.77382	8925.5125
1792.96828	8887.6125
1796.16064	8887.8125
1799.3509	8856.0125
1802.53907	8835.5125
1805.72514	8823.4125
1808.90913	8798.3125
1812.09102	8789.3125
1815.27083	8750.6125
1818.44856	8723.0125
1821.6242	8747.4125
1824.79776	8708.1125
1827.96924	8727.1125
1831.13864	8702.7125
1834.30597	8718.4125
1837.47122	8687.4125
1840.6344	8679.6125
1843.7955	8657.9125
1846.95454	8639.6125
1850.11151	8629.5125
1853.26642	8625.1125
1856.41926	8632.8125
1859.57004	8628.0125
1862.71876	8603.1125
1865.86542	8598.1125
1869.01003	8594.6125
1872.15258	8585.0125
1875.29308	8571.5125
1878.43152	8545.1125
1881.56792	8553.9125
1884.70227	8501.5125
1887.83457	8502.9125
1890.96482	8482.3125
1894.09304	8484.8125
1897.21921	8436.8125
1900.34335	8430.7125
1903.46544	8445.0125
1906.58551	8429.6125
1909.70353	8392.4125
1912.81953	8403.9125
1915.93349	8372.5125
1919.04543	8362.3125
1922.15534	8344.4125
1925.26322	8342.3125
1928.36908	8327.7125
1931.47292	8327.7125
1934.57473	8278.8125
1937.67453	8280.4125
1940.77232	8228.5125
1943.86808	8218.7125
1946.96184	8195.7125
1950.05358	8154.2125
1953.14331	8121.2125
1956.23103	8098.5125
1959.31675	8099.6125
1962.40046	8059.6125
1965.48217	8041.5125
1968.56188	8005.3125
1971.63959	8010.3125
1974.7153	7967.1125
1977.78901	7946.7125
1980.86073	7917.4125
1983.93046	7900.7125
1986.99819	7874.4125
1990.06394	7841.0125
1993.1277	7831.8125
1996.18947	7791.3125
1999.24925	7783.6125
2002.30706	7750.3125
2005.36288	7722.6125
2008.41672	7699.3125
2011.46859	7693.3125
2014.51848	7657.6125
2017.56639	7641.7125
2020.61233	7614.2125
2023.6563	7596.8125
2026.6983	7566.1125
2029.73833	7563.8125
2032.7764	7534.8125
2035.8125	7523.0125
2038.84664	7475.6125
2041.87881	7474.3125
2044.90903	7452.9125
2047.93729	7445.3125
2050.96359	7425.9125
2053.98794	7399.4125
2057.01034	7414.5125
2060.03078	7405.9125
2063.04927	7379.4125
2066.06582	7398.4125
2069.08042	7397.6125
2072.09307	7367.4125
2075.10378	7377.2125
2078.11255	7357.2125
2081.11938	7361.5125
2084.12426	7367.4125
2087.12722	7377.4125
2090.12824	7344.7125
2093.12732	7350.3125
2096.12447	7338.1125
2099.11969	7337.1125
2102.11299	7331.1125
2105.10435	7335.9125
2108.09379	7321.6125
2111.08131	7335.6125
2114.0669	7335.0125
2117.05057	7350.8125
2120.03233	7342.0125
2123.01216	7346.8125
2125.99008	7360.4125
2128.96609	7381.3125
2131.94018	7367.8125
2134.91236	7369.5125
2137.88263	7362.2125
2140.851	7366.9125
2143.81746	7385.2125
2146.78201	7379.6125
2149.74466	7363.6125
2152.7054	7385.2125
2155.66425	7360.6125
2158.6212	7345.3125
2161.57625	7329.5125
2164.52941	7362.7125
2167.48067	7343.5125
2170.43004	7344.1125
2173.37752	7344.2125
2176.32311	7339.7125
2179.26681	7338.4125
2182.20863	7317.2125
2185.14856	7319.5125
2188.08661	7331.3125
2191.02278	7324.3125
2193.95707	7339.0125
2196.88948	7297.9125
2199.82001	7288.9125
2202.74867	7275.4125
2205.67545	7274.5125
2208.60037	7269.7125
2211.52341	7238.3125
2214.44458	7220.0125
2217.36388	7217.5125
2220.28132	7215.6125
2223.1969	7184.4125
2226.11061	7159.1125
2229.02246	7140.7125
2231.93245	7161.9125
2234.84058	7110.6125
2237.74686	7125.8125
2240.65128	7095.4125
2243.55385	7093.2125
2246.45456	7098.7125
2249.35343	7073.2125
2252.25044	7063.2125
2255.14561	7038.7125
2258.03893	7042.5125
2260.93041	7000.6125
2263.82004	6984.4125
2266.70783	6981.2125
2269.59378	6972.0125
2272.4779	6930.8125
2275.36017	6942.5125
2278.24061	6915.2125
2281.11922	6877.4125
2283.996	6910.1125
2286.87094	6857.1125
2289.74405	6869.7125
2292.61534	6844.0125
2295.4848	6839.1125
2298.35243	6836.0125
2301.21824	6816.2125
2304.08223	6820.1125
2306.94439	6810.7125
2309.80474	6800.1125
2312.66327	6804.3125
2315.51999	6784.7125
2318.37489	6770.9125
2321.22797	6756.1125
2324.07925	6745.0125
2326.92871	6733.2125
2329.77637	6738.6125
2332.62222	6709.0125
2335.46626	6684.7125
2338.3085	6695.9125
2341.14893	6674.8125
2343.98756	6681.2125
2346.8244	6647.6125
2349.65943	6648.1125
2352.49267	6644.6125
2355.32411	6655.5125
2358.15376	6639.8125
2360.98161	6640.5125
2363.80768	6646.2125
2366.63195	6615.9125
2369.45444	6624.5125
2372.27514	6609.6125
2375.09405	6612.9125
2377.91118	6600.5125
2380.72652	6564.0125
2383.54009	6552.6125
2386.35187	6554.6125
2389.16188	6547.3125
2391.97011	6516.5125
2394.77657	6496.7125
2397.58125	6499.6125
2400.38416	6480.8125
2403.18529	6461.4125
2405.98466	6451.7125
2408.78226	6433.9125
2411.57809	6432.3125
2414.37216	6412.2125
2417.16446	6415.3125
2419.955	6415.3125
2422.74378	6397.9125
2425.5308	6388.1125
2428.31606	6400.7125
2431.09956	6381.4125
2433.88131	6369.9125
2436.6613	6382.4125
2439.43954	6356.9125
2442.21603	6347.0125
2444.99077	6348.4125
2447.76377	6339.8125
2450.53501	6351.2125
2453.30451	6342.2125
2456.07226	6318.0125
2458.83827	6313.9125
2461.60254	6286.2125
2464.36507	6294.7125
2467.12586	6268.3125
2469.88492	6267.9125
2472.64224	6272.5125
2475.39782	6271.6125
2478.15167	6240.6125
2480.90379	6250.8125
2483.65417	6239.6125
2486.40283	6241.5125
2489.14976	6238.3125
2491.89497	6224.7125
2494.63845	6219.9125
2497.3802	6201.2125
2500.12024	6207.7125
2502.85855	6204.7125
2505.59514	6204.2125
2508.33002	6193.6125
2511.06318	6181.2125
2513.79462	6164.9125
2516.52435	6188.7125
2519.25237	6168.7125
2521.97867	6149.1125
2524.70327	6140.4125
2527.42616	6147.2125
2530.14734	6140.3125
2532.86681	6113.7125
2535.58458	6106.5125
2538.30065	6083.4125
2541.01501	6093.2125
2543.72768	6065.0125
2546.43864	6053.0125
2549.14791	6044.1125
2551.85548	6035.1125
2554.56136	6036.5125
2557.26554	6010.5125
2559.96803	6012.8125
2562.66883	5992.1125
2565.36794	5992.7125
2568.06536	5974.4125
2570.7611	5962.8125
2573.45514	5954.4125
2576.14751	5943.2125
2578.83819	5930.9125
2581.52719	5942.5125
2584.21451	5909.0125
2586.90015	5901.3125
2589.58411	5869.1125
2592.2664	5869.6125
2594.94701	5869.6125
2597.62594	5848.8125
2600.30321	5841.3125
2602.9788	5833.1125
2605.65273	5813.3125
2608.32498	5832.0125
2610.99557	5810.9125
2613.66449	5807.2125
2616.33175	5803.9125
2618.99734	5773.5125
2621.66128	5782.2125
2624.32355	5763.1125
2626.98416	5766.1125
2629.64311	5755.5125
2632.30041	5759.7125
2634.95605	5739.8125
2637.61004	5742.1125
2640.26238	5741.0125
2642.91306	5721.2125
2645.56209	5706.4125
2648.20948	5701.8125
2650.85521	5708.7125
2653.4993	5704.3125
2656.14175	5689.1125
2658.78255	5710.8125
2661.42171	5690.2125
2664.05923	5705.2125
2666.6951	5709.8125
2669.32934	5700.8125
2671.96194	5681.4125
2674.59291	5687.0125
2677.22224	5667.9125
2679.84993	5683.4125
2682.476	5683.2125
2685.10043	5667.0125
2687.72324	5677.8125
2690.34441	5670.8125
2692.96396	5652.1125
2695.58188	5673.6125
2698.19818	5664.7125
2700.81285	5661.4125
2703.4259	5654.5125
2706.03733	5632.4125
2708.64714	5621.2125
2711.25533	5645.8125
2713.86191	5644.0125
2716.46687	5640.8125
2719.07021	5658.1125
2721.67194	5654.2125
2724.27206	5645.8125
2726.87057	5662.8125
2729.46747	5661.1125
2732.06276	5651.2125
2734.65644	5643.1125
2737.24852	5637.8125
2739.83899	5617.6125
2742.42786	5620.2125
2745.01513	5612.6125
2747.60079	5613.4125
2750.18486	5590.7125
2752.76733	5592.1125
2755.3482	5591.7125
2757.92747	5603.5125
2760.50515	5568.4125
2763.08123	5558.7125
2765.65573	5572.2125
2768.22863	5568.4125
2770.79994	5541.5125
2773.36967	5533.0125
2775.9378	5531.6125
2778.50435	5533.6125
2781.06932	5508.3125
2783.6327	5509.5125
2786.1945	5511.9125
2788.75471	5497.4125
2791.31335	5474.8125
2793.87041	5479.2125
2796.42589	5443.5125
2798.97979	5446.4125
2801.53212	5443.4125
2804.08288	5429.5125
2806.63206	5409.4125
2809.17967	5402.0125
2811.72571	5383.9125
2814.27018	5361.5125
2816.81308	5371.7125
2819.35442	5370.7125
2821.89419	5356.2125
2824.43239	5341.7125
2826.96904	5347.3125
2829.50412	5329.7125
2832.03763	5322.3125
2834.56959	5326.5125
2837.1	5300.8125
2839.62884	5326.3125
2842.15613	5306.6125
2844.68186	5322.1125
2847.20604	5327.0125
2849.72867	5320.7125
2852.24974	5330.3125
2854.76927	5320.9125
2857.28724	5291.0125
2859.80367	5278.9125
2862.31855	5276.7125
2864.83189	5285.0125
2867.34368	5269.6125
2869.85393	5263.2125
2872.36264	5260.5125
2874.8698	5244.6125
2877.37543	5250.8125
2879.87952	5234.8125
2882.38207	5239.4125
2884.88308	5242.4125
2887.38256	5227.4125
2889.88051	5211.0125
2892.37692	5223.9125
2894.8718	5223.5125
2897.36515	5222.5125
2899.85698	5212.2125
2902.34727	5223.6125
2904.83604	5231.7125
2907.32328	5227.5125
2909.809	5226.6125
2912.29319	5237.2125
2914.77587	5225.3125
2917.25702	5207.1125
2919.73665	5204.5125
2922.21476	5217.3125
2924.69136	5202.7125
2927.16644	5211.8125
2929.64	5216.7125
2932.11205	5210.2125
2934.58258	5201.6125
2937.05161	5198.1125
2939.51912	5200.6125
2941.98513	5170.5125
2944.44962	5155.0125
2946.91261	5143.0125
2949.37409	5146.8125
2951.83407	5154.6125
2954.29254	5139.4125
2956.74951	5131.3125
2959.20498	5125.7125
2961.65895	5135.2125
2964.11142	5131.0125
2966.56239	5109.7125
2969.01186	5102.8125
2971.45984	5103.4125
2973.90632	5092.5125
2976.35131	5078.9125
2978.7948	5065.6125
2981.23681	5070.9125
2983.67732	5087.4125
2986.11635	5042.5125
2988.55388	5043.8125
2990.98993	5046.0125
2993.4245	5016.7125
2995.85758	5021.7125
2998.28917	5002.1125
3000.71928	4980.8125
3003.14791	4978.4125
3005.57506	4971.3125
3008.00073	4944.6125
3010.42493	4955.3125
3012.84764	4961.1125
3015.26888	4960.9125
3017.68865	4939.7125
3020.10694	4925.2125
3022.52376	4931.2125
3024.9391	4897.7125
3027.35298	4901.7125
3029.76539	4894.4125
3032.17632	4884.1125
3034.5858	4891.4125
3036.9938	4883.7125
3039.40034	4885.7125
3041.80542	4903.6125
3044.20903	4870.4125
3046.61118	4869.6125
3049.01187	4855.3125
3051.4111	4867.2125
3053.80888	4848.4125
3056.20519	4848.2125
3058.60005	4831.5125
3060.99345	4814.8125
3063.3854	4800.7125
3065.7759	4773.0125
3068.16494	4772.6125
3070.55254	4762.1125
3072.93868	4760.4125
3075.32338	4751.5125
3077.70662	4744.6125
3080.08842	4726.4125
3082.46878	4721.9125
