Data from AgNPs_FTO_APTES_UA_1uM_CRN_1000uM_R6G_10uM_NaF_0.1M_Addition_RamanShift__29__19-07-29-953.txt Node

Date: Thu Jan 27 19:07:29 GMT 2022
User: TCL
Spectrometer: QEP01345
Trigger mode: 4
Integration Time (sec): 7.000000E0
Scans to average: 10
Electric dark correction enabled: true
Nonlinearity correction enabled: false
Boxcar width: 0
XAxis mode: Raman Shifts
Number of Pixels in Spectrum: 1044
>>>>>Begin Spectral Data<<<<<
46.04893	1.125
50.45542	0.525
54.85868	-0.975
59.25871	-0.875
63.6555	35.225
68.04907	36.925
72.43941	39.425
76.82654	42.025
81.21044	41.025
85.59113	41.125
89.96862	45.325
94.34289	47.125
98.71396	52.125
103.08183	50.125
107.4465	55.225
111.80798	54.825
116.16626	52.025
120.52136	57.325
124.87327	55.225
129.222	52.825
133.56755	56.425
137.90993	58.125
142.24913	59.325
146.58517	63.525
150.91804	73.725
155.24774	78.225
159.57429	95.325
163.89768	116.125
168.21792	143.425
172.53501	194.025
176.84895	257.025
181.15975	347.925
185.46741	481.525
189.77193	661.325
194.07331	881.025
198.37157	1136.325
202.6667	1402.725
206.9587	1680.725
211.24758	1938.725
215.53334	2221.625
219.81599	2492.025
224.09553	2850.925
228.37195	3221.825
232.64527	3626.625
236.91549	4029.825
241.18261	4421.825
245.44663	4710.625
249.70755	4976.725
253.96539	5175.525
258.22014	5330.125
262.4718	5443.025
266.72039	5528.025
270.96589	5575.425
275.20832	5552.325
279.44768	5465.125
283.68397	5367.725
287.91719	5294.925
292.14735	5276.825
296.37445	5376.025
300.59849	5558.325
304.81948	5823.325
309.03742	6043.625
313.25231	6042.925
317.46415	5753.525
321.67296	5318.925
325.87872	4934.425
330.08145	4745.525
334.28114	4744.325
338.47781	4836.325
342.67145	4993.825
346.86207	5227.125
351.04966	5573.325
355.23424	5952.225
359.4158	6212.825
363.59435	6369.925
367.76989	6369.225
371.94243	6340.725
376.11196	6293.325
380.27849	6245.925
384.44203	6161.925
388.60257	6050.625
392.76012	5984.225
396.91468	6035.125
401.06626	6223.125
405.21485	6355.925
409.36047	6265.325
413.50311	5913.325
417.64277	5596.925
421.77947	5395.825
425.9132	5277.525
430.04396	5245.825
434.17176	5279.525
438.2966	5338.725
442.41849	5477.525
446.53742	5650.025
450.6534	5790.625
454.76644	5888.925
458.87653	5918.625
462.98368	5875.025
467.08789	5791.925
471.18916	5682.225
475.2875	5541.125
479.38291	5426.925
483.4754	5338.225
487.56496	5279.125
491.6516	5212.625
495.73531	5209.125
499.81612	5218.925
503.89401	5270.425
507.96899	5388.325
512.04106	5458.825
516.11023	5600.325
520.1765	5703.525
524.23987	5697.525
528.30034	5557.925
532.35792	5398.825
536.41261	5249.225
540.46441	5108.425
544.51333	5031.325
548.55936	5042.825
552.60252	5140.625
556.64279	5261.925
560.6802	5346.925
564.71473	5451.525
568.7464	5711.125
572.7752	5867.525
576.80114	5679.425
580.82422	5431.525
584.84444	5343.725
588.86181	5294.125
592.87633	5287.025
596.888	5347.825
600.89682	5554.325
604.9028	6193.625
608.90594	7919.125
612.90624	10313.725
616.90371	10253.325
620.89834	7238.225
624.89015	5663.725
628.87913	5318.925
632.86528	5297.825
636.84862	5372.825
640.82913	5329.325
644.80683	5123.625
648.78172	4990.025
652.75379	5040.425
656.72306	5268.125
660.68952	5570.425
664.65319	5547.025
668.61405	5245.025
672.57211	5112.225
676.52738	5151.225
680.47986	5199.225
684.42955	5173.925
688.37646	5157.225
692.32058	5141.325
696.26192	5204.625
700.20048	5271.725
704.13626	5336.225
708.06928	5285.125
711.99952	5164.825
715.927	5105.225
719.85171	5097.125
723.77365	5084.525
727.69284	5051.825
731.60928	5008.825
735.52295	4970.925
739.43388	5006.225
743.34206	5019.525
747.24749	5024.825
751.15017	5083.225
755.05012	5175.425
758.94733	5420.825
762.8418	5953.125
766.73354	6873.525
770.62254	7926.425
774.50882	8545.125
778.39237	8349.525
782.27321	7274.325
786.15132	6121.125
790.02671	5472.125
793.89938	5184.425
797.76935	5071.825
801.6366	5025.925
805.50115	4982.025
809.36299	4987.325
813.22213	4973.425
817.07857	4971.325
820.93231	4960.525
824.78336	4971.925
828.63172	4984.425
832.47738	5003.825
836.32036	4998.225
840.16066	4973.025
843.99827	4977.325
847.8332	4960.225
851.66546	4961.925
855.49504	4966.425
859.32195	4962.925
863.1462	4960.925
866.96777	4942.825
870.78668	4901.825
874.60293	4882.625
878.41652	4866.025
882.22745	4884.225
886.03573	4918.425
889.84136	4920.525
893.64433	4902.025
897.44466	4871.725
901.24235	4863.525
905.0374	4860.925
908.8298	4828.125
912.61957	4802.225
916.40671	4843.225
920.19121	4901.925
923.97308	4966.825
927.75233	5021.825
931.52895	5097.525
935.30295	5044.825
939.07433	4889.525
942.84309	4735.125
946.60924	4606.025
950.37278	4539.625
954.13371	4510.125
957.89203	4467.625
961.64774	4449.925
965.40086	4412.325
969.15137	4398.425
972.89929	4383.025
976.64461	4377.125
980.38733	4372.425
984.12747	4374.025
987.86502	4390.825
991.59999	4391.025
995.33237	4432.025
999.06217	4494.525
1002.78939	4557.825
1006.51404	4629.825
1010.23611	4714.325
1013.95561	4787.425
1017.67255	4771.925
1021.38692	4731.025
1025.09872	4676.525
1028.80796	4628.025
1032.51465	4654.825
1036.21877	4718.425
1039.92035	4821.025
1043.61937	4887.325
1047.31584	4871.625
1051.00976	4857.425
1054.70114	4838.525
1058.38998	4809.225
1062.07627	4799.525
1065.76003	4837.025
1069.44126	4871.625
1073.11995	4927.925
1076.79611	5017.725
1080.46974	5127.925
1084.14085	5223.525
1087.80943	5331.725
1091.47549	5338.825
1095.13903	5226.425
1098.80005	5027.025
1102.45857	4864.125
1106.11456	4793.625
1109.76805	4817.125
1113.41903	4935.425
1117.06751	5132.225
1120.71348	5351.425
1124.35696	5675.325
1127.99793	5923.125
1131.63641	5893.325
1135.2724	5531.525
1138.90589	5212.525
1142.5369	5036.825
1146.16542	4902.925
1149.79145	4836.825
1153.415	4830.425
1157.03607	4860.325
1160.65467	4966.125
1164.27079	5099.925
1167.88443	5361.925
1171.49561	5799.825
1175.10432	6517.425
1178.71056	7449.225
1182.31434	8027.025
1185.91565	7989.525
1189.51451	7708.525
1193.11091	7226.925
1196.70485	6713.425
1200.29634	6345.725
1203.88538	6064.125
1207.47197	5690.025
1211.05612	5377.625
1214.63782	5218.025
1218.21708	5158.825
1221.79391	5152.725
1225.36829	5203.425
1228.94024	5267.025
1232.50976	5301.225
1236.07685	5353.125
1239.6415	5347.225
1243.20374	5368.825
1246.76355	5399.525
1250.32093	5429.725
1253.8759	5519.725
1257.42845	5628.825
1260.97859	5792.925
1264.52631	5976.125
1268.07163	6134.225
1271.61453	6283.525
1275.15503	6356.925
1278.69312	6338.425
1282.22882	6330.625
1285.76211	6436.725
1289.29301	6642.225
1292.82151	6849.625
1296.34761	7046.325
1299.87133	7357.725
1303.39266	7895.125
1306.9116	8750.125
1310.42815	9742.325
1313.94233	10319.925
1317.45412	10023.525
1320.96354	9263.125
1324.47058	8413.425
1327.97525	7770.825
1331.47754	7382.925
1334.97747	7282.925
1338.47502	7352.925
1341.97022	7542.825
1345.46305	7908.425
1348.95352	8461.425
1352.44163	9241.725
1355.92738	10362.925
1359.41078	11888.725
1362.89183	13220.725
1366.37053	12787.525
1369.84688	10848.125
1373.32088	8970.225
1376.79254	7715.125
1380.26186	7009.225
1383.72883	6618.925
1387.19347	6330.025
1390.65578	6016.525
1394.11575	5748.625
1397.57339	5616.425
1401.0287	5597.825
1404.48168	5641.625
1407.93234	5691.725
1411.38068	5760.425
1414.82669	5797.225
1418.27039	5800.925
1421.71177	5747.625
1425.15083	5694.625
1428.58758	5671.525
1432.02203	5703.225
1435.45416	5739.725
1438.88399	5760.125
1442.31151	5712.625
1445.73673	5700.425
1449.15965	5680.625
1452.58027	5629.525
1455.9986	5572.525
1459.41463	5546.525
1462.82837	5565.825
1466.23982	5657.725
1469.64898	5741.025
1473.05586	5807.925
1476.46045	5864.025
1479.86276	5967.325
1483.26279	6084.125
1486.66054	6286.425
1490.05602	6486.125
1493.44922	6853.025
1496.84016	7380.925
1500.22882	8209.825
1503.61521	9273.925
1506.99934	10414.525
1510.38121	11458.825
1513.76081	11959.225
1517.13816	11308.225
1520.51324	9843.825
1523.88607	8329.825
1527.25665	7327.825
1530.62498	6799.225
1533.99105	6499.625
1537.35488	6314.225
1540.71647	6204.325
1544.07581	6185.625
1547.4329	6182.825
1550.78776	6190.325
1554.14038	6213.025
1557.49077	6257.325
1560.83892	6383.925
1564.18484	6576.625
1567.52853	6793.225
1570.86999	7019.125
1574.20922	7166.125
1577.54624	7137.525
1580.88103	6791.425
1584.2136	6212.025
1587.54395	5882.525
1590.87208	5823.225
1594.19801	6044.125
1597.52172	6400.725
1600.84321	6603.025
1604.16251	6420.025
1607.47959	6083.625
1610.79447	5708.325
1614.10715	5343.825
1617.41763	5067.725
1620.7259	4859.425
1624.03199	4771.025
1627.33587	4803.125
1630.63757	4846.125
1633.93707	4995.325
1637.23439	5254.625
1640.52951	5664.425
1643.82246	6319.625
1647.11321	7084.225
1650.40179	7702.225
1653.68819	7612.125
1656.97241	6701.425
1660.25446	5655.125
1663.53433	4914.125
1666.81203	4497.525
1670.08756	4254.225
1673.36092	4122.825
1676.63211	4039.125
1679.90115	3993.125
1683.16801	3925.325
1686.43272	3867.825
1689.69527	3828.525
1692.95567	3779.825
1696.2139	3712.425
1699.46999	3669.825
1702.72392	3644.525
1705.97571	3654.825
1709.22535	3688.425
1712.47284	3728.925
1715.71819	3754.525
1718.96139	3784.825
1722.20246	3799.825
1725.44139	3791.825
1728.67818	3759.225
1731.91284	3707.625
1735.14537	3670.625
1738.37576	3634.925
1741.60403	3605.125
1744.83017	3581.125
1748.05418	3560.725
1751.27607	3545.925
1754.49584	3506.625
1757.71349	3488.225
1760.92903	3467.425
1764.14244	3420.325
1767.35375	3412.925
1770.56294	3396.425
1773.77002	3380.225
1776.97499	3386.525
1780.17785	3394.225
1783.37861	3393.225
1786.57727	3376.425
1789.77382	3393.525
1792.96828	3367.625
1796.16064	3367.625
1799.3509	3348.425
1802.53907	3345.725
1805.72514	3341.425
1808.90913	3332.225
1812.09102	3317.525
1815.27083	3302.025
1818.44856	3308.825
1821.6242	3291.025
1824.79776	3282.525
1827.96924	3282.225
1831.13864	3271.225
1834.30597	3279.725
1837.47122	3257.025
1840.6344	3251.325
1843.7955	3253.025
1846.95454	3243.425
1850.11151	3247.125
1853.26642	3246.125
1856.41926	3235.025
1859.57004	3246.525
1862.71876	3231.925
1865.86542	3244.325
1869.01003	3226.825
1872.15258	3224.525
1875.29308	3215.525
1878.43152	3222.425
1881.56792	3210.625
1884.70227	3212.225
1887.83457	3210.325
1890.96482	3201.525
1894.09304	3210.625
1897.21921	3200.825
1900.34335	3199.025
1903.46544	3190.925
1906.58551	3195.625
1909.70353	3191.925
1912.81953	3191.625
1915.93349	3189.025
1919.04543	3189.825
1922.15534	3173.425
1925.26322	3180.625
1928.36908	3160.925
1931.47292	3147.025
1934.57473	3140.625
1937.67453	3122.125
1940.77232	3118.625
1943.86808	3095.925
1946.96184	3088.025
1950.05358	3072.425
1953.14331	3060.925
1956.23103	3056.225
1959.31675	3030.925
1962.40046	3033.025
1965.48217	3025.325
1968.56188	3006.525
1971.63959	3013.225
1974.7153	3003.325
1977.78901	2983.425
1980.86073	2974.325
1983.93046	2965.025
1986.99819	2947.725
1990.06394	2936.225
1993.1277	2928.925
1996.18947	2909.225
1999.24925	2917.125
2002.30706	2894.625
2005.36288	2900.425
2008.41672	2894.925
2011.46859	2882.925
2014.51848	2867.425
2017.56639	2856.825
2020.61233	2848.725
2023.6563	2840.825
2026.6983	2833.725
2029.73833	2825.425
2032.7764	2818.225
2035.8125	2813.025
2038.84664	2803.425
2041.87881	2787.525
2044.90903	2786.625
2047.93729	2787.825
2050.96359	2781.525
2053.98794	2752.725
2057.01034	2766.925
2060.03078	2758.225
2063.04927	2758.025
2066.06582	2744.525
2069.08042	2753.625
2072.09307	2742.325
2075.10378	2740.625
2078.11255	2730.525
2081.11938	2741.225
2084.12426	2740.225
2087.12722	2732.925
2090.12824	2728.625
2093.12732	2725.525
2096.12447	2741.625
2099.11969	2723.825
2102.11299	2734.725
2105.10435	2726.825
2108.09379	2722.025
2111.08131	2727.625
2114.0669	2734.025
2117.05057	2734.825
2120.03233	2731.025
2123.01216	2724.825
2125.99008	2741.825
2128.96609	2733.525
2131.94018	2749.225
2134.91236	2741.525
2137.88263	2741.025
2140.851	2733.625
2143.81746	2732.625
2146.78201	2736.125
2149.74466	2732.225
2152.7054	2727.525
2155.66425	2720.725
2158.6212	2718.325
2161.57625	2712.725
2164.52941	2729.825
2167.48067	2699.925
2170.43004	2702.825
2173.37752	2711.225
2176.32311	2694.825
2179.26681	2699.025
2182.20863	2704.825
2185.14856	2701.225
2188.08661	2702.225
2191.02278	2703.925
2193.95707	2694.925
2196.88948	2687.825
2199.82001	2684.125
2202.74867	2671.325
2205.67545	2669.725
2208.60037	2680.125
2211.52341	2663.325
2214.44458	2654.125
2217.36388	2652.725
2220.28132	2653.125
2223.1969	2635.725
2226.11061	2623.425
2229.02246	2620.325
2231.93245	2625.025
2234.84058	2610.125
2237.74686	2607.725
2240.65128	2602.725
2243.55385	2599.025
2246.45456	2602.225
2249.35343	2577.725
2252.25044	2581.725
2255.14561	2593.425
2258.03893	2576.025
2260.93041	2560.325
2263.82004	2580.925
2266.70783	2572.325
2269.59378	2559.425
2272.4779	2544.525
2275.36017	2548.025
2278.24061	2557.325
2281.11922	2544.325
2283.996	2522.825
2286.87094	2517.525
2289.74405	2510.025
2292.61534	2507.925
2295.4848	2503.825
2298.35243	2499.625
2301.21824	2504.125
2304.08223	2504.525
2306.94439	2500.925
2309.80474	2481.725
2312.66327	2487.425
2315.51999	2485.425
2318.37489	2479.325
2321.22797	2476.825
2324.07925	2475.525
2326.92871	2474.125
2329.77637	2469.425
2332.62222	2452.825
2335.46626	2453.025
2338.3085	2452.925
2341.14893	2447.025
2343.98756	2442.425
2346.8244	2448.025
2349.65943	2451.325
2352.49267	2441.425
2355.32411	2445.325
2358.15376	2451.825
2360.98161	2449.725
2363.80768	2453.825
2366.63195	2461.025
2369.45444	2475.125
2372.27514	2444.225
2375.09405	2454.625
2377.91118	2444.225
2380.72652	2434.925
2383.54009	2414.225
2386.35187	2417.025
2389.16188	2401.025
2391.97011	2387.025
2394.77657	2396.025
2397.58125	2368.925
2400.38416	2377.425
2403.18529	2365.625
2405.98466	2356.425
2408.78226	2358.925
2411.57809	2358.825
2414.37216	2347.825
2417.16446	2349.225
2419.955	2334.125
2422.74378	2335.025
2425.5308	2324.725
2428.31606	2332.425
2431.09956	2327.525
2433.88131	2328.925
2436.6613	2333.025
2439.43954	2333.625
2442.21603	2327.725
2444.99077	2327.025
2447.76377	2329.425
2450.53501	2320.225
2453.30451	2314.125
2456.07226	2324.625
2458.83827	2316.425
2461.60254	2314.825
2464.36507	2307.425
2467.12586	2313.325
2469.88492	2312.625
2472.64224	2303.225
2475.39782	2305.725
2478.15167	2287.825
2480.90379	2295.825
2483.65417	2309.225
2486.40283	2309.525
2489.14976	2310.725
2491.89497	2315.025
2494.63845	2314.825
2497.3802	2302.325
2500.12024	2311.925
2502.85855	2295.225
2505.59514	2300.725
2508.33002	2279.925
2511.06318	2271.125
2513.79462	2262.425
2516.52435	2250.025
2519.25237	2248.725
2521.97867	2253.325
2524.70327	2237.025
2527.42616	2232.625
2530.14734	2240.025
2532.86681	2231.125
2535.58458	2235.525
2538.30065	2220.625
2541.01501	2231.125
2543.72768	2216.925
2546.43864	2226.125
2549.14791	2217.425
2551.85548	2213.925
2554.56136	2202.225
2557.26554	2203.725
2559.96803	2206.125
2562.66883	2203.925
2565.36794	2205.525
2568.06536	2198.725
2570.7611	2192.925
2573.45514	2189.725
2576.14751	2188.225
2578.83819	2180.625
2581.52719	2175.325
2584.21451	2167.825
2586.90015	2157.125
2589.58411	2161.825
2592.2664	2160.625
2594.94701	2154.025
2597.62594	2159.425
2600.30321	2145.625
2602.9788	2135.725
2605.65273	2143.525
2608.32498	2137.725
2610.99557	2139.425
2613.66449	2129.725
2616.33175	2132.325
2618.99734	2123.325
2621.66128	2129.725
2624.32355	2116.625
2626.98416	2119.525
2629.64311	2116.125
2632.30041	2124.025
2634.95605	2097.925
2637.61004	2089.225
2640.26238	2091.625
2642.91306	2093.125
2645.56209	2087.525
2648.20948	2102.125
2650.85521	2082.625
2653.4993	2096.525
2656.14175	2098.425
2658.78255	2106.925
2661.42171	2100.125
2664.05923	2105.525
2666.6951	2097.925
2669.32934	2104.925
2671.96194	2094.025
2674.59291	2106.725
2677.22224	2105.325
2679.84993	2104.625
2682.476	2108.425
2685.10043	2109.725
2687.72324	2118.925
2690.34441	2112.625
2692.96396	2104.525
2695.58188	2117.525
2698.19818	2115.425
2700.81285	2122.925
2703.4259	2122.725
2706.03733	2100.825
2708.64714	2116.425
2711.25533	2117.425
2713.86191	2133.225
2716.46687	2132.925
2719.07021	2136.025
2721.67194	2150.625
2724.27206	2154.125
2726.87057	2158.225
2729.46747	2151.525
2732.06276	2135.425
2734.65644	2138.925
2737.24852	2137.025
2739.83899	2128.225
2742.42786	2124.425
2745.01513	2111.525
2747.60079	2097.225
2750.18486	2104.825
2752.76733	2099.125
2755.3482	2091.625
2757.92747	2095.025
2760.50515	2092.125
2763.08123	2098.925
2765.65573	2085.925
2768.22863	2088.425
2770.79994	2084.025
2773.36967	2091.625
2775.9378	2086.325
2778.50435	2095.925
2781.06932	2091.525
2783.6327	2099.925
2786.1945	2109.525
2788.75471	2102.425
2791.31335	2117.125
2793.87041	2112.025
2796.42589	2115.425
2798.97979	2127.525
2801.53212	2141.025
2804.08288	2138.325
2806.63206	2159.425
2809.17967	2149.725
2811.72571	2165.925
2814.27018	2170.425
2816.81308	2189.825
2819.35442	2200.225
2821.89419	2203.825
2824.43239	2206.325
2826.96904	2195.925
2829.50412	2206.925
2832.03763	2225.425
2834.56959	2238.825
2837.1	2266.025
2839.62884	2309.825
2842.15613	2363.525
2844.68186	2469.325
2847.20604	2571.625
2849.72867	2659.725
2852.24974	2709.425
2854.76927	2700.125
2857.28724	2686.925
2859.80367	2653.325
2862.31855	2647.225
2864.83189	2615.625
2867.34368	2590.725
2869.85393	2582.525
2872.36264	2587.925
2874.8698	2580.925
2877.37543	2577.425
2879.87952	2568.125
2882.38207	2576.725
2884.88308	2582.425
2887.38256	2573.225
2889.88051	2580.325
2892.37692	2592.325
2894.8718	2586.325
2897.36515	2608.325
2899.85698	2612.525
2902.34727	2615.125
2904.83604	2613.425
2907.32328	2620.425
2909.809	2617.925
2912.29319	2602.125
2914.77587	2607.525
2917.25702	2603.825
2919.73665	2588.325
2922.21476	2595.225
2924.69136	2587.325
2927.16644	2587.425
2929.64	2561.225
2932.11205	2556.325
2934.58258	2525.325
2937.05161	2517.625
2939.51912	2492.925
2941.98513	2446.725
2944.44962	2377.225
2946.91261	2323.625
2949.37409	2285.225
2951.83407	2246.625
2954.29254	2205.625
2956.74951	2185.525
2959.20498	2168.225
2961.65895	2148.125
2964.11142	2142.125
2966.56239	2116.725
2969.01186	2094.325
2971.45984	2079.925
2973.90632	2061.625
2976.35131	2043.125
2978.7948	2037.725
2981.23681	2026.725
2983.67732	2017.725
2986.11635	2006.525
2988.55388	1999.525
2990.98993	1978.125
2993.4245	1973.425
2995.85758	1966.425
2998.28917	1963.325
3000.71928	1945.625
3003.14791	1936.225
3005.57506	1935.625
3008.00073	1932.025
3010.42493	1920.825
3012.84764	1926.625
3015.26888	1929.925
3017.68865	1922.825
3020.10694	1924.025
3022.52376	1921.725
3024.9391	1914.125
3027.35298	1929.625
3029.76539	1911.125
3032.17632	1917.525
3034.5858	1920.525
3036.9938	1909.425
3039.40034	1904.125
3041.80542	1920.025
3044.20903	1907.725
3046.61118	1906.125
3049.01187	1903.925
3051.4111	1911.625
3053.80888	1900.125
3056.20519	1899.525
3058.60005	1895.625
3060.99345	1909.825
3063.3854	1899.425
3065.7759	1901.925
3068.16494	1894.725
3070.55254	1901.325
3072.93868	1894.425
3075.32338	1903.825
3077.70662	1892.725
3080.08842	1891.525
3082.46878	1885.425
3084.84769	1883.825
3087.22515	1875.425
3089.60118	1881.025
3091.97576	1870.325
3094.3489	1881.325
3096.72061	1874.225
3099.09087	1888.325
3101.4597	1884.025
3103.82709	1900.125
3106.19305	1893.225
3108.55757	1897.025
3110.92066	1885.125
3113.28232	1897.525
3115.64255	1892.725
3118.00134	1893.025
3120.35871	1899.525
3122.71466	1900.125
3125.06917	1901.025
3127.42226	1902.025
3129.77393	1902.025
3132.12417	1909.325
3134.47299	1911.925
3136.82039	1925.325
3139.16636	1933.225
3141.51092	1940.325
3143.85406	1942.925
3146.19579	1959.725
3148.53609	1953.125
3150.87499	1968.125
3153.21246	1980.025
3155.54853	1977.425
3157.88318	1980.725
3160.21642	1991.725
3162.54826	2001.025
3164.87868	1998.925
3167.2077	2006.325
3169.5353	2006.725
3171.86151	2014.425
3174.18631	2027.025
3176.5097	2021.625
3178.83169	2038.525
3181.15228	2040.325
3183.47147	2029.925
3185.78926	2043.825
3188.10565	2050.725
3190.42065	2040.925
3192.73424	2044.225
3195.04645	2047.125
3197.35725	2053.225
3199.66667	2066.925
3201.97469	2067.025
3204.28132	2088.325
3206.58656	2083.925
3208.8904	2085.825
3211.19287	2093.425
3213.49394	2092.825
3215.79363	2097.225
3218.09193	2105.725
3220.38884	2116.025
3222.68438	2097.325
3224.97853	2111.125
3227.2713	2108.425
3229.56269	2103.125
3231.8527	2117.825
3234.14133	2110.225
