Data from AgNPs_FTO_APTES_UA_1uM_CRN_10uM_R6G_10uM_NaF_0.1M_Addition_RamanShift__31__14-51-59-661.txt Node

Date: Thu Jan 27 14:51:59 GMT 2022
User: TCL
Spectrometer: QEP01345
Trigger mode: 4
Integration Time (sec): 7.000000E0
Scans to average: 10
Electric dark correction enabled: true
Nonlinearity correction enabled: false
Boxcar width: 0
XAxis mode: Raman Shifts
Number of Pixels in Spectrum: 1044
>>>>>Begin Spectral Data<<<<<
46.04893	1.825
50.45542	1.125
54.85868	-2.075
59.25871	-1.275
63.6555	32.925
68.04907	33.825
72.43941	35.325
76.82654	38.125
81.21044	39.725
85.59113	41.625
89.96862	43.425
94.34289	45.025
98.71396	48.225
103.08183	45.725
107.4465	49.125
111.80798	50.725
116.16626	50.025
120.52136	51.725
124.87327	50.725
129.222	46.625
133.56755	49.325
137.90993	53.525
142.24913	56.725
146.58517	57.425
150.91804	65.025
155.24774	71.125
159.57429	81.125
163.89768	97.625
168.21792	124.525
172.53501	166.325
176.84895	222.225
181.15975	305.725
185.46741	415.225
189.77193	566.525
194.07331	748.325
198.37157	968.125
202.6667	1190.425
206.9587	1422.725
211.24758	1635.325
215.53334	1881.625
219.81599	2143.025
224.09553	2436.425
228.37195	2784.625
232.64527	3148.325
236.91549	3514.225
241.18261	3834.325
245.44663	4073.225
249.70755	4255.225
253.96539	4412.825
258.22014	4566.425
262.4718	4692.625
266.72039	4834.025
270.96589	4918.525
275.20832	4935.325
279.44768	4901.225
283.68397	4844.625
287.91719	4790.125
292.14735	4815.825
296.37445	4949.325
300.59849	5132.525
304.81948	5425.025
309.03742	5619.625
313.25231	5615.925
317.46415	5325.325
321.67296	4834.325
325.87872	4458.925
330.08145	4249.225
334.28114	4215.025
338.47781	4306.625
342.67145	4429.125
346.86207	4664.825
351.04966	4994.625
355.23424	5369.625
359.4158	5678.625
363.59435	5814.025
367.76989	5829.925
371.94243	5792.125
376.11196	5703.625
380.27849	5669.225
384.44203	5563.125
388.60257	5487.225
392.76012	5425.125
396.91468	5469.625
401.06626	5635.125
405.21485	5760.225
409.36047	5649.925
413.50311	5301.125
417.64277	4962.025
421.77947	4758.225
425.9132	4692.125
430.04396	4648.725
434.17176	4666.325
438.2966	4725.225
442.41849	4846.725
446.53742	4979.125
450.6534	5115.425
454.76644	5201.325
458.87653	5213.025
462.98368	5159.525
467.08789	5108.425
471.18916	4976.825
475.2875	4853.125
479.38291	4750.225
483.4754	4658.125
487.56496	4605.725
491.6516	4556.725
495.73531	4552.125
499.81612	4564.125
503.89401	4641.225
507.96899	4716.425
512.04106	4804.125
516.11023	4891.125
520.1765	4977.525
524.23987	4936.425
528.30034	4825.525
532.35792	4687.625
536.41261	4570.525
540.46441	4423.525
544.51333	4382.325
548.55936	4420.025
552.60252	4524.225
556.64279	4671.625
560.6802	4738.625
564.71473	4825.725
568.7464	5052.025
572.7752	5220.825
576.80114	5044.825
580.82422	4859.525
584.84444	4749.525
588.86181	4685.725
592.87633	4678.325
596.888	4720.125
600.89682	4902.725
604.9028	5564.625
608.90594	7337.225
612.90624	9794.325
616.90371	9607.625
620.89834	6469.925
624.89015	4909.525
628.87913	4611.425
632.86528	4623.225
636.84862	4725.925
640.82913	4690.325
644.80683	4466.625
648.78172	4300.025
652.75379	4334.325
656.72306	4562.025
660.68952	4848.125
664.65319	4805.025
668.61405	4515.525
672.57211	4351.525
676.52738	4327.525
680.47986	4325.025
684.42955	4304.425
688.37646	4277.325
692.32058	4271.325
696.26192	4332.325
700.20048	4384.025
704.13626	4431.625
708.06928	4425.425
711.99952	4389.725
715.927	4364.825
719.85171	4384.825
723.77365	4378.725
727.69284	4341.025
731.60928	4288.225
735.52295	4285.625
739.43388	4296.625
743.34206	4326.525
747.24749	4336.625
751.15017	4412.225
755.05012	4471.525
758.94733	4733.125
762.8418	5306.525
766.73354	6317.725
770.62254	7409.525
774.50882	7971.625
778.39237	7661.425
782.27321	6565.425
786.15132	5466.325
790.02671	4807.125
793.89938	4518.725
797.76935	4403.225
801.6366	4351.925
805.50115	4303.525
809.36299	4265.825
813.22213	4260.825
817.07857	4247.425
820.93231	4251.525
824.78336	4260.125
828.63172	4291.825
832.47738	4295.825
836.32036	4302.525
840.16066	4248.125
843.99827	4220.625
847.8332	4206.525
851.66546	4205.525
855.49504	4192.025
859.32195	4180.925
863.1462	4185.325
866.96777	4149.825
870.78668	4140.025
874.60293	4157.425
878.41652	4175.025
882.22745	4203.525
886.03573	4229.925
889.84136	4201.325
893.64433	4183.625
897.44466	4175.925
901.24235	4174.825
905.0374	4172.825
908.8298	4137.325
912.61957	4133.125
916.40671	4158.325
920.19121	4196.425
923.97308	4229.125
927.75233	4285.925
931.52895	4333.025
935.30295	4298.825
939.07433	4162.425
942.84309	4030.825
946.60924	3957.725
950.37278	3907.525
954.13371	3907.325
957.89203	3870.525
961.64774	3881.825
965.40086	3864.025
969.15137	3843.525
972.89929	3823.225
976.64461	3826.625
980.38733	3813.925
984.12747	3836.125
987.86502	3823.325
991.59999	3855.925
995.33237	3889.725
999.06217	3953.725
1002.78939	4041.125
1006.51404	4149.425
1010.23611	4259.025
1013.95561	4316.525
1017.67255	4318.125
1021.38692	4262.025
1025.09872	4172.825
1028.80796	4112.525
1032.51465	4114.325
1036.21877	4160.425
1039.92035	4220.625
1043.61937	4234.225
1047.31584	4237.325
1051.00976	4218.525
1054.70114	4205.825
1058.38998	4215.225
1062.07627	4227.625
1065.76003	4267.525
1069.44126	4290.725
1073.11995	4336.725
1076.79611	4391.525
1080.46974	4470.525
1084.14085	4597.125
1087.80943	4742.825
1091.47549	4803.625
1095.13903	4715.625
1098.80005	4530.425
1102.45857	4373.925
1106.11456	4293.925
1109.76805	4304.125
1113.41903	4397.225
1117.06751	4565.025
1120.71348	4779.125
1124.35696	5011.925
1127.99793	5228.625
1131.63641	5234.725
1135.2724	4964.825
1138.90589	4670.525
1142.5369	4516.425
1146.16542	4406.225
1149.79145	4343.825
1153.415	4332.125
1157.03607	4377.325
1160.65467	4473.925
1164.27079	4636.925
1167.88443	4902.125
1171.49561	5326.725
1175.10432	6075.825
1178.71056	7063.925
1182.31434	7757.325
1185.91565	7853.225
1189.51451	7561.625
1193.11091	7022.025
1196.70485	6376.625
1200.29634	5933.425
1203.88538	5622.325
1207.47197	5278.525
1211.05612	4930.725
1214.63782	4750.025
1218.21708	4690.825
1221.79391	4698.625
1225.36829	4737.225
1228.94024	4772.025
1232.50976	4819.525
1236.07685	4870.925
1239.6415	4860.725
1243.20374	4868.625
1246.76355	4877.425
1250.32093	4922.225
1253.8759	5025.525
1257.42845	5167.525
1260.97859	5345.125
1264.52631	5497.325
1268.07163	5681.225
1271.61453	5843.125
1275.15503	5988.625
1278.69312	6024.725
1282.22882	6028.425
1285.76211	6139.425
1289.29301	6362.425
1292.82151	6531.025
1296.34761	6738.825
1299.87133	7057.425
1303.39266	7605.225
1306.9116	8528.325
1310.42815	9652.425
1313.94233	10481.625
1317.45412	10377.825
1320.96354	9624.125
1324.47058	8739.625
1327.97525	7977.525
1331.47754	7517.425
1334.97747	7306.725
1338.47502	7295.325
1341.97022	7430.825
1345.46305	7699.225
1348.95352	8189.125
1352.44163	8866.825
1355.92738	9845.325
1359.41078	11412.325
1362.89183	13105.425
1366.37053	13037.025
1369.84688	10927.725
1373.32088	8756.625
1376.79254	7379.925
1380.26186	6707.925
1383.72883	6366.425
1387.19347	6126.825
1390.65578	5839.825
1394.11575	5594.425
1397.57339	5481.125
1401.0287	5466.025
1404.48168	5534.425
1407.93234	5614.025
1411.38068	5688.525
1414.82669	5694.925
1418.27039	5619.325
1421.71177	5529.925
1425.15083	5420.125
1428.58758	5333.325
1432.02203	5313.125
1435.45416	5365.425
1438.88399	5390.025
1442.31151	5386.325
1445.73673	5404.425
1449.15965	5456.025
1452.58027	5429.625
1455.9986	5387.025
1459.41463	5348.125
1462.82837	5401.125
1466.23982	5481.125
1469.64898	5619.325
1473.05586	5726.525
1476.46045	5800.925
1479.86276	5900.425
1483.26279	6060.325
1486.66054	6234.625
1490.05602	6482.225
1493.44922	6820.525
1496.84016	7343.825
1500.22882	8125.625
1503.61521	9217.625
1506.99934	10493.625
1510.38121	11783.125
1513.76081	12580.225
1517.13816	12148.425
1520.51324	10619.625
1523.88607	8941.925
1527.25665	7733.925
1530.62498	7029.025
1533.99105	6597.025
1537.35488	6308.425
1540.71647	6144.625
1544.07581	6056.825
1547.4329	6027.925
1550.78776	5987.925
1554.14038	5983.225
1557.49077	6074.325
1560.83892	6216.825
1564.18484	6447.925
1567.52853	6687.625
1570.86999	6871.225
1574.20922	7015.525
1577.54624	6963.825
1580.88103	6615.025
1584.2136	6090.225
1587.54395	5801.125
1590.87208	5790.325
1594.19801	6088.325
1597.52172	6508.825
1600.84321	6688.425
1604.16251	6473.225
1607.47959	6042.025
1610.79447	5609.225
1614.10715	5193.025
1617.41763	4853.625
1620.7259	4624.925
1624.03199	4523.525
1627.33587	4524.925
1630.63757	4621.125
1633.93707	4827.125
1637.23439	5183.325
1640.52951	5667.725
1643.82246	6380.625
1647.11321	7258.725
1650.40179	8027.525
1653.68819	8041.625
1656.97241	7027.325
1660.25446	5766.325
1663.53433	4845.525
1666.81203	4311.325
1670.08756	4000.425
1673.36092	3829.125
1676.63211	3720.225
1679.90115	3653.825
1683.16801	3603.925
1686.43272	3551.125
1689.69527	3513.125
1692.95567	3479.425
1696.2139	3431.225
1699.46999	3406.725
1702.72392	3369.925
1705.97571	3385.525
1709.22535	3401.925
1712.47284	3436.525
1715.71819	3455.925
1718.96139	3455.925
1722.20246	3466.225
1725.44139	3439.325
1728.67818	3417.825
1731.91284	3393.625
1735.14537	3351.825
1738.37576	3326.325
1741.60403	3314.125
1744.83017	3295.825
1748.05418	3267.925
1751.27607	3265.525
1754.49584	3240.225
1757.71349	3223.425
1760.92903	3203.125
1764.14244	3186.125
1767.35375	3184.325
1770.56294	3174.025
1773.77002	3176.825
1776.97499	3169.725
1780.17785	3170.425
1783.37861	3202.225
1786.57727	3181.625
1789.77382	3186.625
1792.96828	3170.925
1796.16064	3162.625
1799.3509	3171.625
1802.53907	3155.625
1805.72514	3154.825
1808.90913	3145.825
1812.09102	3136.325
1815.27083	3116.725
1818.44856	3114.725
1821.6242	3109.125
1824.79776	3100.825
1827.96924	3095.225
1831.13864	3084.625
1834.30597	3091.725
1837.47122	3083.125
1840.6344	3084.525
1843.7955	3088.925
1846.95454	3079.625
1850.11151	3091.125
1853.26642	3077.325
1856.41926	3082.125
1859.57004	3092.425
1862.71876	3090.825
1865.86542	3082.425
1869.01003	3090.725
1872.15258	3085.725
1875.29308	3087.325
1878.43152	3094.525
1881.56792	3104.325
1884.70227	3080.825
1887.83457	3081.225
1890.96482	3091.625
1894.09304	3095.725
1897.21921	3092.725
1900.34335	3081.825
1903.46544	3085.425
1906.58551	3091.125
1909.70353	3083.325
1912.81953	3090.225
1915.93349	3089.325
1919.04543	3083.225
1922.15534	3085.225
1925.26322	3086.425
1928.36908	3064.225
1931.47292	3037.125
1934.57473	3036.625
1937.67453	3013.625
1940.77232	2996.425
1943.86808	2980.025
1946.96184	2974.525
1950.05358	2939.025
1953.14331	2928.325
1956.23103	2916.925
1959.31675	2919.625
1962.40046	2898.225
1965.48217	2895.225
1968.56188	2894.125
1971.63959	2883.925
1974.7153	2873.925
1977.78901	2864.025
1980.86073	2859.925
1983.93046	2835.525
1986.99819	2819.525
1990.06394	2820.725
1993.1277	2798.825
1996.18947	2792.925
1999.24925	2794.625
2002.30706	2783.625
2005.36288	2767.925
2008.41672	2759.125
2011.46859	2753.225
2014.51848	2743.925
2017.56639	2747.125
2020.61233	2727.225
2023.6563	2724.325
2026.6983	2713.125
2029.73833	2701.525
2032.7764	2696.925
2035.8125	2694.125
2038.84664	2677.225
2041.87881	2681.525
2044.90903	2673.525
2047.93729	2658.525
2050.96359	2670.425
2053.98794	2648.325
2057.01034	2644.925
2060.03078	2653.425
2063.04927	2657.825
2066.06582	2643.325
2069.08042	2638.025
2072.09307	2640.525
2075.10378	2634.425
2078.11255	2619.325
2081.11938	2632.625
2084.12426	2630.025
2087.12722	2626.725
2090.12824	2637.025
2093.12732	2621.325
2096.12447	2619.625
2099.11969	2615.225
2102.11299	2621.925
2105.10435	2626.525
2108.09379	2617.125
2111.08131	2629.325
2114.0669	2620.225
2117.05057	2619.325
2120.03233	2616.225
2123.01216	2615.725
2125.99008	2634.325
2128.96609	2632.425
2131.94018	2632.525
2134.91236	2631.225
2137.88263	2630.925
2140.851	2624.825
2143.81746	2632.925
2146.78201	2633.125
2149.74466	2626.625
2152.7054	2614.325
2155.66425	2619.825
2158.6212	2622.825
2161.57625	2611.225
2164.52941	2620.625
2167.48067	2606.625
2170.43004	2607.025
2173.37752	2592.525
2176.32311	2613.725
2179.26681	2594.125
2182.20863	2606.825
2185.14856	2608.725
2188.08661	2602.525
2191.02278	2592.725
2193.95707	2596.225
2196.88948	2591.225
2199.82001	2593.225
2202.74867	2583.225
2205.67545	2581.425
2208.60037	2586.825
2211.52341	2579.325
2214.44458	2572.525
2217.36388	2552.325
2220.28132	2557.525
2223.1969	2556.325
2226.11061	2532.925
2229.02246	2528.625
2231.93245	2526.825
2234.84058	2527.725
2237.74686	2526.525
2240.65128	2525.225
2243.55385	2510.525
2246.45456	2521.725
2249.35343	2509.425
2252.25044	2510.625
2255.14561	2511.325
2258.03893	2500.425
2260.93041	2490.325
2263.82004	2489.625
2266.70783	2499.325
2269.59378	2486.725
2272.4779	2474.825
2275.36017	2487.625
2278.24061	2466.225
2281.11922	2458.125
2283.996	2453.925
2286.87094	2443.025
2289.74405	2437.425
2292.61534	2425.125
2295.4848	2432.625
2298.35243	2433.525
2301.21824	2415.525
2304.08223	2424.525
2306.94439	2416.225
2309.80474	2425.525
2312.66327	2413.925
2315.51999	2419.925
2318.37489	2412.325
2321.22797	2406.725
2324.07925	2408.025
2326.92871	2409.825
2329.77637	2399.325
2332.62222	2378.825
2335.46626	2387.825
2338.3085	2377.525
2341.14893	2383.525
2343.98756	2391.625
2346.8244	2380.825
2349.65943	2393.925
2352.49267	2393.025
2355.32411	2394.525
2358.15376	2384.725
2360.98161	2394.325
2363.80768	2398.425
2366.63195	2408.525
2369.45444	2412.825
2372.27514	2414.925
2375.09405	2406.225
2377.91118	2385.725
2380.72652	2392.425
2383.54009	2369.525
2386.35187	2363.925
2389.16188	2344.825
2391.97011	2336.125
2394.77657	2330.125
2397.58125	2312.425
2400.38416	2310.625
2403.18529	2320.625
2405.98466	2306.125
2408.78226	2305.125
2411.57809	2296.025
2414.37216	2292.325
2417.16446	2288.725
2419.955	2287.725
2422.74378	2290.225
2425.5308	2289.925
2428.31606	2279.925
2431.09956	2283.725
2433.88131	2282.925
2436.6613	2283.025
2439.43954	2280.525
2442.21603	2277.525
2444.99077	2277.225
2447.76377	2281.425
2450.53501	2285.925
2453.30451	2266.825
2456.07226	2270.725
2458.83827	2282.025
2461.60254	2265.125
2464.36507	2274.725
2467.12586	2270.025
2469.88492	2263.925
2472.64224	2273.725
2475.39782	2276.725
2478.15167	2269.025
2480.90379	2267.425
2483.65417	2288.025
2486.40283	2281.325
2489.14976	2282.925
2491.89497	2289.825
2494.63845	2293.525
2497.3802	2278.725
2500.12024	2279.925
2502.85855	2274.425
2505.59514	2271.025
2508.33002	2259.125
2511.06318	2254.425
2513.79462	2248.725
2516.52435	2242.625
2519.25237	2233.025
2521.97867	2212.225
2524.70327	2218.925
2527.42616	2209.725
2530.14734	2209.625
2532.86681	2208.025
2535.58458	2196.925
2538.30065	2196.225
2541.01501	2196.225
2543.72768	2203.425
2546.43864	2197.225
2549.14791	2192.925
2551.85548	2195.125
2554.56136	2192.925
2557.26554	2188.025
2559.96803	2185.525
2562.66883	2183.625
2565.36794	2178.125
2568.06536	2175.425
2570.7611	2164.025
2573.45514	2167.325
2576.14751	2166.825
2578.83819	2156.225
2581.52719	2154.925
2584.21451	2151.325
2586.90015	2151.525
2589.58411	2136.725
2592.2664	2152.725
2594.94701	2139.725
2597.62594	2137.525
2600.30321	2135.225
2602.9788	2131.025
2605.65273	2128.725
2608.32498	2124.925
2610.99557	2123.825
2613.66449	2120.525
2616.33175	2130.725
2618.99734	2132.725
2621.66128	2116.425
2624.32355	2120.325
2626.98416	2127.025
2629.64311	2111.125
2632.30041	2110.725
2634.95605	2098.825
2637.61004	2100.725
2640.26238	2102.125
2642.91306	2095.025
2645.56209	2097.925
2648.20948	2082.825
2650.85521	2086.925
2653.4993	2086.425
2656.14175	2084.925
2658.78255	2090.425
2661.42171	2097.425
2664.05923	2105.325
2666.6951	2098.725
2669.32934	2099.925
2671.96194	2084.525
2674.59291	2099.025
2677.22224	2094.425
2679.84993	2102.625
2682.476	2101.425
2685.10043	2113.325
2687.72324	2106.625
2690.34441	2093.525
2692.96396	2095.725
2695.58188	2104.125
2698.19818	2091.425
2700.81285	2095.925
2703.4259	2100.125
2706.03733	2080.725
2708.64714	2080.525
2711.25533	2089.725
2713.86191	2097.925
2716.46687	2092.625
2719.07021	2100.625
2721.67194	2106.225
2724.27206	2103.125
2726.87057	2110.325
2729.46747	2100.625
2732.06276	2107.625
2734.65644	2096.925
2737.24852	2093.125
2739.83899	2086.925
2742.42786	2099.925
2745.01513	2080.125
2747.60079	2078.725
2750.18486	2076.625
2752.76733	2077.825
2755.3482	2072.825
2757.92747	2067.225
2760.50515	2073.525
2763.08123	2070.525
2765.65573	2067.425
2768.22863	2068.925
2770.79994	2053.525
2773.36967	2054.225
2775.9378	2043.625
2778.50435	2055.125
2781.06932	2055.525
2783.6327	2047.525
2786.1945	2046.525
2788.75471	2048.025
2791.31335	2044.725
2793.87041	2039.425
2796.42589	2053.125
2798.97979	2043.325
2801.53212	2047.525
2804.08288	2037.325
2806.63206	2033.425
2809.17967	2028.625
2811.72571	2033.925
2814.27018	2030.625
2816.81308	2039.325
2819.35442	2029.925
2821.89419	2044.425
2824.43239	2044.825
2826.96904	2039.225
2829.50412	2050.825
2832.03763	2047.025
2834.56959	2056.425
2837.1	2055.725
2839.62884	2059.125
2842.15613	2062.325
2844.68186	2094.325
2847.20604	2123.625
2849.72867	2140.325
2852.24974	2145.425
2854.76927	2144.425
2857.28724	2143.025
2859.80367	2118.525
2862.31855	2128.625
2864.83189	2116.825
2867.34368	2124.125
2869.85393	2115.725
2872.36264	2120.425
2874.8698	2117.525
2877.37543	2115.025
2879.87952	2119.125
2882.38207	2108.325
2884.88308	2097.025
2887.38256	2103.225
2889.88051	2108.025
2892.37692	2097.525
2894.8718	2103.625
2897.36515	2105.925
2899.85698	2101.225
2902.34727	2113.325
2904.83604	2103.625
2907.32328	2107.125
2909.809	2106.925
2912.29319	2111.425
2914.77587	2105.825
2917.25702	2114.425
2919.73665	2104.125
2922.21476	2095.225
2924.69136	2091.525
2927.16644	2101.025
2929.64	2097.325
2932.11205	2096.825
2934.58258	2083.225
2937.05161	2075.625
2939.51912	2070.625
2941.98513	2057.025
2944.44962	2042.325
2946.91261	2005.825
2949.37409	2018.225
2951.83407	2005.025
2954.29254	2000.025
2956.74951	1988.225
2959.20498	1995.725
2961.65895	1985.625
2964.11142	1990.925
2966.56239	1975.625
2969.01186	1974.525
2971.45984	1970.925
2973.90632	1960.725
2976.35131	1965.425
2978.7948	1950.225
2981.23681	1948.825
2983.67732	1939.525
2986.11635	1929.625
2988.55388	1937.825
2990.98993	1919.925
2993.4245	1921.425
2995.85758	1909.825
2998.28917	1905.625
3000.71928	1906.625
3003.14791	1905.725
3005.57506	1899.525
3008.00073	1893.025
3010.42493	1900.125
3012.84764	1900.725
3015.26888	1895.925
3017.68865	1903.625
3020.10694	1894.525
3022.52376	1893.425
3024.9391	1883.425
3027.35298	1898.825
3029.76539	1887.925
3032.17632	1891.825
3034.5858	1888.225
3036.9938	1886.825
3039.40034	1883.025
3041.80542	1881.225
3044.20903	1881.925
3046.61118	1867.525
3049.01187	1874.125
3051.4111	1875.925
3053.80888	1873.925
3056.20519	1876.825
3058.60005	1865.625
3060.99345	1865.725
3063.3854	1862.425
3065.7759	1860.525
3068.16494	1866.925
3070.55254	1857.325
3072.93868	1857.925
3075.32338	1843.725
3077.70662	1851.025
3080.08842	1846.125
3082.46878	1841.625
3084.84769	1840.325
3087.22515	1836.625
3089.60118	1837.225
3091.97576	1839.225
3094.3489	1837.525
3096.72061	1835.025
3099.09087	1848.525
3101.4597	1836.725
3103.82709	1846.025
3106.19305	1849.325
3108.55757	1844.725
3110.92066	1850.325
3113.28232	1848.225
3115.64255	1827.425
3118.00134	1844.925
3120.35871	1846.625
3122.71466	1845.925
3125.06917	1854.325
3127.42226	1847.725
3129.77393	1839.425
3132.12417	1855.325
3134.47299	1852.825
3136.82039	1858.225
3139.16636	1870.425
3141.51092	1862.325
3143.85406	1880.425
3146.19579	1874.325
3148.53609	1874.025
3150.87499	1890.725
3153.21246	1894.725
3155.54853	1901.025
3157.88318	1911.225
3160.21642	1909.925
3162.54826	1912.025
3164.87868	1921.225
3167.2077	1912.625
3169.5353	1921.225
3171.86151	1922.125
3174.18631	1924.825
3176.5097	1927.925
3178.83169	1930.225
3181.15228	1941.725
3183.47147	1927.325
3185.78926	1926.425
3188.10565	1947.825
3190.42065	1937.225
3192.73424	1952.025
3195.04645	1954.525
3197.35725	1963.325
3199.66667	1949.825
3201.97469	1953.525
3204.28132	1956.325
3206.58656	1971.225
3208.8904	1964.825
3211.19287	1975.125
3213.49394	1980.325
3215.79363	1984.025
3218.09193	1989.925
3220.38884	1980.825
3222.68438	1990.325
3224.97853	1985.325
3227.2713	1990.425
3229.56269	1982.225
3231.8527	1987.125
3234.14133	1988.125
3236.42858	1986.725
