Data from AgNPs_FTO_APTES_UA_1uM_CRN_10uM_R6G_20uM_NaF_0.1M_Addition_RamanShift__1__14-58-59-669.txt Node

Date: Thu Jan 27 14:58:59 GMT 2022
User: TCL
Spectrometer: QEP01345
Trigger mode: 4
Integration Time (sec): 7.000000E0
Scans to average: 10
Electric dark correction enabled: true
Nonlinearity correction enabled: false
Boxcar width: 0
XAxis mode: Raman Shifts
Number of Pixels in Spectrum: 1044
>>>>>Begin Spectral Data<<<<<
46.04893	1.275
50.45542	0.275
54.85868	-2.025
59.25871	-1.225
63.6555	47.575
68.04907	52.575
72.43941	55.975
76.82654	61.175
81.21044	61.175
85.59113	60.775
89.96862	61.675
94.34289	63.075
98.71396	69.075
103.08183	69.075
107.4465	70.575
111.80798	73.175
116.16626	74.675
120.52136	78.275
124.87327	80.775
129.222	82.075
133.56755	83.575
137.90993	91.375
142.24913	99.675
146.58517	108.375
150.91804	126.275
155.24774	148.975
159.57429	175.775
163.89768	220.575
168.21792	295.875
172.53501	392.975
176.84895	546.075
181.15975	764.575
185.46741	1066.575
189.77193	1468.075
194.07331	1973.975
198.37157	2541.475
202.6667	3131.975
206.9587	3732.775
211.24758	4315.075
215.53334	4904.575
219.81599	5522.775
224.09553	6213.075
228.37195	6944.975
232.64527	7763.275
236.91549	8640.675
241.18261	9506.275
245.44663	10339.475
249.70755	11078.475
253.96539	11724.875
258.22014	12288.375
262.4718	12760.975
266.72039	13080.975
270.96589	13208.975
275.20832	13226.975
279.44768	13149.875
283.68397	13008.675
287.91719	12873.775
292.14735	12800.675
296.37445	12753.675
300.59849	12803.775
304.81948	12873.575
309.03742	12891.975
313.25231	12831.575
317.46415	12650.575
321.67296	12410.175
325.87872	12200.875
330.08145	12102.675
334.28114	12082.175
338.47781	12155.275
342.67145	12288.875
346.86207	12473.375
351.04966	12761.175
355.23424	12971.775
359.4158	13223.775
363.59435	13371.675
367.76989	13493.375
371.94243	13585.875
376.11196	13669.675
380.27849	13740.875
384.44203	13803.075
388.60257	13897.175
392.76012	14010.075
396.91468	14180.375
401.06626	14404.375
405.21485	14525.175
409.36047	14498.975
413.50311	14358.375
417.64277	14241.575
421.77947	14242.275
425.9132	14309.275
430.04396	14357.775
434.17176	14437.675
438.2966	14529.075
442.41849	14725.775
446.53742	15108.675
450.6534	15511.975
454.76644	15825.375
458.87653	15857.575
462.98368	15741.775
467.08789	15572.875
471.18916	15347.775
475.2875	15089.075
479.38291	14911.875
483.4754	14818.775
487.56496	14684.575
491.6516	14547.375
495.73531	14475.475
499.81612	14430.675
503.89401	14514.775
507.96899	14536.975
512.04106	14537.975
516.11023	14458.175
520.1765	14364.775
524.23987	14301.475
528.30034	14206.575
532.35792	14115.975
536.41261	13992.375
540.46441	13831.275
544.51333	13772.975
548.55936	13896.875
552.60252	14152.575
556.64279	14408.375
560.6802	14625.075
564.71473	14702.275
568.7464	14783.275
572.7752	15061.375
576.80114	15353.075
580.82422	15663.975
584.84444	16165.075
588.86181	16739.275
592.87633	17266.575
596.888	17276.975
600.89682	16821.275
604.9028	16743.075
608.90594	17766.675
612.90624	18998.975
616.90371	18147.675
620.89834	15734.375
624.89015	14591.175
628.87913	14435.275
632.86528	14463.875
636.84862	14377.575
640.82913	14160.575
644.80683	13872.975
648.78172	13724.675
652.75379	13701.575
656.72306	13868.975
660.68952	14077.375
664.65319	14003.075
668.61405	13814.475
672.57211	13771.475
676.52738	13827.375
680.47986	13810.975
684.42955	13737.475
688.37646	13684.375
692.32058	13764.275
696.26192	13965.875
700.20048	14144.975
704.13626	14240.775
708.06928	14163.175
711.99952	14113.075
715.927	14107.575
719.85171	14179.175
723.77365	14146.775
727.69284	13954.875
731.60928	13809.075
735.52295	13749.075
739.43388	13743.375
743.34206	13778.675
747.24749	13878.475
751.15017	13934.875
755.05012	14165.775
758.94733	14436.575
762.8418	14986.075
766.73354	15811.575
770.62254	16634.575
774.50882	16827.875
778.39237	16327.575
782.27321	15468.675
786.15132	14680.575
790.02671	14202.375
793.89938	13998.775
797.76935	13895.875
801.6366	13900.175
805.50115	13845.675
809.36299	13777.875
813.22213	13689.575
817.07857	13640.375
820.93231	13594.275
824.78336	13534.475
828.63172	13541.975
832.47738	13570.675
836.32036	13625.275
840.16066	13651.075
843.99827	13732.675
847.8332	13679.675
851.66546	13624.475
855.49504	13574.975
859.32195	13628.475
863.1462	13542.775
866.96777	13527.375
870.78668	13502.275
874.60293	13501.575
878.41652	13537.975
882.22745	13564.275
886.03573	13621.075
889.84136	13604.975
893.64433	13553.175
897.44466	13501.075
901.24235	13443.575
905.0374	13409.775
908.8298	13352.875
912.61957	13416.075
916.40671	13484.975
920.19121	13641.375
923.97308	13788.775
927.75233	13872.175
931.52895	13838.175
935.30295	13725.775
939.07433	13533.675
942.84309	13370.375
946.60924	13306.675
950.37278	13285.275
954.13371	13269.975
957.89203	13196.075
961.64774	13177.675
965.40086	13182.375
969.15137	13129.875
972.89929	13097.875
976.64461	13113.775
980.38733	13169.775
984.12747	13213.475
987.86502	13328.175
991.59999	13458.075
995.33237	13653.475
999.06217	13993.875
1002.78939	14406.975
1006.51404	14618.075
1010.23611	14775.975
1013.95561	14897.275
1017.67255	14854.675
1021.38692	14727.375
1025.09872	14581.375
1028.80796	14656.475
1032.51465	15003.075
1036.21877	15428.275
1039.92035	15544.975
1043.61937	15378.575
1047.31584	15057.175
1051.00976	14697.075
1054.70114	14464.175
1058.38998	14431.675
1062.07627	14431.575
1065.76003	14439.375
1069.44126	14534.775
1073.11995	14727.675
1076.79611	14934.975
1080.46974	15057.875
1084.14085	15115.075
1087.80943	15235.375
1091.47549	15313.375
1095.13903	15271.275
1098.80005	15131.075
1102.45857	14882.775
1106.11456	14685.975
1109.76805	14536.475
1113.41903	14547.375
1117.06751	14640.775
1120.71348	14725.175
1124.35696	14846.075
1127.99793	14987.175
1131.63641	15059.275
1135.2724	14988.675
1138.90589	14866.575
1142.5369	14872.175
1146.16542	14919.775
1149.79145	14937.175
1153.415	15007.175
1157.03607	15135.575
1160.65467	15472.775
1164.27079	16007.875
1167.88443	16717.975
1171.49561	17448.075
1175.10432	18444.975
1178.71056	19699.675
1182.31434	20928.875
1185.91565	21581.175
1189.51451	21470.275
1193.11091	20925.875
1196.70485	20218.475
1200.29634	19561.375
1203.88538	19138.875
1207.47197	18829.875
1211.05612	18534.275
1214.63782	18205.775
1218.21708	17858.275
1221.79391	17586.275
1225.36829	17420.775
1228.94024	17240.575
1232.50976	16956.475
1236.07685	16699.475
1239.6415	16583.075
1243.20374	16583.775
1246.76355	16722.775
1250.32093	16991.775
1253.8759	17294.475
1257.42845	17726.475
1260.97859	18179.575
1264.52631	18620.775
1268.07163	19108.875
1271.61453	19614.975
1275.15503	20173.575
1278.69312	20697.875
1282.22882	21083.975
1285.76211	21532.875
1289.29301	22085.575
1292.82151	22883.675
1296.34761	23831.375
1299.87133	25135.275
1303.39266	26571.475
1306.9116	28062.775
1310.42815	29148.575
1313.94233	29648.475
1317.45412	29216.875
1320.96354	28381.075
1324.47058	27578.375
1327.97525	27016.275
1331.47754	26552.275
1334.97747	26331.475
1338.47502	26096.175
1341.97022	25762.375
1345.46305	25398.375
1348.95352	25177.975
1352.44163	25385.975
1355.92738	26224.075
1359.41078	27552.675
1362.89183	28602.375
1366.37053	28224.675
1369.84688	26159.775
1373.32088	23531.475
1376.79254	21664.075
1380.26186	20933.475
1383.72883	20807.575
1387.19347	20794.975
1390.65578	20543.875
1394.11575	20364.975
1397.57339	20395.475
1401.0287	20618.375
1404.48168	20864.175
1407.93234	20927.475
1411.38068	20745.275
1414.82669	20346.375
1418.27039	19795.575
1421.71177	19203.775
1425.15083	18695.075
1428.58758	18419.275
1432.02203	18560.075
1435.45416	18958.075
1438.88399	19447.475
1442.31151	19790.175
1445.73673	19969.675
1449.15965	20041.675
1452.58027	20028.075
1455.9986	19900.275
1459.41463	19876.775
1462.82837	20078.675
1466.23982	20478.475
1469.64898	20852.175
1473.05586	21171.875
1476.46045	21287.575
1479.86276	21294.575
1483.26279	21117.375
1486.66054	20999.575
1490.05602	21057.675
1493.44922	21273.775
1496.84016	21486.175
1500.22882	21685.875
1503.61521	22215.775
1506.99934	22779.375
1510.38121	23351.175
1513.76081	23442.775
1517.13816	23021.775
1520.51324	22241.075
1523.88607	21537.075
1527.25665	21182.075
1530.62498	21112.575
1533.99105	21031.875
1537.35488	20832.875
1540.71647	20530.575
1544.07581	20147.275
1547.4329	19810.575
1550.78776	19465.275
1554.14038	19221.575
1557.49077	19088.375
1560.83892	19001.275
1564.18484	18939.975
1567.52853	18991.275
1570.86999	19135.775
1574.20922	19404.475
1577.54624	19607.475
1580.88103	19700.775
1584.2136	19838.375
1587.54395	20382.075
1590.87208	21346.075
1594.19801	22590.575
1597.52172	23824.775
1600.84321	24215.275
1604.16251	23289.975
1607.47959	21631.975
1610.79447	19787.875
1614.10715	18249.475
1617.41763	17034.675
1620.7259	16284.675
1624.03199	15938.975
1627.33587	15968.075
1630.63757	16404.675
1633.93707	17160.875
1637.23439	18469.275
1640.52951	20383.075
1643.82246	22641.975
1647.11321	24488.875
1650.40179	24887.675
1653.68819	23254.075
1656.97241	20455.775
1660.25446	17827.975
1663.53433	15948.375
1666.81203	14834.975
1670.08756	14128.875
1673.36092	13697.675
1676.63211	13395.275
1679.90115	13198.875
1683.16801	13070.175
1686.43272	12922.775
1689.69527	12821.575
1692.95567	12742.875
1696.2139	12688.975
1699.46999	12604.675
1702.72392	12603.375
1705.97571	12579.175
1709.22535	12632.675
1712.47284	12603.175
1715.71819	12627.275
1718.96139	12634.675
1722.20246	12591.975
1725.44139	12577.975
1728.67818	12503.975
1731.91284	12465.075
1735.14537	12417.875
1738.37576	12344.675
1741.60403	12300.775
1744.83017	12275.775
1748.05418	12230.875
1751.27607	12198.575
1754.49584	12156.775
1757.71349	12144.375
1760.92903	12143.675
1764.14244	12133.075
1767.35375	12120.375
1770.56294	12130.375
1773.77002	12126.675
1776.97499	12127.275
1780.17785	12137.275
1783.37861	12113.175
1786.57727	12130.275
1789.77382	12114.275
1792.96828	12119.875
1796.16064	12077.775
1799.3509	12065.075
1802.53907	12048.275
1805.72514	12031.575
1808.90913	11990.475
1812.09102	11970.675
1815.27083	11970.175
1818.44856	11944.975
1821.6242	11906.175
1824.79776	11909.075
1827.96924	11908.275
1831.13864	11885.375
1834.30597	11885.375
1837.47122	11889.775
1840.6344	11904.175
1843.7955	11870.675
1846.95454	11869.175
1850.11151	11906.575
1853.26642	11879.475
1856.41926	11872.675
1859.57004	11893.775
1862.71876	11889.475
1865.86542	11873.975
1869.01003	11877.675
1872.15258	11874.975
1875.29308	11801.475
1878.43152	11826.775
1881.56792	11825.975
1884.70227	11804.075
1887.83457	11820.975
1890.96482	11805.075
1894.09304	11781.475
1897.21921	11786.375
1900.34335	11767.875
1903.46544	11739.175
1906.58551	11754.275
1909.70353	11697.175
1912.81953	11724.675
1915.93349	11713.175
1919.04543	11705.075
1922.15534	11655.175
1925.26322	11623.875
1928.36908	11648.075
1931.47292	11632.075
1934.57473	11586.175
1937.67453	11573.375
1940.77232	11545.275
1943.86808	11495.675
1946.96184	11487.375
1950.05358	11457.875
1953.14331	11432.775
1956.23103	11421.175
1959.31675	11363.375
1962.40046	11372.075
1965.48217	11310.475
1968.56188	11308.675
1971.63959	11270.075
1974.7153	11236.975
1977.78901	11200.275
1980.86073	11165.475
1983.93046	11135.975
1986.99819	11117.375
1990.06394	11067.875
1993.1277	11030.775
1996.18947	11020.675
1999.24925	10999.875
2002.30706	10947.675
2005.36288	10958.075
2008.41672	10918.675
2011.46859	10895.675
2014.51848	10876.475
2017.56639	10863.375
2020.61233	10839.475
2023.6563	10821.975
2026.6983	10772.575
2029.73833	10800.175
2032.7764	10763.575
2035.8125	10745.875
2038.84664	10701.475
2041.87881	10720.475
2044.90903	10680.375
2047.93729	10678.375
2050.96359	10657.875
2053.98794	10631.375
2057.01034	10649.575
2060.03078	10652.475
2063.04927	10639.075
2066.06582	10656.875
2069.08042	10646.275
2072.09307	10612.575
2075.10378	10613.675
2078.11255	10619.975
2081.11938	10600.575
2084.12426	10620.375
2087.12722	10591.575
2090.12824	10605.675
2093.12732	10618.075
2096.12447	10609.275
2099.11969	10618.675
2102.11299	10638.275
2105.10435	10639.875
2108.09379	10667.575
2111.08131	10650.875
2114.0669	10675.275
2117.05057	10683.975
2120.03233	10665.875
2123.01216	10692.575
2125.99008	10703.075
2128.96609	10705.075
2131.94018	10720.175
2134.91236	10717.975
2137.88263	10747.475
2140.851	10742.775
2143.81746	10771.375
2146.78201	10759.575
2149.74466	10785.875
2152.7054	10787.775
2155.66425	10757.475
2158.6212	10768.675
2161.57625	10779.075
2164.52941	10795.975
2167.48067	10767.175
2170.43004	10762.475
2173.37752	10765.975
2176.32311	10781.375
2179.26681	10781.475
2182.20863	10790.975
2185.14856	10791.875
2188.08661	10819.475
2191.02278	10793.775
2193.95707	10790.675
2196.88948	10792.575
2199.82001	10782.775
2202.74867	10787.675
2205.67545	10781.675
2208.60037	10782.975
2211.52341	10736.575
2214.44458	10739.575
2217.36388	10751.475
2220.28132	10719.075
2223.1969	10725.475
2226.11061	10702.875
2229.02246	10668.075
2231.93245	10678.675
2234.84058	10654.075
2237.74686	10631.475
2240.65128	10624.975
2243.55385	10637.075
2246.45456	10616.175
2249.35343	10601.875
2252.25044	10581.775
2255.14561	10568.775
2258.03893	10565.575
2260.93041	10521.675
2263.82004	10504.475
2266.70783	10511.975
2269.59378	10477.575
2272.4779	10458.275
2275.36017	10451.575
2278.24061	10432.075
2281.11922	10425.975
2283.996	10427.375
2286.87094	10414.775
2289.74405	10383.375
2292.61534	10358.875
2295.4848	10373.575
2298.35243	10373.975
2301.21824	10397.175
2304.08223	10406.675
2306.94439	10427.275
2309.80474	10432.875
2312.66327	10387.275
2315.51999	10426.875
2318.37489	10406.675
2321.22797	10393.875
2324.07925	10395.975
2326.92871	10387.875
2329.77637	10369.075
2332.62222	10358.675
2335.46626	10310.575
2338.3085	10341.475
2341.14893	10345.475
2343.98756	10350.675
2346.8244	10331.075
2349.65943	10328.775
2352.49267	10308.675
2355.32411	10302.375
2358.15376	10302.975
2360.98161	10321.475
2363.80768	10297.075
2366.63195	10300.775
2369.45444	10268.675
2372.27514	10307.875
2375.09405	10267.575
2377.91118	10254.175
2380.72652	10242.175
2383.54009	10205.275
2386.35187	10203.375
2389.16188	10189.275
2391.97011	10165.775
2394.77657	10160.575
2397.58125	10136.675
2400.38416	10159.175
2403.18529	10156.275
2405.98466	10111.175
2408.78226	10103.275
2411.57809	10098.975
2414.37216	10075.375
2417.16446	10050.575
2419.955	10063.475
2422.74378	10082.175
2425.5308	10055.075
2428.31606	10048.275
2431.09956	10036.775
2433.88131	10043.575
2436.6613	10058.075
2439.43954	10037.475
2442.21603	10035.775
2444.99077	10022.775
2447.76377	10062.375
2450.53501	10014.875
2453.30451	10035.675
2456.07226	10019.575
2458.83827	10016.575
2461.60254	10022.075
2464.36507	10016.975
2467.12586	10016.475
2469.88492	10001.375
2472.64224	10023.475
2475.39782	10034.875
2478.15167	10004.475
2480.90379	10015.575
2483.65417	10035.075
2486.40283	10025.875
2489.14976	10047.675
2491.89497	10038.575
2494.63845	10039.975
2497.3802	10032.375
2500.12024	10009.775
2502.85855	10022.375
2505.59514	10035.875
2508.33002	10010.175
2511.06318	10010.275
2513.79462	10006.275
2516.52435	10007.575
2519.25237	9992.475
2521.97867	9996.075
2524.70327	9981.775
2527.42616	9970.675
2530.14734	9965.075
2532.86681	9975.075
2535.58458	9985.575
2538.30065	9920.375
2541.01501	9960.675
2543.72768	9922.075
2546.43864	9918.675
2549.14791	9942.575
2551.85548	9921.675
2554.56136	9913.275
2557.26554	9897.075
2559.96803	9902.675
2562.66883	9893.575
2565.36794	9888.375
2568.06536	9899.075
2570.7611	9873.375
2573.45514	9856.675
2576.14751	9866.775
2578.83819	9866.275
2581.52719	9851.475
2584.21451	9867.775
2586.90015	9849.575
2589.58411	9812.575
2592.2664	9824.875
2594.94701	9807.675
2597.62594	9833.775
2600.30321	9783.275
2602.9788	9804.775
2605.65273	9804.075
2608.32498	9791.675
2610.99557	9773.875
2613.66449	9804.775
2616.33175	9786.575
2618.99734	9788.575
2621.66128	9799.075
2624.32355	9782.275
2626.98416	9769.575
2629.64311	9781.175
2632.30041	9793.575
2634.95605	9748.975
2637.61004	9745.675
2640.26238	9754.875
2642.91306	9708.575
2645.56209	9717.575
2648.20948	9735.975
2650.85521	9734.075
2653.4993	9718.875
2656.14175	9714.575
2658.78255	9745.775
2661.42171	9751.775
2664.05923	9760.075
2666.6951	9760.275
2669.32934	9757.475
2671.96194	9773.975
2674.59291	9769.575
2677.22224	9757.075
2679.84993	9741.375
2682.476	9750.575
2685.10043	9747.075
2687.72324	9757.975
2690.34441	9749.775
2692.96396	9743.875
2695.58188	9747.975
2698.19818	9752.275
2700.81285	9734.775
2703.4259	9749.675
2706.03733	9754.175
2708.64714	9720.775
2711.25533	9757.675
2713.86191	9769.375
2716.46687	9813.475
2719.07021	9801.875
2721.67194	9792.675
2724.27206	9800.375
2726.87057	9829.875
2729.46747	9844.275
2732.06276	9834.975
2734.65644	9815.875
2737.24852	9822.875
2739.83899	9799.375
2742.42786	9826.175
2745.01513	9804.275
2747.60079	9815.575
2750.18486	9797.475
2752.76733	9790.975
2755.3482	9795.475
2757.92747	9797.775
2760.50515	9769.075
2763.08123	9794.775
2765.65573	9749.975
2768.22863	9781.475
2770.79994	9759.275
2773.36967	9768.175
2775.9378	9767.875
2778.50435	9763.975
2781.06932	9770.475
2783.6327	9757.875
2786.1945	9748.475
2788.75471	9741.575
2791.31335	9740.375
2793.87041	9725.075
2796.42589	9693.675
2798.97979	9696.975
2801.53212	9686.575
2804.08288	9675.475
2806.63206	9661.575
2809.17967	9613.675
2811.72571	9606.975
2814.27018	9609.775
2816.81308	9609.075
2819.35442	9601.475
2821.89419	9595.375
2824.43239	9567.375
2826.96904	9564.275
2829.50412	9574.575
2832.03763	9550.275
2834.56959	9565.175
2837.1	9532.675
2839.62884	9526.575
2842.15613	9556.175
2844.68186	9569.475
2847.20604	9576.175
2849.72867	9594.975
2852.24974	9558.575
2854.76927	9561.375
2857.28724	9560.575
2859.80367	9536.075
2862.31855	9515.375
2864.83189	9506.775
2867.34368	9502.275
2869.85393	9525.175
2872.36264	9505.975
2874.8698	9493.975
2877.37543	9509.275
2879.87952	9482.675
2882.38207	9501.275
2884.88308	9487.575
2887.38256	9506.575
2889.88051	9519.075
2892.37692	9545.075
2894.8718	9528.675
2897.36515	9529.575
2899.85698	9543.675
2902.34727	9565.775
2904.83604	9578.475
2907.32328	9571.875
2909.809	9560.875
2912.29319	9574.475
2914.77587	9601.175
2917.25702	9581.075
2919.73665	9565.975
2922.21476	9575.075
2924.69136	9559.075
2927.16644	9560.275
2929.64	9576.175
2932.11205	9570.575
2934.58258	9546.375
2937.05161	9558.575
2939.51912	9558.175
2941.98513	9527.475
2944.44962	9489.575
2946.91261	9491.975
2949.37409	9514.275
2951.83407	9503.875
2954.29254	9509.375
2956.74951	9461.175
2959.20498	9498.975
2961.65895	9481.075
2964.11142	9475.675
2966.56239	9494.175
2969.01186	9454.675
2971.45984	9459.875
2973.90632	9452.775
2976.35131	9450.375
2978.7948	9438.675
2981.23681	9403.075
2983.67732	9416.775
2986.11635	9376.675
2988.55388	9360.375
2990.98993	9350.275
2993.4245	9337.675
2995.85758	9337.875
2998.28917	9302.975
3000.71928	9266.375
3003.14791	9276.475
3005.57506	9251.475
3008.00073	9239.275
3010.42493	9257.075
3012.84764	9244.675
3015.26888	9239.075
3017.68865	9218.475
3020.10694	9225.875
3022.52376	9213.575
3024.9391	9180.475
3027.35298	9197.975
3029.76539	9192.875
3032.17632	9159.475
3034.5858	9164.475
3036.9938	9187.775
3039.40034	9172.575
3041.80542	9162.075
3044.20903	9150.275
3046.61118	9170.475
3049.01187	9127.175
3051.4111	9130.475
3053.80888	9133.075
3056.20519	9124.775
3058.60005	9075.975
3060.99345	9075.675
3063.3854	9053.075
3065.7759	9043.875
3068.16494	9046.975
3070.55254	9011.075
3072.93868	9003.075
3075.32338	8987.475
3077.70662	8984.575
3080.08842	8974.175
3082.46878	8966.275
3084.84769	8962.275
3087.22515	8941.375
3089.60118	8955.075
3091.97576	8947.175
3094.3489	8944.775
3096.72061	8967.675
3099.09087	8982.675
3101.4597	8951.675
3103.82709	8954.675
3106.19305	8941.275
3108.55757	8962.575
3110.92066	8920.975
3113.28232	8916.175
3115.64255	8901.075
3118.00134	8900.475
3120.35871	8903.775
3122.71466	8880.975
3125.06917	8877.075
3127.42226	8852.375
3129.77393	8848.175
3132.12417	8841.875
3134.47299	8837.175
3136.82039	8827.975
3139.16636	8852.975
3141.51092	8855.075
3143.85406	8864.075
3146.19579	8862.875
3148.53609	8879.375
3150.87499	8902.075
3153.21246	8891.075
3155.54853	8892.175
3157.88318	8898.975
