Data from AgNPs_FTO_APTES_UA_1uM_CRN_0uM_R6G_10uM_NaF_0.1M_Addition_RamanShift__29__11-39-29-443.txt Node

Date: Thu Jan 27 11:39:29 GMT 2022
User: TCL
Spectrometer: QEP01345
Trigger mode: 4
Integration Time (sec): 7.000000E0
Scans to average: 10
Electric dark correction enabled: true
Nonlinearity correction enabled: false
Boxcar width: 0
XAxis mode: Raman Shifts
Number of Pixels in Spectrum: 1044
>>>>>Begin Spectral Data<<<<<
46.04893	0.5875
50.45542	0.2875
54.85868	-1.3125
59.25871	-0.8125
63.6555	46.9875
68.04907	47.4875
72.43941	46.5875
76.82654	56.1875
81.21044	54.7875
85.59113	55.1875
89.96862	56.8875
94.34289	59.1875
98.71396	65.2875
103.08183	64.4875
107.4465	68.1875
111.80798	69.6875
116.16626	68.7875
120.52136	76.7875
124.87327	73.7875
129.222	77.0875
133.56755	84.6875
137.90993	85.2875
142.24913	94.6875
146.58517	105.7875
150.91804	120.0875
155.24774	138.4875
159.57429	173.2875
163.89768	219.4875
168.21792	285.3875
172.53501	389.4875
176.84895	533.8875
181.15975	753.1875
185.46741	1043.3875
189.77193	1435.1875
194.07331	1927.7875
198.37157	2475.0875
202.6667	3078.5875
206.9587	3655.7875
211.24758	4233.4875
215.53334	4800.9875
219.81599	5416.8875
224.09553	6074.1875
228.37195	6845.1875
232.64527	7656.6875
236.91549	8512.6875
241.18261	9366.5875
245.44663	10160.5875
249.70755	10872.9875
253.96539	11485.0875
258.22014	11962.2875
262.4718	12366.5875
266.72039	12645.2875
270.96589	12739.9875
275.20832	12719.4875
279.44768	12593.7875
283.68397	12407.0875
287.91719	12249.3875
292.14735	12155.5875
296.37445	12083.0875
300.59849	12153.9875
304.81948	12226.8875
309.03742	12293.5875
313.25231	12324.2875
317.46415	12221.5875
321.67296	12081.0875
325.87872	11918.9875
330.08145	11842.8875
334.28114	11826.0875
338.47781	11872.0875
342.67145	12026.3875
346.86207	12207.2875
351.04966	12422.3875
355.23424	12713.2875
359.4158	12922.4875
363.59435	13058.9875
367.76989	13132.4875
371.94243	13175.9875
376.11196	13197.7875
380.27849	13204.8875
384.44203	13271.3875
388.60257	13327.6875
392.76012	13425.0875
396.91468	13597.4875
401.06626	13811.3875
405.21485	13935.2875
409.36047	13903.1875
413.50311	13823.1875
417.64277	13859.5875
421.77947	13990.0875
425.9132	13971.8875
430.04396	13963.9875
434.17176	14013.0875
438.2966	14065.7875
442.41849	14245.0875
446.53742	14587.4875
450.6534	14981.7875
454.76644	15191.1875
458.87653	15218.5875
462.98368	15103.3875
467.08789	14866.2875
471.18916	14569.6875
475.2875	14263.6875
479.38291	13988.4875
483.4754	13825.3875
487.56496	13711.9875
491.6516	13643.4875
495.73531	13618.0875
499.81612	13692.5875
503.89401	13826.4875
507.96899	13927.9875
512.04106	13902.9875
516.11023	13788.2875
520.1765	13698.0875
524.23987	13629.4875
528.30034	13570.9875
532.35792	13464.7875
536.41261	13288.7875
540.46441	13127.4875
544.51333	13039.9875
548.55936	13130.6875
552.60252	13343.3875
556.64279	13682.4875
560.6802	13909.8875
564.71473	13933.4875
568.7464	14018.1875
572.7752	14293.7875
576.80114	14635.2875
580.82422	15209.2875
584.84444	16094.6875
588.86181	17351.9875
592.87633	18527.4875
596.888	18650.5875
600.89682	17447.1875
604.9028	16569.0875
608.90594	17148.0875
612.90624	18287.9875
616.90371	17490.4875
620.89834	15035.1875
624.89015	13809.4875
628.87913	13655.7875
632.86528	13723.8875
636.84862	13711.5875
640.82913	13515.2875
644.80683	13183.6875
648.78172	13031.2875
652.75379	13073.2875
656.72306	13249.0875
660.68952	13447.1875
664.65319	13370.9875
668.61405	13125.8875
672.57211	13099.0875
676.52738	13203.2875
680.47986	13232.9875
684.42955	13101.1875
688.37646	13021.1875
692.32058	13061.7875
696.26192	13289.3875
700.20048	13557.3875
704.13626	13642.1875
708.06928	13611.6875
711.99952	13549.5875
715.927	13588.8875
719.85171	13649.9875
723.77365	13605.5875
727.69284	13355.5875
731.60928	13139.1875
735.52295	13055.2875
739.43388	13055.7875
743.34206	13150.1875
747.24749	13226.6875
751.15017	13358.4875
755.05012	13518.1875
758.94733	13874.8875
762.8418	14417.3875
766.73354	15311.7875
770.62254	16185.9875
774.50882	16380.8875
778.39237	15791.2875
782.27321	14968.7875
786.15132	14199.7875
790.02671	13674.0875
793.89938	13398.2875
797.76935	13293.1875
801.6366	13230.4875
805.50115	13208.9875
809.36299	13154.3875
813.22213	13041.8875
817.07857	12984.0875
820.93231	12914.5875
824.78336	12817.2875
828.63172	12785.4875
832.47738	12777.9875
836.32036	12800.7875
840.16066	12798.6875
843.99827	12784.2875
847.8332	12781.9875
851.66546	12813.8875
855.49504	12843.0875
859.32195	12836.8875
863.1462	12837.2875
866.96777	12804.7875
870.78668	12747.4875
874.60293	12832.4875
878.41652	12835.7875
882.22745	12874.6875
886.03573	12961.2875
889.84136	12950.0875
893.64433	12939.3875
897.44466	12861.0875
901.24235	12826.7875
905.0374	12794.6875
908.8298	12740.0875
912.61957	12754.6875
916.40671	12821.3875
920.19121	12957.1875
923.97308	13159.5875
927.75233	13240.7875
931.52895	13196.8875
935.30295	13004.0875
939.07433	12772.7875
942.84309	12604.4875
946.60924	12511.9875
950.37278	12505.4875
954.13371	12532.9875
957.89203	12496.0875
961.64774	12470.2875
965.40086	12482.0875
969.15137	12441.5875
972.89929	12413.9875
976.64461	12399.5875
980.38733	12405.4875
984.12747	12430.5875
987.86502	12502.4875
991.59999	12544.1875
995.33237	12668.1875
999.06217	12875.3875
1002.78939	13165.6875
1006.51404	13433.0875
1010.23611	13747.8875
1013.95561	13930.3875
1017.67255	13966.6875
1021.38692	13819.5875
1025.09872	13558.3875
1028.80796	13371.6875
1032.51465	13375.2875
1036.21877	13506.2875
1039.92035	13532.4875
1043.61937	13522.1875
1047.31584	13462.7875
1051.00976	13422.0875
1054.70114	13411.1875
1058.38998	13409.2875
1062.07627	13520.2875
1065.76003	13592.0875
1069.44126	13734.0875
1073.11995	14003.2875
1076.79611	14240.2875
1080.46974	14425.9875
1084.14085	14534.8875
1087.80943	14683.4875
1091.47549	14773.2875
1095.13903	14758.3875
1098.80005	14554.0875
1102.45857	14196.9875
1106.11456	13925.7875
1109.76805	13800.2875
1113.41903	13777.2875
1117.06751	13822.3875
1120.71348	13911.1875
1124.35696	14065.9875
1127.99793	14212.0875
1131.63641	14334.9875
1135.2724	14240.9875
1138.90589	14171.2875
1142.5369	14168.7875
1146.16542	14239.0875
1149.79145	14334.0875
1153.415	14371.9875
1157.03607	14483.1875
1160.65467	14764.9875
1164.27079	15370.6875
1167.88443	16129.0875
1171.49561	16888.0875
1175.10432	17836.9875
1178.71056	19115.5875
1182.31434	20358.9875
1185.91565	20926.0875
1189.51451	20700.9875
1193.11091	20170.9875
1196.70485	19568.0875
1200.29634	18909.5875
1203.88538	18431.0875
1207.47197	18092.1875
1211.05612	17867.3875
1214.63782	17516.1875
1218.21708	17098.1875
1221.79391	16722.9875
1225.36829	16557.9875
1228.94024	16492.3875
1232.50976	16329.2875
1236.07685	16036.3875
1239.6415	15820.1875
1243.20374	15747.0875
1246.76355	15825.8875
1250.32093	16021.1875
1253.8759	16307.0875
1257.42845	16735.4875
1260.97859	17235.3875
1264.52631	17754.6875
1268.07163	18288.2875
1271.61453	18789.3875
1275.15503	19292.4875
1278.69312	19761.5875
1282.22882	20289.3875
1285.76211	21023.0875
1289.29301	21774.0875
1292.82151	22688.1875
1296.34761	23763.1875
1299.87133	25057.5875
1303.39266	26483.7875
1306.9116	27719.5875
1310.42815	28733.9875
1313.94233	29213.6875
1317.45412	28846.4875
1320.96354	27923.8875
1324.47058	27085.8875
1327.97525	26493.6875
1331.47754	26130.1875
1334.97747	25862.2875
1338.47502	25478.6875
1341.97022	25051.1875
1345.46305	24651.0875
1348.95352	24600.2875
1352.44163	24941.2875
1355.92738	25984.9875
1359.41078	27638.2875
1362.89183	29089.6875
1366.37053	29204.9875
1369.84688	27207.4875
1373.32088	24040.2875
1376.79254	21569.5875
1380.26186	20546.8875
1383.72883	20437.5875
1387.19347	20353.2875
1390.65578	19916.9875
1394.11575	19665.6875
1397.57339	19750.6875
1401.0287	20098.3875
1404.48168	20404.4875
1407.93234	20440.8875
1411.38068	20203.3875
1414.82669	19743.2875
1418.27039	19211.7875
1421.71177	18658.0875
1425.15083	18116.6875
1428.58758	17996.6875
1432.02203	18222.9875
1435.45416	18745.1875
1438.88399	19285.4875
1442.31151	19531.7875
1445.73673	19579.1875
1449.15965	19492.6875
1452.58027	19295.0875
1455.9986	19113.4875
1459.41463	19069.5875
1462.82837	19345.4875
1466.23982	19831.9875
1469.64898	20262.1875
1473.05586	20576.4875
1476.46045	20708.6875
1479.86276	20708.4875
1483.26279	20589.3875
1486.66054	20552.8875
1490.05602	20694.5875
1493.44922	20910.4875
1496.84016	21191.2875
1500.22882	21486.6875
1503.61521	21951.2875
1506.99934	22466.5875
1510.38121	22986.1875
1513.76081	23118.4875
1517.13816	22693.2875
1520.51324	22051.4875
1523.88607	21484.9875
1527.25665	21191.5875
1530.62498	21192.3875
1533.99105	20972.4875
1537.35488	20594.0875
1540.71647	20079.5875
1544.07581	19600.7875
1547.4329	19079.1875
1550.78776	18676.1875
1554.14038	18349.1875
1557.49077	18188.9875
1560.83892	18110.9875
1564.18484	18092.8875
1567.52853	18108.9875
1570.86999	18239.8875
1574.20922	18517.3875
1577.54624	18742.3875
1580.88103	18805.4875
1584.2136	18845.7875
1587.54395	19421.1875
1590.87208	20559.8875
1594.19801	22035.0875
1597.52172	23445.4875
1600.84321	23922.1875
1604.16251	22925.5875
1607.47959	20955.5875
1610.79447	18953.2875
1614.10715	17291.7875
1617.41763	16038.2875
1620.7259	15233.7875
1624.03199	14866.5875
1627.33587	14883.9875
1630.63757	15315.2875
1633.93707	16203.2875
1637.23439	17795.0875
1640.52951	20268.7875
1643.82246	23386.5875
1647.11321	25947.5875
1650.40179	26393.3875
1653.68819	24153.7875
1656.97241	20641.9875
1660.25446	17398.2875
1663.53433	15219.4875
1666.81203	13940.3875
1670.08756	13201.5875
1673.36092	12775.7875
1676.63211	12498.5875
1679.90115	12249.4875
1683.16801	12121.3875
1686.43272	11989.6875
1689.69527	11898.0875
1692.95567	11812.6875
1696.2139	11698.7875
1699.46999	11621.4875
1702.72392	11585.0875
1705.97571	11595.2875
1709.22535	11635.6875
1712.47284	11633.8875
1715.71819	11655.0875
1718.96139	11626.9875
1722.20246	11585.3875
1725.44139	11543.6875
1728.67818	11513.9875
1731.91284	11444.0875
1735.14537	11374.6875
1738.37576	11324.6875
1741.60403	11284.8875
1744.83017	11230.3875
1748.05418	11204.0875
1751.27607	11175.2875
1754.49584	11153.3875
1757.71349	11109.3875
1760.92903	11089.6875
1764.14244	11054.6875
1767.35375	11068.1875
1770.56294	11049.8875
1773.77002	11059.1875
1776.97499	11038.9875
1780.17785	11040.6875
1783.37861	11076.9875
1786.57727	11046.4875
1789.77382	11045.2875
1792.96828	11033.8875
1796.16064	11011.2875
1799.3509	10998.8875
1802.53907	10964.5875
1805.72514	10940.3875
1808.90913	10933.4875
1812.09102	10907.6875
1815.27083	10879.9875
1818.44856	10867.0875
1821.6242	10857.9875
1824.79776	10830.1875
1827.96924	10840.1875
1831.13864	10829.3875
1834.30597	10816.0875
1837.47122	10815.9875
1840.6344	10836.8875
1843.7955	10809.0875
1846.95454	10827.8875
1850.11151	10830.1875
1853.26642	10825.7875
1856.41926	10821.3875
1859.57004	10789.7875
1862.71876	10773.2875
1865.86542	10794.2875
1869.01003	10760.7875
1872.15258	10754.7875
1875.29308	10745.3875
1878.43152	10735.5875
1881.56792	10709.4875
1884.70227	10728.0875
1887.83457	10702.8875
1890.96482	10697.1875
1894.09304	10672.8875
1897.21921	10668.1875
1900.34335	10675.0875
1903.46544	10654.2875
1906.58551	10635.9875
1909.70353	10601.4875
1912.81953	10598.1875
1915.93349	10593.3875
1919.04543	10587.8875
1922.15534	10542.0875
1925.26322	10519.9875
1928.36908	10489.9875
1931.47292	10477.1875
1934.57473	10456.4875
1937.67453	10423.0875
1940.77232	10412.4875
1943.86808	10350.7875
1946.96184	10351.4875
1950.05358	10311.0875
1953.14331	10286.2875
1956.23103	10273.0875
1959.31675	10262.7875
1962.40046	10221.9875
1965.48217	10202.1875
1968.56188	10167.6875
1971.63959	10145.6875
1974.7153	10115.3875
1977.78901	10079.5875
1980.86073	10054.8875
1983.93046	10023.2875
1986.99819	10004.5875
1990.06394	9958.4875
1993.1277	9923.8875
1996.18947	9923.2875
1999.24925	9896.3875
2002.30706	9868.0875
2005.36288	9829.5875
2008.41672	9799.4875
2011.46859	9780.2875
2014.51848	9758.3875
2017.56639	9709.4875
2020.61233	9713.1875
2023.6563	9692.2875
2026.6983	9673.0875
2029.73833	9638.9875
2032.7764	9615.6875
2035.8125	9608.5875
2038.84664	9610.0875
2041.87881	9587.6875
2044.90903	9572.7875
2047.93729	9519.5875
2050.96359	9526.0875
2053.98794	9523.8875
2057.01034	9506.7875
2060.03078	9501.4875
2063.04927	9504.3875
2066.06582	9492.5875
2069.08042	9512.7875
2072.09307	9465.1875
2075.10378	9512.8875
2078.11255	9485.1875
2081.11938	9488.7875
2084.12426	9490.5875
2087.12722	9498.7875
2090.12824	9492.8875
2093.12732	9491.8875
2096.12447	9497.9875
2099.11969	9481.4875
2102.11299	9487.5875
2105.10435	9511.9875
2108.09379	9502.5875
2111.08131	9513.9875
2114.0669	9500.0875
2117.05057	9538.5875
2120.03233	9518.1875
2123.01216	9531.6875
2125.99008	9548.1875
2128.96609	9544.6875
2131.94018	9542.9875
2134.91236	9542.5875
2137.88263	9557.7875
2140.851	9560.5875
2143.81746	9588.2875
2146.78201	9581.2875
2149.74466	9569.5875
2152.7054	9585.7875
2155.66425	9542.3875
2158.6212	9552.9875
2161.57625	9561.6875
2164.52941	9535.7875
2167.48067	9558.3875
2170.43004	9534.3875
2173.37752	9533.2875
2176.32311	9541.2875
2179.26681	9555.7875
2182.20863	9532.2875
2185.14856	9589.5875
2188.08661	9577.7875
2191.02278	9553.4875
2193.95707	9535.5875
2196.88948	9555.5875
2199.82001	9532.2875
2202.74867	9531.7875
2205.67545	9528.6875
2208.60037	9512.6875
2211.52341	9496.5875
2214.44458	9487.0875
2217.36388	9456.9875
2220.28132	9427.3875
2223.1969	9419.0875
2226.11061	9421.9875
2229.02246	9395.1875
2231.93245	9393.5875
2234.84058	9423.9875
2237.74686	9380.6875
2240.65128	9394.7875
2243.55385	9357.2875
2246.45456	9350.4875
2249.35343	9335.1875
2252.25044	9327.4875
2255.14561	9312.6875
2258.03893	9284.0875
2260.93041	9266.9875
2263.82004	9248.5875
2266.70783	9226.2875
2269.59378	9195.0875
2272.4779	9176.3875
2275.36017	9196.7875
2278.24061	9165.4875
2281.11922	9126.7875
2283.996	9154.0875
2286.87094	9121.6875
2289.74405	9104.3875
2292.61534	9089.0875
2295.4848	9111.7875
2298.35243	9108.0875
2301.21824	9107.1875
2304.08223	9105.8875
2306.94439	9102.0875
2309.80474	9089.9875
2312.66327	9080.8875
2315.51999	9066.1875
2318.37489	9077.0875
2321.22797	9056.1875
2324.07925	9040.0875
2326.92871	9039.4875
2329.77637	9046.8875
2332.62222	9003.9875
2335.46626	8983.6875
2338.3085	8977.5875
2341.14893	9016.3875
2343.98756	8988.8875
2346.8244	8976.9875
2349.65943	8980.6875
2352.49267	8978.0875
2355.32411	8983.1875
2358.15376	8984.2875
2360.98161	8956.4875
2363.80768	8959.0875
2366.63195	8972.0875
2369.45444	8970.3875
2372.27514	8986.5875
2375.09405	8944.3875
2377.91118	8926.4875
2380.72652	8891.6875
2383.54009	8894.1875
2386.35187	8862.5875
2389.16188	8823.2875
2391.97011	8820.6875
2394.77657	8816.0875
2397.58125	8793.9875
2400.38416	8808.4875
2403.18529	8781.2875
2405.98466	8785.0875
2408.78226	8760.4875
2411.57809	8777.4875
2414.37216	8739.8875
2417.16446	8729.4875
2419.955	8717.9875
2422.74378	8747.4875
2425.5308	8740.6875
2428.31606	8723.6875
2431.09956	8712.6875
2433.88131	8698.7875
2436.6613	8707.0875
2439.43954	8703.0875
2442.21603	8702.0875
2444.99077	8705.4875
2447.76377	8708.7875
2450.53501	8686.5875
2453.30451	8680.4875
2456.07226	8671.5875
2458.83827	8666.7875
2461.60254	8669.1875
2464.36507	8674.5875
2467.12586	8648.1875
2469.88492	8662.7875
2472.64224	8678.4875
2475.39782	8657.2875
2478.15167	8688.2875
2480.90379	8654.1875
2483.65417	8673.3875
2486.40283	8648.8875
2489.14976	8665.1875
2491.89497	8649.7875
2494.63845	8670.2875
2497.3802	8665.1875
2500.12024	8662.1875
2502.85855	8627.4875
2505.59514	8632.9875
2508.33002	8627.5875
2511.06318	8614.0875
2513.79462	8609.7875
2516.52435	8602.9875
2519.25237	8624.7875
2521.97867	8582.8875
2524.70327	8586.6875
2527.42616	8583.3875
2530.14734	8567.9875
2532.86681	8570.1875
2535.58458	8571.1875
2538.30065	8566.7875
2541.01501	8558.3875
2543.72768	8556.2875
2546.43864	8553.2875
2549.14791	8538.8875
2551.85548	8519.6875
2554.56136	8496.1875
2557.26554	8494.2875
2559.96803	8469.4875
2562.66883	8488.8875
2565.36794	8483.5875
2568.06536	8459.7875
2570.7611	8468.0875
2573.45514	8455.5875
2576.14751	8439.6875
2578.83819	8442.8875
2581.52719	8438.2875
2584.21451	8447.9875
2586.90015	8401.4875
2589.58411	8406.9875
2592.2664	8396.7875
2594.94701	8390.0875
2597.62594	8379.3875
2600.30321	8373.3875
2602.9788	8351.4875
2605.65273	8341.6875
2608.32498	8334.8875
2610.99557	8334.6875
2613.66449	8334.5875
2616.33175	8322.9875
2618.99734	8322.6875
2621.66128	8326.2875
2624.32355	8272.9875
2626.98416	8291.7875
2629.64311	8280.1875
2632.30041	8296.5875
2634.95605	8272.9875
2637.61004	8262.2875
2640.26238	8231.8875
2642.91306	8255.3875
2645.56209	8264.2875
2648.20948	8239.5875
2650.85521	8260.3875
2653.4993	8255.9875
2656.14175	8267.9875
2658.78255	8261.9875
2661.42171	8273.5875
2664.05923	8293.8875
2666.6951	8276.3875
2669.32934	8304.3875
2671.96194	8286.7875
2674.59291	8270.2875
2677.22224	8293.6875
2679.84993	8283.3875
2682.476	8283.9875
2685.10043	8289.6875
2687.72324	8256.7875
2690.34441	8285.4875
2692.96396	8276.0875
2695.58188	8284.4875
2698.19818	8279.6875
2700.81285	8257.2875
2703.4259	8257.6875
2706.03733	8240.1875
2708.64714	8256.3875
2711.25533	8286.8875
2713.86191	8271.2875
2716.46687	8300.8875
2719.07021	8313.4875
2721.67194	8305.9875
2724.27206	8310.9875
2726.87057	8308.3875
2729.46747	8315.9875
2732.06276	8309.6875
2734.65644	8313.3875
2737.24852	8304.2875
2739.83899	8313.4875
2742.42786	8297.6875
2745.01513	8284.9875
2747.60079	8303.8875
2750.18486	8266.1875
2752.76733	8268.6875
2755.3482	8251.2875
2757.92747	8287.6875
2760.50515	8248.6875
2763.08123	8261.0875
2765.65573	8256.4875
2768.22863	8242.1875
2770.79994	8253.2875
2773.36967	8279.5875
2775.9378	8233.9875
2778.50435	8244.1875
2781.06932	8217.9875
2783.6327	8224.3875
2786.1945	8211.7875
2788.75471	8227.6875
2791.31335	8184.1875
2793.87041	8185.0875
2796.42589	8164.0875
2798.97979	8184.1875
2801.53212	8152.4875
2804.08288	8148.0875
2806.63206	8141.8875
2809.17967	8109.7875
2811.72571	8085.8875
2814.27018	8092.2875
2816.81308	8059.2875
2819.35442	8056.0875
2821.89419	8039.6875
2824.43239	8033.4875
2826.96904	8043.2875
2829.50412	8031.8875
2832.03763	8024.6875
2834.56959	8033.3875
2837.1	8043.4875
2839.62884	8021.0875
2842.15613	8004.7875
2844.68186	8028.6875
2847.20604	8032.4875
2849.72867	8041.9875
2852.24974	8026.9875
2854.76927	8012.3875
2857.28724	8008.2875
2859.80367	8006.4875
2862.31855	7998.2875
2864.83189	7991.3875
2867.34368	7992.1875
2869.85393	7989.2875
2872.36264	7999.6875
2874.8698	7977.6875
2877.37543	7985.8875
2879.87952	7995.6875
2882.38207	7969.0875
2884.88308	7988.3875
2887.38256	8007.8875
2889.88051	7998.8875
2892.37692	8004.3875
2894.8718	8007.6875
2897.36515	8002.7875
2899.85698	8019.9875
2902.34727	8032.5875
2904.83604	8036.1875
2907.32328	8039.0875
2909.809	8026.2875
2912.29319	8027.1875
2914.77587	8033.6875
2917.25702	8021.6875
2919.73665	8008.7875
2922.21476	8020.0875
2924.69136	7989.8875
2927.16644	8016.6875
2929.64	8003.9875
2932.11205	8000.8875
2934.58258	7989.1875
2937.05161	7992.8875
2939.51912	7996.3875
2941.98513	7982.9875
2944.44962	7949.4875
2946.91261	7923.4875
2949.37409	7946.4875
2951.83407	7920.1875
2954.29254	7913.1875
2956.74951	7897.5875
2959.20498	7902.4875
2961.65895	7875.6875
2964.11142	7862.5875
2966.56239	7832.8875
2969.01186	7849.6875
2971.45984	7804.4875
2973.90632	7821.0875
2976.35131	7800.3875
2978.7948	7775.0875
2981.23681	7752.5875
2983.67732	7769.8875
2986.11635	7727.8875
2988.55388	7714.1875
2990.98993	7665.3875
2993.4245	7662.8875
2995.85758	7660.7875
2998.28917	7624.3875
3000.71928	7601.2875
3003.14791	7578.3875
3005.57506	7604.9875
3008.00073	7573.0875
3010.42493	7563.0875
3012.84764	7542.1875
3015.26888	7540.8875
3017.68865	7524.8875
3020.10694	7494.9875
3022.52376	7490.4875
3024.9391	7507.1875
3027.35298	7484.6875
3029.76539	7504.8875
3032.17632	7484.4875
3034.5858	7465.1875
3036.9938	7463.0875
3039.40034	7448.1875
3041.80542	7442.0875
3044.20903	7451.1875
3046.61118	7445.1875
3049.01187	7429.7875
3051.4111	7414.4875
3053.80888	7506.9875
3056.20519	7483.7875
3058.60005	7380.7875
3060.99345	7347.2875
3063.3854	7324.8875
3065.7759	7310.9875
3068.16494	7304.2875
3070.55254	7278.5875
