Data from AgNPs_FTO_APTES_UA_1uM_CRN_200uM_R6G_10uM_NaF_0.1M_Addition_RamanShift__27__17-36-29-848.txt Node

Date: Thu Jan 27 17:36:29 GMT 2022
User: TCL
Spectrometer: QEP01345
Trigger mode: 4
Integration Time (sec): 7.000000E0
Scans to average: 10
Electric dark correction enabled: true
Nonlinearity correction enabled: false
Boxcar width: 0
XAxis mode: Raman Shifts
Number of Pixels in Spectrum: 1044
>>>>>Begin Spectral Data<<<<<
46.04893	-0.475
50.45542	2.125
54.85868	-0.075
59.25871	-0.675
63.6555	48.725
68.04907	50.725
72.43941	54.925
76.82654	56.125
81.21044	59.425
85.59113	58.825
89.96862	63.125
94.34289	64.125
98.71396	67.125
103.08183	69.025
107.4465	74.225
111.80798	74.425
116.16626	74.425
120.52136	77.525
124.87327	78.025
129.222	79.825
133.56755	82.025
137.90993	86.625
142.24913	93.325
146.58517	104.125
150.91804	115.825
155.24774	136.025
159.57429	158.425
163.89768	209.125
168.21792	267.925
172.53501	360.025
176.84895	491.925
181.15975	692.025
185.46741	960.325
189.77193	1329.025
194.07331	1774.225
198.37157	2298.525
202.6667	2846.925
206.9587	3385.725
211.24758	3937.825
215.53334	4491.025
219.81599	5097.825
224.09553	5772.325
228.37195	6534.225
232.64527	7324.925
236.91549	8171.225
241.18261	8963.425
245.44663	9674.725
249.70755	10282.225
253.96539	10716.625
258.22014	11168.025
262.4718	11538.425
266.72039	11821.225
270.96589	11997.925
275.20832	12018.225
279.44768	11889.125
283.68397	11713.925
287.91719	11534.725
292.14735	11481.725
296.37445	11595.525
300.59849	11901.125
304.81948	12262.225
309.03742	12540.325
313.25231	12470.425
317.46415	11972.425
321.67296	11269.325
325.87872	10681.325
330.08145	10383.925
334.28114	10341.425
338.47781	10494.225
342.67145	10728.825
346.86207	11094.625
351.04966	11625.825
355.23424	12197.425
359.4158	12692.925
363.59435	12916.325
367.76989	13040.425
371.94243	13083.325
376.11196	13090.225
380.27849	13110.125
384.44203	13063.125
388.60257	12936.225
392.76012	12846.725
396.91468	12969.925
401.06626	13217.725
405.21485	13413.225
409.36047	13261.825
413.50311	12724.425
417.64277	12208.025
421.77947	11907.525
425.9132	11806.325
430.04396	11777.825
434.17176	11860.625
438.2966	12018.925
442.41849	12283.625
446.53742	12644.525
450.6534	12993.825
454.76644	13216.625
458.87653	13301.625
462.98368	13166.125
467.08789	12979.125
471.18916	12748.425
475.2875	12514.925
479.38291	12341.625
483.4754	12167.125
487.56496	12008.025
491.6516	11867.725
495.73531	11777.425
499.81612	11771.225
503.89401	11850.425
507.96899	11992.325
512.04106	12104.125
516.11023	12308.225
520.1765	12416.025
524.23987	12390.425
528.30034	12228.425
532.35792	12036.125
536.41261	11847.225
540.46441	11623.025
544.51333	11546.425
548.55936	11555.325
552.60252	11740.425
556.64279	11964.625
560.6802	12117.125
564.71473	12247.025
568.7464	12597.925
572.7752	12850.425
576.80114	12662.125
580.82422	12309.525
584.84444	12208.025
588.86181	12254.825
592.87633	12433.725
596.888	12648.625
600.89682	12868.625
604.9028	13760.625
608.90594	16494.725
612.90624	20354.525
616.90371	20027.125
620.89834	14965.525
624.89015	12467.425
628.87913	11991.025
632.86528	12016.325
636.84862	12094.325
640.82913	11945.125
644.80683	11586.925
648.78172	11287.725
652.75379	11294.725
656.72306	11605.525
660.68952	12031.125
664.65319	12013.525
668.61405	11597.025
672.57211	11378.625
676.52738	11390.025
680.47986	11370.425
684.42955	11342.925
688.37646	11291.325
692.32058	11308.425
696.26192	11360.725
700.20048	11449.025
704.13626	11528.425
708.06928	11483.125
711.99952	11369.825
715.927	11342.625
719.85171	11357.125
723.77365	11388.725
727.69284	11313.425
731.60928	11279.025
735.52295	11254.025
739.43388	11333.625
743.34206	11356.325
747.24749	11363.525
751.15017	11408.225
755.05012	11560.025
758.94733	11870.025
762.8418	12728.025
766.73354	14243.225
770.62254	16045.025
774.50882	17122.925
778.39237	16630.925
782.27321	14783.825
786.15132	12987.825
790.02671	11940.225
793.89938	11515.925
797.76935	11321.325
801.6366	11229.825
805.50115	11160.625
809.36299	11145.325
813.22213	11102.925
817.07857	11089.825
820.93231	11076.725
824.78336	11090.525
828.63172	11151.925
832.47738	11150.325
836.32036	11170.325
840.16066	11137.525
843.99827	11142.425
847.8332	11138.325
851.66546	11059.325
855.49504	11090.025
859.32195	11077.025
863.1462	11046.125
866.96777	11039.825
870.78668	11011.125
874.60293	10985.325
878.41652	10975.525
882.22745	11037.125
886.03573	11082.425
889.84136	11097.925
893.64433	11009.725
897.44466	10947.125
901.24235	10952.425
905.0374	10905.025
908.8298	10879.825
912.61957	10842.125
916.40671	10913.925
920.19121	10995.125
923.97308	11090.425
927.75233	11207.025
931.52895	11319.725
935.30295	11268.425
939.07433	11019.425
942.84309	10801.025
946.60924	10655.225
950.37278	10554.725
954.13371	10486.325
957.89203	10449.025
961.64774	10406.925
965.40086	10372.025
969.15137	10316.425
972.89929	10271.625
976.64461	10281.525
980.38733	10269.925
984.12747	10304.825
987.86502	10374.925
991.59999	10472.325
995.33237	10597.425
999.06217	10852.825
1002.78939	11115.925
1006.51404	11265.225
1010.23611	11387.025
1013.95561	11492.125
1017.67255	11477.625
1021.38692	11368.725
1025.09872	11239.225
1028.80796	11256.425
1032.51465	11400.125
1036.21877	11573.425
1039.92035	11627.325
1043.61937	11567.325
1047.31584	11402.525
1051.00976	11245.025
1054.70114	11156.725
1058.38998	11117.525
1062.07627	11156.225
1065.76003	11177.325
1069.44126	11179.025
1073.11995	11270.925
1076.79611	11364.725
1080.46974	11491.825
1084.14085	11667.825
1087.80943	11839.325
1091.47549	11951.525
1095.13903	11837.225
1098.80005	11560.725
1102.45857	11313.125
1106.11456	11195.125
1109.76805	11267.525
1113.41903	11456.325
1117.06751	11754.125
1120.71348	12082.825
1124.35696	12461.525
1127.99793	12783.525
1131.63641	12826.225
1135.2724	12385.525
1138.90589	11900.025
1142.5369	11595.825
1146.16542	11375.025
1149.79145	11313.625
1153.415	11265.625
1157.03607	11318.925
1160.65467	11465.825
1164.27079	11799.525
1167.88443	12309.425
1171.49561	13085.825
1175.10432	14394.925
1178.71056	16076.125
1182.31434	17500.425
1185.91565	17891.325
1189.51451	17489.925
1193.11091	16524.725
1196.70485	15367.325
1200.29634	14470.325
1203.88538	13830.725
1207.47197	13250.125
1211.05612	12699.925
1214.63782	12429.025
1218.21708	12348.825
1221.79391	12399.225
1225.36829	12460.825
1228.94024	12410.025
1232.50976	12285.825
1236.07685	12240.925
1239.6415	12196.025
1243.20374	12221.525
1246.76355	12281.625
1250.32093	12420.525
1253.8759	12654.725
1257.42845	12944.025
1260.97859	13276.925
1264.52631	13584.225
1268.07163	13937.925
1271.61453	14256.025
1275.15503	14566.525
1278.69312	14730.625
1282.22882	14882.625
1285.76211	15091.225
1289.29301	15432.925
1292.82151	15882.325
1296.34761	16418.725
1299.87133	17171.525
1303.39266	18337.725
1306.9116	20035.825
1310.42815	22077.725
1313.94233	23387.025
1317.45412	23156.325
1320.96354	21773.725
1324.47058	20248.825
1327.97525	18868.325
1331.47754	17954.025
1334.97747	17587.825
1338.47502	17607.325
1341.97022	17915.025
1345.46305	18233.225
1348.95352	18800.225
1352.44163	19813.025
1355.92738	21439.325
1359.41078	24013.025
1362.89183	26704.425
1366.37053	26490.325
1369.84688	22977.025
1373.32088	19169.925
1376.79254	16735.525
1380.26186	15538.625
1383.72883	15035.425
1387.19347	14733.125
1390.65578	14349.425
1394.11575	14040.225
1397.57339	13977.625
1401.0287	14088.325
1404.48168	14315.825
1407.93234	14467.325
1411.38068	14570.725
1414.82669	14494.525
1418.27039	14256.125
1421.71177	13944.025
1425.15083	13647.125
1428.58758	13468.225
1432.02203	13507.825
1435.45416	13629.725
1438.88399	13779.925
1442.31151	13802.925
1445.73673	13895.625
1449.15965	13983.825
1452.58027	14025.625
1455.9986	13912.025
1459.41463	13849.125
1462.82837	13956.625
1466.23982	14195.425
1469.64898	14518.325
1473.05586	14732.225
1476.46045	14811.125
1479.86276	14935.725
1483.26279	15119.825
1486.66054	15323.325
1490.05602	15603.925
1493.44922	16028.325
1496.84016	16590.625
1500.22882	17564.425
1503.61521	19057.225
1506.99934	20957.625
1510.38121	22900.225
1513.76081	23988.025
1517.13816	23160.825
1520.51324	20793.525
1523.88607	18290.725
1527.25665	16540.425
1530.62498	15550.225
1533.99105	15020.125
1537.35488	14705.325
1540.71647	14547.925
1544.07581	14430.525
1547.4329	14409.325
1550.78776	14344.425
1554.14038	14353.225
1557.49077	14442.225
1560.83892	14611.925
1564.18484	14847.325
1567.52853	15118.925
1570.86999	15380.125
1574.20922	15605.225
1577.54624	15594.025
1580.88103	15210.825
1584.2136	14498.425
1587.54395	14180.425
1590.87208	14383.025
1594.19801	15115.925
1597.52172	16133.525
1600.84321	16785.825
1604.16251	16404.925
1607.47959	15380.325
1610.79447	14230.225
1614.10715	13180.625
1617.41763	12305.025
1620.7259	11807.125
1624.03199	11556.225
1627.33587	11575.725
1630.63757	11784.025
1633.93707	12282.725
1637.23439	13029.925
1640.52951	14118.025
1643.82246	15526.425
1647.11321	17151.325
1650.40179	18271.325
1653.68819	17877.025
1656.97241	15890.425
1660.25446	13596.425
1663.53433	11937.625
1666.81203	11050.925
1670.08756	10497.625
1673.36092	10177.225
1676.63211	9984.225
1679.90115	9815.925
1683.16801	9690.525
1686.43272	9624.125
1689.69527	9547.225
1692.95567	9495.025
1696.2139	9416.525
1699.46999	9377.525
1702.72392	9339.525
1705.97571	9338.325
1709.22535	9378.625
1712.47284	9392.025
1715.71819	9408.525
1718.96139	9411.625
1722.20246	9399.725
1725.44139	9392.125
1728.67818	9359.825
1731.91284	9313.025
1735.14537	9254.525
1738.37576	9209.625
1741.60403	9190.625
1744.83017	9169.725
1748.05418	9126.625
1751.27607	9093.625
1754.49584	9091.825
1757.71349	9066.725
1760.92903	9023.025
1764.14244	9006.425
1767.35375	9020.625
1770.56294	8976.325
1773.77002	8958.425
1776.97499	8967.625
1780.17785	8971.425
1783.37861	8979.325
1786.57727	8967.525
1789.77382	8960.525
1792.96828	8934.425
1796.16064	8936.825
1799.3509	8904.525
1802.53907	8904.425
1805.72514	8883.725
1808.90913	8863.925
1812.09102	8820.125
1815.27083	8825.525
1818.44856	8806.125
1821.6242	8807.325
1824.79776	8766.725
1827.96924	8763.025
1831.13864	8752.425
1834.30597	8767.025
1837.47122	8761.425
1840.6344	8737.325
1843.7955	8744.125
1846.95454	8710.125
1850.11151	8729.125
1853.26642	8741.125
1856.41926	8727.225
1859.57004	8734.925
1862.71876	8743.725
1865.86542	8739.425
1869.01003	8745.925
1872.15258	8722.725
1875.29308	8723.525
1878.43152	8716.925
1881.56792	8694.425
1884.70227	8704.725
1887.83457	8709.525
1890.96482	8688.725
1894.09304	8689.925
1897.21921	8689.425
1900.34335	8690.025
1903.46544	8678.025
1906.58551	8702.125
1909.70353	8667.625
1912.81953	8673.425
1915.93349	8666.225
1919.04543	8658.125
1922.15534	8647.125
1925.26322	8645.425
1928.36908	8622.625
1931.47292	8590.425
1934.57473	8587.425
1937.67453	8545.925
1940.77232	8531.925
1943.86808	8490.625
1946.96184	8445.525
1950.05358	8427.625
1953.14331	8397.425
1956.23103	8392.125
1959.31675	8403.725
1962.40046	8345.425
1965.48217	8355.225
1968.56188	8295.925
1971.63959	8268.725
1974.7153	8280.225
1977.78901	8257.225
1980.86073	8221.425
1983.93046	8191.925
1986.99819	8159.925
1990.06394	8139.825
1993.1277	8110.125
1996.18947	8087.725
1999.24925	8081.725
2002.30706	8031.825
2005.36288	8010.925
2008.41672	7993.025
2011.46859	7972.325
2014.51848	7959.025
2017.56639	7939.925
2020.61233	7912.525
2023.6563	7913.125
2026.6983	7870.525
2029.73833	7866.325
2032.7764	7851.325
2035.8125	7838.225
2038.84664	7817.825
2041.87881	7825.525
2044.90903	7792.625
2047.93729	7789.225
2050.96359	7799.625
2053.98794	7761.525
2057.01034	7772.625
2060.03078	7760.625
2063.04927	7743.625
2066.06582	7734.725
2069.08042	7747.025
2072.09307	7753.925
2075.10378	7720.825
2078.11255	7728.825
2081.11938	7738.225
2084.12426	7724.625
2087.12722	7714.325
2090.12824	7706.125
2093.12732	7690.925
2096.12447	7699.425
2099.11969	7710.325
2102.11299	7709.625
2105.10435	7731.625
2108.09379	7719.425
2111.08131	7738.325
2114.0669	7735.025
2117.05057	7746.925
2120.03233	7734.025
2123.01216	7755.825
2125.99008	7768.625
2128.96609	7772.125
2131.94018	7774.825
2134.91236	7787.625
2137.88263	7788.225
2140.851	7802.725
2143.81746	7797.925
2146.78201	7797.625
2149.74466	7801.625
2152.7054	7779.725
2155.66425	7791.525
2158.6212	7766.025
2161.57625	7758.025
2164.52941	7767.125
2167.48067	7773.525
2170.43004	7780.325
2173.37752	7781.625
2176.32311	7769.025
2179.26681	7767.325
2182.20863	7778.125
2185.14856	7776.225
2188.08661	7769.825
2191.02278	7775.525
2193.95707	7780.725
2196.88948	7764.825
2199.82001	7762.725
2202.74867	7751.725
2205.67545	7765.025
2208.60037	7729.725
2211.52341	7741.325
2214.44458	7714.925
2217.36388	7715.225
2220.28132	7706.725
2223.1969	7724.825
2226.11061	7686.625
2229.02246	7673.225
2231.93245	7656.525
2234.84058	7648.125
2237.74686	7631.425
2240.65128	7644.525
2243.55385	7608.725
2246.45456	7601.225
2249.35343	7598.225
2252.25044	7586.825
2255.14561	7570.925
2258.03893	7567.425
2260.93041	7568.625
2263.82004	7530.625
2266.70783	7531.225
2269.59378	7520.425
2272.4779	7490.825
2275.36017	7497.525
2278.24061	7485.825
2281.11922	7464.225
2283.996	7473.625
2286.87094	7439.025
2289.74405	7405.825
2292.61534	7413.125
2295.4848	7379.525
2298.35243	7401.625
2301.21824	7399.725
2304.08223	7414.925
2306.94439	7430.025
2309.80474	7412.825
2312.66327	7410.225
2315.51999	7417.325
2318.37489	7388.825
2321.22797	7390.225
2324.07925	7392.225
2326.92871	7384.425
2329.77637	7372.925
2332.62222	7372.925
2335.46626	7353.525
2338.3085	7362.025
2341.14893	7354.725
2343.98756	7362.325
2346.8244	7371.725
2349.65943	7355.925
2352.49267	7361.525
2355.32411	7368.525
2358.15376	7369.625
2360.98161	7359.925
2363.80768	7366.325
2366.63195	7363.125
2369.45444	7361.725
2372.27514	7346.625
2375.09405	7355.425
2377.91118	7312.825
2380.72652	7289.325
2383.54009	7262.025
2386.35187	7245.025
2389.16188	7229.225
2391.97011	7213.125
2394.77657	7193.125
2397.58125	7165.425
2400.38416	7166.825
2403.18529	7156.625
2405.98466	7138.825
2408.78226	7132.925
2411.57809	7128.425
2414.37216	7121.625
2417.16446	7111.325
2419.955	7102.925
2422.74378	7104.025
2425.5308	7100.625
2428.31606	7100.625
2431.09956	7095.325
2433.88131	7087.225
2436.6613	7065.125
2439.43954	7054.125
2442.21603	7069.025
2444.99077	7091.125
2447.76377	7076.425
2450.53501	7042.225
2453.30451	7066.425
2456.07226	7055.725
2458.83827	7052.425
2461.60254	7060.025
2464.36507	7059.225
2467.12586	7044.525
2469.88492	7033.925
2472.64224	7056.025
2475.39782	7032.525
2478.15167	7037.925
2480.90379	7028.125
2483.65417	7041.325
2486.40283	7059.525
2489.14976	7076.525
2491.89497	7068.225
2494.63845	7081.325
2497.3802	7062.625
2500.12024	7056.425
2502.85855	7037.625
2505.59514	7044.825
2508.33002	7034.425
2511.06318	7019.625
2513.79462	6979.125
2516.52435	6978.925
2519.25237	6971.825
2521.97867	6970.325
2524.70327	6950.925
2527.42616	6948.825
2530.14734	6941.125
2532.86681	6939.125
2535.58458	6908.825
2538.30065	6914.825
2541.01501	6907.825
2543.72768	6906.125
2546.43864	6901.125
2549.14791	6874.625
2551.85548	6877.825
2554.56136	6863.525
2557.26554	6852.425
2559.96803	6869.125
2562.66883	6844.925
2565.36794	6857.825
2568.06536	6844.825
2570.7611	6828.725
2573.45514	6834.225
2576.14751	6811.225
2578.83819	6798.925
2581.52719	6799.325
2584.21451	6779.925
2586.90015	6794.525
2589.58411	6769.925
2592.2664	6774.225
2594.94701	6759.725
2597.62594	6770.525
2600.30321	6740.825
2602.9788	6749.425
2605.65273	6733.325
2608.32498	6723.525
2610.99557	6726.725
2613.66449	6736.525
2616.33175	6748.725
2618.99734	6727.825
2621.66128	6707.825
2624.32355	6714.225
2626.98416	6707.425
2629.64311	6709.325
2632.30041	6688.025
2634.95605	6682.525
2637.61004	6669.425
2640.26238	6664.925
2642.91306	6648.525
2645.56209	6652.125
2648.20948	6647.825
2650.85521	6625.525
2653.4993	6632.525
2656.14175	6648.525
2658.78255	6633.725
2661.42171	6638.825
2664.05923	6662.625
2666.6951	6648.125
2669.32934	6667.425
2671.96194	6654.525
2674.59291	6690.225
2677.22224	6665.225
2679.84993	6666.925
2682.476	6660.425
2685.10043	6654.725
2687.72324	6638.025
2690.34441	6637.125
2692.96396	6665.025
2695.58188	6667.125
2698.19818	6650.225
2700.81285	6660.025
2703.4259	6639.325
2706.03733	6626.425
2708.64714	6622.125
2711.25533	6664.125
2713.86191	6659.125
2716.46687	6673.525
2719.07021	6659.025
2721.67194	6686.625
2724.27206	6663.725
2726.87057	6676.025
2729.46747	6692.825
2732.06276	6663.325
2734.65644	6652.225
2737.24852	6656.925
2739.83899	6647.625
2742.42786	6637.125
2745.01513	6629.625
2747.60079	6638.125
2750.18486	6627.325
2752.76733	6614.125
2755.3482	6617.625
2757.92747	6632.225
2760.50515	6590.325
2763.08123	6604.125
2765.65573	6607.425
2768.22863	6618.925
2770.79994	6579.225
2773.36967	6582.025
2775.9378	6592.125
2778.50435	6586.225
2781.06932	6560.725
2783.6327	6570.125
2786.1945	6561.825
2788.75471	6555.325
2791.31335	6551.825
2793.87041	6540.125
2796.42589	6536.125
2798.97979	6550.025
2801.53212	6518.325
2804.08288	6500.625
2806.63206	6510.825
2809.17967	6502.025
2811.72571	6483.925
2814.27018	6478.825
2816.81308	6480.725
2819.35442	6475.025
2821.89419	6473.825
2824.43239	6478.325
2826.96904	6493.025
2829.50412	6461.325
2832.03763	6493.625
2834.56959	6477.325
2837.1	6491.325
2839.62884	6488.225
2842.15613	6516.625
2844.68186	6576.825
2847.20604	6596.025
2849.72867	6637.825
2852.24974	6652.425
2854.76927	6621.625
2857.28724	6605.225
2859.80367	6590.125
2862.31855	6601.925
2864.83189	6568.225
2867.34368	6579.225
2869.85393	6593.525
2872.36264	6570.125
2874.8698	6573.725
2877.37543	6579.325
2879.87952	6576.725
2882.38207	6556.925
2884.88308	6560.125
2887.38256	6584.125
2889.88051	6564.225
2892.37692	6569.025
2894.8718	6567.925
2897.36515	6582.425
2899.85698	6585.325
2902.34727	6611.325
2904.83604	6595.725
2907.32328	6614.925
2909.809	6614.325
2912.29319	6626.725
2914.77587	6625.025
2917.25702	6608.125
2919.73665	6605.125
2922.21476	6604.725
2924.69136	6606.825
2927.16644	6602.525
2929.64	6593.525
2932.11205	6593.425
2934.58258	6559.525
2937.05161	6569.925
2939.51912	6570.425
2941.98513	6533.625
2944.44962	6500.525
2946.91261	6473.125
2949.37409	6477.025
2951.83407	6446.025
2954.29254	6450.725
2956.74951	6415.325
2959.20498	6427.825
2961.65895	6416.225
2964.11142	6411.625
2966.56239	6396.325
2969.01186	6362.325
2971.45984	6354.325
2973.90632	6353.825
2976.35131	6326.325
2978.7948	6313.025
2981.23681	6312.525
2983.67732	6285.325
2986.11635	6274.025
2988.55388	6252.025
2990.98993	6251.525
2993.4245	6239.825
2995.85758	6244.925
2998.28917	6225.925
3000.71928	6217.025
3003.14791	6191.725
3005.57506	6193.425
3008.00073	6170.825
3010.42493	6173.925
3012.84764	6169.525
3015.26888	6175.825
3017.68865	6134.125
3020.10694	6146.625
3022.52376	6129.025
3024.9391	6129.825
3027.35298	6140.525
3029.76539	6122.925
3032.17632	6113.325
3034.5858	6106.225
3036.9938	6107.425
3039.40034	6100.225
3041.80542	6085.525
3044.20903	6080.325
3046.61118	6081.225
3049.01187	6054.925
3051.4111	6063.325
3053.80888	6049.125
3056.20519	6043.525
3058.60005	6029.925
3060.99345	6013.025
3063.3854	5999.825
3065.7759	5983.225
3068.16494	5987.225
3070.55254	5986.825
3072.93868	5960.725
3075.32338	5956.325
3077.70662	5946.925
3080.08842	5915.125
3082.46878	5921.525
3084.84769	5940.025
3087.22515	5924.025
3089.60118	5920.225
3091.97576	5931.825
3094.3489	5941.925
3096.72061	5937.425
3099.09087	5938.825
3101.4597	5937.525
3103.82709	5935.025
3106.19305	5933.225
3108.55757	5939.925
3110.92066	5915.925
3113.28232	5908.025
3115.64255	5892.325
3118.00134	5920.825
3120.35871	5874.825
3122.71466	5896.325
3125.06917	5878.025
3127.42226	5866.225
3129.77393	5862.025
3132.12417	5877.425
3134.47299	5878.325
3136.82039	5873.725
3139.16636	5899.525
3141.51092	5888.125
3143.85406	5925.625
3146.19579	5912.925
3148.53609	5899.125
3150.87499	5929.625
3153.21246	5930.625
3155.54853	5934.325
3157.88318	5953.025
3160.21642	5956.025
3162.54826	5961.225
3164.87868	5970.625
3167.2077	5948.425
3169.5353	5944.425
3171.86151	5951.725
3174.18631	5977.625
3176.5097	5946.225
3178.83169	5944.625
3181.15228	5942.525
3183.47147	5934.325
3185.78926	5933.325
3188.10565	5948.025
3190.42065	5940.025
