Data from AgNPs_FTO_APTES_UA_1uM_CRN_5uM_R6G_10uM_NaF_0.1M_Addition_RamanShift__17__13-55-59-597.txt Node

Date: Thu Jan 27 13:55:59 GMT 2022
User: TCL
Spectrometer: QEP01345
Trigger mode: 4
Integration Time (sec): 7.000000E0
Scans to average: 10
Electric dark correction enabled: true
Nonlinearity correction enabled: false
Boxcar width: 0
XAxis mode: Raman Shifts
Number of Pixels in Spectrum: 1044
>>>>>Begin Spectral Data<<<<<
46.04893	2.075
50.45542	-0.125
54.85868	-2.325
59.25871	-0.625
63.6555	48.175
68.04907	54.375
72.43941	54.975
76.82654	60.075
81.21044	59.575
85.59113	59.175
89.96862	62.375
94.34289	65.975
98.71396	70.475
103.08183	69.175
107.4465	74.275
111.80798	75.175
116.16626	74.575
120.52136	84.075
124.87327	82.875
129.222	81.575
133.56755	86.275
137.90993	89.675
142.24913	99.475
146.58517	110.275
150.91804	125.075
155.24774	146.475
159.57429	176.075
163.89768	225.875
168.21792	295.175
172.53501	391.175
176.84895	544.975
181.15975	758.675
185.46741	1060.075
189.77193	1461.275
194.07331	1942.675
198.37157	2512.775
202.6667	3090.075
206.9587	3679.875
211.24758	4240.975
215.53334	4797.875
219.81599	5421.575
224.09553	6067.975
228.37195	6828.575
232.64527	7650.075
236.91549	8547.775
241.18261	9415.875
245.44663	10231.375
249.70755	10944.275
253.96539	11560.175
258.22014	12133.875
262.4718	12578.075
266.72039	12888.375
270.96589	13083.775
275.20832	13110.175
279.44768	13067.275
283.68397	12946.275
287.91719	12846.375
292.14735	12802.075
296.37445	12790.475
300.59849	12884.675
304.81948	12955.675
309.03742	12922.975
313.25231	12826.375
317.46415	12471.375
321.67296	12078.775
325.87872	11738.175
330.08145	11582.075
334.28114	11563.175
338.47781	11628.375
342.67145	11802.275
346.86207	12004.875
351.04966	12231.375
355.23424	12507.275
359.4158	12745.075
363.59435	12887.175
367.76989	13012.775
371.94243	13121.875
376.11196	13209.875
380.27849	13258.575
384.44203	13325.475
388.60257	13404.875
392.76012	13545.075
396.91468	13710.075
401.06626	13920.175
405.21485	14048.375
409.36047	13986.475
413.50311	13742.575
417.64277	13562.775
421.77947	13501.775
425.9132	13527.375
430.04396	13601.275
434.17176	13674.275
438.2966	13781.575
442.41849	13943.175
446.53742	14266.775
450.6534	14684.475
454.76644	14983.275
458.87653	15085.675
462.98368	15037.775
467.08789	14880.175
471.18916	14702.975
475.2875	14499.475
479.38291	14370.475
483.4754	14319.075
487.56496	14145.175
491.6516	13940.275
495.73531	13762.475
499.81612	13705.275
503.89401	13818.775
507.96899	13870.375
512.04106	13848.875
516.11023	13808.275
520.1765	13710.975
524.23987	13597.375
528.30034	13429.775
532.35792	13326.275
536.41261	13138.975
540.46441	12990.275
544.51333	13000.175
548.55936	13151.075
552.60252	13425.775
556.64279	13737.975
560.6802	13939.375
564.71473	13961.175
568.7464	14114.875
572.7752	14414.775
576.80114	14653.775
580.82422	14904.875
584.84444	15153.275
588.86181	15336.875
592.87633	15485.975
596.888	15552.875
600.89682	15579.175
604.9028	16052.375
608.90594	17504.275
612.90624	19097.975
616.90371	18087.275
620.89834	15165.375
624.89015	13888.875
628.87913	13834.775
632.86528	13838.875
636.84862	13708.375
640.82913	13447.675
644.80683	13094.275
648.78172	12815.775
652.75379	12718.375
656.72306	12868.875
660.68952	13115.875
664.65319	13060.575
668.61405	12821.175
672.57211	12726.775
676.52738	12716.175
680.47986	12727.875
684.42955	12663.775
688.37646	12604.375
692.32058	12658.275
696.26192	12790.275
700.20048	12937.575
704.13626	13009.675
708.06928	12985.675
711.99952	12882.175
715.927	12835.875
719.85171	12874.275
723.77365	12837.175
727.69284	12739.575
731.60928	12601.975
735.52295	12533.175
739.43388	12565.275
743.34206	12569.275
747.24749	12666.475
751.15017	12792.375
755.05012	12979.475
758.94733	13371.675
762.8418	14051.775
766.73354	15098.075
770.62254	16197.675
774.50882	16514.075
778.39237	15784.175
782.27321	14607.775
786.15132	13630.475
790.02671	13058.575
793.89938	12828.575
797.76935	12729.075
801.6366	12697.675
805.50115	12624.475
809.36299	12558.475
813.22213	12456.675
817.07857	12379.575
820.93231	12348.775
824.78336	12327.175
828.63172	12296.175
832.47738	12279.775
836.32036	12361.675
840.16066	12402.875
843.99827	12462.075
847.8332	12479.675
851.66546	12343.275
855.49504	12277.675
859.32195	12298.975
863.1462	12274.575
866.96777	12223.475
870.78668	12187.775
874.60293	12161.375
878.41652	12166.075
882.22745	12182.975
886.03573	12257.575
889.84136	12251.475
893.64433	12187.575
897.44466	12146.775
901.24235	12078.275
905.0374	12027.575
908.8298	12004.075
912.61957	12047.175
916.40671	12148.775
920.19121	12371.675
923.97308	12505.075
927.75233	12567.875
931.52895	12553.975
935.30295	12477.875
939.07433	12201.375
942.84309	11986.475
946.60924	11873.775
950.37278	11870.475
954.13371	11802.475
957.89203	11744.475
961.64774	11699.275
965.40086	11634.175
969.15137	11609.775
972.89929	11559.075
976.64461	11538.975
980.38733	11542.675
984.12747	11619.175
987.86502	11728.875
991.59999	11922.775
995.33237	12198.575
999.06217	12667.175
1002.78939	13168.975
1006.51404	13366.575
1010.23611	13454.975
1013.95561	13525.475
1017.67255	13512.975
1021.38692	13373.075
1025.09872	13282.775
1028.80796	13434.175
1032.51465	13994.175
1036.21877	14519.175
1039.92035	14608.475
1043.61937	14316.075
1047.31584	13837.075
1051.00976	13330.375
1054.70114	13094.875
1058.38998	13083.975
1062.07627	13080.275
1065.76003	13115.075
1069.44126	13152.475
1073.11995	13324.475
1076.79611	13501.375
1080.46974	13580.775
1084.14085	13716.875
1087.80943	13868.175
1091.47549	13923.275
1095.13903	13928.875
1098.80005	13747.475
1102.45857	13474.975
1106.11456	13251.375
1109.76805	13193.775
1113.41903	13215.475
1117.06751	13292.575
1120.71348	13407.075
1124.35696	13551.975
1127.99793	13717.075
1131.63641	13824.575
1135.2724	13736.675
1138.90589	13626.275
1142.5369	13522.175
1146.16542	13518.375
1149.79145	13521.375
1153.415	13598.775
1157.03607	13771.075
1160.65467	14040.075
1164.27079	14602.775
1167.88443	15346.975
1171.49561	16346.575
1175.10432	17633.975
1178.71056	19235.075
1182.31434	20773.275
1185.91565	21664.075
1189.51451	21666.175
1193.11091	20927.575
1196.70485	19919.075
1200.29634	18977.075
1203.88538	18280.975
1207.47197	17727.475
1211.05612	17280.875
1214.63782	16984.975
1218.21708	16791.175
1221.79391	16621.075
1225.36829	16621.775
1228.94024	16471.375
1232.50976	16169.675
1236.07685	15889.975
1239.6415	15680.975
1243.20374	15642.775
1246.76355	15717.875
1250.32093	15956.675
1253.8759	16328.075
1257.42845	16817.975
1260.97859	17303.975
1264.52631	17819.175
1268.07163	18296.875
1271.61453	18871.775
1275.15503	19483.275
1278.69312	20201.475
1282.22882	20736.975
1285.76211	21142.275
1289.29301	21569.175
1292.82151	22102.675
1296.34761	22947.175
1299.87133	24166.975
1303.39266	25732.675
1306.9116	27548.575
1310.42815	29340.375
1313.94233	30425.875
1317.45412	30375.975
1320.96354	29629.275
1324.47058	28759.575
1327.97525	27923.075
1331.47754	27394.175
1334.97747	27009.875
1338.47502	26843.775
1341.97022	26752.675
1345.46305	26548.675
1348.95352	26214.175
1352.44163	26048.175
1355.92738	26405.975
1359.41078	27575.175
1362.89183	28741.775
1366.37053	28376.575
1369.84688	26052.475
1373.32088	23339.275
1376.79254	21338.475
1380.26186	20440.175
1383.72883	20282.775
1387.19347	20215.975
1390.65578	19992.575
1394.11575	19848.475
1397.57339	20001.875
1401.0287	20374.175
1404.48168	20689.875
1407.93234	20789.175
1411.38068	20555.675
1414.82669	20036.875
1418.27039	19336.875
1421.71177	18581.275
1425.15083	17951.675
1428.58758	17609.775
1432.02203	17629.975
1435.45416	17951.775
1438.88399	18432.775
1442.31151	18849.475
1445.73673	19189.775
1449.15965	19435.875
1452.58027	19607.075
1455.9986	19640.075
1459.41463	19759.875
1462.82837	20040.175
1466.23982	20480.975
1469.64898	20908.375
1473.05586	21208.975
1476.46045	21236.875
1479.86276	21069.375
1483.26279	20805.675
1486.66054	20602.675
1490.05602	20549.175
1493.44922	20640.975
1496.84016	20818.275
1500.22882	21223.475
1503.61521	21958.175
1506.99934	22863.075
1510.38121	23713.975
1513.76081	23977.575
1517.13816	23481.575
1520.51324	22478.175
1523.88607	21527.175
1527.25665	20878.775
1530.62498	20546.375
1533.99105	20383.675
1537.35488	20244.975
1540.71647	20070.175
1544.07581	19838.475
1547.4329	19478.775
1550.78776	19182.975
1554.14038	18970.075
1557.49077	18866.275
1560.83892	18798.475
1564.18484	18755.875
1567.52853	18798.775
1570.86999	18918.175
1574.20922	19176.075
1577.54624	19310.075
1580.88103	19328.275
1584.2136	19318.575
1587.54395	19727.475
1590.87208	20607.175
1594.19801	21937.775
1597.52172	23358.375
1600.84321	23925.775
1604.16251	22999.375
1607.47959	21209.075
1610.79447	19393.275
1614.10715	17682.675
1617.41763	16338.175
1620.7259	15367.775
1624.03199	14902.375
1627.33587	14849.375
1630.63757	15236.575
1633.93707	16202.775
1637.23439	17619.475
1640.52951	19565.875
1643.82246	21692.075
1647.11321	23278.175
1650.40179	23566.175
1653.68819	22094.175
1656.97241	19434.475
1660.25446	16740.875
1663.53433	14722.775
1666.81203	13450.975
1670.08756	12634.675
1673.36092	12121.075
1676.63211	11792.175
1679.90115	11557.775
1683.16801	11358.275
1686.43272	11228.475
1689.69527	11123.775
1692.95567	11022.875
1696.2139	10966.775
1699.46999	10907.375
1702.72392	10832.475
1705.97571	10831.375
1709.22535	10843.175
1712.47284	10856.575
1715.71819	10857.375
1718.96139	10828.775
1722.20246	10814.075
1725.44139	10761.075
1728.67818	10701.075
1731.91284	10665.075
1735.14537	10599.075
1738.37576	10536.975
1741.60403	10470.475
1744.83017	10460.975
1748.05418	10429.975
1751.27607	10393.175
1754.49584	10359.275
1757.71349	10352.275
1760.92903	10314.575
1764.14244	10306.075
1767.35375	10298.475
1770.56294	10295.075
1773.77002	10287.175
1776.97499	10271.575
1780.17785	10273.275
1783.37861	10253.375
1786.57727	10264.275
1789.77382	10256.575
1792.96828	10229.775
1796.16064	10206.175
1799.3509	10200.675
1802.53907	10183.575
1805.72514	10150.475
1808.90913	10158.975
1812.09102	10137.775
1815.27083	10104.075
1818.44856	10092.775
1821.6242	10052.275
1824.79776	10049.375
1827.96924	10040.075
1831.13864	10044.775
1834.30597	10050.175
1837.47122	10031.275
1840.6344	10052.075
1843.7955	10071.475
1846.95454	10063.275
1850.11151	10066.075
1853.26642	10055.775
1856.41926	10065.775
1859.57004	10090.375
1862.71876	10068.275
1865.86542	10067.075
1869.01003	10031.175
1872.15258	10032.175
1875.29308	10035.775
1878.43152	10028.775
1881.56792	10047.775
1884.70227	10023.575
1887.83457	10018.875
1890.96482	10025.775
1894.09304	10007.175
1897.21921	10011.075
1900.34335	9999.575
1903.46544	9999.175
1906.58551	9980.375
1909.70353	9958.175
1912.81953	9970.475
1915.93349	9941.975
1919.04543	9896.275
1922.15534	9852.075
1925.26322	9865.875
1928.36908	9844.175
1931.47292	9822.175
1934.57473	9780.375
1937.67453	9765.275
1940.77232	9726.875
1943.86808	9676.875
1946.96184	9649.375
1950.05358	9593.675
1953.14331	9588.875
1956.23103	9544.875
1959.31675	9526.775
1962.40046	9515.075
1965.48217	9487.675
1968.56188	9444.375
1971.63959	9412.975
1974.7153	9392.875
1977.78901	9355.275
1980.86073	9354.475
1983.93046	9309.175
1986.99819	9308.675
1990.06394	9255.775
1993.1277	9241.175
1996.18947	9181.775
1999.24925	9165.475
2002.30706	9138.275
2005.36288	9115.175
2008.41672	9112.275
2011.46859	9065.275
2014.51848	9052.775
2017.56639	9009.075
2020.61233	9023.375
2023.6563	8991.875
2026.6983	8981.475
2029.73833	8951.975
2032.7764	8956.375
2035.8125	8939.175
2038.84664	8937.075
2041.87881	8928.875
2044.90903	8891.075
2047.93729	8864.775
2050.96359	8893.075
2053.98794	8868.375
2057.01034	8847.875
2060.03078	8871.375
2063.04927	8861.475
2066.06582	8866.875
2069.08042	8845.275
2072.09307	8842.875
2075.10378	8837.075
2078.11255	8829.975
2081.11938	8823.075
2084.12426	8812.375
2087.12722	8801.675
2090.12824	8816.375
2093.12732	8810.175
2096.12447	8792.875
2099.11969	8800.475
2102.11299	8810.075
2105.10435	8816.675
2108.09379	8811.875
2111.08131	8816.475
2114.0669	8819.775
2117.05057	8828.475
2120.03233	8829.175
2123.01216	8856.475
2125.99008	8851.775
2128.96609	8878.675
2131.94018	8849.075
2134.91236	8885.975
2137.88263	8882.175
2140.851	8881.375
2143.81746	8884.675
2146.78201	8882.275
2149.74466	8895.875
2152.7054	8896.675
2155.66425	8894.675
2158.6212	8910.875
2161.57625	8880.775
2164.52941	8896.175
2167.48067	8875.075
2170.43004	8893.675
2173.37752	8912.375
2176.32311	8886.775
2179.26681	8875.275
2182.20863	8888.375
2185.14856	8873.975
2188.08661	8898.075
2191.02278	8927.575
2193.95707	8896.675
2196.88948	8895.875
2199.82001	8899.275
2202.74867	8903.375
2205.67545	8911.675
2208.60037	8897.775
2211.52341	8881.575
2214.44458	8900.875
2217.36388	8858.975
2220.28132	8862.875
2223.1969	8851.375
2226.11061	8827.975
2229.02246	8825.075
2231.93245	8806.075
2234.84058	8780.075
2237.74686	8759.375
2240.65128	8768.575
2243.55385	8738.375
2246.45456	8725.575
2249.35343	8704.375
2252.25044	8703.775
2255.14561	8681.175
2258.03893	8671.075
2260.93041	8667.575
2263.82004	8647.475
2266.70783	8635.775
2269.59378	8598.275
2272.4779	8596.775
2275.36017	8572.275
2278.24061	8566.075
2281.11922	8557.175
2283.996	8553.775
2286.87094	8547.875
2289.74405	8504.375
2292.61534	8507.875
2295.4848	8498.775
2298.35243	8524.275
2301.21824	8501.875
2304.08223	8509.475
2306.94439	8534.875
2309.80474	8525.375
2312.66327	8552.375
2315.51999	8535.375
2318.37489	8537.275
2321.22797	8525.675
2324.07925	8547.975
2326.92871	8518.575
2329.77637	8525.275
2332.62222	8497.275
2335.46626	8483.575
2338.3085	8498.075
2341.14893	8511.975
2343.98756	8535.775
2346.8244	8511.075
2349.65943	8523.575
2352.49267	8529.075
2355.32411	8515.975
2358.15376	8492.975
2360.98161	8493.775
2363.80768	8498.075
2366.63195	8484.875
2369.45444	8476.075
2372.27514	8443.875
2375.09405	8420.975
2377.91118	8414.375
2380.72652	8387.475
2383.54009	8389.175
2386.35187	8359.175
2389.16188	8345.375
2391.97011	8351.275
2394.77657	8317.375
2397.58125	8308.375
2400.38416	8311.575
2403.18529	8278.875
2405.98466	8277.775
2408.78226	8262.775
2411.57809	8245.275
2414.37216	8236.575
2417.16446	8223.575
2419.955	8217.475
2422.74378	8228.475
2425.5308	8202.975
2428.31606	8202.075
2431.09956	8209.175
2433.88131	8177.375
2436.6613	8182.275
2439.43954	8206.675
2442.21603	8183.575
2444.99077	8163.975
2447.76377	8182.975
2450.53501	8174.075
2453.30451	8176.875
2456.07226	8168.675
2458.83827	8190.675
2461.60254	8176.875
2464.36507	8181.875
2467.12586	8171.275
2469.88492	8177.575
2472.64224	8200.575
2475.39782	8196.175
2478.15167	8174.175
2480.90379	8179.575
2483.65417	8198.575
2486.40283	8204.975
2489.14976	8237.975
2491.89497	8231.875
2494.63845	8218.475
2497.3802	8204.575
2500.12024	8215.075
2502.85855	8207.775
2505.59514	8216.575
2508.33002	8207.775
2511.06318	8176.775
2513.79462	8182.675
2516.52435	8140.475
2519.25237	8144.575
2521.97867	8171.175
2524.70327	8129.075
2527.42616	8133.975
2530.14734	8126.275
2532.86681	8135.975
2535.58458	8118.275
2538.30065	8132.375
2541.01501	8158.175
2543.72768	8129.375
2546.43864	8117.075
2549.14791	8123.175
2551.85548	8122.775
2554.56136	8121.075
2557.26554	8068.575
2559.96803	8081.575
2562.66883	8091.875
2565.36794	8093.575
2568.06536	8078.275
2570.7611	8066.275
2573.45514	8036.375
2576.14751	8039.075
2578.83819	8050.475
2581.52719	8058.175
2584.21451	8048.775
2586.90015	8046.075
2589.58411	8037.375
2592.2664	8059.575
2594.94701	8047.175
2597.62594	8046.175
2600.30321	8019.375
2602.9788	8038.875
2605.65273	8021.875
2608.32498	8026.975
2610.99557	8020.675
2613.66449	8029.075
2616.33175	8037.675
2618.99734	8024.575
2621.66128	8046.475
2624.32355	8059.275
2626.98416	8021.175
2629.64311	8041.575
2632.30041	8051.975
2634.95605	8024.675
2637.61004	8021.875
2640.26238	8007.575
2642.91306	8007.275
2645.56209	8007.575
2648.20948	7996.975
2650.85521	7981.675
2653.4993	7980.575
2656.14175	7977.975
2658.78255	7992.875
2661.42171	7982.775
2664.05923	7990.475
2666.6951	8017.275
2669.32934	8005.775
2671.96194	8001.875
2674.59291	8011.575
2677.22224	7984.175
2679.84993	7990.075
2682.476	7990.575
2685.10043	7972.975
2687.72324	7939.775
2690.34441	7972.375
2692.96396	7939.075
2695.58188	7970.075
2698.19818	7941.475
2700.81285	7947.475
2703.4259	7954.975
2706.03733	7942.775
2708.64714	7927.675
2711.25533	7951.075
2713.86191	7960.075
2716.46687	7981.075
2719.07021	7955.275
2721.67194	7987.475
2724.27206	7977.775
2726.87057	7997.675
2729.46747	7990.175
2732.06276	8007.275
2734.65644	7988.975
2737.24852	7991.575
2739.83899	7991.175
2742.42786	7992.875
2745.01513	7975.875
2747.60079	7955.175
2750.18486	7943.875
2752.76733	7955.375
2755.3482	7948.975
2757.92747	7942.775
2760.50515	7964.475
2763.08123	7952.175
2765.65573	7949.775
2768.22863	7946.775
2770.79994	7940.975
2773.36967	7955.075
2775.9378	7948.975
2778.50435	7948.775
2781.06932	7937.775
2783.6327	7927.475
2786.1945	7947.475
2788.75471	7912.175
2791.31335	7922.775
2793.87041	7894.975
2796.42589	7880.875
2798.97979	7886.675
2801.53212	7869.775
2804.08288	7863.675
2806.63206	7840.275
2809.17967	7826.775
2811.72571	7834.275
2814.27018	7779.975
2816.81308	7796.375
2819.35442	7801.675
2821.89419	7782.675
2824.43239	7768.575
2826.96904	7776.775
2829.50412	7778.975
2832.03763	7761.375
2834.56959	7767.175
2837.1	7754.975
2839.62884	7750.575
2842.15613	7758.675
2844.68186	7776.775
2847.20604	7777.475
2849.72867	7798.275
2852.24974	7773.675
2854.76927	7764.475
2857.28724	7761.175
2859.80367	7778.075
2862.31855	7749.275
2864.83189	7742.175
2867.34368	7737.575
2869.85393	7760.775
2872.36264	7728.175
2874.8698	7735.875
2877.37543	7739.975
2879.87952	7741.075
2882.38207	7738.175
2884.88308	7719.675
2887.38256	7730.975
2889.88051	7730.675
2892.37692	7734.975
2894.8718	7733.975
2897.36515	7739.175
2899.85698	7768.675
2902.34727	7766.475
2904.83604	7772.175
2907.32328	7780.275
2909.809	7794.775
2912.29319	7806.375
2914.77587	7804.275
2917.25702	7800.875
2919.73665	7810.575
2922.21476	7796.575
2924.69136	7782.175
2927.16644	7790.575
2929.64	7788.975
2932.11205	7753.775
2934.58258	7766.675
2937.05161	7768.875
2939.51912	7750.675
2941.98513	7732.575
2944.44962	7708.375
2946.91261	7685.475
2949.37409	7719.575
2951.83407	7695.875
2954.29254	7688.375
2956.74951	7680.875
2959.20498	7666.875
2961.65895	7652.875
2964.11142	7664.675
2966.56239	7643.975
2969.01186	7651.475
2971.45984	7625.375
2973.90632	7621.875
2976.35131	7583.675
2978.7948	7585.275
2981.23681	7577.875
2983.67732	7560.975
2986.11635	7528.575
2988.55388	7526.075
2990.98993	7511.775
2993.4245	7485.575
2995.85758	7478.275
2998.28917	7469.475
3000.71928	7459.675
3003.14791	7439.975
3005.57506	7431.275
3008.00073	7409.375
3010.42493	7420.875
3012.84764	7400.875
3015.26888	7427.275
3017.68865	7383.975
3020.10694	7385.175
3022.52376	7342.375
3024.9391	7356.575
3027.35298	7346.475
3029.76539	7370.575
3032.17632	7341.875
3034.5858	7327.075
3036.9938	7359.775
3039.40034	7333.675
3041.80542	7352.675
3044.20903	7329.475
3046.61118	7317.475
3049.01187	7303.475
3051.4111	7308.175
3053.80888	7302.775
3056.20519	7308.075
3058.60005	7271.275
3060.99345	7242.075
3063.3854	7233.875
3065.7759	7220.575
3068.16494	7204.575
3070.55254	7184.775
3072.93868	7194.575
3075.32338	7166.775
3077.70662	7181.575
3080.08842	7148.875
3082.46878	7176.575
3084.84769	7128.775
3087.22515	7146.975
3089.60118	7133.175
3091.97576	7116.575
3094.3489	7138.775
3096.72061	7151.475
3099.09087	7136.775
3101.4597	7116.575
3103.82709	7149.375
3106.19305	7123.875
3108.55757	7138.575
3110.92066	7128.375
3113.28232	7104.375
3115.64255	7107.175
3118.00134	7101.675
3120.35871	7114.275
3122.71466	7075.375
3125.06917	7058.575
3127.42226	7051.275
3129.77393	7055.375
3132.12417	7045.075
3134.47299	7046.575
3136.82039	7038.775
3139.16636	7057.875
3141.51092	7060.075
3143.85406	7077.275
3146.19579	7067.675
3148.53609	7072.175
3150.87499	7086.575
3153.21246	7095.775
3155.54853	7103.275
3157.88318	7078.475
3160.21642	7105.275
3162.54826	7111.675
3164.87868	7090.375
3167.2077	7103.275
3169.5353	7107.875
3171.86151	7113.175
3174.18631	7117.475
3176.5097	7115.475
3178.83169	7103.475
3181.15228	7109.075
3183.47147	7094.875
