Data from AgNPs_FTO_APTES_UA_1uM_CRN_0uM_R6G_10uM_NaF_0.1M_Addition_RamanShift__53__12-07-29-473.txt Node

Date: Thu Jan 27 12:07:29 GMT 2022
User: TCL
Spectrometer: QEP01345
Trigger mode: 4
Integration Time (sec): 7.000000E0
Scans to average: 10
Electric dark correction enabled: true
Nonlinearity correction enabled: false
Boxcar width: 0
XAxis mode: Raman Shifts
Number of Pixels in Spectrum: 1044
>>>>>Begin Spectral Data<<<<<
46.04893	-0.2375
50.45542	1.5625
54.85868	0.4625
59.25871	-0.6375
63.6555	29.8625
68.04907	34.5625
72.43941	35.4625
76.82654	38.6625
81.21044	39.6625
85.59113	40.5625
89.96862	45.4625
94.34289	44.4625
98.71396	46.8625
103.08183	44.7625
107.4465	50.2625
111.80798	49.2625
116.16626	46.6625
120.52136	53.6625
124.87327	51.1625
129.222	47.3625
133.56755	48.7625
137.90993	53.1625
142.24913	56.1625
146.58517	60.4625
150.91804	68.1625
155.24774	71.6625
159.57429	83.0625
163.89768	99.2625
168.21792	129.4625
172.53501	170.4625
176.84895	223.9625
181.15975	299.2625
185.46741	414.7625
189.77193	562.8625
194.07331	750.9625
198.37157	974.4625
202.6667	1193.9625
206.9587	1427.1625
211.24758	1641.7625
215.53334	1890.1625
219.81599	2147.5625
224.09553	2460.6625
228.37195	2795.7625
232.64527	3165.6625
236.91549	3514.6625
241.18261	3822.3625
245.44663	4053.3625
249.70755	4254.3625
253.96539	4380.5625
258.22014	4528.2625
262.4718	4668.5625
266.72039	4779.1625
270.96589	4830.2625
275.20832	4835.7625
279.44768	4784.9625
283.68397	4706.6625
287.91719	4647.1625
292.14735	4689.2625
296.37445	4781.3625
300.59849	5009.6625
304.81948	5312.1625
309.03742	5530.7625
313.25231	5560.8625
317.46415	5264.9625
321.67296	4764.4625
325.87872	4363.7625
330.08145	4156.6625
334.28114	4135.5625
338.47781	4231.1625
342.67145	4363.4625
346.86207	4620.6625
351.04966	4965.0625
355.23424	5372.1625
359.4158	5714.2625
363.59435	5842.4625
367.76989	5846.1625
371.94243	5814.4625
376.11196	5772.6625
380.27849	5687.2625
384.44203	5589.9625
388.60257	5478.4625
392.76012	5397.6625
396.91468	5443.8625
401.06626	5647.0625
405.21485	5767.9625
409.36047	5662.1625
413.50311	5297.4625
417.64277	4942.5625
421.77947	4724.7625
425.9132	4666.0625
430.04396	4607.5625
434.17176	4626.0625
438.2966	4731.8625
442.41849	4889.7625
446.53742	5100.0625
450.6534	5271.7625
454.76644	5375.5625
458.87653	5406.4625
462.98368	5308.1625
467.08789	5172.5625
471.18916	5021.3625
475.2875	4864.1625
479.38291	4751.9625
483.4754	4668.0625
487.56496	4566.7625
491.6516	4511.0625
495.73531	4490.6625
499.81612	4506.4625
503.89401	4575.8625
507.96899	4649.8625
512.04106	4752.0625
516.11023	4859.5625
520.1765	4950.5625
524.23987	4954.5625
528.30034	4830.7625
532.35792	4676.5625
536.41261	4537.9625
540.46441	4373.7625
544.51333	4297.6625
548.55936	4323.6625
552.60252	4424.9625
556.64279	4567.7625
560.6802	4636.3625
564.71473	4741.0625
568.7464	5000.8625
572.7752	5202.5625
576.80114	5045.3625
580.82422	4801.5625
584.84444	4711.2625
588.86181	4697.0625
592.87633	4739.1625
596.888	4852.2625
600.89682	5064.4625
604.9028	5705.7625
608.90594	7506.7625
612.90624	10135.2625
616.90371	10005.3625
620.89834	6647.9625
624.89015	4915.5625
628.87913	4528.9625
632.86528	4524.6625
636.84862	4613.7625
640.82913	4561.5625
644.80683	4331.9625
648.78172	4173.3625
652.75379	4196.9625
656.72306	4450.7625
660.68952	4765.7625
664.65319	4729.3625
668.61405	4417.5625
672.57211	4222.9625
676.52738	4195.5625
680.47986	4184.9625
684.42955	4139.1625
688.37646	4127.5625
692.32058	4120.1625
696.26192	4176.0625
700.20048	4239.0625
704.13626	4299.1625
708.06928	4282.4625
711.99952	4230.4625
715.927	4193.7625
719.85171	4199.4625
723.77365	4207.9625
727.69284	4164.1625
731.60928	4122.0625
735.52295	4107.0625
739.43388	4144.8625
743.34206	4184.4625
747.24749	4207.5625
751.15017	4252.1625
755.05012	4336.5625
758.94733	4589.8625
762.8418	5164.5625
766.73354	6203.9625
770.62254	7374.3625
774.50882	8062.5625
778.39237	7814.2625
782.27321	6686.0625
786.15132	5461.9625
790.02671	4715.0625
793.89938	4419.2625
797.76935	4284.7625
801.6366	4224.2625
805.50115	4185.2625
809.36299	4145.2625
813.22213	4121.6625
817.07857	4121.2625
820.93231	4104.8625
824.78336	4122.6625
828.63172	4160.8625
832.47738	4176.4625
836.32036	4161.6625
840.16066	4125.8625
843.99827	4100.5625
847.8332	4073.1625
851.66546	4054.4625
855.49504	4062.7625
859.32195	4041.7625
863.1462	4024.3625
866.96777	3994.0625
870.78668	3987.0625
874.60293	4010.8625
878.41652	4024.4625
882.22745	4055.2625
886.03573	4093.4625
889.84136	4070.1625
893.64433	4036.6625
897.44466	4027.6625
901.24235	4042.9625
905.0374	4021.5625
908.8298	3989.2625
912.61957	3988.6625
916.40671	3996.7625
920.19121	4030.9625
923.97308	4098.2625
927.75233	4159.6625
931.52895	4229.6625
935.30295	4194.7625
939.07433	4035.3625
942.84309	3902.2625
946.60924	3812.1625
950.37278	3769.0625
954.13371	3753.6625
957.89203	3713.4625
961.64774	3714.0625
965.40086	3696.9625
969.15137	3696.8625
972.89929	3676.8625
976.64461	3669.1625
980.38733	3679.8625
984.12747	3659.8625
987.86502	3682.6625
991.59999	3715.5625
995.33237	3757.3625
999.06217	3853.4625
1002.78939	3976.0625
1006.51404	4100.2625
1010.23611	4207.5625
1013.95561	4288.8625
1017.67255	4263.0625
1021.38692	4168.0625
1025.09872	4061.8625
1028.80796	3993.2625
1032.51465	3985.2625
1036.21877	4053.6625
1039.92035	4109.7625
1043.61937	4154.4625
1047.31584	4138.2625
1051.00976	4119.3625
1054.70114	4073.7625
1058.38998	4034.6625
1062.07627	4048.8625
1065.76003	4042.0625
1069.44126	4100.7625
1073.11995	4138.4625
1076.79611	4215.4625
1080.46974	4317.7625
1084.14085	4460.9625
1087.80943	4618.5625
1091.47549	4679.9625
1095.13903	4568.0625
1098.80005	4347.2625
1102.45857	4169.4625
1106.11456	4085.2625
1109.76805	4129.2625
1113.41903	4237.3625
1117.06751	4425.0625
1120.71348	4648.5625
1124.35696	4918.4625
1127.99793	5171.8625
1131.63641	5187.6625
1135.2724	4871.4625
1138.90589	4566.1625
1142.5369	4359.0625
1146.16542	4241.0625
1149.79145	4191.1625
1153.415	4194.5625
1157.03607	4230.2625
1160.65467	4329.4625
1164.27079	4523.1625
1167.88443	4797.8625
1171.49561	5288.5625
1175.10432	6149.7625
1178.71056	7300.6625
1182.31434	8134.3625
1185.91565	8330.7625
1189.51451	8105.8625
1193.11091	7532.3625
1196.70485	6805.1625
1200.29634	6195.6625
1203.88538	5740.2625
1207.47197	5294.3625
1211.05612	4898.9625
1214.63782	4697.7625
1218.21708	4639.9625
1221.79391	4665.2625
1225.36829	4717.7625
1228.94024	4800.4625
1232.50976	4822.6625
1236.07685	4844.9625
1239.6415	4813.6625
1243.20374	4823.8625
1246.76355	4796.2625
1250.32093	4839.9625
1253.8759	4968.0625
1257.42845	5119.0625
1260.97859	5311.6625
1264.52631	5550.6625
1268.07163	5795.7625
1271.61453	5998.2625
1275.15503	6142.9625
1278.69312	6164.4625
1282.22882	6182.3625
1285.76211	6338.2625
1289.29301	6600.0625
1292.82151	6888.8625
1296.34761	7118.3625
1299.87133	7463.4625
1303.39266	8074.2625
1306.9116	9094.4625
1310.42815	10359.8625
1313.94233	11288.2625
1317.45412	11226.5625
1320.96354	10437.5625
1324.47058	9442.6625
1327.97525	8636.1625
1331.47754	8139.6625
1334.97747	7907.5625
1338.47502	7832.0625
1341.97022	7868.9625
1345.46305	8114.0625
1348.95352	8672.3625
1352.44163	9477.9625
1355.92738	10637.7625
1359.41078	12395.7625
1362.89183	14145.2625
1366.37053	14008.7625
1369.84688	11818.0625
1373.32088	9438.7625
1376.79254	7883.8625
1380.26186	7095.8625
1383.72883	6720.8625
1387.19347	6477.7625
1390.65578	6123.4625
1394.11575	5820.9625
1397.57339	5683.2625
1401.0287	5716.2625
1404.48168	5841.4625
1407.93234	5926.1625
1411.38068	6030.8625
1414.82669	5996.9625
1418.27039	5862.9625
1421.71177	5721.1625
1425.15083	5573.7625
1428.58758	5508.0625
1432.02203	5549.7625
1435.45416	5632.3625
1438.88399	5680.6625
1442.31151	5671.2625
1445.73673	5680.2625
1449.15965	5672.3625
1452.58027	5665.7625
1455.9986	5574.7625
1459.41463	5534.5625
1462.82837	5565.9625
1466.23982	5696.3625
1469.64898	5842.0625
1473.05586	5936.6625
1476.46045	5998.8625
1479.86276	6091.1625
1483.26279	6226.3625
1486.66054	6388.7625
1490.05602	6592.6625
1493.44922	6906.4625
1496.84016	7429.8625
1500.22882	8259.5625
1503.61521	9387.9625
1506.99934	10698.1625
1510.38121	12053.1625
1513.76081	12870.9625
1517.13816	12393.0625
1520.51324	10783.7625
1523.88607	8987.0625
1527.25665	7744.3625
1530.62498	7060.0625
1533.99105	6671.4625
1537.35488	6419.8625
1540.71647	6257.9625
1544.07581	6167.5625
1547.4329	6107.5625
1550.78776	6030.1625
1554.14038	5988.2625
1557.49077	6003.1625
1560.83892	6112.0625
1564.18484	6290.4625
1567.52853	6520.1625
1570.86999	6752.6625
1574.20922	6969.9625
1577.54624	6981.1625
1580.88103	6630.2625
1584.2136	6072.1625
1587.54395	5763.2625
1590.87208	5827.4625
1594.19801	6220.6625
1597.52172	6819.0625
1600.84321	7153.4625
1604.16251	6971.8625
1607.47959	6450.5625
1610.79447	5824.9625
1614.10715	5203.2625
1617.41763	4743.2625
1620.7259	4466.7625
1624.03199	4335.4625
1627.33587	4336.0625
1630.63757	4443.8625
1633.93707	4701.4625
1637.23439	5130.7625
1640.52951	5762.8625
1643.82246	6610.0625
1647.11321	7627.5625
1650.40179	8390.2625
1653.68819	8293.6625
1656.97241	7109.6625
1660.25446	5703.8625
1663.53433	4659.9625
1666.81203	4065.9625
1670.08756	3748.7625
1673.36092	3560.2625
1676.63211	3455.9625
1679.90115	3382.0625
1683.16801	3329.1625
1686.43272	3280.1625
1689.69527	3245.3625
1692.95567	3208.4625
1696.2139	3146.3625
1699.46999	3105.7625
1702.72392	3076.7625
1705.97571	3096.3625
1709.22535	3133.3625
1712.47284	3165.6625
1715.71819	3192.9625
1718.96139	3205.9625
1722.20246	3201.4625
1725.44139	3195.1625
1728.67818	3152.8625
1731.91284	3118.3625
1735.14537	3079.9625
1738.37576	3048.1625
1741.60403	3033.7625
1744.83017	3002.0625
1748.05418	2982.7625
1751.27607	2981.0625
1754.49584	2939.4625
1757.71349	2919.5625
1760.92903	2881.2625
1764.14244	2894.5625
1767.35375	2888.4625
1770.56294	2872.7625
1773.77002	2872.7625
1776.97499	2869.1625
1780.17785	2882.3625
1783.37861	2878.0625
1786.57727	2884.8625
1789.77382	2891.5625
1792.96828	2884.8625
1796.16064	2886.3625
1799.3509	2880.9625
1802.53907	2884.7625
1805.72514	2866.8625
1808.90913	2853.4625
1812.09102	2838.2625
1815.27083	2822.5625
1818.44856	2826.7625
1821.6242	2812.8625
1824.79776	2816.8625
1827.96924	2806.7625
1831.13864	2798.3625
1834.30597	2810.1625
1837.47122	2797.8625
1840.6344	2789.0625
1843.7955	2792.0625
1846.95454	2787.2625
1850.11151	2785.6625
1853.26642	2793.9625
1856.41926	2784.4625
1859.57004	2796.9625
1862.71876	2789.1625
1865.86542	2786.7625
1869.01003	2793.3625
1872.15258	2793.6625
1875.29308	2798.4625
1878.43152	2804.4625
1881.56792	2808.4625
1884.70227	2803.0625
1887.83457	2798.9625
1890.96482	2800.0625
1894.09304	2812.0625
1897.21921	2818.8625
1900.34335	2820.2625
1903.46544	2812.7625
1906.58551	2813.7625
1909.70353	2804.4625
1912.81953	2804.1625
1915.93349	2799.4625
1919.04543	2805.6625
1922.15534	2779.5625
1925.26322	2783.8625
1928.36908	2778.2625
1931.47292	2768.0625
1934.57473	2741.8625
1937.67453	2710.1625
1940.77232	2690.9625
1943.86808	2689.5625
1946.96184	2676.6625
1950.05358	2654.1625
1953.14331	2640.4625
1956.23103	2628.8625
1959.31675	2625.2625
1962.40046	2612.8625
1965.48217	2591.8625
1968.56188	2597.0625
1971.63959	2589.6625
1974.7153	2580.5625
1977.78901	2575.2625
1980.86073	2566.7625
1983.93046	2557.5625
1986.99819	2551.2625
1990.06394	2531.5625
1993.1277	2518.5625
1996.18947	2517.9625
1999.24925	2501.4625
2002.30706	2490.7625
2005.36288	2485.8625
2008.41672	2478.6625
2011.46859	2460.3625
2014.51848	2447.1625
2017.56639	2445.8625
2020.61233	2431.1625
2023.6563	2439.0625
2026.6983	2418.2625
2029.73833	2409.9625
2032.7764	2412.7625
2035.8125	2400.9625
2038.84664	2403.5625
2041.87881	2393.1625
2044.90903	2392.5625
2047.93729	2370.4625
2050.96359	2385.7625
2053.98794	2375.0625
2057.01034	2362.5625
2060.03078	2366.5625
2063.04927	2350.4625
2066.06582	2365.0625
2069.08042	2361.5625
2072.09307	2353.3625
2075.10378	2353.6625
2078.11255	2347.4625
2081.11938	2346.5625
2084.12426	2349.3625
2087.12722	2348.0625
2090.12824	2344.4625
2093.12732	2342.5625
2096.12447	2348.5625
2099.11969	2346.3625
2102.11299	2333.6625
2105.10435	2333.8625
2108.09379	2333.7625
2111.08131	2328.4625
2114.0669	2335.9625
2117.05057	2329.5625
2120.03233	2327.1625
2123.01216	2335.2625
2125.99008	2338.5625
2128.96609	2336.6625
2131.94018	2343.7625
2134.91236	2330.5625
2137.88263	2335.4625
2140.851	2333.0625
2143.81746	2338.5625
2146.78201	2329.6625
2149.74466	2329.5625
2152.7054	2329.2625
2155.66425	2320.0625
2158.6212	2313.3625
2161.57625	2309.3625
2164.52941	2304.5625
2167.48067	2296.3625
2170.43004	2299.8625
2173.37752	2312.1625
2176.32311	2310.7625
2179.26681	2311.3625
2182.20863	2304.3625
2185.14856	2300.8625
2188.08661	2300.8625
2191.02278	2305.7625
2193.95707	2310.4625
2196.88948	2292.8625
2199.82001	2278.5625
2202.74867	2293.2625
2205.67545	2287.4625
2208.60037	2272.5625
2211.52341	2277.5625
2214.44458	2267.7625
2217.36388	2257.9625
2220.28132	2258.2625
2223.1969	2249.1625
2226.11061	2241.6625
2229.02246	2241.9625
2231.93245	2232.5625
2234.84058	2232.1625
2237.74686	2228.8625
2240.65128	2217.3625
2243.55385	2201.5625
2246.45456	2203.4625
2249.35343	2217.4625
2252.25044	2198.4625
2255.14561	2208.8625
2258.03893	2203.3625
2260.93041	2208.3625
2263.82004	2194.7625
2266.70783	2191.8625
2269.59378	2191.7625
2272.4779	2184.5625
2275.36017	2186.3625
2278.24061	2171.6625
2281.11922	2168.9625
2283.996	2153.4625
2286.87094	2154.3625
2289.74405	2143.4625
2292.61534	2129.9625
2295.4848	2140.1625
2298.35243	2133.5625
2301.21824	2139.7625
2304.08223	2133.1625
2306.94439	2119.4625
2309.80474	2122.6625
2312.66327	2120.2625
2315.51999	2126.0625
2318.37489	2133.0625
2321.22797	2115.8625
2324.07925	2108.0625
2326.92871	2107.2625
2329.77637	2107.2625
2332.62222	2116.8625
2335.46626	2092.7625
2338.3085	2098.4625
2341.14893	2103.0625
2343.98756	2091.5625
2346.8244	2088.4625
2349.65943	2103.5625
2352.49267	2086.8625
2355.32411	2097.9625
2358.15376	2097.3625
2360.98161	2106.0625
2363.80768	2116.2625
2366.63195	2124.6625
2369.45444	2133.9625
2372.27514	2119.6625
2375.09405	2120.1625
2377.91118	2104.3625
2380.72652	2095.9625
2383.54009	2082.5625
2386.35187	2075.4625
2389.16188	2057.7625
2391.97011	2052.1625
2394.77657	2041.8625
2397.58125	2032.8625
2400.38416	2029.0625
2403.18529	2028.4625
2405.98466	2011.1625
2408.78226	2002.5625
2411.57809	2004.7625
2414.37216	2014.6625
2417.16446	1997.1625
2419.955	2010.5625
2422.74378	2002.2625
2425.5308	1992.4625
2428.31606	1999.0625
2431.09956	2000.5625
2433.88131	1999.4625
2436.6613	1993.5625
2439.43954	1993.2625
2442.21603	2001.1625
2444.99077	1999.4625
2447.76377	2002.1625
2450.53501	1998.0625
2453.30451	2000.9625
2456.07226	1999.4625
2458.83827	1989.7625
2461.60254	2004.7625
2464.36507	1988.7625
2467.12586	1982.0625
2469.88492	1989.7625
2472.64224	1994.4625
2475.39782	1988.8625
2478.15167	1989.9625
2480.90379	2004.0625
2483.65417	1997.2625
2486.40283	2004.2625
2489.14976	2011.3625
2491.89497	2010.8625
2494.63845	2005.7625
2497.3802	2001.8625
2500.12024	2006.6625
2502.85855	1998.3625
2505.59514	1997.1625
2508.33002	1998.6625
2511.06318	1984.0625
2513.79462	1972.3625
2516.52435	1960.5625
2519.25237	1955.1625
2521.97867	1953.1625
2524.70327	1946.4625
2527.42616	1930.6625
2530.14734	1928.9625
2532.86681	1932.4625
2535.58458	1928.8625
2538.30065	1920.9625
2541.01501	1936.4625
2543.72768	1925.4625
2546.43864	1923.3625
2549.14791	1929.6625
2551.85548	1927.3625
2554.56136	1923.1625
2557.26554	1932.3625
2559.96803	1916.6625
2562.66883	1916.6625
2565.36794	1914.3625
2568.06536	1912.5625
2570.7611	1907.3625
2573.45514	1906.6625
2576.14751	1904.9625
2578.83819	1909.8625
2581.52719	1900.4625
2584.21451	1899.8625
2586.90015	1897.8625
2589.58411	1892.3625
2592.2664	1883.0625
2594.94701	1893.4625
2597.62594	1887.5625
2600.30321	1885.3625
2602.9788	1878.4625
2605.65273	1886.0625
2608.32498	1880.1625
2610.99557	1879.6625
2613.66449	1869.3625
2616.33175	1873.4625
2618.99734	1865.5625
2621.66128	1880.3625
2624.32355	1870.8625
2626.98416	1869.0625
2629.64311	1874.0625
2632.30041	1873.0625
2634.95605	1859.3625
2637.61004	1848.4625
2640.26238	1856.8625
2642.91306	1849.4625
2645.56209	1845.1625
2648.20948	1848.9625
2650.85521	1840.7625
2653.4993	1841.1625
2656.14175	1853.5625
2658.78255	1842.3625
2661.42171	1847.1625
2664.05923	1850.8625
2666.6951	1855.5625
2669.32934	1863.4625
2671.96194	1859.1625
2674.59291	1860.9625
2677.22224	1861.8625
2679.84993	1857.3625
2682.476	1863.2625
2685.10043	1875.6625
2687.72324	1863.9625
2690.34441	1863.3625
2692.96396	1866.9625
2695.58188	1864.2625
2698.19818	1871.3625
2700.81285	1862.8625
2703.4259	1867.6625
2706.03733	1845.0625
2708.64714	1838.8625
2711.25533	1863.7625
2713.86191	1871.9625
2716.46687	1880.8625
2719.07021	1883.1625
2721.67194	1892.6625
2724.27206	1889.7625
2726.87057	1895.5625
2729.46747	1896.2625
2732.06276	1876.5625
2734.65644	1879.5625
2737.24852	1878.4625
2739.83899	1871.4625
2742.42786	1876.0625
2745.01513	1859.6625
2747.60079	1868.4625
2750.18486	1862.9625
2752.76733	1859.1625
2755.3482	1854.5625
2757.92747	1862.9625
2760.50515	1843.2625
2763.08123	1855.3625
2765.65573	1859.4625
2768.22863	1854.6625
2770.79994	1857.2625
2773.36967	1848.6625
2775.9378	1854.7625
2778.50435	1858.7625
2781.06932	1863.6625
2783.6327	1859.3625
2786.1945	1865.4625
2788.75471	1864.3625
2791.31335	1858.5625
2793.87041	1853.8625
2796.42589	1868.9625
2798.97979	1872.3625
2801.53212	1876.7625
2804.08288	1887.8625
2806.63206	1880.9625
2809.17967	1879.6625
2811.72571	1892.4625
2814.27018	1889.9625
2816.81308	1902.7625
2819.35442	1909.2625
2821.89419	1914.0625
2824.43239	1920.1625
2826.96904	1923.4625
2829.50412	1934.5625
2832.03763	1938.3625
2834.56959	1936.3625
2837.1	1944.6625
2839.62884	1957.7625
2842.15613	1978.0625
2844.68186	2026.9625
2847.20604	2062.2625
2849.72867	2097.9625
2852.24974	2114.1625
2854.76927	2107.2625
2857.28724	2085.1625
2859.80367	2076.3625
2862.31855	2076.8625
2864.83189	2064.6625
2867.34368	2053.8625
2869.85393	2061.2625
2872.36264	2059.1625
2874.8698	2056.8625
2877.37543	2059.0625
2879.87952	2047.6625
2882.38207	2040.3625
2884.88308	2042.8625
2887.38256	2043.0625
2889.88051	2038.0625
2892.37692	2027.5625
2894.8718	2031.6625
2897.36515	2043.3625
2899.85698	2047.2625
2902.34727	2041.6625
2904.83604	2039.8625
2907.32328	2046.5625
2909.809	2041.2625
2912.29319	2045.9625
2914.77587	2027.6625
2917.25702	2023.9625
2919.73665	2029.5625
2922.21476	2014.6625
2924.69136	2021.5625
2927.16644	2019.1625
2929.64	2005.8625
2932.11205	2002.5625
2934.58258	1990.8625
2937.05161	1988.2625
2939.51912	1981.1625
2941.98513	1945.1625
2944.44962	1912.5625
2946.91261	1895.1625
2949.37409	1874.2625
2951.83407	1847.9625
2954.29254	1830.4625
2956.74951	1818.5625
2959.20498	1818.0625
2961.65895	1809.6625
2964.11142	1810.3625
2966.56239	1789.6625
2969.01186	1790.5625
2971.45984	1776.4625
2973.90632	1773.2625
2976.35131	1761.5625
2978.7948	1761.1625
2981.23681	1749.8625
2983.67732	1735.9625
2986.11635	1738.5625
2988.55388	1727.4625
2990.98993	1721.7625
2993.4245	1701.2625
2995.85758	1698.9625
2998.28917	1694.6625
3000.71928	1695.9625
3003.14791	1689.8625
3005.57506	1675.8625
3008.00073	1690.4625
3010.42493	1682.7625
3012.84764	1678.5625
3015.26888	1674.3625
3017.68865	1669.7625
3020.10694	1672.1625
3022.52376	1664.6625
3024.9391	1666.0625
3027.35298	1661.3625
3029.76539	1664.4625
3032.17632	1660.1625
3034.5858	1659.1625
3036.9938	1658.0625
3039.40034	1649.5625
3041.80542	1658.0625
3044.20903	1654.5625
3046.61118	1647.6625
3049.01187	1646.1625
3051.4111	1652.8625
3053.80888	1653.6625
3056.20519	1640.5625
3058.60005	1648.9625
3060.99345	1639.8625
3063.3854	1639.6625
3065.7759	1644.6625
3068.16494	1633.8625
3070.55254	1634.1625
3072.93868	1647.8625
3075.32338	1621.6625
3077.70662	1620.4625
3080.08842	1615.9625
3082.46878	1625.0625
3084.84769	1622.3625
3087.22515	1620.8625
3089.60118	1609.1625
3091.97576	1617.3625
3094.3489	1623.8625
3096.72061	1609.9625
3099.09087	1622.0625
3101.4597	1603.4625
3103.82709	1608.1625
3106.19305	1618.9625
3108.55757	1618.7625
3110.92066	1617.0625
3113.28232	1611.9625
3115.64255	1613.0625
3118.00134	1622.6625
3120.35871	1610.9625
3122.71466	1624.3625
