Data from AgNPs_FTO_APTES_UA_1uM_CRN_10uM_R6G_50uM_NaF_0.1M_Addition_RamanShift__14__15-57-19-736.txt Node

Date: Thu Jan 27 15:57:19 GMT 2022
User: TCL
Spectrometer: QEP01345
Trigger mode: 4
Integration Time (sec): 7.000000E0
Scans to average: 10
Electric dark correction enabled: true
Nonlinearity correction enabled: false
Boxcar width: 0
XAxis mode: Raman Shifts
Number of Pixels in Spectrum: 1044
>>>>>Begin Spectral Data<<<<<
46.04893	1.2875
50.45542	0.1875
54.85868	-0.9125
59.25871	-0.1125
63.6555	46.7875
68.04907	46.7875
72.43941	50.4875
76.82654	55.4875
81.21044	57.2875
85.59113	55.1875
89.96862	61.7875
94.34289	62.5875
98.71396	66.8875
103.08183	64.7875
107.4465	69.8875
111.80798	70.0875
116.16626	72.2875
120.52136	76.5875
124.87327	76.9875
129.222	76.3875
133.56755	77.1875
137.90993	86.7875
142.24913	90.7875
146.58517	102.6875
150.91804	118.8875
155.24774	136.6875
159.57429	164.6875
163.89768	207.8875
168.21792	274.1875
172.53501	369.6875
176.84895	512.4875
181.15975	716.4875
185.46741	1006.2875
189.77193	1382.6875
194.07331	1858.6875
198.37157	2419.9875
202.6667	2993.0875
206.9587	3551.4875
211.24758	4126.6875
215.53334	4662.3875
219.81599	5240.6875
224.09553	5860.7875
228.37195	6559.2875
232.64527	7302.5875
236.91549	8133.4875
241.18261	8947.6875
245.44663	9760.2875
249.70755	10493.6875
253.96539	11178.2875
258.22014	11733.9875
262.4718	12216.0875
266.72039	12506.8875
270.96589	12718.4875
275.20832	12728.2875
279.44768	12714.3875
283.68397	12612.9875
287.91719	12516.1875
292.14735	12417.0875
296.37445	12371.3875
300.59849	12370.3875
304.81948	12376.1875
309.03742	12344.9875
313.25231	12202.1875
317.46415	12011.5875
321.67296	11834.4875
325.87872	11645.6875
330.08145	11575.3875
334.28114	11577.4875
338.47781	11677.9875
342.67145	11781.9875
346.86207	11941.8875
351.04966	12087.1875
355.23424	12232.1875
359.4158	12401.4875
363.59435	12530.7875
367.76989	12640.5875
371.94243	12721.6875
376.11196	12800.9875
380.27849	12856.1875
384.44203	12920.8875
388.60257	12999.1875
392.76012	13111.3875
396.91468	13254.4875
401.06626	13401.3875
405.21485	13528.2875
409.36047	13521.9875
413.50311	13401.6875
417.64277	13305.4875
421.77947	13288.4875
425.9132	13301.8875
430.04396	13381.2875
434.17176	13443.7875
438.2966	13542.6875
442.41849	13642.7875
446.53742	13776.8875
450.6534	13989.0875
454.76644	14148.2875
458.87653	14243.4875
462.98368	14298.9875
467.08789	14268.8875
471.18916	14242.7875
475.2875	14195.6875
479.38291	14149.2875
483.4754	14098.0875
487.56496	14002.8875
491.6516	13907.6875
495.73531	13860.8875
499.81612	13821.5875
503.89401	13821.8875
507.96899	13872.2875
512.04106	13918.2875
516.11023	13913.3875
520.1765	13875.4875
524.23987	13770.3875
528.30034	13696.4875
532.35792	13625.3875
536.41261	13551.0875
540.46441	13475.3875
544.51333	13510.8875
548.55936	13588.1875
552.60252	13765.2875
556.64279	13923.7875
560.6802	14018.4875
564.71473	14096.7875
568.7464	14183.4875
572.7752	14373.7875
576.80114	14575.1875
580.82422	14786.6875
584.84444	14948.7875
588.86181	15024.6875
592.87633	14985.0875
596.888	14911.7875
600.89682	14931.3875
604.9028	15144.6875
608.90594	15794.4875
612.90624	16487.4875
616.90371	15959.0875
620.89834	14485.0875
624.89015	13799.0875
628.87913	13729.3875
632.86528	13803.6875
636.84862	13878.5875
640.82913	13833.2875
644.80683	13671.3875
648.78172	13528.5875
652.75379	13500.7875
656.72306	13562.2875
660.68952	13682.3875
664.65319	13698.8875
668.61405	13621.4875
672.57211	13597.4875
676.52738	13642.4875
680.47986	13604.5875
684.42955	13595.7875
688.37646	13590.3875
692.32058	13563.6875
696.26192	13656.8875
700.20048	13753.1875
704.13626	13796.2875
708.06928	13816.7875
711.99952	13829.7875
715.927	13801.0875
719.85171	13773.1875
723.77365	13724.9875
727.69284	13663.6875
731.60928	13549.4875
735.52295	13506.6875
739.43388	13481.7875
743.34206	13503.3875
747.24749	13528.2875
751.15017	13597.9875
755.05012	13704.9875
758.94733	13927.0875
762.8418	14279.9875
766.73354	14869.4875
770.62254	15432.1875
774.50882	15596.3875
778.39237	15247.7875
782.27321	14618.8875
786.15132	14136.8875
790.02671	13749.7875
793.89938	13592.3875
797.76935	13477.8875
801.6366	13476.2875
805.50115	13408.5875
809.36299	13349.8875
813.22213	13320.4875
817.07857	13318.9875
820.93231	13324.5875
824.78336	13318.7875
828.63172	13286.2875
832.47738	13270.7875
836.32036	13267.6875
840.16066	13268.0875
843.99827	13234.3875
847.8332	13262.8875
851.66546	13237.0875
855.49504	13232.1875
859.32195	13253.8875
863.1462	13270.3875
866.96777	13221.0875
870.78668	13226.1875
874.60293	13249.0875
878.41652	13221.6875
882.22745	13279.4875
886.03573	13294.3875
889.84136	13323.2875
893.64433	13285.8875
897.44466	13257.6875
901.24235	13231.6875
905.0374	13213.0875
908.8298	13160.0875
912.61957	13178.4875
916.40671	13245.6875
920.19121	13325.9875
923.97308	13396.0875
927.75233	13337.8875
931.52895	13267.6875
935.30295	13200.2875
939.07433	13071.7875
942.84309	12985.6875
946.60924	12906.8875
950.37278	12876.1875
954.13371	12845.9875
957.89203	12813.5875
961.64774	12828.2875
965.40086	12809.0875
969.15137	12774.4875
972.89929	12724.9875
976.64461	12710.7875
980.38733	12680.9875
984.12747	12706.2875
987.86502	12714.3875
991.59999	12736.7875
995.33237	12802.2875
999.06217	12868.1875
1002.78939	12988.2875
1006.51404	13049.4875
1010.23611	13173.4875
1013.95561	13219.4875
1017.67255	13221.8875
1021.38692	13221.3875
1025.09872	13106.9875
1028.80796	13047.1875
1032.51465	13038.8875
1036.21877	13095.3875
1039.92035	13114.0875
1043.61937	13142.2875
1047.31584	13129.6875
1051.00976	13171.6875
1054.70114	13188.8875
1058.38998	13246.7875
1062.07627	13349.5875
1065.76003	13486.0875
1069.44126	13563.4875
1073.11995	13686.1875
1076.79611	13804.0875
1080.46974	13840.9875
1084.14085	13844.2875
1087.80943	13880.4875
1091.47549	13903.3875
1095.13903	13939.4875
1098.80005	13882.4875
1102.45857	13788.0875
1106.11456	13594.1875
1109.76805	13497.5875
1113.41903	13448.5875
1117.06751	13474.5875
1120.71348	13516.9875
1124.35696	13578.6875
1127.99793	13678.0875
1131.63641	13730.9875
1135.2724	13686.4875
1138.90589	13594.5875
1142.5369	13581.9875
1146.16542	13566.7875
1149.79145	13607.5875
1153.415	13644.6875
1157.03607	13714.5875
1160.65467	13839.1875
1164.27079	14071.6875
1167.88443	14430.0875
1171.49561	14814.4875
1175.10432	15339.6875
1178.71056	15957.2875
1182.31434	16593.4875
1185.91565	17004.7875
1189.51451	17166.9875
1193.11091	17106.1875
1196.70485	16793.1875
1200.29634	16441.8875
1203.88538	16041.3875
1207.47197	15745.7875
1211.05612	15512.5875
1214.63782	15267.9875
1218.21708	15086.5875
1221.79391	14824.9875
1225.36829	14599.6875
1228.94024	14472.9875
1232.50976	14419.3875
1236.07685	14418.9875
1239.6415	14402.9875
1243.20374	14414.9875
1246.76355	14456.4875
1250.32093	14561.4875
1253.8759	14676.6875
1257.42845	14909.5875
1260.97859	15091.6875
1264.52631	15338.2875
1268.07163	15535.3875
1271.61453	15740.9875
1275.15503	15893.4875
1278.69312	16108.8875
1282.22882	16271.0875
1285.76211	16487.5875
1289.29301	16757.4875
1292.82151	17098.7875
1296.34761	17488.3875
1299.87133	17994.1875
1303.39266	18485.0875
1306.9116	19010.9875
1310.42815	19383.9875
1313.94233	19701.5875
1317.45412	19640.3875
1320.96354	19571.6875
1324.47058	19498.9875
1327.97525	19419.3875
1331.47754	19369.0875
1334.97747	19420.6875
1338.47502	19564.9875
1341.97022	19780.9875
1345.46305	19994.7875
1348.95352	20107.9875
1352.44163	20104.7875
1355.92738	20044.0875
1359.41078	20132.8875
1362.89183	20267.2875
1366.37053	19936.1875
1369.84688	18916.4875
1373.32088	17758.2875
1376.79254	16827.6875
1380.26186	16383.2875
1383.72883	16244.1875
1387.19347	16129.7875
1390.65578	16016.2875
1394.11575	15861.0875
1397.57339	15750.1875
1401.0287	15795.1875
1404.48168	15799.4875
1407.93234	15751.6875
1411.38068	15611.5875
1414.82669	15367.3875
1418.27039	15043.8875
1421.71177	14744.5875
1425.15083	14494.2875
1428.58758	14317.4875
1432.02203	14269.7875
1435.45416	14346.9875
1438.88399	14524.1875
1442.31151	14656.1875
1445.73673	14783.5875
1449.15965	14922.0875
1452.58027	15030.0875
1455.9986	15117.3875
1459.41463	15196.8875
1462.82837	15307.9875
1466.23982	15496.0875
1469.64898	15683.4875
1473.05586	15831.7875
1476.46045	15859.3875
1479.86276	15861.9875
1483.26279	15834.1875
1486.66054	15844.5875
1490.05602	15919.3875
1493.44922	16140.2875
1496.84016	16430.8875
1500.22882	16841.9875
1503.61521	17421.7875
1506.99934	18000.3875
1510.38121	18443.0875
1513.76081	18500.3875
1517.13816	18212.9875
1520.51324	17743.4875
1523.88607	17294.2875
1527.25665	16954.9875
1530.62498	16796.1875
1533.99105	16701.1875
1537.35488	16529.1875
1540.71647	16320.3875
1544.07581	16045.1875
1547.4329	15827.5875
1550.78776	15580.7875
1554.14038	15457.6875
1557.49077	15412.6875
1560.83892	15390.8875
1564.18484	15438.6875
1567.52853	15513.3875
1570.86999	15608.0875
1574.20922	15763.8875
1577.54624	15829.8875
1580.88103	15759.5875
1584.2136	15628.1875
1587.54395	15638.5875
1590.87208	15777.5875
1594.19801	16116.7875
1597.52172	16493.1875
1600.84321	16645.3875
1604.16251	16339.8875
1607.47959	15863.0875
1610.79447	15294.8875
1614.10715	14707.6875
1617.41763	14106.8875
1620.7259	13619.2875
1624.03199	13337.3875
1627.33587	13195.1875
1630.63757	13278.3875
1633.93707	13503.9875
1637.23439	14034.2875
1640.52951	14827.8875
1643.82246	15794.3875
1647.11321	16789.6875
1650.40179	17263.2875
1653.68819	16989.7875
1656.97241	15972.9875
1660.25446	14725.1875
1663.53433	13620.4875
1666.81203	12839.9875
1670.08756	12308.2875
1673.36092	11996.7875
1676.63211	11782.4875
1679.90115	11629.4875
1683.16801	11494.3875
1686.43272	11379.9875
1689.69527	11333.1875
1692.95567	11235.4875
1696.2139	11185.1875
1699.46999	11128.7875
1702.72392	11092.7875
1705.97571	11109.3875
1709.22535	11125.5875
1712.47284	11118.2875
1715.71819	11104.4875
1718.96139	11081.0875
1722.20246	11067.6875
1725.44139	11040.1875
1728.67818	11033.7875
1731.91284	10969.7875
1735.14537	10934.3875
1738.37576	10874.4875
1741.60403	10852.4875
1744.83017	10846.7875
1748.05418	10798.3875
1751.27607	10791.2875
1754.49584	10748.4875
1757.71349	10713.2875
1760.92903	10701.2875
1764.14244	10676.3875
1767.35375	10688.5875
1770.56294	10670.7875
1773.77002	10655.7875
1776.97499	10651.2875
1780.17785	10632.4875
1783.37861	10651.3875
1786.57727	10641.7875
1789.77382	10626.7875
1792.96828	10590.2875
1796.16064	10559.0875
1799.3509	10553.9875
1802.53907	10550.0875
1805.72514	10517.5875
1808.90913	10505.8875
1812.09102	10479.5875
1815.27083	10428.7875
1818.44856	10436.4875
1821.6242	10422.6875
1824.79776	10428.9875
1827.96924	10391.1875
1831.13864	10374.2875
1834.30597	10373.4875
1837.47122	10353.1875
1840.6344	10362.3875
1843.7955	10343.4875
1846.95454	10358.9875
1850.11151	10314.4875
1853.26642	10313.8875
1856.41926	10315.1875
1859.57004	10327.1875
1862.71876	10307.3875
1865.86542	10271.9875
1869.01003	10290.0875
1872.15258	10271.8875
1875.29308	10246.3875
1878.43152	10232.8875
1881.56792	10202.0875
1884.70227	10186.0875
1887.83457	10157.2875
1890.96482	10156.9875
1894.09304	10097.2875
1897.21921	10111.8875
1900.34335	10110.5875
1903.46544	10091.2875
1906.58551	10069.8875
1909.70353	10059.2875
1912.81953	10043.9875
1915.93349	10047.7875
1919.04543	10032.3875
1922.15534	10002.3875
1925.26322	9976.4875
1928.36908	9966.4875
1931.47292	9953.7875
1934.57473	9924.0875
1937.67453	9921.2875
1940.77232	9891.8875
1943.86808	9836.9875
1946.96184	9798.8875
1950.05358	9802.6875
1953.14331	9759.4875
1956.23103	9704.8875
1959.31675	9712.2875
1962.40046	9695.5875
1965.48217	9655.0875
1968.56188	9630.9875
1971.63959	9596.6875
1974.7153	9555.8875
1977.78901	9546.8875
1980.86073	9519.8875
1983.93046	9466.6875
1986.99819	9436.4875
1990.06394	9411.4875
1993.1277	9382.8875
1996.18947	9355.8875
1999.24925	9327.9875
2002.30706	9298.2875
2005.36288	9260.4875
2008.41672	9261.2875
2011.46859	9221.5875
2014.51848	9209.0875
2017.56639	9162.3875
2020.61233	9141.8875
2023.6563	9139.3875
2026.6983	9097.5875
2029.73833	9064.1875
2032.7764	9066.9875
2035.8125	9045.0875
2038.84664	9001.4875
2041.87881	8991.2875
2044.90903	8967.0875
2047.93729	8932.3875
2050.96359	8939.2875
2053.98794	8924.2875
2057.01034	8913.6875
2060.03078	8938.0875
2063.04927	8907.8875
2066.06582	8905.2875
2069.08042	8896.1875
2072.09307	8892.5875
2075.10378	8863.8875
2078.11255	8848.6875
2081.11938	8888.7875
2084.12426	8864.1875
2087.12722	8848.7875
2090.12824	8864.7875
2093.12732	8842.9875
2096.12447	8839.3875
2099.11969	8819.3875
2102.11299	8847.7875
2105.10435	8829.2875
2108.09379	8834.0875
2111.08131	8838.5875
2114.0669	8849.5875
2117.05057	8842.3875
2120.03233	8866.4875
2123.01216	8849.6875
2125.99008	8896.4875
2128.96609	8882.1875
2131.94018	8877.0875
2134.91236	8882.2875
2137.88263	8898.1875
2140.851	8896.8875
2143.81746	8893.5875
2146.78201	8899.8875
2149.74466	8902.4875
2152.7054	8892.1875
2155.66425	8890.8875
2158.6212	8879.4875
2161.57625	8871.6875
2164.52941	8852.3875
2167.48067	8877.1875
2170.43004	8843.6875
2173.37752	8866.3875
2176.32311	8876.5875
2179.26681	8879.0875
2182.20863	8864.0875
2185.14856	8852.0875
2188.08661	8852.9875
2191.02278	8848.5875
2193.95707	8832.9875
2196.88948	8834.0875
2199.82001	8841.3875
2202.74867	8811.5875
2205.67545	8829.6875
2208.60037	8784.5875
2211.52341	8762.4875
2214.44458	8745.7875
2217.36388	8737.3875
2220.28132	8717.4875
2223.1969	8702.2875
2226.11061	8665.3875
2229.02246	8642.1875
2231.93245	8658.9875
2234.84058	8627.8875
2237.74686	8622.0875
2240.65128	8615.8875
2243.55385	8589.5875
2246.45456	8567.0875
2249.35343	8581.2875
2252.25044	8543.7875
2255.14561	8556.4875
2258.03893	8530.8875
2260.93041	8508.7875
2263.82004	8477.7875
2266.70783	8445.9875
2269.59378	8415.0875
2272.4779	8418.0875
2275.36017	8413.2875
2278.24061	8393.5875
2281.11922	8390.7875
2283.996	8375.5875
2286.87094	8369.4875
2289.74405	8336.4875
2292.61534	8282.0875
2295.4848	8288.1875
2298.35243	8304.0875
2301.21824	8295.0875
2304.08223	8278.2875
2306.94439	8260.9875
2309.80474	8262.9875
2312.66327	8251.2875
2315.51999	8235.1875
2318.37489	8226.2875
2321.22797	8221.8875
2324.07925	8238.7875
2326.92871	8179.2875
2329.77637	8168.4875
2332.62222	8169.2875
2335.46626	8149.3875
2338.3085	8112.0875
2341.14893	8143.7875
2343.98756	8110.3875
2346.8244	8104.6875
2349.65943	8089.3875
2352.49267	8090.2875
2355.32411	8073.6875
2358.15376	8078.0875
2360.98161	8079.4875
2363.80768	8062.0875
2366.63195	8060.4875
2369.45444	8039.4875
2372.27514	8038.5875
2375.09405	8022.8875
2377.91118	8020.5875
2380.72652	8009.4875
2383.54009	7949.0875
2386.35187	7966.2875
2389.16188	7947.0875
2391.97011	7916.6875
2394.77657	7908.5875
2397.58125	7892.2875
2400.38416	7878.6875
2403.18529	7883.9875
2405.98466	7873.0875
2408.78226	7841.1875
2411.57809	7849.5875
2414.37216	7815.1875
2417.16446	7815.3875
2419.955	7776.0875
2422.74378	7799.7875
2425.5308	7796.5875
2428.31606	7769.9875
2431.09956	7773.1875
2433.88131	7750.3875
2436.6613	7758.2875
2439.43954	7760.2875
2442.21603	7750.3875
2444.99077	7724.3875
2447.76377	7733.7875
2450.53501	7711.5875
2453.30451	7715.1875
2456.07226	7681.0875
2458.83827	7686.6875
2461.60254	7681.0875
2464.36507	7673.7875
2467.12586	7646.5875
2469.88492	7638.3875
2472.64224	7630.7875
2475.39782	7636.2875
2478.15167	7621.2875
2480.90379	7616.9875
2483.65417	7604.4875
2486.40283	7606.2875
2489.14976	7602.7875
2491.89497	7596.1875
2494.63845	7599.5875
2497.3802	7593.2875
2500.12024	7574.1875
2502.85855	7578.0875
2505.59514	7544.5875
2508.33002	7541.4875
2511.06318	7525.0875
2513.79462	7538.0875
2516.52435	7534.0875
2519.25237	7489.7875
2521.97867	7500.9875
2524.70327	7490.3875
2527.42616	7484.3875
2530.14734	7475.4875
2532.86681	7474.1875
2535.58458	7477.4875
2538.30065	7437.8875
2541.01501	7447.3875
2543.72768	7412.3875
2546.43864	7395.4875
2549.14791	7391.4875
2551.85548	7367.1875
2554.56136	7349.2875
2557.26554	7346.0875
2559.96803	7335.1875
2562.66883	7329.9875
2565.36794	7332.6875
2568.06536	7302.6875
2570.7611	7264.4875
2573.45514	7264.4875
2576.14751	7289.9875
2578.83819	7253.1875
2581.52719	7234.6875
2584.21451	7197.5875
2586.90015	7201.9875
2589.58411	7176.8875
2592.2664	7174.3875
2594.94701	7177.4875
2597.62594	7177.2875
2600.30321	7137.3875
2602.9788	7145.5875
2605.65273	7119.0875
2608.32498	7113.3875
2610.99557	7121.8875
2613.66449	7111.6875
2616.33175	7074.9875
2618.99734	7072.1875
2621.66128	7070.3875
2624.32355	7046.6875
2626.98416	7045.0875
2629.64311	7041.5875
2632.30041	7048.9875
2634.95605	7013.4875
2637.61004	7015.6875
2640.26238	7003.3875
2642.91306	6991.5875
2645.56209	7001.8875
2648.20948	6981.0875
2650.85521	6975.4875
2653.4993	6969.2875
2656.14175	6977.2875
2658.78255	6975.5875
2661.42171	6975.0875
2664.05923	6977.3875
2666.6951	6974.8875
2669.32934	6959.0875
2671.96194	6957.7875
2674.59291	6964.3875
2677.22224	6957.8875
2679.84993	6965.8875
2682.476	6943.6875
2685.10043	6945.8875
2687.72324	6933.9875
2690.34441	6934.9875
2692.96396	6932.3875
2695.58188	6952.0875
2698.19818	6929.6875
2700.81285	6922.9875
2703.4259	6926.6875
2706.03733	6923.1875
2708.64714	6914.4875
2711.25533	6929.5875
2713.86191	6891.4875
2716.46687	6921.5875
2719.07021	6917.4875
2721.67194	6923.2875
2724.27206	6914.2875
2726.87057	6933.7875
2729.46747	6927.9875
2732.06276	6911.3875
2734.65644	6880.4875
2737.24852	6905.5875
2739.83899	6901.8875
2742.42786	6912.5875
2745.01513	6869.8875
2747.60079	6872.3875
2750.18486	6870.8875
2752.76733	6859.9875
2755.3482	6851.1875
2757.92747	6838.0875
2760.50515	6824.5875
2763.08123	6818.9875
2765.65573	6823.3875
2768.22863	6827.8875
2770.79994	6800.1875
2773.36967	6771.5875
2775.9378	6799.2875
2778.50435	6774.8875
2781.06932	6761.1875
2783.6327	6754.1875
2786.1945	6731.9875
2788.75471	6728.8875
2791.31335	6699.5875
2793.87041	6726.3875
2796.42589	6685.5875
2798.97979	6695.5875
2801.53212	6667.3875
2804.08288	6666.3875
2806.63206	6648.1875
2809.17967	6626.4875
2811.72571	6607.5875
2814.27018	6571.7875
2816.81308	6589.4875
2819.35442	6568.8875
2821.89419	6567.3875
2824.43239	6552.3875
2826.96904	6525.1875
2829.50412	6541.0875
2832.03763	6532.9875
2834.56959	6515.0875
2837.1	6517.8875
2839.62884	6518.3875
2842.15613	6503.3875
2844.68186	6524.6875
2847.20604	6518.5875
2849.72867	6510.0875
2852.24974	6500.0875
2854.76927	6496.5875
2857.28724	6480.2875
2859.80367	6495.1875
2862.31855	6469.9875
2864.83189	6455.0875
2867.34368	6470.6875
2869.85393	6434.4875
2872.36264	6420.8875
2874.8698	6439.6875
2877.37543	6433.9875
2879.87952	6421.4875
2882.38207	6424.3875
2884.88308	6399.3875
2887.38256	6407.7875
2889.88051	6395.7875
2892.37692	6390.1875
2894.8718	6381.8875
2897.36515	6378.4875
2899.85698	6406.7875
2902.34727	6398.7875
2904.83604	6402.4875
2907.32328	6394.0875
2909.809	6403.5875
2912.29319	6389.3875
2914.77587	6401.3875
2917.25702	6405.2875
2919.73665	6380.9875
2922.21476	6402.9875
2924.69136	6365.4875
2927.16644	6374.3875
2929.64	6387.2875
2932.11205	6387.9875
2934.58258	6336.5875
2937.05161	6373.2875
2939.51912	6341.0875
2941.98513	6357.4875
2944.44962	6322.6875
2946.91261	6301.1875
2949.37409	6303.2875
2951.83407	6305.5875
2954.29254	6291.8875
2956.74951	6300.8875
2959.20498	6297.8875
2961.65895	6277.3875
2964.11142	6279.3875
2966.56239	6267.9875
2969.01186	6271.9875
2971.45984	6254.4875
2973.90632	6256.6875
2976.35131	6259.3875
2978.7948	6238.9875
2981.23681	6222.9875
2983.67732	6225.4875
2986.11635	6205.0875
2988.55388	6177.8875
2990.98993	6194.4875
2993.4245	6162.0875
2995.85758	6153.2875
2998.28917	6135.6875
3000.71928	6133.9875
3003.14791	6117.2875
3005.57506	6102.3875
3008.00073	6093.0875
3010.42493	6071.4875
3012.84764	6078.2875
3015.26888	6079.4875
3017.68865	6066.5875
3020.10694	6059.6875
3022.52376	6030.5875
3024.9391	6029.1875
3027.35298	6012.6875
3029.76539	6013.1875
3032.17632	6011.4875
3034.5858	5991.5875
3036.9938	6005.3875
3039.40034	6003.2875
3041.80542	5984.0875
3044.20903	5980.8875
3046.61118	5978.1875
3049.01187	5945.4875
3051.4111	5962.8875
3053.80888	5942.4875
3056.20519	5930.3875
3058.60005	5928.9875
3060.99345	5905.1875
3063.3854	5897.3875
3065.7759	5894.1875
3068.16494	5880.6875
3070.55254	5879.0875
3072.93868	5864.1875
