Data from AgNPs_FTO_APTES_UA_1uM_CRN_0uM_R6G_10uM_NaF_0.1M_Addition_RamanShift__38__11-49-59-453.txt Node

Date: Thu Jan 27 11:49:59 GMT 2022
User: TCL
Spectrometer: QEP01345
Trigger mode: 4
Integration Time (sec): 7.000000E0
Scans to average: 10
Electric dark correction enabled: true
Nonlinearity correction enabled: false
Boxcar width: 0
XAxis mode: Raman Shifts
Number of Pixels in Spectrum: 1044
>>>>>Begin Spectral Data<<<<<
46.04893	0.625
50.45542	0.825
54.85868	-1.375
59.25871	-0.875
63.6555	49.025
68.04907	48.725
72.43941	54.525
76.82654	56.025
81.21044	56.225
85.59113	56.425
89.96862	61.825
94.34289	63.425
98.71396	67.325
103.08183	66.725
107.4465	74.425
111.80798	71.625
116.16626	73.125
120.52136	81.525
124.87327	79.625
129.222	81.625
133.56755	83.525
137.90993	91.025
142.24913	93.325
146.58517	107.425
150.91804	126.925
155.24774	145.025
159.57429	175.725
163.89768	230.125
168.21792	300.225
172.53501	410.025
176.84895	555.125
181.15975	780.425
185.46741	1092.225
189.77193	1506.625
194.07331	2013.925
198.37157	2579.225
202.6667	3203.225
206.9587	3792.625
211.24758	4398.625
215.53334	4992.425
219.81599	5669.125
224.09553	6371.425
228.37195	7178.725
232.64527	8052.825
236.91549	8963.925
241.18261	9859.525
245.44663	10692.125
249.70755	11410.525
253.96539	12035.025
258.22014	12568.225
262.4718	13009.325
266.72039	13323.225
270.96589	13490.625
275.20832	13457.925
279.44768	13356.825
283.68397	13208.525
287.91719	13047.025
292.14735	12972.525
296.37445	12983.225
300.59849	13093.825
304.81948	13234.425
309.03742	13279.825
313.25231	13233.425
317.46415	12963.525
321.67296	12521.825
325.87872	12117.925
330.08145	11924.125
334.28114	11908.325
338.47781	12001.825
342.67145	12187.025
346.86207	12401.225
351.04966	12724.025
355.23424	13080.325
359.4158	13409.725
363.59435	13589.425
367.76989	13736.625
371.94243	13841.425
376.11196	13881.225
380.27849	13923.025
384.44203	13972.725
388.60257	14031.625
392.76012	14101.025
396.91468	14286.125
401.06626	14533.125
405.21485	14711.125
409.36047	14645.325
413.50311	14353.725
417.64277	14111.425
421.77947	14029.425
425.9132	14024.425
430.04396	14048.425
434.17176	14109.225
438.2966	14218.625
442.41849	14417.425
446.53742	14775.425
450.6534	15171.325
454.76644	15498.825
458.87653	15602.725
462.98368	15513.825
467.08789	15286.925
471.18916	15033.725
475.2875	14763.025
479.38291	14624.725
483.4754	14498.125
487.56496	14384.625
491.6516	14250.725
495.73531	14161.125
499.81612	14135.825
503.89401	14259.025
507.96899	14331.425
512.04106	14305.225
516.11023	14243.325
520.1765	14188.825
524.23987	14096.725
528.30034	13973.325
532.35792	13804.925
536.41261	13566.725
540.46441	13409.225
544.51333	13319.525
548.55936	13448.725
552.60252	13744.025
556.64279	14084.825
560.6802	14245.025
564.71473	14339.825
568.7464	14569.725
572.7752	14866.425
576.80114	15122.925
580.82422	15379.025
584.84444	15698.825
588.86181	15972.725
592.87633	16202.025
596.888	16252.125
600.89682	16155.125
604.9028	16667.425
608.90594	18499.025
612.90624	20667.325
616.90371	19740.125
620.89834	16140.825
624.89015	14399.725
628.87913	14191.525
632.86528	14229.525
636.84862	14150.425
640.82913	13901.025
644.80683	13556.225
648.78172	13208.125
652.75379	13169.425
656.72306	13360.425
660.68952	13669.925
664.65319	13646.525
668.61405	13302.525
672.57211	13201.725
676.52738	13224.725
680.47986	13192.125
684.42955	13098.525
688.37646	13028.925
692.32058	13063.325
696.26192	13231.925
700.20048	13399.525
704.13626	13521.625
708.06928	13474.525
711.99952	13354.425
715.927	13291.125
719.85171	13381.725
723.77365	13343.325
727.69284	13179.625
731.60928	13014.025
735.52295	12996.925
739.43388	12992.225
743.34206	13080.825
747.24749	13163.025
751.15017	13225.325
755.05012	13460.325
758.94733	13846.425
762.8418	14602.325
766.73354	15893.625
770.62254	17224.725
774.50882	17745.325
778.39237	17018.425
782.27321	15689.325
786.15132	14466.225
790.02671	13732.625
793.89938	13393.325
797.76935	13254.325
801.6366	13181.125
805.50115	13149.125
809.36299	13089.525
813.22213	12928.525
817.07857	12860.725
820.93231	12815.425
824.78336	12767.625
828.63172	12764.125
832.47738	12768.225
836.32036	12794.625
840.16066	12820.625
843.99827	12861.625
847.8332	12855.825
851.66546	12823.625
855.49504	12759.125
859.32195	12775.225
863.1462	12724.225
866.96777	12685.325
870.78668	12629.725
874.60293	12658.425
878.41652	12651.725
882.22745	12714.225
886.03573	12783.625
889.84136	12800.825
893.64433	12737.125
897.44466	12678.125
901.24235	12646.625
905.0374	12577.725
908.8298	12522.425
912.61957	12541.525
916.40671	12631.425
920.19121	12770.325
923.97308	12991.825
927.75233	13162.325
931.52895	13140.225
935.30295	13014.825
939.07433	12752.625
942.84309	12466.525
946.60924	12376.225
950.37278	12332.425
954.13371	12292.625
957.89203	12269.925
961.64774	12172.525
965.40086	12116.625
969.15137	12099.725
972.89929	12066.025
976.64461	12031.725
980.38733	12027.925
984.12747	12093.825
987.86502	12208.925
991.59999	12393.225
995.33237	12692.225
999.06217	13092.025
1002.78939	13607.725
1006.51404	13858.225
1010.23611	14024.525
1013.95561	14154.125
1017.67255	14137.425
1021.38692	13952.025
1025.09872	13804.425
1028.80796	13887.425
1032.51465	14326.325
1036.21877	14735.025
1039.92035	14793.225
1043.61937	14550.925
1047.31584	14171.925
1051.00976	13736.825
1054.70114	13478.725
1058.38998	13472.325
1062.07627	13511.925
1065.76003	13563.125
1069.44126	13629.925
1073.11995	13825.025
1076.79611	14083.425
1080.46974	14230.325
1084.14085	14377.225
1087.80943	14568.625
1091.47549	14647.725
1095.13903	14604.925
1098.80005	14362.225
1102.45857	14035.925
1106.11456	13748.125
1109.76805	13644.825
1113.41903	13693.225
1117.06751	13785.325
1120.71348	13935.925
1124.35696	14101.225
1127.99793	14349.525
1131.63641	14474.925
1135.2724	14395.225
1138.90589	14208.425
1142.5369	14090.725
1146.16542	14035.425
1149.79145	13997.125
1153.415	14046.125
1157.03607	14139.825
1160.65467	14448.925
1164.27079	15030.825
1167.88443	15838.525
1171.49561	16917.925
1175.10432	18336.225
1178.71056	20219.325
1182.31434	21975.825
1185.91565	22934.925
1189.51451	22906.225
1193.11091	22091.225
1196.70485	20910.325
1200.29634	19783.425
1203.88538	18916.825
1207.47197	18274.025
1211.05612	17675.325
1214.63782	17281.425
1218.21708	17039.825
1221.79391	16995.125
1225.36829	17058.325
1228.94024	16976.425
1232.50976	16682.025
1236.07685	16319.025
1239.6415	16141.125
1243.20374	16034.125
1246.76355	16092.625
1250.32093	16271.725
1253.8759	16681.025
1257.42845	17192.925
1260.97859	17761.325
1264.52631	18320.525
1268.07163	18895.725
1271.61453	19556.125
1275.15503	20254.225
1278.69312	20894.025
1282.22882	21381.025
1285.76211	21817.525
1289.29301	22260.725
1292.82151	22846.525
1296.34761	23686.025
1299.87133	24928.625
1303.39266	26520.525
1306.9116	28534.825
1310.42815	30583.725
1313.94233	31921.825
1317.45412	32003.625
1320.96354	31148.225
1324.47058	30004.725
1327.97525	28985.425
1331.47754	28241.225
1334.97747	27716.125
1338.47502	27408.325
1341.97022	27162.225
1345.46305	26875.225
1348.95352	26637.825
1352.44163	26780.225
1355.92738	27575.625
1359.41078	29234.925
1362.89183	31004.425
1366.37053	30925.725
1369.84688	28350.625
1373.32088	24913.325
1376.79254	22423.525
1380.26186	21172.025
1383.72883	20813.925
1387.19347	20612.425
1390.65578	20241.625
1394.11575	20006.725
1397.57339	20092.925
1401.0287	20471.125
1404.48168	20847.525
1407.93234	20967.625
1411.38068	20785.225
1414.82669	20385.225
1418.27039	19734.025
1421.71177	19046.325
1425.15083	18439.625
1428.58758	18134.225
1432.02203	18190.025
1435.45416	18576.525
1438.88399	19043.425
1442.31151	19380.425
1445.73673	19636.825
1449.15965	19854.925
1452.58027	19949.325
1455.9986	19919.325
1459.41463	20005.525
1462.82837	20312.925
1466.23982	20862.125
1469.64898	21305.025
1473.05586	21614.425
1476.46045	21722.725
1479.86276	21634.125
1483.26279	21443.825
1486.66054	21327.725
1490.05602	21402.925
1493.44922	21647.725
1496.84016	21974.125
1500.22882	22591.425
1503.61521	23579.225
1506.99934	24804.925
1510.38121	25916.125
1513.76081	26318.325
1517.13816	25611.625
1520.51324	24109.425
1523.88607	22612.525
1527.25665	21617.325
1530.62498	21065.425
1533.99105	20765.825
1537.35488	20505.825
1540.71647	20286.025
1544.07581	20052.025
1547.4329	19684.425
1550.78776	19388.925
1554.14038	19235.525
1557.49077	19140.825
1560.83892	19104.225
1564.18484	19166.725
1567.52853	19286.025
1570.86999	19475.125
1574.20922	19721.525
1577.54624	19896.125
1580.88103	19782.825
1584.2136	19628.025
1587.54395	19890.725
1590.87208	20813.225
1594.19801	22225.725
1597.52172	23856.825
1600.84321	24526.525
1604.16251	23594.025
1607.47959	21661.925
1610.79447	19669.725
1614.10715	17906.025
1617.41763	16483.425
1620.7259	15503.025
1624.03199	15027.325
1627.33587	15002.425
1630.63757	15403.025
1633.93707	16347.125
1637.23439	17876.925
1640.52951	20052.225
1643.82246	22563.725
1647.11321	24615.925
1650.40179	25104.725
1653.68819	23601.025
1656.97241	20559.925
1660.25446	17508.325
1663.53433	15216.925
1666.81203	13789.525
1670.08756	12957.825
1673.36092	12447.725
1676.63211	12110.325
1679.90115	11854.925
1683.16801	11683.125
1686.43272	11550.025
1689.69527	11422.525
1692.95567	11343.925
1696.2139	11247.825
1699.46999	11158.725
1702.72392	11131.125
1705.97571	11119.725
1709.22535	11160.625
1712.47284	11182.025
1715.71819	11203.625
1718.96139	11134.125
1722.20246	11133.525
1725.44139	11085.325
1728.67818	11029.125
1731.91284	10952.725
1735.14537	10889.725
1738.37576	10849.725
1741.60403	10813.925
1744.83017	10739.825
1748.05418	10731.925
1751.27607	10687.125
1754.49584	10635.725
1757.71349	10651.625
1760.92903	10598.925
1764.14244	10581.325
1767.35375	10589.125
1770.56294	10551.925
1773.77002	10550.225
1776.97499	10533.325
1780.17785	10546.025
1783.37861	10550.025
1786.57727	10565.925
1789.77382	10531.525
1792.96828	10522.225
1796.16064	10497.125
1799.3509	10472.225
1802.53907	10472.425
1805.72514	10424.425
1808.90913	10437.625
1812.09102	10404.725
1815.27083	10390.325
1818.44856	10369.425
1821.6242	10339.925
1824.79776	10329.625
1827.96924	10323.525
1831.13864	10311.225
1834.30597	10348.325
1837.47122	10320.925
1840.6344	10351.825
1843.7955	10354.125
1846.95454	10352.925
1850.11151	10353.825
1853.26642	10377.825
1856.41926	10347.425
1859.57004	10351.725
1862.71876	10333.125
1865.86542	10348.225
1869.01003	10335.825
1872.15258	10339.125
1875.29308	10343.825
1878.43152	10344.925
1881.56792	10329.925
1884.70227	10340.625
1887.83457	10313.725
1890.96482	10311.125
1894.09304	10324.025
1897.21921	10321.125
1900.34335	10307.625
1903.46544	10292.125
1906.58551	10317.025
1909.70353	10281.825
1912.81953	10266.925
1915.93349	10256.825
1919.04543	10224.825
1922.15534	10172.525
1925.26322	10137.525
1928.36908	10126.625
1931.47292	10095.525
1934.57473	10058.225
1937.67453	9997.025
1940.77232	9995.125
1943.86808	9954.825
1946.96184	9921.925
1950.05358	9861.025
1953.14331	9842.625
1956.23103	9817.525
1959.31675	9804.825
1962.40046	9760.425
1965.48217	9730.025
1968.56188	9705.625
1971.63959	9709.725
1974.7153	9682.825
1977.78901	9626.525
1980.86073	9621.125
1983.93046	9574.525
1986.99819	9508.025
1990.06394	9511.425
1993.1277	9478.125
1996.18947	9443.125
1999.24925	9436.225
2002.30706	9396.225
2005.36288	9367.525
2008.41672	9343.325
2011.46859	9314.025
2014.51848	9275.925
2017.56639	9269.125
2020.61233	9235.025
2023.6563	9216.225
2026.6983	9199.625
2029.73833	9211.025
2032.7764	9183.425
2035.8125	9174.325
2038.84664	9159.825
2041.87881	9165.725
2044.90903	9160.825
2047.93729	9114.925
2050.96359	9109.025
2053.98794	9093.925
2057.01034	9092.625
2060.03078	9083.425
2063.04927	9085.525
2066.06582	9084.725
2069.08042	9083.525
2072.09307	9070.225
2075.10378	9060.725
2078.11255	9064.625
2081.11938	9051.925
2084.12426	9042.725
2087.12722	9048.825
2090.12824	9034.425
2093.12732	9058.025
2096.12447	9042.625
2099.11969	9033.025
2102.11299	9034.525
2105.10435	9050.125
2108.09379	9075.225
2111.08131	9046.125
2114.0669	9073.725
2117.05057	9062.325
2120.03233	9067.425
2123.01216	9074.125
2125.99008	9070.425
2128.96609	9088.325
2131.94018	9105.325
2134.91236	9084.325
2137.88263	9089.025
2140.851	9106.625
2143.81746	9149.425
2146.78201	9139.025
2149.74466	9125.825
2152.7054	9139.225
2155.66425	9139.525
2158.6212	9140.425
2161.57625	9110.325
2164.52941	9117.525
2167.48067	9119.225
2170.43004	9117.925
2173.37752	9124.225
2176.32311	9106.425
2179.26681	9120.225
2182.20863	9123.725
2185.14856	9134.025
2188.08661	9122.825
2191.02278	9122.625
2193.95707	9130.125
2196.88948	9123.325
2199.82001	9117.525
2202.74867	9113.225
2205.67545	9119.525
2208.60037	9097.725
2211.52341	9107.825
2214.44458	9097.725
2217.36388	9067.225
2220.28132	9071.325
2223.1969	9058.525
2226.11061	9060.125
2229.02246	9006.625
2231.93245	9016.925
2234.84058	9002.225
2237.74686	8972.125
2240.65128	8982.325
2243.55385	8959.025
2246.45456	8940.925
2249.35343	8928.025
2252.25044	8943.425
2255.14561	8895.425
2258.03893	8897.225
2260.93041	8861.625
2263.82004	8856.925
2266.70783	8854.825
2269.59378	8819.825
2272.4779	8817.125
2275.36017	8802.225
2278.24061	8792.125
2281.11922	8775.225
2283.996	8768.625
2286.87094	8754.525
2289.74405	8718.425
2292.61534	8722.225
2295.4848	8729.325
2298.35243	8724.625
2301.21824	8726.425
2304.08223	8739.725
2306.94439	8727.925
2309.80474	8739.925
2312.66327	8760.425
2315.51999	8755.025
2318.37489	8750.725
2321.22797	8752.725
2324.07925	8753.725
2326.92871	8747.125
2329.77637	8738.025
2332.62222	8720.325
2335.46626	8707.325
2338.3085	8733.425
2341.14893	8719.925
2343.98756	8721.125
2346.8244	8729.725
2349.65943	8744.225
2352.49267	8726.925
2355.32411	8727.925
2358.15376	8718.425
2360.98161	8711.225
2363.80768	8727.225
2366.63195	8689.925
2369.45444	8707.525
2372.27514	8695.725
2375.09405	8683.825
2377.91118	8634.325
2380.72652	8612.625
2383.54009	8604.625
2386.35187	8578.725
2389.16188	8563.325
2391.97011	8537.825
2394.77657	8534.825
2397.58125	8509.025
2400.38416	8524.025
2403.18529	8483.925
2405.98466	8466.825
2408.78226	8463.725
2411.57809	8465.325
2414.37216	8452.725
2417.16446	8419.825
2419.955	8410.525
2422.74378	8432.625
2425.5308	8427.925
2428.31606	8393.125
2431.09956	8413.025
2433.88131	8394.425
2436.6613	8384.925
2439.43954	8377.625
2442.21603	8377.925
2444.99077	8405.925
2447.76377	8405.025
2450.53501	8409.125
2453.30451	8387.025
2456.07226	8356.625
2458.83827	8384.525
2461.60254	8401.525
2464.36507	8356.925
2467.12586	8386.025
2469.88492	8373.625
2472.64224	8398.425
2475.39782	8381.525
2478.15167	8392.925
2480.90379	8395.325
2483.65417	8411.325
2486.40283	8412.425
2489.14976	8411.925
2491.89497	8407.525
2494.63845	8431.325
2497.3802	8391.625
2500.12024	8437.625
2502.85855	8392.025
2505.59514	8416.225
2508.33002	8369.825
2511.06318	8394.425
2513.79462	8341.225
2516.52435	8340.025
2519.25237	8336.325
2521.97867	8358.225
2524.70327	8342.625
2527.42616	8317.625
2530.14734	8326.425
2532.86681	8331.625
2535.58458	8322.525
2538.30065	8327.125
2541.01501	8320.725
2543.72768	8327.825
2546.43864	8316.925
2549.14791	8302.925
2551.85548	8291.625
2554.56136	8282.225
2557.26554	8259.225
2559.96803	8240.425
2562.66883	8279.325
2565.36794	8247.025
2568.06536	8248.225
2570.7611	8231.125
2573.45514	8234.825
2576.14751	8227.425
2578.83819	8225.125
2581.52719	8233.025
2584.21451	8226.425
2586.90015	8259.025
2589.58411	8224.525
2592.2664	8208.725
2594.94701	8192.425
2597.62594	8197.025
2600.30321	8191.225
2602.9788	8182.425
2605.65273	8172.625
2608.32498	8163.525
2610.99557	8171.225
2613.66449	8169.525
2616.33175	8177.225
2618.99734	8158.225
2621.66128	8171.225
2624.32355	8147.825
2626.98416	8170.625
2629.64311	8173.425
2632.30041	8166.725
2634.95605	8150.225
2637.61004	8157.225
2640.26238	8103.225
2642.91306	8126.125
2645.56209	8107.025
2648.20948	8102.825
2650.85521	8096.425
2653.4993	8108.225
2656.14175	8105.425
2658.78255	8124.425
2661.42171	8117.625
2664.05923	8132.125
2666.6951	8138.925
2669.32934	8141.425
2671.96194	8117.825
2674.59291	8148.525
2677.22224	8146.825
2679.84993	8142.425
2682.476	8110.725
2685.10043	8117.425
2687.72324	8096.425
2690.34441	8098.425
2692.96396	8088.825
2695.58188	8096.325
2698.19818	8094.025
2700.81285	8083.025
2703.4259	8076.025
2706.03733	8051.425
2708.64714	8045.025
2711.25533	8104.725
2713.86191	8095.025
2716.46687	8103.025
2719.07021	8120.125
2721.67194	8107.925
2724.27206	8122.125
2726.87057	8141.625
2729.46747	8134.425
2732.06276	8134.125
2734.65644	8120.725
2737.24852	8143.125
2739.83899	8123.225
2742.42786	8109.925
2745.01513	8104.725
2747.60079	8112.225
2750.18486	8095.225
2752.76733	8058.025
2755.3482	8065.925
2757.92747	8094.125
2760.50515	8077.625
2763.08123	8059.025
2765.65573	8068.325
2768.22863	8080.825
2770.79994	8080.425
2773.36967	8062.925
2775.9378	8099.725
2778.50435	8080.425
2781.06932	8063.125
2783.6327	8042.425
2786.1945	8063.025
2788.75471	8061.725
2791.31335	8047.425
2793.87041	8027.925
2796.42589	8030.225
2798.97979	8012.525
2801.53212	7991.625
2804.08288	7997.225
2806.63206	7977.325
2809.17967	7946.725
2811.72571	7936.525
2814.27018	7942.025
2816.81308	7908.425
2819.35442	7907.925
2821.89419	7896.225
2824.43239	7890.425
2826.96904	7899.825
2829.50412	7904.025
2832.03763	7891.125
2834.56959	7897.225
2837.1	7898.825
2839.62884	7901.625
2842.15613	7898.525
2844.68186	7909.525
2847.20604	7926.125
2849.72867	7920.325
2852.24974	7903.025
2854.76927	7902.925
2857.28724	7897.725
2859.80367	7910.725
2862.31855	7846.925
2864.83189	7868.925
2867.34368	7858.025
2869.85393	7871.625
2872.36264	7853.325
2874.8698	7883.625
2877.37543	7870.625
2879.87952	7867.325
2882.38207	7885.225
2884.88308	7893.825
2887.38256	7874.425
2889.88051	7873.925
2892.37692	7912.625
2894.8718	7905.425
2897.36515	7901.825
2899.85698	7914.525
2902.34727	7936.825
2904.83604	7933.125
2907.32328	7957.625
2909.809	7926.425
2912.29319	7961.025
2914.77587	7950.225
2917.25702	7962.425
2919.73665	7951.125
2922.21476	7963.525
2924.69136	7926.425
2927.16644	7926.225
2929.64	7929.225
2932.11205	7889.725
2934.58258	7903.125
2937.05161	7911.625
2939.51912	7909.725
2941.98513	7883.325
2944.44962	7865.225
2946.91261	7839.525
2949.37409	7844.925
2951.83407	7841.825
2954.29254	7811.425
2956.74951	7815.125
2959.20498	7814.825
2961.65895	7785.625
2964.11142	7797.325
2966.56239	7778.425
2969.01186	7785.225
2971.45984	7739.625
2973.90632	7727.925
2976.35131	7713.525
2978.7948	7690.225
2981.23681	7662.125
2983.67732	7664.825
2986.11635	7654.725
2988.55388	7627.225
2990.98993	7592.025
2993.4245	7581.125
2995.85758	7563.925
2998.28917	7568.325
3000.71928	7542.325
3003.14791	7522.525
3005.57506	7511.425
3008.00073	7498.425
3010.42493	7486.325
3012.84764	7487.825
3015.26888	7492.525
3017.68865	7471.125
3020.10694	7456.225
3022.52376	7442.725
3024.9391	7445.825
3027.35298	7450.425
3029.76539	7428.825
3032.17632	7442.725
3034.5858	7421.525
3036.9938	7417.525
3039.40034	7405.425
3041.80542	7421.825
3044.20903	7385.325
3046.61118	7390.725
3049.01187	7373.425
3051.4111	7385.425
3053.80888	7352.525
3056.20519	7340.025
3058.60005	7339.825
3060.99345	7345.325
3063.3854	7309.325
3065.7759	7273.425
3068.16494	7296.825
3070.55254	7254.125
3072.93868	7240.825
3075.32338	7218.825
3077.70662	7232.325
3080.08842	7208.525
3082.46878	7219.125
3084.84769	7221.825
3087.22515	7219.325
3089.60118	7187.825
3091.97576	7198.025
3094.3489	7207.525
3096.72061	7220.425
3099.09087	7201.725
3101.4597	7191.525
3103.82709	7195.025
3106.19305	7197.225
3108.55757	7192.925
3110.92066	7183.025
3113.28232	7198.725
3115.64255	7156.125
3118.00134	7152.825
3120.35871	7142.125
3122.71466	7122.125
3125.06917	7130.225
3127.42226	7144.925
3129.77393	7120.925
3132.12417	7112.325
3134.47299	7099.825
3136.82039	7078.225
3139.16636	7110.925
3141.51092	7118.525
3143.85406	7134.625
3146.19579	7120.925
3148.53609	7131.725
3150.87499	7127.425
3153.21246	7139.725
3155.54853	7143.725
3157.88318	7148.325
3160.21642	7151.125
3162.54826	7166.325
3164.87868	7139.725
3167.2077	7160.725
3169.5353	7155.925
3171.86151	7158.025
3174.18631	7152.225
3176.5097	7149.525
3178.83169	7128.925
3181.15228	7145.425
