Data from AgNPs_FTO_APTES_UA_1uM_CRN_5uM_R6G_10uM_NaF_0.1M_Addition_RamanShift__25__14-05-19-608.txt Node

Date: Thu Jan 27 14:05:19 GMT 2022
User: TCL
Spectrometer: QEP01345
Trigger mode: 4
Integration Time (sec): 7.000000E0
Scans to average: 10
Electric dark correction enabled: true
Nonlinearity correction enabled: false
Boxcar width: 0
XAxis mode: Raman Shifts
Number of Pixels in Spectrum: 1044
>>>>>Begin Spectral Data<<<<<
46.04893	1.675
50.45542	0.675
54.85868	-1.625
59.25871	-1.625
63.6555	49.475
68.04907	49.975
72.43941	53.975
76.82654	56.575
81.21044	57.375
85.59113	60.075
89.96862	58.475
94.34289	64.575
98.71396	63.675
103.08183	63.775
107.4465	70.775
111.80798	71.575
116.16626	71.575
120.52136	79.375
124.87327	79.075
129.222	75.075
133.56755	83.775
137.90993	83.375
142.24913	94.275
146.58517	99.975
150.91804	114.575
155.24774	132.575
159.57429	160.375
163.89768	201.775
168.21792	258.575
172.53501	355.275
176.84895	477.575
181.15975	663.775
185.46741	917.575
189.77193	1271.475
194.07331	1703.975
198.37157	2183.775
202.6667	2707.375
206.9587	3211.575
211.24758	3722.575
215.53334	4241.975
219.81599	4803.575
224.09553	5459.975
228.37195	6189.875
232.64527	6951.775
236.91549	7749.275
241.18261	8504.275
245.44663	9172.975
249.70755	9736.575
253.96539	10238.575
258.22014	10688.875
262.4718	11103.275
266.72039	11403.275
270.96589	11588.775
275.20832	11627.675
279.44768	11580.475
283.68397	11488.975
287.91719	11424.575
292.14735	11427.075
296.37445	11552.275
300.59849	11766.175
304.81948	12057.775
309.03742	12220.375
313.25231	12117.375
317.46415	11679.775
321.67296	11018.475
325.87872	10477.575
330.08145	10216.475
334.28114	10176.775
338.47781	10322.875
342.67145	10553.175
346.86207	10890.275
351.04966	11366.075
355.23424	11912.375
359.4158	12322.175
363.59435	12574.375
367.76989	12676.575
371.94243	12682.475
376.11196	12711.575
380.27849	12682.975
384.44203	12626.975
388.60257	12582.975
392.76012	12568.175
396.91468	12738.775
401.06626	13012.775
405.21485	13228.575
409.36047	13171.675
413.50311	12692.975
417.64277	12300.075
421.77947	12090.475
425.9132	12059.875
430.04396	12090.375
434.17176	12150.175
438.2966	12292.775
442.41849	12530.075
446.53742	12843.275
450.6534	13190.475
454.76644	13499.075
458.87653	13590.475
462.98368	13553.075
467.08789	13376.475
471.18916	13125.075
475.2875	12850.875
479.38291	12674.875
483.4754	12531.175
487.56496	12377.975
491.6516	12252.775
495.73531	12152.375
499.81612	12134.975
503.89401	12231.975
507.96899	12317.375
512.04106	12386.575
516.11023	12478.175
520.1765	12550.075
524.23987	12482.475
528.30034	12343.275
532.35792	12104.275
536.41261	11929.075
540.46441	11733.075
544.51333	11687.475
548.55936	11808.075
552.60252	12074.175
556.64279	12333.575
560.6802	12475.775
564.71473	12599.675
568.7464	12895.175
572.7752	13195.175
576.80114	13125.075
580.82422	12997.275
584.84444	12940.775
588.86181	12958.375
592.87633	12986.075
596.888	13116.075
600.89682	13420.175
604.9028	14453.375
608.90594	17017.275
612.90624	20400.375
616.90371	19751.975
620.89834	15164.975
624.89015	12969.275
628.87913	12599.075
632.86528	12595.875
636.84862	12594.875
640.82913	12419.975
644.80683	12028.675
648.78172	11706.875
652.75379	11726.375
656.72306	12061.075
660.68952	12484.675
664.65319	12476.275
668.61405	12110.375
672.57211	11914.275
676.52738	11886.875
680.47986	11837.975
684.42955	11866.375
688.37646	11800.375
692.32058	11878.175
696.26192	11954.975
700.20048	12085.075
704.13626	12160.375
708.06928	12133.575
711.99952	12054.175
715.927	12007.775
719.85171	12014.575
723.77365	11978.375
727.69284	11880.875
731.60928	11769.775
735.52295	11774.175
739.43388	11817.475
743.34206	11870.075
747.24749	11967.275
751.15017	12069.775
755.05012	12283.675
758.94733	12699.575
762.8418	13601.275
766.73354	15111.875
770.62254	16746.875
774.50882	17463.975
778.39237	16705.175
782.27321	15024.775
786.15132	13505.675
790.02671	12585.575
793.89938	12173.475
797.76935	12020.475
801.6366	11942.475
805.50115	11904.875
809.36299	11799.075
813.22213	11781.475
817.07857	11760.675
820.93231	11767.575
824.78336	11799.175
828.63172	11844.775
832.47738	11878.175
836.32036	11870.775
840.16066	11897.075
843.99827	11873.375
847.8332	11879.575
851.66546	11829.775
855.49504	11791.175
859.32195	11761.175
863.1462	11721.075
866.96777	11689.875
870.78668	11650.775
874.60293	11692.975
878.41652	11701.075
882.22745	11744.175
886.03573	11825.075
889.84136	11818.875
893.64433	11738.275
897.44466	11693.775
901.24235	11679.675
905.0374	11666.275
908.8298	11630.575
912.61957	11651.675
916.40671	11741.175
920.19121	11863.775
923.97308	11993.875
927.75233	12082.775
931.52895	12145.675
935.30295	12088.575
939.07433	11799.375
942.84309	11584.975
946.60924	11510.875
950.37278	11451.475
954.13371	11383.375
957.89203	11304.675
961.64774	11258.575
965.40086	11217.375
969.15137	11180.875
972.89929	11143.175
976.64461	11119.975
980.38733	11159.675
984.12747	11192.175
987.86502	11292.975
991.59999	11447.175
995.33237	11646.175
999.06217	11970.875
1002.78939	12353.775
1006.51404	12669.575
1010.23611	12899.175
1013.95561	13053.775
1017.67255	13056.775
1021.38692	12963.675
1025.09872	12866.975
1028.80796	12911.675
1032.51465	13204.475
1036.21877	13472.875
1039.92035	13539.175
1043.61937	13322.875
1047.31584	13009.775
1051.00976	12666.875
1054.70114	12484.575
1058.38998	12467.675
1062.07627	12520.475
1065.76003	12522.975
1069.44126	12595.275
1073.11995	12691.875
1076.79611	12811.975
1080.46974	12869.375
1084.14085	13076.275
1087.80943	13289.675
1091.47549	13377.275
1095.13903	13252.075
1098.80005	12913.975
1102.45857	12667.375
1106.11456	12491.775
1109.76805	12504.775
1113.41903	12660.175
1117.06751	12877.875
1120.71348	13175.075
1124.35696	13486.275
1127.99793	13751.575
1131.63641	13830.675
1135.2724	13493.575
1138.90589	13157.175
1142.5369	12901.675
1146.16542	12753.275
1149.79145	12673.775
1153.415	12681.975
1157.03607	12823.975
1160.65467	13020.275
1164.27079	13395.575
1167.88443	13967.675
1171.49561	14816.275
1175.10432	16154.075
1178.71056	17925.475
1182.31434	19369.775
1185.91565	20087.675
1189.51451	19969.875
1193.11091	19154.575
1196.70485	17955.675
1200.29634	16944.675
1203.88538	16195.075
1207.47197	15468.975
1211.05612	14902.475
1214.63782	14569.175
1218.21708	14508.675
1221.79391	14539.575
1225.36829	14670.775
1228.94024	14813.375
1232.50976	14777.175
1236.07685	14751.975
1239.6415	14677.375
1243.20374	14633.075
1246.76355	14644.875
1250.32093	14804.775
1253.8759	15122.275
1257.42845	15547.875
1260.97859	15967.475
1264.52631	16306.875
1268.07163	16675.175
1271.61453	17020.775
1275.15503	17441.575
1278.69312	17809.575
1282.22882	18153.875
1285.76211	18498.575
1289.29301	18907.975
1292.82151	19346.175
1296.34761	19852.275
1299.87133	20621.175
1303.39266	21782.775
1306.9116	23522.675
1310.42815	25646.975
1313.94233	27109.775
1317.45412	27177.375
1320.96354	26184.375
1324.47058	24898.275
1327.97525	23766.075
1331.47754	22998.475
1334.97747	22677.775
1338.47502	22775.675
1341.97022	22988.375
1345.46305	23217.575
1348.95352	23438.175
1352.44163	23839.175
1355.92738	24817.875
1359.41078	26878.075
1362.89183	29226.475
1366.37053	29012.375
1369.84688	25746.575
1373.32088	22309.075
1376.79254	19992.175
1380.26186	18924.375
1383.72883	18439.275
1387.19347	18108.775
1390.65578	17684.875
1394.11575	17461.875
1397.57339	17479.375
1401.0287	17698.875
1404.48168	18034.675
1407.93234	18413.575
1411.38068	18657.275
1414.82669	18569.575
1418.27039	18222.275
1421.71177	17681.775
1425.15083	17237.275
1428.58758	16958.375
1432.02203	16866.075
1435.45416	16939.175
1438.88399	17046.575
1442.31151	17146.575
1445.73673	17245.875
1449.15965	17398.775
1452.58027	17416.675
1455.9986	17284.675
1459.41463	17330.375
1462.82837	17423.475
1466.23982	17685.975
1469.64898	17990.175
1473.05586	18209.675
1476.46045	18348.775
1479.86276	18546.275
1483.26279	18731.375
1486.66054	18987.275
1490.05602	19295.175
1493.44922	19760.275
1496.84016	20375.275
1500.22882	21186.075
1503.61521	22359.275
1506.99934	23926.275
1510.38121	25553.975
1513.76081	26565.175
1517.13816	26054.175
1520.51324	24137.075
1523.88607	22055.475
1527.25665	20434.775
1530.62498	19420.775
1533.99105	18845.775
1537.35488	18465.075
1540.71647	18233.775
1544.07581	18130.875
1547.4329	18006.275
1550.78776	17895.075
1554.14038	17819.275
1557.49077	17933.075
1560.83892	18092.275
1564.18484	18290.075
1567.52853	18402.475
1570.86999	18494.775
1574.20922	18585.075
1577.54624	18572.175
1580.88103	18220.475
1584.2136	17756.775
1587.54395	17768.275
1590.87208	18323.175
1594.19801	19380.175
1597.52172	20630.075
1600.84321	21188.875
1604.16251	20564.875
1607.47959	19284.375
1610.79447	17841.875
1614.10715	16495.675
1617.41763	15457.175
1620.7259	14739.975
1624.03199	14421.375
1627.33587	14434.175
1630.63757	14793.675
1633.93707	15500.475
1637.23439	16539.675
1640.52951	17830.975
1643.82246	19210.075
1647.11321	20465.775
1650.40179	21216.375
1653.68819	20577.375
1656.97241	18474.475
1660.25446	16111.875
1663.53433	14301.375
1666.81203	13195.075
1670.08756	12534.975
1673.36092	12120.375
1676.63211	11885.475
1679.90115	11697.575
1683.16801	11579.975
1686.43272	11458.175
1689.69527	11391.175
1692.95567	11324.875
1696.2139	11266.175
1699.46999	11211.075
1702.72392	11175.175
1705.97571	11187.875
1709.22535	11204.175
1712.47284	11270.375
1715.71819	11252.875
1718.96139	11247.475
1722.20246	11265.175
1725.44139	11194.275
1728.67818	11165.175
1731.91284	11092.075
1735.14537	11046.275
1738.37576	11011.075
1741.60403	10948.075
1744.83017	10928.375
1748.05418	10888.475
1751.27607	10881.475
1754.49584	10864.475
1757.71349	10823.075
1760.92903	10811.875
1764.14244	10800.775
1767.35375	10828.575
1770.56294	10790.975
1773.77002	10769.875
1776.97499	10797.775
1780.17785	10801.775
1783.37861	10804.775
1786.57727	10793.975
1789.77382	10820.975
1792.96828	10782.675
1796.16064	10787.875
1799.3509	10760.675
1802.53907	10743.675
1805.72514	10724.075
1808.90913	10699.175
1812.09102	10668.175
1815.27083	10662.675
1818.44856	10671.375
1821.6242	10643.275
1824.79776	10644.575
1827.96924	10654.175
1831.13864	10625.875
1834.30597	10627.975
1837.47122	10620.075
1840.6344	10601.875
1843.7955	10618.775
1846.95454	10628.375
1850.11151	10652.475
1853.26642	10618.075
1856.41926	10653.375
1859.57004	10664.775
1862.71876	10663.475
1865.86542	10647.775
1869.01003	10664.175
1872.15258	10688.875
1875.29308	10678.975
1878.43152	10670.875
1881.56792	10716.675
1884.70227	10704.575
1887.83457	10727.775
1890.96482	10708.275
1894.09304	10723.775
1897.21921	10713.575
1900.34335	10731.475
1903.46544	10705.875
1906.58551	10726.875
1909.70353	10743.975
1912.81953	10715.175
1915.93349	10709.875
1919.04543	10683.275
1922.15534	10697.175
1925.26322	10655.675
1928.36908	10626.975
1931.47292	10594.775
1934.57473	10570.975
1937.67453	10543.275
1940.77232	10473.175
1943.86808	10443.175
1946.96184	10405.275
1950.05358	10362.875
1953.14331	10327.975
1956.23103	10293.375
1959.31675	10250.475
1962.40046	10215.675
1965.48217	10189.575
1968.56188	10167.275
1971.63959	10133.175
1974.7153	10118.675
1977.78901	10061.575
1980.86073	10039.475
1983.93046	9998.675
1986.99819	9995.375
1990.06394	9952.775
1993.1277	9906.775
1996.18947	9907.475
1999.24925	9871.575
2002.30706	9837.875
2005.36288	9833.775
2008.41672	9796.875
2011.46859	9742.775
2014.51848	9741.675
2017.56639	9738.175
2020.61233	9704.275
2023.6563	9693.975
2026.6983	9666.175
2029.73833	9635.075
2032.7764	9617.275
2035.8125	9613.975
2038.84664	9580.375
2041.87881	9584.875
2044.90903	9561.575
2047.93729	9545.175
2050.96359	9549.975
2053.98794	9531.775
2057.01034	9526.175
2060.03078	9513.875
2063.04927	9517.275
2066.06582	9511.775
2069.08042	9491.075
2072.09307	9479.975
2075.10378	9475.375
2078.11255	9457.875
2081.11938	9451.975
2084.12426	9429.875
2087.12722	9484.975
2090.12824	9442.075
2093.12732	9439.975
2096.12447	9438.375
2099.11969	9455.075
2102.11299	9450.975
2105.10435	9440.675
2108.09379	9475.775
2111.08131	9478.575
2114.0669	9470.375
2117.05057	9488.275
2120.03233	9477.675
2123.01216	9501.975
2125.99008	9496.775
2128.96609	9519.075
2131.94018	9522.875
2134.91236	9533.475
2137.88263	9527.375
2140.851	9543.375
2143.81746	9558.775
2146.78201	9544.275
2149.74466	9551.675
2152.7054	9570.075
2155.66425	9557.575
2158.6212	9556.375
2161.57625	9549.475
2164.52941	9548.875
2167.48067	9536.775
2170.43004	9525.375
2173.37752	9542.775
2176.32311	9529.475
2179.26681	9547.775
2182.20863	9547.775
2185.14856	9534.275
2188.08661	9571.975
2191.02278	9574.475
2193.95707	9552.875
2196.88948	9547.375
2199.82001	9566.175
2202.74867	9536.275
2205.67545	9537.875
2208.60037	9518.575
2211.52341	9506.075
2214.44458	9534.075
2217.36388	9502.475
2220.28132	9491.175
2223.1969	9484.975
2226.11061	9466.775
2229.02246	9449.975
2231.93245	9446.875
2234.84058	9415.275
2237.74686	9412.075
2240.65128	9389.875
2243.55385	9351.375
2246.45456	9338.475
2249.35343	9357.575
2252.25044	9339.475
2255.14561	9334.175
2258.03893	9327.975
2260.93041	9305.975
2263.82004	9305.675
2266.70783	9300.575
2269.59378	9263.475
2272.4779	9241.275
2275.36017	9206.275
2278.24061	9203.375
2281.11922	9189.375
2283.996	9177.475
2286.87094	9163.675
2289.74405	9159.675
2292.61534	9138.875
2295.4848	9160.575
2298.35243	9133.175
2301.21824	9137.675
2304.08223	9148.275
2306.94439	9131.575
2309.80474	9153.575
2312.66327	9155.375
2315.51999	9180.775
2318.37489	9142.075
2321.22797	9130.875
2324.07925	9123.275
2326.92871	9111.275
2329.77637	9122.375
2332.62222	9100.275
2335.46626	9109.975
2338.3085	9104.875
2341.14893	9121.075
2343.98756	9137.675
2346.8244	9113.775
2349.65943	9133.175
2352.49267	9115.875
2355.32411	9098.975
2358.15376	9112.975
2360.98161	9091.175
2363.80768	9101.675
2366.63195	9105.375
2369.45444	9097.575
2372.27514	9076.475
2375.09405	9064.875
2377.91118	9043.275
2380.72652	9006.175
2383.54009	8986.475
2386.35187	8976.475
2389.16188	8951.575
2391.97011	8930.175
2394.77657	8915.275
2397.58125	8906.075
2400.38416	8893.475
2403.18529	8876.175
2405.98466	8871.575
2408.78226	8853.675
2411.57809	8831.875
2414.37216	8808.975
2417.16446	8807.675
2419.955	8802.875
2422.74378	8815.275
2425.5308	8772.075
2428.31606	8776.275
2431.09956	8776.075
2433.88131	8762.875
2436.6613	8764.975
2439.43954	8763.675
2442.21603	8764.175
2444.99077	8743.075
2447.76377	8776.075
2450.53501	8741.975
2453.30451	8745.875
2456.07226	8736.875
2458.83827	8729.875
2461.60254	8719.175
2464.36507	8741.375
2467.12586	8735.975
2469.88492	8730.775
2472.64224	8729.075
2475.39782	8742.775
2478.15167	8740.975
2480.90379	8743.575
2483.65417	8751.975
2486.40283	8743.075
2489.14976	8789.975
2491.89497	8766.275
2494.63845	8774.275
2497.3802	8787.575
2500.12024	8757.775
2502.85855	8760.375
2505.59514	8781.975
2508.33002	8748.775
2511.06318	8711.275
2513.79462	8713.075
2516.52435	8703.875
2519.25237	8685.275
2521.97867	8688.675
2524.70327	8661.975
2527.42616	8639.475
2530.14734	8636.875
2532.86681	8643.075
2535.58458	8637.575
2538.30065	8618.775
2541.01501	8605.975
2543.72768	8622.275
2546.43864	8602.975
2549.14791	8592.775
2551.85548	8601.075
2554.56136	8606.275
2557.26554	8581.275
2559.96803	8587.575
2562.66883	8584.875
2565.36794	8587.875
2568.06536	8554.275
2570.7611	8560.675
2573.45514	8520.375
2576.14751	8523.675
2578.83819	8539.375
2581.52719	8518.475
2584.21451	8507.675
2586.90015	8517.475
2589.58411	8492.975
2592.2664	8501.275
2594.94701	8474.475
2597.62594	8505.975
2600.30321	8489.975
2602.9788	8486.675
2605.65273	8482.275
2608.32498	8480.375
2610.99557	8458.775
2613.66449	8480.375
2616.33175	8478.375
2618.99734	8491.775
2621.66128	8475.175
2624.32355	8491.375
2626.98416	8473.875
2629.64311	8477.175
2632.30041	8500.175
2634.95605	8475.975
2637.61004	8458.675
2640.26238	8442.975
2642.91306	8440.875
2645.56209	8421.475
2648.20948	8409.175
2650.85521	8392.675
2653.4993	8405.175
2656.14175	8396.275
2658.78255	8403.975
2661.42171	8407.475
2664.05923	8412.175
2666.6951	8444.775
2669.32934	8424.075
2671.96194	8446.175
2674.59291	8462.275
2677.22224	8460.875
2679.84993	8445.575
2682.476	8451.375
2685.10043	8431.575
2687.72324	8436.675
2690.34441	8439.675
2692.96396	8433.275
2695.58188	8450.975
2698.19818	8401.875
2700.81285	8415.375
2703.4259	8409.775
2706.03733	8417.575
2708.64714	8392.975
2711.25533	8421.575
2713.86191	8423.175
2716.46687	8455.275
2719.07021	8436.175
2721.67194	8436.075
2724.27206	8429.475
2726.87057	8432.875
2729.46747	8447.475
2732.06276	8435.775
2734.65644	8444.675
2737.24852	8425.375
2739.83899	8455.675
2742.42786	8432.575
2745.01513	8437.475
2747.60079	8418.575
2750.18486	8418.975
2752.76733	8412.375
2755.3482	8432.475
2757.92747	8421.075
2760.50515	8374.575
2763.08123	8377.075
2765.65573	8382.775
2768.22863	8370.075
2770.79994	8376.275
2773.36967	8341.575
2775.9378	8380.575
2778.50435	8353.775
2781.06932	8367.075
2783.6327	8351.075
2786.1945	8361.875
2788.75471	8327.775
2791.31335	8325.775
2793.87041	8313.075
2796.42589	8293.175
2798.97979	8291.175
2801.53212	8280.975
2804.08288	8269.975
2806.63206	8250.775
2809.17967	8244.175
2811.72571	8222.975
2814.27018	8224.175
2816.81308	8207.475
2819.35442	8215.275
2821.89419	8228.675
2824.43239	8231.375
2826.96904	8205.175
2829.50412	8198.875
2832.03763	8180.475
2834.56959	8205.975
2837.1	8183.975
2839.62884	8202.375
2842.15613	8213.275
2844.68186	8223.275
2847.20604	8245.175
2849.72867	8258.575
2852.24974	8254.575
2854.76927	8220.975
2857.28724	8233.375
2859.80367	8227.575
2862.31855	8200.175
2864.83189	8195.175
2867.34368	8189.175
2869.85393	8195.675
2872.36264	8174.675
2874.8698	8191.075
2877.37543	8159.275
2879.87952	8159.275
2882.38207	8170.675
2884.88308	8159.975
2887.38256	8187.475
2889.88051	8168.175
2892.37692	8158.875
2894.8718	8161.075
2897.36515	8190.175
2899.85698	8169.875
2902.34727	8203.375
2904.83604	8177.775
2907.32328	8226.575
2909.809	8201.575
2912.29319	8234.275
2914.77587	8194.975
2917.25702	8209.075
2919.73665	8164.375
2922.21476	8213.375
2924.69136	8187.375
2927.16644	8186.475
2929.64	8185.875
2932.11205	8169.475
2934.58258	8122.875
2937.05161	8153.175
2939.51912	8162.575
2941.98513	8119.975
2944.44962	8080.075
2946.91261	8085.775
2949.37409	8103.975
2951.83407	8060.875
2954.29254	8066.675
2956.74951	8063.575
2959.20498	8053.375
2961.65895	8040.575
2964.11142	8036.475
2966.56239	8028.275
2969.01186	8015.975
2971.45984	7998.475
2973.90632	7985.875
2976.35131	7993.275
2978.7948	7937.475
2981.23681	7933.675
2983.67732	7919.375
2986.11635	7898.875
2988.55388	7903.375
2990.98993	7884.475
2993.4245	7861.575
2995.85758	7847.175
2998.28917	7835.575
3000.71928	7831.875
3003.14791	7815.175
3005.57506	7790.675
3008.00073	7773.175
3010.42493	7792.175
3012.84764	7777.675
3015.26888	7771.375
3017.68865	7745.875
3020.10694	7734.675
3022.52376	7727.975
3024.9391	7720.275
3027.35298	7709.675
3029.76539	7704.775
3032.17632	7690.775
3034.5858	7661.675
3036.9938	7691.175
3039.40034	7642.575
3041.80542	7669.175
3044.20903	7655.375
3046.61118	7676.275
3049.01187	7626.675
3051.4111	7649.675
3053.80888	7601.875
3056.20519	7616.875
3058.60005	7577.275
3060.99345	7552.075
3063.3854	7535.775
3065.7759	7511.775
3068.16494	7522.575
3070.55254	7465.475
3072.93868	7493.375
3075.32338	7448.675
3077.70662	7444.475
3080.08842	7414.575
3082.46878	7421.975
3084.84769	7403.075
3087.22515	7400.275
3089.60118	7381.575
3091.97576	7392.175
3094.3489	7413.475
3096.72061	7374.875
3099.09087	7377.775
3101.4597	7397.875
3103.82709	7409.075
3106.19305	7388.575
3108.55757	7399.675
3110.92066	7372.775
3113.28232	7380.475
3115.64255	7354.075
3118.00134	7324.375
3120.35871	7361.475
3122.71466	7326.975
3125.06917	7297.475
3127.42226	7284.175
3129.77393	7274.675
3132.12417	7288.675
3134.47299	7282.075
3136.82039	7274.975
3139.16636	7279.775
3141.51092	7280.975
3143.85406	7274.175
3146.19579	7291.575
3148.53609	7301.475
3150.87499	7310.175
3153.21246	7308.875
3155.54853	7339.175
3157.88318	7319.575
3160.21642	7306.375
3162.54826	7302.475
3164.87868	7322.475
3167.2077	7331.375
3169.5353	7310.475
3171.86151	7303.675
3174.18631	7302.275
3176.5097	7309.675
3178.83169	7308.575
3181.15228	7305.175
