Data from AgNPs_FTO_APTES_UA_1uM_CRN_2uM_R6G_10uM_NaF_0.1M_Addition_RamanShift__26__13-25-39-562.txt Node

Date: Thu Jan 27 13:25:39 GMT 2022
User: TCL
Spectrometer: QEP01345
Trigger mode: 4
Integration Time (sec): 7.000000E0
Scans to average: 10
Electric dark correction enabled: true
Nonlinearity correction enabled: false
Boxcar width: 0
XAxis mode: Raman Shifts
Number of Pixels in Spectrum: 1044
>>>>>Begin Spectral Data<<<<<
46.04893	0.575
50.45542	1.175
54.85868	-2.025
59.25871	-0.825
63.6555	50.675
68.04907	50.875
72.43941	55.575
76.82654	59.975
81.21044	58.875
85.59113	61.775
89.96862	62.675
94.34289	66.675
98.71396	69.775
103.08183	67.575
107.4465	75.975
111.80798	75.275
116.16626	73.775
120.52136	82.875
124.87327	81.175
129.222	79.275
133.56755	80.375
137.90993	87.175
142.24913	92.675
146.58517	108.375
150.91804	123.475
155.24774	140.775
159.57429	171.375
163.89768	212.575
168.21792	277.675
172.53501	372.675
176.84895	510.975
181.15975	711.675
185.46741	986.675
189.77193	1360.175
194.07331	1825.975
198.37157	2356.575
202.6667	2917.475
206.9587	3473.775
211.24758	4019.275
215.53334	4579.375
219.81599	5215.675
224.09553	5915.175
228.37195	6700.475
232.64527	7536.075
236.91549	8418.975
241.18261	9232.675
245.44663	9923.475
249.70755	10533.475
253.96539	11052.475
258.22014	11517.775
262.4718	11935.275
266.72039	12264.175
270.96589	12453.675
275.20832	12495.275
279.44768	12454.575
283.68397	12316.475
287.91719	12232.875
292.14735	12221.775
296.37445	12336.375
300.59849	12642.075
304.81948	12979.575
309.03742	13250.775
313.25231	13150.075
317.46415	12681.675
321.67296	11881.575
325.87872	11273.775
330.08145	10963.075
334.28114	10939.475
338.47781	11105.675
342.67145	11364.575
346.86207	11763.975
351.04966	12335.775
355.23424	12970.975
359.4158	13514.475
363.59435	13763.675
367.76989	13890.575
371.94243	13884.875
376.11196	13890.075
380.27849	13823.175
384.44203	13758.275
388.60257	13684.375
392.76012	13648.575
396.91468	13803.275
401.06626	14176.175
405.21485	14430.575
409.36047	14294.275
413.50311	13815.175
417.64277	13341.675
421.77947	13057.375
425.9132	13001.775
430.04396	13037.275
434.17176	13120.175
438.2966	13273.275
442.41849	13556.875
446.53742	13942.475
450.6534	14348.675
454.76644	14675.975
458.87653	14775.775
462.98368	14707.775
467.08789	14459.875
471.18916	14177.975
475.2875	13847.375
479.38291	13599.375
483.4754	13423.575
487.56496	13291.075
491.6516	13133.675
495.73531	13038.275
499.81612	13021.275
503.89401	13142.975
507.96899	13237.475
512.04106	13328.575
516.11023	13460.075
520.1765	13532.775
524.23987	13496.275
528.30034	13304.275
532.35792	13052.075
536.41261	12830.675
540.46441	12657.375
544.51333	12580.575
548.55936	12666.875
552.60252	12941.075
556.64279	13219.275
560.6802	13337.475
564.71473	13500.675
568.7464	13857.875
572.7752	14213.975
576.80114	14125.275
580.82422	13925.375
584.84444	13879.075
588.86181	13899.575
592.87633	13997.875
596.888	14178.975
600.89682	14532.775
604.9028	15690.075
608.90594	18660.375
612.90624	22585.375
616.90371	21919.475
620.89834	16655.375
624.89015	14073.975
628.87913	13630.475
632.86528	13615.375
636.84862	13626.775
640.82913	13401.075
644.80683	12945.775
648.78172	12620.775
652.75379	12661.475
656.72306	13023.375
660.68952	13542.375
664.65319	13513.775
668.61405	13070.675
672.57211	12836.775
676.52738	12792.575
680.47986	12787.875
684.42955	12779.675
688.37646	12724.575
692.32058	12767.875
696.26192	12886.875
700.20048	13020.175
704.13626	13126.875
708.06928	13068.275
711.99952	12954.075
715.927	12920.375
719.85171	12948.175
723.77365	12909.075
727.69284	12770.875
731.60928	12680.075
735.52295	12691.975
739.43388	12740.975
743.34206	12826.675
747.24749	12914.875
751.15017	13015.575
755.05012	13312.875
758.94733	13749.975
762.8418	14729.275
766.73354	16438.975
770.62254	18288.275
774.50882	19130.775
778.39237	18340.775
782.27321	16467.275
786.15132	14676.375
790.02671	13623.875
793.89938	13166.475
797.76935	12981.375
801.6366	12938.775
805.50115	12854.575
809.36299	12797.475
813.22213	12718.575
817.07857	12713.275
820.93231	12744.675
824.78336	12779.675
828.63172	12820.475
832.47738	12877.075
836.32036	12884.175
840.16066	12915.975
843.99827	12890.575
847.8332	12853.075
851.66546	12790.875
855.49504	12787.275
859.32195	12772.175
863.1462	12699.975
866.96777	12641.875
870.78668	12627.475
874.60293	12652.075
878.41652	12682.575
882.22745	12744.775
886.03573	12827.075
889.84136	12763.275
893.64433	12734.575
897.44466	12670.475
901.24235	12679.175
905.0374	12663.775
908.8298	12625.275
912.61957	12640.775
916.40671	12695.475
920.19121	12871.775
923.97308	13035.875
927.75233	13152.175
931.52895	13232.375
935.30295	13153.475
939.07433	12850.575
942.84309	12596.675
946.60924	12508.275
950.37278	12427.075
954.13371	12343.575
957.89203	12271.875
961.64774	12214.875
965.40086	12184.975
969.15137	12141.575
972.89929	12097.275
976.64461	12091.275
980.38733	12103.375
984.12747	12170.475
987.86502	12267.775
991.59999	12428.775
995.33237	12675.075
999.06217	13024.775
1002.78939	13492.275
1006.51404	13828.975
1010.23611	14090.875
1013.95561	14277.975
1017.67255	14322.075
1021.38692	14168.675
1025.09872	14036.575
1028.80796	14096.475
1032.51465	14477.975
1036.21877	14786.675
1039.92035	14792.875
1043.61937	14581.975
1047.31584	14213.075
1051.00976	13818.875
1054.70114	13590.075
1058.38998	13529.275
1062.07627	13578.675
1065.76003	13620.175
1069.44126	13679.475
1073.11995	13813.875
1076.79611	13882.875
1080.46974	14044.475
1084.14085	14221.975
1087.80943	14488.575
1091.47549	14570.875
1095.13903	14422.475
1098.80005	14055.575
1102.45857	13763.975
1106.11456	13571.575
1109.76805	13591.075
1113.41903	13799.375
1117.06751	14036.875
1120.71348	14380.675
1124.35696	14723.275
1127.99793	15088.075
1131.63641	15144.375
1135.2724	14784.675
1138.90589	14338.475
1142.5369	14050.075
1146.16542	13866.175
1149.79145	13739.575
1153.415	13787.975
1157.03607	13892.475
1160.65467	14110.375
1164.27079	14514.075
1167.88443	15129.175
1171.49561	16066.575
1175.10432	17565.775
1178.71056	19525.875
1182.31434	21238.675
1185.91565	22010.275
1189.51451	21892.675
1193.11091	20958.175
1196.70485	19573.775
1200.29634	18430.775
1203.88538	17568.875
1207.47197	16763.975
1211.05612	16108.875
1214.63782	15789.375
1218.21708	15702.275
1221.79391	15801.575
1225.36829	15975.875
1228.94024	16089.575
1232.50976	16127.175
1236.07685	16064.475
1239.6415	15991.875
1243.20374	15924.775
1246.76355	15925.375
1250.32093	16135.175
1253.8759	16453.675
1257.42845	16936.575
1260.97859	17404.175
1264.52631	17797.675
1268.07163	18174.575
1271.61453	18600.275
1275.15503	19044.875
1278.69312	19463.475
1282.22882	19796.475
1285.76211	20210.075
1289.29301	20639.175
1292.82151	21146.275
1296.34761	21703.475
1299.87133	22511.675
1303.39266	23842.675
1306.9116	25833.275
1310.42815	28200.175
1313.94233	29871.775
1317.45412	29956.675
1320.96354	28743.175
1324.47058	27267.875
1327.97525	25952.275
1331.47754	25090.475
1334.97747	24750.675
1338.47502	24835.675
1341.97022	25081.875
1345.46305	25295.175
1348.95352	25539.575
1352.44163	26091.375
1355.92738	27278.575
1359.41078	29675.275
1362.89183	32372.375
1366.37053	32208.775
1369.84688	28492.675
1373.32088	24480.575
1376.79254	21880.075
1380.26186	20701.375
1383.72883	20116.475
1387.19347	19731.075
1390.65578	19349.975
1394.11575	19004.075
1397.57339	18981.275
1401.0287	19247.575
1404.48168	19664.675
1407.93234	20110.975
1411.38068	20405.175
1414.82669	20393.075
1418.27039	19938.475
1421.71177	19382.675
1425.15083	18918.775
1428.58758	18593.275
1432.02203	18484.575
1435.45416	18608.075
1438.88399	18715.475
1442.31151	18746.575
1445.73673	18872.175
1449.15965	18976.475
1452.58027	18998.675
1455.9986	18885.275
1459.41463	18840.775
1462.82837	18930.475
1466.23982	19219.775
1469.64898	19544.175
1473.05586	19803.875
1476.46045	19934.075
1479.86276	20140.075
1483.26279	20366.675
1486.66054	20647.375
1490.05602	21035.675
1493.44922	21606.375
1496.84016	22273.975
1500.22882	23231.775
1503.61521	24560.375
1506.99934	26244.875
1510.38121	28076.175
1513.76081	29260.375
1517.13816	28737.975
1520.51324	26612.975
1523.88607	24146.375
1527.25665	22288.375
1530.62498	21156.975
1533.99105	20456.775
1537.35488	19998.475
1540.71647	19759.675
1544.07581	19629.275
1547.4329	19502.275
1550.78776	19351.075
1554.14038	19346.675
1557.49077	19423.975
1560.83892	19605.675
1564.18484	19831.475
1567.52853	20014.875
1570.86999	20118.575
1574.20922	20213.275
1577.54624	20190.375
1580.88103	19795.275
1584.2136	19281.775
1587.54395	19261.275
1590.87208	19900.575
1594.19801	21079.975
1597.52172	22519.175
1600.84321	23267.075
1604.16251	22599.875
1607.47959	21113.775
1610.79447	19426.175
1614.10715	17897.775
1617.41763	16745.875
1620.7259	15984.275
1624.03199	15659.475
1627.33587	15693.975
1630.63757	16102.575
1633.93707	16898.475
1637.23439	18041.975
1640.52951	19477.275
1643.82246	20997.375
1647.11321	22403.075
1650.40179	23176.475
1653.68819	22509.975
1656.97241	20161.975
1660.25446	17495.575
1663.53433	15523.275
1666.81203	14334.975
1670.08756	13620.275
1673.36092	13167.875
1676.63211	12927.875
1679.90115	12695.275
1683.16801	12569.875
1686.43272	12448.975
1689.69527	12373.475
1692.95567	12307.375
1696.2139	12253.075
1699.46999	12202.175
1702.72392	12141.775
1705.97571	12166.675
1709.22535	12207.975
1712.47284	12217.775
1715.71819	12260.175
1718.96139	12258.375
1722.20246	12258.575
1725.44139	12203.375
1728.67818	12169.775
1731.91284	12061.275
1735.14537	12016.875
1738.37576	11965.275
1741.60403	11937.775
1744.83017	11906.575
1748.05418	11885.175
1751.27607	11831.775
1754.49584	11782.175
1757.71349	11806.075
1760.92903	11778.475
1764.14244	11744.375
1767.35375	11751.275
1770.56294	11743.575
1773.77002	11750.675
1776.97499	11749.175
1780.17785	11760.575
1783.37861	11783.975
1786.57727	11746.275
1789.77382	11737.275
1792.96828	11728.875
1796.16064	11735.975
1799.3509	11718.675
1802.53907	11697.875
1805.72514	11671.375
1808.90913	11645.375
1812.09102	11673.175
1815.27083	11627.075
1818.44856	11615.375
1821.6242	11599.775
1824.79776	11572.275
1827.96924	11571.875
1831.13864	11568.575
1834.30597	11578.675
1837.47122	11579.075
1840.6344	11535.975
1843.7955	11567.075
1846.95454	11567.175
1850.11151	11556.775
1853.26642	11579.475
1856.41926	11616.875
1859.57004	11618.975
1862.71876	11626.175
1865.86542	11643.775
1869.01003	11609.475
1872.15258	11640.875
1875.29308	11646.975
1878.43152	11651.675
1881.56792	11674.175
1884.70227	11657.575
1887.83457	11681.875
1890.96482	11677.975
1894.09304	11693.875
1897.21921	11681.675
1900.34335	11670.375
1903.46544	11675.375
1906.58551	11715.275
1909.70353	11692.375
1912.81953	11689.175
1915.93349	11705.575
1919.04543	11673.475
1922.15534	11624.475
1925.26322	11608.575
1928.36908	11584.775
1931.47292	11575.375
1934.57473	11512.475
1937.67453	11481.675
1940.77232	11413.875
1943.86808	11362.275
1946.96184	11331.275
1950.05358	11298.275
1953.14331	11240.375
1956.23103	11194.375
1959.31675	11145.675
1962.40046	11152.075
1965.48217	11111.075
1968.56188	11049.575
1971.63959	11036.975
1974.7153	11001.675
1977.78901	10978.375
1980.86073	10933.875
1983.93046	10902.975
1986.99819	10863.075
1990.06394	10853.575
1993.1277	10791.975
1996.18947	10767.875
1999.24925	10744.975
2002.30706	10718.075
2005.36288	10670.675
2008.41672	10660.775
2011.46859	10625.575
2014.51848	10608.275
2017.56639	10562.775
2020.61233	10570.975
2023.6563	10530.275
2026.6983	10525.175
2029.73833	10507.475
2032.7764	10489.975
2035.8125	10447.675
2038.84664	10435.775
2041.87881	10432.375
2044.90903	10407.075
2047.93729	10376.875
2050.96359	10384.075
2053.98794	10337.675
2057.01034	10346.375
2060.03078	10347.775
2063.04927	10337.675
2066.06582	10352.375
2069.08042	10337.575
2072.09307	10329.175
2075.10378	10309.775
2078.11255	10304.775
2081.11938	10286.875
2084.12426	10286.375
2087.12722	10282.875
2090.12824	10268.675
2093.12732	10275.775
2096.12447	10275.875
2099.11969	10266.175
2102.11299	10297.475
2105.10435	10311.875
2108.09379	10284.375
2111.08131	10303.875
2114.0669	10305.775
2117.05057	10316.875
2120.03233	10344.875
2123.01216	10330.375
2125.99008	10326.075
2128.96609	10345.375
2131.94018	10345.675
2134.91236	10359.375
2137.88263	10366.975
2140.851	10351.275
2143.81746	10387.775
2146.78201	10364.975
2149.74466	10373.575
2152.7054	10408.075
2155.66425	10355.875
2158.6212	10382.675
2161.57625	10384.675
2164.52941	10389.475
2167.48067	10379.975
2170.43004	10360.075
2173.37752	10345.475
2176.32311	10383.775
2179.26681	10390.475
2182.20863	10363.175
2185.14856	10350.475
2188.08661	10367.675
2191.02278	10368.475
2193.95707	10389.875
2196.88948	10369.875
2199.82001	10382.875
2202.74867	10370.475
2205.67545	10364.675
2208.60037	10347.775
2211.52341	10342.175
2214.44458	10330.275
2217.36388	10296.775
2220.28132	10307.675
2223.1969	10292.675
2226.11061	10279.575
2229.02246	10275.075
2231.93245	10243.875
2234.84058	10218.475
2237.74686	10221.975
2240.65128	10172.375
2243.55385	10182.975
2246.45456	10159.575
2249.35343	10171.875
2252.25044	10141.375
2255.14561	10123.875
2258.03893	10138.175
2260.93041	10105.875
2263.82004	10096.475
2266.70783	10065.375
2269.59378	10053.675
2272.4779	10025.975
2275.36017	10038.375
2278.24061	9997.775
2281.11922	9967.975
2283.996	9994.075
2286.87094	9950.775
2289.74405	9947.675
2292.61534	9908.575
2295.4848	9895.875
2298.35243	9930.875
2301.21824	9909.375
2304.08223	9916.975
2306.94439	9929.775
2309.80474	9929.075
2312.66327	9939.775
2315.51999	9952.175
2318.37489	9944.375
2321.22797	9902.175
2324.07925	9913.375
2326.92871	9895.975
2329.77637	9880.075
2332.62222	9888.375
2335.46626	9889.675
2338.3085	9867.575
2341.14893	9880.375
2343.98756	9886.975
2346.8244	9920.075
2349.65943	9888.575
2352.49267	9886.275
2355.32411	9899.275
2358.15376	9898.075
2360.98161	9867.575
2363.80768	9878.675
2366.63195	9883.375
2369.45444	9883.775
2372.27514	9829.375
2375.09405	9812.075
2377.91118	9820.675
2380.72652	9772.775
2383.54009	9751.075
2386.35187	9737.175
2389.16188	9702.675
2391.97011	9680.475
2394.77657	9657.175
2397.58125	9673.175
2400.38416	9643.975
2403.18529	9613.475
2405.98466	9611.175
2408.78226	9587.275
2411.57809	9578.675
2414.37216	9533.175
2417.16446	9525.375
2419.955	9517.775
2422.74378	9535.375
2425.5308	9512.075
2428.31606	9511.675
2431.09956	9518.375
2433.88131	9462.375
2436.6613	9505.975
2439.43954	9503.175
2442.21603	9516.075
2444.99077	9496.875
2447.76377	9502.175
2450.53501	9464.275
2453.30451	9476.075
2456.07226	9462.175
2458.83827	9458.075
2461.60254	9455.275
2464.36507	9446.175
2467.12586	9452.775
2469.88492	9431.975
2472.64224	9451.175
2475.39782	9450.575
2478.15167	9459.375
2480.90379	9444.075
2483.65417	9469.075
2486.40283	9464.875
2489.14976	9516.175
2491.89497	9505.475
2494.63845	9520.675
2497.3802	9489.275
2500.12024	9462.775
2502.85855	9485.175
2505.59514	9463.875
2508.33002	9456.875
2511.06318	9447.075
2513.79462	9444.275
2516.52435	9396.275
2519.25237	9391.475
2521.97867	9380.275
2524.70327	9394.675
2527.42616	9367.775
2530.14734	9343.675
2532.86681	9326.375
2535.58458	9319.975
2538.30065	9325.275
2541.01501	9349.875
2543.72768	9330.875
2546.43864	9330.675
2549.14791	9291.275
2551.85548	9299.475
2554.56136	9295.775
2557.26554	9287.075
2559.96803	9267.975
2562.66883	9280.675
2565.36794	9272.775
2568.06536	9253.375
2570.7611	9241.175
2573.45514	9213.475
2576.14751	9209.075
2578.83819	9198.175
2581.52719	9215.375
2584.21451	9211.175
2586.90015	9176.875
2589.58411	9181.475
2592.2664	9186.075
2594.94701	9201.775
2597.62594	9209.775
2600.30321	9165.275
2602.9788	9174.875
2605.65273	9155.575
2608.32498	9136.975
2610.99557	9154.575
2613.66449	9170.275
2616.33175	9140.075
2618.99734	9159.275
2621.66128	9152.275
2624.32355	9120.775
2626.98416	9152.375
2629.64311	9167.175
2632.30041	9153.375
2634.95605	9155.775
2637.61004	9116.475
2640.26238	9112.575
2642.91306	9091.575
2645.56209	9108.875
2648.20948	9079.675
2650.85521	9064.375
2653.4993	9080.075
2656.14175	9072.975
2658.78255	9076.175
2661.42171	9070.875
2664.05923	9087.075
2666.6951	9113.575
2669.32934	9111.675
2671.96194	9105.075
2674.59291	9112.475
2677.22224	9130.575
2679.84993	9110.275
2682.476	9099.375
2685.10043	9102.475
2687.72324	9075.475
2690.34441	9089.475
2692.96396	9091.475
2695.58188	9098.875
2698.19818	9079.875
2700.81285	9095.975
2703.4259	9090.075
2706.03733	9077.875
2708.64714	9045.675
2711.25533	9084.675
2713.86191	9067.375
2716.46687	9112.675
2719.07021	9093.975
2721.67194	9108.975
2724.27206	9093.075
2726.87057	9099.875
2729.46747	9113.775
2732.06276	9134.775
2734.65644	9102.475
2737.24852	9110.075
2739.83899	9089.575
2742.42786	9103.575
2745.01513	9091.875
2747.60079	9090.575
2750.18486	9082.075
2752.76733	9088.275
2755.3482	9066.775
2757.92747	9066.175
2760.50515	9047.075
2763.08123	9039.475
2765.65573	9039.675
2768.22863	9029.675
2770.79994	9038.275
2773.36967	9020.375
2775.9378	9018.475
2778.50435	9021.175
2781.06932	9020.175
2783.6327	8996.275
2786.1945	9005.575
2788.75471	8987.675
2791.31335	8976.675
2793.87041	8948.975
2796.42589	8934.675
2798.97979	8954.875
2801.53212	8930.575
2804.08288	8913.075
2806.63206	8891.375
2809.17967	8879.475
2811.72571	8869.175
2814.27018	8868.775
2816.81308	8869.375
2819.35442	8833.175
2821.89419	8866.675
2824.43239	8846.875
2826.96904	8835.675
2829.50412	8862.275
2832.03763	8822.975
2834.56959	8852.475
2837.1	8841.675
2839.62884	8840.175
2842.15613	8850.775
2844.68186	8878.475
2847.20604	8879.975
2849.72867	8931.775
2852.24974	8909.475
2854.76927	8889.875
2857.28724	8902.575
2859.80367	8857.675
2862.31855	8858.475
2864.83189	8859.875
2867.34368	8835.375
2869.85393	8815.475
2872.36264	8818.875
2874.8698	8829.575
2877.37543	8815.375
2879.87952	8812.375
2882.38207	8812.875
2884.88308	8795.175
2887.38256	8805.775
2889.88051	8800.475
2892.37692	8807.375
2894.8718	8791.175
2897.36515	8829.175
2899.85698	8821.475
2902.34727	8825.375
2904.83604	8826.075
2907.32328	8855.175
2909.809	8852.975
2912.29319	8853.375
2914.77587	8870.775
2917.25702	8836.575
2919.73665	8850.775
2922.21476	8852.475
2924.69136	8829.675
2927.16644	8840.875
2929.64	8813.175
2932.11205	8809.675
2934.58258	8769.875
2937.05161	8764.575
2939.51912	8767.775
2941.98513	8750.375
2944.44962	8729.175
2946.91261	8721.675
2949.37409	8690.975
2951.83407	8693.475
2954.29254	8692.575
2956.74951	8655.875
2959.20498	8666.575
2961.65895	8636.075
2964.11142	8640.275
2966.56239	8610.675
2969.01186	8618.175
2971.45984	8581.975
2973.90632	8588.475
2976.35131	8552.975
2978.7948	8545.375
2981.23681	8517.175
2983.67732	8512.775
2986.11635	8494.775
2988.55388	8465.575
2990.98993	8451.975
2993.4245	8417.275
2995.85758	8408.975
2998.28917	8406.175
3000.71928	8392.475
3003.14791	8365.475
3005.57506	8361.475
3008.00073	8359.275
3010.42493	8340.875
3012.84764	8336.475
3015.26888	8324.375
3017.68865	8311.175
3020.10694	8297.375
3022.52376	8294.275
3024.9391	8272.875
3027.35298	8277.175
3029.76539	8272.975
3032.17632	8259.075
3034.5858	8250.075
3036.9938	8221.475
3039.40034	8227.675
3041.80542	8210.375
3044.20903	8192.375
3046.61118	8180.375
3049.01187	8159.875
3051.4111	8176.075
3053.80888	8152.475
3056.20519	8150.875
3058.60005	8113.375
3060.99345	8076.475
3063.3854	8089.575
3065.7759	8059.275
3068.16494	8030.775
3070.55254	8016.775
3072.93868	8008.975
3075.32338	7977.675
3077.70662	7981.775
3080.08842	7950.675
3082.46878	7967.475
3084.84769	7917.475
3087.22515	7919.875
3089.60118	7922.675
3091.97576	7917.775
3094.3489	7933.075
3096.72061	7911.475
3099.09087	7904.475
3101.4597	7906.875
3103.82709	7923.575
3106.19305	7910.475
3108.55757	7902.475
3110.92066	7872.775
3113.28232	7868.275
3115.64255	7836.575
3118.00134	7856.875
3120.35871	7839.175
3122.71466	7831.275
3125.06917	7798.175
3127.42226	7769.475
3129.77393	7780.675
3132.12417	7767.475
3134.47299	7792.375
3136.82039	7782.975
3139.16636	7783.475
3141.51092	7779.575
3143.85406	7775.875
3146.19579	7803.675
3148.53609	7796.975
3150.87499	7806.675
3153.21246	7816.475
3155.54853	7794.975
3157.88318	7806.675
3160.21642	7817.675
3162.54826	7813.675
3164.87868	7807.375
3167.2077	7777.175
3169.5353	7810.575
