Data from AgNPs_FTO_APTES_UA_1uM_CRN_2uM_R6G_10uM_NaF_0.1M_Addition_RamanShift__27__13-26-49-563.txt Node

Date: Thu Jan 27 13:26:49 GMT 2022
User: TCL
Spectrometer: QEP01345
Trigger mode: 4
Integration Time (sec): 7.000000E0
Scans to average: 10
Electric dark correction enabled: true
Nonlinearity correction enabled: false
Boxcar width: 0
XAxis mode: Raman Shifts
Number of Pixels in Spectrum: 1044
>>>>>Begin Spectral Data<<<<<
46.04893	0.9875
50.45542	-0.7125
54.85868	-1.1125
59.25871	-0.0125
63.6555	46.9875
68.04907	50.8875
72.43941	53.4875
76.82654	56.3875
81.21044	57.6875
85.59113	58.2875
89.96862	59.4875
94.34289	63.8875
98.71396	66.6875
103.08183	68.9875
107.4465	71.1875
111.80798	71.4875
116.16626	74.3875
120.52136	78.0875
124.87327	79.5875
129.222	75.4875
133.56755	76.4875
137.90993	84.8875
142.24913	94.5875
146.58517	99.9875
150.91804	111.3875
155.24774	128.3875
159.57429	158.1875
163.89768	197.8875
168.21792	260.1875
172.53501	344.8875
176.84895	476.2875
181.15975	660.1875
185.46741	912.4875
189.77193	1264.0875
194.07331	1688.9875
198.37157	2178.0875
202.6667	2677.7875
206.9587	3199.2875
211.24758	3703.2875
215.53334	4230.5875
219.81599	4806.0875
224.09553	5461.3875
228.37195	6200.9875
232.64527	6997.5875
236.91549	7811.7875
241.18261	8525.9875
245.44663	9172.8875
249.70755	9707.7875
253.96539	10183.1875
258.22014	10600.7875
262.4718	10994.1875
266.72039	11288.9875
270.96589	11477.3875
275.20832	11520.3875
279.44768	11452.0875
283.68397	11361.2875
287.91719	11243.2875
292.14735	11236.6875
296.37445	11374.2875
300.59849	11657.2875
304.81948	12022.8875
309.03742	12248.8875
313.25231	12197.8875
317.46415	11744.5875
321.67296	10991.5875
325.87872	10365.4875
330.08145	10050.3875
334.28114	10022.0875
338.47781	10175.3875
342.67145	10424.7875
346.86207	10799.5875
351.04966	11358.7875
355.23424	11996.2875
359.4158	12469.8875
363.59435	12732.0875
367.76989	12820.4875
371.94243	12824.6875
376.11196	12781.7875
380.27849	12747.2875
384.44203	12674.5875
388.60257	12595.9875
392.76012	12558.6875
396.91468	12696.2875
401.06626	13023.9875
405.21485	13279.6875
409.36047	13146.9875
413.50311	12662.2875
417.64277	12184.4875
421.77947	11921.3875
425.9132	11849.7875
430.04396	11894.9875
434.17176	11940.6875
438.2966	12060.2875
442.41849	12336.8875
446.53742	12704.5875
450.6534	13074.7875
454.76644	13396.6875
458.87653	13463.5875
462.98368	13379.5875
467.08789	13185.5875
471.18916	12897.5875
475.2875	12596.3875
479.38291	12382.2875
483.4754	12209.2875
487.56496	12056.8875
491.6516	11957.7875
495.73531	11832.1875
499.81612	11811.4875
503.89401	11933.0875
507.96899	12023.7875
512.04106	12157.8875
516.11023	12252.4875
520.1765	12341.5875
524.23987	12279.3875
528.30034	12122.1875
532.35792	11882.7875
536.41261	11692.6875
540.46441	11481.3875
544.51333	11385.9875
548.55936	11510.8875
552.60252	11723.5875
556.64279	11998.4875
560.6802	12154.4875
564.71473	12271.7875
568.7464	12655.3875
572.7752	12994.0875
576.80114	12860.1875
580.82422	12644.4875
584.84444	12598.3875
588.86181	12583.5875
592.87633	12681.7875
596.888	12848.0875
600.89682	13206.1875
604.9028	14256.7875
608.90594	17158.6875
612.90624	20952.3875
616.90371	20361.1875
620.89834	15242.9875
624.89015	12766.5875
628.87913	12304.9875
632.86528	12283.6875
636.84862	12352.3875
640.82913	12147.6875
644.80683	11718.6875
648.78172	11424.4875
652.75379	11455.7875
656.72306	11784.9875
660.68952	12267.7875
664.65319	12254.2875
668.61405	11832.5875
672.57211	11603.7875
676.52738	11560.6875
680.47986	11560.8875
684.42955	11550.6875
688.37646	11510.1875
692.32058	11551.8875
696.26192	11624.2875
700.20048	11752.1875
704.13626	11855.6875
708.06928	11809.1875
711.99952	11713.1875
715.927	11682.6875
719.85171	11700.6875
723.77365	11658.9875
727.69284	11554.8875
731.60928	11466.8875
735.52295	11482.4875
739.43388	11514.8875
743.34206	11589.2875
747.24749	11651.9875
751.15017	11783.2875
755.05012	11991.2875
758.94733	12464.3875
762.8418	13395.7875
766.73354	15059.2875
770.62254	16835.9875
774.50882	17666.2875
778.39237	16935.2875
782.27321	15110.6875
786.15132	13376.7875
790.02671	12365.9875
793.89938	11886.5875
797.76935	11747.6875
801.6366	11637.4875
805.50115	11591.9875
809.36299	11540.3875
813.22213	11490.7875
817.07857	11472.8875
820.93231	11508.1875
824.78336	11522.8875
828.63172	11570.1875
832.47738	11586.3875
836.32036	11655.1875
840.16066	11610.2875
843.99827	11596.0875
847.8332	11584.4875
851.66546	11548.0875
855.49504	11515.5875
859.32195	11486.7875
863.1462	11443.3875
866.96777	11400.5875
870.78668	11397.6875
874.60293	11422.9875
878.41652	11436.1875
882.22745	11491.3875
886.03573	11543.8875
889.84136	11531.8875
893.64433	11445.3875
897.44466	11431.8875
901.24235	11430.0875
905.0374	11406.4875
908.8298	11371.9875
912.61957	11377.7875
916.40671	11476.2875
920.19121	11613.6875
923.97308	11736.7875
927.75233	11852.4875
931.52895	11918.9875
935.30295	11833.4875
939.07433	11570.5875
942.84309	11339.8875
946.60924	11221.2875
950.37278	11182.0875
954.13371	11092.6875
957.89203	11048.5875
961.64774	11000.4875
965.40086	10940.1875
969.15137	10915.2875
972.89929	10881.0875
976.64461	10861.7875
980.38733	10879.5875
984.12747	10937.0875
987.86502	11043.0875
991.59999	11181.4875
995.33237	11367.7875
999.06217	11690.5875
1002.78939	12093.2875
1006.51404	12422.6875
1010.23611	12669.9875
1013.95561	12834.8875
1017.67255	12858.0875
1021.38692	12731.4875
1025.09872	12592.3875
1028.80796	12616.6875
1032.51465	12890.0875
1036.21877	13144.4875
1039.92035	13183.1875
1043.61937	13005.1875
1047.31584	12705.2875
1051.00976	12375.2875
1054.70114	12178.2875
1058.38998	12142.9875
1062.07627	12183.8875
1065.76003	12235.2875
1069.44126	12306.0875
1073.11995	12416.3875
1076.79611	12532.6875
1080.46974	12620.8875
1084.14085	12819.1875
1087.80943	13044.9875
1091.47549	13170.9875
1095.13903	13037.2875
1098.80005	12728.1875
1102.45857	12405.5875
1106.11456	12240.4875
1109.76805	12219.0875
1113.41903	12388.7875
1117.06751	12635.8875
1120.71348	12994.7875
1124.35696	13313.2875
1127.99793	13663.8875
1131.63641	13722.6875
1135.2724	13354.0875
1138.90589	12892.2875
1142.5369	12668.8875
1146.16542	12463.4875
1149.79145	12387.0875
1153.415	12428.7875
1157.03607	12520.7875
1160.65467	12737.0875
1164.27079	13105.5875
1167.88443	13694.9875
1171.49561	14567.2875
1175.10432	15972.3875
1178.71056	17870.3875
1182.31434	19413.7875
1185.91565	20117.5875
1189.51451	19978.9875
1193.11091	19069.0875
1196.70485	17821.4875
1200.29634	16731.6875
1203.88538	15943.5875
1207.47197	15192.4875
1211.05612	14566.9875
1214.63782	14247.1875
1218.21708	14166.9875
1221.79391	14258.0875
1225.36829	14369.4875
1228.94024	14492.4875
1232.50976	14515.6875
1236.07685	14491.4875
1239.6415	14417.1875
1243.20374	14388.4875
1246.76355	14372.4875
1250.32093	14503.9875
1253.8759	14839.0875
1257.42845	15263.6875
1260.97859	15689.1875
1264.52631	16080.8875
1268.07163	16429.8875
1271.61453	16828.6875
1275.15503	17248.1875
1278.69312	17583.2875
1282.22882	17861.9875
1285.76211	18235.6875
1289.29301	18663.5875
1292.82151	19148.1875
1296.34761	19675.6875
1299.87133	20425.1875
1303.39266	21659.6875
1306.9116	23492.1875
1310.42815	25617.5875
1313.94233	27235.7875
1317.45412	27303.4875
1320.96354	26252.5875
1324.47058	24866.2875
1327.97525	23616.5875
1331.47754	22819.5875
1334.97747	22520.2875
1338.47502	22536.0875
1341.97022	22763.0875
1345.46305	22980.8875
1348.95352	23257.5875
1352.44163	23814.9875
1355.92738	24969.5875
1359.41078	27318.9875
1362.89183	29956.2875
1366.37053	29765.7875
1369.84688	26305.5875
1373.32088	22474.4875
1376.79254	20009.7875
1380.26186	18825.7875
1383.72883	18307.1875
1387.19347	17945.9875
1390.65578	17533.2875
1394.11575	17245.8875
1397.57339	17197.1875
1401.0287	17443.7875
1404.48168	17837.6875
1407.93234	18201.8875
1411.38068	18501.5875
1414.82669	18476.4875
1418.27039	18084.3875
1421.71177	17529.8875
1425.15083	17107.1875
1428.58758	16804.6875
1432.02203	16757.8875
1435.45416	16834.5875
1438.88399	16938.2875
1442.31151	16984.4875
1445.73673	17071.6875
1449.15965	17184.9875
1452.58027	17159.6875
1455.9986	17088.3875
1459.41463	17034.3875
1462.82837	17134.1875
1466.23982	17362.3875
1469.64898	17666.1875
1473.05586	17918.5875
1476.46045	18053.0875
1479.86276	18260.0875
1483.26279	18430.5875
1486.66054	18722.0875
1490.05602	19128.1875
1493.44922	19633.7875
1496.84016	20267.9875
1500.22882	21202.6875
1503.61521	22526.8875
1506.99934	24204.3875
1510.38121	25999.6875
1513.76081	27190.7875
1517.13816	26617.3875
1520.51324	24499.8875
1523.88607	22159.9875
1527.25665	20352.4875
1530.62498	19246.9875
1533.99105	18592.0875
1537.35488	18152.5875
1540.71647	17919.3875
1544.07581	17782.7875
1547.4329	17655.9875
1550.78776	17541.1875
1554.14038	17511.9875
1557.49077	17597.3875
1560.83892	17797.0875
1564.18484	18027.4875
1567.52853	18203.0875
1570.86999	18320.3875
1574.20922	18432.0875
1577.54624	18405.4875
1580.88103	18022.7875
1584.2136	17493.7875
1587.54395	17426.4875
1590.87208	17995.7875
1594.19801	19028.7875
1597.52172	20348.8875
1600.84321	21000.0875
1604.16251	20362.6875
1607.47959	19063.0875
1610.79447	17524.8875
1614.10715	16155.4875
1617.41763	15062.4875
1620.7259	14369.6875
1624.03199	14084.6875
1627.33587	14103.3875
1630.63757	14505.4875
1633.93707	15208.8875
1637.23439	16273.2875
1640.52951	17581.2875
1643.82246	19055.4875
1647.11321	20417.3875
1650.40179	21270.5875
1653.68819	20634.2875
1656.97241	18454.3875
1660.25446	15940.3875
1663.53433	14040.5875
1666.81203	12889.7875
1670.08756	12225.5875
1673.36092	11829.1875
1676.63211	11604.0875
1679.90115	11379.1875
1683.16801	11259.4875
1686.43272	11140.4875
1689.69527	11097.5875
1692.95567	11005.2875
1696.2139	10949.5875
1699.46999	10926.4875
1702.72392	10875.7875
1705.97571	10886.8875
1709.22535	10948.1875
1712.47284	10965.8875
1715.71819	10955.4875
1718.96139	10975.5875
1722.20246	10952.6875
1725.44139	10937.7875
1728.67818	10885.0875
1731.91284	10806.2875
1735.14537	10739.0875
1738.37576	10690.9875
1741.60403	10683.4875
1744.83017	10631.0875
1748.05418	10610.0875
1751.27607	10563.8875
1754.49584	10544.9875
1757.71349	10528.2875
1760.92903	10521.4875
1764.14244	10513.2875
1767.35375	10484.1875
1770.56294	10485.9875
1773.77002	10486.7875
1776.97499	10485.4875
1780.17785	10512.9875
1783.37861	10492.4875
1786.57727	10481.8875
1789.77382	10502.6875
1792.96828	10475.6875
1796.16064	10476.2875
1799.3509	10460.5875
1802.53907	10465.1875
1805.72514	10420.5875
1808.90913	10408.8875
1812.09102	10374.5875
1815.27083	10372.5875
1818.44856	10363.2875
1821.6242	10324.8875
1824.79776	10329.6875
1827.96924	10325.6875
1831.13864	10324.3875
1834.30597	10319.7875
1837.47122	10303.5875
1840.6344	10317.4875
1843.7955	10332.5875
1846.95454	10332.0875
1850.11151	10341.5875
1853.26642	10353.2875
1856.41926	10343.3875
1859.57004	10371.6875
1862.71876	10387.8875
1865.86542	10347.8875
1869.01003	10376.9875
1872.15258	10364.3875
1875.29308	10384.3875
1878.43152	10388.3875
1881.56792	10412.3875
1884.70227	10405.2875
1887.83457	10443.5875
1890.96482	10434.7875
1894.09304	10450.5875
1897.21921	10425.8875
1900.34335	10446.3875
1903.46544	10430.1875
1906.58551	10439.5875
1909.70353	10458.2875
1912.81953	10431.3875
1915.93349	10450.8875
1919.04543	10403.5875
1922.15534	10391.0875
1925.26322	10392.8875
1928.36908	10351.1875
1931.47292	10331.7875
1934.57473	10268.8875
1937.67453	10249.0875
1940.77232	10202.0875
1943.86808	10124.7875
1946.96184	10093.5875
1950.05358	10056.8875
1953.14331	10031.7875
1956.23103	9996.2875
1959.31675	9949.8875
1962.40046	9941.2875
1965.48217	9880.6875
1968.56188	9867.6875
1971.63959	9852.4875
1974.7153	9833.0875
1977.78901	9792.2875
1980.86073	9745.0875
1983.93046	9723.0875
1986.99819	9685.2875
1990.06394	9654.8875
1993.1277	9638.7875
1996.18947	9590.6875
1999.24925	9592.9875
2002.30706	9541.9875
2005.36288	9531.3875
2008.41672	9527.8875
2011.46859	9471.9875
2014.51848	9447.9875
2017.56639	9441.5875
2020.61233	9408.4875
2023.6563	9406.0875
2026.6983	9372.4875
2029.73833	9353.4875
2032.7764	9339.1875
2035.8125	9326.1875
2038.84664	9291.5875
2041.87881	9293.5875
2044.90903	9267.5875
2047.93729	9260.1875
2050.96359	9262.7875
2053.98794	9242.7875
2057.01034	9233.7875
2060.03078	9217.1875
2063.04927	9210.6875
2066.06582	9211.0875
2069.08042	9201.1875
2072.09307	9202.1875
2075.10378	9183.2875
2078.11255	9172.8875
2081.11938	9180.2875
2084.12426	9178.0875
2087.12722	9174.8875
2090.12824	9173.3875
2093.12732	9164.5875
2096.12447	9169.1875
2099.11969	9174.7875
2102.11299	9175.8875
2105.10435	9186.4875
2108.09379	9179.1875
2111.08131	9171.8875
2114.0669	9190.0875
2117.05057	9199.7875
2120.03233	9187.7875
2123.01216	9194.0875
2125.99008	9233.9875
2128.96609	9182.0875
2131.94018	9216.6875
2134.91236	9224.9875
2137.88263	9223.4875
2140.851	9250.9875
2143.81746	9243.8875
2146.78201	9249.3875
2149.74466	9259.5875
2152.7054	9274.4875
2155.66425	9248.4875
2158.6212	9245.0875
2161.57625	9225.9875
2164.52941	9249.0875
2167.48067	9234.9875
2170.43004	9236.6875
2173.37752	9227.9875
2176.32311	9224.6875
2179.26681	9233.0875
2182.20863	9238.8875
2185.14856	9231.9875
2188.08661	9239.8875
2191.02278	9240.2875
2193.95707	9240.4875
2196.88948	9231.2875
2199.82001	9248.8875
2202.74867	9226.9875
2205.67545	9226.7875
2208.60037	9223.8875
2211.52341	9201.4875
2214.44458	9202.3875
2217.36388	9166.8875
2220.28132	9169.3875
2223.1969	9158.8875
2226.11061	9142.3875
2229.02246	9149.3875
2231.93245	9129.9875
2234.84058	9093.4875
2237.74686	9077.7875
2240.65128	9076.0875
2243.55385	9058.4875
2246.45456	9041.3875
2249.35343	9028.2875
2252.25044	9023.5875
2255.14561	9029.3875
2258.03893	9024.2875
2260.93041	8967.3875
2263.82004	8972.2875
2266.70783	8978.1875
2269.59378	8954.4875
2272.4779	8922.0875
2275.36017	8908.9875
2278.24061	8894.0875
2281.11922	8875.1875
2283.996	8870.3875
2286.87094	8865.7875
2289.74405	8844.6875
2292.61534	8807.0875
2295.4848	8810.6875
2298.35243	8829.8875
2301.21824	8824.0875
2304.08223	8813.5875
2306.94439	8828.1875
2309.80474	8834.0875
2312.66327	8837.8875
2315.51999	8830.0875
2318.37489	8842.7875
2321.22797	8809.8875
2324.07925	8797.9875
2326.92871	8802.6875
2329.77637	8787.4875
2332.62222	8783.3875
2335.46626	8785.6875
2338.3085	8775.2875
2341.14893	8789.3875
2343.98756	8779.9875
2346.8244	8802.9875
2349.65943	8810.5875
2352.49267	8787.5875
2355.32411	8783.3875
2358.15376	8797.5875
2360.98161	8769.5875
2363.80768	8802.7875
2366.63195	8776.0875
2369.45444	8776.9875
2372.27514	8755.4875
2375.09405	8720.4875
2377.91118	8702.3875
2380.72652	8675.2875
2383.54009	8668.8875
2386.35187	8662.1875
2389.16188	8635.7875
2391.97011	8592.4875
2394.77657	8612.1875
2397.58125	8599.8875
2400.38416	8561.5875
2403.18529	8544.1875
2405.98466	8543.0875
2408.78226	8516.8875
2411.57809	8487.2875
2414.37216	8497.2875
2417.16446	8479.9875
2419.955	8495.6875
2422.74378	8481.2875
2425.5308	8461.4875
2428.31606	8452.5875
2431.09956	8440.8875
2433.88131	8438.2875
2436.6613	8435.1875
2439.43954	8435.1875
2442.21603	8429.2875
2444.99077	8426.0875
2447.76377	8449.1875
2450.53501	8432.2875
2453.30451	8429.7875
2456.07226	8413.0875
2458.83827	8407.6875
2461.60254	8403.0875
2464.36507	8384.2875
2467.12586	8411.4875
2469.88492	8379.1875
2472.64224	8395.3875
2475.39782	8412.3875
2478.15167	8410.0875
2480.90379	8414.4875
2483.65417	8415.7875
2486.40283	8412.7875
2489.14976	8456.1875
2491.89497	8455.9875
2494.63845	8439.5875
2497.3802	8419.4875
2500.12024	8424.9875
2502.85855	8452.2875
2505.59514	8412.5875
2508.33002	8428.4875
2511.06318	8403.6875
2513.79462	8380.9875
2516.52435	8352.0875
2519.25237	8358.9875
2521.97867	8311.9875
2524.70327	8332.5875
2527.42616	8297.6875
2530.14734	8319.7875
2532.86681	8288.1875
2535.58458	8309.5875
2538.30065	8288.7875
2541.01501	8300.1875
2543.72768	8294.8875
2546.43864	8280.2875
2549.14791	8270.1875
2551.85548	8254.0875
2554.56136	8255.7875
2557.26554	8253.4875
2559.96803	8229.9875
2562.66883	8239.0875
2565.36794	8231.7875
2568.06536	8228.6875
2570.7611	8201.8875
2573.45514	8178.4875
2576.14751	8179.1875
2578.83819	8160.3875
2581.52719	8196.7875
2584.21451	8165.0875
2586.90015	8177.6875
2589.58411	8160.8875
2592.2664	8159.5875
2594.94701	8149.6875
2597.62594	8147.5875
2600.30321	8149.0875
2602.9788	8138.9875
2605.65273	8137.9875
2608.32498	8120.8875
2610.99557	8114.6875
2613.66449	8136.1875
2616.33175	8135.9875
2618.99734	8124.3875
2621.66128	8145.8875
2624.32355	8122.5875
2626.98416	8129.5875
2629.64311	8128.9875
2632.30041	8125.3875
2634.95605	8092.0875
2637.61004	8094.4875
2640.26238	8079.2875
2642.91306	8068.7875
2645.56209	8077.2875
2648.20948	8083.7875
2650.85521	8057.4875
2653.4993	8039.3875
2656.14175	8061.0875
2658.78255	8061.7875
2661.42171	8058.6875
2664.05923	8054.6875
2666.6951	8069.8875
2669.32934	8093.4875
2671.96194	8064.0875
2674.59291	8100.3875
2677.22224	8107.3875
2679.84993	8092.0875
2682.476	8081.9875
2685.10043	8078.8875
2687.72324	8062.7875
2690.34441	8079.8875
2692.96396	8073.1875
2695.58188	8080.7875
2698.19818	8066.1875
2700.81285	8071.3875
2703.4259	8064.7875
2706.03733	8052.8875
2708.64714	8050.1875
2711.25533	8055.8875
2713.86191	8050.8875
2716.46687	8093.7875
2719.07021	8086.5875
2721.67194	8074.2875
2724.27206	8077.0875
2726.87057	8095.3875
2729.46747	8105.8875
2732.06276	8085.5875
2734.65644	8103.7875
2737.24852	8099.1875
2739.83899	8075.4875
2742.42786	8080.4875
2745.01513	8052.6875
2747.60079	8062.0875
2750.18486	8064.8875
2752.76733	8044.0875
2755.3482	8044.6875
2757.92747	8060.3875
2760.50515	8022.9875
2763.08123	8032.5875
2765.65573	8014.5875
2768.22863	8030.9875
2770.79994	8014.7875
2773.36967	8005.2875
2775.9378	8021.6875
2778.50435	8013.5875
2781.06932	7998.1875
2783.6327	7978.9875
2786.1945	7989.4875
2788.75471	7981.9875
2791.31335	7971.1875
2793.87041	7952.9875
2796.42589	7940.2875
2798.97979	7924.7875
2801.53212	7920.2875
2804.08288	7905.6875
2806.63206	7890.3875
2809.17967	7880.8875
2811.72571	7878.1875
2814.27018	7871.4875
2816.81308	7865.0875
2819.35442	7869.8875
2821.89419	7866.2875
2824.43239	7876.7875
2826.96904	7849.2875
2829.50412	7856.7875
2832.03763	7857.1875
2834.56959	7870.2875
2837.1	7891.3875
2839.62884	7866.6875
2842.15613	7877.3875
2844.68186	7888.4875
2847.20604	7914.7875
2849.72867	7931.2875
2852.24974	7914.3875
2854.76927	7929.4875
2857.28724	7921.5875
2859.80367	7917.8875
2862.31855	7886.9875
2864.83189	7865.5875
2867.34368	7861.3875
2869.85393	7855.8875
2872.36264	7847.0875
2874.8698	7849.3875
2877.37543	7861.4875
2879.87952	7841.7875
2882.38207	7831.3875
2884.88308	7839.1875
2887.38256	7839.1875
2889.88051	7834.5875
2892.37692	7849.0875
2894.8718	7851.6875
2897.36515	7850.9875
2899.85698	7853.6875
2902.34727	7850.7875
2904.83604	7865.5875
2907.32328	7873.3875
2909.809	7879.8875
2912.29319	7869.9875
2914.77587	7873.2875
2917.25702	7862.6875
2919.73665	7849.4875
2922.21476	7861.7875
2924.69136	7860.1875
2927.16644	7851.7875
2929.64	7838.1875
2932.11205	7832.6875
2934.58258	7802.0875
2937.05161	7806.5875
2939.51912	7799.6875
2941.98513	7772.9875
2944.44962	7751.2875
2946.91261	7709.5875
2949.37409	7715.5875
2951.83407	7729.7875
2954.29254	7687.1875
2956.74951	7685.5875
2959.20498	7697.8875
2961.65895	7671.8875
2964.11142	7674.6875
2966.56239	7632.8875
2969.01186	7655.5875
2971.45984	7617.3875
2973.90632	7609.2875
2976.35131	7592.9875
2978.7948	7586.3875
2981.23681	7548.7875
2983.67732	7541.1875
2986.11635	7536.9875
2988.55388	7508.2875
2990.98993	7498.2875
2993.4245	7498.3875
2995.85758	7461.7875
2998.28917	7470.1875
3000.71928	7462.4875
3003.14791	7425.7875
3005.57506	7432.7875
3008.00073	7412.1875
3010.42493	7421.9875
3012.84764	7392.1875
3015.26888	7384.6875
3017.68865	7367.0875
3020.10694	7374.4875
3022.52376	7350.5875
3024.9391	7338.7875
3027.35298	7351.2875
3029.76539	7341.5875
3032.17632	7324.2875
3034.5858	7315.9875
3036.9938	7298.7875
3039.40034	7284.8875
3041.80542	7291.9875
3044.20903	7270.3875
3046.61118	7272.3875
3049.01187	7270.2875
3051.4111	7249.6875
3053.80888	7240.3875
3056.20519	7227.0875
3058.60005	7199.9875
3060.99345	7194.0875
3063.3854	7178.8875
3065.7759	7162.8875
3068.16494	7154.7875
3070.55254	7104.4875
