Data from AgNPs_FTO_APTES_UA_1uM_CRN_5uM_R6G_10uM_NaF_0.1M_Addition_RamanShift__16__13-54-49-596.txt Node

Date: Thu Jan 27 13:54:49 GMT 2022
User: TCL
Spectrometer: QEP01345
Trigger mode: 4
Integration Time (sec): 7.000000E0
Scans to average: 10
Electric dark correction enabled: true
Nonlinearity correction enabled: false
Boxcar width: 0
XAxis mode: Raman Shifts
Number of Pixels in Spectrum: 1044
>>>>>Begin Spectral Data<<<<<
46.04893	1.3875
50.45542	0.7875
54.85868	-1.7125
59.25871	-1.8125
63.6555	47.6875
68.04907	52.2875
72.43941	56.3875
76.82654	58.0875
81.21044	57.5875
85.59113	60.6875
89.96862	63.8875
94.34289	64.9875
98.71396	68.8875
103.08183	66.9875
107.4465	71.3875
111.80798	76.0875
116.16626	77.3875
120.52136	84.7875
124.87327	79.7875
129.222	80.3875
133.56755	86.7875
137.90993	90.2875
142.24913	100.0875
146.58517	108.3875
150.91804	122.8875
155.24774	147.2875
159.57429	176.7875
163.89768	222.5875
168.21792	292.4875
172.53501	391.3875
176.84895	545.4875
181.15975	759.5875
185.46741	1052.5875
189.77193	1462.0875
194.07331	1956.4875
198.37157	2520.1875
202.6667	3107.8875
206.9587	3693.6875
211.24758	4263.5875
215.53334	4837.2875
219.81599	5433.4875
224.09553	6133.7875
228.37195	6875.1875
232.64527	7703.7875
236.91549	8582.9875
241.18261	9485.5875
245.44663	10274.3875
249.70755	11008.4875
253.96539	11672.2875
258.22014	12216.2875
262.4718	12662.6875
266.72039	12968.9875
270.96589	13147.0875
275.20832	13197.8875
279.44768	13135.1875
283.68397	13009.6875
287.91719	12920.0875
292.14735	12873.5875
296.37445	12850.3875
300.59849	12922.1875
304.81948	13014.5875
309.03742	13003.1875
313.25231	12860.4875
317.46415	12546.7875
321.67296	12148.8875
325.87872	11826.1875
330.08145	11664.5875
334.28114	11645.6875
338.47781	11728.2875
342.67145	11872.1875
346.86207	12099.7875
351.04966	12348.8875
355.23424	12628.8875
359.4158	12852.0875
363.59435	13009.9875
367.76989	13143.5875
371.94243	13238.1875
376.11196	13298.9875
380.27849	13319.6875
384.44203	13432.4875
388.60257	13524.6875
392.76012	13625.3875
396.91468	13795.6875
401.06626	14010.4875
405.21485	14152.8875
409.36047	14082.9875
413.50311	13870.6875
417.64277	13672.8875
421.77947	13586.6875
425.9132	13651.0875
430.04396	13690.6875
434.17176	13767.5875
438.2966	13857.0875
442.41849	14044.7875
446.53742	14339.2875
450.6534	14673.7875
454.76644	14975.4875
458.87653	15118.8875
462.98368	15085.9875
467.08789	14912.5875
471.18916	14746.2875
475.2875	14569.0875
479.38291	14451.7875
483.4754	14359.1875
487.56496	14206.4875
491.6516	14045.9875
495.73531	13872.9875
499.81612	13841.1875
503.89401	13915.3875
507.96899	13978.9875
512.04106	13958.5875
516.11023	13922.0875
520.1765	13835.4875
524.23987	13704.2875
528.30034	13585.2875
532.35792	13424.3875
536.41261	13278.9875
540.46441	13135.0875
544.51333	13121.5875
548.55936	13286.5875
552.60252	13576.3875
556.64279	13860.8875
560.6802	14034.2875
564.71473	14060.3875
568.7464	14216.1875
572.7752	14471.2875
576.80114	14723.8875
580.82422	15005.7875
584.84444	15247.7875
588.86181	15417.3875
592.87633	15542.5875
596.888	15576.4875
600.89682	15585.3875
604.9028	16080.5875
608.90594	17499.2875
612.90624	19046.2875
616.90371	18135.7875
620.89834	15275.2875
624.89015	13989.6875
628.87913	13880.1875
632.86528	13924.1875
636.84862	13810.4875
640.82913	13556.7875
644.80683	13245.3875
648.78172	12945.4875
652.75379	12886.4875
656.72306	13040.1875
660.68952	13247.4875
664.65319	13205.2875
668.61405	12977.9875
672.57211	12875.0875
676.52738	12874.5875
680.47986	12850.5875
684.42955	12795.3875
688.37646	12761.7875
692.32058	12813.4875
696.26192	12946.9875
700.20048	13070.5875
704.13626	13189.9875
708.06928	13125.0875
711.99952	13052.9875
715.927	13018.4875
719.85171	13019.5875
723.77365	12997.9875
727.69284	12874.9875
731.60928	12776.9875
735.52295	12717.3875
739.43388	12733.2875
743.34206	12764.7875
747.24749	12828.2875
751.15017	12951.7875
755.05012	13169.9875
758.94733	13515.1875
762.8418	14159.0875
766.73354	15225.1875
770.62254	16278.9875
774.50882	16582.6875
778.39237	15928.4875
782.27321	14767.4875
786.15132	13773.7875
790.02671	13205.9875
793.89938	12978.5875
797.76935	12857.2875
801.6366	12844.3875
805.50115	12789.0875
809.36299	12738.5875
813.22213	12608.8875
817.07857	12555.8875
820.93231	12503.1875
824.78336	12441.0875
828.63172	12436.8875
832.47738	12455.9875
836.32036	12471.5875
840.16066	12539.5875
843.99827	12606.7875
847.8332	12568.2875
851.66546	12496.7875
855.49504	12444.1875
859.32195	12457.4875
863.1462	12416.0875
866.96777	12367.4875
870.78668	12317.5875
874.60293	12332.7875
878.41652	12315.4875
882.22745	12377.8875
886.03573	12435.3875
889.84136	12419.8875
893.64433	12358.0875
897.44466	12307.8875
901.24235	12246.5875
905.0374	12206.9875
908.8298	12172.5875
912.61957	12191.0875
916.40671	12311.5875
920.19121	12498.1875
923.97308	12658.3875
927.75233	12711.7875
931.52895	12667.4875
935.30295	12577.6875
939.07433	12337.3875
942.84309	12122.9875
946.60924	12044.1875
950.37278	12015.5875
954.13371	11971.0875
957.89203	11914.7875
961.64774	11857.1875
965.40086	11812.7875
969.15137	11793.7875
972.89929	11739.7875
976.64461	11718.2875
980.38733	11709.3875
984.12747	11785.9875
987.86502	11901.5875
991.59999	12062.5875
995.33237	12337.5875
999.06217	12746.2875
1002.78939	13218.1875
1006.51404	13407.7875
1010.23611	13489.2875
1013.95561	13539.0875
1017.67255	13575.5875
1021.38692	13423.7875
1025.09872	13315.9875
1028.80796	13430.3875
1032.51465	13918.8875
1036.21877	14391.5875
1039.92035	14457.2875
1043.61937	14214.7875
1047.31584	13786.7875
1051.00976	13349.8875
1054.70114	13156.8875
1058.38998	13134.2875
1062.07627	13197.5875
1065.76003	13245.9875
1069.44126	13290.9875
1073.11995	13459.0875
1076.79611	13643.3875
1080.46974	13718.3875
1084.14085	13815.1875
1087.80943	13953.7875
1091.47549	14046.2875
1095.13903	14057.6875
1098.80005	13875.7875
1102.45857	13611.1875
1106.11456	13398.6875
1109.76805	13314.4875
1113.41903	13339.8875
1117.06751	13446.9875
1120.71348	13532.9875
1124.35696	13681.8875
1127.99793	13838.7875
1131.63641	13944.6875
1135.2724	13833.4875
1138.90589	13724.2875
1142.5369	13653.1875
1146.16542	13619.3875
1149.79145	13630.7875
1153.415	13694.4875
1157.03607	13833.9875
1160.65467	14141.4875
1164.27079	14629.8875
1167.88443	15401.1875
1171.49561	16371.0875
1175.10432	17567.7875
1178.71056	19104.0875
1182.31434	20576.0875
1185.91565	21411.2875
1189.51451	21424.0875
1193.11091	20770.8875
1196.70485	19820.6875
1200.29634	18901.0875
1203.88538	18196.2875
1207.47197	17663.1875
1211.05612	17259.2875
1214.63782	16995.7875
1218.21708	16708.3875
1221.79391	16584.9875
1225.36829	16565.4875
1228.94024	16407.9875
1232.50976	16093.3875
1236.07685	15835.2875
1239.6415	15692.9875
1243.20374	15674.4875
1246.76355	15738.8875
1250.32093	15955.4875
1253.8759	16284.4875
1257.42845	16759.5875
1260.97859	17215.1875
1264.52631	17713.8875
1268.07163	18199.0875
1271.61453	18738.4875
1275.15503	19335.2875
1278.69312	19960.4875
1282.22882	20482.4875
1285.76211	20871.1875
1289.29301	21246.1875
1292.82151	21834.7875
1296.34761	22640.7875
1299.87133	23774.0875
1303.39266	25244.7875
1306.9116	26944.9875
1310.42815	28627.9875
1313.94233	29650.9875
1317.45412	29635.3875
1320.96354	28889.7875
1324.47058	28106.5875
1327.97525	27372.3875
1331.47754	26867.8875
1334.97747	26512.9875
1338.47502	26428.8875
1341.97022	26316.2875
1345.46305	26188.1875
1348.95352	25904.3875
1352.44163	25713.8875
1355.92738	26069.7875
1359.41078	27162.7875
1362.89183	28269.4875
1366.37053	27864.2875
1369.84688	25684.9875
1373.32088	23026.7875
1376.79254	21081.2875
1380.26186	20211.5875
1383.72883	20040.8875
1387.19347	19965.6875
1390.65578	19764.7875
1394.11575	19612.5875
1397.57339	19723.6875
1401.0287	20055.9875
1404.48168	20388.3875
1407.93234	20443.1875
1411.38068	20277.8875
1414.82669	19792.6875
1418.27039	19129.7875
1421.71177	18424.9875
1425.15083	17813.0875
1428.58758	17511.8875
1432.02203	17484.6875
1435.45416	17821.0875
1438.88399	18269.8875
1442.31151	18683.0875
1445.73673	18970.7875
1449.15965	19178.2875
1452.58027	19373.3875
1455.9986	19405.0875
1459.41463	19539.6875
1462.82837	19806.0875
1466.23982	20227.7875
1469.64898	20633.0875
1473.05586	20887.0875
1476.46045	20895.6875
1479.86276	20792.9875
1483.26279	20510.1875
1486.66054	20324.1875
1490.05602	20284.6875
1493.44922	20411.2875
1496.84016	20658.0875
1500.22882	21088.6875
1503.61521	21824.7875
1506.99934	22723.1875
1510.38121	23555.9875
1513.76081	23857.5875
1517.13816	23307.2875
1520.51324	22318.5875
1523.88607	21325.8875
1527.25665	20690.9875
1530.62498	20352.4875
1533.99105	20188.3875
1537.35488	20015.5875
1540.71647	19853.6875
1544.07581	19604.8875
1547.4329	19245.1875
1550.78776	18988.1875
1554.14038	18817.2875
1557.49077	18710.9875
1560.83892	18649.6875
1564.18484	18631.4875
1567.52853	18683.1875
1570.86999	18835.8875
1574.20922	19058.9875
1577.54624	19197.2875
1580.88103	19175.3875
1584.2136	19159.3875
1587.54395	19496.6875
1590.87208	20302.6875
1594.19801	21554.6875
1597.52172	22877.4875
1600.84321	23446.1875
1604.16251	22509.1875
1607.47959	20889.9875
1610.79447	19176.0875
1614.10715	17573.4875
1617.41763	16258.8875
1620.7259	15322.4875
1624.03199	14854.0875
1627.33587	14841.7875
1630.63757	15202.7875
1633.93707	16088.5875
1637.23439	17411.9875
1640.52951	19293.0875
1643.82246	21369.9875
1647.11321	22911.0875
1650.40179	23173.9875
1653.68819	21848.7875
1656.97241	19256.0875
1660.25446	16699.2875
1663.53433	14738.7875
1666.81203	13476.4875
1670.08756	12688.6875
1673.36092	12205.4875
1676.63211	11878.3875
1679.90115	11645.9875
1683.16801	11463.4875
1686.43272	11330.2875
1689.69527	11216.2875
1692.95567	11126.5875
1696.2139	11074.8875
1699.46999	10963.6875
1702.72392	10958.4875
1705.97571	10953.3875
1709.22535	10936.0875
1712.47284	10963.1875
1715.71819	10927.0875
1718.96139	10921.5875
1722.20246	10906.7875
1725.44139	10870.6875
1728.67818	10797.5875
1731.91284	10754.2875
1735.14537	10718.8875
1738.37576	10652.3875
1741.60403	10596.7875
1744.83017	10559.2875
1748.05418	10505.7875
1751.27607	10515.1875
1754.49584	10472.5875
1757.71349	10455.9875
1760.92903	10419.5875
1764.14244	10401.8875
1767.35375	10423.0875
1770.56294	10366.2875
1773.77002	10388.4875
1776.97499	10392.8875
1780.17785	10364.1875
1783.37861	10390.5875
1786.57727	10378.6875
1789.77382	10361.0875
1792.96828	10342.2875
1796.16064	10331.2875
1799.3509	10290.1875
1802.53907	10285.3875
1805.72514	10262.2875
1808.90913	10238.0875
1812.09102	10220.8875
1815.27083	10202.8875
1818.44856	10186.4875
1821.6242	10170.4875
1824.79776	10154.1875
1827.96924	10161.4875
1831.13864	10164.0875
1834.30597	10173.0875
1837.47122	10161.3875
1840.6344	10176.6875
1843.7955	10159.1875
1846.95454	10171.9875
1850.11151	10165.2875
1853.26642	10170.8875
1856.41926	10193.5875
1859.57004	10203.4875
1862.71876	10183.8875
1865.86542	10149.4875
1869.01003	10141.9875
1872.15258	10122.9875
1875.29308	10133.4875
1878.43152	10133.2875
1881.56792	10114.2875
1884.70227	10125.4875
1887.83457	10120.0875
1890.96482	10100.3875
1894.09304	10094.5875
1897.21921	10101.3875
1900.34335	10074.7875
1903.46544	10078.6875
1906.58551	10067.8875
1909.70353	10055.7875
1912.81953	10049.8875
1915.93349	10034.3875
1919.04543	9984.2875
1922.15534	9955.1875
1925.26322	9951.1875
1928.36908	9935.2875
1931.47292	9907.9875
1934.57473	9886.3875
1937.67453	9843.5875
1940.77232	9802.2875
1943.86808	9765.9875
1946.96184	9741.1875
1950.05358	9690.3875
1953.14331	9669.2875
1956.23103	9626.1875
1959.31675	9646.9875
1962.40046	9607.3875
1965.48217	9579.1875
1968.56188	9568.1875
1971.63959	9514.2875
1974.7153	9497.1875
1977.78901	9467.1875
1980.86073	9413.0875
1983.93046	9415.3875
1986.99819	9382.5875
1990.06394	9330.4875
1993.1277	9321.2875
1996.18947	9289.1875
1999.24925	9253.8875
2002.30706	9233.1875
2005.36288	9222.4875
2008.41672	9207.5875
2011.46859	9176.6875
2014.51848	9379.8875
2017.56639	9136.1875
2020.61233	9116.4875
2023.6563	9106.8875
2026.6983	9064.7875
2029.73833	9070.8875
2032.7764	9041.8875
2035.8125	9035.5875
2038.84664	9022.3875
2041.87881	9012.2875
2044.90903	8990.6875
2047.93729	8968.5875
2050.96359	8964.5875
2053.98794	8950.3875
2057.01034	8944.6875
2060.03078	8940.1875
2063.04927	8938.2875
2066.06582	8956.5875
2069.08042	8914.9875
2072.09307	8915.6875
2075.10378	8909.4875
2078.11255	8897.4875
2081.11938	8896.0875
2084.12426	8873.2875
2087.12722	8880.8875
2090.12824	8898.8875
2093.12732	8877.5875
2096.12447	8879.3875
2099.11969	8894.5875
2102.11299	8897.9875
2105.10435	8900.2875
2108.09379	8914.0875
2111.08131	8925.9875
2114.0669	8903.3875
2117.05057	8933.7875
2120.03233	8925.5875
2123.01216	8940.9875
2125.99008	8946.7875
2128.96609	8937.5875
2131.94018	8970.5875
2134.91236	8959.4875
2137.88263	8949.0875
2140.851	8941.3875
2143.81746	8979.3875
2146.78201	8979.2875
2149.74466	8986.7875
2152.7054	9004.2875
2155.66425	8984.7875
2158.6212	8981.8875
2161.57625	8954.7875
2164.52941	8980.7875
2167.48067	8972.1875
2170.43004	8968.2875
2173.37752	8987.4875
2176.32311	8974.8875
2179.26681	8966.5875
2182.20863	8975.7875
2185.14856	8964.7875
2188.08661	9006.3875
2191.02278	9001.6875
2193.95707	8986.9875
2196.88948	8980.8875
2199.82001	8971.4875
2202.74867	8979.9875
2205.67545	8985.7875
2208.60037	8976.8875
2211.52341	8943.5875
2214.44458	8939.9875
2217.36388	8946.1875
2220.28132	8928.0875
2223.1969	8927.6875
2226.11061	8922.5875
2229.02246	8858.4875
2231.93245	8858.9875
2234.84058	8822.8875
2237.74686	8827.9875
2240.65128	8807.2875
2243.55385	8799.3875
2246.45456	8786.9875
2249.35343	8785.6875
2252.25044	8764.5875
2255.14561	8737.8875
2258.03893	8746.1875
2260.93041	8727.9875
2263.82004	8714.5875
2266.70783	8683.0875
2269.59378	8669.6875
2272.4779	8642.1875
2275.36017	8625.5875
2278.24061	8618.4875
2281.11922	8615.6875
2283.996	8627.1875
2286.87094	8600.0875
2289.74405	8583.3875
2292.61534	8557.2875
2295.4848	8561.1875
2298.35243	8584.2875
2301.21824	8568.6875
2304.08223	8571.6875
2306.94439	8587.1875
2309.80474	8590.9875
2312.66327	8608.6875
2315.51999	8572.0875
2318.37489	8565.1875
2321.22797	8583.2875
2324.07925	8567.2875
2326.92871	8566.0875
2329.77637	8560.9875
2332.62222	8551.8875
2335.46626	8549.1875
2338.3085	8521.1875
2341.14893	8551.3875
2343.98756	8567.5875
2346.8244	8562.9875
2349.65943	8556.3875
2352.49267	8563.2875
2355.32411	8548.0875
2358.15376	8541.7875
2360.98161	8522.4875
2363.80768	8503.7875
2366.63195	8531.9875
2369.45444	8497.3875
2372.27514	8471.5875
2375.09405	8472.9875
2377.91118	8463.9875
2380.72652	8428.8875
2383.54009	8403.5875
2386.35187	8428.0875
2389.16188	8387.8875
2391.97011	8353.2875
2394.77657	8368.5875
2397.58125	8354.5875
2400.38416	8337.2875
2403.18529	8339.6875
2405.98466	8332.7875
2408.78226	8315.9875
2411.57809	8264.7875
2414.37216	8256.4875
2417.16446	8273.3875
2419.955	8249.4875
2422.74378	8249.5875
2425.5308	8251.9875
2428.31606	8240.5875
2431.09956	8225.6875
2433.88131	8213.3875
2436.6613	8214.5875
2439.43954	8213.0875
2442.21603	8228.5875
2444.99077	8234.2875
2447.76377	8213.0875
2450.53501	8196.4875
2453.30451	8194.6875
2456.07226	8236.0875
2458.83827	8195.4875
2461.60254	8196.2875
2464.36507	8220.5875
2467.12586	8179.8875
2469.88492	8193.8875
2472.64224	8209.9875
2475.39782	8221.3875
2478.15167	8221.6875
2480.90379	8197.4875
2483.65417	8225.7875
2486.40283	8239.3875
2489.14976	8259.5875
2491.89497	8263.5875
2494.63845	8243.6875
2497.3802	8224.7875
2500.12024	8221.8875
2502.85855	8230.2875
2505.59514	8190.3875
2508.33002	8202.6875
2511.06318	8214.5875
2513.79462	8192.9875
2516.52435	8174.4875
2519.25237	8181.0875
2521.97867	8180.0875
2524.70327	8166.9875
2527.42616	8151.6875
2530.14734	8155.9875
2532.86681	8172.4875
2535.58458	8148.7875
2538.30065	8137.7875
2541.01501	8143.4875
2543.72768	8153.1875
2546.43864	8124.8875
2549.14791	8103.5875
2551.85548	8116.8875
2554.56136	8098.7875
2557.26554	8109.5875
2559.96803	8088.5875
2562.66883	8096.9875
2565.36794	8091.8875
2568.06536	8073.8875
2570.7611	8060.3875
2573.45514	8073.5875
2576.14751	8053.6875
2578.83819	8040.8875
2581.52719	8047.6875
2584.21451	8053.0875
2586.90015	8055.8875
2589.58411	8036.3875
2592.2664	8051.1875
2594.94701	8024.3875
2597.62594	8030.4875
2600.30321	8021.9875
2602.9788	8019.5875
2605.65273	8003.7875
2608.32498	8008.7875
2610.99557	7997.5875
2613.66449	8010.2875
2616.33175	8016.7875
2618.99734	8022.6875
2621.66128	7999.9875
2624.32355	8009.7875
2626.98416	8012.3875
2629.64311	8000.4875
2632.30041	8009.3875
2634.95605	7993.4875
2637.61004	7994.1875
2640.26238	7985.1875
2642.91306	7980.9875
2645.56209	7959.5875
2648.20948	7963.8875
2650.85521	7933.5875
2653.4993	7936.6875
2656.14175	7949.8875
2658.78255	7955.9875
2661.42171	7959.4875
2664.05923	7977.2875
2666.6951	7962.3875
2669.32934	7954.8875
2671.96194	7977.2875
2674.59291	7976.7875
2677.22224	7998.5875
2679.84993	7959.6875
2682.476	7950.3875
2685.10043	7955.3875
2687.72324	7935.5875
2690.34441	7913.2875
2692.96396	7920.8875
2695.58188	7948.4875
2698.19818	7931.6875
2700.81285	7929.5875
2703.4259	7931.9875
2706.03733	7911.4875
2708.64714	7910.1875
2711.25533	7897.1875
2713.86191	7925.1875
2716.46687	7951.1875
2719.07021	7925.7875
2721.67194	7954.4875
2724.27206	7949.7875
2726.87057	7967.6875
2729.46747	7975.0875
2732.06276	7978.1875
2734.65644	7967.8875
2737.24852	7966.1875
2739.83899	7962.1875
2742.42786	7952.3875
2745.01513	7934.0875
2747.60079	7940.5875
2750.18486	7945.5875
2752.76733	7910.4875
2755.3482	7914.1875
2757.92747	7919.6875
2760.50515	7908.1875
2763.08123	7907.9875
2765.65573	7915.8875
2768.22863	7904.1875
2770.79994	7897.4875
2773.36967	7917.8875
2775.9378	7919.7875
2778.50435	7907.7875
2781.06932	7890.1875
2783.6327	7890.6875
2786.1945	7893.3875
2788.75471	7871.4875
2791.31335	7876.1875
2793.87041	7859.7875
2796.42589	7844.3875
2798.97979	7845.5875
2801.53212	7836.3875
2804.08288	7834.6875
2806.63206	7786.5875
2809.17967	7777.9875
2811.72571	7764.1875
2814.27018	7760.2875
2816.81308	7749.3875
2819.35442	7755.5875
2821.89419	7744.7875
2824.43239	7714.4875
2826.96904	7716.2875
2829.50412	7757.1875
2832.03763	7723.4875
2834.56959	7710.7875
2837.1	7711.8875
2839.62884	7704.4875
2842.15613	7689.6875
2844.68186	7704.0875
2847.20604	7728.4875
2849.72867	7729.4875
2852.24974	7756.6875
2854.76927	7729.8875
2857.28724	7731.5875
2859.80367	7701.1875
2862.31855	7698.5875
2864.83189	7715.0875
2867.34368	7707.9875
2869.85393	7682.6875
2872.36264	7684.7875
2874.8698	7696.1875
2877.37543	7665.1875
2879.87952	7670.8875
2882.38207	7675.1875
2884.88308	7668.3875
2887.38256	7679.2875
2889.88051	7656.2875
2892.37692	7695.6875
2894.8718	7666.9875
2897.36515	7699.6875
2899.85698	7691.4875
2902.34727	7703.3875
2904.83604	7720.7875
2907.32328	7738.1875
2909.809	7725.0875
2912.29319	7721.7875
2914.77587	7765.0875
2917.25702	7744.4875
2919.73665	7742.7875
2922.21476	7736.5875
2924.69136	7718.8875
2927.16644	7729.5875
2929.64	7736.2875
2932.11205	7709.5875
2934.58258	7687.5875
2937.05161	7693.8875
2939.51912	7683.6875
2941.98513	7677.0875
2944.44962	7656.9875
2946.91261	7614.5875
2949.37409	7639.3875
2951.83407	7637.4875
2954.29254	7610.9875
2956.74951	7601.5875
2959.20498	7612.1875
2961.65895	7598.1875
2964.11142	7603.0875
2966.56239	7583.5875
2969.01186	7590.9875
2971.45984	7565.1875
2973.90632	7550.4875
2976.35131	7530.8875
2978.7948	7526.3875
2981.23681	7503.0875
2983.67732	7514.1875
2986.11635	7471.9875
2988.55388	7464.8875
2990.98993	7450.2875
2993.4245	7459.5875
2995.85758	7423.7875
2998.28917	7407.3875
3000.71928	7405.2875
3003.14791	7404.1875
3005.57506	7371.2875
3008.00073	7361.0875
3010.42493	7357.2875
3012.84764	7355.0875
3015.26888	7363.0875
3017.68865	7354.3875
3020.10694	7343.3875
3022.52376	7312.4875
3024.9391	7300.2875
3027.35298	7301.8875
3029.76539	7297.4875
3032.17632	7285.2875
3034.5858	7265.3875
3036.9938	7291.8875
3039.40034	7282.8875
3041.80542	7285.2875
3044.20903	7262.9875
3046.61118	7273.0875
3049.01187	7241.1875
3051.4111	7248.0875
3053.80888	7236.9875
3056.20519	7232.2875
3058.60005	7226.3875
3060.99345	7191.7875
3063.3854	7156.0875
3065.7759	7171.5875
3068.16494	7152.1875
3070.55254	7139.5875
3072.93868	7142.4875
