Data from AgNPs_FTO_APTES_UA_1uM_CRN_0uM_R6G_10uM_NaF_0.1M_Addition_RamanShift__36__11-47-39-451.txt Node

Date: Thu Jan 27 11:47:39 GMT 2022
User: TCL
Spectrometer: QEP01345
Trigger mode: 4
Integration Time (sec): 7.000000E0
Scans to average: 10
Electric dark correction enabled: true
Nonlinearity correction enabled: false
Boxcar width: 0
XAxis mode: Raman Shifts
Number of Pixels in Spectrum: 1044
>>>>>Begin Spectral Data<<<<<
46.04893	0.3125
50.45542	0.3125
54.85868	-0.7875
59.25871	-0.9875
63.6555	58.0125
68.04907	57.4125
72.43941	60.8125
76.82654	63.1125
81.21044	66.9125
85.59113	65.9125
89.96862	67.8125
94.34289	69.7125
98.71396	75.7125
103.08183	77.8125
107.4465	78.2125
111.80798	81.1125
116.16626	84.0125
120.52136	89.7125
124.87327	87.8125
129.222	94.0125
133.56755	97.2125
137.90993	105.6125
142.24913	114.1125
146.58517	129.4125
150.91804	147.0125
155.24774	175.6125
159.57429	213.1125
163.89768	272.1125
168.21792	359.4125
172.53501	489.8125
176.84895	673.8125
181.15975	948.8125
185.46741	1341.3125
189.77193	1842.6125
194.07331	2484.5125
198.37157	3197.6125
202.6667	3969.0125
206.9587	4738.4125
211.24758	5485.3125
215.53334	6248.5125
219.81599	7021.2125
224.09553	7869.3125
228.37195	8816.6125
232.64527	9869.9125
236.91549	10994.2125
241.18261	12147.8125
245.44663	13213.7125
249.70755	14212.0125
253.96539	15062.7125
258.22014	15792.6125
262.4718	16374.4125
266.72039	16767.0125
270.96589	16931.6125
275.20832	16914.6125
279.44768	16802.5125
283.68397	16541.3125
287.91719	16356.7125
292.14735	16184.3125
296.37445	16114.3125
300.59849	16048.0125
304.81948	16140.6125
309.03742	16160.9125
313.25231	16103.5125
317.46415	15911.0125
321.67296	15613.4125
325.87872	15372.7125
330.08145	15220.2125
334.28114	15269.8125
338.47781	15376.4125
342.67145	15540.0125
346.86207	15798.3125
351.04966	16104.5125
355.23424	16392.9125
359.4158	16727.0125
363.59435	16971.4125
367.76989	17133.7125
371.94243	17282.2125
376.11196	17338.8125
380.27849	17377.6125
384.44203	17437.3125
388.60257	17544.9125
392.76012	17652.4125
396.91468	17837.4125
401.06626	18076.7125
405.21485	18251.5125
409.36047	18187.3125
413.50311	18039.6125
417.64277	17853.6125
421.77947	17836.7125
425.9132	17836.4125
430.04396	17907.9125
434.17176	17981.4125
438.2966	18056.0125
442.41849	18267.9125
446.53742	18515.3125
450.6534	18816.1125
454.76644	19010.4125
458.87653	19151.8125
462.98368	19127.3125
467.08789	19051.8125
471.18916	18905.5125
475.2875	18729.2125
479.38291	18555.2125
483.4754	18498.2125
487.56496	18416.1125
491.6516	18305.1125
495.73531	18247.1125
499.81612	18238.8125
503.89401	18397.5125
507.96899	18513.5125
512.04106	18514.9125
516.11023	18526.1125
520.1765	18475.2125
524.23987	18356.0125
528.30034	18235.6125
532.35792	18118.1125
536.41261	18006.1125
540.46441	17862.0125
544.51333	17825.9125
548.55936	17938.2125
552.60252	18139.7125
556.64279	18461.0125
560.6802	18649.7125
564.71473	18710.4125
568.7464	18833.2125
572.7752	19092.3125
576.80114	19325.3125
580.82422	19637.2125
584.84444	20001.0125
588.86181	20509.3125
592.87633	20880.5125
596.888	20829.1125
600.89682	20484.6125
604.9028	20587.6125
608.90594	21931.0125
612.90624	23608.8125
616.90371	22912.6125
620.89834	20071.4125
624.89015	18671.7125
628.87913	18486.1125
632.86528	18587.3125
636.84862	18690.0125
640.82913	18577.1125
644.80683	18273.8125
648.78172	18067.3125
652.75379	18007.3125
656.72306	18210.6125
660.68952	18468.6125
664.65319	18467.0125
668.61405	18217.1125
672.57211	18175.1125
676.52738	18221.5125
680.47986	18251.5125
684.42955	18164.1125
688.37646	18102.7125
692.32058	18117.7125
696.26192	18282.5125
700.20048	18436.6125
704.13626	18551.5125
708.06928	18567.6125
711.99952	18518.4125
715.927	18453.8125
719.85171	18486.9125
723.77365	18469.7125
727.69284	18339.5125
731.60928	18166.5125
735.52295	18072.3125
739.43388	18093.6125
743.34206	18162.4125
747.24749	18207.5125
751.15017	18303.5125
755.05012	18482.9125
758.94733	18787.9125
762.8418	19359.3125
766.73354	20356.0125
770.62254	21350.7125
774.50882	21757.1125
778.39237	21304.6125
782.27321	20398.7125
786.15132	19473.8125
790.02671	18867.3125
793.89938	18509.9125
797.76935	18381.9125
801.6366	18303.8125
805.50115	18242.9125
809.36299	18192.2125
813.22213	18060.4125
817.07857	18034.0125
820.93231	18018.8125
824.78336	17953.3125
828.63172	17997.9125
832.47738	18002.4125
836.32036	17946.6125
840.16066	17953.2125
843.99827	17936.3125
847.8332	17963.9125
851.66546	17976.9125
855.49504	17995.5125
859.32195	18016.9125
863.1462	18039.2125
866.96777	18001.7125
870.78668	18038.4125
874.60293	18069.2125
878.41652	18078.3125
882.22745	18113.1125
886.03573	18179.1125
889.84136	18206.6125
893.64433	18174.7125
897.44466	18164.1125
901.24235	18121.9125
905.0374	18075.8125
908.8298	18027.3125
912.61957	18026.9125
916.40671	18068.7125
920.19121	18191.4125
923.97308	18306.8125
927.75233	18366.8125
931.52895	18342.1125
935.30295	18232.5125
939.07433	18035.2125
942.84309	17862.7125
946.60924	17723.1125
950.37278	17712.6125
954.13371	17680.4125
957.89203	17636.2125
961.64774	17623.1125
965.40086	17571.5125
969.15137	17548.4125
972.89929	17495.4125
976.64461	17463.7125
980.38733	17455.8125
984.12747	17483.5125
987.86502	17506.9125
991.59999	17597.4125
995.33237	17669.1125
999.06217	17851.6125
1002.78939	18035.0125
1006.51404	18189.0125
1010.23611	18462.6125
1013.95561	18624.9125
1017.67255	18607.9125
1021.38692	18532.3125
1025.09872	18373.1125
1028.80796	18221.1125
1032.51465	18181.3125
1036.21877	18239.5125
1039.92035	18282.7125
1043.61937	18352.0125
1047.31584	18310.3125
1051.00976	18328.8125
1054.70114	18315.5125
1058.38998	18386.1125
1062.07627	18487.1125
1065.76003	18574.9125
1069.44126	18722.4125
1073.11995	18966.0125
1076.79611	19226.5125
1080.46974	19404.6125
1084.14085	19455.6125
1087.80943	19566.7125
1091.47549	19660.8125
1095.13903	19691.1125
1098.80005	19543.1125
1102.45857	19321.6125
1106.11456	19055.0125
1109.76805	18908.0125
1113.41903	18861.2125
1117.06751	18865.3125
1120.71348	18979.7125
1124.35696	19114.7125
1127.99793	19256.1125
1131.63641	19370.2125
1135.2724	19284.9125
1138.90589	19165.1125
1142.5369	19042.6125
1146.16542	19017.6125
1149.79145	19022.9125
1153.415	18982.6125
1157.03607	19068.0125
1160.65467	19259.6125
1164.27079	19714.2125
1167.88443	20298.2125
1171.49561	21065.1125
1175.10432	22003.6125
1178.71056	23194.3125
1182.31434	24335.7125
1185.91565	24971.1125
1189.51451	25100.0125
1193.11091	24788.0125
1196.70485	24167.9125
1200.29634	23491.5125
1203.88538	22876.8125
1207.47197	22414.7125
1211.05612	22004.8125
1214.63782	21584.3125
1218.21708	21208.5125
1221.79391	20894.8125
1225.36829	20703.3125
1228.94024	20592.9125
1232.50976	20469.5125
1236.07685	20371.3125
1239.6415	20272.9125
1243.20374	20271.4125
1246.76355	20304.7125
1250.32093	20445.5125
1253.8759	20677.6125
1257.42845	21041.6125
1260.97859	21498.4125
1264.52631	21899.1125
1268.07163	22348.7125
1271.61453	22759.6125
1275.15503	23145.4125
1278.69312	23516.3125
1282.22882	23810.0125
1285.76211	24210.3125
1289.29301	24627.1125
1292.82151	25172.5125
1296.34761	25903.6125
1299.87133	26756.1125
1303.39266	27708.2125
1306.9116	28801.8125
1310.42815	29812.9125
1313.94233	30401.9125
1317.45412	30335.7125
1320.96354	29908.4125
1324.47058	29420.1125
1327.97525	29018.3125
1331.47754	28666.7125
1334.97747	28459.7125
1338.47502	28275.6125
1341.97022	28372.3125
1345.46305	28396.1125
1348.95352	28640.8125
1352.44163	28918.0125
1355.92738	29396.3125
1359.41078	30278.6125
1362.89183	31189.6125
1366.37053	31072.9125
1369.84688	29228.3125
1373.32088	26693.1125
1376.79254	24686.7125
1380.26186	23745.8125
1383.72883	23380.8125
1387.19347	23171.3125
1390.65578	22790.3125
1394.11575	22499.9125
1397.57339	22471.9125
1401.0287	22569.5125
1404.48168	22747.6125
1407.93234	22769.0125
1411.38068	22573.9125
1414.82669	22274.9125
1418.27039	21920.0125
1421.71177	21482.8125
1425.15083	21108.7125
1428.58758	20959.6125
1432.02203	21022.2125
1435.45416	21289.9125
1438.88399	21594.5125
1442.31151	21761.5125
1445.73673	21848.1125
1449.15965	21914.1125
1452.58027	21877.2125
1455.9986	21863.5125
1459.41463	21955.6125
1462.82837	22169.1125
1466.23982	22511.1125
1469.64898	22792.0125
1473.05586	22989.9125
1476.46045	23100.2125
1479.86276	23097.0125
1483.26279	23101.8125
1486.66054	23164.3125
1490.05602	23324.6125
1493.44922	23728.6125
1496.84016	24207.1125
1500.22882	24953.3125
1503.61521	25932.2125
1506.99934	26925.2125
1510.38121	27753.8125
1513.76081	27957.5125
1517.13816	27361.4125
1520.51324	26312.9125
1523.88607	25237.9125
1527.25665	24502.0125
1530.62498	24046.4125
1533.99105	23759.2125
1537.35488	23373.4125
1540.71647	23036.4125
1544.07581	22665.7125
1547.4329	22307.3125
1550.78776	21997.7125
1554.14038	21859.4125
1557.49077	21798.6125
1560.83892	21862.2125
1564.18484	21940.8125
1567.52853	22091.7125
1570.86999	22259.5125
1574.20922	22559.5125
1577.54624	22680.6125
1580.88103	22576.5125
1584.2136	22415.0125
1587.54395	22471.3125
1590.87208	22973.0125
1594.19801	23795.7125
1597.52172	24686.3125
1600.84321	25044.6125
1604.16251	24418.2125
1607.47959	23295.4125
1610.79447	22088.5125
1614.10715	20868.7125
1617.41763	19841.4125
1620.7259	19130.1125
1624.03199	18747.8125
1627.33587	18656.8125
1630.63757	18893.4125
1633.93707	19494.1125
1637.23439	20569.1125
1640.52951	22242.1125
1643.82246	24300.3125
1647.11321	26125.0125
1650.40179	26819.9125
1653.68819	25730.6125
1656.97241	23351.2125
1660.25446	20859.3125
1663.53433	19099.1125
1666.81203	17912.0125
1670.08756	17261.3125
1673.36092	16833.1125
1676.63211	16562.4125
1679.90115	16326.5125
1683.16801	16194.6125
1686.43272	16042.2125
1689.69527	15968.8125
1692.95567	15876.6125
1696.2139	15803.8125
1699.46999	15695.6125
1702.72392	15634.1125
1705.97571	15647.7125
1709.22535	15688.4125
1712.47284	15741.4125
1715.71819	15750.5125
1718.96139	15706.0125
1722.20246	15688.9125
1725.44139	15671.2125
1728.67818	15614.1125
1731.91284	15521.4125
1735.14537	15436.7125
1738.37576	15407.5125
1741.60403	15335.6125
1744.83017	15300.5125
1748.05418	15229.2125
1751.27607	15230.0125
1754.49584	15176.4125
1757.71349	15163.0125
1760.92903	15109.3125
1764.14244	15095.0125
1767.35375	15083.8125
1770.56294	15057.2125
1773.77002	15049.6125
1776.97499	15067.4125
1780.17785	15045.9125
1783.37861	15080.0125
1786.57727	15040.8125
1789.77382	15053.7125
1792.96828	14995.9125
1796.16064	14993.4125
1799.3509	14926.8125
1802.53907	14885.8125
1805.72514	14899.8125
1808.90913	14848.9125
1812.09102	14848.3125
1815.27083	14811.3125
1818.44856	14759.3125
1821.6242	14769.7125
1824.79776	14752.9125
1827.96924	14707.0125
1831.13864	14704.0125
1834.30597	14704.3125
1837.47122	14701.1125
1840.6344	14718.1125
1843.7955	14736.3125
1846.95454	14705.5125
1850.11151	14707.7125
1853.26642	14707.8125
1856.41926	14694.4125
1859.57004	14638.7125
1862.71876	14657.6125
1865.86542	14666.3125
1869.01003	14623.2125
1872.15258	14637.9125
1875.29308	14577.1125
1878.43152	14573.8125
1881.56792	14553.2125
1884.70227	14526.1125
1887.83457	14512.0125
1890.96482	14470.6125
1894.09304	14459.3125
1897.21921	14444.5125
1900.34335	14444.7125
1903.46544	14403.7125
1906.58551	14385.2125
1909.70353	14347.0125
1912.81953	14339.6125
1915.93349	14314.4125
1919.04543	14257.9125
1922.15534	14253.7125
1925.26322	14207.5125
1928.36908	14167.6125
1931.47292	14126.6125
1934.57473	14116.7125
1937.67453	14085.1125
1940.77232	14041.4125
1943.86808	14002.8125
1946.96184	13957.3125
1950.05358	13932.0125
1953.14331	13841.8125
1956.23103	13844.4125
1959.31675	13821.3125
1962.40046	13790.6125
1965.48217	13710.7125
1968.56188	13671.2125
1971.63959	13636.3125
1974.7153	13613.0125
1977.78901	13575.8125
1980.86073	13513.9125
1983.93046	13479.1125
1986.99819	13417.1125
1990.06394	13396.4125
1993.1277	13339.1125
1996.18947	13305.3125
1999.24925	13254.8125
2002.30706	13238.4125
2005.36288	13205.1125
2008.41672	13146.4125
2011.46859	13104.7125
2014.51848	13045.4125
2017.56639	13007.8125
2020.61233	12992.9125
2023.6563	12969.4125
2026.6983	12919.6125
2029.73833	12899.4125
2032.7764	12870.5125
2035.8125	12866.6125
2038.84664	12827.2125
2041.87881	12794.2125
2044.90903	12746.8125
2047.93729	12734.5125
2050.96359	12699.5125
2053.98794	12676.4125
2057.01034	12668.8125
2060.03078	12641.3125
2063.04927	12662.6125
2066.06582	12684.5125
2069.08042	12660.4125
2072.09307	12659.5125
2075.10378	12635.8125
2078.11255	12646.6125
2081.11938	12640.2125
2084.12426	12632.4125
2087.12722	12651.7125
2090.12824	12642.2125
2093.12732	12660.3125
2096.12447	12639.1125
2099.11969	12619.6125
2102.11299	12645.8125
2105.10435	12628.1125
2108.09379	12644.5125
2111.08131	12640.4125
2114.0669	12637.3125
2117.05057	12637.4125
2120.03233	12646.1125
2123.01216	12649.6125
2125.99008	12629.6125
2128.96609	12666.6125
2131.94018	12644.6125
2134.91236	12693.1125
2137.88263	12658.4125
2140.851	12678.6125
2143.81746	12704.8125
2146.78201	12697.6125
2149.74466	12683.3125
2152.7054	12719.0125
2155.66425	12687.2125
2158.6212	12660.3125
2161.57625	12672.8125
2164.52941	12657.8125
2167.48067	12619.9125
2170.43004	12632.2125
2173.37752	12620.3125
2176.32311	12640.5125
2179.26681	12632.1125
2182.20863	12606.1125
2185.14856	12628.7125
2188.08661	12621.7125
2191.02278	12607.7125
2193.95707	12601.8125
2196.88948	12604.5125
2199.82001	12590.6125
2202.74867	12580.9125
2205.67545	12600.0125
2208.60037	12541.2125
2211.52341	12537.1125
2214.44458	12506.5125
2217.36388	12474.8125
2220.28132	12427.9125
2223.1969	12386.5125
2226.11061	12370.1125
2229.02246	12350.3125
2231.93245	12331.2125
2234.84058	12335.0125
2237.74686	12320.9125
2240.65128	12303.5125
2243.55385	12284.6125
2246.45456	12254.6125
2249.35343	12238.3125
2252.25044	12237.1125
2255.14561	12190.8125
2258.03893	12202.8125
2260.93041	12149.7125
2263.82004	12137.3125
2266.70783	12111.3125
2269.59378	12073.8125
2272.4779	12065.3125
2275.36017	12039.1125
2278.24061	12013.6125
2281.11922	11983.9125
2283.996	11959.8125
2286.87094	11941.3125
2289.74405	11910.9125
2292.61534	11898.1125
2295.4848	11870.4125
2298.35243	11884.8125
2301.21824	11869.1125
2304.08223	11855.8125
2306.94439	11833.1125
2309.80474	11811.8125
2312.66327	11811.6125
2315.51999	11809.4125
2318.37489	11785.2125
2321.22797	11784.9125
2324.07925	11776.1125
2326.92871	11742.6125
2329.77637	11742.9125
2332.62222	11709.5125
2335.46626	11670.7125
2338.3085	11664.3125
2341.14893	11659.9125
2343.98756	11634.6125
2346.8244	11615.6125
2349.65943	11599.1125
2352.49267	11607.6125
2355.32411	11609.9125
2358.15376	11595.8125
2360.98161	11586.2125
2363.80768	11592.1125
2366.63195	11583.2125
2369.45444	11579.7125
2372.27514	11561.6125
2375.09405	11555.6125
2377.91118	11498.6125
2380.72652	11501.3125
2383.54009	11452.2125
2386.35187	11449.5125
2389.16188	11393.2125
2391.97011	11361.1125
2394.77657	11355.2125
2397.58125	11339.4125
2400.38416	11295.7125
2403.18529	11305.2125
2405.98466	11257.3125
2408.78226	11233.7125
2411.57809	11228.1125
2414.37216	11221.5125
2417.16446	11217.2125
2419.955	11190.6125
2422.74378	11207.7125
2425.5308	11187.9125
2428.31606	11174.3125
2431.09956	11174.6125
2433.88131	11141.7125
2436.6613	11129.4125
2439.43954	11148.6125
2442.21603	11119.8125
2444.99077	11130.8125
2447.76377	11094.5125
2450.53501	11099.1125
2453.30451	11129.2125
2456.07226	11072.0125
2458.83827	11039.1125
2461.60254	11039.2125
2464.36507	11047.0125
2467.12586	11034.3125
2469.88492	11040.2125
2472.64224	11033.0125
2475.39782	11017.9125
2478.15167	11008.2125
2480.90379	11001.7125
2483.65417	10989.0125
2486.40283	10960.9125
2489.14976	10984.9125
2491.89497	10976.2125
2494.63845	10958.1125
2497.3802	10939.7125
2500.12024	10923.8125
2502.85855	10928.6125
2505.59514	10925.0125
2508.33002	10906.2125
2511.06318	10880.6125
2513.79462	10841.4125
2516.52435	10859.8125
2519.25237	10828.5125
2521.97867	10799.8125
2524.70327	10836.9125
2527.42616	10792.5125
2530.14734	10755.3125
2532.86681	10756.1125
2535.58458	10757.9125
2538.30065	10720.3125
2541.01501	10726.7125
2543.72768	10711.7125
2546.43864	10694.6125
2549.14791	10691.1125
2551.85548	10655.1125
2554.56136	10648.4125
2557.26554	10614.3125
2559.96803	10611.5125
2562.66883	10611.3125
2565.36794	10576.3125
2568.06536	10573.0125
2570.7611	10545.9125
2573.45514	10511.2125
2576.14751	10497.7125
2578.83819	10488.9125
2581.52719	10477.5125
2584.21451	10450.1125
2586.90015	10462.2125
2589.58411	10396.0125
2592.2664	10376.4125
2594.94701	10372.7125
2597.62594	10386.3125
2600.30321	10337.2125
2602.9788	10318.2125
2605.65273	10306.1125
2608.32498	10287.1125
2610.99557	10282.6125
2613.66449	10277.2125
2616.33175	10240.1125
2618.99734	10239.1125
2621.66128	10230.8125
2624.32355	10201.1125
2626.98416	10175.1125
2629.64311	10186.2125
2632.30041	10180.5125
2634.95605	10172.2125
2637.61004	10120.7125
2640.26238	10127.2125
2642.91306	10154.2125
2645.56209	10093.8125
2648.20948	10100.5125
2650.85521	10082.4125
2653.4993	10082.6125
2656.14175	10093.8125
2658.78255	10090.3125
2661.42171	10101.0125
2664.05923	10110.0125
2666.6951	10089.9125
2669.32934	10108.6125
2671.96194	10082.4125
2674.59291	10094.0125
2677.22224	10088.0125
2679.84993	10107.6125
2682.476	10083.3125
2685.10043	10094.7125
2687.72324	10051.7125
2690.34441	10048.2125
2692.96396	10058.6125
2695.58188	10053.7125
2698.19818	10031.8125
2700.81285	10056.9125
2703.4259	10032.5125
2706.03733	10003.3125
2708.64714	10001.2125
2711.25533	10024.6125
2713.86191	10023.5125
2716.46687	10043.9125
2719.07021	10026.2125
2721.67194	10017.4125
2724.27206	10033.8125
2726.87057	10061.4125
2729.46747	10047.0125
2732.06276	10005.8125
2734.65644	10018.0125
2737.24852	10027.0125
2739.83899	10003.4125
2742.42786	9991.4125
2745.01513	9977.0125
2747.60079	9967.5125
2750.18486	9936.2125
2752.76733	9909.2125
2755.3482	9912.7125
2757.92747	9921.2125
2760.50515	9899.0125
2763.08123	9910.3125
2765.65573	9879.8125
2768.22863	9892.9125
2770.79994	9859.8125
2773.36967	9842.6125
2775.9378	9876.5125
2778.50435	9852.3125
2781.06932	9823.7125
2783.6327	9797.9125
2786.1945	9812.2125
2788.75471	9790.6125
2791.31335	9759.9125
2793.87041	9763.4125
2796.42589	9706.2125
2798.97979	9739.6125
2801.53212	9714.0125
2804.08288	9701.3125
2806.63206	9666.5125
2809.17967	9633.3125
2811.72571	9606.6125
2814.27018	9588.8125
2816.81308	9550.4125
2819.35442	9550.9125
2821.89419	9533.0125
2824.43239	9510.3125
2826.96904	9522.8125
2829.50412	9511.4125
2832.03763	9484.4125
2834.56959	9502.7125
2837.1	9502.5125
2839.62884	9488.5125
2842.15613	9459.7125
2844.68186	9482.0125
2847.20604	9464.3125
2849.72867	9471.4125
2852.24974	9465.5125
2854.76927	9417.3125
2857.28724	9412.2125
2859.80367	9406.8125
2862.31855	9392.9125
2864.83189	9365.2125
2867.34368	9361.8125
2869.85393	9352.5125
2872.36264	9353.9125
2874.8698	9346.6125
2877.37543	9324.5125
2879.87952	9337.2125
2882.38207	9340.5125
2884.88308	9330.3125
2887.38256	9337.8125
2889.88051	9333.6125
2892.37692	9329.1125
2894.8718	9342.3125
2897.36515	9347.8125
2899.85698	9333.1125
2902.34727	9364.0125
2904.83604	9350.6125
2907.32328	9354.7125
2909.809	9341.4125
2912.29319	9328.9125
2914.77587	9309.8125
2917.25702	9317.4125
2919.73665	9320.7125
2922.21476	9325.9125
2924.69136	9297.1125
2927.16644	9322.3125
2929.64	9288.9125
2932.11205	9280.1125
2934.58258	9239.0125
2937.05161	9263.5125
2939.51912	9272.5125
2941.98513	9251.5125
2944.44962	9235.9125
2946.91261	9206.8125
2949.37409	9185.9125
2951.83407	9198.4125
2954.29254	9178.1125
2956.74951	9166.0125
2959.20498	9177.0125
2961.65895	9155.4125
2964.11142	9135.0125
2966.56239	9131.2125
2969.01186	9140.8125
2971.45984	9109.0125
2973.90632	9114.1125
2976.35131	9077.1125
2978.7948	9046.4125
2981.23681	9031.0125
2983.67732	9037.7125
2986.11635	9017.2125
2988.55388	8982.6125
2990.98993	8937.6125
2993.4245	8920.2125
2995.85758	8930.1125
2998.28917	8905.8125
3000.71928	8853.5125
3003.14791	8852.8125
3005.57506	8848.3125
3008.00073	8826.5125
3010.42493	8824.1125
3012.84764	8814.9125
3015.26888	8787.3125
3017.68865	8767.3125
3020.10694	8754.9125
3022.52376	8748.3125
3024.9391	8742.1125
3027.35298	8736.5125
3029.76539	8720.3125
3032.17632	8727.2125
3034.5858	8668.2125
3036.9938	8674.1125
3039.40034	8658.2125
