Data from AgNPs_FTO_APTES_UA_1uM_CRN_1uM_R6G_10uM_NaF_0.1M_Addition_RamanShift__28__12-44-49-515.txt Node

Date: Thu Jan 27 12:44:49 GMT 2022
User: TCL
Spectrometer: QEP01345
Trigger mode: 4
Integration Time (sec): 7.000000E0
Scans to average: 10
Electric dark correction enabled: true
Nonlinearity correction enabled: false
Boxcar width: 0
XAxis mode: Raman Shifts
Number of Pixels in Spectrum: 1044
>>>>>Begin Spectral Data<<<<<
46.04893	0.425
50.45542	0.925
54.85868	-0.575
59.25871	-1.475
63.6555	47.125
68.04907	49.725
72.43941	51.225
76.82654	56.025
81.21044	59.125
85.59113	56.525
89.96862	60.725
94.34289	62.925
98.71396	63.525
103.08183	64.525
107.4465	71.725
111.80798	68.925
116.16626	69.825
120.52136	75.025
124.87327	72.625
129.222	69.925
133.56755	75.625
137.90993	81.625
142.24913	86.425
146.58517	97.725
150.91804	110.125
155.24774	125.825
159.57429	151.425
163.89768	185.925
168.21792	242.725
172.53501	330.825
176.84895	443.325
181.15975	623.525
185.46741	858.225
189.77193	1180.625
194.07331	1587.925
198.37157	2045.225
202.6667	2512.825
206.9587	3003.925
211.24758	3484.825
215.53334	3994.725
219.81599	4526.725
224.09553	5128.525
228.37195	5832.825
232.64527	6554.925
236.91549	7322.725
241.18261	8009.825
245.44663	8624.025
249.70755	9127.325
253.96539	9568.825
258.22014	9946.625
262.4718	10304.025
266.72039	10573.625
270.96589	10742.625
275.20832	10775.325
279.44768	10712.325
283.68397	10573.625
287.91719	10474.725
292.14735	10441.325
296.37445	10567.725
300.59849	10810.025
304.81948	11140.325
309.03742	11400.325
313.25231	11356.225
317.46415	10934.325
321.67296	10255.425
325.87872	9708.025
330.08145	9434.325
334.28114	9423.625
338.47781	9567.325
342.67145	9802.125
346.86207	10159.325
351.04966	10671.425
355.23424	11242.525
359.4158	11735.125
363.59435	12010.925
367.76989	12102.825
371.94243	12091.725
376.11196	12078.625
380.27849	12028.925
384.44203	11993.925
388.60257	11897.925
392.76012	11864.725
396.91468	12014.025
401.06626	12291.625
405.21485	12540.325
409.36047	12416.525
413.50311	11975.125
417.64277	11545.625
421.77947	11314.725
425.9132	11231.025
430.04396	11252.925
434.17176	11297.425
438.2966	11473.025
442.41849	11781.025
446.53742	12181.625
450.6534	12598.625
454.76644	12877.325
458.87653	12981.025
462.98368	12855.925
467.08789	12618.725
471.18916	12298.025
475.2875	11975.125
479.38291	11767.525
483.4754	11625.825
487.56496	11475.325
491.6516	11358.325
495.73531	11255.125
499.81612	11237.825
503.89401	11316.625
507.96899	11429.625
512.04106	11516.225
516.11023	11651.925
520.1765	11733.225
524.23987	11702.225
528.30034	11554.125
532.35792	11326.325
536.41261	11131.425
540.46441	10926.725
544.51333	10842.825
548.55936	10941.525
552.60252	11137.625
556.64279	11413.625
560.6802	11525.525
564.71473	11656.125
568.7464	12009.725
572.7752	12330.325
576.80114	12207.425
580.82422	12026.425
584.84444	11961.225
588.86181	12037.525
592.87633	12185.325
596.888	12375.325
600.89682	12694.525
604.9028	13719.325
608.90594	16376.425
612.90624	19883.525
616.90371	19348.725
620.89834	14564.025
624.89015	12197.525
628.87913	11749.025
632.86528	11704.825
636.84862	11714.225
640.82913	11566.425
644.80683	11178.725
648.78172	10897.225
652.75379	10912.725
656.72306	11289.525
660.68952	11722.225
664.65319	11737.625
668.61405	11308.225
672.57211	11067.825
676.52738	11075.625
680.47986	11042.025
684.42955	11012.425
688.37646	10991.525
692.32058	11009.525
696.26192	11092.825
700.20048	11212.025
704.13626	11294.725
708.06928	11240.525
711.99952	11160.625
715.927	11112.225
719.85171	11142.925
723.77365	11105.925
727.69284	10991.525
731.60928	10935.725
735.52295	10919.525
739.43388	10995.425
743.34206	11087.425
747.24749	11150.025
751.15017	11259.725
755.05012	11449.425
758.94733	11859.425
762.8418	12700.425
766.73354	14199.825
770.62254	15901.925
774.50882	16719.325
778.39237	16106.825
782.27321	14432.825
786.15132	12810.125
790.02671	11829.325
793.89938	11392.125
797.76935	11184.925
801.6366	11137.525
805.50115	11102.125
809.36299	11024.725
813.22213	10947.925
817.07857	10954.325
820.93231	10959.425
824.78336	10984.225
828.63172	11045.925
832.47738	11096.925
836.32036	11115.925
840.16066	11107.225
843.99827	11070.125
847.8332	11031.125
851.66546	11000.425
855.49504	10993.725
859.32195	10977.725
863.1462	10927.725
866.96777	10878.425
870.78668	10864.925
874.60293	10892.025
878.41652	10943.525
882.22745	10973.625
886.03573	11031.625
889.84136	11036.325
893.64433	10976.925
897.44466	10918.925
901.24235	10915.525
905.0374	10921.725
908.8298	10889.425
912.61957	10871.625
916.40671	10965.225
920.19121	11070.025
923.97308	11199.625
927.75233	11316.625
931.52895	11410.425
935.30295	11338.425
939.07433	11085.925
942.84309	10861.625
946.60924	10758.125
950.37278	10682.425
954.13371	10621.125
957.89203	10539.225
961.64774	10519.325
965.40086	10490.425
969.15137	10412.925
972.89929	10411.725
976.64461	10418.325
980.38733	10409.025
984.12747	10485.525
987.86502	10575.225
991.59999	10692.625
995.33237	10887.825
999.06217	11202.125
1002.78939	11615.425
1006.51404	11912.125
1010.23611	12153.825
1013.95561	12317.025
1017.67255	12344.025
1021.38692	12223.825
1025.09872	12041.625
1028.80796	12033.525
1032.51465	12240.625
1036.21877	12487.425
1039.92035	12482.325
1043.61937	12340.725
1047.31584	12089.125
1051.00976	11798.725
1054.70114	11621.825
1058.38998	11555.325
1062.07627	11609.025
1065.76003	11664.825
1069.44126	11712.725
1073.11995	11832.425
1076.79611	11908.825
1080.46974	12042.125
1084.14085	12204.025
1087.80943	12412.325
1091.47549	12518.025
1095.13903	12378.725
1098.80005	12088.325
1102.45857	11767.025
1106.11456	11616.725
1109.76805	11628.425
1113.41903	11828.025
1117.06751	12060.925
1120.71348	12355.925
1124.35696	12687.225
1127.99793	13028.325
1131.63641	13077.225
1135.2724	12731.925
1138.90589	12307.425
1142.5369	12045.425
1146.16542	11842.225
1149.79145	11785.625
1153.415	11785.225
1157.03607	11884.125
1160.65467	12102.625
1164.27079	12405.125
1167.88443	12961.125
1171.49561	13808.525
1175.10432	15139.325
1178.71056	16959.925
1182.31434	18522.925
1185.91565	19298.525
1189.51451	19229.725
1193.11091	18360.725
1196.70485	17066.425
1200.29634	15954.625
1203.88538	15126.625
1207.47197	14361.125
1211.05612	13766.325
1214.63782	13447.725
1218.21708	13414.225
1221.79391	13528.225
1225.36829	13661.025
1228.94024	13807.825
1232.50976	13864.525
1236.07685	13834.425
1239.6415	13772.525
1243.20374	13687.625
1246.76355	13671.225
1250.32093	13776.125
1253.8759	14071.525
1257.42845	14484.125
1260.97859	14886.825
1264.52631	15278.825
1268.07163	15661.425
1271.61453	16065.125
1275.15503	16428.225
1278.69312	16761.225
1282.22882	16998.525
1285.76211	17363.125
1289.29301	17822.425
1292.82151	18289.625
1296.34761	18788.325
1299.87133	19446.825
1303.39266	20549.625
1306.9116	22273.125
1310.42815	24268.625
1313.94233	25850.125
1317.45412	25959.925
1320.96354	25050.525
1324.47058	23746.325
1327.97525	22597.425
1331.47754	21807.425
1334.97747	21515.425
1338.47502	21483.525
1341.97022	21601.325
1345.46305	21829.325
1348.95352	22120.525
1352.44163	22768.625
1355.92738	23889.725
1359.41078	26087.925
1362.89183	28537.825
1366.37053	28459.825
1369.84688	25288.225
1373.32088	21649.225
1376.79254	19176.925
1380.26186	18066.825
1383.72883	17555.825
1387.19347	17217.625
1390.65578	16748.525
1394.11575	16441.925
1397.57339	16342.925
1401.0287	16572.025
1404.48168	16953.425
1407.93234	17356.225
1411.38068	17660.925
1414.82669	17639.625
1418.27039	17280.425
1421.71177	16766.625
1425.15083	16366.325
1428.58758	16129.725
1432.02203	16147.525
1435.45416	16255.525
1438.88399	16371.225
1442.31151	16397.825
1445.73673	16437.025
1449.15965	16484.325
1452.58027	16486.325
1455.9986	16344.425
1459.41463	16239.525
1462.82837	16365.825
1466.23982	16619.325
1469.64898	16878.625
1473.05586	17083.125
1476.46045	17208.625
1479.86276	17380.725
1483.26279	17593.025
1486.66054	17882.825
1490.05602	18231.125
1493.44922	18667.725
1496.84016	19287.725
1500.22882	20119.325
1503.61521	21289.325
1506.99934	22785.125
1510.38121	24448.025
1513.76081	25430.925
1517.13816	24933.725
1520.51324	22962.825
1523.88607	20751.925
1527.25665	19121.325
1530.62498	18155.225
1533.99105	17557.325
1537.35488	17204.025
1540.71647	16975.225
1544.07581	16846.425
1547.4329	16751.725
1550.78776	16603.025
1554.14038	16519.125
1557.49077	16560.425
1560.83892	16679.325
1564.18484	16869.325
1567.52853	17032.225
1570.86999	17144.625
1574.20922	17279.625
1577.54624	17269.825
1580.88103	16934.825
1584.2136	16427.525
1587.54395	16325.825
1590.87208	16908.925
1594.19801	17960.725
1597.52172	19313.425
1600.84321	20035.625
1604.16251	19591.725
1607.47959	18306.525
1610.79447	16762.825
1614.10715	15355.825
1617.41763	14247.725
1620.7259	13602.725
1624.03199	13335.225
1627.33587	13342.325
1630.63757	13720.125
1633.93707	14403.525
1637.23439	15433.125
1640.52951	16806.425
1643.82246	18229.325
1647.11321	19562.825
1650.40179	20271.025
1653.68819	19603.425
1656.97241	17405.925
1660.25446	15033.825
1663.53433	13252.325
1666.81203	12193.925
1670.08756	11567.625
1673.36092	11173.925
1676.63211	10964.625
1679.90115	10797.825
1683.16801	10663.925
1686.43272	10570.325
1689.69527	10486.625
1692.95567	10440.925
1696.2139	10370.925
1699.46999	10322.625
1702.72392	10272.625
1705.97571	10320.225
1709.22535	10365.525
1712.47284	10369.725
1715.71819	10378.425
1718.96139	10395.525
1722.20246	10387.425
1725.44139	10368.925
1728.67818	10317.225
1731.91284	10247.125
1735.14537	10200.625
1738.37576	10147.525
1741.60403	10111.425
1744.83017	10091.925
1748.05418	10059.625
1751.27607	10033.325
1754.49584	10003.725
1757.71349	9974.025
1760.92903	9968.025
1764.14244	9939.225
1767.35375	9955.025
1770.56294	9938.725
1773.77002	9943.625
1776.97499	9922.425
1780.17785	9936.425
1783.37861	9921.425
1786.57727	9951.025
1789.77382	9935.525
1792.96828	9938.925
1796.16064	9925.125
1799.3509	9930.525
1802.53907	9894.425
1805.72514	9892.225
1808.90913	9866.125
1812.09102	9850.125
1815.27083	9839.625
1818.44856	9832.725
1821.6242	9831.725
1824.79776	9790.625
1827.96924	9775.325
1831.13864	9791.225
1834.30597	9751.725
1837.47122	9792.425
1840.6344	9784.325
1843.7955	9781.025
1846.95454	9809.525
1850.11151	9814.325
1853.26642	9807.125
1856.41926	9807.725
1859.57004	9829.225
1862.71876	9816.225
1865.86542	9825.925
1869.01003	9849.725
1872.15258	9851.825
1875.29308	9855.525
1878.43152	9848.325
1881.56792	9884.625
1884.70227	9878.625
1887.83457	9869.525
1890.96482	9873.825
1894.09304	9863.625
1897.21921	9901.625
1900.34335	9885.925
1903.46544	9889.225
1906.58551	9904.425
1909.70353	9899.625
1912.81953	9877.325
1915.93349	9870.525
1919.04543	9877.725
1922.15534	9841.125
1925.26322	9836.825
1928.36908	9807.525
1931.47292	9778.425
1934.57473	9727.325
1937.67453	9691.425
1940.77232	9655.925
1943.86808	9625.525
1946.96184	9573.625
1950.05358	9548.125
1953.14331	9500.925
1956.23103	9471.525
1959.31675	9431.925
1962.40046	9388.725
1965.48217	9376.325
1968.56188	9340.925
1971.63959	9315.125
1974.7153	9289.425
1977.78901	9272.725
1980.86073	9255.325
1983.93046	9193.125
1986.99819	9183.925
1990.06394	9148.725
1993.1277	9128.225
1996.18947	9106.625
1999.24925	9083.525
2002.30706	9037.725
2005.36288	9014.525
2008.41672	9011.325
2011.46859	8979.925
2014.51848	8951.225
2017.56639	8912.825
2020.61233	8902.025
2023.6563	8895.225
2026.6983	8880.125
2029.73833	8836.125
2032.7764	8842.325
2035.8125	8820.425
2038.84664	8806.625
2041.87881	8777.225
2044.90903	8784.925
2047.93729	8746.525
2050.96359	8767.125
2053.98794	8735.325
2057.01034	8725.425
2060.03078	8708.225
2063.04927	8730.825
2066.06582	8713.025
2069.08042	8720.525
2072.09307	8714.125
2075.10378	8700.125
2078.11255	8683.025
2081.11938	8678.125
2084.12426	8696.125
2087.12722	8692.025
2090.12824	8678.525
2093.12732	8669.725
2096.12447	8668.125
2099.11969	8649.725
2102.11299	8664.425
2105.10435	8656.325
2108.09379	8678.425
2111.08131	8669.625
2114.0669	8686.625
2117.05057	8692.025
2120.03233	8674.725
2123.01216	8696.025
2125.99008	8705.425
2128.96609	8693.725
2131.94018	8699.125
2134.91236	8723.525
2137.88263	8707.725
2140.851	8711.525
2143.81746	8756.025
2146.78201	8746.825
2149.74466	8746.325
2152.7054	8732.225
2155.66425	8744.425
2158.6212	8747.725
2161.57625	8731.825
2164.52941	8727.525
2167.48067	8714.825
2170.43004	8713.825
2173.37752	8734.525
2176.32311	8710.225
2179.26681	8712.625
2182.20863	8731.825
2185.14856	8714.925
2188.08661	8715.025
2191.02278	8720.925
2193.95707	8731.425
2196.88948	8705.125
2199.82001	8712.725
2202.74867	8739.125
2205.67545	8718.225
2208.60037	8698.625
2211.52341	8694.625
2214.44458	8690.625
2217.36388	8656.625
2220.28132	8659.425
2223.1969	8636.225
2226.11061	8614.725
2229.02246	8622.525
2231.93245	8598.225
2234.84058	8591.925
2237.74686	8570.425
2240.65128	8552.125
2243.55385	8541.925
2246.45456	8532.325
2249.35343	8533.225
2252.25044	8514.825
2255.14561	8527.525
2258.03893	8500.625
2260.93041	8499.025
2263.82004	8470.025
2266.70783	8444.025
2269.59378	8426.725
2272.4779	8404.925
2275.36017	8405.525
2278.24061	8390.425
2281.11922	8380.425
2283.996	8354.425
2286.87094	8355.425
2289.74405	8334.425
2292.61534	8339.225
2295.4848	8300.425
2298.35243	8314.725
2301.21824	8308.125
2304.08223	8320.625
2306.94439	8313.525
2309.80474	8304.925
2312.66327	8314.625
2315.51999	8292.525
2318.37489	8310.425
2321.22797	8313.825
2324.07925	8290.225
2326.92871	8270.425
2329.77637	8272.325
2332.62222	8289.325
2335.46626	8270.225
2338.3085	8260.125
2341.14893	8271.125
2343.98756	8271.725
2346.8244	8260.725
2349.65943	8264.025
2352.49267	8278.125
2355.32411	8294.025
2358.15376	8241.625
2360.98161	8253.325
2363.80768	8246.325
2366.63195	8248.825
2369.45444	8236.225
2372.27514	8243.025
2375.09405	8214.025
2377.91118	8199.825
2380.72652	8159.225
2383.54009	8145.025
2386.35187	8128.725
2389.16188	8092.825
2391.97011	8094.125
2394.77657	8083.125
2397.58125	8062.925
2400.38416	8040.725
2403.18529	8032.925
2405.98466	8025.225
2408.78226	8002.225
2411.57809	7990.525
2414.37216	7961.525
2417.16446	7969.825
2419.955	7970.625
2422.74378	7976.725
2425.5308	7940.125
2428.31606	7947.125
2431.09956	7927.725
2433.88131	7920.525
2436.6613	7915.225
2439.43954	7923.325
2442.21603	7932.025
2444.99077	7925.525
2447.76377	7918.525
2450.53501	7919.325
2453.30451	7909.525
2456.07226	7897.625
2458.83827	7898.625
2461.60254	7894.025
2464.36507	7896.925
2467.12586	7882.225
2469.88492	7892.825
2472.64224	7895.825
2475.39782	7881.325
2478.15167	7897.525
2480.90379	7896.325
2483.65417	7900.325
2486.40283	7910.025
2489.14976	7907.425
2491.89497	7909.825
2494.63845	7917.025
2497.3802	7913.225
2500.12024	7919.125
2502.85855	7929.925
2505.59514	7897.525
2508.33002	7874.925
2511.06318	7875.125
2513.79462	7875.525
2516.52435	7842.825
2519.25237	7828.725
2521.97867	7804.125
2524.70327	7814.025
2527.42616	7805.025
2530.14734	7792.325
2532.86681	7792.625
2535.58458	7808.325
2538.30065	7770.625
2541.01501	7799.825
2543.72768	7776.125
2546.43864	7774.825
2549.14791	7757.425
2551.85548	7758.425
2554.56136	7752.725
2557.26554	7741.725
2559.96803	7711.925
2562.66883	7702.225
2565.36794	7720.125
2568.06536	7713.125
2570.7611	7688.325
2573.45514	7686.425
2576.14751	7681.925
2578.83819	7655.725
2581.52719	7678.725
2584.21451	7674.025
2586.90015	7659.925
2589.58411	7648.125
2592.2664	7654.725
2594.94701	7639.125
2597.62594	7626.425
2600.30321	7627.725
2602.9788	7610.325
2605.65273	7601.125
2608.32498	7612.425
2610.99557	7589.925
2613.66449	7626.225
2616.33175	7615.225
2618.99734	7623.125
2621.66128	7619.725
2624.32355	7593.925
2626.98416	7594.225
2629.64311	7599.225
2632.30041	7614.625
2634.95605	7587.925
2637.61004	7564.925
2640.26238	7543.125
2642.91306	7551.925
2645.56209	7527.225
2648.20948	7531.125
2650.85521	7529.125
2653.4993	7508.325
2656.14175	7522.725
2658.78255	7546.125
2661.42171	7543.825
2664.05923	7546.425
2666.6951	7555.725
2669.32934	7569.725
2671.96194	7546.625
2674.59291	7573.325
2677.22224	7552.525
2679.84993	7569.925
2682.476	7549.825
2685.10043	7582.925
2687.72324	7555.825
2690.34441	7556.025
2692.96396	7539.525
2695.58188	7561.225
2698.19818	7548.225
2700.81285	7549.525
2703.4259	7546.825
2706.03733	7542.125
2708.64714	7517.125
2711.25533	7536.525
2713.86191	7554.825
2716.46687	7580.125
2719.07021	7549.025
2721.67194	7577.425
2724.27206	7574.725
2726.87057	7570.725
2729.46747	7584.625
2732.06276	7566.325
2734.65644	7558.325
2737.24852	7565.125
2739.83899	7526.125
2742.42786	7552.925
2745.01513	7539.325
2747.60079	7527.625
2750.18486	7525.025
2752.76733	7502.725
2755.3482	7522.425
2757.92747	7520.525
2760.50515	7504.625
2763.08123	7523.625
2765.65573	7488.125
2768.22863	7497.925
2770.79994	7501.625
2773.36967	7478.225
2775.9378	7486.625
2778.50435	7500.925
2781.06932	7473.725
2783.6327	7477.625
2786.1945	7484.225
2788.75471	7471.325
2791.31335	7446.425
2793.87041	7445.225
2796.42589	7415.425
2798.97979	7417.625
2801.53212	7409.725
2804.08288	7410.725
2806.63206	7390.425
2809.17967	7373.125
2811.72571	7357.325
2814.27018	7354.925
2816.81308	7342.225
2819.35442	7340.625
2821.89419	7342.125
2824.43239	7347.225
2826.96904	7361.425
2829.50412	7356.625
2832.03763	7340.425
2834.56959	7369.025
2837.1	7374.725
2839.62884	7351.625
2842.15613	7364.525
2844.68186	7413.525
2847.20604	7407.325
2849.72867	7452.125
2852.24974	7446.325
2854.76927	7444.425
2857.28724	7434.525
2859.80367	7422.025
2862.31855	7398.825
2864.83189	7395.225
2867.34368	7387.025
2869.85393	7389.025
2872.36264	7350.125
2874.8698	7367.525
2877.37543	7373.625
2879.87952	7344.925
2882.38207	7356.125
2884.88308	7346.225
2887.38256	7338.625
2889.88051	7346.225
2892.37692	7340.325
2894.8718	7368.625
2897.36515	7352.225
2899.85698	7354.825
2902.34727	7360.925
2904.83604	7363.725
2907.32328	7384.425
2909.809	7376.825
2912.29319	7375.225
2914.77587	7372.525
2917.25702	7379.625
2919.73665	7358.025
2922.21476	7346.125
2924.69136	7332.325
2927.16644	7339.025
2929.64	7329.625
2932.11205	7332.825
2934.58258	7305.525
2937.05161	7316.425
2939.51912	7310.325
2941.98513	7271.525
2944.44962	7243.925
2946.91261	7202.425
2949.37409	7208.125
2951.83407	7169.925
2954.29254	7182.025
2956.74951	7165.625
2959.20498	7161.125
2961.65895	7142.125
2964.11142	7136.625
2966.56239	7129.225
2969.01186	7109.825
2971.45984	7097.325
2973.90632	7071.525
2976.35131	7058.925
2978.7948	7053.325
2981.23681	7024.425
2983.67732	7009.225
2986.11635	6988.225
2988.55388	6978.925
2990.98993	6953.925
2993.4245	6943.225
2995.85758	6907.125
2998.28917	6882.225
3000.71928	6909.325
3003.14791	6871.925
3005.57506	6889.825
3008.00073	6852.625
3010.42493	6851.925
3012.84764	6842.025
3015.26888	6830.525
3017.68865	6814.025
3020.10694	6800.325
3022.52376	6799.725
3024.9391	6800.525
3027.35298	6805.825
3029.76539	6787.225
3032.17632	6773.525
3034.5858	6738.125
3036.9938	6754.425
3039.40034	6764.625
3041.80542	6741.625
3044.20903	6726.525
3046.61118	6725.825
3049.01187	6714.825
3051.4111	6701.125
3053.80888	6696.425
3056.20519	6676.725
3058.60005	6660.425
3060.99345	6667.825
3063.3854	6609.325
3065.7759	6603.425
3068.16494	6584.225
3070.55254	6569.425
3072.93868	6567.225
3075.32338	6548.525
3077.70662	6521.825
3080.08842	6532.825
3082.46878	6522.725
3084.84769	6496.125
3087.22515	6496.125
3089.60118	6489.325
3091.97576	6493.125
3094.3489	6502.525
3096.72061	6508.725
3099.09087	6490.225
3101.4597	6501.125
3103.82709	6479.925
3106.19305	6471.525
3108.55757	6494.725
3110.92066	6437.925
3113.28232	6441.725
3115.64255	6422.725
3118.00134	6407.525
3120.35871	6415.125
3122.71466	6393.625
3125.06917	6396.525
3127.42226	6391.725
3129.77393	6394.625
3132.12417	6354.025
3134.47299	6375.725
3136.82039	6382.825
3139.16636	6378.825
3141.51092	6393.725
3143.85406	6372.825
3146.19579	6396.225
3148.53609	6397.325
3150.87499	6389.925
3153.21246	6394.825
3155.54853	6420.925
3157.88318	6423.225
3160.21642	6410.525
3162.54826	6393.525
3164.87868	6392.425
3167.2077	6404.025
3169.5353	6390.925
3171.86151	6401.225
3174.18631	6419.925
3176.5097	6391.125
3178.83169	6387.225
3181.15228	6392.425
3183.47147	6382.325
3185.78926	6381.025
3188.10565	6361.125
3190.42065	6354.725
