Data from AgNPs_FTO_APTES_UA_1uM_CRN_200uM_R6G_10uM_NaF_0.1M_Addition_RamanShift__24__17-32-59-845.txt Node

Date: Thu Jan 27 17:32:59 GMT 2022
User: TCL
Spectrometer: QEP01345
Trigger mode: 4
Integration Time (sec): 7.000000E0
Scans to average: 10
Electric dark correction enabled: true
Nonlinearity correction enabled: false
Boxcar width: 0
XAxis mode: Raman Shifts
Number of Pixels in Spectrum: 1044
>>>>>Begin Spectral Data<<<<<
46.04893	1.025
50.45542	1.025
54.85868	-1.475
59.25871	-1.975
63.6555	48.225
68.04907	51.425
72.43941	56.325
76.82654	58.725
81.21044	60.325
85.59113	58.725
89.96862	61.425
94.34289	66.625
98.71396	69.725
103.08183	68.325
107.4465	68.525
111.80798	72.125
116.16626	72.925
120.52136	77.825
124.87327	79.625
129.222	82.425
133.56755	84.925
137.90993	85.525
142.24913	92.525
146.58517	104.025
150.91804	121.125
155.24774	144.125
159.57429	170.625
163.89768	217.025
168.21792	280.525
172.53501	375.125
176.84895	518.525
181.15975	726.625
185.46741	1005.625
189.77193	1399.325
194.07331	1868.725
198.37157	2423.125
202.6667	2997.325
206.9587	3582.625
211.24758	4134.625
215.53334	4719.025
219.81599	5338.425
224.09553	6010.025
228.37195	6774.425
232.64527	7582.325
236.91549	8485.725
241.18261	9306.325
245.44663	10107.625
249.70755	10746.725
253.96539	11329.425
258.22014	11841.525
262.4718	12228.725
266.72039	12540.225
270.96589	12707.925
275.20832	12717.325
279.44768	12617.625
283.68397	12454.125
287.91719	12325.425
292.14735	12227.425
296.37445	12303.425
300.59849	12499.025
304.81948	12742.225
309.03742	12908.725
313.25231	12770.625
317.46415	12332.425
321.67296	11763.525
325.87872	11306.425
330.08145	11094.325
334.28114	11080.525
338.47781	11212.625
342.67145	11418.425
346.86207	11708.725
351.04966	12138.425
355.23424	12609.225
359.4158	13000.525
363.59435	13254.525
367.76989	13410.325
371.94243	13474.325
376.11196	13537.225
380.27849	13582.325
384.44203	13586.125
388.60257	13526.925
392.76012	13525.825
396.91468	13659.725
401.06626	13855.325
405.21485	14027.225
409.36047	13972.225
413.50311	13530.025
417.64277	13135.725
421.77947	12897.425
425.9132	12871.925
430.04396	12866.425
434.17176	12926.925
438.2966	13107.625
442.41849	13314.125
446.53742	13651.025
450.6534	13992.125
454.76644	14232.025
458.87653	14292.425
462.98368	14235.925
467.08789	14046.325
471.18916	13845.725
475.2875	13650.025
479.38291	13488.725
483.4754	13357.925
487.56496	13199.025
491.6516	13040.425
495.73531	12985.025
499.81612	12982.025
503.89401	13094.725
507.96899	13162.125
512.04106	13220.525
516.11023	13339.625
520.1765	13416.525
524.23987	13372.425
528.30034	13263.325
532.35792	13075.225
536.41261	12934.725
540.46441	12759.925
544.51333	12669.025
548.55936	12722.225
552.60252	12884.825
556.64279	13133.425
560.6802	13260.725
564.71473	13365.425
568.7464	13617.225
572.7752	13814.425
576.80114	13758.425
580.82422	13563.025
584.84444	13527.225
588.86181	13614.525
592.87633	13869.025
596.888	14032.825
600.89682	14242.925
604.9028	15019.325
608.90594	17202.725
612.90624	20190.325
616.90371	19751.825
620.89834	15659.225
624.89015	13613.525
628.87913	13279.425
632.86528	13290.625
636.84862	13339.625
640.82913	13190.625
644.80683	12871.025
648.78172	12607.025
652.75379	12571.325
656.72306	12809.425
660.68952	13162.525
664.65319	13151.825
668.61405	12824.225
672.57211	12662.625
676.52738	12668.825
680.47986	12735.725
684.42955	12681.425
688.37646	12613.425
692.32058	12602.725
696.26192	12642.925
700.20048	12760.825
704.13626	12853.925
708.06928	12809.425
711.99952	12693.025
715.927	12648.425
719.85171	12625.725
723.77365	12628.025
727.69284	12592.425
731.60928	12529.925
735.52295	12544.125
739.43388	12554.725
743.34206	12611.825
747.24749	12665.925
751.15017	12701.525
755.05012	12807.425
758.94733	13167.525
762.8418	13831.425
766.73354	15150.325
770.62254	16688.725
774.50882	17549.725
778.39237	17041.725
782.27321	15444.725
786.15132	13963.625
790.02671	13066.025
793.89938	12679.525
797.76935	12547.425
801.6366	12489.525
805.50115	12454.225
809.36299	12399.325
813.22213	12354.325
817.07857	12325.525
820.93231	12320.125
824.78336	12329.925
828.63172	12386.525
832.47738	12400.825
836.32036	12380.025
840.16066	12396.625
843.99827	12422.525
847.8332	12383.425
851.66546	12338.425
855.49504	12371.025
859.32195	12357.125
863.1462	12333.125
866.96777	12350.825
870.78668	12260.525
874.60293	12262.225
878.41652	12278.425
882.22745	12301.925
886.03573	12340.625
889.84136	12340.825
893.64433	12281.825
897.44466	12217.625
901.24235	12202.425
905.0374	12169.625
908.8298	12121.625
912.61957	12110.425
916.40671	12159.725
920.19121	12263.525
923.97308	12371.225
927.75233	12465.325
931.52895	12553.825
935.30295	12496.625
939.07433	12293.125
942.84309	12052.825
946.60924	11919.625
950.37278	11866.425
954.13371	11783.425
957.89203	11733.125
961.64774	11680.425
965.40086	11645.425
969.15137	11554.725
972.89929	11527.225
976.64461	11512.625
980.38733	11532.625
984.12747	11565.625
987.86502	11645.625
991.59999	11791.325
995.33237	11925.925
999.06217	12184.225
1002.78939	12476.825
1006.51404	12614.325
1010.23611	12713.525
1013.95561	12823.025
1017.67255	12834.725
1021.38692	12767.125
1025.09872	12650.125
1028.80796	12679.025
1032.51465	12911.825
1036.21877	13157.525
1039.92035	13226.925
1043.61937	13083.925
1047.31584	12834.125
1051.00976	12662.225
1054.70114	12510.825
1058.38998	12463.825
1062.07627	12510.025
1065.76003	12538.125
1069.44126	12531.225
1073.11995	12636.725
1076.79611	12730.025
1080.46974	12855.225
1084.14085	12931.925
1087.80943	13079.425
1091.47549	13148.425
1095.13903	13071.825
1098.80005	12853.325
1102.45857	12630.225
1106.11456	12494.725
1109.76805	12576.225
1113.41903	12725.725
1117.06751	12954.425
1120.71348	13256.725
1124.35696	13515.525
1127.99793	13822.225
1131.63641	13878.425
1135.2724	13543.925
1138.90589	13109.025
1142.5369	12873.125
1146.16542	12682.525
1149.79145	12601.825
1153.415	12578.125
1157.03607	12651.725
1160.65467	12826.225
1164.27079	13149.125
1167.88443	13639.525
1171.49561	14418.725
1175.10432	15563.925
1178.71056	17084.625
1182.31434	18417.125
1185.91565	18920.825
1189.51451	18594.025
1193.11091	17715.925
1196.70485	16662.925
1200.29634	15846.125
1203.88538	15271.925
1207.47197	14709.125
1211.05612	14246.225
1214.63782	13983.825
1218.21708	13938.925
1221.79391	13954.125
1225.36829	14002.925
1228.94024	13977.125
1232.50976	13839.525
1236.07685	13717.725
1239.6415	13634.325
1243.20374	13615.825
1246.76355	13684.925
1250.32093	13843.425
1253.8759	14051.025
1257.42845	14361.025
1260.97859	14687.525
1264.52631	14975.125
1268.07163	15269.925
1271.61453	15629.325
1275.15503	15993.225
1278.69312	16266.125
1282.22882	16506.725
1285.76211	16718.925
1289.29301	17060.025
1292.82151	17517.625
1296.34761	18087.125
1299.87133	18892.925
1303.39266	20064.025
1306.9116	21678.025
1310.42815	23510.625
1313.94233	24637.625
1317.45412	24447.925
1320.96354	23236.525
1324.47058	21903.025
1327.97525	20704.925
1331.47754	19936.225
1334.97747	19590.025
1338.47502	19575.725
1341.97022	19833.725
1345.46305	20073.925
1348.95352	20482.525
1352.44163	21136.025
1355.92738	22372.825
1359.41078	24472.025
1362.89183	26682.125
1366.37053	26535.425
1369.84688	23526.125
1373.32088	20199.925
1376.79254	18019.325
1380.26186	16854.625
1383.72883	16416.025
1387.19347	16169.925
1390.65578	15850.925
1394.11575	15641.925
1397.57339	15656.425
1401.0287	15852.425
1404.48168	16141.925
1407.93234	16335.725
1411.38068	16373.625
1414.82669	16271.025
1418.27039	15961.625
1421.71177	15579.425
1425.15083	15223.925
1428.58758	15019.825
1432.02203	15003.825
1435.45416	15127.925
1438.88399	15293.525
1442.31151	15367.925
1445.73673	15473.025
1449.15965	15592.225
1452.58027	15648.525
1455.9986	15618.025
1459.41463	15572.425
1462.82837	15676.325
1466.23982	15955.625
1469.64898	16255.025
1473.05586	16465.325
1476.46045	16583.025
1479.86276	16675.025
1483.26279	16764.425
1486.66054	16890.425
1490.05602	17126.625
1493.44922	17431.125
1496.84016	17897.925
1500.22882	18658.125
1503.61521	19810.625
1506.99934	21368.525
1510.38121	22937.925
1513.76081	23736.425
1517.13816	22988.225
1520.51324	21103.125
1523.88607	19121.325
1527.25665	17711.525
1530.62498	16915.025
1533.99105	16508.925
1537.35488	16281.725
1540.71647	16102.325
1544.07581	16031.125
1547.4329	15990.625
1550.78776	15902.225
1554.14038	15881.825
1557.49077	15982.525
1560.83892	16081.925
1564.18484	16274.825
1567.52853	16431.325
1570.86999	16639.025
1574.20922	16786.625
1577.54624	16820.225
1580.88103	16489.025
1584.2136	16013.725
1587.54395	15852.925
1590.87208	16178.525
1594.19801	16942.725
1597.52172	17999.725
1600.84321	18567.225
1604.16251	18152.225
1607.47959	17091.725
1610.79447	15940.825
1614.10715	14820.825
1617.41763	13922.425
1620.7259	13341.125
1624.03199	13038.425
1627.33587	13047.325
1630.63757	13254.325
1633.93707	13812.525
1637.23439	14614.325
1640.52951	15724.325
1643.82246	17090.825
1647.11321	18508.925
1650.40179	19370.725
1653.68819	18836.925
1656.97241	16944.225
1660.25446	14785.825
1663.53433	13210.125
1666.81203	12328.225
1670.08756	11813.325
1673.36092	11474.825
1676.63211	11255.625
1679.90115	11105.725
1683.16801	10999.425
1686.43272	10880.025
1689.69527	10791.625
1692.95567	10741.725
1696.2139	10683.325
1699.46999	10627.725
1702.72392	10586.325
1705.97571	10595.125
1709.22535	10625.225
1712.47284	10650.125
1715.71819	10668.825
1718.96139	10659.725
1722.20246	10666.425
1725.44139	10634.925
1728.67818	10607.225
1731.91284	10528.925
1735.14537	10510.925
1738.37576	10461.225
1741.60403	10430.325
1744.83017	10427.625
1748.05418	10395.825
1751.27607	10386.025
1754.49584	10327.125
1757.71349	10317.025
1760.92903	10277.625
1764.14244	10243.825
1767.35375	10248.725
1770.56294	10198.525
1773.77002	10213.425
1776.97499	10186.725
1780.17785	10201.025
1783.37861	10217.125
1786.57727	10204.425
1789.77382	10190.525
1792.96828	10191.425
1796.16064	10163.125
1799.3509	10157.125
1802.53907	10151.625
1805.72514	10151.925
1808.90913	10106.625
1812.09102	10073.625
1815.27083	10060.425
1818.44856	10044.125
1821.6242	10019.425
1824.79776	9990.225
1827.96924	10009.525
1831.13864	9991.125
1834.30597	9994.925
1837.47122	9991.925
1840.6344	9970.725
1843.7955	9988.925
1846.95454	9944.125
1850.11151	9971.725
1853.26642	9958.025
1856.41926	9978.025
1859.57004	10001.325
1862.71876	9966.725
1865.86542	9968.725
1869.01003	9975.425
1872.15258	9962.225
1875.29308	9958.125
1878.43152	9954.525
1881.56792	9959.725
1884.70227	9950.825
1887.83457	9939.625
1890.96482	9952.125
1894.09304	9924.025
1897.21921	9918.925
1900.34335	9915.425
1903.46544	9925.925
1906.58551	9926.625
1909.70353	9908.825
1912.81953	9919.025
1915.93349	9899.125
1919.04543	9904.125
1922.15534	9869.725
1925.26322	9835.325
1928.36908	9843.225
1931.47292	9840.125
1934.57473	9798.625
1937.67453	9773.925
1940.77232	9733.825
1943.86808	9710.625
1946.96184	9672.425
1950.05358	9667.725
1953.14331	9620.925
1956.23103	9591.525
1959.31675	9590.425
1962.40046	9528.725
1965.48217	9528.725
1968.56188	9517.325
1971.63959	9492.325
1974.7153	9467.725
1977.78901	9431.225
1980.86073	9417.525
1983.93046	9379.625
1986.99819	9347.925
1990.06394	9304.825
1993.1277	9261.525
1996.18947	9247.925
1999.24925	9257.525
2002.30706	9200.625
2005.36288	9203.325
2008.41672	9154.725
2011.46859	9146.625
2014.51848	9130.425
2017.56639	9096.725
2020.61233	9065.825
2023.6563	9061.925
2026.6983	9042.725
2029.73833	9035.225
2032.7764	8992.625
2035.8125	8988.425
2038.84664	8948.425
2041.87881	8957.525
2044.90903	8946.125
2047.93729	8934.625
2050.96359	8924.025
2053.98794	8909.125
2057.01034	8900.125
2060.03078	8912.425
2063.04927	8881.625
2066.06582	8896.825
2069.08042	8895.625
2072.09307	8870.825
2075.10378	8870.825
2078.11255	8877.925
2081.11938	8847.025
2084.12426	8850.125
2087.12722	8833.625
2090.12824	8831.525
2093.12732	8858.825
2096.12447	8857.025
2099.11969	8827.825
2102.11299	8849.925
2105.10435	8849.025
2108.09379	8861.425
2111.08131	8889.325
2114.0669	8873.125
2117.05057	8883.425
2120.03233	8876.425
2123.01216	8904.025
2125.99008	8922.525
2128.96609	8912.125
2131.94018	8939.525
2134.91236	8912.725
2137.88263	8951.625
2140.851	8938.225
2143.81746	8956.625
2146.78201	8952.825
2149.74466	8945.625
2152.7054	8943.125
2155.66425	8932.525
2158.6212	8927.525
2161.57625	8933.125
2164.52941	8928.025
2167.48067	8948.425
2170.43004	8953.425
2173.37752	8949.725
2176.32311	8943.325
2179.26681	8946.925
2182.20863	8942.125
2185.14856	8931.725
2188.08661	8958.225
2191.02278	8971.325
2193.95707	8952.025
2196.88948	8944.325
2199.82001	8936.125
2202.74867	8933.825
2205.67545	8926.025
2208.60037	8940.625
2211.52341	8906.025
2214.44458	8910.625
2217.36388	8895.125
2220.28132	8901.825
2223.1969	8885.925
2226.11061	8872.225
2229.02246	8850.425
2231.93245	8842.825
2234.84058	8818.825
2237.74686	8768.525
2240.65128	8785.725
2243.55385	8780.925
2246.45456	8758.825
2249.35343	8745.325
2252.25044	8739.925
2255.14561	8742.625
2258.03893	8738.925
2260.93041	8713.325
2263.82004	8706.625
2266.70783	8676.525
2269.59378	8656.925
2272.4779	8650.225
2275.36017	8617.325
2278.24061	8635.625
2281.11922	8599.025
2283.996	8610.625
2286.87094	8567.725
2289.74405	8553.825
2292.61534	8547.325
2295.4848	8533.025
2298.35243	8538.325
2301.21824	8554.525
2304.08223	8555.025
2306.94439	8569.925
2309.80474	8553.725
2312.66327	8574.025
2315.51999	8551.925
2318.37489	8539.725
2321.22797	8549.225
2324.07925	8539.225
2326.92871	8503.025
2329.77637	8508.225
2332.62222	8492.825
2335.46626	8479.825
2338.3085	8509.725
2341.14893	8501.125
2343.98756	8504.725
2346.8244	8505.425
2349.65943	8505.625
2352.49267	8507.725
2355.32411	8504.525
2358.15376	8479.025
2360.98161	8512.225
2363.80768	8495.425
2366.63195	8477.025
2369.45444	8484.925
2372.27514	8464.625
2375.09405	8458.325
2377.91118	8448.725
2380.72652	8407.025
2383.54009	8366.225
2386.35187	8370.025
2389.16188	8335.025
2391.97011	8325.925
2394.77657	8314.225
2397.58125	8288.125
2400.38416	8282.625
2403.18529	8279.225
2405.98466	8251.025
2408.78226	8229.925
2411.57809	8229.325
2414.37216	8209.125
2417.16446	8200.525
2419.955	8209.425
2422.74378	8190.025
2425.5308	8182.425
2428.31606	8215.125
2431.09956	8188.825
2433.88131	8166.525
2436.6613	8182.225
2439.43954	8187.625
2442.21603	8161.925
2444.99077	8180.725
2447.76377	8180.525
2450.53501	8161.025
2453.30451	8163.025
2456.07226	8143.825
2458.83827	8132.825
2461.60254	8134.525
2464.36507	8119.325
2467.12586	8124.625
2469.88492	8138.325
2472.64224	8118.825
2475.39782	8140.225
2478.15167	8121.825
2480.90379	8128.725
2483.65417	8126.925
2486.40283	8139.225
2489.14976	8156.925
2491.89497	8173.725
2494.63845	8142.425
2497.3802	8143.425
2500.12024	8149.125
2502.85855	8128.825
2505.59514	8135.225
2508.33002	8126.925
2511.06318	8108.425
2513.79462	8097.925
2516.52435	8075.725
2519.25237	8081.425
2521.97867	8049.725
2524.70327	8064.025
2527.42616	8032.225
2530.14734	8024.725
2532.86681	8008.425
2535.58458	7996.325
2538.30065	7995.725
2541.01501	7984.625
2543.72768	7977.425
2546.43864	7998.125
2549.14791	7976.525
2551.85548	7976.225
2554.56136	7959.225
2557.26554	7956.225
2559.96803	7954.325
2562.66883	7940.325
2565.36794	7940.125
2568.06536	7935.625
2570.7611	7924.925
2573.45514	7908.725
2576.14751	7897.625
2578.83819	7892.525
2581.52719	7876.925
2584.21451	7872.425
2586.90015	7877.525
2589.58411	7845.925
2592.2664	7865.725
2594.94701	7840.825
2597.62594	7839.925
2600.30321	7822.525
2602.9788	7837.925
2605.65273	7813.225
2608.32498	7818.025
2610.99557	7805.325
2613.66449	7810.725
2616.33175	7794.325
2618.99734	7788.325
2621.66128	7800.625
2624.32355	7821.725
2626.98416	7801.625
2629.64311	7793.225
2632.30041	7798.925
2634.95605	7769.525
2637.61004	7759.525
2640.26238	7743.625
2642.91306	7730.125
2645.56209	7721.925
2648.20948	7710.325
2650.85521	7704.525
2653.4993	7714.125
2656.14175	7726.925
2658.78255	7718.825
2661.42171	7743.225
2664.05923	7757.125
2666.6951	7751.625
2669.32934	7744.625
2671.96194	7730.225
2674.59291	7760.825
2677.22224	7734.425
2679.84993	7728.425
2682.476	7722.525
2685.10043	7710.825
2687.72324	7709.725
2690.34441	7741.225
2692.96396	7710.125
2695.58188	7748.125
2698.19818	7710.025
2700.81285	7735.425
2703.4259	7716.925
2706.03733	7705.325
2708.64714	7724.125
2711.25533	7736.725
2713.86191	7727.625
2716.46687	7726.925
2719.07021	7720.525
2721.67194	7765.925
2724.27206	7746.425
2726.87057	7754.825
2729.46747	7753.325
2732.06276	7759.525
2734.65644	7724.925
2737.24852	7754.725
2739.83899	7751.925
2742.42786	7724.625
2745.01513	7701.125
2747.60079	7717.525
2750.18486	7703.525
2752.76733	7707.725
2755.3482	7696.925
2757.92747	7698.425
2760.50515	7691.625
2763.08123	7687.225
2765.65573	7661.625
2768.22863	7693.225
2770.79994	7645.825
2773.36967	7648.125
2775.9378	7664.225
2778.50435	7664.625
2781.06932	7651.725
2783.6327	7652.325
2786.1945	7646.925
2788.75471	7640.225
2791.31335	7638.125
2793.87041	7613.825
2796.42589	7605.725
2798.97979	7625.025
2801.53212	7579.925
2804.08288	7588.825
2806.63206	7566.525
2809.17967	7550.125
2811.72571	7552.125
2814.27018	7549.925
2816.81308	7526.225
2819.35442	7524.025
2821.89419	7510.025
2824.43239	7540.125
2826.96904	7551.225
2829.50412	7543.825
2832.03763	7506.925
2834.56959	7517.325
2837.1	7519.925
2839.62884	7530.625
2842.15613	7555.325
2844.68186	7594.025
2847.20604	7616.325
2849.72867	7634.925
2852.24974	7617.725
2854.76927	7613.625
2857.28724	7593.925
2859.80367	7585.125
2862.31855	7603.425
2864.83189	7563.625
2867.34368	7566.225
2869.85393	7581.325
2872.36264	7570.925
2874.8698	7567.625
2877.37543	7586.125
2879.87952	7568.125
2882.38207	7573.725
2884.88308	7566.825
2887.38256	7574.825
2889.88051	7554.725
2892.37692	7573.925
2894.8718	7582.825
2897.36515	7597.525
2899.85698	7599.825
2902.34727	7618.625
2904.83604	7631.025
2907.32328	7644.625
2909.809	7615.125
2912.29319	7649.825
2914.77587	7646.125
2917.25702	7658.525
2919.73665	7639.325
2922.21476	7654.125
2924.69136	7655.025
2927.16644	7631.525
2929.64	7636.525
2932.11205	7636.825
2934.58258	7597.125
2937.05161	7595.925
2939.51912	7614.225
2941.98513	7567.325
2944.44962	7551.825
2946.91261	7496.625
2949.37409	7524.125
2951.83407	7509.725
2954.29254	7494.525
2956.74951	7475.425
2959.20498	7494.325
2961.65895	7453.425
2964.11142	7456.925
2966.56239	7445.525
2969.01186	7419.325
2971.45984	7412.025
2973.90632	7413.425
2976.35131	7365.825
2978.7948	7382.225
2981.23681	7370.625
2983.67732	7356.525
2986.11635	7334.525
2988.55388	7310.125
2990.98993	7312.125
2993.4245	7288.525
2995.85758	7286.425
2998.28917	7260.225
3000.71928	7258.225
3003.14791	7237.525
3005.57506	7247.425
3008.00073	7216.525
3010.42493	7206.325
3012.84764	7216.525
3015.26888	7228.825
3017.68865	7188.225
3020.10694	7177.725
3022.52376	7167.725
3024.9391	7163.725
3027.35298	7159.225
3029.76539	7154.525
3032.17632	7124.225
3034.5858	7120.425
3036.9938	7118.125
3039.40034	7112.025
3041.80542	7117.025
3044.20903	7103.025
3046.61118	7112.925
3049.01187	7089.625
3051.4111	7084.625
3053.80888	7076.925
3056.20519	7051.025
3058.60005	7055.125
3060.99345	7038.125
3063.3854	7011.425
3065.7759	6999.525
3068.16494	7003.825
3070.55254	6974.425
3072.93868	6979.325
3075.32338	6955.525
3077.70662	6958.125
3080.08842	6930.025
3082.46878	6943.525
3084.84769	6937.825
3087.22515	6926.025
3089.60118	6916.325
3091.97576	6927.625
3094.3489	6946.825
3096.72061	6944.825
3099.09087	6959.525
3101.4597	6961.625
3103.82709	6945.425
3106.19305	6929.625
3108.55757	6944.525
3110.92066	6916.925
3113.28232	6911.725
3115.64255	6897.725
3118.00134	6876.325
3120.35871	6895.425
3122.71466	6878.625
3125.06917	6894.725
3127.42226	6881.425
3129.77393	6885.325
3132.12417	6868.525
3134.47299	6857.925
3136.82039	6889.025
3139.16636	6901.025
3141.51092	6893.325
3143.85406	6889.225
3146.19579	6887.925
3148.53609	6897.125
3150.87499	6916.225
3153.21246	6948.025
3155.54853	6951.125
3157.88318	6946.125
3160.21642	6942.925
3162.54826	6942.625
3164.87868	6955.625
3167.2077	6955.225
3169.5353	6962.825
3171.86151	6969.025
3174.18631	6935.825
3176.5097	6949.825
3178.83169	6948.225
3181.15228	6937.025
3183.47147	6936.325
3185.78926	6934.725
