Data from AgNPs_FTO_APTES_UA_1uM_CRN_200uM_R6G_10uM_NaF_0.1M_Addition_RamanShift__15__17-22-29-833.txt Node

Date: Thu Jan 27 17:22:29 GMT 2022
User: TCL
Spectrometer: QEP01345
Trigger mode: 4
Integration Time (sec): 7.000000E0
Scans to average: 10
Electric dark correction enabled: true
Nonlinearity correction enabled: false
Boxcar width: 0
XAxis mode: Raman Shifts
Number of Pixels in Spectrum: 1044
>>>>>Begin Spectral Data<<<<<
46.04893	1.3875
50.45542	0.4875
54.85868	-1.9125
59.25871	-0.7125
63.6555	39.2875
68.04907	45.1875
72.43941	47.9875
76.82654	49.8875
81.21044	52.0875
85.59113	51.4875
89.96862	55.5875
94.34289	58.9875
98.71396	56.8875
103.08183	58.8875
107.4465	63.7875
111.80798	66.4875
116.16626	63.5875
120.52136	70.4875
124.87327	69.1875
129.222	68.3875
133.56755	73.8875
137.90993	74.6875
142.24913	81.6875
146.58517	90.1875
150.91804	101.9875
155.24774	115.0875
159.57429	135.6875
163.89768	178.3875
168.21792	221.2875
172.53501	306.4875
176.84895	405.0875
181.15975	573.7875
185.46741	804.3875
189.77193	1101.8875
194.07331	1477.1875
198.37157	1915.6875
202.6667	2377.4875
206.9587	2834.8875
211.24758	3285.0875
215.53334	3738.3875
219.81599	4217.9875
224.09553	4735.1875
228.37195	5284.9875
232.64527	5889.6875
236.91549	6558.4875
241.18261	7220.3875
245.44663	7830.3875
249.70755	8403.5875
253.96539	8880.0875
258.22014	9290.3875
262.4718	9594.6875
266.72039	9800.7875
270.96589	9933.2875
275.20832	9893.7875
279.44768	9838.1875
283.68397	9717.9875
287.91719	9593.9875
292.14735	9502.8875
296.37445	9454.5875
300.59849	9498.2875
304.81948	9571.0875
309.03742	9579.8875
313.25231	9500.1875
317.46415	9309.2875
321.67296	9035.4875
325.87872	8827.3875
330.08145	8693.7875
334.28114	8707.6875
338.47781	8785.8875
342.67145	8887.5875
346.86207	9039.3875
351.04966	9233.6875
355.23424	9420.7875
359.4158	9596.8875
363.59435	9707.5875
367.76989	9794.9875
371.94243	9887.1875
376.11196	9950.3875
380.27849	9996.2875
384.44203	10055.5875
388.60257	10077.4875
392.76012	10126.3875
396.91468	10227.1875
401.06626	10342.7875
405.21485	10461.7875
409.36047	10442.0875
413.50311	10289.5875
417.64277	10104.5875
421.77947	10034.5875
425.9132	10005.7875
430.04396	10049.3875
434.17176	10088.3875
438.2966	10125.4875
442.41849	10226.3875
446.53742	10383.7875
450.6534	10534.5875
454.76644	10675.9875
458.87653	10731.8875
462.98368	10731.4875
467.08789	10681.2875
471.18916	10586.9875
475.2875	10554.7875
479.38291	10456.4875
483.4754	10374.1875
487.56496	10316.9875
491.6516	10242.2875
495.73531	10214.7875
499.81612	10262.6875
503.89401	10272.6875
507.96899	10323.5875
512.04106	10349.3875
516.11023	10352.3875
520.1765	10365.2875
524.23987	10324.2875
528.30034	10234.2875
532.35792	10189.1875
536.41261	10083.9875
540.46441	9998.4875
544.51333	10004.4875
548.55936	10058.5875
552.60252	10180.9875
556.64279	10320.2875
560.6802	10388.6875
564.71473	10417.1875
568.7464	10484.2875
572.7752	10648.0875
576.80114	10717.9875
580.82422	10794.1875
584.84444	10940.0875
588.86181	11062.7875
592.87633	11099.9875
596.888	11058.5875
600.89682	11080.1875
604.9028	11383.3875
608.90594	12349.7875
612.90624	13606.0875
616.90371	13224.5875
620.89834	11322.5875
624.89015	10381.2875
628.87913	10273.8875
632.86528	10313.5875
636.84862	10353.1875
640.82913	10325.8875
644.80683	10164.0875
648.78172	10005.8875
652.75379	9994.3875
656.72306	10102.1875
660.68952	10241.3875
664.65319	10219.5875
668.61405	10136.1875
672.57211	10098.0875
676.52738	10180.2875
680.47986	10246.5875
684.42955	10194.7875
688.37646	10120.6875
692.32058	10070.1875
696.26192	10065.8875
700.20048	10103.8875
704.13626	10148.8875
708.06928	10129.1875
711.99952	10080.1875
715.927	10072.1875
719.85171	10067.3875
723.77365	10067.7875
727.69284	10036.9875
731.60928	9979.4875
735.52295	9916.2875
739.43388	9937.8875
743.34206	9940.5875
747.24749	9970.7875
751.15017	10011.8875
755.05012	10075.8875
758.94733	10284.4875
762.8418	10637.2875
766.73354	11306.6875
770.62254	12085.4875
774.50882	12474.5875
778.39237	12144.9875
782.27321	11391.7875
786.15132	10661.2875
790.02671	10215.1875
793.89938	10016.2875
797.76935	9905.9875
801.6366	9857.0875
805.50115	9827.0875
809.36299	9797.7875
813.22213	9742.7875
817.07857	9731.7875
820.93231	9708.8875
824.78336	9700.8875
828.63172	9728.1875
832.47738	9721.3875
836.32036	9705.6875
840.16066	9708.8875
843.99827	9698.5875
847.8332	9703.4875
851.66546	9697.6875
855.49504	9682.0875
859.32195	9679.9875
863.1462	9705.6875
866.96777	9681.9875
870.78668	9697.0875
874.60293	9700.3875
878.41652	9679.8875
882.22745	9708.8875
886.03573	9757.5875
889.84136	9752.2875
893.64433	9709.7875
897.44466	9686.1875
901.24235	9646.1875
905.0374	9623.1875
908.8298	9580.1875
912.61957	9560.3875
916.40671	9637.5875
920.19121	9685.3875
923.97308	9734.6875
927.75233	9797.4875
931.52895	9799.2875
935.30295	9755.9875
939.07433	9623.4875
942.84309	9492.1875
946.60924	9432.4875
950.37278	9362.1875
954.13371	9329.7875
957.89203	9295.6875
961.64774	9289.5875
965.40086	9247.7875
969.15137	9238.0875
972.89929	9198.5875
976.64461	9179.0875
980.38733	9168.5875
984.12747	9182.2875
987.86502	9227.2875
991.59999	9281.8875
995.33237	9356.8875
999.06217	9493.7875
1002.78939	9610.4875
1006.51404	9695.0875
1010.23611	9747.3875
1013.95561	9786.4875
1017.67255	9829.3875
1021.38692	9796.3875
1025.09872	9737.0875
1028.80796	9737.9875
1032.51465	9796.3875
1036.21877	9911.7875
1039.92035	9977.7875
1043.61937	9951.1875
1047.31584	9882.8875
1051.00976	9824.1875
1054.70114	9765.9875
1058.38998	9815.5875
1062.07627	9822.5875
1065.76003	9871.3875
1069.44126	9925.7875
1073.11995	10048.6875
1076.79611	10147.8875
1080.46974	10213.0875
1084.14085	10191.6875
1087.80943	10178.1875
1091.47549	10236.6875
1095.13903	10222.4875
1098.80005	10163.0875
1102.45857	9979.4875
1106.11456	9874.6875
1109.76805	9823.9875
1113.41903	9876.5875
1117.06751	9911.8875
1120.71348	10020.2875
1124.35696	10153.6875
1127.99793	10319.0875
1131.63641	10421.5875
1135.2724	10293.2875
1138.90589	10129.6875
1142.5369	10005.8875
1146.16542	9942.9875
1149.79145	9906.1875
1153.415	9878.1875
1157.03607	9914.3875
1160.65467	10029.8875
1164.27079	10250.3875
1167.88443	10584.4875
1171.49561	11081.5875
1175.10432	11660.2875
1178.71056	12446.3875
1182.31434	13190.5875
1185.91565	13600.3875
1189.51451	13576.7875
1193.11091	13222.1875
1196.70485	12722.5875
1200.29634	12224.9875
1203.88538	11817.9875
1207.47197	11469.3875
1211.05612	11139.6875
1214.63782	10930.2875
1218.21708	10814.5875
1221.79391	10722.2875
1225.36829	10714.8875
1228.94024	10688.7875
1232.50976	10608.4875
1236.07685	10542.8875
1239.6415	10477.3875
1243.20374	10449.9875
1246.76355	10484.1875
1250.32093	10579.9875
1253.8759	10696.4875
1257.42845	10876.7875
1260.97859	11075.6875
1264.52631	11246.4875
1268.07163	11460.8875
1271.61453	11666.4875
1275.15503	11903.3875
1278.69312	12096.7875
1282.22882	12272.5875
1285.76211	12425.6875
1289.29301	12657.4875
1292.82151	12947.5875
1296.34761	13345.0875
1299.87133	13840.3875
1303.39266	14481.0875
1306.9116	15303.9875
1310.42815	16099.6875
1313.94233	16592.6875
1317.45412	16464.4875
1320.96354	16002.2875
1324.47058	15423.5875
1327.97525	15011.5875
1331.47754	14667.7875
1334.97747	14475.6875
1338.47502	14397.5875
1341.97022	14392.5875
1345.46305	14499.1875
1348.95352	14708.2875
1352.44163	15112.3875
1355.92738	15637.1875
1359.41078	16477.2875
1362.89183	17291.6875
1366.37053	17269.4875
1369.84688	15921.0875
1373.32088	14250.6875
1376.79254	12997.5875
1380.26186	12395.0875
1383.72883	12107.2875
1387.19347	11908.8875
1390.65578	11713.5875
1394.11575	11546.2875
1397.57339	11493.8875
1401.0287	11554.5875
1404.48168	11626.8875
1407.93234	11617.3875
1411.38068	11531.2875
1414.82669	11422.8875
1418.27039	11212.6875
1421.71177	11035.5875
1425.15083	10824.8875
1428.58758	10726.1875
1432.02203	10723.0875
1435.45416	10784.2875
1438.88399	10921.7875
1442.31151	11012.7875
1445.73673	11073.4875
1449.15965	11142.7875
1452.58027	11190.3875
1455.9986	11207.4875
1459.41463	11241.6875
1462.82837	11362.9875
1466.23982	11528.5875
1469.64898	11676.1875
1473.05586	11818.5875
1476.46045	11849.7875
1479.86276	11900.4875
1483.26279	11936.9875
1486.66054	11967.3875
1490.05602	12082.3875
1493.44922	12325.9875
1496.84016	12665.1875
1500.22882	13204.4875
1503.61521	13959.6875
1506.99934	14847.4875
1510.38121	15597.1875
1513.76081	15773.9875
1517.13816	15236.6875
1520.51324	14291.6875
1523.88607	13394.7875
1527.25665	12758.9875
1530.62498	12407.0875
1533.99105	12220.8875
1537.35488	12046.2875
1540.71647	11915.9875
1544.07581	11783.8875
1547.4329	11633.4875
1550.78776	11537.7875
1554.14038	11479.9875
1557.49077	11479.9875
1560.83892	11494.9875
1564.18484	11556.2875
1567.52853	11692.2875
1570.86999	11843.7875
1574.20922	11993.2875
1577.54624	12066.4875
1580.88103	11939.3875
1584.2136	11646.8875
1587.54395	11546.4875
1590.87208	11650.5875
1594.19801	12007.8875
1597.52172	12542.5875
1600.84321	12817.9875
1604.16251	12601.5875
1607.47959	12089.8875
1610.79447	11514.0875
1614.10715	10893.9875
1617.41763	10362.7875
1620.7259	9944.3875
1624.03199	9716.5875
1627.33587	9620.6875
1630.63757	9741.5875
1633.93707	9976.1875
1637.23439	10444.6875
1640.52951	11158.4875
1643.82246	12104.6875
1647.11321	13088.1875
1650.40179	13646.3875
1653.68819	13340.0875
1656.97241	12233.8875
1660.25446	10942.6875
1663.53433	9975.4875
1666.81203	9389.1875
1670.08756	8994.6875
1673.36092	8756.6875
1676.63211	8609.6875
1679.90115	8509.6875
1683.16801	8412.3875
1686.43272	8366.2875
1689.69527	8273.7875
1692.95567	8243.3875
1696.2139	8172.8875
1699.46999	8121.7875
1702.72392	8100.5875
1705.97571	8096.4875
1709.22535	8114.5875
1712.47284	8145.1875
1715.71819	8162.9875
1718.96139	8137.6875
1722.20246	8159.1875
1725.44139	8140.0875
1728.67818	8073.3875
1731.91284	8075.2875
1735.14537	8033.1875
1738.37576	8017.0875
1741.60403	7984.5875
1744.83017	7973.2875
1748.05418	7958.5875
1751.27607	7974.9875
1754.49584	7949.4875
1757.71349	7947.1875
1760.92903	7916.4875
1764.14244	7907.5875
1767.35375	7869.4875
1770.56294	7840.4875
1773.77002	7806.3875
1776.97499	7780.2875
1780.17785	7797.7875
1783.37861	7800.9875
1786.57727	7791.5875
1789.77382	7763.4875
1792.96828	7756.4875
1796.16064	7733.7875
1799.3509	7708.3875
1802.53907	7698.1875
1805.72514	7687.6875
1808.90913	7659.0875
1812.09102	7639.8875
1815.27083	7626.0875
1818.44856	7600.9875
1821.6242	7593.8875
1824.79776	7582.0875
1827.96924	7600.5875
1831.13864	7578.7875
1834.30597	7585.7875
1837.47122	7572.2875
1840.6344	7535.5875
1843.7955	7548.6875
1846.95454	7531.1875
1850.11151	7542.6875
1853.26642	7531.7875
1856.41926	7523.4875
1859.57004	7528.3875
1862.71876	7524.1875
1865.86542	7526.2875
1869.01003	7504.7875
1872.15258	7485.9875
1875.29308	7508.2875
1878.43152	7481.2875
1881.56792	7473.9875
1884.70227	7475.5875
1887.83457	7442.9875
1890.96482	7459.0875
1894.09304	7419.0875
1897.21921	7415.7875
1900.34335	7413.5875
1903.46544	7375.0875
1906.58551	7406.7875
1909.70353	7381.0875
1912.81953	7383.4875
1915.93349	7358.7875
1919.04543	7372.8875
1922.15534	7350.6875
1925.26322	7334.5875
1928.36908	7330.6875
1931.47292	7326.0875
1934.57473	7272.6875
1937.67453	7276.6875
1940.77232	7249.5875
1943.86808	7239.3875
1946.96184	7209.1875
1950.05358	7192.4875
1953.14331	7158.2875
1956.23103	7147.6875
1959.31675	7140.0875
1962.40046	7125.2875
1965.48217	7101.4875
1968.56188	7081.3875
1971.63959	7072.1875
1974.7153	7055.9875
1977.78901	7024.4875
1980.86073	7013.3875
1983.93046	6982.2875
1986.99819	6991.3875
1990.06394	6952.5875
1993.1277	6945.4875
1996.18947	6914.8875
1999.24925	6876.1875
2002.30706	6840.1875
2005.36288	6849.3875
2008.41672	6828.9875
2011.46859	6799.6875
2014.51848	6781.1875
2017.56639	6777.0875
2020.61233	6736.1875
2023.6563	6756.0875
2026.6983	6712.2875
2029.73833	6729.3875
2032.7764	6695.2875
2035.8125	6701.0875
2038.84664	6647.5875
2041.87881	6636.7875
2044.90903	6646.4875
2047.93729	6627.0875
2050.96359	6624.1875
2053.98794	6611.9875
2057.01034	6598.4875
2060.03078	6623.9875
2063.04927	6573.9875
2066.06582	6586.2875
2069.08042	6596.5875
2072.09307	6576.6875
2075.10378	6571.7875
2078.11255	6596.2875
2081.11938	6568.0875
2084.12426	6561.4875
2087.12722	6555.7875
2090.12824	6556.9875
2093.12732	6554.9875
2096.12447	6570.5875
2099.11969	6552.9875
2102.11299	6562.6875
2105.10435	6566.0875
2108.09379	6580.1875
2111.08131	6577.3875
2114.0669	6555.0875
2117.05057	6588.9875
2120.03233	6592.0875
2123.01216	6589.4875
2125.99008	6605.5875
2128.96609	6589.3875
2131.94018	6614.3875
2134.91236	6612.3875
2137.88263	6635.0875
2140.851	6624.8875
2143.81746	6633.1875
2146.78201	6621.1875
2149.74466	6622.0875
2152.7054	6613.4875
2155.66425	6611.5875
2158.6212	6622.0875
2161.57625	6611.8875
2164.52941	6621.8875
2167.48067	6597.0875
2170.43004	6612.0875
2173.37752	6622.9875
2176.32311	6601.4875
2179.26681	6635.7875
2182.20863	6596.0875
2185.14856	6602.0875
2188.08661	6614.2875
2191.02278	6624.3875
2193.95707	6604.3875
2196.88948	6589.6875
2199.82001	6602.6875
2202.74867	6578.9875
2205.67545	6581.6875
2208.60037	6572.9875
2211.52341	6551.4875
2214.44458	6555.2875
2217.36388	6544.2875
2220.28132	6556.4875
2223.1969	6534.3875
2226.11061	6499.7875
2229.02246	6487.5875
2231.93245	6470.2875
2234.84058	6471.5875
2237.74686	6458.0875
2240.65128	6459.4875
2243.55385	6437.0875
2246.45456	6440.5875
2249.35343	6404.3875
2252.25044	6421.1875
2255.14561	6419.1875
2258.03893	6404.2875
2260.93041	6386.1875
2263.82004	6369.0875
2266.70783	6385.5875
2269.59378	6333.9875
2272.4779	6308.8875
2275.36017	6331.6875
2278.24061	6324.2875
2281.11922	6313.0875
2283.996	6287.5875
2286.87094	6277.3875
2289.74405	6268.2875
2292.61534	6266.3875
2295.4848	6251.6875
2298.35243	6263.2875
2301.21824	6231.9875
2304.08223	6246.2875
2306.94439	6251.6875
2309.80474	6274.1875
2312.66327	6245.6875
2315.51999	6235.7875
2318.37489	6231.4875
2321.22797	6229.4875
2324.07925	6213.3875
2326.92871	6212.8875
2329.77637	6196.8875
2332.62222	6191.1875
2335.46626	6177.7875
2338.3085	6166.2875
2341.14893	6164.1875
2343.98756	6152.2875
2346.8244	6152.2875
2349.65943	6159.5875
2352.49267	6146.9875
2355.32411	6158.4875
2358.15376	6152.1875
2360.98161	6156.8875
2363.80768	6132.8875
2366.63195	6130.7875
2369.45444	6150.7875
2372.27514	6140.0875
2375.09405	6115.6875
2377.91118	6118.1875
2380.72652	6111.8875
2383.54009	6084.8875
2386.35187	6066.8875
2389.16188	6042.2875
2391.97011	6036.1875
2394.77657	6028.4875
2397.58125	6027.2875
2400.38416	6008.6875
2403.18529	6002.8875
2405.98466	5995.6875
2408.78226	5973.8875
2411.57809	5962.8875
2414.37216	5969.3875
2417.16446	5973.7875
2419.955	5956.3875
2422.74378	5947.0875
2425.5308	5954.0875
2428.31606	5952.7875
2431.09956	5928.6875
2433.88131	5925.1875
2436.6613	5941.1875
2439.43954	5919.5875
2442.21603	5902.5875
2444.99077	5926.3875
2447.76377	5912.2875
2450.53501	5901.5875
2453.30451	5906.2875
2456.07226	5889.8875
2458.83827	5893.4875
2461.60254	5897.1875
2464.36507	5874.2875
2467.12586	5859.1875
2469.88492	5867.9875
2472.64224	5886.4875
2475.39782	5879.1875
2478.15167	5856.5875
2480.90379	5862.8875
2483.65417	5871.3875
2486.40283	5858.3875
2489.14976	5873.3875
2491.89497	5843.7875
2494.63845	5848.4875
2497.3802	5842.0875
2500.12024	5839.6875
2502.85855	5845.5875
2505.59514	5835.0875
2508.33002	5821.8875
2511.06318	5827.0875
2513.79462	5814.0875
2516.52435	5804.9875
2519.25237	5802.1875
2521.97867	5786.3875
2524.70327	5761.4875
2527.42616	5763.0875
2530.14734	5773.5875
2532.86681	5746.3875
2535.58458	5772.6875
2538.30065	5726.9875
2541.01501	5752.7875
2543.72768	5718.7875
2546.43864	5710.3875
2549.14791	5707.1875
2551.85548	5707.0875
2554.56136	5681.9875
2557.26554	5684.7875
2559.96803	5690.0875
2562.66883	5675.8875
2565.36794	5682.8875
2568.06536	5675.6875
2570.7611	5652.9875
2573.45514	5632.6875
2576.14751	5638.6875
2578.83819	5610.5875
2581.52719	5619.2875
2584.21451	5622.6875
2586.90015	5591.4875
2589.58411	5590.4875
2592.2664	5581.1875
2594.94701	5566.2875
2597.62594	5566.3875
2600.30321	5561.8875
2602.9788	5563.3875
2605.65273	5562.8875
2608.32498	5548.9875
2610.99557	5536.8875
2613.66449	5540.4875
2616.33175	5524.7875
2618.99734	5517.8875
2621.66128	5520.6875
2624.32355	5515.2875
2626.98416	5503.2875
2629.64311	5513.7875
2632.30041	5495.2875
2634.95605	5489.6875
2637.61004	5476.6875
2640.26238	5475.5875
2642.91306	5466.5875
2645.56209	5456.0875
2648.20948	5457.1875
2650.85521	5444.9875
2653.4993	5447.1875
2656.14175	5457.8875
2658.78255	5466.1875
2661.42171	5463.4875
2664.05923	5473.5875
2666.6951	5463.7875
2669.32934	5465.1875
2671.96194	5473.1875
2674.59291	5462.2875
2677.22224	5446.1875
2679.84993	5456.8875
2682.476	5435.1875
2685.10043	5438.7875
2687.72324	5449.1875
2690.34441	5442.3875
2692.96396	5439.5875
2695.58188	5444.5875
2698.19818	5447.2875
2700.81285	5448.4875
2703.4259	5434.6875
2706.03733	5444.4875
2708.64714	5422.8875
2711.25533	5443.6875
2713.86191	5435.7875
2716.46687	5455.2875
2719.07021	5472.0875
2721.67194	5447.3875
2724.27206	5435.3875
2726.87057	5453.9875
2729.46747	5454.9875
2732.06276	5451.5875
2734.65644	5445.7875
2737.24852	5443.4875
2739.83899	5432.8875
2742.42786	5437.4875
2745.01513	5418.1875
2747.60079	5394.0875
2750.18486	5421.6875
2752.76733	5403.5875
2755.3482	5396.6875
2757.92747	5397.8875
2760.50515	5377.2875
2763.08123	5392.3875
2765.65573	5378.4875
2768.22863	5361.4875
2770.79994	5375.5875
2773.36967	5366.4875
2775.9378	5369.5875
2778.50435	5358.3875
2781.06932	5352.4875
2783.6327	5347.8875
2786.1945	5343.7875
2788.75471	5344.6875
2791.31335	5329.2875
2793.87041	5324.2875
2796.42589	5303.7875
2798.97979	5313.4875
2801.53212	5296.5875
2804.08288	5296.4875
2806.63206	5283.8875
2809.17967	5255.2875
2811.72571	5260.0875
2814.27018	5255.0875
2816.81308	5247.1875
2819.35442	5247.8875
2821.89419	5226.6875
2824.43239	5226.3875
2826.96904	5229.5875
2829.50412	5233.7875
2832.03763	5228.0875
2834.56959	5237.5875
2837.1	5219.3875
2839.62884	5233.9875
2842.15613	5230.7875
2844.68186	5265.6875
2847.20604	5281.6875
2849.72867	5290.7875
2852.24974	5279.0875
2854.76927	5280.0875
2857.28724	5271.4875
2859.80367	5276.9875
2862.31855	5255.0875
2864.83189	5253.6875
2867.34368	5254.6875
2869.85393	5242.7875
2872.36264	5236.8875
2874.8698	5240.9875
2877.37543	5240.5875
2879.87952	5237.7875
2882.38207	5243.0875
2884.88308	5235.2875
2887.38256	5241.4875
2889.88051	5224.2875
2892.37692	5244.0875
2894.8718	5237.8875
2897.36515	5251.1875
2899.85698	5245.8875
2902.34727	5281.4875
2904.83604	5284.8875
2907.32328	5279.6875
2909.809	5269.4875
2912.29319	5290.7875
2914.77587	5281.0875
2917.25702	5304.6875
2919.73665	5289.6875
2922.21476	5288.1875
2924.69136	5310.3875
2927.16644	5304.8875
2929.64	5294.8875
2932.11205	5299.9875
2934.58258	5281.2875
2937.05161	5288.6875
2939.51912	5299.8875
2941.98513	5264.9875
2944.44962	5261.6875
2946.91261	5247.9875
2949.37409	5254.3875
2951.83407	5233.6875
2954.29254	5229.3875
2956.74951	5209.4875
2959.20498	5218.4875
2961.65895	5218.4875
2964.11142	5216.4875
2966.56239	5194.9875
2969.01186	5187.7875
2971.45984	5166.2875
2973.90632	5160.9875
2976.35131	5146.3875
2978.7948	5129.1875
2981.23681	5126.9875
2983.67732	5124.6875
2986.11635	5097.2875
2988.55388	5104.5875
2990.98993	5085.0875
2993.4245	5077.1875
2995.85758	5065.5875
2998.28917	5066.2875
3000.71928	5058.3875
3003.14791	5038.6875
3005.57506	5033.4875
3008.00073	5031.3875
3010.42493	5010.6875
3012.84764	5020.9875
3015.26888	5009.9875
3017.68865	5021.8875
3020.10694	4993.1875
3022.52376	4989.9875
3024.9391	4989.3875
3027.35298	4980.8875
3029.76539	4985.5875
3032.17632	4975.0875
3034.5858	4947.8875
3036.9938	4957.9875
3039.40034	4951.8875
3041.80542	4949.2875
3044.20903	4948.7875
3046.61118	4946.9875
3049.01187	4940.4875
3051.4111	4936.3875
3053.80888	4933.1875
3056.20519	4913.2875
3058.60005	4914.8875
3060.99345	4908.1875
3063.3854	4892.0875
3065.7759	4874.5875
3068.16494	4890.7875
3070.55254	4862.2875
3072.93868	4879.5875
3075.32338	4858.3875
3077.70662	4865.6875
3080.08842	4863.5875
3082.46878	4854.3875
3084.84769	4857.5875
3087.22515	4861.0875
3089.60118	4857.0875
3091.97576	4872.8875
3094.3489	4863.4875
3096.72061	4863.9875
