Data from AgNPs_FTO_APTES_UA_1uM_CRN_0uM_R6G_10uM_NaF_0.1M_Addition_RamanShift__0__11-05-39-419.txt Node

Date: Thu Jan 27 11:05:39 GMT 2022
User: TCL
Spectrometer: QEP01345
Trigger mode: 4
Integration Time (sec): 7.000000E0
Scans to average: 10
Electric dark correction enabled: true
Nonlinearity correction enabled: false
Boxcar width: 0
XAxis mode: Raman Shifts
Number of Pixels in Spectrum: 1044
>>>>>Begin Spectral Data<<<<<
46.04893	1.075
50.45542	1.375
54.85868	-0.925
59.25871	0.275
63.6555	25.875
68.04907	29.875
72.43941	27.875
76.82654	33.675
81.21044	32.475
85.59113	32.775
89.96862	37.475
94.34289	38.375
98.71396	40.675
103.08183	35.975
107.4465	39.975
111.80798	42.475
116.16626	42.275
120.52136	44.375
124.87327	47.475
129.222	41.975
133.56755	45.575
137.90993	50.275
142.24913	51.275
146.58517	58.775
150.91804	64.975
155.24774	73.575
159.57429	90.575
163.89768	108.875
168.21792	140.775
172.53501	185.875
176.84895	251.075
181.15975	347.175
185.46741	492.075
189.77193	682.375
194.07331	920.575
198.37157	1221.975
202.6667	1553.275
206.9587	1866.475
211.24758	2208.875
215.53334	2548.475
219.81599	2918.475
224.09553	3303.975
228.37195	3723.175
232.64527	4180.575
236.91549	4676.875
241.18261	5194.475
245.44663	5695.175
249.70755	6152.175
253.96539	6538.275
258.22014	6812.875
262.4718	6961.375
266.72039	6951.775
270.96589	6856.575
275.20832	6639.175
279.44768	6352.775
283.68397	6043.875
287.91719	5722.075
292.14735	5417.675
296.37445	5124.675
300.59849	4893.075
304.81948	4684.275
309.03742	4497.775
313.25231	4382.775
317.46415	4252.475
321.67296	4149.075
325.87872	4086.275
330.08145	4027.875
334.28114	3974.275
338.47781	3954.775
342.67145	3909.375
346.86207	3878.675
351.04966	3856.575
355.23424	3812.575
359.4158	3796.775
363.59435	3742.275
367.76989	3688.575
371.94243	3634.875
376.11196	3583.875
380.27849	3518.875
384.44203	3480.875
388.60257	3406.675
392.76012	3368.675
396.91468	3334.075
401.06626	3309.475
405.21485	3284.275
409.36047	3280.175
413.50311	3262.775
417.64277	3252.275
421.77947	3248.775
425.9132	3259.175
430.04396	3290.275
434.17176	3324.575
438.2966	3367.975
442.41849	3434.975
446.53742	3457.475
450.6534	3482.675
454.76644	3498.275
458.87653	3498.875
462.98368	3487.775
467.08789	3464.075
471.18916	3452.575
475.2875	3432.875
479.38291	3377.475
483.4754	3352.575
487.56496	3296.275
491.6516	3273.275
495.73531	3260.475
499.81612	3211.075
503.89401	3195.475
507.96899	3197.275
512.04106	3187.475
516.11023	3173.475
520.1765	3204.075
524.23987	3230.475
528.30034	3287.875
532.35792	3350.875
536.41261	3400.175
540.46441	3455.575
544.51333	3504.175
548.55936	3541.275
552.60252	3576.375
556.64279	3633.375
560.6802	3665.575
564.71473	3685.975
568.7464	3687.975
572.7752	3664.175
576.80114	3590.475
580.82422	3518.675
584.84444	3441.975
588.86181	3346.975
592.87633	3305.775
596.888	3290.775
600.89682	3308.275
604.9028	3361.475
608.90594	3458.275
612.90624	3600.075
616.90371	3680.575
620.89834	3730.575
624.89015	3711.275
628.87913	3647.875
632.86528	3529.675
636.84862	3410.075
640.82913	3322.675
644.80683	3272.975
648.78172	3280.575
652.75379	3288.575
656.72306	3342.375
660.68952	3404.675
664.65319	3514.775
668.61405	3628.175
672.57211	3793.475
676.52738	3985.175
680.47986	4131.575
684.42955	4249.475
688.37646	4280.275
692.32058	4277.475
696.26192	4249.475
700.20048	4189.275
704.13626	4149.675
708.06928	4095.175
711.99952	4014.075
715.927	3919.175
719.85171	3842.575
723.77365	3767.175
727.69284	3704.975
731.60928	3688.475
735.52295	3650.975
739.43388	3629.175
743.34206	3588.475
747.24749	3560.675
751.15017	3564.975
755.05012	3567.275
758.94733	3598.275
762.8418	3625.475
766.73354	3689.375
770.62254	3724.275
774.50882	3734.275
778.39237	3745.875
782.27321	3722.075
786.15132	3700.175
790.02671	3678.475
793.89938	3715.975
797.76935	3725.275
801.6366	3761.875
805.50115	3802.075
809.36299	3827.275
813.22213	3849.075
817.07857	3848.575
820.93231	3864.775
824.78336	3833.975
828.63172	3812.575
832.47738	3788.375
836.32036	3784.375
840.16066	3789.175
843.99827	3767.075
847.8332	3754.375
851.66546	3735.075
855.49504	3725.975
859.32195	3743.375
863.1462	3779.675
866.96777	3789.875
870.78668	3821.475
874.60293	3852.675
878.41652	3882.175
882.22745	3894.675
886.03573	3996.575
889.84136	4068.275
893.64433	4196.375
897.44466	4326.575
901.24235	4508.475
905.0374	4693.075
908.8298	4911.775
912.61957	5169.375
916.40671	5391.875
920.19121	5623.675
923.97308	5802.875
927.75233	5931.075
931.52895	5938.675
935.30295	5880.175
939.07433	5676.475
942.84309	5442.175
946.60924	5242.375
950.37278	5067.875
954.13371	4931.675
957.89203	4818.175
961.64774	4730.475
965.40086	4666.475
969.15137	4601.875
972.89929	4544.575
976.64461	4488.775
980.38733	4426.075
984.12747	4397.575
987.86502	4351.975
991.59999	4333.075
995.33237	4315.975
999.06217	4322.775
1002.78939	4332.975
1006.51404	4339.375
1010.23611	4354.575
1013.95561	4409.875
1017.67255	4396.975
1021.38692	4425.875
1025.09872	4448.775
1028.80796	4481.675
1032.51465	4538.475
1036.21877	4642.875
1039.92035	4752.375
1043.61937	4912.875
1047.31584	5068.175
1051.00976	5170.675
1054.70114	5175.075
1058.38998	5052.875
1062.07627	4820.275
1065.76003	4607.675
1069.44126	4386.875
1073.11995	4210.975
1076.79611	4090.175
1080.46974	3994.275
1084.14085	3918.175
1087.80943	3872.775
1091.47549	3827.875
1095.13903	3790.475
1098.80005	3758.775
1102.45857	3744.775
1106.11456	3712.375
1109.76805	3709.075
1113.41903	3725.175
1117.06751	3718.375
1120.71348	3720.375
1124.35696	3733.475
1127.99793	3754.775
1131.63641	3776.975
1135.2724	3779.775
1138.90589	3787.475
1142.5369	3788.675
1146.16542	3773.675
1149.79145	3769.775
1153.415	3768.175
1157.03607	3768.875
1160.65467	3765.075
1164.27079	3779.575
1167.88443	3813.775
1171.49561	3843.275
1175.10432	3880.475
1178.71056	3932.675
1182.31434	3993.275
1185.91565	4033.175
1189.51451	4044.475
1193.11091	4033.875
1196.70485	4024.675
1200.29634	3983.675
1203.88538	3948.575
1207.47197	3941.075
1211.05612	3921.175
1214.63782	3920.475
1218.21708	3927.975
1221.79391	3948.075
1225.36829	3974.375
1228.94024	4016.975
1232.50976	4026.275
1236.07685	4073.675
1239.6415	4087.875
1243.20374	4133.475
1246.76355	4167.075
1250.32093	4221.675
1253.8759	4270.475
1257.42845	4305.375
1260.97859	4351.275
1264.52631	4401.475
1268.07163	4463.075
1271.61453	4512.575
1275.15503	4575.275
1278.69312	4643.275
1282.22882	4734.075
1285.76211	4847.775
1289.29301	4953.275
1292.82151	5045.375
1296.34761	5135.575
1299.87133	5224.375
1303.39266	5292.975
1306.9116	5328.775
1310.42815	5334.275
1313.94233	5329.675
1317.45412	5312.175
1320.96354	5272.175
1324.47058	5251.275
1327.97525	5201.575
1331.47754	5236.875
1334.97747	5253.575
1338.47502	5294.375
1341.97022	5363.875
1345.46305	5455.375
1348.95352	5569.875
1352.44163	5646.975
1355.92738	5757.175
1359.41078	5873.575
1362.89183	5967.575
1366.37053	6003.575
1369.84688	5969.575
1373.32088	5915.275
1376.79254	5861.775
1380.26186	5843.975
1383.72883	5846.675
1387.19347	5855.275
1390.65578	5829.275
1394.11575	5859.175
1397.57339	5857.675
1401.0287	5864.475
1404.48168	5849.775
1407.93234	5807.675
1411.38068	5762.275
1414.82669	5738.775
1418.27039	5686.075
1421.71177	5637.375
1425.15083	5560.175
1428.58758	5505.075
1432.02203	5454.675
1435.45416	5387.175
1438.88399	5343.375
1442.31151	5295.575
1445.73673	5281.175
1449.15965	5247.375
1452.58027	5245.775
1455.9986	5243.375
1459.41463	5250.575
1462.82837	5249.475
1466.23982	5259.775
1469.64898	5282.175
1473.05586	5300.975
1476.46045	5295.675
1479.86276	5314.175
1483.26279	5318.175
1486.66054	5309.175
1490.05602	5296.975
1493.44922	5281.675
1496.84016	5271.375
1500.22882	5246.375
1503.61521	5225.475
1506.99934	5244.475
1510.38121	5235.675
1513.76081	5213.375
1517.13816	5160.875
1520.51324	5074.675
1523.88607	5001.275
1527.25665	4921.075
1530.62498	4868.975
1533.99105	4820.175
1537.35488	4765.975
1540.71647	4731.775
1544.07581	4680.275
1547.4329	4640.775
1550.78776	4590.875
1554.14038	4527.575
1557.49077	4498.875
1560.83892	4453.575
1564.18484	4390.375
1567.52853	4335.075
1570.86999	4292.375
1574.20922	4276.875
1577.54624	4225.575
1580.88103	4177.975
1584.2136	4125.275
1587.54395	4088.275
1590.87208	4074.075
1594.19801	4045.975
1597.52172	4017.575
1600.84321	4022.175
1604.16251	4007.075
1607.47959	3988.975
1610.79447	3983.275
1614.10715	3967.275
1617.41763	3943.575
1620.7259	3941.175
1624.03199	3928.275
1627.33587	3908.675
1630.63757	3892.975
1633.93707	3875.475
1637.23439	3852.675
1640.52951	3841.675
1643.82246	3825.875
1647.11321	3782.475
1650.40179	3750.475
1653.68819	3702.375
1656.97241	3632.475
1660.25446	3564.875
1663.53433	3484.475
1666.81203	3432.975
1670.08756	3398.375
1673.36092	3382.575
1676.63211	3375.675
1679.90115	3352.475
1683.16801	3327.875
1686.43272	3297.575
1689.69527	3275.275
1692.95567	3243.275
1696.2139	3154.175
1699.46999	3089.875
1702.72392	3062.575
1705.97571	3082.775
1709.22535	3154.575
1712.47284	3186.875
1715.71819	3178.075
1718.96139	3207.075
1722.20246	3210.275
1725.44139	3208.575
1728.67818	3184.175
1731.91284	3184.875
1735.14537	3187.075
1738.37576	3165.075
1741.60403	3164.875
1744.83017	3157.575
1748.05418	3120.375
1751.27607	3118.475
1754.49584	3103.275
1757.71349	3077.875
1760.92903	3039.875
1764.14244	3037.975
1767.35375	3040.175
1770.56294	3027.075
1773.77002	3037.975
1776.97499	3060.475
1780.17785	3085.375
1783.37861	3082.475
1786.57727	3103.775
1789.77382	3105.575
1792.96828	3088.775
1796.16064	3093.075
1799.3509	3083.475
1802.53907	3090.075
1805.72514	3071.475
1808.90913	3064.175
1812.09102	3054.875
1815.27083	3057.475
1818.44856	3061.575
1821.6242	3039.775
1824.79776	3051.875
1827.96924	3035.575
1831.13864	3032.075
1834.30597	3035.475
1837.47122	3043.675
1840.6344	3034.075
1843.7955	3035.675
1846.95454	3031.375
1850.11151	3052.875
1853.26642	3027.775
1856.41926	3028.075
1859.57004	3037.075
1862.71876	3018.575
1865.86542	3028.875
1869.01003	3029.275
1872.15258	3015.475
1875.29308	3014.875
1878.43152	3011.175
1881.56792	3013.175
1884.70227	2996.175
1887.83457	2998.175
1890.96482	3000.075
1894.09304	3000.575
1897.21921	2986.475
1900.34335	2999.275
1903.46544	3000.075
1906.58551	3001.275
1909.70353	2991.075
1912.81953	2988.075
1915.93349	2984.075
1919.04543	2977.675
1922.15534	2962.675
1925.26322	2978.875
1928.36908	2979.675
1931.47292	2955.775
1934.57473	2970.175
1937.67453	2960.875
1940.77232	2953.275
1943.86808	2941.675
1946.96184	2945.975
1950.05358	2932.175
1953.14331	2944.475
1956.23103	2915.775
1959.31675	2923.675
1962.40046	2919.375
1965.48217	2900.275
1968.56188	2896.275
1971.63959	2892.875
1974.7153	2879.375
1977.78901	2891.675
1980.86073	2874.275
1983.93046	2853.075
1986.99819	2851.375
1990.06394	2850.475
1993.1277	2837.575
1996.18947	2846.275
1999.24925	2836.675
2002.30706	2821.275
2005.36288	2827.875
2008.41672	2833.075
2011.46859	2819.575
2014.51848	2813.975
2017.56639	2826.075
2020.61233	2820.675
2023.6563	2809.875
2026.6983	2816.975
2029.73833	2818.375
2032.7764	2831.475
2035.8125	2848.175
2038.84664	2857.375
2041.87881	2870.775
2044.90903	2877.075
2047.93729	2899.375
2050.96359	2925.375
2053.98794	2957.475
2057.01034	2963.975
2060.03078	2989.675
2063.04927	3004.875
2066.06582	3048.075
2069.08042	3058.175
2072.09307	3078.275
2075.10378	3098.775
2078.11255	3126.075
2081.11938	3129.875
2084.12426	3122.875
2087.12722	3116.075
2090.12824	3126.975
2093.12732	3104.875
2096.12447	3098.275
2099.11969	3064.775
2102.11299	3047.575
2105.10435	3031.775
2108.09379	3006.375
2111.08131	2995.575
2114.0669	2970.775
2117.05057	2941.575
2120.03233	2894.075
2123.01216	2877.075
2125.99008	2873.175
2128.96609	2847.175
2131.94018	2834.475
2134.91236	2826.975
2137.88263	2804.475
2140.851	2794.975
2143.81746	2781.775
2146.78201	2781.775
2149.74466	2763.475
2152.7054	2767.675
2155.66425	2758.475
2158.6212	2750.075
2161.57625	2760.475
2164.52941	2759.875
2167.48067	2756.275
2170.43004	2744.075
2173.37752	2739.075
2176.32311	2753.275
2179.26681	2731.675
2182.20863	2734.375
2185.14856	2742.275
2188.08661	2742.075
2191.02278	2728.875
2193.95707	2743.475
2196.88948	2731.775
2199.82001	2738.975
2202.74867	2719.975
2205.67545	2725.275
2208.60037	2716.675
2211.52341	2722.175
2214.44458	2714.475
2217.36388	2708.175
2220.28132	2694.275
2223.1969	2694.975
2226.11061	2696.675
2229.02246	2686.075
2231.93245	2678.675
2234.84058	2681.875
2237.74686	2674.575
2240.65128	2668.675
2243.55385	2658.175
2246.45456	2667.775
2249.35343	2664.975
2252.25044	2672.475
2255.14561	2664.775
2258.03893	2648.175
2260.93041	2647.275
2263.82004	2637.775
2266.70783	2624.875
2269.59378	2634.575
2272.4779	2627.675
2275.36017	2628.475
2278.24061	2617.875
2281.11922	2613.275
2283.996	2609.875
2286.87094	2606.475
2289.74405	2601.075
2292.61534	2596.275
2295.4848	2582.775
2298.35243	2596.675
2301.21824	2593.575
2304.08223	2592.475
2306.94439	2585.575
2309.80474	2590.175
2312.66327	2580.375
2315.51999	2586.175
2318.37489	2574.275
2321.22797	2567.075
2324.07925	2575.875
2326.92871	2564.975
2329.77637	2564.375
2332.62222	2566.975
2335.46626	2545.775
2338.3085	2545.375
2341.14893	2548.575
2343.98756	2535.475
2346.8244	2526.875
2349.65943	2532.075
2352.49267	2543.675
2355.32411	2534.075
2358.15376	2521.175
2360.98161	2535.375
2363.80768	2517.375
2366.63195	2514.675
2369.45444	2524.675
2372.27514	2516.475
2375.09405	2511.975
2377.91118	2505.875
2380.72652	2505.275
2383.54009	2505.875
2386.35187	2498.275
2389.16188	2481.375
2391.97011	2483.375
2394.77657	2481.375
2397.58125	2480.775
2400.38416	2477.875
2403.18529	2466.575
2405.98466	2476.875
2408.78226	2455.775
2411.57809	2457.575
2414.37216	2466.675
2417.16446	2454.775
2419.955	2458.175
2422.74378	2458.775
2425.5308	2458.175
2428.31606	2444.975
2431.09956	2446.975
2433.88131	2440.775
2436.6613	2454.375
2439.43954	2441.975
2442.21603	2446.075
2444.99077	2439.875
2447.76377	2429.875
2450.53501	2428.275
2453.30451	2437.875
2456.07226	2426.375
2458.83827	2419.775
2461.60254	2421.375
2464.36507	2406.275
2467.12586	2406.375
2469.88492	2421.475
2472.64224	2419.775
2475.39782	2406.275
2478.15167	2400.275
2480.90379	2412.875
2483.65417	2414.375
2486.40283	2401.675
2489.14976	2399.775
2491.89497	2402.475
2494.63845	2388.275
2497.3802	2376.875
2500.12024	2378.875
2502.85855	2382.175
2505.59514	2395.775
2508.33002	2401.475
2511.06318	2385.275
2513.79462	2381.275
2516.52435	2369.875
2519.25237	2374.875
2521.97867	2368.275
2524.70327	2369.275
2527.42616	2354.375
2530.14734	2364.975
2532.86681	2366.475
2535.58458	2348.875
2538.30065	2348.375
2541.01501	2359.675
2543.72768	2359.575
2546.43864	2342.975
2549.14791	2341.475
2551.85548	2338.275
2554.56136	2331.575
2557.26554	2336.875
2559.96803	2331.375
2562.66883	2332.075
2565.36794	2319.975
2568.06536	2309.375
2570.7611	2319.575
2573.45514	2327.075
2576.14751	2300.175
2578.83819	2311.475
2581.52719	2303.975
2584.21451	2297.175
2586.90015	2299.375
2589.58411	2290.475
2592.2664	2298.675
2594.94701	2290.675
2597.62594	2274.375
2600.30321	2270.475
2602.9788	2273.075
2605.65273	2260.775
2608.32498	2274.675
2610.99557	2262.575
2613.66449	2266.475
2616.33175	2253.675
2618.99734	2259.575
2621.66128	2250.575
2624.32355	2246.475
2626.98416	2235.175
2629.64311	2245.775
2632.30041	2243.775
2634.95605	2234.875
2637.61004	2233.975
2640.26238	2236.575
2642.91306	2235.575
2645.56209	2230.475
2648.20948	2231.275
2650.85521	2230.975
2653.4993	2233.275
2656.14175	2228.575
2658.78255	2238.575
2661.42171	2236.875
2664.05923	2249.175
2666.6951	2226.375
2669.32934	2242.075
2671.96194	2231.775
2674.59291	2239.775
2677.22224	2232.575
2679.84993	2234.675
2682.476	2246.775
2685.10043	2235.175
2687.72324	2235.975
2690.34441	2237.175
2692.96396	2240.075
2695.58188	2236.975
2698.19818	2230.575
2700.81285	2236.175
2703.4259	2217.675
2706.03733	2177.175
2708.64714	2199.375
2711.25533	2219.375
2713.86191	2223.975
2716.46687	2226.075
2719.07021	2233.375
2721.67194	2225.975
2724.27206	2243.275
2726.87057	2234.775
2729.46747	2244.275
2732.06276	2232.975
2734.65644	2236.675
2737.24852	2234.175
2739.83899	2234.875
2742.42786	2225.575
2745.01513	2223.175
2747.60079	2221.175
2750.18486	2226.375
2752.76733	2219.475
2755.3482	2214.575
2757.92747	2224.575
2760.50515	2218.975
2763.08123	2205.575
2765.65573	2214.475
2768.22863	2206.475
2770.79994	2214.875
2773.36967	2202.275
2775.9378	2197.875
2778.50435	2205.675
2781.06932	2198.675
2783.6327	2191.575
2786.1945	2176.975
2788.75471	2187.375
2791.31335	2171.175
2793.87041	2166.975
2796.42589	2175.175
2798.97979	2185.175
2801.53212	2162.775
2804.08288	2165.375
2806.63206	2161.975
2809.17967	2162.975
2811.72571	2147.875
2814.27018	2147.475
2816.81308	2135.275
2819.35442	2132.375
2821.89419	2135.975
2824.43239	2128.975
2826.96904	2132.975
2829.50412	2130.675
2832.03763	2123.675
2834.56959	2125.575
2837.1	2121.875
2839.62884	2108.775
2842.15613	2117.575
2844.68186	2120.375
2847.20604	2111.175
2849.72867	2112.475
2852.24974	2113.575
2854.76927	2104.675
2857.28724	2085.875
2859.80367	2095.975
2862.31855	2108.875
2864.83189	2100.175
2867.34368	2111.075
2869.85393	2108.875
2872.36264	2118.275
2874.8698	2114.775
2877.37543	2120.475
2879.87952	2138.975
2882.38207	2143.275
2884.88308	2138.675
2887.38256	2156.775
2889.88051	2163.075
2892.37692	2165.975
2894.8718	2179.075
2897.36515	2186.275
2899.85698	2187.275
2902.34727	2214.175
2904.83604	2223.575
2907.32328	2227.175
2909.809	2241.775
2912.29319	2253.675
2914.77587	2264.175
2917.25702	2276.775
2919.73665	2277.475
2922.21476	2287.675
2924.69136	2295.075
2927.16644	2304.275
2929.64	2293.575
2932.11205	2294.375
2934.58258	2290.175
2937.05161	2287.475
2939.51912	2282.475
2941.98513	2268.975
2944.44962	2257.375
2946.91261	2244.575
2949.37409	2241.975
2951.83407	2222.775
2954.29254	2209.175
2956.74951	2188.575
2959.20498	2190.475
2961.65895	2162.575
2964.11142	2162.475
2966.56239	2139.775
2969.01186	2149.375
2971.45984	2148.075
2973.90632	2135.875
2976.35131	2118.875
2978.7948	2114.575
2981.23681	2105.075
2983.67732	2106.175
2986.11635	2090.175
2988.55388	2092.075
2990.98993	2085.475
2993.4245	2085.275
2995.85758	2074.675
2998.28917	2068.675
3000.71928	2064.375
3003.14791	2068.075
3005.57506	2060.975
3008.00073	2047.575
3010.42493	2047.175
3012.84764	2052.975
3015.26888	2057.375
3017.68865	2044.975
3020.10694	2045.375
3022.52376	2035.475
3024.9391	2038.375
3027.35298	2048.475
3029.76539	2043.175
3032.17632	2035.575
3034.5858	2025.675
3036.9938	2031.475
3039.40034	2019.875
3041.80542	2025.975
3044.20903	2026.575
3046.61118	2017.675
3049.01187	2010.875
3051.4111	2013.175
3053.80888	2004.875
3056.20519	2012.375
3058.60005	2016.175
3060.99345	1999.575
3063.3854	2001.175
3065.7759	1987.375
3068.16494	1989.275
3070.55254	1995.075
3072.93868	1998.375
3075.32338	1999.575
3077.70662	1989.575
3080.08842	1987.375
3082.46878	1999.675
3084.84769	1986.475
3087.22515	2000.175
3089.60118	1999.775
3091.97576	2008.375
3094.3489	2009.375
3096.72061	2013.675
3099.09087	2013.775
3101.4597	2008.575
3103.82709	2013.375
3106.19305	2023.175
3108.55757	2021.375
3110.92066	2020.975
3113.28232	2024.375
3115.64255	2019.575
3118.00134	2028.675
3120.35871	2022.675
3122.71466	2019.675
3125.06917	2025.175
3127.42226	2020.375
3129.77393	2033.875
3132.12417	2025.075
3134.47299	2032.475
3136.82039	2034.975
3139.16636	2042.175
3141.51092	2038.275
3143.85406	2041.375
3146.19579	2048.575
3148.53609	2059.575
3150.87499	2082.975
3153.21246	2078.475
3155.54853	2088.375
3157.88318	2091.675
3160.21642	2095.275
3162.54826	2089.475
3164.87868	2094.175
3167.2077	2108.975
3169.5353	2104.475
3171.86151	2104.175
3174.18631	2116.175
3176.5097	2114.775
3178.83169	2115.675
3181.15228	2118.875
3183.47147	2120.575
3185.78926	2114.675
3188.10565	2115.175
3190.42065	2119.975
3192.73424	2129.175
3195.04645	2125.975
3197.35725	2129.475
3199.66667	2128.275
3201.97469	2137.275
3204.28132	2148.075
3206.58656	2155.375
3208.8904	2159.175
3211.19287	2153.775
3213.49394	2163.575
3215.79363	2170.075
3218.09193	2165.875
3220.38884	2159.375
3222.68438	2153.575
3224.97853	2156.475
3227.2713	2165.775
3229.56269	2157.075
3231.8527	2171.975
3234.14133	2166.675
3236.42858	2166.175
