Data from AgNPs_FTO_APTES_UA_1uM_CRN_1uM_R6G_10uM_NaF_0.1M_Addition_RamanShift__31__12-48-19-519.txt Node

Date: Thu Jan 27 12:48:19 GMT 2022
User: TCL
Spectrometer: QEP01345
Trigger mode: 4
Integration Time (sec): 7.000000E0
Scans to average: 10
Electric dark correction enabled: true
Nonlinearity correction enabled: false
Boxcar width: 0
XAxis mode: Raman Shifts
Number of Pixels in Spectrum: 1044
>>>>>Begin Spectral Data<<<<<
46.04893	0.1125
50.45542	0.3125
54.85868	-0.7875
59.25871	-0.7875
63.6555	34.4125
68.04907	35.2125
72.43941	39.0125
76.82654	41.0125
81.21044	43.1125
85.59113	45.2125
89.96862	43.1125
94.34289	45.5125
98.71396	49.6125
103.08183	49.8125
107.4465	52.4125
111.80798	49.0125
116.16626	50.5125
120.52136	53.6125
124.87327	52.3125
129.222	52.0125
133.56755	55.5125
137.90993	52.7125
142.24913	57.2125
146.58517	59.6125
150.91804	70.1125
155.24774	78.2125
159.57429	87.6125
163.89768	109.3125
168.21792	141.4125
172.53501	177.8125
176.84895	241.3125
181.15975	328.8125
185.46741	446.2125
189.77193	615.9125
194.07331	817.7125
198.37157	1043.7125
202.6667	1298.9125
206.9587	1537.0125
211.24758	1779.5125
215.53334	2033.0125
219.81599	2333.0125
224.09553	2658.3125
228.37195	3023.0125
232.64527	3424.9125
236.91549	3805.3125
241.18261	4163.8125
245.44663	4414.4125
249.70755	4626.7125
253.96539	4787.6125
258.22014	4967.2125
262.4718	5110.3125
266.72039	5234.8125
270.96589	5329.5125
275.20832	5336.3125
279.44768	5283.0125
283.68397	5190.9125
287.91719	5134.3125
292.14735	5160.6125
296.37445	5283.5125
300.59849	5501.8125
304.81948	5791.5125
309.03742	6022.9125
313.25231	6007.0125
317.46415	5697.7125
321.67296	5194.4125
325.87872	4769.8125
330.08145	4597.7125
334.28114	4567.9125
338.47781	4658.8125
342.67145	4816.0125
346.86207	5063.2125
351.04966	5402.7125
355.23424	5835.0125
359.4158	6176.2125
363.59435	6316.1125
367.76989	6345.6125
371.94243	6326.3125
376.11196	6252.4125
380.27849	6204.8125
384.44203	6100.9125
388.60257	6004.2125
392.76012	5924.2125
396.91468	6000.8125
401.06626	6187.6125
405.21485	6333.6125
409.36047	6225.9125
413.50311	5842.9125
417.64277	5490.4125
421.77947	5285.3125
425.9132	5180.8125
430.04396	5156.2125
434.17176	5190.9125
438.2966	5280.6125
442.41849	5450.1125
446.53742	5644.3125
450.6534	5837.8125
454.76644	5959.9125
458.87653	5967.9125
462.98368	5878.0125
467.08789	5759.2125
471.18916	5592.4125
475.2875	5443.8125
479.38291	5311.8125
483.4754	5221.4125
487.56496	5157.1125
491.6516	5082.9125
495.73531	5064.1125
499.81612	5054.8125
503.89401	5142.7125
507.96899	5221.1125
512.04106	5311.1125
516.11023	5417.3125
520.1765	5518.4125
524.23987	5497.9125
528.30034	5371.4125
532.35792	5242.9125
536.41261	5088.9125
540.46441	4934.6125
544.51333	4857.6125
548.55936	4900.4125
552.60252	5021.3125
556.64279	5151.6125
560.6802	5213.9125
564.71473	5308.9125
568.7464	5559.2125
572.7752	5738.5125
576.80114	5593.9125
580.82422	5385.6125
584.84444	5302.7125
588.86181	5316.0125
592.87633	5331.6125
596.888	5398.2125
600.89682	5634.9125
604.9028	6304.3125
608.90594	8155.2125
612.90624	10831.7125
616.90371	10612.4125
620.89834	7227.9125
624.89015	5514.9125
628.87913	5173.8125
632.86528	5160.3125
636.84862	5244.1125
640.82913	5177.3125
644.80683	4963.2125
648.78172	4805.9125
652.75379	4838.3125
656.72306	5099.9125
660.68952	5432.3125
664.65319	5384.3125
668.61405	5042.5125
672.57211	4877.1125
676.52738	4849.3125
680.47986	4830.9125
684.42955	4797.9125
688.37646	4774.9125
692.32058	4787.7125
696.26192	4850.1125
700.20048	4899.6125
704.13626	4976.9125
708.06928	4963.7125
711.99952	4895.8125
715.927	4881.6125
719.85171	4861.3125
723.77365	4871.2125
727.69284	4807.1125
731.60928	4783.7125
735.52295	4785.2125
739.43388	4820.6125
743.34206	4859.6125
747.24749	4857.3125
751.15017	4917.2125
755.05012	5019.5125
758.94733	5268.4125
762.8418	5838.2125
766.73354	6888.0125
770.62254	8063.4125
774.50882	8713.0125
778.39237	8457.3125
782.27321	7312.5125
786.15132	6083.6125
790.02671	5377.0125
793.89938	5070.5125
797.76935	4941.6125
801.6366	4880.4125
805.50115	4833.4125
809.36299	4796.7125
813.22213	4777.1125
817.07857	4768.9125
820.93231	4766.5125
824.78336	4782.4125
828.63172	4819.4125
832.47738	4831.4125
836.32036	4836.6125
840.16066	4787.8125
843.99827	4747.8125
847.8332	4734.8125
851.66546	4750.6125
855.49504	4742.0125
859.32195	4723.2125
863.1462	4698.9125
866.96777	4672.2125
870.78668	4670.7125
874.60293	4690.5125
878.41652	4698.6125
882.22745	4732.3125
886.03573	4764.6125
889.84136	4744.7125
893.64433	4714.1125
897.44466	4700.6125
901.24235	4715.4125
905.0374	4706.7125
908.8298	4664.5125
912.61957	4664.8125
916.40671	4681.6125
920.19121	4729.5125
923.97308	4779.0125
927.75233	4859.3125
931.52895	4909.1125
935.30295	4865.7125
939.07433	4710.0125
942.84309	4580.9125
946.60924	4497.6125
950.37278	4444.9125
954.13371	4433.4125
957.89203	4405.6125
961.64774	4401.0125
965.40086	4378.3125
969.15137	4369.1125
972.89929	4352.5125
976.64461	4348.8125
980.38733	4338.9125
984.12747	4348.5125
987.86502	4365.5125
991.59999	4404.6125
995.33237	4446.7125
999.06217	4549.7125
1002.78939	4689.6125
1006.51404	4808.7125
1010.23611	4918.0125
1013.95561	5011.1125
1017.67255	4998.7125
1021.38692	4925.6125
1025.09872	4809.6125
1028.80796	4718.1125
1032.51465	4737.7125
1036.21877	4781.6125
1039.92035	4859.3125
1043.61937	4878.1125
1047.31584	4875.6125
1051.00976	4825.1125
1054.70114	4789.2125
1058.38998	4767.6125
1062.07627	4791.7125
1065.76003	4816.2125
1069.44126	4845.2125
1073.11995	4906.0125
1076.79611	4972.5125
1080.46974	5053.8125
1084.14085	5201.4125
1087.80943	5349.9125
1091.47549	5412.5125
1095.13903	5302.3125
1098.80005	5084.7125
1102.45857	4895.9125
1106.11456	4840.3125
1109.76805	4851.2125
1113.41903	4972.4125
1117.06751	5137.9125
1120.71348	5380.1125
1124.35696	5641.1125
1127.99793	5869.8125
1131.63641	5876.0125
1135.2724	5581.5125
1138.90589	5275.0125
1142.5369	5097.0125
1146.16542	4955.2125
1149.79145	4897.9125
1153.415	4893.9125
1157.03607	4941.6125
1160.65467	5044.5125
1164.27079	5235.9125
1167.88443	5509.7125
1171.49561	5992.4125
1175.10432	6836.5125
1178.71056	7950.4125
1182.31434	8804.6125
1185.91565	9025.6125
1189.51451	8839.6125
1193.11091	8245.9125
1196.70485	7492.6125
1200.29634	6872.5125
1203.88538	6434.8125
1207.47197	5982.0125
1211.05612	5620.4125
1214.63782	5412.4125
1218.21708	5354.9125
1221.79391	5389.4125
1225.36829	5454.2125
1228.94024	5548.3125
1232.50976	5628.4125
1236.07685	5646.4125
1239.6415	5659.2125
1243.20374	5630.9125
1246.76355	5619.4125
1250.32093	5657.3125
1253.8759	5770.3125
1257.42845	5942.6125
1260.97859	6167.8125
1264.52631	6373.5125
1268.07163	6574.3125
1271.61453	6790.0125
1275.15503	6955.8125
1278.69312	6981.3125
1282.22882	7007.1125
1285.76211	7179.2125
1289.29301	7431.7125
1292.82151	7682.1125
1296.34761	7923.6125
1299.87133	8223.9125
1303.39266	8800.8125
1306.9116	9800.5125
1310.42815	11060.1125
1313.94233	11949.9125
1317.45412	11846.3125
1320.96354	11118.2125
1324.47058	10215.6125
1327.97525	9421.4125
1331.47754	8965.3125
1334.97747	8763.5125
1338.47502	8700.7125
1341.97022	8802.1125
1345.46305	9066.6125
1348.95352	9563.9125
1352.44163	10334.2125
1355.92738	11415.3125
1359.41078	13074.0125
1362.89183	14790.7125
1366.37053	14643.9125
1369.84688	12426.4125
1373.32088	10098.9125
1376.79254	8547.6125
1380.26186	7820.6125
1383.72883	7476.5125
1387.19347	7192.0125
1390.65578	6870.1125
1394.11575	6582.5125
1397.57339	6433.3125
1401.0287	6454.4125
1404.48168	6582.6125
1407.93234	6711.6125
1411.38068	6822.9125
1414.82669	6844.8125
1418.27039	6719.5125
1421.71177	6593.3125
1425.15083	6450.9125
1428.58758	6400.3125
1432.02203	6401.6125
1435.45416	6491.5125
1438.88399	6543.9125
1442.31151	6515.6125
1445.73673	6525.5125
1449.15965	6534.7125
1452.58027	6484.6125
1455.9986	6397.0125
1459.41463	6387.4125
1462.82837	6415.4125
1466.23982	6522.1125
1469.64898	6644.1125
1473.05586	6744.5125
1476.46045	6821.1125
1479.86276	6913.9125
1483.26279	7035.5125
1486.66054	7239.9125
1490.05602	7482.2125
1493.44922	7849.8125
1496.84016	8417.5125
1500.22882	9224.8125
1503.61521	10320.4125
1506.99934	11614.5125
1510.38121	12911.9125
1513.76081	13633.7125
1517.13816	13119.1125
1520.51324	11543.7125
1523.88607	9806.7125
1527.25665	8575.3125
1530.62498	7923.2125
1533.99105	7511.2125
1537.35488	7229.8125
1540.71647	7076.9125
1544.07581	7012.8125
1547.4329	6950.4125
1550.78776	6885.4125
1554.14038	6843.3125
1557.49077	6851.1125
1560.83892	6985.7125
1564.18484	7173.0125
1567.52853	7380.4125
1570.86999	7613.6125
1574.20922	7774.3125
1577.54624	7767.1125
1580.88103	7416.7125
1584.2136	6888.0125
1587.54395	6609.5125
1590.87208	6703.7125
1594.19801	7107.9125
1597.52172	7685.9125
1600.84321	8006.9125
1604.16251	7825.8125
1607.47959	7311.3125
1610.79447	6701.2125
1614.10715	6064.0125
1617.41763	5598.8125
1620.7259	5326.7125
1624.03199	5196.8125
1627.33587	5194.4125
1630.63757	5342.6125
1633.93707	5614.6125
1637.23439	6054.0125
1640.52951	6672.4125
1643.82246	7492.9125
1647.11321	8434.4125
1650.40179	9143.9125
1653.68819	8946.9125
1656.97241	7810.1125
1660.25446	6411.8125
1663.53433	5409.7125
1666.81203	4860.3125
1670.08756	4534.2125
1673.36092	4344.0125
1676.63211	4246.4125
1679.90115	4164.8125
1683.16801	4116.9125
1686.43272	4065.2125
1689.69527	4022.8125
1692.95567	3983.2125
1696.2139	3941.1125
1699.46999	3877.1125
1702.72392	3878.7125
1705.97571	3890.7125
1709.22535	3909.2125
1712.47284	3937.5125
1715.71819	3968.7125
1718.96139	3981.6125
1722.20246	3982.2125
1725.44139	3965.1125
1728.67818	3920.7125
1731.91284	3878.6125
1735.14537	3854.1125
1738.37576	3823.2125
1741.60403	3806.1125
1744.83017	3787.4125
1748.05418	3755.6125
1751.27607	3741.1125
1754.49584	3725.1125
1757.71349	3691.0125
1760.92903	3684.3125
1764.14244	3673.9125
1767.35375	3667.9125
1770.56294	3655.2125
1773.77002	3655.0125
1776.97499	3655.2125
1780.17785	3660.7125
1783.37861	3666.6125
1786.57727	3673.2125
1789.77382	3660.8125
1792.96828	3671.1125
1796.16064	3643.3125
1799.3509	3660.1125
1802.53907	3654.8125
1805.72514	3641.1125
1808.90913	3622.4125
1812.09102	3607.0125
1815.27083	3617.9125
1818.44856	3594.6125
1821.6242	3604.0125
1824.79776	3585.2125
1827.96924	3585.6125
1831.13864	3571.1125
1834.30597	3560.0125
1837.47122	3552.4125
1840.6344	3568.7125
1843.7955	3568.7125
1846.95454	3565.4125
1850.11151	3553.2125
1853.26642	3555.4125
1856.41926	3552.1125
1859.57004	3574.3125
1862.71876	3565.9125
1865.86542	3565.4125
1869.01003	3572.9125
1872.15258	3579.9125
1875.29308	3581.4125
1878.43152	3581.7125
1881.56792	3585.2125
1884.70227	3589.5125
1887.83457	3593.7125
1890.96482	3583.9125
1894.09304	3594.3125
1897.21921	3595.1125
1900.34335	3587.3125
1903.46544	3592.5125
1906.58551	3594.0125
1909.70353	3577.0125
1912.81953	3574.1125
1915.93349	3592.0125
1919.04543	3578.8125
1922.15534	3563.3125
1925.26322	3563.2125
1928.36908	3537.2125
1931.47292	3533.8125
1934.57473	3507.8125
1937.67453	3500.4125
1940.77232	3489.9125
1943.86808	3464.6125
1946.96184	3428.2125
1950.05358	3414.7125
1953.14331	3402.9125
1956.23103	3385.9125
1959.31675	3368.3125
1962.40046	3361.8125
1965.48217	3332.4125
1968.56188	3337.9125
1971.63959	3328.7125
1974.7153	3317.5125
1977.78901	3316.2125
1980.86073	3300.4125
1983.93046	3284.2125
1986.99819	3275.3125
1990.06394	3258.3125
1993.1277	3247.9125
1996.18947	3235.5125
1999.24925	3231.6125
2002.30706	3216.7125
2005.36288	3197.3125
2008.41672	3197.4125
2011.46859	3175.4125
2014.51848	3162.1125
2017.56639	3153.6125
2020.61233	3138.6125
2023.6563	3150.3125
2026.6983	3135.4125
2029.73833	3127.1125
2032.7764	3114.5125
2035.8125	3103.6125
2038.84664	3081.6125
2041.87881	3096.0125
2044.90903	3082.3125
2047.93729	3085.4125
2050.96359	3082.4125
2053.98794	3059.7125
2057.01034	3069.1125
2060.03078	3050.3125
2063.04927	3058.4125
2066.06582	3047.6125
2069.08042	3049.6125
2072.09307	3046.0125
2075.10378	3040.8125
2078.11255	3020.3125
2081.11938	3047.7125
2084.12426	3037.0125
2087.12722	3034.2125
2090.12824	3029.6125
2093.12732	3023.2125
2096.12447	3040.0125
2099.11969	3028.6125
2102.11299	3030.3125
2105.10435	3036.5125
2108.09379	3017.7125
2111.08131	3011.4125
2114.0669	3029.4125
2117.05057	3031.1125
2120.03233	3026.7125
2123.01216	3024.6125
2125.99008	3026.2125
2128.96609	3028.2125
2131.94018	3037.7125
2134.91236	3033.3125
2137.88263	3010.4125
2140.851	3023.6125
2143.81746	3020.4125
2146.78201	3023.0125
2149.74466	3029.0125
2152.7054	3013.6125
2155.66425	3009.2125
2158.6212	3005.2125
2161.57625	3012.9125
2164.52941	3002.7125
2167.48067	2995.5125
2170.43004	3001.4125
2173.37752	2995.3125
2176.32311	2994.7125
2179.26681	2995.9125
2182.20863	2988.2125
2185.14856	2994.8125
2188.08661	2991.8125
2191.02278	2987.3125
2193.95707	2993.5125
2196.88948	2984.8125
2199.82001	2975.1125
2202.74867	2975.4125
2205.67545	2985.5125
2208.60037	2969.1125
2211.52341	2961.8125
2214.44458	2960.3125
2217.36388	2951.5125
2220.28132	2935.2125
2223.1969	2933.2125
2226.11061	2945.1125
2229.02246	2930.9125
2231.93245	2912.7125
2234.84058	2912.2125
2237.74686	2904.3125
2240.65128	2898.2125
2243.55385	2892.9125
2246.45456	2893.9125
2249.35343	2881.7125
2252.25044	2877.2125
2255.14561	2878.2125
2258.03893	2877.2125
2260.93041	2866.3125
2263.82004	2871.0125
2266.70783	2865.3125
2269.59378	2849.7125
2272.4779	2838.9125
2275.36017	2847.0125
2278.24061	2827.1125
2281.11922	2834.2125
2283.996	2818.4125
2286.87094	2812.2125
2289.74405	2792.5125
2292.61534	2806.9125
2295.4848	2784.0125
2298.35243	2799.1125
2301.21824	2788.4125
2304.08223	2786.7125
2306.94439	2784.4125
2309.80474	2785.3125
2312.66327	2778.7125
2315.51999	2776.5125
2318.37489	2780.9125
2321.22797	2769.0125
2324.07925	2773.0125
2326.92871	2765.3125
2329.77637	2762.4125
2332.62222	2752.4125
2335.46626	2738.8125
2338.3085	2749.1125
2341.14893	2753.2125
2343.98756	2751.6125
2346.8244	2745.9125
2349.65943	2742.8125
2352.49267	2741.0125
2355.32411	2746.8125
2358.15376	2749.5125
2360.98161	2763.7125
2363.80768	2753.1125
2366.63195	2752.8125
2369.45444	2749.6125
2372.27514	2760.6125
2375.09405	2752.9125
2377.91118	2744.6125
2380.72652	2726.2125
2383.54009	2711.6125
2386.35187	2705.8125
2389.16188	2690.4125
2391.97011	2688.1125
2394.77657	2673.9125
2397.58125	2668.3125
2400.38416	2663.8125
2403.18529	2663.5125
2405.98466	2651.2125
2408.78226	2635.2125
2411.57809	2643.9125
2414.37216	2635.1125
2417.16446	2632.3125
2419.955	2619.3125
2422.74378	2629.4125
2425.5308	2625.2125
2428.31606	2622.5125
2431.09956	2614.7125
2433.88131	2608.5125
2436.6613	2620.5125
2439.43954	2619.2125
2442.21603	2622.9125
2444.99077	2614.0125
2447.76377	2621.5125
2450.53501	2618.8125
2453.30451	2604.8125
2456.07226	2619.8125
2458.83827	2609.6125
2461.60254	2619.1125
2464.36507	2605.4125
2467.12586	2609.8125
2469.88492	2602.7125
2472.64224	2603.2125
2475.39782	2610.0125
2478.15167	2608.5125
2480.90379	2610.7125
2483.65417	2610.3125
2486.40283	2624.6125
2489.14976	2622.8125
2491.89497	2624.4125
2494.63845	2614.7125
2497.3802	2611.8125
2500.12024	2610.0125
2502.85855	2610.0125
2505.59514	2599.7125
2508.33002	2592.0125
2511.06318	2584.7125
2513.79462	2577.8125
2516.52435	2580.0125
2519.25237	2560.9125
2521.97867	2546.6125
2524.70327	2534.7125
2527.42616	2544.1125
2530.14734	2534.1125
2532.86681	2537.6125
2535.58458	2530.1125
2538.30065	2524.2125
2541.01501	2533.2125
2543.72768	2533.1125
2546.43864	2525.3125
2549.14791	2520.0125
2551.85548	2523.6125
2554.56136	2520.2125
2557.26554	2508.7125
2559.96803	2495.6125
2562.66883	2506.9125
2565.36794	2520.4125
2568.06536	2507.2125
2570.7611	2497.5125
2573.45514	2500.4125
2576.14751	2478.2125
2578.83819	2490.8125
2581.52719	2481.3125
2584.21451	2478.3125
2586.90015	2474.0125
2589.58411	2470.5125
2592.2664	2463.2125
2594.94701	2463.5125
2597.62594	2467.3125
2600.30321	2465.1125
2602.9788	2472.7125
2605.65273	2446.6125
2608.32498	2450.6125
2610.99557	2442.2125
2613.66449	2457.4125
2616.33175	2453.3125
2618.99734	2447.6125
2621.66128	2452.7125
2624.32355	2444.4125
2626.98416	2443.5125
2629.64311	2425.2125
2632.30041	2427.9125
2634.95605	2425.0125
2637.61004	2415.4125
2640.26238	2414.9125
2642.91306	2407.4125
2645.56209	2405.5125
2648.20948	2411.1125
2650.85521	2402.6125
2653.4993	2413.8125
2656.14175	2403.7125
2658.78255	2411.2125
2661.42171	2421.1125
2664.05923	2411.3125
2666.6951	2417.6125
2669.32934	2436.8125
2671.96194	2433.3125
2674.59291	2424.6125
2677.22224	2419.2125
2679.84993	2419.3125
2682.476	2422.0125
2685.10043	2426.7125
2687.72324	2418.7125
2690.34441	2423.3125
2692.96396	2420.0125
2695.58188	2419.9125
2698.19818	2415.3125
2700.81285	2424.5125
2703.4259	2446.1125
2706.03733	2413.7125
2708.64714	2406.5125
2711.25533	2418.0125
2713.86191	2426.8125
2716.46687	2436.3125
2719.07021	2431.3125
2721.67194	2446.5125
2724.27206	2441.2125
2726.87057	2439.1125
2729.46747	2438.1125
2732.06276	2436.9125
2734.65644	2437.8125
2737.24852	2426.9125
2739.83899	2429.3125
2742.42786	2438.3125
2745.01513	2416.6125
2747.60079	2409.0125
2750.18486	2411.5125
2752.76733	2399.5125
2755.3482	2398.2125
2757.92747	2388.8125
2760.50515	2396.8125
2763.08123	2404.2125
2765.65573	2407.3125
2768.22863	2395.4125
2770.79994	2393.1125
2773.36967	2389.5125
2775.9378	2387.1125
2778.50435	2397.5125
2781.06932	2387.4125
2783.6327	2380.1125
2786.1945	2385.1125
2788.75471	2387.4125
2791.31335	2378.3125
2793.87041	2392.3125
2796.42589	2390.4125
2798.97979	2382.6125
2801.53212	2388.8125
2804.08288	2396.1125
2806.63206	2394.0125
2809.17967	2390.0125
2811.72571	2374.2125
2814.27018	2388.0125
2816.81308	2388.3125
2819.35442	2390.2125
2821.89419	2410.8125
2824.43239	2402.5125
2826.96904	2415.3125
2829.50412	2414.8125
2832.03763	2408.1125
2834.56959	2408.6125
2837.1	2426.2125
2839.62884	2424.0125
2842.15613	2441.4125
2844.68186	2504.0125
2847.20604	2531.4125
2849.72867	2569.3125
2852.24974	2561.2125
2854.76927	2563.1125
2857.28724	2572.9125
2859.80367	2563.1125
2862.31855	2551.0125
2864.83189	2532.4125
2867.34368	2523.1125
2869.85393	2521.6125
2872.36264	2527.9125
2874.8698	2518.1125
2877.37543	2513.1125
2879.87952	2514.9125
2882.38207	2511.8125
2884.88308	2516.4125
2887.38256	2507.5125
2889.88051	2503.6125
2892.37692	2498.0125
2894.8718	2499.8125
2897.36515	2504.7125
2899.85698	2511.1125
2902.34727	2513.2125
2904.83604	2505.4125
2907.32328	2507.2125
2909.809	2507.3125
2912.29319	2501.3125
2914.77587	2504.5125
2917.25702	2495.5125
2919.73665	2502.5125
2922.21476	2493.9125
2924.69136	2480.9125
2927.16644	2489.8125
2929.64	2475.6125
2932.11205	2470.9125
2934.58258	2458.4125
2937.05161	2453.7125
2939.51912	2449.0125
2941.98513	2413.8125
2944.44962	2391.6125
2946.91261	2367.6125
2949.37409	2345.4125
2951.83407	2325.7125
2954.29254	2329.8125
2956.74951	2317.3125
2959.20498	2305.3125
2961.65895	2306.2125
2964.11142	2295.5125
2966.56239	2298.6125
2969.01186	2287.1125
2971.45984	2269.7125
2973.90632	2264.5125
2976.35131	2256.0125
2978.7948	2247.8125
2981.23681	2246.5125
2983.67732	2232.5125
2986.11635	2228.4125
2988.55388	2224.2125
2990.98993	2206.2125
2993.4245	2201.8125
2995.85758	2182.0125
2998.28917	2185.6125
3000.71928	2181.7125
3003.14791	2174.2125
3005.57506	2160.6125
3008.00073	2168.0125
3010.42493	2159.8125
3012.84764	2157.1125
3015.26888	2158.2125
3017.68865	2156.1125
3020.10694	2156.2125
3022.52376	2144.8125
3024.9391	2149.1125
3027.35298	2134.1125
3029.76539	2142.1125
3032.17632	2147.6125
3034.5858	2130.3125
3036.9938	2137.9125
3039.40034	2134.3125
3041.80542	2139.1125
3044.20903	2120.0125
3046.61118	2123.4125
3049.01187	2117.9125
3051.4111	2116.9125
3053.80888	2121.6125
3056.20519	2111.4125
3058.60005	2109.2125
3060.99345	2110.3125
3063.3854	2110.2125
3065.7759	2094.6125
3068.16494	2096.7125
3070.55254	2089.4125
3072.93868	2090.6125
3075.32338	2091.8125
3077.70662	2095.7125
3080.08842	2066.9125
3082.46878	2087.6125
3084.84769	2066.9125
3087.22515	2057.2125
3089.60118	2065.2125
3091.97576	2060.4125
3094.3489	2064.7125
3096.72061	2059.8125
3099.09087	2063.4125
3101.4597	2054.3125
3103.82709	2072.3125
3106.19305	2063.9125
3108.55757	2067.0125
3110.92066	2059.6125
3113.28232	2061.5125
3115.64255	2049.6125
3118.00134	2059.1125
3120.35871	2056.0125
3122.71466	2051.5125
