Data from AgNPs_FTO_APTES_UA_1uM_CRN_0uM_R6G_10uM_NaF_0.1M_Addition_RamanShift__55__12-09-49-475.txt Node

Date: Thu Jan 27 12:09:49 GMT 2022
User: TCL
Spectrometer: QEP01345
Trigger mode: 4
Integration Time (sec): 7.000000E0
Scans to average: 10
Electric dark correction enabled: true
Nonlinearity correction enabled: false
Boxcar width: 0
XAxis mode: Raman Shifts
Number of Pixels in Spectrum: 1044
>>>>>Begin Spectral Data<<<<<
46.04893	0.225
50.45542	1.525
54.85868	-1.075
59.25871	-1.975
63.6555	36.825
68.04907	43.725
72.43941	44.025
76.82654	48.225
81.21044	49.425
85.59113	52.025
89.96862	53.925
94.34289	56.725
98.71396	59.125
103.08183	57.225
107.4465	59.525
111.80798	61.025
116.16626	60.525
120.52136	68.925
124.87327	64.325
129.222	65.625
133.56755	68.425
137.90993	68.925
142.24913	75.425
146.58517	81.425
150.91804	90.325
155.24774	105.825
159.57429	120.525
163.89768	151.125
168.21792	194.725
172.53501	260.825
176.84895	356.025
181.15975	488.525
185.46741	681.925
189.77193	939.025
194.07331	1261.525
198.37157	1625.725
202.6667	2005.725
206.9587	2381.625
211.24758	2755.925
215.53334	3132.425
219.81599	3542.525
224.09553	3981.125
228.37195	4476.325
232.64527	5021.025
236.91549	5565.425
241.18261	6129.125
245.44663	6613.025
249.70755	7073.425
253.96539	7474.125
258.22014	7827.225
262.4718	8107.025
266.72039	8313.725
270.96589	8416.125
275.20832	8415.325
279.44768	8344.725
283.68397	8245.925
287.91719	8110.825
292.14735	8051.325
296.37445	8047.225
300.59849	8127.225
304.81948	8246.625
309.03742	8350.125
313.25231	8307.325
317.46415	8150.025
321.67296	7879.025
325.87872	7653.625
330.08145	7538.825
334.28114	7574.725
338.47781	7606.725
342.67145	7742.725
346.86207	7892.725
351.04966	8134.525
355.23424	8421.825
359.4158	8657.625
363.59435	8806.725
367.76989	8893.325
371.94243	8951.925
376.11196	9003.325
380.27849	9044.525
384.44203	9027.425
388.60257	9010.125
392.76012	9021.925
396.91468	9085.425
401.06626	9244.125
405.21485	9382.125
409.36047	9336.025
413.50311	9148.425
417.64277	8991.125
421.77947	8877.825
425.9132	8841.925
430.04396	8864.225
434.17176	8929.325
438.2966	9076.625
442.41849	9323.225
446.53742	9628.025
450.6534	9957.625
454.76644	10169.125
458.87653	10233.625
462.98368	10112.125
467.08789	9894.225
471.18916	9706.725
475.2875	9525.125
479.38291	9386.925
483.4754	9263.625
487.56496	9185.725
491.6516	9054.125
495.73531	8995.425
499.81612	8954.925
503.89401	9002.025
507.96899	9049.225
512.04106	9073.725
516.11023	9079.525
520.1765	9145.625
524.23987	9150.725
528.30034	9099.825
532.35792	9031.725
536.41261	8906.225
540.46441	8798.925
544.51333	8720.125
548.55936	8783.225
552.60252	8889.225
556.64279	9058.025
560.6802	9150.225
564.71473	9180.025
568.7464	9347.125
572.7752	9497.525
576.80114	9469.525
580.82422	9384.125
584.84444	9437.725
588.86181	9631.525
592.87633	9956.125
596.888	10198.725
600.89682	10298.225
604.9028	10709.125
608.90594	11936.225
612.90624	13518.125
616.90371	13087.625
620.89834	10664.825
624.89015	9462.825
628.87913	9246.325
632.86528	9227.025
636.84862	9167.425
640.82913	9035.625
644.80683	8797.025
648.78172	8637.125
652.75379	8654.125
656.72306	8833.225
660.68952	9127.425
664.65319	9063.225
668.61405	8857.825
672.57211	8755.125
676.52738	8747.925
680.47986	8731.825
684.42955	8697.125
688.37646	8655.725
692.32058	8697.225
696.26192	8786.925
700.20048	8888.225
704.13626	8926.225
708.06928	8858.325
711.99952	8795.325
715.927	8787.825
719.85171	8828.425
723.77365	8804.025
727.69284	8727.225
731.60928	8666.725
735.52295	8672.125
739.43388	8709.825
743.34206	8752.825
747.24749	8786.225
751.15017	8798.525
755.05012	8882.425
758.94733	9106.625
762.8418	9506.825
766.73354	10288.625
770.62254	11140.325
774.50882	11577.325
778.39237	11344.025
782.27321	10500.025
786.15132	9643.025
790.02671	9113.525
793.89938	8888.225
797.76935	8804.125
801.6366	8758.025
805.50115	8750.925
809.36299	8707.225
813.22213	8663.225
817.07857	8653.325
820.93231	8656.025
824.78336	8646.925
828.63172	8655.525
832.47738	8724.925
836.32036	8730.925
840.16066	8739.025
843.99827	8731.425
847.8332	8721.325
851.66546	8668.625
855.49504	8658.725
859.32195	8621.025
863.1462	8618.025
866.96777	8567.125
870.78668	8566.225
874.60293	8579.225
878.41652	8589.825
882.22745	8622.125
886.03573	8641.625
889.84136	8641.625
893.64433	8619.425
897.44466	8578.225
901.24235	8561.025
905.0374	8538.225
908.8298	8494.325
912.61957	8500.825
916.40671	8519.125
920.19121	8609.825
923.97308	8701.325
927.75233	8752.025
931.52895	8797.525
935.30295	8746.025
939.07433	8584.725
942.84309	8482.225
946.60924	8399.725
950.37278	8371.825
954.13371	8329.425
957.89203	8284.325
961.64774	8244.325
965.40086	8191.625
969.15137	8199.125
972.89929	8152.125
976.64461	8150.725
980.38733	8189.825
984.12747	8237.625
987.86502	8314.925
991.59999	8412.625
995.33237	8534.925
999.06217	8764.025
1002.78939	9023.225
1006.51404	9127.825
1010.23611	9207.325
1013.95561	9253.625
1017.67255	9274.725
1021.38692	9150.625
1025.09872	9032.725
1028.80796	9046.325
1032.51465	9190.925
1036.21877	9402.925
1039.92035	9435.825
1043.61937	9345.525
1047.31584	9181.525
1051.00976	9009.625
1054.70114	8900.625
1058.38998	8852.125
1062.07627	8864.525
1065.76003	8830.925
1069.44126	8876.525
1073.11995	8929.025
1076.79611	9028.525
1080.46974	9107.725
1084.14085	9243.625
1087.80943	9358.325
1091.47549	9389.425
1095.13903	9344.325
1098.80005	9143.225
1102.45857	8983.525
1106.11456	8915.825
1109.76805	8914.525
1113.41903	9006.125
1117.06751	9091.825
1120.71348	9247.925
1124.35696	9412.825
1127.99793	9533.425
1131.63641	9585.925
1135.2724	9442.325
1138.90589	9225.825
1142.5369	9055.025
1146.16542	8979.125
1149.79145	8963.125
1153.415	8970.625
1157.03607	9005.025
1160.65467	9108.425
1164.27079	9342.725
1167.88443	9710.825
1171.49561	10240.725
1175.10432	11070.025
1178.71056	12133.525
1182.31434	13166.125
1185.91565	13692.025
1189.51451	13643.325
1193.11091	13111.825
1196.70485	12343.225
1200.29634	11618.625
1203.88538	11094.525
1207.47197	10616.325
1211.05612	10269.825
1214.63782	10073.525
1218.21708	10072.625
1221.79391	10170.325
1225.36829	10289.525
1228.94024	10286.825
1232.50976	10152.925
1236.07685	10024.725
1239.6415	9947.125
1243.20374	9913.925
1246.76355	9910.425
1250.32093	10014.425
1253.8759	10222.325
1257.42845	10459.925
1260.97859	10738.325
1264.52631	11003.425
1268.07163	11298.925
1271.61453	11527.025
1275.15503	11761.925
1278.69312	11943.925
1282.22882	12159.225
1285.76211	12381.125
1289.29301	12675.825
1292.82151	13033.225
1296.34761	13428.125
1299.87133	13955.125
1303.39266	14689.325
1306.9116	15752.425
1310.42815	16978.625
1313.94233	17787.925
1317.45412	17841.025
1320.96354	17211.325
1324.47058	16341.125
1327.97525	15502.925
1331.47754	14986.025
1334.97747	14745.125
1338.47502	14637.525
1341.97022	14539.325
1345.46305	14446.825
1348.95352	14652.525
1352.44163	15134.825
1355.92738	16043.925
1359.41078	17457.925
1362.89183	18842.925
1366.37053	18941.825
1369.84688	17210.125
1373.32088	14947.825
1376.79254	13347.225
1380.26186	12654.725
1383.72883	12457.625
1387.19347	12271.325
1390.65578	11913.725
1394.11575	11614.325
1397.57339	11587.925
1401.0287	11744.325
1404.48168	11985.325
1407.93234	12127.525
1411.38068	12173.425
1414.82669	12082.425
1418.27039	11778.125
1421.71177	11434.125
1425.15083	11129.925
1428.58758	11040.025
1432.02203	11092.725
1435.45416	11272.625
1438.88399	11431.925
1442.31151	11487.325
1445.73673	11541.725
1449.15965	11580.725
1452.58027	11570.225
1455.9986	11449.325
1459.41463	11319.825
1462.82837	11403.525
1466.23982	11589.325
1469.64898	11856.525
1473.05586	12032.725
1476.46045	12154.825
1479.86276	12263.125
1483.26279	12339.925
1486.66054	12388.425
1490.05602	12510.825
1493.44922	12655.425
1496.84016	12811.425
1500.22882	13119.925
1503.61521	13657.325
1506.99934	14448.825
1510.38121	15254.525
1513.76081	15663.925
1517.13816	15318.525
1520.51324	14358.525
1523.88607	13305.425
1527.25665	12556.625
1530.62498	12173.325
1533.99105	11998.325
1537.35488	11893.625
1540.71647	11816.325
1544.07581	11678.925
1547.4329	11543.225
1550.78776	11372.125
1554.14038	11185.125
1557.49077	11089.525
1560.83892	11089.725
1564.18484	11090.125
1567.52853	11216.225
1570.86999	11370.825
1574.20922	11547.525
1577.54624	11642.925
1580.88103	11515.725
1584.2136	11233.925
1587.54395	11260.925
1590.87208	11652.925
1594.19801	12418.625
1597.52172	13435.525
1600.84321	14033.725
1604.16251	13795.525
1607.47959	12833.025
1610.79447	11650.625
1614.10715	10593.025
1617.41763	9846.125
1620.7259	9414.025
1624.03199	9195.925
1627.33587	9226.025
1630.63757	9422.625
1633.93707	9858.925
1637.23439	10509.825
1640.52951	11513.425
1643.82246	12756.225
1647.11321	13903.625
1650.40179	14341.625
1653.68819	13647.225
1656.97241	12072.625
1660.25446	10414.225
1663.53433	9290.525
1666.81203	8591.525
1670.08756	8214.325
1673.36092	7986.125
1676.63211	7849.825
1679.90115	7741.025
1683.16801	7658.825
1686.43272	7594.625
1689.69527	7572.625
1692.95567	7501.225
1696.2139	7441.425
1699.46999	7395.625
1702.72392	7358.625
1705.97571	7372.325
1709.22535	7431.325
1712.47284	7424.425
1715.71819	7472.525
1718.96139	7469.825
1722.20246	7454.625
1725.44139	7447.525
1728.67818	7404.325
1731.91284	7347.125
1735.14537	7317.625
1738.37576	7311.125
1741.60403	7266.325
1744.83017	7247.225
1748.05418	7205.225
1751.27607	7184.125
1754.49584	7173.125
1757.71349	7139.325
1760.92903	7120.025
1764.14244	7094.825
1767.35375	7097.325
1770.56294	7115.325
1773.77002	7095.225
1776.97499	7124.825
1780.17785	7113.525
1783.37861	7120.225
1786.57727	7146.525
1789.77382	7139.225
1792.96828	7105.625
1796.16064	7131.425
1799.3509	7109.425
1802.53907	7114.725
1805.72514	7083.325
1808.90913	7058.325
1812.09102	7036.225
1815.27083	7042.025
1818.44856	7001.925
1821.6242	7007.825
1824.79776	6993.025
1827.96924	7006.125
1831.13864	6968.625
1834.30597	6973.325
1837.47122	6956.125
1840.6344	6962.625
1843.7955	6975.625
1846.95454	6975.325
1850.11151	6964.525
1853.26642	6968.425
1856.41926	6949.725
1859.57004	6945.025
1862.71876	6979.925
1865.86542	6956.125
1869.01003	6958.825
1872.15258	6942.325
1875.29308	6953.125
1878.43152	6942.125
1881.56792	6950.425
1884.70227	6941.925
1887.83457	6949.725
1890.96482	6950.025
1894.09304	6939.625
1897.21921	6935.625
1900.34335	6948.325
1903.46544	6925.425
1906.58551	6939.725
1909.70353	6921.125
1912.81953	6931.425
1915.93349	6920.525
1919.04543	6888.725
1922.15534	6894.625
1925.26322	6840.225
1928.36908	6843.025
1931.47292	6836.225
1934.57473	6825.425
1937.67453	6815.125
1940.77232	6798.325
1943.86808	6754.325
1946.96184	6732.725
1950.05358	6717.825
1953.14331	6694.525
1956.23103	6677.125
1959.31675	6687.225
1962.40046	6672.525
1965.48217	6626.325
1968.56188	6606.025
1971.63959	6602.125
1974.7153	6567.725
1977.78901	6554.525
1980.86073	6536.125
1983.93046	6516.925
1986.99819	6494.425
1990.06394	6475.425
1993.1277	6445.725
1996.18947	6445.125
1999.24925	6417.925
2002.30706	6412.325
2005.36288	6382.425
2008.41672	6375.725
2011.46859	6346.225
2014.51848	6328.325
2017.56639	6307.925
2020.61233	6297.225
2023.6563	6287.525
2026.6983	6272.225
2029.73833	6254.425
2032.7764	6256.525
2035.8125	6240.825
2038.84664	6236.625
2041.87881	6230.125
2044.90903	6229.425
2047.93729	6186.825
2050.96359	6192.425
2053.98794	6187.425
2057.01034	6182.625
2060.03078	6165.425
2063.04927	6184.525
2066.06582	6166.025
2069.08042	6167.025
2072.09307	6166.325
2075.10378	6164.225
2078.11255	6176.525
2081.11938	6169.425
2084.12426	6164.525
2087.12722	6156.725
2090.12824	6172.225
2093.12732	6155.725
2096.12447	6140.425
2099.11969	6140.425
2102.11299	6160.125
2105.10435	6169.025
2108.09379	6153.925
2111.08131	6164.725
2114.0669	6154.525
2117.05057	6177.425
2120.03233	6163.525
2123.01216	6171.325
2125.99008	6172.025
2128.96609	6162.525
2131.94018	6180.025
2134.91236	6186.925
2137.88263	6177.725
2140.851	6204.225
2143.81746	6189.725
2146.78201	6202.225
2149.74466	6204.025
2152.7054	6201.025
2155.66425	6197.925
2158.6212	6200.425
2161.57625	6207.225
2164.52941	6196.225
2167.48067	6189.425
2170.43004	6166.725
2173.37752	6182.425
2176.32311	6189.825
2179.26681	6177.125
2182.20863	6192.325
2185.14856	6208.525
2188.08661	6207.525
2191.02278	6187.425
2193.95707	6191.825
2196.88948	6186.225
2199.82001	6187.625
2202.74867	6168.625
2205.67545	6178.425
2208.60037	6182.225
2211.52341	6159.625
2214.44458	6149.725
2217.36388	6152.925
2220.28132	6141.425
2223.1969	6115.825
2226.11061	6092.825
2229.02246	6112.325
2231.93245	6090.625
2234.84058	6086.925
2237.74686	6069.325
2240.65128	6069.625
2243.55385	6067.425
2246.45456	6052.125
2249.35343	6043.525
2252.25044	6041.525
2255.14561	6035.025
2258.03893	6023.225
2260.93041	6002.525
2263.82004	6002.925
2266.70783	5972.625
2269.59378	5980.025
2272.4779	5956.025
2275.36017	5965.825
2278.24061	5936.025
2281.11922	5939.525
2283.996	5912.125
2286.87094	5912.125
2289.74405	5896.225
2292.61534	5881.825
2295.4848	5893.125
2298.35243	5899.425
2301.21824	5878.625
2304.08223	5892.425
2306.94439	5892.925
2309.80474	5887.325
2312.66327	5893.925
2315.51999	5882.925
2318.37489	5871.825
2321.22797	5876.025
2324.07925	5854.725
2326.92871	5874.025
2329.77637	5880.525
2332.62222	5860.625
2335.46626	5807.625
2338.3085	5853.725
2341.14893	5840.025
2343.98756	5839.025
2346.8244	5842.725
2349.65943	5815.025
2352.49267	5830.825
2355.32411	5832.725
2358.15376	5834.325
2360.98161	5808.125
2363.80768	5820.925
2366.63195	5817.725
2369.45444	5801.125
2372.27514	5812.525
2375.09405	5801.625
2377.91118	5768.525
2380.72652	5762.825
2383.54009	5741.025
2386.35187	5742.625
2389.16188	5716.425
2391.97011	5712.425
2394.77657	5705.525
2397.58125	5710.625
2400.38416	5686.825
2403.18529	5676.025
2405.98466	5658.025
2408.78226	5652.525
2411.57809	5641.925
2414.37216	5631.725
2417.16446	5639.725
2419.955	5618.725
2422.74378	5617.625
2425.5308	5607.425
2428.31606	5608.725
2431.09956	5595.325
2433.88131	5588.625
2436.6613	5593.525
2439.43954	5591.725
2442.21603	5600.625
2444.99077	5588.025
2447.76377	5587.525
2450.53501	5601.025
2453.30451	5582.025
2456.07226	5582.625
2458.83827	5573.725
2461.60254	5574.025
2464.36507	5569.325
2467.12586	5581.325
2469.88492	5564.825
2472.64224	5578.325
2475.39782	5576.725
2478.15167	5550.625
2480.90379	5561.225
2483.65417	5583.325
2486.40283	5557.525
2489.14976	5576.325
2491.89497	5584.225
2494.63845	5574.725
2497.3802	5560.225
2500.12024	5562.625
2502.85855	5565.125
2505.59514	5559.225
2508.33002	5551.125
2511.06318	5546.425
2513.79462	5525.225
2516.52435	5522.625
2519.25237	5519.825
2521.97867	5497.525
2524.70327	5507.925
2527.42616	5488.725
2530.14734	5489.125
2532.86681	5486.125
2535.58458	5487.525
2538.30065	5473.525
2541.01501	5479.125
2543.72768	5476.525
2546.43864	5478.525
2549.14791	5457.525
2551.85548	5452.725
2554.56136	5431.825
2557.26554	5419.525
2559.96803	5421.125
2562.66883	5409.325
2565.36794	5418.225
2568.06536	5406.525
2570.7611	5406.125
2573.45514	5396.725
2576.14751	5391.425
2578.83819	5395.025
2581.52719	5394.325
2584.21451	5379.425
2586.90015	5401.725
2589.58411	5359.125
2592.2664	5374.125
2594.94701	5357.325
2597.62594	5356.025
2600.30321	5343.925
2602.9788	5357.625
2605.65273	5332.325
2608.32498	5312.825
2610.99557	5329.425
2613.66449	5334.125
2616.33175	5311.625
2618.99734	5315.025
2621.66128	5307.825
2624.32355	5320.825
2626.98416	5302.725
2629.64311	5304.825
2632.30041	5323.525
2634.95605	5305.125
2637.61004	5286.325
2640.26238	5273.025
2642.91306	5276.725
2645.56209	5259.625
2648.20948	5252.525
2650.85521	5254.125
2653.4993	5258.425
2656.14175	5277.225
2658.78255	5281.625
2661.42171	5273.225
2664.05923	5272.225
2666.6951	5289.925
2669.32934	5296.025
2671.96194	5284.525
2674.59291	5280.325
2677.22224	5291.225
2679.84993	5278.625
2682.476	5285.325
2685.10043	5285.025
2687.72324	5271.225
2690.34441	5275.825
2692.96396	5267.725
2695.58188	5277.825
2698.19818	5273.825
2700.81285	5253.525
2703.4259	5261.325
2706.03733	5247.325
2708.64714	5256.525
2711.25533	5266.025
2713.86191	5267.725
2716.46687	5273.725
2719.07021	5298.925
2721.67194	5301.025
2724.27206	5297.925
2726.87057	5302.325
2729.46747	5311.825
2732.06276	5298.925
2734.65644	5300.625
2737.24852	5294.825
2739.83899	5294.225
2742.42786	5302.025
2745.01513	5283.525
2747.60079	5274.825
2750.18486	5262.225
2752.76733	5265.825
2755.3482	5254.425
2757.92747	5255.525
2760.50515	5265.825
2763.08123	5263.525
2765.65573	5260.125
2768.22863	5264.925
2770.79994	5258.725
2773.36967	5247.525
2775.9378	5244.825
2778.50435	5255.425
2781.06932	5249.125
2783.6327	5217.525
2786.1945	5247.125
2788.75471	5215.625
2791.31335	5221.025
2793.87041	5229.625
2796.42589	5222.225
2798.97979	5215.525
2801.53212	5196.125
2804.08288	5212.125
2806.63206	5189.025
2809.17967	5191.125
2811.72571	5181.925
2814.27018	5161.825
2816.81308	5162.125
2819.35442	5157.325
2821.89419	5136.325
2824.43239	5161.525
2826.96904	5152.325
2829.50412	5152.625
2832.03763	5155.125
2834.56959	5160.825
2837.1	5185.525
2839.62884	5166.725
2842.15613	5197.525
2844.68186	5247.425
2847.20604	5257.625
2849.72867	5290.825
2852.24974	5300.925
2854.76927	5293.225
2857.28724	5266.725
2859.80367	5272.125
2862.31855	5258.525
2864.83189	5251.225
2867.34368	5239.225
2869.85393	5233.025
2872.36264	5246.925
2874.8698	5231.825
2877.37543	5227.825
2879.87952	5236.125
2882.38207	5230.825
2884.88308	5241.825
2887.38256	5235.825
2889.88051	5237.925
2892.37692	5238.825
2894.8718	5247.725
2897.36515	5253.825
2899.85698	5273.725
2902.34727	5260.125
2904.83604	5272.825
2907.32328	5258.925
2909.809	5260.925
2912.29319	5249.925
2914.77587	5264.825
2917.25702	5254.825
2919.73665	5272.925
2922.21476	5250.125
2924.69136	5257.625
2927.16644	5257.525
2929.64	5233.025
2932.11205	5221.325
2934.58258	5209.625
2937.05161	5201.025
2939.51912	5215.725
2941.98513	5189.725
2944.44962	5162.325
2946.91261	5118.525
2949.37409	5104.925
2951.83407	5091.425
2954.29254	5088.425
2956.74951	5068.825
2959.20498	5073.725
2961.65895	5053.625
2964.11142	5058.225
2966.56239	5036.025
2969.01186	5050.325
2971.45984	5024.125
2973.90632	5017.725
2976.35131	5011.225
2978.7948	4981.225
2981.23681	4973.825
2983.67732	4960.525
2986.11635	4959.925
2988.55388	4934.125
2990.98993	4926.625
2993.4245	4906.125
2995.85758	4901.325
2998.28917	4888.825
3000.71928	4871.625
3003.14791	4875.925
3005.57506	4856.525
3008.00073	4868.425
3010.42493	4867.925
3012.84764	4858.925
3015.26888	4845.225
3017.68865	4837.625
3020.10694	4827.525
3022.52376	4814.925
3024.9391	4818.025
3027.35298	4819.225
3029.76539	4818.025
3032.17632	4797.025
3034.5858	4808.325
3036.9938	4796.125
3039.40034	4781.625
3041.80542	4805.825
3044.20903	4805.425
3046.61118	4783.425
3049.01187	4782.825
3051.4111	4795.025
3053.80888	4774.525
3056.20519	4757.725
3058.60005	4756.225
3060.99345	4752.625
3063.3854	4743.025
3065.7759	4729.125
3068.16494	4728.125
3070.55254	4720.625
3072.93868	4719.025
3075.32338	4710.125
3077.70662	4721.425
3080.08842	4716.325
3082.46878	4699.325
3084.84769	4689.925
3087.22515	4689.225
3089.60118	4671.325
3091.97576	4675.025
3094.3489	4682.225
3096.72061	4693.125
3099.09087	4677.025
3101.4597	4679.325
3103.82709	4671.125
3106.19305	4683.425
3108.55757	4662.525
3110.92066	4660.925
3113.28232	4663.325
3115.64255	4659.525
3118.00134	4668.825
3120.35871	4644.125
3122.71466	4662.225
3125.06917	4629.225
3127.42226	4638.925
3129.77393	4633.125
3132.12417	4650.225
3134.47299	4632.225
3136.82039	4645.025
3139.16636	4641.725
3141.51092	4651.425
3143.85406	4656.125
3146.19579	4674.125
3148.53609	4657.025
3150.87499	4670.825
3153.21246	4689.525
3155.54853	4681.325
3157.88318	4676.325
3160.21642	4701.725
3162.54826	4686.825
3164.87868	4693.225
3167.2077	4688.925
3169.5353	4692.125
3171.86151	4716.025
3174.18631	4704.825
3176.5097	4711.525
3178.83169	4691.025
3181.15228	4708.625
3183.47147	4695.925
3185.78926	4692.925
3188.10565	4693.825
3190.42065	4693.625
3192.73424	4691.625
3195.04645	4697.425
3197.35725	4705.125
3199.66667	4722.125
3201.97469	4700.125
3204.28132	4712.525
3206.58656	4714.425
3208.8904	4718.825
3211.19287	4727.325
3213.49394	4731.725
3215.79363	4737.125
3218.09193	4747.225
