Data from AgNPs_FTO_APTES_UA_1uM_CRN_10uM_R6G_10uM_NaF_0.1M_Addition_RamanShift__30__14-50-49-660.txt Node

Date: Thu Jan 27 14:50:49 GMT 2022
User: TCL
Spectrometer: QEP01345
Trigger mode: 4
Integration Time (sec): 7.000000E0
Scans to average: 10
Electric dark correction enabled: true
Nonlinearity correction enabled: false
Boxcar width: 0
XAxis mode: Raman Shifts
Number of Pixels in Spectrum: 1044
>>>>>Begin Spectral Data<<<<<
46.04893	2.325
50.45542	0.725
54.85868	-1.475
59.25871	-0.175
63.6555	33.425
68.04907	34.325
72.43941	35.625
76.82654	37.325
81.21044	37.325
85.59113	41.725
89.96862	43.125
94.34289	40.225
98.71396	44.625
103.08183	48.125
107.4465	45.525
111.80798	48.425
116.16626	50.425
120.52136	52.425
124.87327	48.925
129.222	46.325
133.56755	48.425
137.90993	51.525
142.24913	56.225
146.58517	56.925
150.91804	65.825
155.24774	70.725
159.57429	79.325
163.89768	100.125
168.21792	125.525
172.53501	165.825
176.84895	218.225
181.15975	303.625
185.46741	418.925
189.77193	569.825
194.07331	758.225
198.37157	971.425
202.6667	1208.125
206.9587	1426.125
211.24758	1650.825
215.53334	1889.425
219.81599	2160.125
224.09553	2449.525
228.37195	2803.925
232.64527	3153.325
236.91549	3496.625
241.18261	3834.625
245.44663	4078.825
249.70755	4281.425
253.96539	4457.425
258.22014	4608.125
262.4718	4767.025
266.72039	4892.025
270.96589	4988.725
275.20832	4993.025
279.44768	4969.025
283.68397	4910.525
287.91719	4870.125
292.14735	4904.325
296.37445	5012.625
300.59849	5204.725
304.81948	5430.325
309.03742	5592.625
313.25231	5611.125
317.46415	5329.325
321.67296	4876.425
325.87872	4506.325
330.08145	4329.025
334.28114	4322.525
338.47781	4374.025
342.67145	4523.725
346.86207	4726.525
351.04966	5019.825
355.23424	5381.225
359.4158	5647.125
363.59435	5777.025
367.76989	5789.125
371.94243	5767.525
376.11196	5721.525
380.27849	5675.225
384.44203	5589.925
388.60257	5501.525
392.76012	5447.525
396.91468	5499.325
401.06626	5654.625
405.21485	5780.525
409.36047	5695.125
413.50311	5389.825
417.64277	5066.825
421.77947	4907.625
425.9132	4837.425
430.04396	4819.025
434.17176	4821.725
438.2966	4875.725
442.41849	4988.925
446.53742	5127.825
450.6534	5266.825
454.76644	5370.225
458.87653	5389.425
462.98368	5347.925
467.08789	5259.825
471.18916	5151.925
475.2875	5021.425
479.38291	4923.025
483.4754	4845.925
487.56496	4800.125
491.6516	4749.325
495.73531	4744.725
499.81612	4762.125
503.89401	4829.925
507.96899	4882.025
512.04106	4964.125
516.11023	5065.225
520.1765	5089.525
524.23987	5080.425
528.30034	4960.825
532.35792	4849.625
536.41261	4727.125
540.46441	4598.525
544.51333	4554.625
548.55936	4602.025
552.60252	4721.325
556.64279	4849.225
560.6802	4922.025
564.71473	4989.525
568.7464	5204.325
572.7752	5348.325
576.80114	5232.125
580.82422	5046.925
584.84444	4959.825
588.86181	4905.825
592.87633	4905.425
596.888	4925.925
600.89682	5114.125
604.9028	5714.325
608.90594	7365.425
612.90624	9612.725
616.90371	9393.025
620.89834	6515.425
624.89015	5073.425
628.87913	4799.325
632.86528	4819.925
636.84862	4908.225
640.82913	4854.425
644.80683	4657.825
648.78172	4525.125
652.75379	4526.825
656.72306	4744.625
660.68952	5019.425
664.65319	4985.525
668.61405	4716.025
672.57211	4550.625
676.52738	4558.125
680.47986	4549.825
684.42955	4530.125
688.37646	4499.325
692.32058	4513.625
696.26192	4548.225
700.20048	4612.025
704.13626	4657.225
708.06928	4652.525
711.99952	4619.225
715.927	4588.025
719.85171	4592.025
723.77365	4604.025
727.69284	4549.225
731.60928	4508.325
735.52295	4498.525
739.43388	4514.325
743.34206	4528.925
747.24749	4548.825
751.15017	4604.225
755.05012	4691.225
758.94733	4953.025
762.8418	5476.025
766.73354	6425.325
770.62254	7451.325
774.50882	7951.125
778.39237	7605.025
782.27321	6611.525
786.15132	5589.525
790.02671	4981.825
793.89938	4703.525
797.76935	4600.825
801.6366	4550.025
805.50115	4523.625
809.36299	4492.125
813.22213	4461.825
817.07857	4453.625
820.93231	4458.725
824.78336	4465.425
828.63172	4503.325
832.47738	4525.225
836.32036	4508.325
840.16066	4470.825
843.99827	4450.725
847.8332	4444.725
851.66546	4402.825
855.49504	4426.925
859.32195	4418.325
863.1462	4385.825
866.96777	4381.025
870.78668	4366.325
874.60293	4384.925
878.41652	4381.425
882.22745	4402.025
886.03573	4445.225
889.84136	4432.425
893.64433	4401.625
897.44466	4382.125
901.24235	4389.325
905.0374	4384.325
908.8298	4363.525
912.61957	4373.525
916.40671	4374.925
920.19121	4410.425
923.97308	4471.425
927.75233	4499.425
931.52895	4550.425
935.30295	4503.825
939.07433	4378.125
942.84309	4261.925
946.60924	4195.025
950.37278	4165.225
954.13371	4130.625
957.89203	4121.125
961.64774	4112.625
965.40086	4085.425
969.15137	4074.925
972.89929	4069.325
976.64461	4050.725
980.38733	4041.925
984.12747	4056.325
987.86502	4075.625
991.59999	4100.625
995.33237	4137.025
999.06217	4190.825
1002.78939	4312.425
1006.51404	4394.825
1010.23611	4502.725
1013.95561	4571.025
1017.67255	4576.325
1021.38692	4505.725
1025.09872	4431.025
1028.80796	4374.525
1032.51465	4360.825
1036.21877	4422.025
1039.92035	4461.625
1043.61937	4487.125
1047.31584	4484.225
1051.00976	4463.325
1054.70114	4461.225
1058.38998	4467.825
1062.07627	4487.725
1065.76003	4513.025
1069.44126	4544.625
1073.11995	4617.725
1076.79611	4653.425
1080.46974	4715.625
1084.14085	4838.225
1087.80943	4972.925
1091.47549	4998.025
1095.13903	4949.725
1098.80005	4777.225
1102.45857	4633.825
1106.11456	4532.925
1109.76805	4534.825
1113.41903	4617.525
1117.06751	4767.625
1120.71348	4946.025
1124.35696	5176.925
1127.99793	5383.625
1131.63641	5387.325
1135.2724	5141.425
1138.90589	4894.525
1142.5369	4727.925
1146.16542	4650.025
1149.79145	4580.925
1153.415	4574.325
1157.03607	4622.525
1160.65467	4735.725
1164.27079	4890.725
1167.88443	5120.425
1171.49561	5559.025
1175.10432	6247.425
1178.71056	7184.325
1182.31434	7837.325
1185.91565	7920.825
1189.51451	7701.225
1193.11091	7207.425
1196.70485	6602.025
1200.29634	6166.425
1203.88538	5861.625
1207.47197	5528.925
1211.05612	5198.025
1214.63782	5039.025
1218.21708	4970.725
1221.79391	4968.425
1225.36829	5025.725
1228.94024	5072.025
1232.50976	5128.325
1236.07685	5164.325
1239.6415	5163.225
1243.20374	5169.525
1246.76355	5175.225
1250.32093	5208.925
1253.8759	5324.025
1257.42845	5467.625
1260.97859	5624.825
1264.52631	5804.525
1268.07163	5974.025
1271.61453	6123.825
1275.15503	6240.025
1278.69312	6274.825
1282.22882	6316.825
1285.76211	6432.725
1289.29301	6628.825
1292.82151	6844.925
1296.34761	7016.825
1299.87133	7326.025
1303.39266	7852.425
1306.9116	8711.525
1310.42815	9778.925
1313.94233	10515.425
1317.45412	10453.425
1320.96354	9770.925
1324.47058	8982.625
1327.97525	8306.925
1331.47754	7885.425
1334.97747	7722.325
1338.47502	7731.125
1341.97022	7835.225
1345.46305	8066.125
1348.95352	8485.125
1352.44163	9070.725
1355.92738	9930.425
1359.41078	11300.625
1362.89183	12859.925
1366.37053	12753.725
1369.84688	10845.025
1373.32088	8851.125
1376.79254	7572.525
1380.26186	6970.625
1383.72883	6657.025
1387.19347	6419.625
1390.65578	6166.125
1394.11575	5948.025
1397.57339	5831.225
1401.0287	5831.225
1404.48168	5917.225
1407.93234	6007.225
1411.38068	6090.925
1414.82669	6108.325
1418.27039	5992.125
1421.71177	5893.725
1425.15083	5786.225
1428.58758	5693.025
1432.02203	5674.425
1435.45416	5707.225
1438.88399	5729.525
1442.31151	5733.625
1445.73673	5742.525
1449.15965	5775.625
1452.58027	5776.525
1455.9986	5724.625
1459.41463	5702.225
1462.82837	5725.925
1466.23982	5835.425
1469.64898	5974.825
1473.05586	6072.525
1476.46045	6132.425
1479.86276	6239.525
1483.26279	6397.425
1486.66054	6589.625
1490.05602	6772.425
1493.44922	7113.625
1496.84016	7605.225
1500.22882	8349.425
1503.61521	9323.925
1506.99934	10457.725
1510.38121	11602.525
1513.76081	12323.925
1517.13816	11939.125
1520.51324	10558.125
1523.88607	9028.925
1527.25665	7921.025
1530.62498	7279.925
1533.99105	6900.525
1537.35488	6617.625
1540.71647	6468.125
1544.07581	6403.525
1547.4329	6344.825
1550.78776	6331.925
1554.14038	6290.925
1557.49077	6379.525
1560.83892	6509.225
1564.18484	6728.125
1567.52853	6928.925
1570.86999	7089.125
1574.20922	7196.825
1577.54624	7174.025
1580.88103	6826.925
1584.2136	6361.825
1587.54395	6105.925
1590.87208	6142.625
1594.19801	6432.925
1597.52172	6860.825
1600.84321	7059.625
1604.16251	6843.225
1607.47959	6375.925
1610.79447	5952.225
1614.10715	5527.425
1617.41763	5184.525
1620.7259	4951.725
1624.03199	4831.225
1627.33587	4829.925
1630.63757	4948.525
1633.93707	5149.125
1637.23439	5491.725
1640.52951	6016.325
1643.82246	6681.025
1647.11321	7443.625
1650.40179	8168.525
1653.68819	8105.225
1656.97241	7168.325
1660.25446	5957.025
1663.53433	5076.225
1666.81203	4562.025
1670.08756	4272.725
1673.36092	4110.725
1676.63211	3994.225
1679.90115	3926.425
1683.16801	3865.825
1686.43272	3823.525
1689.69527	3789.125
1692.95567	3754.825
1696.2139	3711.425
1699.46999	3661.525
1702.72392	3647.125
1705.97571	3655.025
1709.22535	3689.225
1712.47284	3701.625
1715.71819	3715.725
1718.96139	3730.325
1722.20246	3740.425
1725.44139	3716.525
1728.67818	3697.025
1731.91284	3644.325
1735.14537	3629.725
1738.37576	3599.725
1741.60403	3572.725
1744.83017	3580.225
1748.05418	3545.025
1751.27607	3538.425
1754.49584	3527.025
1757.71349	3479.725
1760.92903	3494.625
1764.14244	3460.425
1767.35375	3467.525
1770.56294	3468.025
1773.77002	3448.025
1776.97499	3450.125
1780.17785	3454.225
1783.37861	3461.925
1786.57727	3447.525
1789.77382	3467.825
1792.96828	3454.925
1796.16064	3456.925
1799.3509	3439.425
1802.53907	3447.425
1805.72514	3424.925
1808.90913	3424.725
1812.09102	3408.225
1815.27083	3402.425
1818.44856	3400.725
1821.6242	3388.025
1824.79776	3382.525
1827.96924	3380.925
1831.13864	3369.225
1834.30597	3374.925
1837.47122	3360.625
1840.6344	3359.225
1843.7955	3370.825
1846.95454	3365.025
1850.11151	3366.225
1853.26642	3357.725
1856.41926	3363.125
1859.57004	3368.325
1862.71876	3374.025
1865.86542	3367.425
1869.01003	3367.725
1872.15258	3372.725
1875.29308	3375.425
1878.43152	3369.125
1881.56792	3364.725
1884.70227	3377.925
1887.83457	3378.225
1890.96482	3376.425
1894.09304	3366.825
1897.21921	3374.425
1900.34335	3370.025
1903.46544	3384.025
1906.58551	3381.125
1909.70353	3374.525
1912.81953	3389.325
1915.93349	3383.325
1919.04543	3373.025
1922.15534	3367.325
1925.26322	3379.425
1928.36908	3345.325
1931.47292	3329.525
1934.57473	3311.925
1937.67453	3301.925
1940.77232	3272.625
1943.86808	3264.625
1946.96184	3236.425
1950.05358	3221.325
1953.14331	3219.225
1956.23103	3195.325
1959.31675	3185.525
1962.40046	3180.725
1965.48217	3165.325
1968.56188	3170.725
1971.63959	3157.325
1974.7153	3136.325
1977.78901	3124.225
1980.86073	3128.625
1983.93046	3115.725
1986.99819	3093.325
1990.06394	3080.125
1993.1277	3069.425
1996.18947	3078.325
1999.24925	3051.725
2002.30706	3033.725
2005.36288	3031.025
2008.41672	3022.425
2011.46859	3020.625
2014.51848	3007.425
2017.56639	3002.325
2020.61233	2998.925
2023.6563	2987.025
2026.6983	2974.125
2029.73833	2960.225
2032.7764	2942.125
2035.8125	2959.725
2038.84664	2946.425
2041.87881	2940.325
2044.90903	2937.025
2047.93729	2930.925
2050.96359	2904.625
2053.98794	2908.025
2057.01034	2910.225
2060.03078	2905.725
2063.04927	2897.925
2066.06582	2910.125
2069.08042	2897.825
2072.09307	2891.025
2075.10378	2886.225
2078.11255	2874.525
2081.11938	2892.925
2084.12426	2881.225
2087.12722	2891.425
2090.12824	2883.225
2093.12732	2877.925
2096.12447	2889.225
2099.11969	2881.725
2102.11299	2876.625
2105.10435	2880.725
2108.09379	2890.725
2111.08131	2885.425
2114.0669	2876.925
2117.05057	2887.925
2120.03233	2886.625
2123.01216	2893.725
2125.99008	2895.625
2128.96609	2892.825
2131.94018	2884.725
2134.91236	2892.725
2137.88263	2888.725
2140.851	2877.225
2143.81746	2876.325
2146.78201	2893.925
2149.74466	2893.225
2152.7054	2887.225
2155.66425	2882.125
2158.6212	2873.725
2161.57625	2870.025
2164.52941	2871.725
2167.48067	2870.025
2170.43004	2866.225
2173.37752	2871.525
2176.32311	2869.225
2179.26681	2858.425
2182.20863	2861.025
2185.14856	2863.725
2188.08661	2870.025
2191.02278	2859.625
2193.95707	2862.325
2196.88948	2855.725
2199.82001	2881.825
2202.74867	2838.025
2205.67545	2838.125
2208.60037	2827.525
2211.52341	2833.625
2214.44458	2820.325
2217.36388	2831.925
2220.28132	2815.325
2223.1969	2811.625
2226.11061	2806.225
2229.02246	2793.625
2231.93245	2797.825
2234.84058	2779.725
2237.74686	2782.125
2240.65128	2775.125
2243.55385	2778.925
2246.45456	2775.825
2249.35343	2762.625
2252.25044	2757.925
2255.14561	2763.525
2258.03893	2759.925
2260.93041	2744.525
2263.82004	2749.125
2266.70783	2748.625
2269.59378	2734.525
2272.4779	2731.225
2275.36017	2728.925
2278.24061	2715.325
2281.11922	2717.325
2283.996	2710.225
2286.87094	2697.025
2289.74405	2685.025
2292.61534	2683.625
2295.4848	2670.525
2298.35243	2687.925
2301.21824	2672.125
2304.08223	2676.125
2306.94439	2682.725
2309.80474	2664.725
2312.66327	2675.825
2315.51999	2665.125
2318.37489	2670.325
2321.22797	2663.725
2324.07925	2652.725
2326.92871	2658.225
2329.77637	2645.325
2332.62222	2642.525
2335.46626	2638.325
2338.3085	2636.025
2341.14893	2630.625
2343.98756	2624.325
2346.8244	2630.025
2349.65943	2629.325
2352.49267	2635.725
2355.32411	2638.625
2358.15376	2632.525
2360.98161	2637.825
2363.80768	2652.825
2366.63195	2638.825
2369.45444	2649.725
2372.27514	2632.525
2375.09405	2644.925
2377.91118	2634.625
2380.72652	2620.425
2383.54009	2595.025
2386.35187	2595.325
2389.16188	2584.625
2391.97011	2571.025
2394.77657	2581.325
2397.58125	2549.025
2400.38416	2560.825
2403.18529	2548.225
2405.98466	2537.325
2408.78226	2542.425
2411.57809	2543.325
2414.37216	2531.325
2417.16446	2526.525
2419.955	2539.325
2422.74378	2530.725
2425.5308	2532.525
2428.31606	2518.425
2431.09956	2522.825
2433.88131	2526.925
2436.6613	2506.725
2439.43954	2532.725
2442.21603	2511.025
2444.99077	2506.725
2447.76377	2510.625
2450.53501	2531.625
2453.30451	2513.825
2456.07226	2503.725
2458.83827	2509.925
2461.60254	2520.125
2464.36507	2504.225
2467.12586	2511.925
2469.88492	2494.225
2472.64224	2500.225
2475.39782	2506.525
2478.15167	2503.725
2480.90379	2499.425
2483.65417	2507.225
2486.40283	2521.025
2489.14976	2517.125
2491.89497	2513.325
2494.63845	2519.025
2497.3802	2514.025
2500.12024	2516.325
2502.85855	2510.925
2505.59514	2488.625
2508.33002	2494.125
2511.06318	2483.725
2513.79462	2481.125
2516.52435	2469.325
2519.25237	2463.425
2521.97867	2448.925
2524.70327	2442.725
2527.42616	2440.025
2530.14734	2436.025
2532.86681	2435.725
2535.58458	2431.925
2538.30065	2421.925
2541.01501	2422.825
2543.72768	2434.625
2546.43864	2429.525
2549.14791	2426.225
2551.85548	2419.025
2554.56136	2413.625
2557.26554	2421.825
2559.96803	2413.525
2562.66883	2412.625
2565.36794	2412.925
2568.06536	2401.825
2570.7611	2397.225
2573.45514	2378.525
2576.14751	2386.525
2578.83819	2376.625
2581.52719	2389.425
2584.21451	2371.325
2586.90015	2375.225
2589.58411	2368.225
2592.2664	2367.225
2594.94701	2366.125
2597.62594	2360.725
2600.30321	2347.325
2602.9788	2345.525
2605.65273	2352.025
2608.32498	2347.625
2610.99557	2351.625
2613.66449	2361.125
2616.33175	2351.025
2618.99734	2350.325
2621.66128	2358.025
2624.32355	2336.125
2626.98416	2335.225
2629.64311	2330.125
2632.30041	2338.125
2634.95605	2332.625
2637.61004	2321.225
2640.26238	2315.525
2642.91306	2316.125
2645.56209	2317.425
2648.20948	2315.725
2650.85521	2313.725
2653.4993	2315.525
2656.14175	2310.425
2658.78255	2315.525
2661.42171	2314.725
2664.05923	2318.625
2666.6951	2316.425
2669.32934	2317.225
2671.96194	2327.225
2674.59291	2325.225
2677.22224	2320.525
2679.84993	2324.125
2682.476	2328.325
2685.10043	2313.625
2687.72324	2328.625
2690.34441	2313.425
2692.96396	2325.325
2695.58188	2327.125
2698.19818	2316.125
2700.81285	2332.125
2703.4259	2314.325
2706.03733	2311.425
2708.64714	2299.225
2711.25533	2320.725
2713.86191	2316.125
2716.46687	2318.325
2719.07021	2316.925
2721.67194	2328.025
2724.27206	2324.625
2726.87057	2330.125
2729.46747	2344.325
2732.06276	2326.825
2734.65644	2327.625
2737.24852	2321.225
2739.83899	2319.425
2742.42786	2328.825
2745.01513	2303.725
2747.60079	2311.825
2750.18486	2301.025
2752.76733	2298.525
2755.3482	2296.925
2757.92747	2305.325
2760.50515	2280.725
2763.08123	2291.325
2765.65573	2287.025
2768.22863	2281.825
2770.79994	2276.425
2773.36967	2265.725
2775.9378	2266.325
2778.50435	2281.225
2781.06932	2270.025
2783.6327	2265.625
2786.1945	2264.725
2788.75471	2282.925
2791.31335	2263.525
2793.87041	2255.125
2796.42589	2258.425
2798.97979	2260.225
2801.53212	2248.025
2804.08288	2250.625
2806.63206	2245.825
2809.17967	2239.625
2811.72571	2246.825
2814.27018	2249.925
2816.81308	2250.625
2819.35442	2245.325
2821.89419	2256.625
2824.43239	2254.925
2826.96904	2251.425
2829.50412	2261.325
2832.03763	2274.225
2834.56959	2265.225
2837.1	2262.125
2839.62884	2271.525
2842.15613	2276.925
2844.68186	2297.825
2847.20604	2331.325
2849.72867	2352.725
2852.24974	2362.125
2854.76927	2344.025
2857.28724	2341.525
2859.80367	2342.225
2862.31855	2332.725
2864.83189	2327.825
2867.34368	2320.025
2869.85393	2321.725
2872.36264	2334.125
2874.8698	2322.125
2877.37543	2302.025
2879.87952	2316.525
2882.38207	2313.125
2884.88308	2315.125
2887.38256	2296.525
2889.88051	2307.025
2892.37692	2301.225
2894.8718	2306.325
2897.36515	2306.225
2899.85698	2303.425
2902.34727	2308.025
2904.83604	2318.525
2907.32328	2305.725
2909.809	2305.925
2912.29319	2306.025
2914.77587	2305.525
2917.25702	2300.025
2919.73665	2300.725
2922.21476	2304.525
2924.69136	2293.925
2927.16644	2306.725
2929.64	2308.225
2932.11205	2298.225
2934.58258	2285.925
2937.05161	2289.225
2939.51912	2278.925
2941.98513	2257.425
2944.44962	2250.625
2946.91261	2219.625
2949.37409	2223.925
2951.83407	2216.325
2954.29254	2192.225
2956.74951	2204.225
2959.20498	2202.025
2961.65895	2188.425
2964.11142	2175.525
2966.56239	2187.825
2969.01186	2176.525
2971.45984	2169.525
2973.90632	2166.925
2976.35131	2155.425
2978.7948	2154.325
2981.23681	2150.525
2983.67732	2138.525
2986.11635	2145.325
2988.55388	2127.725
2990.98993	2119.925
2993.4245	2114.425
2995.85758	2109.625
2998.28917	2105.025
3000.71928	2115.625
3003.14791	2102.725
3005.57506	2097.425
3008.00073	2105.225
3010.42493	2089.225
3012.84764	2092.825
3015.26888	2094.725
3017.68865	2100.725
3020.10694	2091.925
3022.52376	2085.625
3024.9391	2081.125
3027.35298	2075.925
3029.76539	2082.625
3032.17632	2077.325
3034.5858	2069.425
3036.9938	2081.925
3039.40034	2075.925
3041.80542	2071.525
3044.20903	2071.425
3046.61118	2069.325
3049.01187	2058.325
3051.4111	2061.825
3053.80888	2063.925
3056.20519	2058.525
3058.60005	2049.425
3060.99345	2053.125
3063.3854	2053.525
3065.7759	2043.925
3068.16494	2050.425
3070.55254	2037.125
3072.93868	2044.925
3075.32338	2037.825
3077.70662	2031.625
3080.08842	2025.925
3082.46878	2024.425
3084.84769	2006.325
3087.22515	2017.825
3089.60118	2019.825
3091.97576	2023.025
3094.3489	2025.225
3096.72061	2017.725
3099.09087	2036.125
3101.4597	2026.225
3103.82709	2030.725
3106.19305	2024.125
3108.55757	2033.425
3110.92066	2025.925
3113.28232	2025.725
3115.64255	2020.425
3118.00134	2023.725
3120.35871	2022.925
3122.71466	2020.325
3125.06917	2029.325
3127.42226	2026.225
3129.77393	2027.125
3132.12417	2023.425
3134.47299	2024.325
3136.82039	2044.025
3139.16636	2043.625
3141.51092	2053.125
3143.85406	2048.025
3146.19579	2045.825
3148.53609	2054.225
3150.87499	2072.325
3153.21246	2077.425
3155.54853	2080.125
3157.88318	2079.225
3160.21642	2085.325
3162.54826	2092.925
3164.87868	2089.525
3167.2077	2089.825
3169.5353	2091.325
3171.86151	2096.825
3174.18631	2096.225
3176.5097	2095.425
3178.83169	2100.525
3181.15228	2103.625
3183.47147	2109.125
3185.78926	2105.225
3188.10565	2107.925
3190.42065	2111.925
3192.73424	2096.725
3195.04645	2123.225
3197.35725	2123.125
3199.66667	2140.725
3201.97469	2122.125
3204.28132	2136.525
3206.58656	2144.925
3208.8904	2136.525
3211.19287	2141.925
3213.49394	2139.025
3215.79363	2144.125
3218.09193	2143.625
3220.38884	2163.225
3222.68438	2153.225
3224.97853	2155.025
3227.2713	2151.225
3229.56269	2149.725
3231.8527	2159.825
3234.14133	2162.425
