Data from AgNPs_FTO_APTES_UA_1uM_CRN_500uM_R6G_10uM_NaF_0.1M_Addition_RamanShift__36__18-26-39-906.txt Node

Date: Thu Jan 27 18:26:39 GMT 2022
User: TCL
Spectrometer: QEP01345
Trigger mode: 4
Integration Time (sec): 7.000000E0
Scans to average: 10
Electric dark correction enabled: true
Nonlinearity correction enabled: false
Boxcar width: 0
XAxis mode: Raman Shifts
Number of Pixels in Spectrum: 1044
>>>>>Begin Spectral Data<<<<<
46.04893	0.225
50.45542	1.225
54.85868	-1.475
59.25871	-1.375
63.6555	46.425
68.04907	49.325
72.43941	54.225
76.82654	55.225
81.21044	56.025
85.59113	56.025
89.96862	61.725
94.34289	59.825
98.71396	66.025
103.08183	63.325
107.4465	67.625
111.80798	71.225
116.16626	69.025
120.52136	74.125
124.87327	76.625
129.222	74.425
133.56755	78.325
137.90993	79.725
142.24913	85.225
146.58517	95.625
150.91804	111.125
155.24774	128.225
159.57429	155.725
163.89768	188.925
168.21792	257.425
172.53501	338.025
176.84895	464.425
181.15975	651.025
185.46741	912.625
189.77193	1246.825
194.07331	1671.325
198.37157	2151.225
202.6667	2664.625
206.9587	3170.825
211.24758	3660.925
215.53334	4163.825
219.81599	4688.025
224.09553	5272.325
228.37195	5907.025
232.64527	6584.425
236.91549	7324.025
241.18261	8069.925
245.44663	8764.025
249.70755	9397.125
253.96539	9983.725
258.22014	10422.325
262.4718	10793.825
266.72039	11051.725
270.96589	11194.925
275.20832	11190.525
279.44768	11079.325
283.68397	10927.725
287.91719	10784.425
292.14735	10643.225
296.37445	10591.825
300.59849	10600.925
304.81948	10605.525
309.03742	10617.925
313.25231	10575.025
317.46415	10460.825
321.67296	10320.925
325.87872	10217.825
330.08145	10181.725
334.28114	10228.925
338.47781	10281.525
342.67145	10391.925
346.86207	10489.625
351.04966	10682.525
355.23424	10810.125
359.4158	10996.125
363.59435	11126.825
367.76989	11197.225
371.94243	11297.925
376.11196	11370.425
380.27849	11427.625
384.44203	11529.025
388.60257	11567.225
392.76012	11666.625
396.91468	11747.725
401.06626	11886.125
405.21485	12031.725
409.36047	12031.625
413.50311	11951.425
417.64277	11862.125
421.77947	11891.925
425.9132	11951.825
430.04396	11999.325
434.17176	12156.225
438.2966	12248.825
442.41849	12538.725
446.53742	12976.725
450.6534	13398.525
454.76644	13638.125
458.87653	13613.225
462.98368	13395.525
467.08789	13113.125
471.18916	12840.525
475.2875	12581.125
479.38291	12404.125
483.4754	12258.525
487.56496	12155.125
491.6516	12039.025
495.73531	11951.425
499.81612	11917.125
503.89401	11950.925
507.96899	11965.625
512.04106	11950.625
516.11023	11899.725
520.1765	11861.125
524.23987	11821.925
528.30034	11791.925
532.35792	11778.925
536.41261	11665.625
540.46441	11515.525
544.51333	11481.925
548.55936	11534.125
552.60252	11719.325
556.64279	12009.025
560.6802	12237.725
564.71473	12288.625
568.7464	12343.525
572.7752	12541.125
576.80114	12719.425
580.82422	12953.325
584.84444	13421.825
588.86181	14228.625
592.87633	14993.325
596.888	15293.725
600.89682	14758.025
604.9028	14321.325
608.90594	14692.525
612.90624	15383.725
616.90371	14700.925
620.89834	12869.025
624.89015	11980.525
628.87913	11848.225
632.86528	11844.825
636.84862	11811.525
640.82913	11683.525
644.80683	11487.425
648.78172	11365.425
652.75379	11371.325
656.72306	11479.025
660.68952	11616.825
664.65319	11557.025
668.61405	11375.125
672.57211	11352.525
676.52738	11444.825
680.47986	11472.325
684.42955	11426.325
688.37646	11345.125
692.32058	11327.425
696.26192	11450.225
700.20048	11589.125
704.13626	11636.225
708.06928	11592.825
711.99952	11564.025
715.927	11565.925
719.85171	11635.025
723.77365	11592.125
727.69284	11505.725
731.60928	11425.525
735.52295	11397.425
739.43388	11455.125
743.34206	11485.025
747.24749	11511.325
751.15017	11552.925
755.05012	11675.325
758.94733	11891.925
762.8418	12276.025
766.73354	12913.225
770.62254	13594.025
774.50882	13869.325
778.39237	13495.525
782.27321	12718.325
786.15132	12036.225
790.02671	11644.925
793.89938	11464.625
797.76935	11388.225
801.6366	11366.725
805.50115	11325.825
809.36299	11278.725
813.22213	11223.225
817.07857	11177.325
820.93231	11154.925
824.78336	11108.825
828.63172	11103.825
832.47738	11119.725
836.32036	11135.425
840.16066	11176.425
843.99827	11198.825
847.8332	11181.725
851.66546	11126.425
855.49504	11127.325
859.32195	11143.325
863.1462	11111.025
866.96777	11105.325
870.78668	11088.325
874.60293	11081.625
878.41652	11086.025
882.22745	11122.025
886.03573	11166.425
889.84136	11168.025
893.64433	11128.825
897.44466	11069.025
901.24235	11041.725
905.0374	10951.125
908.8298	10934.825
912.61957	10950.025
916.40671	11004.825
920.19121	11112.925
923.97308	11254.925
927.75233	11306.825
931.52895	11247.025
935.30295	11133.025
939.07433	10951.625
942.84309	10832.625
946.60924	10768.725
950.37278	10732.425
954.13371	10657.025
957.89203	10648.425
961.64774	10627.825
965.40086	10606.225
969.15137	10557.725
972.89929	10537.225
976.64461	10507.625
980.38733	10530.425
984.12747	10541.025
987.86502	10583.225
991.59999	10684.925
995.33237	10835.725
999.06217	11045.525
1002.78939	11296.525
1006.51404	11455.425
1010.23611	11540.625
1013.95561	11628.725
1017.67255	11698.625
1021.38692	11569.825
1025.09872	11377.825
1028.80796	11359.025
1032.51465	11476.525
1036.21877	11701.325
1039.92035	11761.825
1043.61937	11682.425
1047.31584	11556.325
1051.00976	11423.625
1054.70114	11298.625
1058.38998	11257.425
1062.07627	11294.425
1065.76003	11372.025
1069.44126	11454.425
1073.11995	11556.825
1076.79611	11657.825
1080.46974	11690.825
1084.14085	11720.825
1087.80943	11756.125
1091.47549	11818.725
1095.13903	11811.725
1098.80005	11673.025
1102.45857	11507.325
1106.11456	11388.725
1109.76805	11365.925
1113.41903	11396.525
1117.06751	11452.825
1120.71348	11569.725
1124.35696	11720.425
1127.99793	11868.025
1131.63641	11968.925
1135.2724	11832.225
1138.90589	11705.425
1142.5369	11702.525
1146.16542	11733.825
1149.79145	11768.025
1153.415	11836.325
1157.03607	11944.425
1160.65467	12212.425
1164.27079	12694.725
1167.88443	13252.225
1171.49561	13880.825
1175.10432	14742.025
1178.71056	15795.825
1182.31434	16792.925
1185.91565	17150.625
1189.51451	16807.225
1193.11091	16148.625
1196.70485	15550.525
1200.29634	15017.125
1203.88538	14673.825
1207.47197	14393.425
1211.05612	14138.825
1214.63782	13879.425
1218.21708	13727.425
1221.79391	13697.725
1225.36829	13714.725
1228.94024	13612.025
1232.50976	13330.825
1236.07685	13084.325
1239.6415	12886.625
1243.20374	12826.925
1246.76355	12906.225
1250.32093	13048.125
1253.8759	13288.425
1257.42845	13556.625
1260.97859	13834.125
1264.52631	14112.725
1268.07163	14407.525
1271.61453	14702.325
1275.15503	15081.525
1278.69312	15410.125
1282.22882	15825.325
1285.76211	16308.825
1289.29301	16920.525
1292.82151	17677.625
1296.34761	18560.225
1299.87133	19673.425
1303.39266	20836.825
1306.9116	21985.325
1310.42815	22994.625
1313.94233	23602.425
1317.45412	23528.425
1320.96354	22816.425
1324.47058	21913.325
1327.97525	21017.525
1331.47754	20423.725
1334.97747	20087.825
1338.47502	19804.325
1341.97022	19395.225
1345.46305	19011.925
1348.95352	18941.025
1352.44163	19470.525
1355.92738	20616.425
1359.41078	22067.625
1362.89183	23191.925
1366.37053	23181.725
1369.84688	21492.225
1373.32088	18946.925
1376.79254	17044.925
1380.26186	16344.625
1383.72883	16292.125
1387.19347	16250.925
1390.65578	15904.125
1394.11575	15792.025
1397.57339	16013.725
1401.0287	16444.825
1404.48168	16847.225
1407.93234	16963.525
1411.38068	16773.425
1414.82669	16332.025
1418.27039	15800.225
1421.71177	15210.725
1425.15083	14678.925
1428.58758	14478.125
1432.02203	14603.425
1435.45416	14951.125
1438.88399	15410.525
1442.31151	15703.525
1445.73673	15855.225
1449.15965	15922.625
1452.58027	15889.125
1455.9986	15658.825
1459.41463	15447.325
1462.82837	15515.425
1466.23982	15792.825
1469.64898	16195.425
1473.05586	16469.125
1476.46045	16707.925
1479.86276	16834.025
1483.26279	16781.025
1486.66054	16693.625
1490.05602	16695.725
1493.44922	16719.525
1496.84016	16675.525
1500.22882	16651.825
1503.61521	16814.525
1506.99934	17106.625
1510.38121	17461.525
1513.76081	17575.025
1517.13816	17224.625
1520.51324	16697.825
1523.88607	16284.725
1527.25665	16109.525
1530.62498	16111.925
1533.99105	16068.525
1537.35488	15936.625
1540.71647	15728.425
1544.07581	15442.325
1547.4329	15112.825
1550.78776	14768.425
1554.14038	14513.825
1557.49077	14276.425
1560.83892	14152.025
1564.18484	14087.425
1567.52853	14109.325
1570.86999	14288.725
1574.20922	14545.125
1577.54624	14761.525
1580.88103	14858.225
1584.2136	14883.225
1587.54395	15260.125
1590.87208	16048.425
1594.19801	17113.025
1597.52172	18286.025
1600.84321	18948.325
1604.16251	18445.125
1607.47959	17008.225
1610.79447	15337.325
1614.10715	13849.325
1617.41763	12847.825
1620.7259	12275.325
1624.03199	12016.725
1627.33587	12041.325
1630.63757	12346.925
1633.93707	13005.225
1637.23439	14104.525
1640.52951	15787.325
1643.82246	18034.825
1647.11321	19822.225
1650.40179	20113.325
1653.68819	18510.125
1656.97241	15922.825
1660.25446	13654.025
1663.53433	12139.825
1666.81203	11241.225
1670.08756	10733.225
1673.36092	10409.225
1676.63211	10197.625
1679.90115	10059.725
1683.16801	9906.225
1686.43272	9813.425
1689.69527	9732.225
1692.95567	9683.425
1696.2139	9585.825
1699.46999	9530.125
1702.72392	9494.425
1705.97571	9524.825
1709.22535	9498.325
1712.47284	9529.325
1715.71819	9538.825
1718.96139	9538.125
1722.20246	9521.525
1725.44139	9486.625
1728.67818	9409.625
1731.91284	9384.725
1735.14537	9364.725
1738.37576	9313.425
1741.60403	9304.925
1744.83017	9252.325
1748.05418	9220.025
1751.27607	9222.425
1754.49584	9208.625
1757.71349	9205.025
1760.92903	9146.925
1764.14244	9155.225
1767.35375	9140.325
1770.56294	9102.225
1773.77002	9110.525
1776.97499	9084.525
1780.17785	9088.325
1783.37861	9094.125
1786.57727	9093.725
1789.77382	9083.625
1792.96828	9072.125
1796.16064	9057.125
1799.3509	9017.725
1802.53907	9020.025
1805.72514	9006.225
1808.90913	8965.625
1812.09102	8972.925
1815.27083	8921.825
1818.44856	8932.525
1821.6242	8884.525
1824.79776	8888.225
1827.96924	8861.225
1831.13864	8889.225
1834.30597	8872.725
1837.47122	8849.825
1840.6344	8853.625
1843.7955	8851.825
1846.95454	8841.625
1850.11151	8815.925
1853.26642	8826.325
1856.41926	8827.025
1859.57004	8859.425
1862.71876	8855.025
1865.86542	8832.525
1869.01003	8810.225
1872.15258	8823.325
1875.29308	8784.425
1878.43152	8786.725
1881.56792	8781.925
1884.70227	8774.425
1887.83457	8775.025
1890.96482	8740.225
1894.09304	8728.925
1897.21921	8723.325
1900.34335	8729.925
1903.46544	8729.725
1906.58551	8712.325
1909.70353	8691.425
1912.81953	8696.125
1915.93349	8687.825
1919.04543	8657.225
1922.15534	8669.125
1925.26322	8645.825
1928.36908	8644.025
1931.47292	8628.425
1934.57473	8563.325
1937.67453	8575.725
1940.77232	8545.725
1943.86808	8521.625
1946.96184	8514.525
1950.05358	8463.625
1953.14331	8448.125
1956.23103	8433.525
1959.31675	8408.225
1962.40046	8387.825
1965.48217	8387.825
1968.56188	8340.025
1971.63959	8302.225
1974.7153	8308.825
1977.78901	8277.425
1980.86073	8260.025
1983.93046	8228.725
1986.99819	8178.725
1990.06394	8168.825
1993.1277	8153.925
1996.18947	8115.025
1999.24925	8121.025
2002.30706	8089.025
2005.36288	8061.225
2008.41672	8078.325
2011.46859	8043.925
2014.51848	8023.325
2017.56639	8003.725
2020.61233	7974.825
2023.6563	7953.525
2026.6983	7938.725
2029.73833	7926.125
2032.7764	7914.825
2035.8125	7895.725
2038.84664	7875.025
2041.87881	7866.625
2044.90903	7842.925
2047.93729	7841.625
2050.96359	7843.025
2053.98794	7803.525
2057.01034	7817.725
2060.03078	7817.825
2063.04927	7796.425
2066.06582	7809.725
2069.08042	7804.025
2072.09307	7788.825
2075.10378	7772.625
2078.11255	7788.925
2081.11938	7777.725
2084.12426	7782.625
2087.12722	7739.925
2090.12824	7768.325
2093.12732	7780.825
2096.12447	7773.625
2099.11969	7762.525
2102.11299	7781.025
2105.10435	7767.725
2108.09379	7784.125
2111.08131	7802.625
2114.0669	7773.225
2117.05057	7795.925
2120.03233	7786.425
2123.01216	7790.225
2125.99008	7817.825
2128.96609	7831.025
2131.94018	7829.525
2134.91236	7821.225
2137.88263	7843.725
2140.851	7834.725
2143.81746	7849.725
2146.78201	7821.225
2149.74466	7820.725
2152.7054	7815.825
2155.66425	7827.825
2158.6212	7819.625
2161.57625	7778.425
2164.52941	7800.225
2167.48067	7815.825
2170.43004	7820.725
2173.37752	7822.025
2176.32311	7814.225
2179.26681	7826.125
2182.20863	7818.425
2185.14856	7804.125
2188.08661	7843.325
2191.02278	7828.525
2193.95707	7816.725
2196.88948	7807.425
2199.82001	7817.225
2202.74867	7791.425
2205.67545	7811.625
2208.60037	7770.025
2211.52341	7770.825
2214.44458	7744.025
2217.36388	7751.825
2220.28132	7719.325
2223.1969	7722.325
2226.11061	7732.325
2229.02246	7712.825
2231.93245	7693.325
2234.84058	7685.825
2237.74686	7670.125
2240.65128	7666.225
2243.55385	7651.225
2246.45456	7645.125
2249.35343	7625.825
2252.25044	7615.925
2255.14561	7592.725
2258.03893	7594.825
2260.93041	7584.325
2263.82004	7552.025
2266.70783	7541.725
2269.59378	7520.625
2272.4779	7500.425
2275.36017	7491.825
2278.24061	7492.125
2281.11922	7473.225
2283.996	7462.125
2286.87094	7455.325
2289.74405	7426.225
2292.61534	7442.825
2295.4848	7423.825
2298.35243	7430.825
2301.21824	7419.225
2304.08223	7437.625
2306.94439	7433.125
2309.80474	7426.825
2312.66327	7419.425
2315.51999	7428.625
2318.37489	7418.825
2321.22797	7407.125
2324.07925	7381.225
2326.92871	7375.225
2329.77637	7371.725
2332.62222	7357.725
2335.46626	7367.325
2338.3085	7350.925
2341.14893	7350.325
2343.98756	7328.025
2346.8244	7357.025
2349.65943	7340.925
2352.49267	7332.425
2355.32411	7308.125
2358.15376	7311.825
2360.98161	7316.725
2363.80768	7301.425
2366.63195	7325.025
2369.45444	7302.325
2372.27514	7289.425
2375.09405	7281.925
2377.91118	7272.125
2380.72652	7267.825
2383.54009	7240.125
2386.35187	7234.925
2389.16188	7213.725
2391.97011	7206.925
2394.77657	7199.125
2397.58125	7194.325
2400.38416	7187.425
2403.18529	7153.825
2405.98466	7139.625
2408.78226	7138.825
2411.57809	7122.925
2414.37216	7104.625
2417.16446	7111.325
2419.955	7072.825
2422.74378	7104.125
2425.5308	7109.125
2428.31606	7110.425
2431.09956	7096.025
2433.88131	7065.325
2436.6613	7086.025
2439.43954	7091.425
2442.21603	7094.125
2444.99077	7064.725
2447.76377	7068.425
2450.53501	7063.225
2453.30451	7050.925
2456.07226	7068.825
2458.83827	7051.825
2461.60254	7063.025
2464.36507	7055.125
2467.12586	7058.925
2469.88492	7060.025
2472.64224	7062.625
2475.39782	7060.825
2478.15167	7045.425
2480.90379	7054.425
2483.65417	7058.125
2486.40283	7050.925
2489.14976	7038.525
2491.89497	7040.425
2494.63845	7028.625
2497.3802	7023.625
2500.12024	7023.425
2502.85855	7038.825
2505.59514	7038.825
2508.33002	7022.125
2511.06318	7030.625
2513.79462	7003.925
2516.52435	7015.625
2519.25237	6968.025
2521.97867	6970.725
2524.70327	6977.125
2527.42616	6978.625
2530.14734	6960.425
2532.86681	6967.925
2535.58458	6960.825
2538.30065	6945.325
2541.01501	6958.625
2543.72768	6938.325
2546.43864	6933.525
2549.14791	6930.125
2551.85548	6924.525
2554.56136	6906.925
2557.26554	6903.325
2559.96803	6896.925
2562.66883	6894.525
2565.36794	6877.025
2568.06536	6878.125
2570.7611	6876.925
2573.45514	6881.525
2576.14751	6870.725
2578.83819	6849.625
2581.52719	6865.425
2584.21451	6852.325
2586.90015	6832.725
2589.58411	6826.925
2592.2664	6828.525
2594.94701	6822.925
2597.62594	6807.025
2600.30321	6797.925
2602.9788	6774.625
2605.65273	6782.225
2608.32498	6781.525
2610.99557	6749.725
2613.66449	6783.025
2616.33175	6769.525
2618.99734	6765.625
2621.66128	6759.325
2624.32355	6745.225
2626.98416	6771.225
2629.64311	6744.025
2632.30041	6722.825
2634.95605	6719.325
2637.61004	6722.525
2640.26238	6712.425
2642.91306	6720.525
2645.56209	6700.525
2648.20948	6702.125
2650.85521	6696.925
2653.4993	6708.425
2656.14175	6726.625
2658.78255	6717.425
2661.42171	6742.725
2664.05923	6733.325
2666.6951	6739.025
2669.32934	6745.525
2671.96194	6735.925
2674.59291	6746.425
2677.22224	6737.525
2679.84993	6707.025
2682.476	6725.725
2685.10043	6704.125
2687.72324	6733.025
2690.34441	6738.225
2692.96396	6722.925
2695.58188	6726.825
2698.19818	6740.325
2700.81285	6723.725
2703.4259	6725.525
2706.03733	6708.925
2708.64714	6710.525
2711.25533	6730.825
2713.86191	6728.125
2716.46687	6727.125
2719.07021	6746.925
2721.67194	6756.925
2724.27206	6762.425
2726.87057	6780.425
2729.46747	6778.725
2732.06276	6780.125
2734.65644	6754.025
2737.24852	6775.725
2739.83899	6782.725
2742.42786	6749.525
2745.01513	6741.825
2747.60079	6735.425
2750.18486	6739.425
2752.76733	6738.925
2755.3482	6731.325
2757.92747	6737.125
2760.50515	6725.225
2763.08123	6739.325
2765.65573	6714.225
2768.22863	6730.225
2770.79994	6731.025
2773.36967	6714.725
2775.9378	6704.625
2778.50435	6718.825
2781.06932	6699.925
2783.6327	6720.025
2786.1945	6699.225
2788.75471	6698.825
2791.31335	6680.025
2793.87041	6670.025
2796.42589	6640.425
2798.97979	6677.625
2801.53212	6652.025
2804.08288	6653.025
2806.63206	6616.125
2809.17967	6620.725
2811.72571	6620.025
2814.27018	6592.725
2816.81308	6574.825
2819.35442	6586.725
2821.89419	6586.625
2824.43239	6594.025
2826.96904	6556.625
2829.50412	6566.025
2832.03763	6560.525
2834.56959	6554.925
2837.1	6570.425
2839.62884	6580.425
2842.15613	6600.025
2844.68186	6668.825
2847.20604	6683.725
2849.72867	6715.825
2852.24974	6704.925
2854.76927	6696.925
2857.28724	6684.225
2859.80367	6668.525
2862.31855	6650.625
2864.83189	6655.925
2867.34368	6655.725
2869.85393	6646.225
2872.36264	6634.425
2874.8698	6648.525
2877.37543	6610.925
2879.87952	6617.725
2882.38207	6625.025
2884.88308	6650.025
2887.38256	6636.025
2889.88051	6635.325
2892.37692	6633.325
2894.8718	6654.425
2897.36515	6646.125
2899.85698	6678.925
2902.34727	6661.625
2904.83604	6673.325
2907.32328	6685.625
2909.809	6688.725
2912.29319	6697.925
2914.77587	6697.925
2917.25702	6683.325
2919.73665	6693.825
2922.21476	6696.325
2924.69136	6702.725
2927.16644	6704.425
2929.64	6711.125
2932.11205	6684.825
2934.58258	6662.325
2937.05161	6677.625
2939.51912	6690.825
2941.98513	6652.025
2944.44962	6635.725
2946.91261	6584.925
2949.37409	6598.825
2951.83407	6589.625
2954.29254	6550.125
2956.74951	6537.325
2959.20498	6543.625
2961.65895	6556.525
2964.11142	6546.525
2966.56239	6526.325
2969.01186	6510.125
2971.45984	6487.425
2973.90632	6483.225
2976.35131	6474.625
2978.7948	6464.825
2981.23681	6442.925
2983.67732	6423.525
2986.11635	6417.025
2988.55388	6392.025
2990.98993	6384.025
2993.4245	6382.025
2995.85758	6367.225
2998.28917	6353.425
3000.71928	6327.825
3003.14791	6319.325
3005.57506	6321.725
3008.00073	6309.325
3010.42493	6304.025
3012.84764	6314.925
3015.26888	6298.225
3017.68865	6309.525
3020.10694	6282.725
3022.52376	6265.125
3024.9391	6262.025
3027.35298	6242.425
3029.76539	6270.025
3032.17632	6239.725
3034.5858	6245.625
3036.9938	6246.625
3039.40034	6241.025
3041.80542	6228.525
3044.20903	6234.525
3046.61118	6223.525
3049.01187	6237.025
3051.4111	6216.525
3053.80888	6203.725
3056.20519	6210.225
3058.60005	6187.925
3060.99345	6188.125
3063.3854	6161.725
3065.7759	6163.825
3068.16494	6148.925
3070.55254	6121.425
3072.93868	6129.325
3075.32338	6117.525
3077.70662	6113.925
3080.08842	6096.725
3082.46878	6083.925
3084.84769	6086.425
3087.22515	6074.725
3089.60118	6104.725
3091.97576	6077.925
3094.3489	6103.025
3096.72061	6115.725
3099.09087	6128.125
3101.4597	6099.025
3103.82709	6103.325
3106.19305	6086.425
3108.55757	6090.425
3110.92066	6095.025
3113.28232	6076.025
3115.64255	6057.325
3118.00134	6053.425
3120.35871	6049.725
3122.71466	6054.725
3125.06917	6052.025
3127.42226	6053.625
3129.77393	6032.125
3132.12417	6029.525
3134.47299	6034.425
3136.82039	6051.425
3139.16636	6061.125
3141.51092	6053.925
3143.85406	6062.225
3146.19579	6054.825
3148.53609	6066.825
3150.87499	6093.125
3153.21246	6078.125
3155.54853	6098.225
3157.88318	6090.425
3160.21642	6098.625
3162.54826	6093.125
3164.87868	6095.525
3167.2077	6098.825
3169.5353	6106.125
3171.86151	6105.125
3174.18631	6097.825
3176.5097	6108.925
3178.83169	6102.025
3181.15228	6120.025
3183.47147	6093.925
3185.78926	6078.125
3188.10565	6095.425
3190.42065	6099.625
