Data from AgNPs_FTO_APTES_UA_1uM_CRN_10uM_R6G_10uM_NaF_0.1M_Addition_RamanShift__19__14-37-59-644.txt Node

Date: Thu Jan 27 14:37:59 GMT 2022
User: TCL
Spectrometer: QEP01345
Trigger mode: 4
Integration Time (sec): 7.000000E0
Scans to average: 10
Electric dark correction enabled: true
Nonlinearity correction enabled: false
Boxcar width: 0
XAxis mode: Raman Shifts
Number of Pixels in Spectrum: 1044
>>>>>Begin Spectral Data<<<<<
46.04893	1.6875
50.45542	-0.0125
54.85868	-2.3125
59.25871	-1.3125
63.6555	45.0875
68.04907	45.2875
72.43941	48.3875
76.82654	53.1875
81.21044	57.7875
85.59113	54.5875
89.96862	58.6875
94.34289	60.2875
98.71396	64.3875
103.08183	63.8875
107.4465	65.8875
111.80798	67.0875
116.16626	65.6875
120.52136	71.3875
124.87327	70.2875
129.222	70.5875
133.56755	77.7875
137.90993	83.4875
142.24913	89.9875
146.58517	99.5875
150.91804	111.1875
155.24774	129.2875
159.57429	158.1875
163.89768	194.7875
168.21792	258.3875
172.53501	346.3875
176.84895	475.3875
181.15975	654.8875
185.46741	924.0875
189.77193	1264.4875
194.07331	1698.3875
198.37157	2179.7875
202.6667	2698.1875
206.9587	3197.9875
211.24758	3687.0875
215.53334	4182.5875
219.81599	4716.9875
224.09553	5290.5875
228.37195	5941.7875
232.64527	6637.0875
236.91549	7396.8875
241.18261	8150.0875
245.44663	8837.9875
249.70755	9470.3875
253.96539	10053.9875
258.22014	10518.3875
262.4718	10907.6875
266.72039	11183.4875
270.96589	11341.4875
275.20832	11388.2875
279.44768	11365.6875
283.68397	11251.7875
287.91719	11187.0875
292.14735	11128.8875
296.37445	11193.2875
300.59849	11209.0875
304.81948	11276.6875
309.03742	11266.8875
313.25231	11103.4875
317.46415	10822.3875
321.67296	10487.6875
325.87872	10222.3875
330.08145	10064.5875
334.28114	10056.1875
338.47781	10125.8875
342.67145	10225.0875
346.86207	10387.9875
351.04966	10613.4875
355.23424	10839.9875
359.4158	11010.3875
363.59435	11166.7875
367.76989	11261.6875
371.94243	11316.7875
376.11196	11385.8875
380.27849	11442.0875
384.44203	11519.9875
388.60257	11584.6875
392.76012	11697.1875
396.91468	11846.2875
401.06626	12017.2875
405.21485	12125.1875
409.36047	12085.0875
413.50311	11906.3875
417.64277	11735.2875
421.77947	11692.8875
425.9132	11757.3875
430.04396	11823.0875
434.17176	11890.1875
438.2966	11986.2875
442.41849	12149.1875
446.53742	12411.8875
450.6534	12745.9875
454.76644	13022.4875
458.87653	13150.3875
462.98368	13136.5875
467.08789	13007.1875
471.18916	12847.6875
475.2875	12717.8875
479.38291	12632.1875
483.4754	12539.7875
487.56496	12413.1875
491.6516	12185.5875
495.73531	12035.7875
499.81612	11968.8875
503.89401	12023.3875
507.96899	12074.4875
512.04106	12069.9875
516.11023	11984.0875
520.1765	11904.0875
524.23987	11795.3875
528.30034	11700.3875
532.35792	11580.1875
536.41261	11432.6875
540.46441	11324.1875
544.51333	11321.8875
548.55936	11467.2875
552.60252	11734.9875
556.64279	11994.1875
560.6802	12159.7875
564.71473	12217.4875
568.7464	12339.2875
572.7752	12600.2875
576.80114	12829.8875
580.82422	13037.5875
584.84444	13225.3875
588.86181	13390.4875
592.87633	13514.0875
596.888	13575.5875
600.89682	13586.2875
604.9028	14011.5875
608.90594	15153.4875
612.90624	16342.0875
616.90371	15449.4875
620.89834	13074.2875
624.89015	12073.3875
628.87913	12017.0875
632.86528	12062.2875
636.84862	11886.6875
640.82913	11682.1875
644.80683	11391.5875
648.78172	11130.7875
652.75379	11060.2875
656.72306	11164.5875
660.68952	11348.9875
664.65319	11301.9875
668.61405	11134.7875
672.57211	11045.6875
676.52738	11057.9875
680.47986	11040.3875
684.42955	10995.1875
688.37646	10963.7875
692.32058	10986.6875
696.26192	11109.3875
700.20048	11234.5875
704.13626	11279.8875
708.06928	11275.4875
711.99952	11195.3875
715.927	11147.9875
719.85171	11183.4875
723.77365	11180.5875
727.69284	11055.2875
731.60928	10966.3875
735.52295	10899.3875
739.43388	10926.9875
743.34206	10932.8875
747.24749	10987.9875
751.15017	11131.6875
755.05012	11277.1875
758.94733	11617.3875
762.8418	12211.6875
766.73354	13072.6875
770.62254	14001.9875
774.50882	14207.9875
778.39237	13595.7875
782.27321	12587.4875
786.15132	11801.1875
790.02671	11321.5875
793.89938	11079.4875
797.76935	11063.6875
801.6366	11016.1875
805.50115	10972.4875
809.36299	10914.1875
813.22213	10790.5875
817.07857	10760.1875
820.93231	10711.5875
824.78336	10684.4875
828.63172	10687.8875
832.47738	10695.7875
836.32036	10721.7875
840.16066	10744.0875
843.99827	10830.4875
847.8332	10795.3875
851.66546	10721.0875
855.49504	10662.6875
859.32195	10682.6875
863.1462	10634.5875
866.96777	10597.9875
870.78668	10544.2875
874.60293	10538.9875
878.41652	10533.2875
882.22745	10582.2875
886.03573	10622.2875
889.84136	10630.2875
893.64433	10586.2875
897.44466	10498.6875
901.24235	10490.2875
905.0374	10434.9875
908.8298	10415.1875
912.61957	10413.1875
916.40671	10568.6875
920.19121	10713.1875
923.97308	10869.1875
927.75233	10906.5875
931.52895	10907.1875
935.30295	10791.2875
939.07433	10563.3875
942.84309	10359.7875
946.60924	10303.9875
950.37278	10262.4875
954.13371	10217.4875
957.89203	10154.6875
961.64774	10119.0875
965.40086	10069.3875
969.15137	10058.9875
972.89929	9992.1875
976.64461	9983.7875
980.38733	9938.3875
984.12747	10016.2875
987.86502	10120.0875
991.59999	10276.6875
995.33237	10547.2875
999.06217	10940.9875
1002.78939	11387.0875
1006.51404	11566.8875
1010.23611	11596.2875
1013.95561	11669.4875
1017.67255	11668.5875
1021.38692	11576.5875
1025.09872	11458.5875
1028.80796	11628.2875
1032.51465	12115.8875
1036.21877	12645.0875
1039.92035	12667.5875
1043.61937	12413.1875
1047.31584	11999.8875
1051.00976	11548.0875
1054.70114	11322.5875
1058.38998	11301.1875
1062.07627	11355.3875
1065.76003	11359.8875
1069.44126	11384.2875
1073.11995	11521.6875
1076.79611	11633.4875
1080.46974	11714.2875
1084.14085	11785.9875
1087.80943	11922.4875
1091.47549	11969.5875
1095.13903	11973.7875
1098.80005	11836.1875
1102.45857	11603.1875
1106.11456	11404.4875
1109.76805	11349.2875
1113.41903	11386.5875
1117.06751	11464.1875
1120.71348	11544.2875
1124.35696	11673.8875
1127.99793	11786.7875
1131.63641	11888.8875
1135.2724	11830.2875
1138.90589	11721.8875
1142.5369	11684.4875
1146.16542	11702.0875
1149.79145	11689.7875
1153.415	11768.0875
1157.03607	11956.6875
1160.65467	12222.1875
1164.27079	12682.7875
1167.88443	13388.7875
1171.49561	14243.3875
1175.10432	15347.8875
1178.71056	16714.9875
1182.31434	18043.2875
1185.91565	18763.9875
1189.51451	18766.8875
1193.11091	18182.7875
1196.70485	17347.2875
1200.29634	16560.0875
1203.88538	15916.1875
1207.47197	15460.7875
1211.05612	15101.8875
1214.63782	14863.4875
1218.21708	14642.0875
1221.79391	14511.3875
1225.36829	14494.4875
1228.94024	14316.0875
1232.50976	14025.5875
1236.07685	13775.0875
1239.6415	13624.3875
1243.20374	13581.3875
1246.76355	13666.2875
1250.32093	13892.9875
1253.8759	14185.0875
1257.42845	14623.4875
1260.97859	15051.3875
1264.52631	15444.1875
1268.07163	15855.3875
1271.61453	16380.3875
1275.15503	16956.9875
1278.69312	17553.5875
1282.22882	18063.6875
1285.76211	18450.5875
1289.29301	18784.7875
1292.82151	19323.3875
1296.34761	20125.2875
1299.87133	21282.4875
1303.39266	22642.2875
1306.9116	24223.6875
1310.42815	25741.8875
1313.94233	26683.5875
1317.45412	26650.8875
1320.96354	25987.4875
1324.47058	25216.4875
1327.97525	24589.6875
1331.47754	24094.1875
1334.97747	23782.0875
1338.47502	23688.3875
1341.97022	23588.3875
1345.46305	23387.6875
1348.95352	23126.9875
1352.44163	22865.3875
1355.92738	23092.4875
1359.41078	23964.3875
1362.89183	24816.2875
1366.37053	24424.9875
1369.84688	22504.0875
1373.32088	20215.9875
1376.79254	18578.6875
1380.26186	17842.0875
1383.72883	17746.3875
1387.19347	17781.3875
1390.65578	17627.1875
1394.11575	17536.2875
1397.57339	17701.6875
1401.0287	18059.8875
1404.48168	18365.7875
1407.93234	18428.5875
1411.38068	18214.9875
1414.82669	17677.1875
1418.27039	16988.2875
1421.71177	16303.0875
1425.15083	15701.2875
1428.58758	15359.5875
1432.02203	15356.3875
1435.45416	15667.8875
1438.88399	16099.4875
1442.31151	16509.1875
1445.73673	16803.8875
1449.15965	17067.8875
1452.58027	17236.1875
1455.9986	17313.6875
1459.41463	17426.2875
1462.82837	17664.0875
1466.23982	18034.1875
1469.64898	18361.5875
1473.05586	18573.8875
1476.46045	18600.1875
1479.86276	18443.9875
1483.26279	18206.2875
1486.66054	17950.2875
1490.05602	17902.3875
1493.44922	17981.6875
1496.84016	18110.6875
1500.22882	18384.5875
1503.61521	18948.6875
1506.99934	19693.7875
1510.38121	20317.9875
1513.76081	20616.7875
1517.13816	20221.4875
1520.51324	19448.7875
1523.88607	18756.7875
1527.25665	18257.7875
1530.62498	18052.3875
1533.99105	17954.3875
1537.35488	17830.1875
1540.71647	17653.7875
1544.07581	17383.1875
1547.4329	17101.2875
1550.78776	16797.0875
1554.14038	16603.8875
1557.49077	16514.1875
1560.83892	16406.5875
1564.18484	16377.5875
1567.52853	16384.0875
1570.86999	16499.1875
1574.20922	16716.2875
1577.54624	16893.9875
1580.88103	16944.6875
1584.2136	17011.2875
1587.54395	17421.4875
1590.87208	18220.4875
1594.19801	19332.2875
1597.52172	20583.9875
1600.84321	21041.2875
1604.16251	20164.5875
1607.47959	18573.5875
1610.79447	16940.4875
1614.10715	15516.7875
1617.41763	14286.0875
1620.7259	13475.0875
1624.03199	12989.9875
1627.33587	12940.3875
1630.63757	13328.9875
1633.93707	14136.7875
1637.23439	15407.7875
1640.52951	17139.7875
1643.82246	18991.7875
1647.11321	20350.0875
1650.40179	20554.6875
1653.68819	19291.1875
1656.97241	16952.9875
1660.25446	14605.1875
1663.53433	12886.2875
1666.81203	11703.1875
1670.08756	10968.7875
1673.36092	10522.6875
1676.63211	10218.2875
1679.90115	10011.0875
1683.16801	9873.5875
1686.43272	9751.5875
1689.69527	9625.1875
1692.95567	9555.2875
1696.2139	9472.6875
1699.46999	9410.6875
1702.72392	9339.1875
1705.97571	9372.5875
1709.22535	9364.9875
1712.47284	9362.9875
1715.71819	9375.3875
1718.96139	9368.0875
1722.20246	9331.8875
1725.44139	9299.4875
1728.67818	9238.9875
1731.91284	9208.2875
1735.14537	9151.4875
1738.37576	9100.6875
1741.60403	9061.6875
1744.83017	9027.3875
1748.05418	9023.8875
1751.27607	8998.2875
1754.49584	8959.6875
1757.71349	8946.1875
1760.92903	8926.9875
1764.14244	8878.7875
1767.35375	8889.5875
1770.56294	8880.4875
1773.77002	8870.1875
1776.97499	8869.2875
1780.17785	8861.6875
1783.37861	8860.3875
1786.57727	8871.8875
1789.77382	8873.9875
1792.96828	8865.4875
1796.16064	8821.1875
1799.3509	8808.9875
1802.53907	8814.5875
1805.72514	8777.9875
1808.90913	8782.2875
1812.09102	8745.2875
1815.27083	8733.5875
1818.44856	8726.9875
1821.6242	8699.3875
1824.79776	8691.3875
1827.96924	8689.2875
1831.13864	8674.9875
1834.30597	8690.5875
1837.47122	8664.5875
1840.6344	8680.4875
1843.7955	8662.5875
1846.95454	8698.5875
1850.11151	8690.9875
1853.26642	8701.2875
1856.41926	8681.2875
1859.57004	8692.4875
1862.71876	8685.1875
1865.86542	8702.5875
1869.01003	8653.9875
1872.15258	8675.1875
1875.29308	8656.1875
1878.43152	8648.9875
1881.56792	8683.0875
1884.70227	8642.3875
1887.83457	8660.2875
1890.96482	8648.8875
1894.09304	8645.5875
1897.21921	8654.2875
1900.34335	8637.5875
1903.46544	8615.9875
1906.58551	8629.9875
1909.70353	8613.7875
1912.81953	8590.6875
1915.93349	8588.6875
1919.04543	8568.2875
1922.15534	8549.1875
1925.26322	8531.1875
1928.36908	8507.6875
1931.47292	8491.2875
1934.57473	8455.6875
1937.67453	8436.5875
1940.77232	8423.4875
1943.86808	8368.7875
1946.96184	8354.2875
1950.05358	8323.6875
1953.14331	8301.3875
1956.23103	8265.5875
1959.31675	8254.1875
1962.40046	8221.0875
1965.48217	8211.2875
1968.56188	8201.8875
1971.63959	8158.5875
1974.7153	8149.6875
1977.78901	8126.7875
1980.86073	8090.9875
1983.93046	8067.4875
1986.99819	8037.8875
1990.06394	8025.9875
1993.1277	7980.7875
1996.18947	7987.3875
1999.24925	7959.7875
2002.30706	7919.4875
2005.36288	7929.2875
2008.41672	7873.0875
2011.46859	7868.2875
2014.51848	7841.2875
2017.56639	7838.2875
2020.61233	7807.7875
2023.6563	7816.2875
2026.6983	7778.3875
2029.73833	7774.8875
2032.7764	7760.4875
2035.8125	7761.7875
2038.84664	7751.1875
2041.87881	7731.4875
2044.90903	7728.7875
2047.93729	7699.9875
2050.96359	7718.7875
2053.98794	7712.0875
2057.01034	7690.3875
2060.03078	7669.8875
2063.04927	7678.9875
2066.06582	7680.2875
2069.08042	7693.2875
2072.09307	7684.5875
2075.10378	7664.9875
2078.11255	7651.5875
2081.11938	7644.6875
2084.12426	7635.5875
2087.12722	7649.0875
2090.12824	7627.1875
2093.12732	7634.4875
2096.12447	7619.5875
2099.11969	7628.2875
2102.11299	7633.3875
2105.10435	7658.7875
2108.09379	7651.4875
2111.08131	7665.8875
2114.0669	7652.3875
2117.05057	7668.0875
2120.03233	7670.3875
2123.01216	7681.5875
2125.99008	7694.8875
2128.96609	7700.2875
2131.94018	7709.6875
2134.91236	7694.3875
2137.88263	7739.6875
2140.851	7702.7875
2143.81746	7720.2875
2146.78201	7732.3875
2149.74466	7746.0875
2152.7054	7737.6875
2155.66425	7746.1875
2158.6212	7728.8875
2161.57625	7714.1875
2164.52941	7709.3875
2167.48067	7725.4875
2170.43004	7705.2875
2173.37752	7727.9875
2176.32311	7735.5875
2179.26681	7724.6875
2182.20863	7718.9875
2185.14856	7727.6875
2188.08661	7737.2875
2191.02278	7742.6875
2193.95707	7739.0875
2196.88948	7732.1875
2199.82001	7742.1875
2202.74867	7736.5875
2205.67545	7752.2875
2208.60037	7713.0875
2211.52341	7743.7875
2214.44458	7731.9875
2217.36388	7718.7875
2220.28132	7710.6875
2223.1969	7692.1875
2226.11061	7710.5875
2229.02246	7687.1875
2231.93245	7659.3875
2234.84058	7646.3875
2237.74686	7617.1875
2240.65128	7616.8875
2243.55385	7590.5875
2246.45456	7582.9875
2249.35343	7577.7875
2252.25044	7564.3875
2255.14561	7530.2875
2258.03893	7555.4875
2260.93041	7543.5875
2263.82004	7503.6875
2266.70783	7515.7875
2269.59378	7475.8875
2272.4779	7472.9875
2275.36017	7439.3875
2278.24061	7460.3875
2281.11922	7436.3875
2283.996	7430.5875
2286.87094	7420.7875
2289.74405	7409.3875
2292.61534	7408.6875
2295.4848	7407.0875
2298.35243	7402.8875
2301.21824	7407.2875
2304.08223	7420.7875
2306.94439	7417.6875
2309.80474	7437.1875
2312.66327	7437.2875
2315.51999	7438.5875
2318.37489	7418.1875
2321.22797	7442.7875
2324.07925	7429.6875
2326.92871	7424.6875
2329.77637	7399.0875
2332.62222	7419.5875
2335.46626	7403.1875
2338.3085	7394.6875
2341.14893	7379.2875
2343.98756	7419.8875
2346.8244	7424.9875
2349.65943	7433.1875
2352.49267	7419.4875
2355.32411	7431.0875
2358.15376	7414.6875
2360.98161	7418.8875
2363.80768	7387.5875
2366.63195	7388.4875
2369.45444	7372.0875
2372.27514	7364.0875
2375.09405	7355.0875
2377.91118	7335.6875
2380.72652	7316.4875
2383.54009	7277.5875
2386.35187	7298.0875
2389.16188	7257.0875
2391.97011	7261.5875
2394.77657	7257.7875
2397.58125	7257.9875
2400.38416	7248.2875
2403.18529	7220.3875
2405.98466	7224.9875
2408.78226	7190.8875
2411.57809	7184.8875
2414.37216	7184.7875
2417.16446	7174.1875
2419.955	7151.2875
2422.74378	7169.8875
2425.5308	7159.1875
2428.31606	7142.9875
2431.09956	7141.8875
2433.88131	7131.1875
2436.6613	7137.8875
2439.43954	7150.3875
2442.21603	7132.4875
2444.99077	7150.8875
2447.76377	7129.0875
2450.53501	7129.1875
2453.30451	7134.8875
2456.07226	7133.0875
2458.83827	7132.9875
2461.60254	7129.2875
2464.36507	7138.2875
2467.12586	7116.1875
2469.88492	7119.3875
2472.64224	7148.0875
2475.39782	7156.5875
2478.15167	7134.4875
2480.90379	7133.3875
2483.65417	7159.5875
2486.40283	7176.5875
2489.14976	7165.6875
2491.89497	7166.1875
2494.63845	7168.0875
2497.3802	7164.9875
2500.12024	7153.8875
2502.85855	7156.1875
2505.59514	7175.7875
2508.33002	7156.5875
2511.06318	7152.1875
2513.79462	7153.3875
2516.52435	7136.7875
2519.25237	7136.5875
2521.97867	7117.5875
2524.70327	7120.6875
2527.42616	7110.4875
2530.14734	7131.0875
2532.86681	7113.4875
2535.58458	7115.6875
2538.30065	7109.1875
2541.01501	7117.8875
2543.72768	7108.2875
2546.43864	7100.9875
2549.14791	7094.0875
2551.85548	7079.7875
2554.56136	7075.5875
2557.26554	7062.3875
2559.96803	7063.7875
2562.66883	7068.0875
2565.36794	7074.5875
2568.06536	7051.9875
2570.7611	7041.7875
2573.45514	7045.3875
2576.14751	7059.5875
2578.83819	7048.8875
2581.52719	7037.6875
2584.21451	7030.1875
2586.90015	7048.3875
2589.58411	7042.7875
2592.2664	7030.6875
2594.94701	7044.0875
2597.62594	7026.9875
2600.30321	7022.4875
2602.9788	7018.2875
2605.65273	7026.5875
2608.32498	7022.6875
2610.99557	7017.0875
2613.66449	7017.2875
2616.33175	7024.6875
2618.99734	7019.5875
2621.66128	7023.7875
2624.32355	7040.4875
2626.98416	7044.2875
2629.64311	7048.8875
2632.30041	7044.5875
2634.95605	7023.9875
2637.61004	7022.5875
2640.26238	7008.7875
2642.91306	7030.7875
2645.56209	7003.4875
2648.20948	7003.3875
2650.85521	6978.7875
2653.4993	6972.1875
2656.14175	6987.5875
2658.78255	7005.0875
2661.42171	6997.7875
2664.05923	7002.0875
2666.6951	7012.0875
2669.32934	7013.5875
2671.96194	7004.5875
2674.59291	7014.4875
2677.22224	7003.3875
2679.84993	7010.8875
2682.476	6993.3875
2685.10043	6990.9875
2687.72324	6960.0875
2690.34441	6961.5875
2692.96396	6975.5875
2695.58188	6977.0875
2698.19818	6979.3875
2700.81285	6973.5875
2703.4259	6969.3875
2706.03733	6953.2875
2708.64714	6938.2875
2711.25533	6970.0875
2713.86191	6990.2875
2716.46687	6995.5875
2719.07021	6983.9875
2721.67194	7020.5875
2724.27206	7013.4875
2726.87057	7000.1875
2729.46747	7027.9875
2732.06276	7007.6875
2734.65644	7011.3875
2737.24852	7005.6875
2739.83899	7018.3875
2742.42786	7020.5875
2745.01513	6977.6875
2747.60079	7005.2875
2750.18486	7000.3875
2752.76733	7006.2875
2755.3482	6986.8875
2757.92747	6978.6875
2760.50515	6981.0875
2763.08123	6982.0875
2765.65573	6991.7875
2768.22863	7001.0875
2770.79994	6974.9875
2773.36967	6992.3875
2775.9378	7000.4875
2778.50435	6999.4875
2781.06932	6976.2875
2783.6327	6975.8875
2786.1945	6969.8875
2788.75471	6983.5875
2791.31335	6960.2875
2793.87041	6961.8875
2796.42589	6931.7875
2798.97979	6952.8875
2801.53212	6937.3875
2804.08288	6931.9875
2806.63206	6902.6875
2809.17967	6917.7875
2811.72571	6885.4875
2814.27018	6861.3875
2816.81308	6859.6875
2819.35442	6869.8875
2821.89419	6862.6875
2824.43239	6870.1875
2826.96904	6846.6875
2829.50412	6862.4875
2832.03763	6833.2875
2834.56959	6855.4875
2837.1	6828.7875
2839.62884	6842.8875
2842.15613	6833.6875
2844.68186	6837.0875
2847.20604	6855.9875
2849.72867	6860.9875
2852.24974	6855.6875
2854.76927	6871.3875
2857.28724	6863.7875
2859.80367	6840.0875
2862.31855	6835.2875
2864.83189	6832.2875
2867.34368	6813.4875
2869.85393	6837.7875
2872.36264	6814.4875
2874.8698	6813.3875
2877.37543	6818.0875
2879.87952	6823.9875
2882.38207	6803.3875
2884.88308	6824.5875
2887.38256	6822.5875
2889.88051	6825.5875
2892.37692	6814.3875
2894.8718	6813.6875
2897.36515	6842.4875
2899.85698	6843.3875
2902.34727	6874.2875
2904.83604	6871.7875
2907.32328	6852.2875
2909.809	6900.9875
2912.29319	6898.7875
2914.77587	6922.6875
2917.25702	6907.3875
2919.73665	6897.1875
2922.21476	6910.1875
2924.69136	6874.7875
2927.16644	6879.1875
2929.64	6880.8875
2932.11205	6885.7875
2934.58258	6835.4875
2937.05161	6855.8875
2939.51912	6846.0875
2941.98513	6823.3875
2944.44962	6812.1875
2946.91261	6792.0875
2949.37409	6796.6875
2951.83407	6803.4875
2954.29254	6807.7875
2956.74951	6775.7875
2959.20498	6796.2875
2961.65895	6781.8875
2964.11142	6793.0875
2966.56239	6774.4875
2969.01186	6768.0875
2971.45984	6745.5875
2973.90632	6725.1875
2976.35131	6721.2875
2978.7948	6708.9875
2981.23681	6700.9875
2983.67732	6694.7875
2986.11635	6670.6875
2988.55388	6660.4875
2990.98993	6661.3875
2993.4245	6625.7875
2995.85758	6625.8875
2998.28917	6623.7875
3000.71928	6620.3875
3003.14791	6584.0875
3005.57506	6583.4875
3008.00073	6564.5875
3010.42493	6565.6875
3012.84764	6557.4875
3015.26888	6589.4875
3017.68865	6558.6875
3020.10694	6541.1875
3022.52376	6524.3875
3024.9391	6513.6875
3027.35298	6520.7875
3029.76539	6507.9875
3032.17632	6525.0875
3034.5858	6510.5875
3036.9938	6512.2875
3039.40034	6506.6875
3041.80542	6513.2875
3044.20903	6483.9875
3046.61118	6507.1875
3049.01187	6485.6875
3051.4111	6513.8875
3053.80888	6485.8875
3056.20519	6477.2875
3058.60005	6470.9875
3060.99345	6436.7875
3063.3854	6426.7875
3065.7759	6427.8875
3068.16494	6412.6875
3070.55254	6404.0875
3072.93868	6394.4875
3075.32338	6380.8875
3077.70662	6376.5875
3080.08842	6354.6875
3082.46878	6356.8875
