Data from AgNPs_FTO_APTES_UA_1uM_CRN_500uM_R6G_10uM_NaF_0.1M_Addition_RamanShift__9__17-55-09-870.txt Node

Date: Thu Jan 27 17:55:09 GMT 2022
User: TCL
Spectrometer: QEP01345
Trigger mode: 4
Integration Time (sec): 7.000000E0
Scans to average: 10
Electric dark correction enabled: true
Nonlinearity correction enabled: false
Boxcar width: 0
XAxis mode: Raman Shifts
Number of Pixels in Spectrum: 1044
>>>>>Begin Spectral Data<<<<<
46.04893	-0.3125
50.45542	0.9875
54.85868	-1.6125
59.25871	0.0875
63.6555	43.6875
68.04907	49.1875
72.43941	47.3875
76.82654	51.8875
81.21044	52.7875
85.59113	54.7875
89.96862	55.6875
94.34289	63.7875
98.71396	64.4875
103.08183	62.0875
107.4465	66.0875
111.80798	67.9875
116.16626	63.4875
120.52136	71.8875
124.87327	72.5875
129.222	69.2875
133.56755	70.4875
137.90993	75.0875
142.24913	81.3875
146.58517	89.0875
150.91804	100.6875
155.24774	116.9875
159.57429	138.3875
163.89768	167.6875
168.21792	220.7875
172.53501	293.1875
176.84895	400.0875
181.15975	553.1875
185.46741	770.5875
189.77193	1054.9875
194.07331	1427.0875
198.37157	1833.3875
202.6667	2271.0875
206.9587	2701.7875
211.24758	3118.3875
215.53334	3533.6875
219.81599	3989.4875
224.09553	4465.1875
228.37195	4981.4875
232.64527	5580.9875
236.91549	6183.7875
241.18261	6805.4875
245.44663	7406.4875
249.70755	7962.3875
253.96539	8441.6875
258.22014	8814.0875
262.4718	9129.3875
266.72039	9361.2875
270.96589	9460.4875
275.20832	9426.0875
279.44768	9348.1875
283.68397	9226.3875
287.91719	9118.7875
292.14735	9022.2875
296.37445	9002.3875
300.59849	8971.6875
304.81948	9001.7875
309.03742	8985.1875
313.25231	8950.5875
317.46415	8826.8875
321.67296	8636.7875
325.87872	8476.7875
330.08145	8400.7875
334.28114	8389.7875
338.47781	8461.1875
342.67145	8510.3875
346.86207	8640.0875
351.04966	8795.7875
355.23424	8930.3875
359.4158	9049.2875
363.59435	9136.3875
367.76989	9199.5875
371.94243	9271.4875
376.11196	9318.2875
380.27849	9371.8875
384.44203	9415.9875
388.60257	9464.9875
392.76012	9532.0875
396.91468	9647.6875
401.06626	9783.3875
405.21485	9865.4875
409.36047	9852.6875
413.50311	9755.6875
417.64277	9689.7875
421.77947	9758.9875
425.9132	9791.1875
430.04396	9856.8875
434.17176	9904.9875
438.2966	9928.9875
442.41849	9979.5875
446.53742	10141.5875
450.6534	10312.7875
454.76644	10430.9875
458.87653	10444.9875
462.98368	10397.0875
467.08789	10336.7875
471.18916	10220.9875
475.2875	10060.6875
479.38291	9980.8875
483.4754	9934.7875
487.56496	9860.6875
491.6516	9754.7875
495.73531	9722.6875
499.81612	9730.6875
503.89401	9755.9875
507.96899	9850.8875
512.04106	9857.5875
516.11023	9813.3875
520.1765	9711.1875
524.23987	9641.0875
528.30034	9590.4875
532.35792	9533.2875
536.41261	9441.0875
540.46441	9362.3875
544.51333	9340.0875
548.55936	9401.5875
552.60252	9545.2875
556.64279	9697.0875
560.6802	9842.3875
564.71473	9859.8875
568.7464	9926.0875
572.7752	10123.9875
576.80114	10331.0875
580.82422	10624.4875
584.84444	11052.1875
588.86181	11634.9875
592.87633	12018.3875
596.888	11904.7875
600.89682	11348.8875
604.9028	11054.7875
608.90594	11486.7875
612.90624	12188.5875
616.90371	11727.1875
620.89834	10218.3875
624.89015	9524.4875
628.87913	9439.0875
632.86528	9478.4875
636.84862	9547.4875
640.82913	9472.9875
644.80683	9336.4875
648.78172	9217.9875
652.75379	9249.7875
656.72306	9320.8875
660.68952	9391.7875
664.65319	9339.8875
668.61405	9251.1875
672.57211	9206.7875
676.52738	9308.3875
680.47986	9336.5875
684.42955	9312.8875
688.37646	9246.9875
692.32058	9212.1875
696.26192	9256.8875
700.20048	9340.5875
704.13626	9367.2875
708.06928	9392.1875
711.99952	9383.3875
715.927	9380.1875
719.85171	9396.7875
723.77365	9360.0875
727.69284	9278.5875
731.60928	9222.0875
735.52295	9167.5875
739.43388	9173.1875
743.34206	9174.8875
747.24749	9214.2875
751.15017	9275.4875
755.05012	9382.6875
758.94733	9560.1875
762.8418	9878.4875
766.73354	10387.2875
770.62254	10962.7875
774.50882	11155.9875
778.39237	10876.9875
782.27321	10242.4875
786.15132	9736.2875
790.02671	9368.6875
793.89938	9226.5875
797.76935	9162.3875
801.6366	9134.3875
805.50115	9095.7875
809.36299	9065.3875
813.22213	8987.2875
817.07857	8965.8875
820.93231	8934.1875
824.78336	8886.9875
828.63172	8849.4875
832.47738	8863.6875
836.32036	8834.5875
840.16066	8847.1875
843.99827	8829.4875
847.8332	8823.3875
851.66546	8814.4875
855.49504	8834.3875
859.32195	8829.6875
863.1462	8823.6875
866.96777	8809.0875
870.78668	8807.7875
874.60293	8820.8875
878.41652	8816.1875
882.22745	8832.8875
886.03573	8859.7875
889.84136	8911.6875
893.64433	8873.7875
897.44466	8853.5875
901.24235	8813.4875
905.0374	8755.1875
908.8298	8742.5875
912.61957	8722.5875
916.40671	8779.9875
920.19121	8835.6875
923.97308	8890.9875
927.75233	8938.4875
931.52895	8902.4875
935.30295	8796.5875
939.07433	8656.1875
942.84309	8548.1875
946.60924	8488.3875
950.37278	8435.9875
954.13371	8414.6875
957.89203	8419.0875
961.64774	8420.1875
965.40086	8390.8875
969.15137	8360.2875
972.89929	8331.2875
976.64461	8277.8875
980.38733	8288.7875
984.12747	8256.8875
987.86502	8264.3875
991.59999	8284.5875
995.33237	8331.7875
999.06217	8409.1875
1002.78939	8509.8875
1006.51404	8586.5875
1010.23611	8730.3875
1013.95561	8802.7875
1017.67255	8870.6875
1021.38692	8841.4875
1025.09872	8743.7875
1028.80796	8628.9875
1032.51465	8547.3875
1036.21877	8537.3875
1039.92035	8564.9875
1043.61937	8611.2875
1047.31584	8612.2875
1051.00976	8661.1875
1054.70114	8716.4875
1058.38998	8729.8875
1062.07627	8796.0875
1065.76003	8895.9875
1069.44126	8988.5875
1073.11995	9105.2875
1076.79611	9231.6875
1080.46974	9237.2875
1084.14085	9213.1875
1087.80943	9188.5875
1091.47549	9244.0875
1095.13903	9286.7875
1098.80005	9184.6875
1102.45857	9043.3875
1106.11456	8894.0875
1109.76805	8787.1875
1113.41903	8814.1875
1117.06751	8830.9875
1120.71348	8924.7875
1124.35696	9052.1875
1127.99793	9210.6875
1131.63641	9314.1875
1135.2724	9235.8875
1138.90589	9121.8875
1142.5369	9098.4875
1146.16542	9123.6875
1149.79145	9136.7875
1153.415	9156.1875
1157.03607	9201.0875
1160.65467	9393.4875
1164.27079	9757.7875
1167.88443	10165.4875
1171.49561	10630.5875
1175.10432	11137.2875
1178.71056	11813.8875
1182.31434	12497.0875
1185.91565	12817.0875
1189.51451	12753.2875
1193.11091	12437.0875
1196.70485	12014.3875
1200.29634	11572.8875
1203.88538	11298.9875
1207.47197	11050.5875
1211.05612	10891.4875
1214.63782	10693.4875
1218.21708	10453.8875
1221.79391	10230.4875
1225.36829	10101.8875
1228.94024	10060.4875
1232.50976	9984.5875
1236.07685	9901.6875
1239.6415	9823.4875
1243.20374	9778.6875
1246.76355	9793.6875
1250.32093	9869.7875
1253.8759	9971.4875
1257.42845	10160.3875
1260.97859	10407.3875
1264.52631	10621.2875
1268.07163	10830.9875
1271.61453	11010.2875
1275.15503	11213.9875
1278.69312	11491.9875
1282.22882	11760.5875
1285.76211	12105.1875
1289.29301	12547.8875
1292.82151	13063.1875
1296.34761	13664.6875
1299.87133	14371.7875
1303.39266	15143.0875
1306.9116	15816.9875
1310.42815	16418.3875
1313.94233	16677.1875
1317.45412	16525.4875
1320.96354	16061.9875
1324.47058	15640.3875
1327.97525	15278.8875
1331.47754	15094.1875
1334.97747	14943.6875
1338.47502	14789.3875
1341.97022	14616.6875
1345.46305	14523.1875
1348.95352	14570.4875
1352.44163	14865.5875
1355.92738	15477.2875
1359.41078	16318.9875
1362.89183	16960.0875
1366.37053	16868.1875
1369.84688	15667.7875
1373.32088	13949.7875
1376.79254	12643.4875
1380.26186	12080.4875
1383.72883	11938.6875
1387.19347	11824.9875
1390.65578	11623.3875
1394.11575	11529.2875
1397.57339	11580.5875
1401.0287	11839.4875
1404.48168	12025.5875
1407.93234	12032.4875
1411.38068	11893.0875
1414.82669	11607.4875
1418.27039	11233.9875
1421.71177	10899.3875
1425.15083	10601.8875
1428.58758	10409.8875
1432.02203	10480.4875
1435.45416	10644.8875
1438.88399	10907.3875
1442.31151	11062.9875
1445.73673	11096.9875
1449.15965	11141.4875
1452.58027	11127.6875
1455.9986	11074.2875
1459.41463	11085.4875
1462.82837	11251.4875
1466.23982	11459.5875
1469.64898	11677.0875
1473.05586	11812.7875
1476.46045	11916.2875
1479.86276	11884.3875
1483.26279	11825.6875
1486.66054	11856.6875
1490.05602	11946.8875
1493.44922	12133.4875
1496.84016	12344.4875
1500.22882	12655.2875
1503.61521	13069.4875
1506.99934	13583.6875
1510.38121	13968.4875
1513.76081	14021.7875
1517.13816	13614.7875
1520.51324	13097.0875
1523.88607	12675.6875
1527.25665	12447.6875
1530.62498	12345.3875
1533.99105	12193.9875
1537.35488	12014.6875
1540.71647	11812.4875
1544.07581	11596.1875
1547.4329	11322.3875
1550.78776	11066.5875
1554.14038	10841.1875
1557.49077	10719.2875
1560.83892	10623.6875
1564.18484	10637.0875
1567.52853	10714.0875
1570.86999	10834.8875
1574.20922	11043.3875
1577.54624	11202.5875
1580.88103	11198.9875
1584.2136	11167.3875
1587.54395	11262.5875
1590.87208	11641.8875
1594.19801	12253.1875
1597.52172	12939.2875
1600.84321	13289.1875
1604.16251	12964.8875
1607.47959	12157.7875
1610.79447	11213.6875
1614.10715	10310.2875
1617.41763	9613.3875
1620.7259	9130.1875
1624.03199	8878.0875
1627.33587	8847.9875
1630.63757	8994.6875
1633.93707	9375.8875
1637.23439	10087.6875
1640.52951	11228.8875
1643.82246	12747.4875
1647.11321	14088.2875
1650.40179	14558.2875
1653.68819	13659.2875
1656.97241	11949.5875
1660.25446	10334.2875
1663.53433	9171.4875
1666.81203	8470.7875
1670.08756	8052.2875
1673.36092	7806.9875
1676.63211	7659.0875
1679.90115	7537.1875
1683.16801	7445.9875
1686.43272	7352.3875
1689.69527	7287.5875
1692.95567	7237.5875
1696.2139	7163.7875
1699.46999	7122.1875
1702.72392	7072.5875
1705.97571	7082.9875
1709.22535	7104.2875
1712.47284	7128.8875
1715.71819	7128.0875
1718.96139	7101.5875
1722.20246	7099.8875
1725.44139	7062.4875
1728.67818	7032.0875
1731.91284	6996.7875
1735.14537	6963.9875
1738.37576	6942.5875
1741.60403	6931.0875
1744.83017	6886.0875
1748.05418	6876.8875
1751.27607	6866.9875
1754.49584	6844.2875
1757.71349	6869.7875
1760.92903	6827.9875
1764.14244	6817.4875
1767.35375	6817.8875
1770.56294	6768.6875
1773.77002	6771.7875
1776.97499	6754.5875
1780.17785	6755.3875
1783.37861	6764.8875
1786.57727	6733.2875
1789.77382	6736.3875
1792.96828	6729.6875
1796.16064	6699.6875
1799.3509	6664.6875
1802.53907	6659.6875
1805.72514	6653.2875
1808.90913	6621.5875
1812.09102	6602.0875
1815.27083	6586.0875
1818.44856	6587.6875
1821.6242	6588.8875
1824.79776	6562.3875
1827.96924	6570.1875
1831.13864	6549.6875
1834.30597	6548.9875
1837.47122	6559.2875
1840.6344	6529.7875
1843.7955	6544.0875
1846.95454	6521.4875
1850.11151	6518.9875
1853.26642	6530.4875
1856.41926	6512.7875
1859.57004	6535.1875
1862.71876	6516.1875
1865.86542	6497.2875
1869.01003	6497.6875
1872.15258	6490.5875
1875.29308	6477.1875
1878.43152	6487.1875
1881.56792	6451.1875
1884.70227	6442.7875
1887.83457	6421.4875
1890.96482	6440.9875
1894.09304	6399.8875
1897.21921	6405.6875
1900.34335	6397.5875
1903.46544	6394.9875
1906.58551	6387.3875
1909.70353	6343.7875
1912.81953	6354.0875
1915.93349	6347.0875
1919.04543	6339.7875
1922.15534	6314.4875
1925.26322	6300.8875
1928.36908	6272.9875
1931.47292	6281.2875
1934.57473	6253.9875
1937.67453	6245.5875
1940.77232	6223.2875
1943.86808	6189.4875
1946.96184	6194.1875
1950.05358	6180.5875
1953.14331	6161.3875
1956.23103	6119.4875
1959.31675	6117.4875
1962.40046	6110.5875
1965.48217	6075.9875
1968.56188	6056.0875
1971.63959	6046.7875
1974.7153	6017.1875
1977.78901	6002.8875
1980.86073	5995.7875
1983.93046	5973.6875
1986.99819	5942.6875
1990.06394	5921.2875
1993.1277	5906.8875
1996.18947	5882.3875
1999.24925	5878.7875
2002.30706	5869.0875
2005.36288	5836.8875
2008.41672	5813.7875
2011.46859	5802.4875
2014.51848	5789.4875
2017.56639	5779.2875
2020.61233	5752.8875
2023.6563	5742.2875
2026.6983	5741.0875
2029.73833	5733.3875
2032.7764	5706.9875
2035.8125	5689.6875
2038.84664	5657.1875
2041.87881	5650.3875
2044.90903	5664.8875
2047.93729	5632.2875
2050.96359	5639.9875
2053.98794	5610.6875
2057.01034	5612.3875
2060.03078	5613.5875
2063.04927	5599.6875
2066.06582	5616.5875
2069.08042	5606.0875
2072.09307	5594.7875
2075.10378	5598.2875
2078.11255	5581.4875
2081.11938	5582.3875
2084.12426	5578.2875
2087.12722	5581.3875
2090.12824	5576.0875
2093.12732	5573.3875
2096.12447	5577.7875
2099.11969	5582.6875
2102.11299	5572.2875
2105.10435	5565.7875
2108.09379	5571.7875
2111.08131	5574.9875
2114.0669	5590.4875
2117.05057	5578.5875
2120.03233	5573.5875
2123.01216	5585.5875
2125.99008	5605.6875
2128.96609	5614.9875
2131.94018	5604.2875
2134.91236	5601.3875
2137.88263	5605.0875
2140.851	5599.7875
2143.81746	5608.6875
2146.78201	5589.4875
2149.74466	5597.8875
2152.7054	5582.6875
2155.66425	5590.7875
2158.6212	5588.0875
2161.57625	5578.2875
2164.52941	5567.9875
2167.48067	5580.9875
2170.43004	5582.2875
2173.37752	5572.6875
2176.32311	5577.2875
2179.26681	5582.0875
2182.20863	5571.9875
2185.14856	5559.5875
2188.08661	5559.9875
2191.02278	5572.0875
2193.95707	5552.5875
2196.88948	5563.5875
2199.82001	5550.9875
2202.74867	5539.5875
2205.67545	5537.2875
2208.60037	5513.5875
2211.52341	5509.7875
2214.44458	5500.6875
2217.36388	5480.3875
2220.28132	5483.5875
2223.1969	5458.1875
2226.11061	5473.2875
2229.02246	5459.5875
2231.93245	5449.4875
2234.84058	5428.6875
2237.74686	5410.1875
2240.65128	5414.3875
2243.55385	5399.3875
2246.45456	5394.2875
2249.35343	5396.0875
2252.25044	5379.6875
2255.14561	5363.4875
2258.03893	5359.1875
2260.93041	5345.3875
2263.82004	5331.6875
2266.70783	5320.8875
2269.59378	5293.8875
2272.4779	5274.3875
2275.36017	5277.6875
2278.24061	5260.6875
2281.11922	5265.9875
2283.996	5255.7875
2286.87094	5239.8875
2289.74405	5228.5875
2292.61534	5202.6875
2295.4848	5206.9875
2298.35243	5210.4875
2301.21824	5202.1875
2304.08223	5216.4875
2306.94439	5216.7875
2309.80474	5195.2875
2312.66327	5196.2875
2315.51999	5183.5875
2318.37489	5167.6875
2321.22797	5158.5875
2324.07925	5152.5875
2326.92871	5146.1875
2329.77637	5136.7875
2332.62222	5143.6875
2335.46626	5123.2875
2338.3085	5120.0875
2341.14893	5107.8875
2343.98756	5095.2875
2346.8244	5081.1875
2349.65943	5099.6875
2352.49267	5090.8875
2355.32411	5098.9875
2358.15376	5083.6875
2360.98161	5082.2875
2363.80768	5098.7875
2366.63195	5093.0875
2369.45444	5078.8875
2372.27514	5062.2875
2375.09405	5065.8875
2377.91118	5043.9875
2380.72652	5019.0875
2383.54009	5028.7875
2386.35187	5009.1875
2389.16188	4989.7875
2391.97011	4993.8875
2394.77657	4988.0875
2397.58125	4973.7875
2400.38416	4965.8875
2403.18529	4947.1875
2405.98466	4942.4875
2408.78226	4939.2875
2411.57809	4943.2875
2414.37216	4911.1875
2417.16446	4910.7875
2419.955	4942.1875
2422.74378	4923.2875
2425.5308	4917.2875
2428.31606	4905.4875
2431.09956	4902.5875
2433.88131	4905.7875
2436.6613	4887.1875
2439.43954	4877.0875
2442.21603	4870.6875
2444.99077	4882.9875
2447.76377	4885.5875
2450.53501	4860.9875
2453.30451	4880.8875
2456.07226	4854.0875
2458.83827	4855.3875
2461.60254	4854.2875
2464.36507	4856.3875
2467.12586	4845.8875
2469.88492	4830.2875
2472.64224	4849.9875
2475.39782	4838.0875
2478.15167	4823.2875
2480.90379	4812.1875
2483.65417	4815.0875
2486.40283	4823.3875
2489.14976	4812.1875
2491.89497	4806.3875
2494.63845	4804.5875
2497.3802	4803.1875
2500.12024	4804.5875
2502.85855	4804.8875
2505.59514	4808.3875
2508.33002	4793.3875
2511.06318	4780.5875
2513.79462	4773.3875
2516.52435	4772.5875
2519.25237	4753.8875
2521.97867	4749.9875
2524.70327	4754.4875
2527.42616	4743.5875
2530.14734	4728.0875
2532.86681	4718.3875
2535.58458	4721.5875
2538.30065	4722.4875
2541.01501	4713.6875
2543.72768	4697.5875
2546.43864	4702.3875
2549.14791	4662.2875
2551.85548	4686.1875
2554.56136	4675.1875
2557.26554	4663.5875
2559.96803	4670.1875
2562.66883	4669.5875
2565.36794	4660.3875
2568.06536	4657.8875
2570.7611	4635.4875
2573.45514	4616.6875
2576.14751	4621.6875
2578.83819	4605.7875
2581.52719	4611.7875
2584.21451	4602.7875
2586.90015	4582.7875
2589.58411	4575.9875
2592.2664	4578.1875
2594.94701	4557.0875
2597.62594	4564.4875
2600.30321	4555.9875
2602.9788	4546.0875
2605.65273	4540.0875
2608.32498	4546.0875
2610.99557	4535.4875
2613.66449	4520.3875
2616.33175	4519.5875
2618.99734	4516.9875
2621.66128	4527.0875
2624.32355	4506.5875
2626.98416	4511.7875
2629.64311	4499.6875
2632.30041	4493.0875
2634.95605	4477.5875
2637.61004	4463.0875
2640.26238	4462.4875
2642.91306	4457.5875
2645.56209	4445.8875
2648.20948	4464.5875
2650.85521	4450.7875
2653.4993	4468.7875
2656.14175	4470.9875
2658.78255	4466.6875
2661.42171	4471.0875
2664.05923	4481.2875
2666.6951	4469.6875
2669.32934	4460.9875
2671.96194	4463.6875
2674.59291	4462.4875
2677.22224	4459.7875
2679.84993	4458.2875
2682.476	4454.3875
2685.10043	4470.0875
2687.72324	4440.9875
2690.34441	4439.6875
2692.96396	4454.7875
2695.58188	4456.5875
2698.19818	4457.1875
2700.81285	4462.7875
2703.4259	4446.9875
2706.03733	4439.3875
2708.64714	4423.9875
2711.25533	4448.8875
2713.86191	4445.9875
2716.46687	4449.8875
2719.07021	4437.9875
2721.67194	4448.7875
2724.27206	4452.5875
2726.87057	4462.6875
2729.46747	4461.1875
2732.06276	4461.5875
2734.65644	4459.2875
2737.24852	4462.0875
2739.83899	4446.3875
2742.42786	4459.1875
2745.01513	4413.4875
2747.60079	4434.2875
2750.18486	4425.0875
2752.76733	4423.4875
2755.3482	4417.6875
2757.92747	4413.3875
2760.50515	4415.5875
2763.08123	4417.4875
2765.65573	4400.0875
2768.22863	4409.0875
2770.79994	4398.8875
2773.36967	4381.7875
2775.9378	4390.7875
2778.50435	4387.0875
2781.06932	4382.0875
2783.6327	4371.5875
2786.1945	4372.3875
2788.75471	4358.0875
2791.31335	4335.8875
2793.87041	4341.0875
2796.42589	4330.1875
2798.97979	4340.7875
2801.53212	4341.8875
2804.08288	4337.5875
2806.63206	4306.4875
2809.17967	4307.1875
2811.72571	4315.9875
2814.27018	4290.5875
2816.81308	4276.6875
2819.35442	4279.7875
2821.89419	4280.4875
2824.43239	4265.9875
2826.96904	4271.3875
2829.50412	4258.4875
2832.03763	4257.4875
2834.56959	4267.8875
2837.1	4277.5875
2839.62884	4280.8875
2842.15613	4288.7875
2844.68186	4324.4875
2847.20604	4345.4875
2849.72867	4361.9875
2852.24974	4351.0875
2854.76927	4355.2875
2857.28724	4337.8875
2859.80367	4334.6875
2862.31855	4325.9875
2864.83189	4314.2875
2867.34368	4316.5875
2869.85393	4303.8875
2872.36264	4314.6875
2874.8698	4319.5875
2877.37543	4305.1875
2879.87952	4312.4875
2882.38207	4287.1875
2884.88308	4289.0875
2887.38256	4301.3875
2889.88051	4283.3875
2892.37692	4295.2875
2894.8718	4301.0875
2897.36515	4320.7875
2899.85698	4319.6875
2902.34727	4320.9875
2904.83604	4320.1875
2907.32328	4341.7875
2909.809	4320.6875
2912.29319	4327.4875
2914.77587	4315.8875
2917.25702	4308.3875
2919.73665	4328.2875
2922.21476	4330.9875
2924.69136	4320.5875
2927.16644	4330.4875
2929.64	4350.4875
2932.11205	4323.4875
2934.58258	4327.5875
2937.05161	4314.5875
2939.51912	4336.8875
2941.98513	4317.6875
2944.44962	4287.3875
2946.91261	4271.2875
2949.37409	4264.2875
2951.83407	4265.2875
2954.29254	4239.0875
2956.74951	4245.3875
2959.20498	4243.7875
2961.65895	4235.3875
2964.11142	4224.3875
2966.56239	4200.3875
2969.01186	4198.9875
2971.45984	4187.3875
2973.90632	4186.0875
2976.35131	4164.1875
2978.7948	4158.2875
2981.23681	4140.6875
2983.67732	4134.3875
2986.11635	4119.0875
2988.55388	4107.0875
2990.98993	4096.7875
2993.4245	4093.6875
2995.85758	4073.6875
2998.28917	4078.7875
3000.71928	4071.5875
3003.14791	4055.0875
3005.57506	4050.6875
3008.00073	4058.0875
3010.42493	4027.9875
3012.84764	4051.1875
3015.26888	4035.1875
3017.68865	4038.2875
3020.10694	4013.4875
3022.52376	4020.6875
3024.9391	4002.8875
3027.35298	4004.6875
3029.76539	4002.2875
3032.17632	3996.3875
3034.5858	3980.5875
3036.9938	3985.7875
3039.40034	3973.5875
3041.80542	3984.0875
3044.20903	3974.4875
3046.61118	3965.9875
3049.01187	3972.0875
3051.4111	3970.9875
3053.80888	3950.6875
3056.20519	3950.3875
3058.60005	3941.6875
3060.99345	3953.3875
3063.3854	3924.0875
3065.7759	3921.8875
3068.16494	3919.6875
3070.55254	3911.5875
3072.93868	3904.3875
3075.32338	3905.2875
3077.70662	3910.6875
3080.08842	3891.0875
3082.46878	3877.3875
3084.84769	3884.6875
3087.22515	3894.9875
3089.60118	3881.1875
3091.97576	3897.2875
3094.3489	3893.3875
3096.72061	3890.6875
3099.09087	3902.7875
3101.4597	3890.7875
3103.82709	3902.0875
3106.19305	3900.9875
