Data from AgNPs_FTO_APTES_UA_1uM_CRN_10uM_R6G_20uM_NaF_0.1M_Addition_RamanShift__12__15-11-49-684.txt Node

Date: Thu Jan 27 15:11:49 GMT 2022
User: TCL
Spectrometer: QEP01345
Trigger mode: 4
Integration Time (sec): 7.000000E0
Scans to average: 10
Electric dark correction enabled: true
Nonlinearity correction enabled: false
Boxcar width: 0
XAxis mode: Raman Shifts
Number of Pixels in Spectrum: 1044
>>>>>Begin Spectral Data<<<<<
46.04893	1.625
50.45542	-0.675
54.85868	-1.275
59.25871	-0.975
63.6555	50.225
68.04907	53.025
72.43941	54.225
76.82654	58.825
81.21044	58.525
85.59113	59.725
89.96862	65.425
94.34289	66.125
98.71396	69.325
103.08183	66.525
107.4465	72.725
111.80798	71.825
116.16626	72.825
120.52136	77.625
124.87327	80.925
129.222	81.325
133.56755	83.125
137.90993	90.425
142.24913	97.025
146.58517	104.925
150.91804	128.325
155.24774	147.325
159.57429	176.025
163.89768	223.525
168.21792	293.725
172.53501	389.525
176.84895	535.725
181.15975	760.525
185.46741	1059.225
189.77193	1470.625
194.07331	1977.225
198.37157	2556.025
202.6667	3174.225
206.9587	3762.425
211.24758	4363.125
215.53334	4944.125
219.81599	5542.025
224.09553	6206.125
228.37195	6923.625
232.64527	7714.125
236.91549	8588.325
241.18261	9472.825
245.44663	10328.525
249.70755	11127.025
253.96539	11817.125
258.22014	12430.425
262.4718	12906.125
266.72039	13212.425
270.96589	13405.825
275.20832	13424.925
279.44768	13384.825
283.68397	13256.625
287.91719	13167.225
292.14735	13055.625
296.37445	13011.125
300.59849	12973.525
304.81948	12977.625
309.03742	12961.725
313.25231	12869.825
317.46415	12717.325
321.67296	12487.625
325.87872	12317.625
330.08145	12242.725
334.28114	12264.425
338.47781	12338.925
342.67145	12467.825
346.86207	12622.225
351.04966	12785.125
355.23424	12947.525
359.4158	13101.825
363.59435	13236.525
367.76989	13358.025
371.94243	13440.225
376.11196	13501.825
380.27849	13544.025
384.44203	13634.325
388.60257	13712.125
392.76012	13837.425
396.91468	13963.925
401.06626	14176.325
405.21485	14296.925
409.36047	14308.925
413.50311	14173.225
417.64277	14068.825
421.77947	14124.325
425.9132	14173.225
430.04396	14205.425
434.17176	14295.225
438.2966	14367.225
442.41849	14466.125
446.53742	14680.625
450.6534	14864.125
454.76644	15067.825
458.87653	15150.625
462.98368	15160.725
467.08789	15153.725
471.18916	15091.925
475.2875	14979.425
479.38291	14914.525
483.4754	14893.325
487.56496	14810.525
491.6516	14707.525
495.73531	14593.625
499.81612	14526.925
503.89401	14573.825
507.96899	14638.025
512.04106	14670.225
516.11023	14637.325
520.1765	14583.625
524.23987	14461.525
528.30034	14337.825
532.35792	14272.125
536.41261	14185.925
540.46441	14098.925
544.51333	14098.825
548.55936	14222.325
552.60252	14374.425
556.64279	14586.225
560.6802	14672.025
564.71473	14806.025
568.7464	14916.325
572.7752	15209.725
576.80114	15548.925
580.82422	15878.825
584.84444	16158.725
588.86181	16370.225
592.87633	16559.225
596.888	16524.425
600.89682	16269.925
604.9028	16230.225
608.90594	16777.225
612.90624	17386.025
616.90371	16753.025
620.89834	15223.125
624.89015	14507.225
628.87913	14471.425
632.86528	14548.925
636.84862	14620.925
640.82913	14484.025
644.80683	14328.625
648.78172	14174.825
652.75379	14120.525
656.72306	14199.425
660.68952	14349.125
664.65319	14323.625
668.61405	14234.325
672.57211	14210.725
676.52738	14247.725
680.47986	14240.025
684.42955	14217.225
688.37646	14163.225
692.32058	14185.625
696.26192	14282.425
700.20048	14382.125
704.13626	14472.725
708.06928	14509.625
711.99952	14490.525
715.927	14468.725
719.85171	14422.625
723.77365	14367.625
727.69284	14299.825
731.60928	14172.225
735.52295	14129.025
739.43388	14075.025
743.34206	14108.625
747.24749	14133.725
751.15017	14227.225
755.05012	14354.625
758.94733	14615.225
762.8418	14996.525
766.73354	15628.525
770.62254	16198.325
774.50882	16325.125
778.39237	15948.625
782.27321	15312.225
786.15132	14756.425
790.02671	14431.525
793.89938	14206.825
797.76935	14129.525
801.6366	14045.925
805.50115	14019.125
809.36299	13952.225
813.22213	13922.625
817.07857	13929.925
820.93231	13908.925
824.78336	13907.125
828.63172	13870.225
832.47738	13844.925
836.32036	13826.325
840.16066	13812.225
843.99827	13800.725
847.8332	13793.325
851.66546	13807.925
855.49504	13800.025
859.32195	13835.125
863.1462	13832.325
866.96777	13814.025
870.78668	13781.225
874.60293	13811.525
878.41652	13815.025
882.22745	13865.825
886.03573	13878.725
889.84136	13904.925
893.64433	13868.925
897.44466	13838.225
901.24235	13799.225
905.0374	13783.825
908.8298	13760.125
912.61957	13776.125
916.40671	13830.425
920.19121	13937.625
923.97308	14034.925
927.75233	13999.525
931.52895	13881.125
935.30295	13781.725
939.07433	13646.725
942.84309	13532.325
946.60924	13459.425
950.37278	13412.225
954.13371	13419.425
957.89203	13389.925
961.64774	13418.225
965.40086	13373.725
969.15137	13348.825
972.89929	13275.725
976.64461	13213.825
980.38733	13233.225
984.12747	13215.225
987.86502	13235.025
991.59999	13272.225
995.33237	13328.125
999.06217	13367.925
1002.78939	13508.825
1006.51404	13632.625
1010.23611	13797.325
1013.95561	13862.725
1017.67255	13902.925
1021.38692	13869.725
1025.09872	13726.325
1028.80796	13644.025
1032.51465	13582.125
1036.21877	13561.025
1039.92035	13622.225
1043.61937	13661.125
1047.31584	13701.625
1051.00976	13734.325
1054.70114	13797.525
1058.38998	13889.325
1062.07627	13965.425
1065.76003	14076.625
1069.44126	14229.125
1073.11995	14398.025
1076.79611	14535.925
1080.46974	14609.925
1084.14085	14601.325
1087.80943	14644.525
1091.47549	14676.325
1095.13903	14762.225
1098.80005	14670.825
1102.45857	14488.225
1106.11456	14300.625
1109.76805	14141.325
1113.41903	14104.925
1117.06751	14122.725
1120.71348	14191.725
1124.35696	14266.625
1127.99793	14356.125
1131.63641	14451.425
1135.2724	14399.325
1138.90589	14343.125
1142.5369	14317.525
1146.16542	14350.425
1149.79145	14397.225
1153.415	14447.625
1157.03607	14530.525
1160.65467	14715.825
1164.27079	15042.925
1167.88443	15462.225
1171.49561	15946.925
1175.10432	16500.525
1178.71056	17217.225
1182.31434	17886.425
1185.91565	18301.725
1189.51451	18469.225
1193.11091	18392.625
1196.70485	18093.625
1200.29634	17644.425
1203.88538	17269.125
1207.47197	17040.525
1211.05612	16822.425
1214.63782	16631.425
1218.21708	16372.025
1221.79391	16008.525
1225.36829	15734.225
1228.94024	15570.625
1232.50976	15485.425
1236.07685	15434.125
1239.6415	15389.325
1243.20374	15399.925
1246.76355	15482.425
1250.32093	15605.025
1253.8759	15753.525
1257.42845	16007.625
1260.97859	16252.225
1264.52631	16536.425
1268.07163	16813.925
1271.61453	17068.825
1275.15503	17329.425
1278.69312	17587.725
1282.22882	17863.725
1285.76211	18202.925
1289.29301	18588.525
1292.82151	19032.325
1296.34761	19590.925
1299.87133	20224.525
1303.39266	20869.425
1306.9116	21412.725
1310.42815	21892.125
1313.94233	22090.925
1317.45412	22015.225
1320.96354	21877.925
1324.47058	21811.125
1327.97525	21766.225
1331.47754	21766.825
1334.97747	21782.025
1338.47502	21928.525
1341.97022	22057.825
1345.46305	22163.225
1348.95352	22240.325
1352.44163	22151.325
1355.92738	22074.225
1359.41078	22178.825
1362.89183	22238.525
1366.37053	21978.325
1369.84688	20923.525
1373.32088	19552.325
1376.79254	18504.625
1380.26186	17985.925
1383.72883	17858.225
1387.19347	17791.025
1390.65578	17636.725
1394.11575	17529.025
1397.57339	17476.925
1401.0287	17489.625
1404.48168	17563.125
1407.93234	17500.125
1411.38068	17252.125
1414.82669	16906.025
1418.27039	16529.025
1421.71177	16117.425
1425.15083	15772.925
1428.58758	15619.425
1432.02203	15622.625
1435.45416	15827.825
1438.88399	16037.925
1442.31151	16218.525
1445.73673	16373.825
1449.15965	16508.225
1452.58027	16664.325
1455.9986	16720.625
1459.41463	16785.025
1462.82837	16983.925
1466.23982	17186.825
1469.64898	17386.925
1473.05586	17547.125
1476.46045	17522.125
1479.86276	17515.425
1483.26279	17495.025
1486.66054	17450.025
1490.05602	17531.825
1493.44922	17759.225
1496.84016	18067.925
1500.22882	18479.625
1503.61521	19039.625
1506.99934	19559.425
1510.38121	19960.625
1513.76081	19986.025
1517.13816	19697.025
1520.51324	19318.525
1523.88607	18965.425
1527.25665	18784.325
1530.62498	18649.225
1533.99105	18509.025
1537.35488	18250.625
1540.71647	17962.225
1544.07581	17609.525
1547.4329	17263.225
1550.78776	16983.525
1554.14038	16794.925
1557.49077	16705.525
1560.83892	16649.025
1564.18484	16694.525
1567.52853	16736.725
1570.86999	16855.325
1574.20922	17042.125
1577.54624	17191.925
1580.88103	17171.825
1584.2136	17149.325
1587.54395	17284.325
1590.87208	17552.425
1594.19801	18022.125
1597.52172	18547.325
1600.84321	18672.125
1604.16251	18184.425
1607.47959	17468.825
1610.79447	16653.925
1614.10715	15864.325
1617.41763	15150.525
1620.7259	14562.925
1624.03199	14253.925
1627.33587	14153.425
1630.63757	14287.125
1633.93707	14728.925
1637.23439	15489.325
1640.52951	16697.525
1643.82246	18121.925
1647.11321	19363.325
1650.40179	19829.225
1653.68819	19163.725
1656.97241	17611.225
1660.25446	15890.625
1663.53433	14524.125
1666.81203	13605.925
1670.08756	12992.725
1673.36092	12626.625
1676.63211	12389.625
1679.90115	12223.025
1683.16801	12081.125
1686.43272	12003.825
1689.69527	11891.125
1692.95567	11821.525
1696.2139	11755.525
1699.46999	11644.825
1702.72392	11606.725
1705.97571	11618.325
1709.22535	11655.525
1712.47284	11654.125
1715.71819	11671.725
1718.96139	11641.825
1722.20246	11614.925
1725.44139	11584.125
1728.67818	11547.825
1731.91284	11484.725
1735.14537	11423.025
1738.37576	11396.725
1741.60403	11329.225
1744.83017	11304.925
1748.05418	11275.025
1751.27607	11256.725
1754.49584	11225.225
1757.71349	11185.525
1760.92903	11155.825
1764.14244	11148.025
1767.35375	11141.925
1770.56294	11116.125
1773.77002	11133.825
1776.97499	11138.425
1780.17785	11119.825
1783.37861	11123.925
1786.57727	11108.525
1789.77382	11111.225
1792.96828	11069.325
1796.16064	11056.725
1799.3509	11010.125
1802.53907	11004.525
1805.72514	10965.225
1808.90913	10952.425
1812.09102	10944.325
1815.27083	10916.425
1818.44856	10890.525
1821.6242	10874.325
1824.79776	10840.925
1827.96924	10856.425
1831.13864	10820.125
1834.30597	10819.725
1837.47122	10801.625
1840.6344	10829.625
1843.7955	10786.225
1846.95454	10777.725
1850.11151	10786.225
1853.26642	10781.325
1856.41926	10768.825
1859.57004	10787.325
1862.71876	10762.325
1865.86542	10721.825
1869.01003	10737.325
1872.15258	10715.825
1875.29308	10679.925
1878.43152	10646.725
1881.56792	10658.125
1884.70227	10621.025
1887.83457	10597.625
1890.96482	10593.625
1894.09304	10581.525
1897.21921	10554.325
1900.34335	10544.225
1903.46544	10554.925
1906.58551	10516.325
1909.70353	10504.925
1912.81953	10482.825
1915.93349	10466.425
1919.04543	10450.625
1922.15534	10425.625
1925.26322	10379.725
1928.36908	10372.425
1931.47292	10349.525
1934.57473	10352.925
1937.67453	10328.625
1940.77232	10272.725
1943.86808	10230.525
1946.96184	10212.225
1950.05358	10195.725
1953.14331	10171.825
1956.23103	10138.625
1959.31675	10117.225
1962.40046	10095.625
1965.48217	10053.125
1968.56188	10027.425
1971.63959	9993.225
1974.7153	9941.425
1977.78901	9924.525
1980.86073	9870.725
1983.93046	9840.325
1986.99819	9818.125
1990.06394	9802.525
1993.1277	9752.925
1996.18947	9712.725
1999.24925	9705.825
2002.30706	9657.125
2005.36288	9637.325
2008.41672	9605.725
2011.46859	9560.625
2014.51848	9561.525
2017.56639	9531.025
2020.61233	9505.125
2023.6563	9501.425
2026.6983	9464.325
2029.73833	9404.425
2032.7764	9417.725
2035.8125	9380.625
2038.84664	9353.725
2041.87881	9335.125
2044.90903	9308.625
2047.93729	9299.225
2050.96359	9274.025
2053.98794	9252.425
2057.01034	9250.425
2060.03078	9234.025
2063.04927	9255.025
2066.06582	9246.125
2069.08042	9217.425
2072.09307	9213.925
2075.10378	9226.925
2078.11255	9202.425
2081.11938	9197.025
2084.12426	9200.825
2087.12722	9196.325
2090.12824	9178.925
2093.12732	9185.225
2096.12447	9163.725
2099.11969	9159.725
2102.11299	9176.025
2105.10435	9180.825
2108.09379	9166.425
2111.08131	9187.225
2114.0669	9185.225
2117.05057	9190.925
2120.03233	9196.925
2123.01216	9190.125
2125.99008	9195.625
2128.96609	9209.325
2131.94018	9210.925
2134.91236	9219.425
2137.88263	9233.025
2140.851	9200.025
2143.81746	9219.025
2146.78201	9207.925
2149.74466	9238.225
2152.7054	9222.225
2155.66425	9212.025
2158.6212	9232.225
2161.57625	9217.825
2164.52941	9187.125
2167.48067	9166.825
2170.43004	9190.125
2173.37752	9197.625
2176.32311	9188.725
2179.26681	9163.425
2182.20863	9154.625
2185.14856	9170.325
2188.08661	9162.725
2191.02278	9181.825
2193.95707	9158.725
2196.88948	9157.725
2199.82001	9127.425
2202.74867	9119.625
2205.67545	9099.525
2208.60037	9084.025
2211.52341	9073.525
2214.44458	9071.225
2217.36388	9031.425
2220.28132	9020.525
2223.1969	8992.525
2226.11061	8945.725
2229.02246	8972.425
2231.93245	8969.925
2234.84058	8923.625
2237.74686	8919.125
2240.65128	8921.325
2243.55385	8911.425
2246.45456	8875.625
2249.35343	8850.325
2252.25044	8846.725
2255.14561	8814.025
2258.03893	8828.325
2260.93041	8765.825
2263.82004	8775.925
2266.70783	8748.525
2269.59378	8721.525
2272.4779	8705.325
2275.36017	8678.325
2278.24061	8667.325
2281.11922	8654.525
2283.996	8639.825
2286.87094	8635.425
2289.74405	8595.625
2292.61534	8588.425
2295.4848	8557.525
2298.35243	8573.725
2301.21824	8552.225
2304.08223	8559.025
2306.94439	8558.925
2309.80474	8530.925
2312.66327	8535.725
2315.51999	8509.125
2318.37489	8476.925
2321.22797	8484.025
2324.07925	8481.025
2326.92871	8466.325
2329.77637	8455.325
2332.62222	8434.425
2335.46626	8399.225
2338.3085	8373.325
2341.14893	8379.925
2343.98756	8389.625
2346.8244	8358.825
2349.65943	8344.625
2352.49267	8339.625
2355.32411	8350.825
2358.15376	8339.525
2360.98161	8328.625
2363.80768	8333.025
2366.63195	8335.425
2369.45444	8328.325
2372.27514	8299.925
2375.09405	8284.325
2377.91118	8275.125
2380.72652	8271.725
2383.54009	8243.425
2386.35187	8220.525
2389.16188	8211.225
2391.97011	8183.825
2394.77657	8169.025
2397.58125	8147.825
2400.38416	8129.325
2403.18529	8135.125
2405.98466	8121.425
2408.78226	8116.425
2411.57809	8084.625
2414.37216	8067.725
2417.16446	8069.825
2419.955	8049.625
2422.74378	8060.225
2425.5308	8041.525
2428.31606	8045.425
2431.09956	8027.325
2433.88131	8006.325
2436.6613	8024.625
2439.43954	7988.325
2442.21603	8003.725
2444.99077	7966.825
2447.76377	7974.425
2450.53501	7960.725
2453.30451	7956.525
2456.07226	7935.525
2458.83827	7942.425
2461.60254	7928.425
2464.36507	7912.025
2467.12586	7903.225
2469.88492	7881.625
2472.64224	7905.025
2475.39782	7881.225
2478.15167	7888.225
2480.90379	7858.925
2483.65417	7856.025
2486.40283	7876.425
2489.14976	7880.925
2491.89497	7851.125
2494.63845	7869.325
2497.3802	7833.725
2500.12024	7799.125
2502.85855	7833.825
2505.59514	7803.925
2508.33002	7805.425
2511.06318	7778.625
2513.79462	7791.525
2516.52435	7775.725
2519.25237	7771.825
2521.97867	7752.325
2524.70327	7773.025
2527.42616	7732.625
2530.14734	7734.125
2532.86681	7700.925
2535.58458	7723.625
2538.30065	7684.625
2541.01501	7672.425
2543.72768	7676.725
2546.43864	7654.425
2549.14791	7641.925
2551.85548	7618.325
2554.56136	7615.125
2557.26554	7611.325
2559.96803	7569.525
2562.66883	7580.225
2565.36794	7570.725
2568.06536	7553.425
2570.7611	7546.125
2573.45514	7508.025
2576.14751	7512.925
2578.83819	7504.525
2581.52719	7488.025
2584.21451	7471.325
2586.90015	7460.225
2589.58411	7445.825
2592.2664	7446.025
2594.94701	7430.525
2597.62594	7415.625
2600.30321	7389.625
2602.9788	7391.225
2605.65273	7389.225
2608.32498	7400.925
2610.99557	7368.325
2613.66449	7361.325
2616.33175	7333.525
2618.99734	7334.225
2621.66128	7335.425
2624.32355	7313.625
2626.98416	7324.425
2629.64311	7308.725
2632.30041	7307.025
2634.95605	7274.825
2637.61004	7249.025
2640.26238	7270.725
2642.91306	7256.525
2645.56209	7255.325
2648.20948	7249.425
2650.85521	7241.325
2653.4993	7234.525
2656.14175	7228.425
2658.78255	7247.525
2661.42171	7219.525
2664.05923	7244.325
2666.6951	7242.825
2669.32934	7222.125
2671.96194	7221.825
2674.59291	7243.325
2677.22224	7225.125
2679.84993	7224.125
2682.476	7214.725
2685.10043	7206.125
2687.72324	7199.925
2690.34441	7201.925
2692.96396	7183.025
2695.58188	7207.925
2698.19818	7187.725
2700.81285	7184.825
2703.4259	7185.525
2706.03733	7179.425
2708.64714	7173.625
2711.25533	7188.525
2713.86191	7174.625
2716.46687	7194.025
2719.07021	7190.325
2721.67194	7218.125
2724.27206	7186.125
2726.87057	7196.725
2729.46747	7187.525
2732.06276	7200.725
2734.65644	7176.725
2737.24852	7175.825
2739.83899	7164.225
2742.42786	7164.825
2745.01513	7133.825
2747.60079	7129.325
2750.18486	7142.925
2752.76733	7121.325
2755.3482	7121.225
2757.92747	7107.625
2760.50515	7101.425
2763.08123	7082.225
2765.65573	7066.725
2768.22863	7073.525
2770.79994	7078.525
2773.36967	7049.225
2775.9378	7049.725
2778.50435	7042.825
2781.06932	7031.725
2783.6327	7030.125
2786.1945	7030.225
2788.75471	6994.725
2791.31335	6972.525
2793.87041	6956.825
2796.42589	6947.625
2798.97979	6957.525
2801.53212	6929.125
2804.08288	6917.025
2806.63206	6899.425
2809.17967	6872.925
2811.72571	6845.725
2814.27018	6863.825
2816.81308	6832.925
2819.35442	6835.325
2821.89419	6848.825
2824.43239	6819.325
2826.96904	6817.925
2829.50412	6803.425
2832.03763	6789.625
2834.56959	6775.825
2837.1	6758.825
2839.62884	6744.425
2842.15613	6766.325
2844.68186	6785.425
2847.20604	6773.125
2849.72867	6766.225
2852.24974	6772.825
2854.76927	6767.025
2857.28724	6722.725
2859.80367	6743.825
2862.31855	6724.825
2864.83189	6714.925
2867.34368	6677.825
2869.85393	6683.025
2872.36264	6687.125
2874.8698	6693.425
2877.37543	6659.725
2879.87952	6660.025
2882.38207	6665.325
2884.88308	6660.825
2887.38256	6661.125
2889.88051	6663.525
2892.37692	6639.925
2894.8718	6623.025
2897.36515	6638.725
2899.85698	6635.925
2902.34727	6666.125
2904.83604	6639.125
2907.32328	6652.825
2909.809	6633.425
2912.29319	6637.725
2914.77587	6655.725
2917.25702	6645.625
2919.73665	6625.025
2922.21476	6634.625
2924.69136	6646.925
2927.16644	6624.425
2929.64	6625.925
2932.11205	6638.925
2934.58258	6589.225
2937.05161	6595.925
2939.51912	6600.425
2941.98513	6593.125
2944.44962	6575.325
2946.91261	6538.125
2949.37409	6559.425
2951.83407	6548.125
2954.29254	6517.625
2956.74951	6515.725
2959.20498	6516.725
2961.65895	6514.625
2964.11142	6530.025
2966.56239	6508.125
2969.01186	6493.925
2971.45984	6504.225
2973.90632	6476.525
2976.35131	6484.325
2978.7948	6464.825
2981.23681	6452.625
2983.67732	6460.825
2986.11635	6436.625
2988.55388	6414.725
2990.98993	6406.525
2993.4245	6374.825
2995.85758	6370.025
2998.28917	6364.725
3000.71928	6350.325
3003.14791	6320.725
3005.57506	6320.825
3008.00073	6306.825
3010.42493	6305.425
3012.84764	6295.725
3015.26888	6281.025
3017.68865	6287.425
3020.10694	6249.925
3022.52376	6243.925
3024.9391	6232.225
3027.35298	6236.025
3029.76539	6244.125
3032.17632	6209.325
3034.5858	6194.725
3036.9938	6199.325
3039.40034	6216.725
3041.80542	6182.025
3044.20903	6178.225
3046.61118	6173.925
3049.01187	6166.725
3051.4111	6164.525
3053.80888	6151.725
3056.20519	6134.325
3058.60005	6095.825
3060.99345	6100.125
3063.3854	6094.925
3065.7759	6062.825
3068.16494	6058.925
3070.55254	6053.025
3072.93868	6049.125
3075.32338	6033.925
3077.70662	6031.625
3080.08842	6031.825
3082.46878	6004.225
3084.84769	5997.325
3087.22515	5962.325
3089.60118	5966.725
3091.97576	5962.525
3094.3489	5991.725
3096.72061	6000.125
3099.09087	5993.725
3101.4597	5982.725
3103.82709	5984.825
3106.19305	5975.825
3108.55757	5978.725
3110.92066	5958.225
3113.28232	5945.325
3115.64255	5933.825
3118.00134	5914.725
3120.35871	5917.325
3122.71466	5901.725
3125.06917	5872.625
3127.42226	5881.025
3129.77393	5875.225
3132.12417	5865.325
3134.47299	5873.225
3136.82039	5861.725
3139.16636	5886.025
3141.51092	5885.425
3143.85406	5874.325
3146.19579	5884.925
3148.53609	5896.525
3150.87499	5888.625
3153.21246	5892.425
3155.54853	5895.525
3157.88318	5903.725
3160.21642	5907.625
3162.54826	5889.725
3164.87868	5870.725
3167.2077	5894.125
3169.5353	5894.325
3171.86151	5898.625
3174.18631	5870.925
3176.5097	5878.625
3178.83169	5875.225
3181.15228	5876.925
