Data from AgNPs_FTO_APTES_UA_1uM_CRN_0uM_R6G_10uM_NaF_0.1M_Addition_RamanShift__13__11-20-49-419.txt Node

Date: Thu Jan 27 11:20:49 GMT 2022
User: TCL
Spectrometer: QEP01345
Trigger mode: 4
Integration Time (sec): 7.000000E0
Scans to average: 10
Electric dark correction enabled: true
Nonlinearity correction enabled: false
Boxcar width: 0
XAxis mode: Raman Shifts
Number of Pixels in Spectrum: 1044
>>>>>Begin Spectral Data<<<<<
46.04893	-0.425
50.45542	1.675
54.85868	-0.925
59.25871	-0.225
63.6555	25.675
68.04907	26.775
72.43941	30.175
76.82654	32.375
81.21044	32.875
85.59113	33.575
89.96862	36.875
94.34289	38.775
98.71396	40.275
103.08183	37.175
107.4465	40.775
111.80798	40.975
116.16626	40.075
120.52136	42.975
124.87327	43.675
129.222	41.875
133.56755	41.275
137.90993	40.875
142.24913	41.575
146.58517	46.375
150.91804	46.075
155.24774	49.275
159.57429	58.575
163.89768	64.875
168.21792	83.775
172.53501	106.375
176.84895	131.875
181.15975	168.875
185.46741	235.375
189.77193	306.275
194.07331	409.975
198.37157	526.875
202.6667	641.775
206.9587	755.675
211.24758	874.775
215.53334	986.175
219.81599	1101.475
224.09553	1232.275
228.37195	1370.875
232.64527	1538.175
236.91549	1700.175
241.18261	1875.775
245.44663	2015.175
249.70755	2157.175
253.96539	2260.075
258.22014	2352.275
262.4718	2402.375
266.72039	2435.475
270.96589	2437.275
275.20832	2427.075
279.44768	2385.175
283.68397	2323.075
287.91719	2271.775
292.14735	2243.575
296.37445	2229.775
300.59849	2268.475
304.81948	2301.275
309.03742	2325.875
313.25231	2318.475
317.46415	2257.175
321.67296	2133.075
325.87872	2049.975
330.08145	2005.175
334.28114	2000.275
338.47781	2021.475
342.67145	2070.275
346.86207	2111.075
351.04966	2176.075
355.23424	2287.975
359.4158	2375.975
363.59435	2446.075
367.76989	2488.575
371.94243	2511.775
376.11196	2528.475
380.27849	2539.475
384.44203	2504.275
388.60257	2488.775
392.76012	2455.175
396.91468	2474.475
401.06626	2508.575
405.21485	2525.375
409.36047	2506.675
413.50311	2414.075
417.64277	2335.575
421.77947	2272.575
425.9132	2249.375
430.04396	2239.375
434.17176	2259.575
438.2966	2281.975
442.41849	2343.975
446.53742	2390.475
450.6534	2427.875
454.76644	2465.675
458.87653	2475.875
462.98368	2479.475
467.08789	2465.475
471.18916	2434.875
475.2875	2407.675
479.38291	2387.475
483.4754	2356.575
487.56496	2345.275
491.6516	2325.575
495.73531	2336.175
499.81612	2336.275
503.89401	2348.575
507.96899	2379.775
512.04106	2401.575
516.11023	2447.275
520.1765	2480.075
524.23987	2480.375
528.30034	2462.275
532.35792	2406.675
536.41261	2390.475
540.46441	2339.775
544.51333	2326.975
548.55936	2325.575
552.60252	2340.075
556.64279	2372.175
560.6802	2379.275
564.71473	2383.675
568.7464	2424.675
572.7752	2441.975
576.80114	2400.875
580.82422	2337.775
584.84444	2303.275
588.86181	2312.875
592.87633	2321.575
596.888	2365.575
600.89682	2402.875
604.9028	2554.275
608.90594	2952.475
612.90624	3610.075
616.90371	3624.175
620.89834	2885.675
624.89015	2492.175
628.87913	2403.775
632.86528	2391.475
636.84862	2405.475
640.82913	2407.375
644.80683	2345.375
648.78172	2309.175
652.75379	2300.375
656.72306	2360.675
660.68952	2445.575
664.65319	2426.975
668.61405	2353.175
672.57211	2308.675
676.52738	2301.475
680.47986	2309.775
684.42955	2304.775
688.37646	2306.475
692.32058	2304.475
696.26192	2315.275
700.20048	2315.975
704.13626	2320.275
708.06928	2314.675
711.99952	2302.575
715.927	2301.375
719.85171	2307.375
723.77365	2319.375
727.69284	2304.875
731.60928	2306.875
735.52295	2303.475
739.43388	2315.175
743.34206	2311.675
747.24749	2332.375
751.15017	2339.275
755.05012	2360.875
758.94733	2412.275
762.8418	2516.375
766.73354	2748.675
770.62254	3036.575
774.50882	3234.675
778.39237	3196.875
782.27321	2889.675
786.15132	2594.875
790.02671	2424.775
793.89938	2348.375
797.76935	2321.275
801.6366	2312.675
805.50115	2311.775
809.36299	2312.875
813.22213	2298.375
817.07857	2278.475
820.93231	2263.275
824.78336	2252.975
828.63172	2282.475
832.47738	2273.675
836.32036	2283.075
840.16066	2277.875
843.99827	2280.475
847.8332	2260.075
851.66546	2257.775
855.49504	2247.675
859.32195	2242.775
863.1462	2224.975
866.96777	2224.375
870.78668	2215.275
874.60293	2215.375
878.41652	2207.675
882.22745	2221.975
886.03573	2249.475
889.84136	2252.775
893.64433	2250.175
897.44466	2239.975
901.24235	2246.575
905.0374	2245.575
908.8298	2246.075
912.61957	2256.375
916.40671	2283.475
920.19121	2297.575
923.97308	2331.075
927.75233	2357.175
931.52895	2390.175
935.30295	2384.575
939.07433	2338.875
942.84309	2315.275
946.60924	2279.175
950.37278	2260.175
954.13371	2241.375
957.89203	2221.575
961.64774	2196.975
965.40086	2167.775
969.15137	2175.675
972.89929	2153.175
976.64461	2154.075
980.38733	2153.775
984.12747	2144.875
987.86502	2147.475
991.59999	2149.975
995.33237	2172.575
999.06217	2184.175
1002.78939	2208.075
1006.51404	2213.075
1010.23611	2238.975
1013.95561	2242.775
1017.67255	2247.475
1021.38692	2235.375
1025.09872	2223.175
1028.80796	2211.275
1032.51465	2222.275
1036.21877	2223.775
1039.92035	2264.875
1043.61937	2281.875
1047.31584	2272.075
1051.00976	2272.775
1054.70114	2252.175
1058.38998	2227.475
1062.07627	2243.475
1065.76003	2215.575
1069.44126	2201.175
1073.11995	2196.175
1076.79611	2213.575
1080.46974	2233.375
1084.14085	2259.175
1087.80943	2276.375
1091.47549	2274.575
1095.13903	2236.275
1098.80005	2174.275
1102.45857	2116.875
1106.11456	2095.575
1109.76805	2096.075
1113.41903	2120.075
1117.06751	2181.875
1120.71348	2224.275
1124.35696	2294.975
1127.99793	2361.275
1131.63641	2379.375
1135.2724	2309.175
1138.90589	2201.375
1142.5369	2124.075
1146.16542	2069.975
1149.79145	2029.475
1153.415	2003.675
1157.03607	2008.975
1160.65467	2028.575
1164.27079	2077.075
1167.88443	2133.175
1171.49561	2248.375
1175.10432	2444.975
1178.71056	2719.075
1182.31434	2976.775
1185.91565	3084.375
1189.51451	3061.875
1193.11091	2942.975
1196.70485	2772.875
1200.29634	2607.175
1203.88538	2465.475
1207.47197	2322.175
1211.05612	2180.575
1214.63782	2111.475
1218.21708	2080.075
1221.79391	2077.375
1225.36829	2093.275
1228.94024	2088.975
1232.50976	2093.675
1236.07685	2088.575
1239.6415	2086.675
1243.20374	2079.875
1246.76355	2075.375
1250.32093	2090.375
1253.8759	2112.575
1257.42845	2133.875
1260.97859	2161.575
1264.52631	2209.875
1268.07163	2261.075
1271.61453	2294.375
1275.15503	2322.975
1278.69312	2334.175
1282.22882	2349.175
1285.76211	2365.975
1289.29301	2427.475
1292.82151	2504.075
1296.34761	2574.675
1299.87133	2676.275
1303.39266	2792.175
1306.9116	3008.775
1310.42815	3236.675
1313.94233	3365.275
1317.45412	3301.675
1320.96354	3072.475
1324.47058	2832.875
1327.97525	2641.975
1331.47754	2534.675
1334.97747	2527.375
1338.47502	2561.975
1341.97022	2608.275
1345.46305	2695.175
1348.95352	2837.075
1352.44163	3081.675
1355.92738	3444.775
1359.41078	3936.875
1362.89183	4372.075
1366.37053	4424.775
1369.84688	3899.375
1373.32088	3277.475
1376.79254	2870.775
1380.26186	2636.875
1383.72883	2523.375
1387.19347	2438.175
1390.65578	2331.975
1394.11575	2249.475
1397.57339	2186.675
1401.0287	2148.375
1404.48168	2135.275
1407.93234	2111.675
1411.38068	2121.375
1414.82669	2114.575
1418.27039	2119.075
1421.71177	2130.875
1425.15083	2124.075
1428.58758	2119.975
1432.02203	2135.375
1435.45416	2147.575
1438.88399	2178.875
1442.31151	2170.275
1445.73673	2146.575
1449.15965	2143.575
1452.58027	2119.875
1455.9986	2092.475
1459.41463	2056.275
1462.82837	2047.075
1466.23982	2063.875
1469.64898	2078.975
1473.05586	2102.775
1476.46045	2107.075
1479.86276	2128.175
1483.26279	2149.075
1486.66054	2179.475
1490.05602	2221.375
1493.44922	2287.575
1496.84016	2414.875
1500.22882	2619.375
1503.61521	2923.975
1506.99934	3262.275
1510.38121	3580.775
1513.76081	3742.775
1517.13816	3584.175
1520.51324	3170.975
1523.88607	2761.575
1527.25665	2465.275
1530.62498	2303.775
1533.99105	2225.075
1537.35488	2189.475
1540.71647	2161.975
1544.07581	2157.675
1547.4329	2160.375
1550.78776	2163.675
1554.14038	2184.875
1557.49077	2191.575
1560.83892	2219.675
1564.18484	2250.575
1567.52853	2308.675
1570.86999	2398.475
1574.20922	2467.175
1577.54624	2475.975
1580.88103	2394.175
1584.2136	2239.975
1587.54395	2118.875
1590.87208	2074.175
1594.19801	2093.475
1597.52172	2183.275
1600.84321	2230.475
1604.16251	2220.575
1607.47959	2127.075
1610.79447	2029.875
1614.10715	1938.375
1617.41763	1853.975
1620.7259	1808.275
1624.03199	1773.075
1627.33587	1769.675
1630.63757	1786.075
1633.93707	1800.275
1637.23439	1861.375
1640.52951	1961.175
1643.82246	2114.075
1647.11321	2310.275
1650.40179	2485.075
1653.68819	2468.175
1656.97241	2242.175
1660.25446	1935.175
1663.53433	1726.775
1666.81203	1599.475
1670.08756	1526.775
1673.36092	1484.175
1676.63211	1455.575
1679.90115	1435.975
1683.16801	1414.875
1686.43272	1383.675
1689.69527	1354.275
1692.95567	1328.175
1696.2139	1278.175
1699.46999	1221.975
1702.72392	1197.075
1705.97571	1231.475
1709.22535	1273.275
1712.47284	1300.875
1715.71819	1321.275
1718.96139	1319.875
1722.20246	1323.775
1725.44139	1327.775
1728.67818	1303.775
1731.91284	1287.075
1735.14537	1264.775
1738.37576	1259.275
1741.60403	1246.475
1744.83017	1224.275
1748.05418	1221.575
1751.27607	1200.075
1754.49584	1183.675
1757.71349	1149.275
1760.92903	1118.775
1764.14244	1112.675
1767.35375	1116.775
1770.56294	1107.075
1773.77002	1117.075
1776.97499	1121.675
1780.17785	1146.475
1783.37861	1150.775
1786.57727	1160.675
1789.77382	1158.675
1792.96828	1160.275
1796.16064	1155.675
1799.3509	1152.375
1802.53907	1152.175
1805.72514	1138.475
1808.90913	1140.075
1812.09102	1134.975
1815.27083	1135.675
1818.44856	1124.975
1821.6242	1126.675
1824.79776	1115.675
1827.96924	1128.175
1831.13864	1111.575
1834.30597	1113.075
1837.47122	1103.775
1840.6344	1113.175
1843.7955	1107.175
1846.95454	1100.575
1850.11151	1101.775
1853.26642	1095.775
1856.41926	1094.675
1859.57004	1091.875
1862.71876	1086.275
1865.86542	1089.475
1869.01003	1087.575
1872.15258	1084.875
1875.29308	1078.775
1878.43152	1081.875
1881.56792	1074.875
1884.70227	1071.275
1887.83457	1070.475
1890.96482	1080.675
1894.09304	1062.775
1897.21921	1064.875
1900.34335	1064.475
1903.46544	1058.575
1906.58551	1059.275
1909.70353	1054.875
1912.81953	1057.275
1915.93349	1058.375
1919.04543	1052.875
1922.15534	1043.775
1925.26322	1042.475
1928.36908	1041.075
1931.47292	1036.775
1934.57473	1033.775
1937.67453	1028.075
1940.77232	1026.975
1943.86808	1025.175
1946.96184	1017.175
1950.05358	1011.775
1953.14331	1011.575
1956.23103	1007.275
1959.31675	1006.575
1962.40046	996.475
1965.48217	993.275
1968.56188	990.775
1971.63959	984.875
1974.7153	985.975
1977.78901	990.475
1980.86073	973.875
1983.93046	970.175
1986.99819	969.475
1990.06394	971.575
1993.1277	957.175
1996.18947	957.375
1999.24925	956.075
2002.30706	942.075
2005.36288	945.275
2008.41672	944.275
2011.46859	935.275
2014.51848	928.275
2017.56639	931.575
2020.61233	925.275
2023.6563	922.075
2026.6983	921.475
2029.73833	923.475
2032.7764	923.175
2035.8125	908.875
2038.84664	908.575
2041.87881	908.875
2044.90903	909.575
2047.93729	905.975
2050.96359	900.375
2053.98794	905.475
2057.01034	896.475
2060.03078	889.175
2063.04927	890.375
2066.06582	896.875
2069.08042	903.375
2072.09307	894.475
2075.10378	889.475
2078.11255	891.475
2081.11938	899.075
2084.12426	895.675
2087.12722	884.675
2090.12824	883.775
2093.12732	896.275
2096.12447	889.975
2099.11969	895.175
2102.11299	881.075
2105.10435	888.875
2108.09379	894.775
2111.08131	881.575
2114.0669	888.975
2117.05057	885.175
2120.03233	878.875
2123.01216	878.575
2125.99008	877.475
2128.96609	877.375
2131.94018	880.275
2134.91236	881.375
2137.88263	874.575
2140.851	874.675
2143.81746	878.875
2146.78201	868.775
2149.74466	871.575
2152.7054	867.275
2155.66425	869.875
2158.6212	869.675
2161.57625	867.175
2164.52941	870.675
2167.48067	867.575
2170.43004	863.175
2173.37752	859.875
2176.32311	854.275
2179.26681	868.575
2182.20863	863.375
2185.14856	856.575
2188.08661	858.175
2191.02278	855.275
2193.95707	856.975
2196.88948	855.675
2199.82001	852.975
2202.74867	844.075
2205.67545	841.475
2208.60037	843.275
2211.52341	850.975
2214.44458	829.475
2217.36388	833.475
2220.28132	831.275
2223.1969	822.575
2226.11061	828.275
2229.02246	826.575
2231.93245	821.775
2234.84058	816.675
2237.74686	819.875
2240.65128	821.175
2243.55385	816.475
2246.45456	811.175
2249.35343	811.475
2252.25044	806.975
2255.14561	807.975
2258.03893	802.175
2260.93041	789.375
2263.82004	795.775
2266.70783	794.775
2269.59378	798.475
2272.4779	788.075
2275.36017	793.475
2278.24061	796.375
2281.11922	785.575
2283.996	781.575
2286.87094	784.575
2289.74405	783.875
2292.61534	777.675
2295.4848	780.175
2298.35243	775.975
2301.21824	774.975
2304.08223	770.975
2306.94439	773.875
2309.80474	772.775
2312.66327	770.675
2315.51999	764.175
2318.37489	766.575
2321.22797	764.075
2324.07925	761.275
2326.92871	764.675
2329.77637	762.375
2332.62222	762.175
2335.46626	751.675
2338.3085	753.775
2341.14893	755.875
2343.98756	746.675
2346.8244	741.275
2349.65943	745.075
2352.49267	745.075
2355.32411	747.975
2358.15376	743.075
2360.98161	750.875
2363.80768	743.575
2366.63195	748.675
2369.45444	746.375
2372.27514	746.875
2375.09405	748.575
2377.91118	748.875
2380.72652	737.675
2383.54009	736.175
2386.35187	736.275
2389.16188	730.475
2391.97011	729.975
2394.77657	722.475
2397.58125	721.075
2400.38416	715.575
2403.18529	713.575
2405.98466	716.675
2408.78226	711.775
2411.57809	703.675
2414.37216	706.875
2417.16446	703.775
2419.955	709.675
2422.74378	706.675
2425.5308	705.575
2428.31606	707.875
2431.09956	700.575
2433.88131	701.875
2436.6613	700.475
2439.43954	704.275
2442.21603	701.175
2444.99077	700.675
2447.76377	706.975
2450.53501	699.175
2453.30451	698.575
2456.07226	691.975
2458.83827	690.975
2461.60254	695.775
2464.36507	688.075
2467.12586	688.775
2469.88492	688.975
2472.64224	685.775
2475.39782	677.175
2478.15167	681.575
2480.90379	682.375
2483.65417	692.575
2486.40283	688.375
2489.14976	686.775
2491.89497	690.575
2494.63845	678.875
2497.3802	675.175
2500.12024	678.275
2502.85855	678.275
2505.59514	678.775
2508.33002	674.375
2511.06318	678.275
2513.79462	673.075
2516.52435	671.375
2519.25237	669.475
2521.97867	664.875
2524.70327	662.975
2527.42616	659.875
2530.14734	657.775
2532.86681	657.275
2535.58458	657.275
2538.30065	656.375
2541.01501	658.875
2543.72768	658.675
2546.43864	658.575
2549.14791	661.175
2551.85548	651.475
2554.56136	653.875
2557.26554	648.275
2559.96803	645.675
2562.66883	647.575
2565.36794	648.975
2568.06536	650.575
2570.7611	647.375
2573.45514	649.875
2576.14751	644.275
2578.83819	645.575
2581.52719	649.575
2584.21451	647.775
2586.90015	642.975
2589.58411	634.075
2592.2664	637.975
2594.94701	638.675
2597.62594	640.375
2600.30321	630.975
2602.9788	624.875
2605.65273	632.575
2608.32498	630.275
2610.99557	629.575
2613.66449	630.775
2616.33175	631.175
2618.99734	629.175
2621.66128	633.975
2624.32355	627.975
2626.98416	621.175
2629.64311	626.875
2632.30041	628.475
2634.95605	622.975
2637.61004	622.575
2640.26238	625.475
2642.91306	621.075
2645.56209	618.575
2648.20948	619.775
2650.85521	624.575
2653.4993	621.475
2656.14175	629.075
2658.78255	629.675
2661.42171	629.375
2664.05923	630.275
2666.6951	628.175
2669.32934	634.375
2671.96194	633.375
2674.59291	637.975
2677.22224	637.575
2679.84993	635.575
2682.476	633.475
2685.10043	640.675
2687.72324	628.775
2690.34441	629.075
2692.96396	639.775
2695.58188	640.275
2698.19818	642.075
2700.81285	644.075
2703.4259	642.075
2706.03733	600.975
2708.64714	616.975
2711.25533	638.575
2713.86191	646.975
2716.46687	658.175
2719.07021	661.975
2721.67194	669.875
2724.27206	676.575
2726.87057	685.975
2729.46747	691.175
2732.06276	688.275
2734.65644	687.475
2737.24852	695.675
2739.83899	703.375
2742.42786	710.175
2745.01513	703.575
2747.60079	717.675
2750.18486	718.275
2752.76733	716.875
2755.3482	721.475
2757.92747	733.875
2760.50515	731.775
2763.08123	740.075
2765.65573	735.375
2768.22863	740.275
2770.79994	741.475
2773.36967	744.275
2775.9378	757.575
2778.50435	758.875
2781.06932	758.975
2783.6327	765.975
2786.1945	771.775
2788.75471	774.775
2791.31335	786.175
2793.87041	783.875
2796.42589	798.975
2798.97979	803.175
2801.53212	807.475
2804.08288	816.975
2806.63206	831.875
2809.17967	832.575
2811.72571	841.675
2814.27018	841.075
2816.81308	848.175
2819.35442	854.175
2821.89419	861.275
2824.43239	854.275
2826.96904	862.975
2829.50412	871.275
2832.03763	862.875
2834.56959	874.075
2837.1	880.275
2839.62884	888.575
2842.15613	907.575
2844.68186	943.375
2847.20604	973.775
2849.72867	1006.275
2852.24974	1021.675
2854.76927	1007.875
2857.28724	1005.875
2859.80367	1017.175
2862.31855	1014.075
2864.83189	1012.475
2867.34368	1003.675
2869.85393	1000.375
2872.36264	1000.175
2874.8698	1015.275
2877.37543	998.775
2879.87952	997.675
2882.38207	1002.175
2884.88308	992.375
2887.38256	994.275
2889.88051	987.575
2892.37692	983.175
2894.8718	979.475
2897.36515	983.075
2899.85698	981.475
2902.34727	985.975
2904.83604	990.475
2907.32328	982.775
2909.809	976.175
2912.29319	978.475
2914.77587	976.275
2917.25702	976.175
2919.73665	977.575
2922.21476	988.075
2924.69136	971.975
2927.16644	977.775
2929.64	972.275
2932.11205	974.275
2934.58258	958.075
2937.05161	938.975
2939.51912	924.275
2941.98513	900.875
2944.44962	873.375
2946.91261	839.475
2949.37409	824.575
2951.83407	801.475
2954.29254	778.775
2956.74951	761.675
2959.20498	751.375
2961.65895	731.575
2964.11142	723.875
2966.56239	713.675
2969.01186	699.575
2971.45984	692.975
2973.90632	683.375
2976.35131	670.875
2978.7948	660.175
2981.23681	655.975
2983.67732	649.975
2986.11635	643.275
2988.55388	643.175
2990.98993	631.975
2993.4245	623.775
2995.85758	615.675
2998.28917	619.275
3000.71928	614.675
3003.14791	609.375
3005.57506	608.375
3008.00073	606.875
3010.42493	604.175
3012.84764	599.375
3015.26888	605.975
3017.68865	604.975
3020.10694	605.375
3022.52376	606.175
3024.9391	600.275
3027.35298	600.875
3029.76539	606.675
3032.17632	605.675
3034.5858	601.275
3036.9938	605.975
3039.40034	603.975
3041.80542	608.675
3044.20903	615.375
3046.61118	608.775
3049.01187	609.575
3051.4111	614.375
3053.80888	617.775
3056.20519	610.375
3058.60005	618.975
3060.99345	618.575
3063.3854	622.375
3065.7759	623.975
3068.16494	629.375
3070.55254	624.275
3072.93868	637.275
3075.32338	630.675
3077.70662	634.075
3080.08842	636.075
3082.46878	637.875
3084.84769	635.475
3087.22515	641.375
3089.60118	639.575
3091.97576	643.775
3094.3489	650.475
3096.72061	658.775
3099.09087	663.975
3101.4597	659.575
3103.82709	658.175
3106.19305	659.675
3108.55757	674.175
3110.92066	677.875
3113.28232	671.575
3115.64255	682.175
3118.00134	690.275
3120.35871	687.775
3122.71466	696.775
3125.06917	696.775
3127.42226	705.075
3129.77393	702.475
3132.12417	713.475
3134.47299	712.975
3136.82039	724.275
3139.16636	730.875
3141.51092	748.575
3143.85406	738.575
3146.19579	745.575
3148.53609	751.375
3150.87499	766.775
3153.21246	774.875
3155.54853	777.975
3157.88318	782.975
3160.21642	797.575
3162.54826	794.275
3164.87868	799.775
3167.2077	812.975
3169.5353	810.675
3171.86151	807.775
3174.18631	822.175
3176.5097	827.175
3178.83169	834.075
3181.15228	835.975
3183.47147	840.075
3185.78926	845.075
3188.10565	849.575
3190.42065	846.075
3192.73424	860.475
3195.04645	867.175
3197.35725	862.775
3199.66667	866.975
3201.97469	869.475
3204.28132	879.175
3206.58656	880.675
3208.8904	892.375
3211.19287	891.075
3213.49394	893.075
3215.79363	908.475
3218.09193	909.475
3220.38884	905.675
3222.68438	892.075
3224.97853	899.975
3227.2713	908.075
3229.56269	909.375
3231.8527	915.575
3234.14133	924.775
3236.42858	927.075
3238.71446	922.275
3240.99896	918.875
3243.28209	929.775
3245.56384	929.075
3247.84423	928.675
3250.12324	933.975
3252.40088	925.675
3254.67715	932.975
3256.95205	939.175
3259.22558	942.575
3261.49775	950.875
3263.76855	944.675
3266.03799	948.175
3268.30606	947.275
3270.57277	953.075
3272.83812	947.475
3275.10211	942.975
3277.36474	947.375
3279.62601	946.875
3281.88593	950.175
3284.14448	946.475
3286.40168	952.575
3288.65753	946.675
3290.91202	939.075
3293.16516	940.175
