Data from AgNPs_FTO_APTES_UA_1uM_CRN_1000uM_R6G_10uM_NaF_0.1M_Addition_RamanShift__28__19-06-19-951.txt Node

Date: Thu Jan 27 19:06:19 GMT 2022
User: TCL
Spectrometer: QEP01345
Trigger mode: 4
Integration Time (sec): 7.000000E0
Scans to average: 10
Electric dark correction enabled: true
Nonlinearity correction enabled: false
Boxcar width: 0
XAxis mode: Raman Shifts
Number of Pixels in Spectrum: 1044
>>>>>Begin Spectral Data<<<<<
46.04893	0.525
50.45542	1.225
54.85868	-1.575
59.25871	-1.075
63.6555	43.025
68.04907	42.325
72.43941	44.825
76.82654	49.025
81.21044	47.725
85.59113	47.925
89.96862	51.825
94.34289	52.525
98.71396	55.025
103.08183	53.325
107.4465	58.525
111.80798	60.925
116.16626	60.025
120.52136	62.825
124.87327	64.225
129.222	62.825
133.56755	68.525
137.90993	70.825
142.24913	74.625
146.58517	83.625
150.91804	95.225
155.24774	107.225
159.57429	124.025
163.89768	155.225
168.21792	201.725
172.53501	268.925
176.84895	366.225
181.15975	507.425
185.46741	703.925
189.77193	970.325
194.07331	1299.425
198.37157	1680.325
202.6667	2092.625
206.9587	2477.125
211.24758	2885.225
215.53334	3293.625
219.81599	3728.525
224.09553	4238.125
228.37195	4783.125
232.64527	5379.325
236.91549	5993.225
241.18261	6562.425
245.44663	7032.625
249.70755	7437.825
253.96539	7802.625
258.22014	8039.525
262.4718	8285.825
266.72039	8452.625
270.96589	8515.425
275.20832	8491.225
279.44768	8400.025
283.68397	8236.625
287.91719	8157.325
292.14735	8109.125
296.37445	8225.425
300.59849	8456.525
304.81948	8799.525
309.03742	9055.725
313.25231	9043.925
317.46415	8670.225
321.67296	8055.725
325.87872	7578.925
330.08145	7342.025
334.28114	7332.325
338.47781	7447.325
342.67145	7666.425
346.86207	7965.325
351.04966	8410.925
355.23424	8892.825
359.4158	9254.225
363.59435	9458.225
367.76989	9530.425
371.94243	9520.525
376.11196	9475.725
380.27849	9441.625
384.44203	9340.725
388.60257	9210.425
392.76012	9139.625
396.91468	9216.725
401.06626	9445.825
405.21485	9635.825
409.36047	9520.325
413.50311	9095.625
417.64277	8669.725
421.77947	8416.425
425.9132	8311.425
430.04396	8282.225
434.17176	8331.125
438.2966	8448.825
442.41849	8656.425
446.53742	8906.225
450.6534	9144.725
454.76644	9313.425
458.87653	9357.925
462.98368	9282.025
467.08789	9115.425
471.18916	8966.725
475.2875	8785.025
479.38291	8624.425
483.4754	8514.625
487.56496	8401.525
491.6516	8306.425
495.73531	8286.825
499.81612	8277.525
503.89401	8365.425
507.96899	8487.425
512.04106	8600.025
516.11023	8743.825
520.1765	8890.425
524.23987	8868.625
528.30034	8726.625
532.35792	8530.825
536.41261	8336.925
540.46441	8156.025
544.51333	8052.225
548.55936	8078.425
552.60252	8214.825
556.64279	8394.525
560.6802	8521.625
564.71473	8672.125
568.7464	8984.825
572.7752	9234.625
576.80114	8995.325
580.82422	8702.325
584.84444	8548.725
588.86181	8550.325
592.87633	8616.025
596.888	8720.825
600.89682	8968.325
604.9028	9746.225
608.90594	12004.825
612.90624	15119.825
616.90371	14983.925
620.89834	10942.225
624.89015	8879.125
628.87913	8444.725
632.86528	8415.625
636.84862	8522.325
640.82913	8438.425
644.80683	8174.225
648.78172	8001.825
652.75379	8025.125
656.72306	8307.425
660.68952	8689.525
664.65319	8636.525
668.61405	8268.625
672.57211	8112.225
676.52738	8154.625
680.47986	8198.125
684.42955	8172.425
688.37646	8116.325
692.32058	8139.725
696.26192	8192.125
700.20048	8298.125
704.13626	8393.525
708.06928	8297.125
711.99952	8165.125
715.927	8106.925
719.85171	8065.725
723.77365	8104.325
727.69284	8049.525
731.60928	7992.725
735.52295	7984.525
739.43388	8018.325
743.34206	8034.025
747.24749	8064.725
751.15017	8106.325
755.05012	8233.425
758.94733	8554.025
762.8418	9232.025
766.73354	10452.925
770.62254	11841.825
774.50882	12674.225
778.39237	12339.025
782.27321	10896.125
786.15132	9415.425
790.02671	8557.125
793.89938	8206.025
797.76935	8044.225
801.6366	7964.025
805.50115	7931.125
809.36299	7914.125
813.22213	7894.825
817.07857	7885.625
820.93231	7889.025
824.78336	7912.825
828.63172	7940.425
832.47738	7946.525
836.32036	7948.525
840.16066	7933.025
843.99827	7920.025
847.8332	7890.125
851.66546	7896.925
855.49504	7912.325
859.32195	7903.125
863.1462	7912.925
866.96777	7884.025
870.78668	7823.925
874.60293	7807.725
878.41652	7794.125
882.22745	7811.525
886.03573	7877.225
889.84136	7849.925
893.64433	7825.025
897.44466	7784.525
901.24235	7793.125
905.0374	7753.025
908.8298	7714.025
912.61957	7709.625
916.40671	7757.625
920.19121	7830.225
923.97308	7905.925
927.75233	8015.825
931.52895	8101.325
935.30295	8032.625
939.07433	7838.825
942.84309	7606.225
946.60924	7462.125
950.37278	7399.525
954.13371	7331.725
957.89203	7298.125
961.64774	7263.725
965.40086	7218.725
969.15137	7218.325
972.89929	7181.725
976.64461	7165.625
980.38733	7162.825
984.12747	7169.925
987.86502	7213.525
991.59999	7268.925
995.33237	7320.525
999.06217	7431.725
1002.78939	7607.625
1006.51404	7704.825
1010.23611	7814.425
1013.95561	7918.525
1017.67255	7914.725
1021.38692	7804.225
1025.09872	7688.625
1028.80796	7649.825
1032.51465	7675.125
1036.21877	7774.725
1039.92035	7885.225
1043.61937	7903.525
1047.31584	7856.925
1051.00976	7840.125
1054.70114	7811.425
1058.38998	7790.925
1062.07627	7793.525
1065.76003	7840.325
1069.44126	7889.025
1073.11995	7973.625
1076.79611	8089.225
1080.46974	8210.725
1084.14085	8331.625
1087.80943	8452.925
1091.47549	8491.925
1095.13903	8357.625
1098.80005	8116.325
1102.45857	7899.225
1106.11456	7818.825
1109.76805	7854.325
1113.41903	7991.325
1117.06751	8248.225
1120.71348	8551.125
1124.35696	8917.625
1127.99793	9237.025
1131.63641	9200.225
1135.2724	8779.925
1138.90589	8353.525
1142.5369	8147.925
1146.16542	7987.625
1149.79145	7898.025
1153.415	7874.825
1157.03607	7898.825
1160.65467	8032.125
1164.27079	8267.225
1167.88443	8616.325
1171.49561	9205.625
1175.10432	10208.025
1178.71056	11474.225
1182.31434	12364.925
1185.91565	12494.125
1189.51451	12138.425
1193.11091	11490.725
1196.70485	10739.525
1200.29634	10200.325
1203.88538	9740.725
1207.47197	9252.525
1211.05612	8825.325
1214.63782	8614.525
1218.21708	8548.025
1221.79391	8564.225
1225.36829	8594.925
1228.94024	8635.725
1232.50976	8629.825
1236.07685	8647.125
1239.6415	8634.725
1243.20374	8670.525
1246.76355	8699.625
1250.32093	8790.125
1253.8759	8928.925
1257.42845	9117.425
1260.97859	9345.225
1264.52631	9572.125
1268.07163	9789.525
1271.61453	10001.825
1275.15503	10151.825
1278.69312	10222.325
1282.22882	10239.325
1285.76211	10408.425
1289.29301	10694.325
1292.82151	11010.725
1296.34761	11376.125
1299.87133	11853.725
1303.39266	12674.025
1306.9116	13905.925
1310.42815	15362.525
1313.94233	16210.325
1317.45412	15864.625
1320.96354	14821.925
1324.47058	13667.325
1327.97525	12744.725
1331.47754	12200.225
1334.97747	12027.925
1338.47502	12124.825
1341.97022	12413.025
1345.46305	12826.525
1348.95352	13405.025
1352.44163	14316.225
1355.92738	15650.725
1359.41078	17664.225
1362.89183	19458.125
1366.37053	18926.425
1369.84688	16314.525
1373.32088	13722.725
1376.79254	12000.425
1380.26186	11091.125
1383.72883	10629.525
1387.19347	10290.225
1390.65578	9916.525
1394.11575	9622.625
1397.57339	9491.625
1401.0287	9544.325
1404.48168	9663.025
1407.93234	9811.225
1411.38068	9876.625
1414.82669	9899.625
1418.27039	9801.525
1421.71177	9665.325
1425.15083	9507.125
1428.58758	9418.625
1432.02203	9434.525
1435.45416	9501.325
1438.88399	9542.925
1442.31151	9510.525
1445.73673	9500.625
1449.15965	9523.325
1452.58027	9505.825
1455.9986	9436.825
1459.41463	9395.325
1462.82837	9476.925
1466.23982	9619.225
1469.64898	9781.525
1473.05586	9908.825
1476.46045	9986.425
1479.86276	10111.925
1483.26279	10257.825
1486.66054	10458.025
1490.05602	10720.825
1493.44922	11117.825
1496.84016	11705.525
1500.22882	12677.525
1503.61521	14001.125
1506.99934	15490.125
1510.38121	16911.125
1513.76081	17572.325
1517.13816	16782.325
1520.51324	14820.225
1523.88607	12852.825
1527.25665	11563.225
1530.62498	10860.025
1533.99105	10468.425
1537.35488	10264.825
1540.71647	10151.125
1544.07581	10099.525
1547.4329	10107.925
1550.78776	10095.725
1554.14038	10084.225
1557.49077	10125.525
1560.83892	10285.225
1564.18484	10516.725
1567.52853	10777.425
1570.86999	11031.525
1574.20922	11214.525
1577.54624	11188.525
1580.88103	10757.425
1584.2136	10121.925
1587.54395	9724.225
1590.87208	9751.425
1594.19801	10187.525
1597.52172	10809.225
1600.84321	11181.225
1604.16251	10925.625
1607.47959	10334.925
1610.79447	9655.425
1614.10715	8979.625
1617.41763	8462.525
1620.7259	8110.725
1624.03199	7994.225
1627.33587	7965.325
1630.63757	8099.225
1633.93707	8376.625
1637.23439	8845.225
1640.52951	9554.725
1643.82246	10561.625
1647.11321	11720.725
1650.40179	12520.825
1653.68819	12267.725
1656.97241	10830.925
1660.25446	9269.525
1663.53433	8159.825
1666.81203	7537.625
1670.08756	7176.725
1673.36092	6958.425
1676.63211	6849.425
1679.90115	6732.625
1683.16801	6632.125
1686.43272	6570.225
1689.69527	6489.825
1692.95567	6453.625
1696.2139	6385.325
1699.46999	6330.225
1702.72392	6295.625
1705.97571	6319.925
1709.22535	6354.325
1712.47284	6372.025
1715.71819	6400.525
1718.96139	6403.925
1722.20246	6428.725
1725.44139	6420.025
1728.67818	6368.225
1731.91284	6309.425
1735.14537	6274.225
1738.37576	6233.125
1741.60403	6213.425
1744.83017	6161.325
1748.05418	6156.725
1751.27607	6132.725
1754.49584	6106.525
1757.71349	6067.825
1760.92903	6027.225
1764.14244	6003.525
1767.35375	5992.825
1770.56294	5974.125
1773.77002	5979.525
1776.97499	5941.825
1780.17785	5947.725
1783.37861	5958.425
1786.57727	5942.825
1789.77382	5947.425
1792.96828	5952.625
1796.16064	5921.425
1799.3509	5910.725
1802.53907	5921.525
1805.72514	5877.325
1808.90913	5862.825
1812.09102	5851.025
1815.27083	5845.625
1818.44856	5816.025
1821.6242	5807.725
1824.79776	5785.225
1827.96924	5792.925
1831.13864	5780.225
1834.30597	5764.125
1837.47122	5779.425
1840.6344	5746.425
1843.7955	5759.225
1846.95454	5756.125
1850.11151	5742.525
1853.26642	5750.225
1856.41926	5745.225
1859.57004	5752.925
1862.71876	5733.625
1865.86542	5729.525
1869.01003	5736.625
1872.15258	5724.225
1875.29308	5724.525
1878.43152	5730.425
1881.56792	5700.925
1884.70227	5717.625
1887.83457	5707.825
1890.96482	5713.525
1894.09304	5701.325
1897.21921	5715.825
1900.34335	5678.925
1903.46544	5691.225
1906.58551	5692.125
1909.70353	5689.625
1912.81953	5688.725
1915.93349	5675.025
1919.04543	5673.125
1922.15534	5655.725
1925.26322	5667.325
1928.36908	5634.225
1931.47292	5623.725
1934.57473	5597.425
1937.67453	5592.525
1940.77232	5552.425
1943.86808	5518.325
1946.96184	5531.525
1950.05358	5491.125
1953.14331	5493.025
1956.23103	5451.925
1959.31675	5431.625
1962.40046	5425.025
1965.48217	5417.425
1968.56188	5393.525
1971.63959	5384.625
1974.7153	5374.425
1977.78901	5352.825
1980.86073	5321.925
1983.93046	5322.025
1986.99819	5292.825
1990.06394	5262.025
1993.1277	5253.825
1996.18947	5242.725
1999.24925	5233.725
2002.30706	5217.525
2005.36288	5205.425
2008.41672	5179.725
2011.46859	5178.525
2014.51848	5164.525
2017.56639	5133.825
2020.61233	5116.425
2023.6563	5116.225
2026.6983	5093.425
2029.73833	5086.025
2032.7764	5061.925
2035.8125	5065.125
2038.84664	5037.125
2041.87881	5023.725
2044.90903	5034.625
2047.93729	5015.825
2050.96359	4999.525
2053.98794	4992.825
2057.01034	4979.125
2060.03078	4980.625
2063.04927	4971.725
2066.06582	4978.325
2069.08042	4976.225
2072.09307	4954.225
2075.10378	4965.325
2078.11255	4952.825
2081.11938	4956.625
2084.12426	4937.825
2087.12722	4941.525
2090.12824	4939.025
2093.12732	4950.025
2096.12447	4935.525
2099.11969	4947.325
2102.11299	4928.825
2105.10435	4931.625
2108.09379	4943.125
2111.08131	4946.625
2114.0669	4945.925
2117.05057	4947.225
2120.03233	4955.225
2123.01216	4951.625
2125.99008	4965.125
2128.96609	4969.425
2131.94018	4969.325
2134.91236	4956.425
2137.88263	4969.825
2140.851	4951.525
2143.81746	4959.825
2146.78201	4968.125
2149.74466	4968.325
2152.7054	4961.525
2155.66425	4959.725
2158.6212	4953.225
2161.57625	4933.525
2164.52941	4936.325
2167.48067	4953.725
2170.43004	4928.325
2173.37752	4937.225
2176.32311	4939.525
2179.26681	4928.825
2182.20863	4925.325
2185.14856	4927.725
2188.08661	4933.625
2191.02278	4930.225
2193.95707	4908.525
2196.88948	4917.225
2199.82001	4903.425
2202.74867	4899.025
2205.67545	4895.025
2208.60037	4895.425
2211.52341	4877.425
2214.44458	4883.025
2217.36388	4865.425
2220.28132	4859.025
2223.1969	4836.925
2226.11061	4843.225
2229.02246	4822.025
2231.93245	4807.025
2234.84058	4809.425
2237.74686	4789.925
2240.65128	4787.125
2243.55385	4777.725
2246.45456	4773.125
2249.35343	4753.725
2252.25044	4757.125
2255.14561	4753.925
2258.03893	4743.625
2260.93041	4735.225
2263.82004	4723.725
2266.70783	4720.625
2269.59378	4717.525
2272.4779	4698.725
2275.36017	4692.625
2278.24061	4687.925
2281.11922	4671.725
2283.996	4659.425
2286.87094	4643.625
2289.74405	4641.925
2292.61534	4616.525
2295.4848	4630.225
2298.35243	4625.125
2301.21824	4624.025
2304.08223	4613.725
2306.94439	4626.125
2309.80474	4604.925
2312.66327	4616.425
2315.51999	4587.725
2318.37489	4590.625
2321.22797	4585.325
2324.07925	4568.225
2326.92871	4574.525
2329.77637	4568.025
2332.62222	4553.625
2335.46626	4553.925
2338.3085	4537.125
2341.14893	4551.925
2343.98756	4547.725
2346.8244	4533.325
2349.65943	4531.225
2352.49267	4544.425
2355.32411	4532.225
2358.15376	4533.125
2360.98161	4550.725
2363.80768	4537.125
2366.63195	4530.225
2369.45444	4559.825
2372.27514	4545.225
2375.09405	4525.725
2377.91118	4512.125
2380.72652	4496.025
2383.54009	4482.525
2386.35187	4464.925
2389.16188	4456.325
2391.97011	4429.425
2394.77657	4436.425
2397.58125	4397.325
2400.38416	4409.425
2403.18529	4404.725
2405.98466	4386.625
2408.78226	4394.425
2411.57809	4387.225
2414.37216	4365.225
2417.16446	4371.125
2419.955	4357.225
2422.74378	4365.925
2425.5308	4355.025
2428.31606	4359.925
2431.09956	4346.625
2433.88131	4337.325
2436.6613	4346.125
2439.43954	4338.325
2442.21603	4326.725
2444.99077	4330.725
2447.76377	4332.725
2450.53501	4326.525
2453.30451	4341.925
2456.07226	4333.725
2458.83827	4316.125
2461.60254	4310.125
2464.36507	4309.225
2467.12586	4293.325
2469.88492	4301.125
2472.64224	4303.325
2475.39782	4306.925
2478.15167	4287.825
2480.90379	4310.225
2483.65417	4312.225
2486.40283	4299.325
2489.14976	4307.325
2491.89497	4307.725
2494.63845	4315.725
2497.3802	4299.825
2500.12024	4300.925
2502.85855	4294.725
2505.59514	4286.225
2508.33002	4267.825
2511.06318	4272.625
2513.79462	4253.725
2516.52435	4228.525
2519.25237	4218.825
2521.97867	4214.525
2524.70327	4204.825
2527.42616	4205.825
2530.14734	4188.925
2532.86681	4175.525
2535.58458	4194.825
2538.30065	4184.425
2541.01501	4177.025
2543.72768	4179.325
2546.43864	4179.025
2549.14791	4150.225
2551.85548	4157.825
2554.56136	4140.225
2557.26554	4137.025
2559.96803	4134.725
2562.66883	4141.825
2565.36794	4139.825
2568.06536	4125.625
2570.7611	4125.925
2573.45514	4104.825
2576.14751	4090.925
2578.83819	4097.525
2581.52719	4080.025
2584.21451	4092.725
2586.90015	4072.425
2589.58411	4067.225
2592.2664	4081.125
2594.94701	4068.425
2597.62594	4047.425
2600.30321	4053.725
2602.9788	4028.425
2605.65273	4033.825
2608.32498	4031.525
2610.99557	4028.825
2613.66449	4027.425
2616.33175	3998.525
2618.99734	4007.925
2621.66128	4023.925
2624.32355	4012.725
2626.98416	4017.225
2629.64311	4004.425
2632.30041	3997.225
2634.95605	3977.225
2637.61004	3963.425
2640.26238	3955.725
2642.91306	3972.525
2645.56209	3965.125
2648.20948	3965.725
2650.85521	3945.025
2653.4993	3953.225
2656.14175	3952.125
2658.78255	3967.425
2661.42171	3961.325
2664.05923	3980.925
2666.6951	3970.725
2669.32934	3977.725
2671.96194	3972.225
2674.59291	3987.825
2677.22224	3962.825
2679.84993	3980.925
2682.476	3979.125
2685.10043	3972.525
2687.72324	3975.925
2690.34441	3978.125
2692.96396	3971.625
2695.58188	3983.025
2698.19818	3971.525
2700.81285	3991.125
2703.4259	3978.625
2706.03733	3957.325
2708.64714	3960.925
2711.25533	3978.925
2713.86191	3980.425
2716.46687	3986.425
2719.07021	3996.825
2721.67194	4003.625
2724.27206	4002.225
2726.87057	4000.525
2729.46747	3996.225
2732.06276	4001.125
2734.65644	3988.725
2737.24852	3974.925
2739.83899	3992.325
2742.42786	3977.725
2745.01513	3942.825
2747.60079	3955.925
2750.18486	3952.925
2752.76733	3952.525
2755.3482	3937.925
2757.92747	3942.025
2760.50515	3931.925
2763.08123	3932.825
2765.65573	3929.325
2768.22863	3916.525
2770.79994	3915.825
2773.36967	3914.025
2775.9378	3912.125
2778.50435	3915.625
2781.06932	3911.525
2783.6327	3914.625
2786.1945	3919.225
2788.75471	3912.225
2791.31335	3915.025
2793.87041	3906.025
2796.42589	3907.225
2798.97979	3916.125
2801.53212	3907.925
2804.08288	3933.225
2806.63206	3915.825
2809.17967	3915.725
2811.72571	3934.125
2814.27018	3939.025
2816.81308	3929.025
2819.35442	3944.125
2821.89419	3958.825
2824.43239	3955.325
2826.96904	3953.825
2829.50412	3953.125
2832.03763	3976.925
2834.56959	3975.825
2837.1	3986.625
2839.62884	4040.625
2842.15613	4077.125
2844.68186	4158.125
2847.20604	4256.525
2849.72867	4327.525
2852.24974	4358.825
2854.76927	4355.125
2857.28724	4333.825
2859.80367	4301.625
2862.31855	4293.825
2864.83189	4275.125
2867.34368	4246.225
2869.85393	4257.325
2872.36264	4244.925
2874.8698	4246.525
2877.37543	4265.125
2879.87952	4245.125
2882.38207	4237.325
2884.88308	4232.725
2887.38256	4241.225
2889.88051	4239.025
2892.37692	4267.525
2894.8718	4259.025
2897.36515	4261.925
2899.85698	4285.225
2902.34727	4301.425
2904.83604	4293.625
2907.32328	4299.325
2909.809	4307.925
2912.29319	4295.825
2914.77587	4301.225
2917.25702	4282.725
2919.73665	4281.225
2922.21476	4274.925
2924.69136	4271.625
2927.16644	4274.325
2929.64	4252.525
2932.11205	4245.325
2934.58258	4213.025
2937.05161	4211.225
2939.51912	4183.925
2941.98513	4140.925
2944.44962	4073.725
2946.91261	4019.025
2949.37409	3998.125
2951.83407	3952.825
2954.29254	3932.525
2956.74951	3909.925
2959.20498	3901.925
2961.65895	3870.425
2964.11142	3860.525
2966.56239	3825.725
2969.01186	3822.425
2971.45984	3796.125
2973.90632	3786.625
2976.35131	3757.725
2978.7948	3742.425
2981.23681	3724.725
2983.67732	3718.325
2986.11635	3700.425
2988.55388	3687.225
2990.98993	3670.025
2993.4245	3671.325
2995.85758	3644.825
2998.28917	3638.825
3000.71928	3630.625
3003.14791	3609.925
3005.57506	3635.125
3008.00073	3598.025
3010.42493	3604.925
3012.84764	3594.125
3015.26888	3585.825
3017.68865	3589.025
3020.10694	3577.725
3022.52376	3590.125
3024.9391	3577.625
3027.35298	3563.025
3029.76539	3568.725
3032.17632	3544.025
3034.5858	3557.325
3036.9938	3539.725
3039.40034	3537.925
3041.80542	3553.925
3044.20903	3526.225
3046.61118	3520.825
3049.01187	3527.025
3051.4111	3536.425
3053.80888	3519.425
3056.20519	3513.325
3058.60005	3501.825
3060.99345	3506.225
3063.3854	3483.725
3065.7759	3490.925
3068.16494	3495.625
3070.55254	3482.725
3072.93868	3481.425
3075.32338	3462.625
3077.70662	3466.325
3080.08842	3446.825
3082.46878	3455.825
3084.84769	3447.225
3087.22515	3442.925
3089.60118	3437.025
3091.97576	3439.825
3094.3489	3454.025
3096.72061	3454.425
3099.09087	3448.225
3101.4597	3451.825
3103.82709	3449.925
3106.19305	3454.825
3108.55757	3461.725
3110.92066	3435.525
3113.28232	3440.525
3115.64255	3423.425
3118.00134	3441.925
3120.35871	3433.925
3122.71466	3444.525
3125.06917	3437.525
3127.42226	3420.525
3129.77393	3437.525
3132.12417	3438.325
3134.47299	3442.325
3136.82039	3441.125
3139.16636	3444.225
3141.51092	3453.925
3143.85406	3447.825
3146.19579	3464.825
3148.53609	3465.225
3150.87499	3485.525
3153.21246	3486.025
3155.54853	3488.925
3157.88318	3502.325
3160.21642	3498.725
3162.54826	3516.725
3164.87868	3493.825
3167.2077	3512.025
3169.5353	3519.125
3171.86151	3533.625
3174.18631	3522.825
3176.5097	3529.925
3178.83169	3528.125
3181.15228	3529.225
3183.47147	3517.125
3185.78926	3535.025
3188.10565	3526.025
3190.42065	3537.325
3192.73424	3532.525
3195.04645	3531.125
3197.35725	3539.825
3199.66667	3537.325
3201.97469	3553.625
3204.28132	3556.925
3206.58656	3564.725
3208.8904	3550.225
3211.19287	3569.225
3213.49394	3575.125
3215.79363	3579.525
3218.09193	3584.825
3220.38884	3591.525
3222.68438	3580.325
3224.97853	3568.925
