Data from AgNPs_FTO_APTES_UA_1uM_CRN_1000uM_R6G_10uM_NaF_0.1M_Addition_RamanShift__22__18-59-19-943.txt Node

Date: Thu Jan 27 18:59:19 GMT 2022
User: TCL
Spectrometer: QEP01345
Trigger mode: 4
Integration Time (sec): 7.000000E0
Scans to average: 10
Electric dark correction enabled: true
Nonlinearity correction enabled: false
Boxcar width: 0
XAxis mode: Raman Shifts
Number of Pixels in Spectrum: 1044
>>>>>Begin Spectral Data<<<<<
46.04893	1.3625
50.45542	-0.4375
54.85868	-1.5375
59.25871	-2.4375
63.6555	49.0625
68.04907	53.3625
72.43941	52.1625
76.82654	54.7625
81.21044	58.0625
85.59113	58.6625
89.96862	62.0625
94.34289	67.8625
98.71396	71.0625
103.08183	66.3625
107.4465	72.5625
111.80798	71.5625
116.16626	73.3625
120.52136	81.6625
124.87327	78.3625
129.222	79.7625
133.56755	85.9625
137.90993	92.9625
142.24913	100.5625
146.58517	112.5625
150.91804	130.0625
155.24774	145.6625
159.57429	178.8625
163.89768	226.1625
168.21792	298.8625
172.53501	400.2625
176.84895	555.6625
181.15975	774.8625
185.46741	1085.0625
189.77193	1500.1625
194.07331	2006.3625
198.37157	2604.3625
202.6667	3228.9625
206.9587	3868.9625
211.24758	4492.7625
215.53334	5126.2625
219.81599	5786.9625
224.09553	6526.3625
228.37195	7330.9625
232.64527	8184.5625
236.91549	9086.6625
241.18261	9963.8625
245.44663	10768.3625
249.70755	11482.4625
253.96539	12076.1625
258.22014	12543.2625
262.4718	12959.9625
266.72039	13207.1625
270.96589	13320.3625
275.20832	13332.8625
279.44768	13209.7625
283.68397	13023.5625
287.91719	12832.1625
292.14735	12726.9625
296.37445	12697.4625
300.59849	12748.3625
304.81948	12806.8625
309.03742	12789.0625
313.25231	12646.8625
317.46415	12333.7625
321.67296	11963.4625
325.87872	11674.1625
330.08145	11553.1625
334.28114	11570.7625
338.47781	11681.7625
342.67145	11819.1625
346.86207	12002.5625
351.04966	12262.5625
355.23424	12543.7625
359.4158	12782.5625
363.59435	12973.7625
367.76989	13127.6625
371.94243	13205.5625
376.11196	13336.0625
380.27849	13411.6625
384.44203	13493.4625
388.60257	13547.4625
392.76012	13575.9625
396.91468	13693.9625
401.06626	13865.2625
405.21485	14023.3625
409.36047	13978.7625
413.50311	13790.8625
417.64277	13579.9625
421.77947	13529.6625
425.9132	13519.9625
430.04396	13600.6625
434.17176	13696.5625
438.2966	13856.7625
442.41849	14110.4625
446.53742	14463.0625
450.6534	14852.0625
454.76644	15171.6625
458.87653	15241.7625
462.98368	15110.3625
467.08789	14940.8625
471.18916	14678.0625
475.2875	14518.8625
479.38291	14426.2625
483.4754	14324.8625
487.56496	14172.9625
491.6516	13997.7625
495.73531	13850.0625
499.81612	13760.5625
503.89401	13841.7625
507.96899	13894.8625
512.04106	13892.9625
516.11023	13911.5625
520.1765	13879.5625
524.23987	13778.1625
528.30034	13711.1625
532.35792	13593.2625
536.41261	13462.3625
540.46441	13322.9625
544.51333	13224.3625
548.55936	13281.0625
552.60252	13473.3625
556.64279	13708.1625
560.6802	13927.9625
564.71473	14110.8625
568.7464	14332.2625
572.7752	14604.8625
576.80114	14722.9625
580.82422	14702.1625
584.84444	14804.4625
588.86181	15080.2625
592.87633	15422.6625
596.888	15611.3625
600.89682	15568.0625
604.9028	15847.2625
608.90594	17042.9625
612.90624	18620.1625
616.90371	17950.5625
620.89834	15149.1625
624.89015	13807.2625
628.87913	13569.1625
632.86528	13618.5625
636.84862	13690.8625
640.82913	13607.7625
644.80683	13335.1625
648.78172	13100.6625
652.75379	13053.9625
656.72306	13143.6625
660.68952	13368.5625
664.65319	13371.4625
668.61405	13209.0625
672.57211	13212.2625
676.52738	13363.0625
680.47986	13430.7625
684.42955	13430.6625
688.37646	13305.6625
692.32058	13254.0625
696.26192	13252.9625
700.20048	13343.2625
704.13626	13418.5625
708.06928	13353.7625
711.99952	13216.7625
715.927	13085.9625
719.85171	13052.2625
723.77365	13058.9625
727.69284	13002.3625
731.60928	12962.4625
735.52295	12916.2625
739.43388	12929.1625
743.34206	12968.9625
747.24749	12990.9625
751.15017	13055.4625
755.05012	13167.1625
758.94733	13421.0625
762.8418	13938.8625
766.73354	14853.0625
770.62254	15932.2625
774.50882	16432.7625
778.39237	15924.6625
782.27321	14776.6625
786.15132	13704.8625
790.02671	13110.3625
793.89938	12800.6625
797.76935	12691.0625
801.6366	12659.6625
805.50115	12608.6625
809.36299	12594.2625
813.22213	12521.9625
817.07857	12492.0625
820.93231	12443.6625
824.78336	12402.6625
828.63172	12379.2625
832.47738	12378.1625
836.32036	12391.0625
840.16066	12380.8625
843.99827	12380.7625
847.8332	12362.5625
851.66546	12369.1625
855.49504	12376.3625
859.32195	12431.1625
863.1462	12515.8625
866.96777	12555.0625
870.78668	12455.9625
874.60293	12370.4625
878.41652	12319.7625
882.22745	12309.3625
886.03573	12361.5625
889.84136	12393.3625
893.64433	12329.0625
897.44466	12245.5625
901.24235	12204.2625
905.0374	12127.3625
908.8298	12042.2625
912.61957	12022.5625
916.40671	12097.3625
920.19121	12235.1625
923.97308	12407.1625
927.75233	12486.0625
931.52895	12513.6625
935.30295	12456.3625
939.07433	12234.4625
942.84309	12043.0625
946.60924	11866.2625
950.37278	11779.9625
954.13371	11714.0625
957.89203	11642.2625
961.64774	11594.8625
965.40086	11570.7625
969.15137	11520.7625
972.89929	11453.7625
976.64461	11398.4625
980.38733	11381.3625
984.12747	11401.6625
987.86502	11469.3625
991.59999	11564.5625
995.33237	11689.6625
999.06217	11901.8625
1002.78939	12158.3625
1006.51404	12331.5625
1010.23611	12412.2625
1013.95561	12531.2625
1017.67255	12539.6625
1021.38692	12443.9625
1025.09872	12296.1625
1028.80796	12200.1625
1032.51465	12290.9625
1036.21877	12444.1625
1039.92035	12499.3625
1043.61937	12460.7625
1047.31584	12344.9625
1051.00976	12240.0625
1054.70114	12177.9625
1058.38998	12188.8625
1062.07627	12215.7625
1065.76003	12315.0625
1069.44126	12405.8625
1073.11995	12516.7625
1076.79611	12636.6625
1080.46974	12689.1625
1084.14085	12689.0625
1087.80943	12728.3625
1091.47549	12728.1625
1095.13903	12763.9625
1098.80005	12594.3625
1102.45857	12418.8625
1106.11456	12240.2625
1109.76805	12228.7625
1113.41903	12336.6625
1117.06751	12447.4625
1120.71348	12655.8625
1124.35696	12853.9625
1127.99793	13080.6625
1131.63641	13245.8625
1135.2724	13099.2625
1138.90589	12835.1625
1142.5369	12668.5625
1146.16542	12640.1625
1149.79145	12585.9625
1153.415	12599.7625
1157.03607	12698.7625
1160.65467	12939.3625
1164.27079	13390.4625
1167.88443	13955.2625
1171.49561	14705.8625
1175.10432	15709.3625
1178.71056	16957.0625
1182.31434	18133.7625
1185.91565	18650.1625
1189.51451	18467.2625
1193.11091	17889.0625
1196.70485	17142.9625
1200.29634	16456.1625
1203.88538	15955.9625
1207.47197	15520.9625
1211.05612	15139.0625
1214.63782	14870.8625
1218.21708	14744.4625
1221.79391	14702.5625
1225.36829	14630.3625
1228.94024	14458.5625
1232.50976	14211.1625
1236.07685	13977.7625
1239.6415	13848.1625
1243.20374	13809.3625
1246.76355	13856.3625
1250.32093	13986.4625
1253.8759	14172.1625
1257.42845	14500.7625
1260.97859	14817.1625
1264.52631	15115.6625
1268.07163	15456.4625
1271.61453	15839.7625
1275.15503	16215.8625
1278.69312	16565.3625
1282.22882	16866.8625
1285.76211	17209.7625
1289.29301	17654.2625
1292.82151	18239.9625
1296.34761	19034.4625
1299.87133	20070.0625
1303.39266	21279.0625
1306.9116	22627.8625
1310.42815	24056.5625
1313.94233	24972.7625
1317.45412	25016.6625
1320.96354	24395.9625
1324.47058	23566.6625
1327.97525	22823.1625
1331.47754	22256.4625
1334.97747	22084.2625
1338.47502	22084.1625
1341.97022	22107.7625
1345.46305	21958.2625
1348.95352	21878.2625
1352.44163	22060.2625
1355.92738	22677.1625
1359.41078	23835.8625
1362.89183	24996.1625
1366.37053	24981.5625
1369.84688	22945.3625
1373.32088	20311.5625
1376.79254	18363.2625
1380.26186	17433.5625
1383.72883	17213.5625
1387.19347	17143.3625
1390.65578	17002.0625
1394.11575	16946.3625
1397.57339	17204.8625
1401.0287	17667.5625
1404.48168	18172.6625
1407.93234	18444.1625
1411.38068	18440.5625
1414.82669	18124.4625
1418.27039	17574.0625
1421.71177	16874.8625
1425.15083	16289.0625
1428.58758	15941.1625
1432.02203	15892.0625
1435.45416	16142.6625
1438.88399	16501.8625
1442.31151	16730.3625
1445.73673	16952.7625
1449.15965	17201.1625
1452.58027	17392.0625
1455.9986	17393.0625
1459.41463	17401.1625
1462.82837	17589.2625
1466.23982	17927.9625
1469.64898	18260.0625
1473.05586	18466.8625
1476.46045	18539.6625
1479.86276	18446.5625
1483.26279	18266.3625
1486.66054	18123.8625
1490.05602	18048.4625
1493.44922	18021.1625
1496.84016	18044.8625
1500.22882	18135.6625
1503.61521	18582.3625
1506.99934	19333.7625
1510.38121	20212.9625
1513.76081	20567.0625
1517.13816	20081.5625
1520.51324	18986.2625
1523.88607	17903.6625
1527.25665	17224.7625
1530.62498	16927.0625
1533.99105	16810.0625
1537.35488	16718.2625
1540.71647	16632.3625
1544.07581	16527.3625
1547.4329	16372.8625
1550.78776	16169.4625
1554.14038	16031.3625
1557.49077	15965.1625
1560.83892	15965.0625
1564.18484	15970.3625
1567.52853	16043.7625
1570.86999	16259.7625
1574.20922	16490.0625
1577.54624	16709.3625
1580.88103	16734.4625
1584.2136	16567.9625
1587.54395	16621.8625
1590.87208	17163.0625
1594.19801	18086.7625
1597.52172	19243.6625
1600.84321	19851.2625
1604.16251	19413.0625
1607.47959	18186.5625
1610.79447	16670.1625
1614.10715	15267.3625
1617.41763	14108.2625
1620.7259	13300.7625
1624.03199	12878.3625
1627.33587	12791.5625
1630.63757	13015.3625
1633.93707	13650.3625
1637.23439	14701.4625
1640.52951	16235.0625
1643.82246	18166.5625
1647.11321	19855.4625
1650.40179	20499.5625
1653.68819	19510.1625
1656.97241	17237.5625
1660.25446	14867.8625
1663.53433	13134.8625
1666.81203	12064.7625
1670.08756	11384.1625
1673.36092	10973.0625
1676.63211	10736.4625
1679.90115	10559.1625
1683.16801	10368.3625
1686.43272	10269.5625
1689.69527	10144.6625
1692.95567	10050.5625
1696.2139	9985.8625
1699.46999	9885.8625
1702.72392	9847.7625
1705.97571	9819.7625
1709.22535	9844.4625
1712.47284	9851.4625
1715.71819	9852.5625
1718.96139	9844.8625
1722.20246	9807.4625
1725.44139	9785.3625
1728.67818	9709.7625
1731.91284	9662.5625
1735.14537	9623.2625
1738.37576	9604.5625
1741.60403	9596.5625
1744.83017	9572.9625
1748.05418	9550.2625
1751.27607	9576.5625
1754.49584	9541.0625
1757.71349	9489.4625
1760.92903	9454.1625
1764.14244	9372.9625
1767.35375	9329.1625
1770.56294	9285.4625
1773.77002	9275.3625
1776.97499	9270.4625
1780.17785	9250.5625
1783.37861	9242.6625
1786.57727	9223.4625
1789.77382	9209.3625
1792.96828	9202.1625
1796.16064	9141.1625
1799.3509	9095.2625
1802.53907	9083.7625
1805.72514	9076.3625
1808.90913	9044.8625
1812.09102	9039.8625
1815.27083	9022.2625
1818.44856	8977.1625
1821.6242	8968.5625
1824.79776	8959.5625
1827.96924	8923.5625
1831.13864	8910.8625
1834.30597	8928.1625
1837.47122	8923.5625
1840.6344	8877.9625
1843.7955	8890.8625
1846.95454	8916.8625
1850.11151	8917.7625
1853.26642	8885.6625
1856.41926	8881.7625
1859.57004	8901.9625
1862.71876	8878.3625
1865.86542	8870.4625
1869.01003	8869.0625
1872.15258	8849.8625
1875.29308	8854.7625
1878.43152	8840.8625
1881.56792	8848.2625
1884.70227	8826.7625
1887.83457	8822.3625
1890.96482	8814.9625
1894.09304	8802.2625
1897.21921	8778.3625
1900.34335	8790.6625
1903.46544	8780.8625
1906.58551	8767.6625
1909.70353	8758.9625
1912.81953	8718.7625
1915.93349	8737.6625
1919.04543	8721.2625
1922.15534	8681.6625
1925.26322	8703.4625
1928.36908	8663.2625
1931.47292	8631.6625
1934.57473	8595.8625
1937.67453	8576.7625
1940.77232	8574.5625
1943.86808	8512.2625
1946.96184	8503.2625
1950.05358	8466.7625
1953.14331	8453.8625
1956.23103	8435.8625
1959.31675	8418.9625
1962.40046	8373.2625
1965.48217	8356.4625
1968.56188	8339.7625
1971.63959	8271.8625
1974.7153	8275.4625
1977.78901	8245.1625
1980.86073	8232.1625
1983.93046	8208.3625
1986.99819	8153.7625
1990.06394	8141.6625
1993.1277	8105.4625
1996.18947	8078.9625
1999.24925	8085.5625
2002.30706	8049.5625
2005.36288	8022.4625
2008.41672	8000.9625
2011.46859	7986.3625
2014.51848	7965.7625
2017.56639	7948.7625
2020.61233	7918.9625
2023.6563	7894.0625
2026.6983	7882.0625
2029.73833	7866.9625
2032.7764	7852.1625
2035.8125	7837.3625
2038.84664	7815.7625
2041.87881	7823.9625
2044.90903	7788.4625
2047.93729	7765.7625
2050.96359	7761.5625
2053.98794	7747.7625
2057.01034	7751.5625
2060.03078	7758.3625
2063.04927	7720.4625
2066.06582	7719.2625
2069.08042	7725.8625
2072.09307	7723.7625
2075.10378	7700.2625
2078.11255	7691.3625
2081.11938	7685.7625
2084.12426	7677.3625
2087.12722	7680.6625
2090.12824	7682.7625
2093.12732	7689.5625
2096.12447	7659.2625
2099.11969	7676.0625
2102.11299	7687.5625
2105.10435	7678.4625
2108.09379	7690.7625
2111.08131	7695.6625
2114.0669	7672.8625
2117.05057	7670.2625
2120.03233	7700.6625
2123.01216	7701.2625
2125.99008	7695.6625
2128.96609	7693.0625
2131.94018	7716.2625
2134.91236	7695.2625
2137.88263	7719.9625
2140.851	7716.1625
2143.81746	7713.1625
2146.78201	7712.9625
2149.74466	7699.8625
2152.7054	7711.0625
2155.66425	7704.0625
2158.6212	7678.4625
2161.57625	7686.8625
2164.52941	7687.3625
2167.48067	7683.2625
2170.43004	7691.9625
2173.37752	7696.6625
2176.32311	7693.6625
2179.26681	7681.6625
2182.20863	7680.7625
2185.14856	7677.5625
2188.08661	7683.7625
2191.02278	7688.7625
2193.95707	7678.4625
2196.88948	7660.1625
2199.82001	7653.4625
2202.74867	7641.1625
2205.67545	7638.5625
2208.60037	7625.1625
2211.52341	7622.5625
2214.44458	7608.0625
2217.36388	7597.7625
2220.28132	7581.7625
2223.1969	7569.0625
2226.11061	7555.9625
2229.02246	7547.2625
2231.93245	7518.0625
2234.84058	7521.2625
2237.74686	7499.5625
2240.65128	7487.8625
2243.55385	7473.1625
2246.45456	7457.7625
2249.35343	7470.0625
2252.25044	7448.2625
2255.14561	7427.3625
2258.03893	7403.3625
2260.93041	7407.8625
2263.82004	7382.1625
2266.70783	7370.7625
2269.59378	7332.3625
2272.4779	7311.1625
2275.36017	7291.0625
2278.24061	7293.7625
2281.11922	7290.1625
2283.996	7266.5625
2286.87094	7270.2625
2289.74405	7275.4625
2292.61534	7224.6625
2295.4848	7233.3625
2298.35243	7229.4625
2301.21824	7222.6625
2304.08223	7217.5625
2306.94439	7217.7625
2309.80474	7217.6625
2312.66327	7222.9625
2315.51999	7200.5625
2318.37489	7201.2625
2321.22797	7188.5625
2324.07925	7178.3625
2326.92871	7173.6625
2329.77637	7151.5625
2332.62222	7164.5625
2335.46626	7144.9625
2338.3085	7133.6625
2341.14893	7136.1625
2343.98756	7144.5625
2346.8244	7114.1625
2349.65943	7132.7625
2352.49267	7100.6625
2355.32411	7127.7625
2358.15376	7131.0625
2360.98161	7110.8625
2363.80768	7104.9625
2366.63195	7108.5625
2369.45444	7109.7625
2372.27514	7090.0625
2375.09405	7076.6625
2377.91118	7065.0625
2380.72652	7050.7625
2383.54009	7022.9625
2386.35187	7021.3625
2389.16188	6976.7625
2391.97011	6972.2625
2394.77657	6977.2625
2397.58125	6954.6625
2400.38416	6939.5625
2403.18529	6935.2625
2405.98466	6913.9625
2408.78226	6931.7625
2411.57809	6895.1625
2414.37216	6891.4625
2417.16446	6878.0625
2419.955	6865.6625
2422.74378	6870.3625
2425.5308	6863.0625
2428.31606	6870.5625
2431.09956	6839.6625
2433.88131	6840.6625
2436.6613	6828.9625
2439.43954	6853.1625
2442.21603	6819.8625
2444.99077	6812.7625
2447.76377	6828.8625
2450.53501	6820.8625
2453.30451	6823.4625
2456.07226	6812.3625
2458.83827	6803.0625
2461.60254	6805.3625
2464.36507	6809.7625
2467.12586	6783.3625
2469.88492	6801.5625
2472.64224	6797.3625
2475.39782	6797.1625
2478.15167	6792.8625
2480.90379	6763.3625
2483.65417	6784.9625
2486.40283	6781.7625
2489.14976	6772.7625
2491.89497	6775.9625
2494.63845	6802.8625
2497.3802	6778.5625
2500.12024	6775.7625
2502.85855	6784.2625
2505.59514	6776.9625
2508.33002	6773.1625
2511.06318	6730.7625
2513.79462	6744.1625
2516.52435	6735.3625
2519.25237	6728.6625
2521.97867	6725.9625
2524.70327	6698.7625
2527.42616	6695.4625
2530.14734	6711.9625
2532.86681	6681.1625
2535.58458	6674.1625
2538.30065	6686.5625
2541.01501	6662.0625
2543.72768	6673.8625
2546.43864	6663.5625
2549.14791	6638.9625
2551.85548	6638.4625
2554.56136	6615.7625
2557.26554	6616.8625
2559.96803	6603.5625
2562.66883	6610.5625
2565.36794	6607.1625
2568.06536	6593.4625
2570.7611	6585.9625
2573.45514	6575.9625
2576.14751	6559.0625
2578.83819	6557.7625
2581.52719	6563.6625
2584.21451	6538.8625
2586.90015	6549.6625
2589.58411	6527.1625
2592.2664	6534.8625
2594.94701	6497.8625
2597.62594	6507.1625
2600.30321	6492.8625
2602.9788	6493.4625
2605.65273	6490.1625
2608.32498	6496.0625
2610.99557	6498.2625
2613.66449	6491.0625
2616.33175	6464.1625
2618.99734	6483.5625
2621.66128	6490.1625
2624.32355	6470.9625
2626.98416	6474.9625
2629.64311	6476.3625
2632.30041	6446.2625
2634.95605	6423.9625
2637.61004	6439.9625
2640.26238	6431.7625
2642.91306	6429.9625
2645.56209	6421.0625
2648.20948	6424.4625
2650.85521	6424.3625
2653.4993	6416.5625
2656.14175	6416.1625
2658.78255	6423.9625
2661.42171	6443.0625
2664.05923	6458.8625
2666.6951	6444.0625
2669.32934	6441.1625
2671.96194	6435.4625
2674.59291	6437.2625
2677.22224	6433.0625
2679.84993	6437.3625
2682.476	6415.7625
2685.10043	6423.9625
2687.72324	6422.2625
2690.34441	6417.5625
2692.96396	6413.8625
2695.58188	6428.0625
2698.19818	6421.5625
2700.81285	6426.0625
2703.4259	6422.0625
2706.03733	6391.5625
2708.64714	6409.9625
2711.25533	6413.3625
2713.86191	6400.4625
2716.46687	6417.8625
2719.07021	6408.5625
2721.67194	6427.3625
2724.27206	6419.5625
2726.87057	6439.2625
2729.46747	6448.8625
2732.06276	6459.5625
2734.65644	6430.4625
2737.24852	6443.1625
2739.83899	6426.9625
2742.42786	6419.3625
2745.01513	6416.6625
2747.60079	6402.4625
2750.18486	6414.8625
2752.76733	6388.8625
2755.3482	6399.1625
2757.92747	6386.8625
2760.50515	6389.0625
2763.08123	6403.9625
2765.65573	6394.4625
2768.22863	6396.3625
2770.79994	6369.2625
2773.36967	6368.0625
2775.9378	6396.7625
2778.50435	6372.2625
2781.06932	6397.4625
2783.6327	6385.6625
2786.1945	6402.9625
2788.75471	6382.6625
2791.31335	6355.1625
2793.87041	6341.5625
2796.42589	6350.9625
2798.97979	6374.7625
2801.53212	6342.2625
2804.08288	6351.1625
2806.63206	6319.6625
2809.17967	6337.4625
2811.72571	6293.6625
2814.27018	6310.5625
2816.81308	6299.0625
2819.35442	6308.5625
2821.89419	6295.4625
2824.43239	6309.8625
2826.96904	6292.5625
2829.50412	6289.1625
2832.03763	6271.2625
2834.56959	6294.1625
2837.1	6294.8625
2839.62884	6312.3625
2842.15613	6341.1625
2844.68186	6381.9625
2847.20604	6389.8625
2849.72867	6403.2625
2852.24974	6416.8625
2854.76927	6410.4625
2857.28724	6403.1625
2859.80367	6374.2625
2862.31855	6374.1625
2864.83189	6358.3625
2867.34368	6356.9625
2869.85393	6361.7625
2872.36264	6355.6625
2874.8698	6377.5625
2877.37543	6380.3625
2879.87952	6394.4625
2882.38207	6389.5625
2884.88308	6417.0625
2887.38256	6420.9625
2889.88051	6410.2625
2892.37692	6437.0625
2894.8718	6445.3625
2897.36515	6456.2625
2899.85698	6483.3625
2902.34727	6515.4625
2904.83604	6514.3625
2907.32328	6534.2625
2909.809	6529.8625
2912.29319	6549.9625
2914.77587	6566.8625
2917.25702	6556.6625
2919.73665	6560.6625
2922.21476	6562.7625
2924.69136	6566.6625
2927.16644	6578.2625
2929.64	6564.5625
2932.11205	6574.8625
2934.58258	6537.1625
2937.05161	6563.7625
2939.51912	6550.9625
2941.98513	6521.7625
2944.44962	6483.8625
2946.91261	6435.8625
2949.37409	6468.5625
2951.83407	6405.5625
2954.29254	6388.8625
2956.74951	6377.3625
2959.20498	6346.0625
2961.65895	6314.0625
2964.11142	6318.5625
2966.56239	6285.2625
2969.01186	6271.9625
2971.45984	6229.0625
2973.90632	6218.6625
2976.35131	6193.1625
2978.7948	6184.1625
2981.23681	6150.2625
2983.67732	6135.3625
2986.11635	6135.8625
2988.55388	6102.8625
2990.98993	6086.5625
2993.4245	6073.9625
2995.85758	6070.0625
2998.28917	6044.3625
3000.71928	6030.6625
3003.14791	6004.3625
3005.57506	6013.3625
3008.00073	5997.4625
3010.42493	5975.2625
3012.84764	5972.1625
3015.26888	5981.7625
3017.68865	5965.2625
3020.10694	5947.8625
3022.52376	5924.4625
3024.9391	5911.0625
3027.35298	5882.9625
3029.76539	5898.4625
3032.17632	5889.5625
3034.5858	5870.2625
3036.9938	5865.4625
3039.40034	5865.4625
3041.80542	5876.8625
3044.20903	5856.1625
3046.61118	5842.7625
3049.01187	5826.1625
3051.4111	5844.0625
3053.80888	5821.5625
3056.20519	5804.2625
3058.60005	5789.4625
3060.99345	5785.1625
3063.3854	5776.6625
3065.7759	5749.3625
3068.16494	5747.7625
3070.55254	5728.3625
3072.93868	5708.3625
3075.32338	5703.6625
3077.70662	5721.1625
3080.08842	5687.4625
