Data from AgNPs_FTO_APTES_UA_1uM_CRN_10uM_R6G_50uM_NaF_0.1M_Addition_RamanShift__0__15-40-59-717.txt Node

Date: Thu Jan 27 15:40:59 GMT 2022
User: TCL
Spectrometer: QEP01345
Trigger mode: 4
Integration Time (sec): 7.000000E0
Scans to average: 10
Electric dark correction enabled: true
Nonlinearity correction enabled: false
Boxcar width: 0
XAxis mode: Raman Shifts
Number of Pixels in Spectrum: 1044
>>>>>Begin Spectral Data<<<<<
46.04893	1.175
50.45542	0.575
54.85868	-0.625
59.25871	-2.125
63.6555	48.475
68.04907	48.575
72.43941	56.075
76.82654	56.275
81.21044	58.975
85.59113	59.775
89.96862	63.775
94.34289	64.975
98.71396	68.975
103.08183	67.675
107.4465	68.775
111.80798	74.675
116.16626	73.075
120.52136	77.875
124.87327	79.475
129.222	77.375
133.56755	85.275
137.90993	89.175
142.24913	95.875
146.58517	106.375
150.91804	121.875
155.24774	140.475
159.57429	168.675
163.89768	215.275
168.21792	281.275
172.53501	382.675
176.84895	526.575
181.15975	733.375
185.46741	1021.775
189.77193	1408.275
194.07331	1898.075
198.37157	2446.575
202.6667	3022.475
206.9587	3591.875
211.24758	4148.275
215.53334	4712.475
219.81599	5294.375
224.09553	5940.575
228.37195	6658.575
232.64527	7446.775
236.91549	8273.075
241.18261	9126.675
245.44663	9912.075
249.70755	10605.875
253.96539	11216.375
258.22014	11766.675
262.4718	12213.475
266.72039	12503.075
270.96589	12663.575
275.20832	12685.775
279.44768	12589.975
283.68397	12476.475
287.91719	12350.575
292.14735	12252.975
296.37445	12235.975
300.59849	12234.475
304.81948	12329.475
309.03742	12341.175
313.25231	12298.875
317.46415	12123.475
321.67296	11917.275
325.87872	11732.175
330.08145	11629.475
334.28114	11618.675
338.47781	11686.775
342.67145	11828.675
346.86207	12009.875
351.04966	12215.975
355.23424	12416.675
359.4158	12592.875
363.59435	12766.375
367.76989	12897.875
371.94243	12972.175
376.11196	13040.275
380.27849	13061.475
384.44203	13164.975
388.60257	13241.575
392.76012	13341.475
396.91468	13492.175
401.06626	13673.675
405.21485	13808.175
409.36047	13819.375
413.50311	13639.675
417.64277	13570.275
421.77947	13580.775
425.9132	13616.475
430.04396	13653.575
434.17176	13749.375
438.2966	13850.075
442.41849	14059.975
446.53742	14382.775
450.6534	14751.975
454.76644	15004.475
458.87653	15043.175
462.98368	15008.275
467.08789	14819.775
471.18916	14646.475
475.2875	14466.675
479.38291	14356.475
483.4754	14223.575
487.56496	14106.775
491.6516	13953.175
495.73531	13840.275
499.81612	13771.275
503.89401	13820.775
507.96899	13888.075
512.04106	13849.575
516.11023	13764.875
520.1765	13706.375
524.23987	13638.475
528.30034	13557.275
532.35792	13503.575
536.41261	13369.675
540.46441	13226.275
544.51333	13198.975
548.55936	13280.775
552.60252	13473.775
556.64279	13752.275
560.6802	13962.275
564.71473	14070.375
568.7464	14212.775
572.7752	14485.575
576.80114	14766.475
580.82422	15088.675
584.84444	15491.875
588.86181	16048.175
592.87633	16586.475
596.888	16641.375
600.89682	16156.775
604.9028	15953.975
608.90594	16768.075
612.90624	17743.375
616.90371	16955.575
620.89834	14796.875
624.89015	13823.475
628.87913	13658.075
632.86528	13745.475
636.84862	13723.175
640.82913	13541.275
644.80683	13252.375
648.78172	13129.175
652.75379	13106.175
656.72306	13228.175
660.68952	13446.975
664.65319	13360.575
668.61405	13188.175
672.57211	13156.475
676.52738	13226.775
680.47986	13211.875
684.42955	13144.275
688.37646	13081.675
692.32058	13158.375
696.26192	13301.675
700.20048	13437.475
704.13626	13544.175
708.06928	13528.675
711.99952	13480.575
715.927	13488.875
719.85171	13501.975
723.77365	13483.675
727.69284	13300.675
731.60928	13174.075
735.52295	13135.275
739.43388	13132.175
743.34206	13153.075
747.24749	13232.675
751.15017	13343.275
755.05012	13513.675
758.94733	13785.875
762.8418	14286.375
766.73354	15050.875
770.62254	15748.675
774.50882	15952.275
778.39237	15426.375
782.27321	14632.175
786.15132	13925.575
790.02671	13495.975
793.89938	13239.875
797.76935	13209.075
801.6366	13171.675
805.50115	13134.675
809.36299	13075.175
813.22213	13002.975
817.07857	12977.175
820.93231	12930.875
824.78336	12916.675
828.63172	12899.275
832.47738	12900.075
836.32036	12914.575
840.16066	12952.075
843.99827	12959.775
847.8332	12935.775
851.66546	12923.075
855.49504	12898.775
859.32195	12895.375
863.1462	12904.475
866.96777	12845.075
870.78668	12843.975
874.60293	12853.875
878.41652	12825.775
882.22745	12885.075
886.03573	12935.375
889.84136	12929.675
893.64433	12853.675
897.44466	12839.575
901.24235	12788.175
905.0374	12755.475
908.8298	12707.375
912.61957	12756.175
916.40671	12833.775
920.19121	12990.775
923.97308	13093.675
927.75233	13130.075
931.52895	13110.875
935.30295	12956.375
939.07433	12772.375
942.84309	12633.375
946.60924	12570.675
950.37278	12547.775
954.13371	12560.075
957.89203	12499.575
961.64774	12528.275
965.40086	12505.775
969.15137	12449.875
972.89929	12430.275
976.64461	12433.875
980.38733	12450.175
984.12747	12494.075
987.86502	12532.775
991.59999	12616.175
995.33237	12779.275
999.06217	12993.675
1002.78939	13290.075
1006.51404	13487.575
1010.23611	13658.875
1013.95561	13739.175
1017.67255	13738.775
1021.38692	13614.575
1025.09872	13442.775
1028.80796	13462.275
1032.51465	13667.775
1036.21877	13877.775
1039.92035	13956.175
1043.61937	13866.975
1047.31584	13698.275
1051.00976	13510.775
1054.70114	13411.475
1058.38998	13444.275
1062.07627	13472.075
1065.76003	13536.275
1069.44126	13701.175
1073.11995	13827.375
1076.79611	13996.875
1080.46974	14092.975
1084.14085	14170.675
1087.80943	14234.575
1091.47549	14287.975
1095.13903	14341.775
1098.80005	14197.775
1102.45857	13927.475
1106.11456	13716.475
1109.76805	13619.075
1113.41903	13596.075
1117.06751	13657.275
1120.71348	13755.075
1124.35696	13852.775
1127.99793	14014.575
1131.63641	14087.075
1135.2724	14051.875
1138.90589	13942.175
1142.5369	13948.575
1146.16542	14011.875
1149.79145	14086.675
1153.415	14177.975
1157.03607	14271.475
1160.65467	14544.075
1164.27079	15045.175
1167.88443	15622.575
1171.49561	16270.975
1175.10432	17117.675
1178.71056	18151.475
1182.31434	19104.075
1185.91565	19594.775
1189.51451	19533.475
1193.11091	19149.775
1196.70485	18625.775
1200.29634	18114.875
1203.88538	17750.575
1207.47197	17524.075
1211.05612	17255.075
1214.63782	17005.375
1218.21708	16646.875
1221.79391	16288.875
1225.36829	16078.875
1228.94024	15919.175
1232.50976	15776.675
1236.07685	15545.975
1239.6415	15459.575
1243.20374	15454.275
1246.76355	15579.675
1250.32093	15782.475
1253.8759	16037.775
1257.42845	16377.275
1260.97859	16760.075
1264.52631	17101.375
1268.07163	17540.275
1271.61453	17966.575
1275.15503	18344.975
1278.69312	18773.375
1282.22882	19205.275
1285.76211	19654.375
1289.29301	20282.675
1292.82151	21036.675
1296.34761	21901.475
1299.87133	23044.475
1303.39266	24129.075
1306.9116	25205.475
1310.42815	26051.675
1313.94233	26445.975
1317.45412	26235.275
1320.96354	25694.275
1324.47058	25181.775
1327.97525	24686.875
1331.47754	24349.675
1334.97747	24093.675
1338.47502	23911.975
1341.97022	23652.575
1345.46305	23346.375
1348.95352	23194.675
1352.44163	23289.975
1355.92738	23897.975
1359.41078	24972.475
1362.89183	25819.775
1366.37053	25551.275
1369.84688	23834.975
1373.32088	21574.175
1376.79254	19924.075
1380.26186	19298.275
1383.72883	19266.875
1387.19347	19286.475
1390.65578	19107.675
1394.11575	18966.875
1397.57339	18992.675
1401.0287	19166.475
1404.48168	19409.475
1407.93234	19363.575
1411.38068	19135.275
1414.82669	18678.175
1418.27039	18136.975
1421.71177	17537.975
1425.15083	17103.075
1428.58758	16864.275
1432.02203	16933.575
1435.45416	17278.975
1438.88399	17701.275
1442.31151	18009.275
1445.73673	18198.975
1449.15965	18320.275
1452.58027	18356.275
1455.9986	18236.875
1459.41463	18248.075
1462.82837	18395.575
1466.23982	18734.175
1469.64898	19055.975
1473.05586	19290.175
1476.46045	19411.575
1479.86276	19338.475
1483.26279	19268.875
1486.66054	19173.075
1490.05602	19262.575
1493.44922	19396.575
1496.84016	19620.575
1500.22882	19899.375
1503.61521	20286.175
1506.99934	20850.575
1510.38121	21285.475
1513.76081	21379.675
1517.13816	21053.975
1520.51324	20441.175
1523.88607	19923.075
1527.25665	19695.075
1530.62498	19593.675
1533.99105	19499.875
1537.35488	19305.175
1540.71647	18983.875
1544.07581	18574.375
1547.4329	18203.775
1550.78776	17861.375
1554.14038	17649.075
1557.49077	17548.975
1560.83892	17512.275
1564.18484	17456.875
1567.52853	17487.875
1570.86999	17647.275
1574.20922	17911.175
1577.54624	18124.475
1580.88103	18226.275
1584.2136	18323.475
1587.54395	18767.675
1590.87208	19550.175
1594.19801	20559.975
1597.52172	21465.575
1600.84321	21711.575
1604.16251	20888.675
1607.47959	19484.475
1610.79447	18018.375
1614.10715	16743.575
1617.41763	15703.975
1620.7259	15016.575
1624.03199	14740.075
1627.33587	14738.875
1630.63757	15079.975
1633.93707	15764.175
1637.23439	16954.975
1640.52951	18680.875
1643.82246	20764.975
1647.11321	22499.275
1650.40179	22940.475
1653.68819	21564.175
1656.97241	19086.875
1660.25446	16710.975
1663.53433	14960.975
1666.81203	13851.775
1670.08756	13185.075
1673.36092	12762.075
1676.63211	12497.775
1679.90115	12309.775
1683.16801	12151.575
1686.43272	12063.375
1689.69527	11967.075
1692.95567	11889.375
1696.2139	11846.675
1699.46999	11757.775
1702.72392	11705.475
1705.97571	11719.675
1709.22535	11734.175
1712.47284	11773.475
1715.71819	11751.175
1718.96139	11751.375
1722.20246	11735.275
1725.44139	11673.275
1728.67818	11642.275
1731.91284	11591.975
1735.14537	11533.575
1738.37576	11475.675
1741.60403	11452.075
1744.83017	11392.775
1748.05418	11382.875
1751.27607	11358.375
1754.49584	11314.675
1757.71349	11330.475
1760.92903	11305.175
1764.14244	11298.075
1767.35375	11300.175
1770.56294	11264.975
1773.77002	11245.975
1776.97499	11279.875
1780.17785	11278.375
1783.37861	11276.775
1786.57727	11241.475
1789.77382	11237.075
1792.96828	11235.075
1796.16064	11232.875
1799.3509	11180.875
1802.53907	11202.875
1805.72514	11142.975
1808.90913	11139.475
1812.09102	11109.775
1815.27083	11101.375
1818.44856	11057.875
1821.6242	11070.375
1824.79776	11048.475
1827.96924	11039.375
1831.13864	11041.075
1834.30597	11026.875
1837.47122	11036.475
1840.6344	11004.975
1843.7955	11004.175
1846.95454	11026.275
1850.11151	11006.475
1853.26642	10999.375
1856.41926	10967.675
1859.57004	11018.275
1862.71876	10999.775
1865.86542	11001.775
1869.01003	10976.275
1872.15258	10941.875
1875.29308	10947.075
1878.43152	10931.075
1881.56792	10949.075
1884.70227	10906.175
1887.83457	10918.775
1890.96482	10924.275
1894.09304	10895.775
1897.21921	10876.975
1900.34335	10865.075
1903.46544	10869.975
1906.58551	10849.975
1909.70353	10839.775
1912.81953	10838.175
1915.93349	10827.875
1919.04543	10804.075
1922.15534	10760.475
1925.26322	10782.575
1928.36908	10764.575
1931.47292	10732.575
1934.57473	10704.775
1937.67453	10697.775
1940.77232	10663.075
1943.86808	10642.675
1946.96184	10600.475
1950.05358	10597.675
1953.14331	10554.275
1956.23103	10523.475
1959.31675	10502.475
1962.40046	10467.075
1965.48217	10485.375
1968.56188	10414.775
1971.63959	10414.975
1974.7153	10410.775
1977.78901	10357.975
1980.86073	10321.275
1983.93046	10299.075
1986.99819	10263.075
1990.06394	10255.475
1993.1277	10236.375
1996.18947	10179.775
1999.24925	10147.275
2002.30706	10130.775
2005.36288	10086.275
2008.41672	10094.375
2011.46859	10061.275
2014.51848	10028.675
2017.56639	10013.375
2020.61233	9990.075
2023.6563	9955.875
2026.6983	9963.575
2029.73833	9921.675
2032.7764	9941.275
2035.8125	9899.675
2038.84664	9870.075
2041.87881	9867.375
2044.90903	9849.975
2047.93729	9828.375
2050.96359	9834.375
2053.98794	9810.975
2057.01034	9814.275
2060.03078	9835.975
2063.04927	9816.475
2066.06582	9821.675
2069.08042	9815.975
2072.09307	9790.175
2075.10378	9775.475
2078.11255	9775.575
2081.11938	9794.775
2084.12426	9770.375
2087.12722	9780.775
2090.12824	9772.475
2093.12732	9776.275
2096.12447	9780.875
2099.11969	9760.475
2102.11299	9766.875
2105.10435	9776.475
2108.09379	9774.775
2111.08131	9824.975
2114.0669	9820.175
2117.05057	9822.775
2120.03233	9801.875
2123.01216	9827.875
2125.99008	9853.475
2128.96609	9866.275
2131.94018	9876.775
2134.91236	9895.075
2137.88263	9883.575
2140.851	9901.175
2143.81746	9889.475
2146.78201	9884.075
2149.74466	9909.775
2152.7054	9908.575
2155.66425	9913.475
2158.6212	9892.075
2161.57625	9893.175
2164.52941	9904.675
2167.48067	9899.075
2170.43004	9911.775
2173.37752	9891.175
2176.32311	9906.675
2179.26681	9926.975
2182.20863	9894.875
2185.14856	9916.375
2188.08661	9891.275
2191.02278	9924.375
2193.95707	9923.875
2196.88948	9932.275
2199.82001	9911.375
2202.74867	9880.275
2205.67545	9922.775
2208.60037	9880.775
2211.52341	9880.275
2214.44458	9831.175
2217.36388	9845.175
2220.28132	9804.475
2223.1969	9816.475
2226.11061	9805.075
2229.02246	9778.075
2231.93245	9772.175
2234.84058	9751.475
2237.74686	9742.375
2240.65128	9745.375
2243.55385	9725.975
2246.45456	9712.875
2249.35343	9698.175
2252.25044	9688.775
2255.14561	9660.175
2258.03893	9672.275
2260.93041	9655.775
2263.82004	9618.775
2266.70783	9609.575
2269.59378	9582.075
2272.4779	9547.975
2275.36017	9557.375
2278.24061	9536.275
2281.11922	9526.575
2283.996	9544.975
2286.87094	9521.975
2289.74405	9496.575
2292.61534	9455.775
2295.4848	9480.675
2298.35243	9487.375
2301.21824	9486.175
2304.08223	9496.375
2306.94439	9499.675
2309.80474	9500.275
2312.66327	9493.575
2315.51999	9483.175
2318.37489	9478.675
2321.22797	9467.675
2324.07925	9463.075
2326.92871	9450.975
2329.77637	9455.475
2332.62222	9452.775
2335.46626	9422.875
2338.3085	9381.775
2341.14893	9424.675
2343.98756	9399.575
2346.8244	9402.375
2349.65943	9379.575
2352.49267	9386.575
2355.32411	9396.175
2358.15376	9368.475
2360.98161	9374.275
2363.80768	9376.375
2366.63195	9363.375
2369.45444	9372.575
2372.27514	9331.275
2375.09405	9334.575
2377.91118	9336.675
2380.72652	9320.675
2383.54009	9291.075
2386.35187	9254.575
2389.16188	9282.175
2391.97011	9234.575
2394.77657	9238.075
2397.58125	9226.375
2400.38416	9206.775
2403.18529	9196.675
2405.98466	9214.175
2408.78226	9221.175
2411.57809	9160.275
2414.37216	9180.275
2417.16446	9171.375
2419.955	9137.375
2422.74378	9147.575
2425.5308	9154.175
2428.31606	9149.375
2431.09956	9144.075
2433.88131	9118.375
2436.6613	9117.375
2439.43954	9106.275
2442.21603	9114.375
2444.99077	9122.175
2447.76377	9109.175
2450.53501	9103.075
2453.30451	9082.475
2456.07226	9093.075
2458.83827	9080.975
2461.60254	9075.075
2464.36507	9082.675
2467.12586	9072.275
2469.88492	9069.675
2472.64224	9067.875
2475.39782	9074.675
2478.15167	9091.475
2480.90379	9061.975
2483.65417	9076.375
2486.40283	9076.875
2489.14976	9085.375
2491.89497	9090.575
2494.63845	9092.775
2497.3802	9081.375
2500.12024	9051.575
2502.85855	9051.075
2505.59514	9044.875
2508.33002	9045.275
2511.06318	9064.975
2513.79462	9066.475
2516.52435	9040.375
2519.25237	9050.175
2521.97867	9013.575
2524.70327	9030.075
2527.42616	9031.475
2530.14734	9016.375
2532.86681	9006.775
2535.58458	9010.375
2538.30065	8989.475
2541.01501	9000.475
2543.72768	8987.275
2546.43864	8960.275
2549.14791	8959.975
2551.85548	8973.975
2554.56136	8925.275
2557.26554	8917.775
2559.96803	8922.275
2562.66883	8931.275
2565.36794	8922.875
2568.06536	8898.375
2570.7611	8896.475
2573.45514	8872.675
2576.14751	8864.475
2578.83819	8891.375
2581.52719	8896.975
2584.21451	8855.775
2586.90015	8864.175
2589.58411	8830.275
2592.2664	8864.675
2594.94701	8821.175
2597.62594	8824.575
2600.30321	8801.575
2602.9788	8784.575
2605.65273	8800.875
2608.32498	8802.875
2610.99557	8807.375
2613.66449	8792.075
2616.33175	8787.975
2618.99734	8771.275
2621.66128	8791.775
2624.32355	8751.175
2626.98416	8778.275
2629.64311	8767.975
2632.30041	8764.075
2634.95605	8742.875
2637.61004	8719.175
2640.26238	8716.075
2642.91306	8716.175
2645.56209	8717.475
2648.20948	8722.075
2650.85521	8699.675
2653.4993	8717.575
2656.14175	8713.675
2658.78255	8736.475
2661.42171	8729.775
2664.05923	8735.075
2666.6951	8761.775
2669.32934	8737.375
2671.96194	8732.875
2674.59291	8749.875
2677.22224	8749.175
2679.84993	8741.375
2682.476	8726.475
2685.10043	8714.075
2687.72324	8726.875
2690.34441	8728.775
2692.96396	8701.275
2695.58188	8724.475
2698.19818	8717.975
2700.81285	8718.275
2703.4259	8734.375
2706.03733	8729.275
2708.64714	8714.975
2711.25533	8745.575
2713.86191	8728.675
2716.46687	8733.175
2719.07021	8763.275
2721.67194	8756.575
2724.27206	8771.175
2726.87057	8783.775
2729.46747	8803.075
2732.06276	8777.675
2734.65644	8747.975
2737.24852	8789.375
2739.83899	8776.975
2742.42786	8765.075
2745.01513	8737.875
2747.60079	8746.675
2750.18486	8754.375
2752.76733	8787.775
2755.3482	8735.575
2757.92747	8747.375
2760.50515	8721.375
2763.08123	8703.975
2765.65573	8716.875
2768.22863	8719.075
2770.79994	8692.975
2773.36967	8709.375
2775.9378	8701.375
2778.50435	8699.775
2781.06932	8689.275
2783.6327	8688.975
2786.1945	8696.175
2788.75471	8693.375
2791.31335	8661.275
2793.87041	8658.975
2796.42589	8629.875
2798.97979	8637.575
2801.53212	8619.875
2804.08288	8609.475
2806.63206	8584.975
2809.17967	8586.975
2811.72571	8549.775
2814.27018	8540.575
2816.81308	8543.875
2819.35442	8527.475
2821.89419	8527.175
2824.43239	8508.575
2826.96904	8481.675
2829.50412	8495.275
2832.03763	8479.375
2834.56959	8486.775
2837.1	8473.275
2839.62884	8475.475
2842.15613	8491.475
2844.68186	8476.775
2847.20604	8498.075
2849.72867	8512.775
2852.24974	8491.375
2854.76927	8488.275
2857.28724	8472.675
2859.80367	8473.375
2862.31855	8469.675
2864.83189	8474.675
2867.34368	8425.375
2869.85393	8438.775
2872.36264	8423.475
2874.8698	8407.675
2877.37543	8440.775
2879.87952	8416.275
2882.38207	8419.775
2884.88308	8420.475
2887.38256	8443.975
2889.88051	8430.275
2892.37692	8432.675
2894.8718	8420.375
2897.36515	8441.275
2899.85698	8431.175
2902.34727	8446.375
2904.83604	8429.575
2907.32328	8467.575
2909.809	8483.175
2912.29319	8485.175
2914.77587	8461.775
2917.25702	8463.075
2919.73665	8473.075
2922.21476	8448.975
2924.69136	8430.975
2927.16644	8455.475
2929.64	8459.875
2932.11205	8457.775
2934.58258	8421.875
2937.05161	8420.175
2939.51912	8435.775
2941.98513	8430.075
2944.44962	8402.675
2946.91261	8374.675
2949.37409	8416.075
2951.83407	8397.175
2954.29254	8383.775
2956.74951	8378.275
2959.20498	8373.975
2961.65895	8391.575
2964.11142	8386.975
2966.56239	8381.675
2969.01186	8357.975
2971.45984	8346.275
2973.90632	8350.575
2976.35131	8330.975
2978.7948	8323.575
2981.23681	8323.875
2983.67732	8291.775
2986.11635	8287.475
2988.55388	8272.275
2990.98993	8262.975
2993.4245	8240.275
2995.85758	8246.975
2998.28917	8219.975
3000.71928	8208.575
3003.14791	8193.075
3005.57506	8161.475
3008.00073	8152.975
3010.42493	8150.375
3012.84764	8162.975
3015.26888	8151.075
3017.68865	8121.375
3020.10694	8136.175
3022.52376	8094.175
3024.9391	8100.175
3027.35298	8081.075
3029.76539	8084.775
3032.17632	8064.875
3034.5858	8050.075
3036.9938	8071.975
3039.40034	8073.675
3041.80542	8056.675
3044.20903	8045.975
3046.61118	8053.975
3049.01187	8027.175
3051.4111	8015.975
3053.80888	8027.875
3056.20519	8006.775
3058.60005	7995.975
3060.99345	7959.175
3063.3854	7952.875
3065.7759	7930.975
3068.16494	7951.075
3070.55254	7907.775
3072.93868	7913.675
3075.32338	7878.475
3077.70662	7871.575
3080.08842	7844.975
3082.46878	7858.675
3084.84769	7879.375
3087.22515	7871.675
3089.60118	7850.275
3091.97576	7836.675
3094.3489	7848.375
3096.72061	7873.775
3099.09087	7862.875
3101.4597	7841.875
3103.82709	7864.475
3106.19305	7838.475
3108.55757	7880.175
3110.92066	7834.975
3113.28232	7834.575
3115.64255	7823.575
3118.00134	7790.475
3120.35871	7789.275
3122.71466	7801.175
3125.06917	7763.075
3127.42226	7752.075
3129.77393	7756.975
3132.12417	7755.075
3134.47299	7750.075
3136.82039	7748.275
3139.16636	7776.775
3141.51092	7765.575
3143.85406	7775.175
3146.19579	7765.175
3148.53609	7779.275
3150.87499	7806.375
3153.21246	7804.575
3155.54853	7796.375
3157.88318	7792.175
3160.21642	7807.775
3162.54826	7795.475
3164.87868	7803.075
3167.2077	7818.675
3169.5353	7827.275
3171.86151	7820.975
3174.18631	7809.575
3176.5097	7804.875
3178.83169	7785.475
