Data from AgNPs_FTO_APTES_UA_1uM_CRN_0uM_R6G_10uM_NaF_0.1M_Addition_RamanShift__43__11-55-49-459.txt Node

Date: Thu Jan 27 11:55:49 GMT 2022
User: TCL
Spectrometer: QEP01345
Trigger mode: 4
Integration Time (sec): 7.000000E0
Scans to average: 10
Electric dark correction enabled: true
Nonlinearity correction enabled: false
Boxcar width: 0
XAxis mode: Raman Shifts
Number of Pixels in Spectrum: 1044
>>>>>Begin Spectral Data<<<<<
46.04893	0.575
50.45542	-0.225
54.85868	-1.525
59.25871	-0.625
63.6555	56.375
68.04907	57.475
72.43941	61.075
76.82654	65.575
81.21044	67.475
85.59113	69.775
89.96862	70.675
94.34289	70.775
98.71396	77.675
103.08183	74.775
107.4465	82.775
111.80798	83.275
116.16626	82.175
120.52136	85.875
124.87327	91.375
129.222	89.275
133.56755	96.075
137.90993	103.275
142.24913	113.275
146.58517	125.975
150.91804	142.575
155.24774	167.575
159.57429	211.175
163.89768	261.875
168.21792	347.175
172.53501	465.975
176.84895	641.475
181.15975	908.775
185.46741	1267.575
189.77193	1746.375
194.07331	2340.075
198.37157	3014.475
202.6667	3718.975
206.9587	4422.275
211.24758	5122.975
215.53334	5837.975
219.81599	6602.075
224.09553	7445.875
228.37195	8410.675
232.64527	9428.875
236.91549	10477.075
241.18261	11557.975
245.44663	12497.275
249.70755	13320.375
253.96539	14048.075
258.22014	14672.075
262.4718	15192.275
266.72039	15580.775
270.96589	15795.575
275.20832	15809.175
279.44768	15724.375
283.68397	15541.875
287.91719	15380.275
292.14735	15348.775
296.37445	15371.875
300.59849	15562.175
304.81948	15816.275
309.03742	15930.475
313.25231	15886.375
317.46415	15432.375
321.67296	14786.975
325.87872	14252.075
330.08145	14009.275
334.28114	14036.475
338.47781	14173.075
342.67145	14420.175
346.86207	14790.075
351.04966	15264.875
355.23424	15811.575
359.4158	16330.475
363.59435	16583.975
367.76989	16766.175
371.94243	16855.975
376.11196	16881.475
380.27849	16969.175
384.44203	16930.775
388.60257	16990.675
392.76012	17058.375
396.91468	17251.275
401.06626	17589.175
405.21485	17906.275
409.36047	17763.875
413.50311	17388.575
417.64277	17063.575
421.77947	16916.075
425.9132	16922.375
430.04396	16969.675
434.17176	17064.475
438.2966	17230.175
442.41849	17619.475
446.53742	18141.575
450.6534	18736.175
454.76644	19197.975
458.87653	19337.175
462.98368	19202.275
467.08789	18857.375
471.18916	18427.675
475.2875	18026.775
479.38291	17712.875
483.4754	17581.575
487.56496	17379.775
491.6516	17180.375
495.73531	16992.175
499.81612	16942.075
503.89401	17073.175
507.96899	17128.075
512.04106	17169.175
516.11023	17166.375
520.1765	17182.675
524.23987	17130.575
528.30034	16916.975
532.35792	16703.075
536.41261	16475.875
540.46441	16186.075
544.51333	16097.675
548.55936	16262.975
552.60252	16571.875
556.64279	16909.675
560.6802	17129.775
564.71473	17195.875
568.7464	17612.075
572.7752	17995.175
576.80114	18126.575
580.82422	18155.675
584.84444	18329.375
588.86181	18619.375
592.87633	18995.275
596.888	19306.575
600.89682	19542.375
604.9028	20421.475
608.90594	23065.375
612.90624	26391.375
616.90371	25385.775
620.89834	20367.275
624.89015	17994.675
628.87913	17643.375
632.86528	17581.775
636.84862	17367.775
640.82913	17010.475
644.80683	16504.375
648.78172	16097.475
652.75379	16042.475
656.72306	16338.275
660.68952	16818.375
664.65319	16811.475
668.61405	16410.975
672.57211	16193.775
676.52738	16184.875
680.47986	16149.075
684.42955	16078.275
688.37646	16011.775
692.32058	16084.175
696.26192	16204.475
700.20048	16407.775
704.13626	16533.175
708.06928	16438.375
711.99952	16304.375
715.927	16210.575
719.85171	16236.775
723.77365	16158.275
727.69284	16025.675
731.60928	15896.275
735.52295	15873.675
739.43388	15916.075
743.34206	16035.875
747.24749	16145.975
751.15017	16240.375
755.05012	16576.775
758.94733	17065.475
762.8418	18029.975
766.73354	19669.675
770.62254	21534.075
774.50882	22314.775
778.39237	21456.775
782.27321	19599.875
786.15132	17871.175
790.02671	16843.975
793.89938	16413.675
797.76935	16254.675
801.6366	16166.475
805.50115	16092.275
809.36299	15991.475
813.22213	15865.175
817.07857	15818.175
820.93231	15814.475
824.78336	15841.175
828.63172	15886.275
832.47738	15895.975
836.32036	15976.275
840.16066	16050.975
843.99827	16099.275
847.8332	16049.675
851.66546	15980.575
855.49504	15889.575
859.32195	15861.475
863.1462	15778.275
866.96777	15671.975
870.78668	15634.675
874.60293	15633.375
878.41652	15647.075
882.22745	15712.575
886.03573	15777.775
889.84136	15770.275
893.64433	15687.975
897.44466	15639.475
901.24235	15577.675
905.0374	15518.175
908.8298	15458.075
912.61957	15506.775
916.40671	15627.175
920.19121	15854.175
923.97308	16130.275
927.75233	16314.575
931.52895	16395.875
935.30295	16292.775
939.07433	15935.075
942.84309	15592.475
946.60924	15470.375
950.37278	15389.175
954.13371	15294.675
957.89203	15168.775
961.64774	15070.375
965.40086	14996.975
969.15137	14926.575
972.89929	14853.275
976.64461	14833.575
980.38733	14876.175
984.12747	14969.875
987.86502	15174.075
991.59999	15448.975
995.33237	15895.275
999.06217	16593.675
1002.78939	17405.175
1006.51404	17861.775
1010.23611	18055.375
1013.95561	18164.975
1017.67255	18124.275
1021.38692	17971.275
1025.09872	17805.875
1028.80796	18099.575
1032.51465	18932.875
1036.21877	19700.775
1039.92035	19783.675
1043.61937	19286.275
1047.31584	18509.875
1051.00976	17625.175
1054.70114	17141.775
1058.38998	16940.675
1062.07627	16871.275
1065.76003	16870.575
1069.44126	16914.875
1073.11995	17076.075
1076.79611	17310.975
1080.46974	17463.975
1084.14085	17637.175
1087.80943	17873.075
1091.47549	17943.775
1095.13903	17812.975
1098.80005	17412.575
1102.45857	17040.575
1106.11456	16807.375
1109.76805	16823.775
1113.41903	16986.675
1117.06751	17154.875
1120.71348	17494.475
1124.35696	17780.175
1127.99793	18045.675
1131.63641	18166.575
1135.2724	17957.875
1138.90589	17558.175
1142.5369	17341.275
1146.16542	17156.875
1149.79145	17095.475
1153.415	17106.475
1157.03607	17248.775
1160.65467	17560.975
1164.27079	18157.375
1167.88443	19038.475
1171.49561	20404.175
1175.10432	22321.975
1178.71056	24773.775
1182.31434	27072.875
1185.91565	28342.675
1189.51451	28297.875
1193.11091	27156.875
1196.70485	25471.575
1200.29634	23902.675
1203.88538	22738.875
1207.47197	21717.775
1211.05612	20955.875
1214.63782	20541.175
1218.21708	20527.875
1221.79391	20741.175
1225.36829	21045.675
1228.94024	21004.675
1232.50976	20695.675
1236.07685	20345.075
1239.6415	20092.375
1243.20374	19936.575
1246.76355	19960.875
1250.32093	20174.675
1253.8759	20687.675
1257.42845	21396.775
1260.97859	22016.975
1264.52631	22646.275
1268.07163	23274.775
1271.61453	24004.175
1275.15503	24809.275
1278.69312	25664.475
1282.22882	26403.575
1285.76211	27005.475
1289.29301	27528.775
1292.82151	28240.475
1296.34761	29150.975
1299.87133	30485.875
1303.39266	32473.475
1306.9116	35148.775
1310.42815	38113.975
1313.94233	40206.475
1317.45412	40296.175
1320.96354	38779.075
1324.47058	36831.675
1327.97525	35101.875
1331.47754	33846.375
1334.97747	33291.075
1338.47502	33125.175
1341.97022	33246.475
1345.46305	33165.975
1348.95352	33035.875
1352.44163	33284.775
1355.92738	34386.575
1359.41078	36923.475
1362.89183	39672.775
1366.37053	39527.475
1369.84688	35753.175
1373.32088	31123.975
1376.79254	27869.375
1380.26186	26256.375
1383.72883	25692.975
1387.19347	25289.875
1390.65578	24863.375
1394.11575	24608.675
1397.57339	24794.375
1401.0287	25338.875
1404.48168	25940.875
1407.93234	26384.175
1411.38068	26569.275
1414.82669	26284.575
1418.27039	25641.775
1421.71177	24744.875
1425.15083	23914.075
1428.58758	23449.575
1432.02203	23415.675
1435.45416	23643.275
1438.88399	24033.375
1442.31151	24280.975
1445.73673	24544.775
1449.15965	24726.575
1452.58027	24791.975
1455.9986	24703.775
1459.41463	24691.975
1462.82837	24967.275
1466.23982	25488.275
1469.64898	25968.075
1473.05586	26347.275
1476.46045	26490.375
1479.86276	26602.075
1483.26279	26699.275
1486.66054	26815.575
1490.05602	27112.975
1493.44922	27553.075
1496.84016	28024.175
1500.22882	28711.475
1503.61521	29659.675
1506.99934	31102.875
1510.38121	32713.875
1513.76081	33572.075
1517.13816	32855.275
1520.51324	30894.975
1523.88607	28726.075
1527.25665	27195.675
1530.62498	26288.475
1533.99105	25722.275
1537.35488	25358.475
1540.71647	25145.075
1544.07581	24930.375
1547.4329	24657.875
1550.78776	24348.075
1554.14038	24158.075
1557.49077	24106.175
1560.83892	24122.375
1564.18484	24164.575
1567.52853	24209.775
1570.86999	24298.975
1574.20922	24461.575
1577.54624	24610.675
1580.88103	24432.375
1584.2136	24161.475
1587.54395	24542.575
1590.87208	25798.175
1594.19801	27745.475
1597.52172	29991.275
1600.84321	31075.275
1604.16251	30004.975
1607.47959	27576.975
1610.79447	24882.175
1614.10715	22453.775
1617.41763	20664.675
1620.7259	19557.975
1624.03199	19051.175
1627.33587	19115.575
1630.63757	19731.775
1633.93707	20924.275
1637.23439	22657.875
1640.52951	24911.575
1643.82246	27354.575
1647.11321	29287.275
1650.40179	29841.175
1653.68819	28246.975
1656.97241	24859.175
1660.25446	21306.075
1663.53433	18726.775
1666.81203	17103.175
1670.08756	16142.775
1673.36092	15576.475
1676.63211	15193.775
1679.90115	14898.875
1683.16801	14730.475
1686.43272	14573.075
1689.69527	14450.575
1692.95567	14360.375
1696.2139	14247.475
1699.46999	14187.875
1702.72392	14111.275
1705.97571	14155.175
1709.22535	14206.075
1712.47284	14223.175
1715.71819	14245.675
1718.96139	14198.975
1722.20246	14183.775
1725.44139	14132.375
1728.67818	14064.475
1731.91284	13960.775
1735.14537	13886.575
1738.37576	13857.575
1741.60403	13782.475
1744.83017	13737.075
1748.05418	13691.975
1751.27607	13658.475
1754.49584	13611.475
1757.71349	13610.475
1760.92903	13580.975
1764.14244	13557.975
1767.35375	13558.775
1770.56294	13551.675
1773.77002	13532.975
1776.97499	13545.275
1780.17785	13536.475
1783.37861	13560.475
1786.57727	13538.175
1789.77382	13519.775
1792.96828	13518.275
1796.16064	13494.675
1799.3509	13514.975
1802.53907	13459.175
1805.72514	13435.975
1808.90913	13415.375
1812.09102	13399.475
1815.27083	13368.575
1818.44856	13337.275
1821.6242	13346.875
1824.79776	13333.875
1827.96924	13296.775
1831.13864	13304.875
1834.30597	13301.875
1837.47122	13291.775
1840.6344	13303.575
1843.7955	13279.775
1846.95454	13295.375
1850.11151	13323.075
1853.26642	13300.275
1856.41926	13310.675
1859.57004	13343.075
1862.71876	13327.675
1865.86542	13343.675
1869.01003	13357.175
1872.15258	13330.775
1875.29308	13355.875
1878.43152	13358.975
1881.56792	13382.975
1884.70227	13380.475
1887.83457	13356.075
1890.96482	13377.075
1894.09304	13380.575
1897.21921	13376.475
1900.34335	13395.675
1903.46544	13395.875
1906.58551	13368.275
1909.70353	13376.475
1912.81953	13412.075
1915.93349	13375.375
1919.04543	13350.775
1922.15534	13324.875
1925.26322	13306.075
1928.36908	13269.675
1931.47292	13214.275
1934.57473	13150.775
1937.67453	13129.375
1940.77232	13074.775
1943.86808	13015.075
1946.96184	12963.375
1950.05358	12895.275
1953.14331	12837.475
1956.23103	12807.675
1959.31675	12773.275
1962.40046	12746.175
1965.48217	12692.275
1968.56188	12623.075
1971.63959	12605.375
1974.7153	12579.775
1977.78901	12518.175
1980.86073	12499.575
1983.93046	12453.975
1986.99819	12413.975
1990.06394	12367.975
1993.1277	12337.975
1996.18947	12292.275
1999.24925	12296.175
2002.30706	12223.575
2005.36288	12184.975
2008.41672	12171.675
2011.46859	12133.075
2014.51848	12113.975
2017.56639	12034.675
2020.61233	12074.375
2023.6563	12023.675
2026.6983	12004.275
2029.73833	11978.975
2032.7764	11970.475
2035.8125	11943.275
2038.84664	11930.875
2041.87881	11927.875
2044.90903	11906.875
2047.93729	11892.075
2050.96359	11840.075
2053.98794	11838.575
2057.01034	11824.275
2060.03078	11805.275
2063.04927	11830.075
2066.06582	11847.975
2069.08042	11798.975
2072.09307	11783.075
2075.10378	11770.675
2078.11255	11781.375
2081.11938	11785.575
2084.12426	11740.975
2087.12722	11743.675
2090.12824	11732.475
2093.12732	11743.875
2096.12447	11726.375
2099.11969	11711.575
2102.11299	11730.775
2105.10435	11735.175
2108.09379	11756.875
2111.08131	11742.375
2114.0669	11719.775
2117.05057	11774.075
2120.03233	11761.375
2123.01216	11777.175
2125.99008	11764.075
2128.96609	11789.775
2131.94018	11788.375
2134.91236	11817.475
2137.88263	11789.575
2140.851	11816.475
2143.81746	11857.175
2146.78201	11835.375
2149.74466	11830.175
2152.7054	11820.975
2155.66425	11844.175
2158.6212	11816.075
2161.57625	11832.675
2164.52941	11825.675
2167.48067	11803.775
2170.43004	11816.875
2173.37752	11813.575
2176.32311	11803.275
2179.26681	11816.675
2182.20863	11827.375
2185.14856	11841.875
2188.08661	11829.875
2191.02278	11836.475
2193.95707	11824.375
2196.88948	11857.675
2199.82001	11875.375
2202.74867	11841.375
2205.67545	11845.775
2208.60037	11823.875
2211.52341	11851.475
2214.44458	11826.075
2217.36388	11819.175
2220.28132	11801.975
2223.1969	11768.575
2226.11061	11783.375
2229.02246	11744.175
2231.93245	11723.775
2234.84058	11703.875
2237.74686	11670.675
2240.65128	11671.775
2243.55385	11633.975
2246.45456	11612.775
2249.35343	11635.975
2252.25044	11608.975
2255.14561	11585.675
2258.03893	11565.575
2260.93041	11559.775
2263.82004	11528.875
2266.70783	11492.875
2269.59378	11499.975
2272.4779	11454.575
2275.36017	11417.875
2278.24061	11406.875
2281.11922	11391.875
2283.996	11369.775
2286.87094	11375.275
2289.74405	11352.875
2292.61534	11352.275
2295.4848	11326.075
2298.35243	11366.575
2301.21824	11356.675
2304.08223	11373.175
2306.94439	11379.675
2309.80474	11389.675
2312.66327	11380.775
2315.51999	11373.875
2318.37489	11417.575
2321.22797	11404.375
2324.07925	11398.975
2326.92871	11395.775
2329.77637	11399.975
2332.62222	11380.275
2335.46626	11392.475
2338.3085	11375.575
2341.14893	11401.875
2343.98756	11417.875
2346.8244	11417.975
2349.65943	11426.975
2352.49267	11407.975
2355.32411	11405.775
2358.15376	11392.475
2360.98161	11376.475
2363.80768	11372.975
2366.63195	11360.375
2369.45444	11343.775
2372.27514	11310.375
2375.09405	11273.375
2377.91118	11263.475
2380.72652	11192.375
2383.54009	11172.875
2386.35187	11176.875
2389.16188	11144.475
2391.97011	11120.475
2394.77657	11104.175
2397.58125	11099.875
2400.38416	11071.075
2403.18529	11046.475
2405.98466	11027.075
2408.78226	11021.775
2411.57809	10984.675
2414.37216	10960.375
2417.16446	10953.675
2419.955	10903.175
2422.74378	10929.575
2425.5308	10919.075
2428.31606	10900.375
2431.09956	10889.675
2433.88131	10867.775
2436.6613	10896.275
2439.43954	10885.775
2442.21603	10882.075
2444.99077	10853.475
2447.76377	10899.675
2450.53501	10895.175
2453.30451	10886.875
2456.07226	10862.175
2458.83827	10861.875
2461.60254	10874.775
2464.36507	10878.175
2467.12586	10864.475
2469.88492	10874.375
2472.64224	10899.975
2475.39782	10889.675
2478.15167	10885.275
2480.90379	10898.775
2483.65417	10923.475
2486.40283	10946.375
2489.14976	10930.075
2491.89497	10938.975
2494.63845	10953.475
2497.3802	10947.975
2500.12024	10932.675
2502.85855	10941.075
2505.59514	10910.275
2508.33002	10928.775
2511.06318	10906.775
2513.79462	10842.575
2516.52435	10868.975
2519.25237	10853.975
2521.97867	10826.175
2524.70327	10820.275
2527.42616	10823.275
2530.14734	10823.175
2532.86681	10820.975
2535.58458	10809.975
2538.30065	10840.575
2541.01501	10828.975
2543.72768	10809.575
2546.43864	10781.675
2549.14791	10787.575
2551.85548	10771.775
2554.56136	10756.975
2557.26554	10740.575
2559.96803	10733.875
2562.66883	10751.275
2565.36794	10738.275
2568.06536	10729.975
2570.7611	10716.075
2573.45514	10686.975
2576.14751	10701.775
2578.83819	10685.675
2581.52719	10716.475
2584.21451	10718.175
2586.90015	10725.775
2589.58411	10702.775
2592.2664	10709.375
2594.94701	10695.075
2597.62594	10690.575
2600.30321	10697.675
2602.9788	10682.475
2605.65273	10681.875
2608.32498	10683.075
2610.99557	10664.775
2613.66449	10692.675
2616.33175	10682.175
2618.99734	10694.975
2621.66128	10685.575
2624.32355	10676.175
2626.98416	10693.075
2629.64311	10710.375
2632.30041	10705.475
2634.95605	10693.775
2637.61004	10664.075
2640.26238	10614.175
2642.91306	10628.375
2645.56209	10598.475
2648.20948	10598.175
2650.85521	10587.975
2653.4993	10584.875
2656.14175	10584.375
2658.78255	10605.275
2661.42171	10585.775
2664.05923	10618.575
2666.6951	10609.375
2669.32934	10634.075
2671.96194	10627.375
2674.59291	10636.675
2677.22224	10634.975
2679.84993	10639.175
2682.476	10626.275
2685.10043	10600.775
2687.72324	10589.575
2690.34441	10594.775
2692.96396	10576.875
2695.58188	10595.975
2698.19818	10566.475
2700.81285	10588.975
2703.4259	10532.275
2706.03733	10511.775
2708.64714	10522.275
2711.25533	10556.575
2713.86191	10548.675
2716.46687	10573.775
2719.07021	10573.575
2721.67194	10586.775
2724.27206	10573.775
2726.87057	10612.375
2729.46747	10607.275
2732.06276	10608.075
2734.65644	10577.275
2737.24852	10591.775
2739.83899	10585.375
2742.42786	10574.975
2745.01513	10550.075
2747.60079	10559.475
2750.18486	10564.475
2752.76733	10560.775
2755.3482	10569.175
2757.92747	10561.975
2760.50515	10537.375
2763.08123	10544.075
2765.65573	10544.775
2768.22863	10556.675
2770.79994	10536.075
2773.36967	10551.675
2775.9378	10542.575
2778.50435	10558.375
2781.06932	10530.875
2783.6327	10528.475
2786.1945	10529.875
2788.75471	10520.675
2791.31335	10511.375
2793.87041	10504.975
2796.42589	10483.675
2798.97979	10475.975
2801.53212	10458.375
2804.08288	10445.875
2806.63206	10425.875
2809.17967	10387.075
2811.72571	10376.075
2814.27018	10358.075
2816.81308	10382.275
2819.35442	10336.975
2821.89419	10325.275
2824.43239	10340.075
2826.96904	10353.675
2829.50412	10354.175
2832.03763	10332.775
2834.56959	10341.275
2837.1	10347.675
2839.62884	10338.475
2842.15613	10319.975
2844.68186	10367.875
2847.20604	10367.375
2849.72867	10384.675
2852.24974	10354.075
2854.76927	10368.575
2857.28724	10321.775
2859.80367	10328.775
2862.31855	10305.875
2864.83189	10306.375
2867.34368	10303.875
2869.85393	10303.775
2872.36264	10309.275
2874.8698	10312.975
2877.37543	10299.375
2879.87952	10297.175
2882.38207	10308.075
2884.88308	10286.275
2887.38256	10303.275
2889.88051	10311.775
2892.37692	10322.075
2894.8718	10300.475
2897.36515	10338.575
2899.85698	10340.275
2902.34727	10362.975
2904.83604	10361.275
2907.32328	10392.475
2909.809	10391.375
2912.29319	10387.075
2914.77587	10381.675
2917.25702	10400.175
2919.73665	10376.675
2922.21476	10376.175
2924.69136	10357.475
2927.16644	10345.375
2929.64	10300.375
2932.11205	10306.575
2934.58258	10281.575
2937.05161	10284.675
2939.51912	10267.575
2941.98513	10240.675
2944.44962	10230.675
2946.91261	10204.375
2949.37409	10210.575
2951.83407	10187.575
2954.29254	10165.175
2956.74951	10160.075
2959.20498	10170.775
2961.65895	10148.775
2964.11142	10167.475
2966.56239	10104.875
2969.01186	10104.975
2971.45984	10068.675
2973.90632	10071.275
2976.35131	10031.175
2978.7948	9998.675
2981.23681	9964.175
2983.67732	9956.875
2986.11635	9911.875
2988.55388	9898.275
2990.98993	9872.675
2993.4245	9839.775
2995.85758	9834.175
2998.28917	9804.975
3000.71928	9794.675
3003.14791	9776.575
3005.57506	9767.275
3008.00073	9734.975
3010.42493	9746.575
3012.84764	9729.075
3015.26888	9733.775
3017.68865	9698.475
3020.10694	9675.175
3022.52376	9649.375
3024.9391	9632.375
3027.35298	9659.175
3029.76539	9646.475
3032.17632	9626.875
3034.5858	9614.375
3036.9938	9595.375
3039.40034	9600.275
3041.80542	9603.375
3044.20903	9586.275
3046.61118	9579.175
3049.01187	9539.275
3051.4111	9552.375
3053.80888	9515.075
3056.20519	9490.675
3058.60005	9468.275
3060.99345	9467.475
3063.3854	9414.875
3065.7759	9408.175
3068.16494	9392.075
3070.55254	9354.975
3072.93868	9356.475
3075.32338	9322.075
3077.70662	9324.375
3080.08842	9286.475
3082.46878	9294.875
3084.84769	9252.675
3087.22515	9255.875
3089.60118	9267.575
3091.97576	9280.575
3094.3489	9280.275
3096.72061	9272.875
3099.09087	9248.575
3101.4597	9256.375
3103.82709	9255.975
3106.19305	9228.875
3108.55757	9226.275
3110.92066	9228.075
3113.28232	9203.975
3115.64255	9178.775
3118.00134	9171.175
3120.35871	9181.475
3122.71466	9134.775
3125.06917	9129.375
3127.42226	9107.175
3129.77393	9105.575
3132.12417	9091.075
3134.47299	9100.475
3136.82039	9080.975
