Data from AgNPs_FTO_APTES_UA_1uM_CRN_10uM_R6G_20uM_NaF_0.1M_Addition_RamanShift__27__15-29-19-704.txt Node

Date: Thu Jan 27 15:29:19 GMT 2022
User: TCL
Spectrometer: QEP01345
Trigger mode: 4
Integration Time (sec): 7.000000E0
Scans to average: 10
Electric dark correction enabled: true
Nonlinearity correction enabled: false
Boxcar width: 0
XAxis mode: Raman Shifts
Number of Pixels in Spectrum: 1044
>>>>>Begin Spectral Data<<<<<
46.04893	1.975
50.45542	-0.625
54.85868	-1.225
59.25871	-1.325
63.6555	41.375
68.04907	40.875
72.43941	47.475
76.82654	51.175
81.21044	53.575
85.59113	52.375
89.96862	56.775
94.34289	59.375
98.71396	57.975
103.08183	62.575
107.4465	65.375
111.80798	65.075
116.16626	67.775
120.52136	68.475
124.87327	71.075
129.222	68.775
133.56755	70.475
137.90993	75.075
142.24913	82.175
146.58517	86.475
150.91804	100.575
155.24774	115.375
159.57429	133.775
163.89768	171.175
168.21792	221.875
172.53501	303.175
176.84895	407.775
181.15975	563.075
185.46741	776.175
189.77193	1074.375
194.07331	1433.775
198.37157	1854.275
202.6667	2287.075
206.9587	2730.075
211.24758	3138.575
215.53334	3590.675
219.81599	4062.375
224.09553	4607.475
228.37195	5204.875
232.64527	5859.875
236.91549	6532.175
241.18261	7169.875
245.44663	7719.875
249.70755	8176.175
253.96539	8596.575
258.22014	8969.375
262.4718	9304.975
266.72039	9576.075
270.96589	9710.075
275.20832	9768.175
279.44768	9763.275
283.68397	9680.775
287.91719	9633.575
292.14735	9681.175
296.37445	9779.575
300.59849	9966.675
304.81948	10208.875
309.03742	10283.375
313.25231	10222.375
317.46415	9808.775
321.67296	9253.175
325.87872	8775.675
330.08145	8556.375
334.28114	8518.475
338.47781	8610.075
342.67145	8811.775
346.86207	9089.375
351.04966	9496.775
355.23424	9928.175
359.4158	10259.475
363.59435	10438.175
367.76989	10531.575
371.94243	10555.275
376.11196	10522.775
380.27849	10483.275
384.44203	10474.375
388.60257	10401.375
392.76012	10390.975
396.91468	10540.675
401.06626	10745.275
405.21485	10934.075
409.36047	10837.675
413.50311	10453.575
417.64277	10099.375
421.77947	9890.275
425.9132	9877.675
430.04396	9892.875
434.17176	9932.675
438.2966	10049.875
442.41849	10226.775
446.53742	10522.175
450.6534	10795.375
454.76644	11034.175
458.87653	11089.575
462.98368	11075.975
467.08789	10951.775
471.18916	10762.775
475.2875	10565.875
479.38291	10438.775
483.4754	10304.775
487.56496	10168.475
491.6516	10022.675
495.73531	9932.075
499.81612	9930.275
503.89401	9978.975
507.96899	10072.475
512.04106	10112.575
516.11023	10173.975
520.1765	10233.975
524.23987	10155.375
528.30034	9999.475
532.35792	9812.175
536.41261	9693.475
540.46441	9546.175
544.51333	9484.075
548.55936	9598.175
552.60252	9826.275
556.64279	10091.675
560.6802	10209.275
564.71473	10304.575
568.7464	10559.875
572.7752	10852.375
576.80114	10757.475
580.82422	10607.875
584.84444	10547.575
588.86181	10558.375
592.87633	10554.875
596.888	10694.875
600.89682	10902.575
604.9028	11704.775
608.90594	13879.375
612.90624	16651.775
616.90371	16022.975
620.89834	12194.975
624.89015	10375.475
628.87913	10067.675
632.86528	10080.175
636.84862	10102.275
640.82913	9965.275
644.80683	9604.775
648.78172	9374.675
652.75379	9402.575
656.72306	9617.875
660.68952	9992.075
664.65319	9953.075
668.61405	9651.775
672.57211	9476.475
676.52738	9440.175
680.47986	9442.475
684.42955	9415.875
688.37646	9422.375
692.32058	9408.175
696.26192	9509.575
700.20048	9611.475
704.13626	9686.775
708.06928	9660.875
711.99952	9570.175
715.927	9550.575
719.85171	9551.475
723.77365	9542.875
727.69284	9447.875
731.60928	9365.675
735.52295	9345.275
739.43388	9383.375
743.34206	9414.475
747.24749	9493.475
751.15017	9568.275
755.05012	9741.675
758.94733	10116.975
762.8418	10872.775
766.73354	12187.275
770.62254	13575.275
774.50882	14145.975
778.39237	13486.075
782.27321	12044.275
786.15132	10718.875
790.02671	9953.875
793.89938	9627.475
797.76935	9464.275
801.6366	9395.775
805.50115	9357.975
809.36299	9307.375
813.22213	9250.775
817.07857	9254.875
820.93231	9257.575
824.78336	9256.175
828.63172	9295.675
832.47738	9335.875
836.32036	9339.875
840.16066	9308.075
843.99827	9284.575
847.8332	9274.375
851.66546	9224.075
855.49504	9224.575
859.32195	9198.375
863.1462	9140.575
866.96777	9122.075
870.78668	9126.475
874.60293	9099.875
878.41652	9156.875
882.22745	9183.675
886.03573	9206.075
889.84136	9215.475
893.64433	9154.675
897.44466	9108.975
901.24235	9095.175
905.0374	9116.475
908.8298	9088.975
912.61957	9089.975
916.40671	9161.575
920.19121	9263.675
923.97308	9358.375
927.75233	9411.275
931.52895	9449.375
935.30295	9346.975
939.07433	9133.875
942.84309	8998.275
946.60924	8893.775
950.37278	8844.175
954.13371	8789.275
957.89203	8753.975
961.64774	8720.075
965.40086	8695.375
969.15137	8663.075
972.89929	8605.875
976.64461	8589.875
980.38733	8603.775
984.12747	8649.475
987.86502	8692.075
991.59999	8789.275
995.33237	8909.875
999.06217	9118.875
1002.78939	9445.975
1006.51404	9662.675
1010.23611	9834.575
1013.95561	9941.875
1017.67255	9953.675
1021.38692	9853.675
1025.09872	9773.675
1028.80796	9775.975
1032.51465	9946.075
1036.21877	10159.975
1039.92035	10142.275
1043.61937	10064.075
1047.31584	9860.275
1051.00976	9680.675
1054.70114	9569.775
1058.38998	9594.075
1062.07627	9618.575
1065.76003	9676.975
1069.44126	9730.575
1073.11995	9823.775
1076.79611	9883.175
1080.46974	9972.475
1084.14085	10107.175
1087.80943	10229.975
1091.47549	10339.875
1095.13903	10256.975
1098.80005	10023.575
1102.45857	9773.575
1106.11456	9621.075
1109.76805	9621.975
1113.41903	9766.475
1117.06751	9940.375
1120.71348	10172.675
1124.35696	10425.675
1127.99793	10659.775
1131.63641	10726.975
1135.2724	10456.875
1138.90589	10167.275
1142.5369	9963.775
1146.16542	9862.875
1149.79145	9815.975
1153.415	9846.475
1157.03607	9946.675
1160.65467	10141.075
1164.27079	10451.275
1167.88443	10928.975
1171.49561	11645.575
1175.10432	12737.775
1178.71056	14177.275
1182.31434	15370.075
1185.91565	15873.575
1189.51451	15756.075
1193.11091	15086.075
1196.70485	14153.775
1200.29634	13384.675
1203.88538	12789.875
1207.47197	12195.575
1211.05612	11738.775
1214.63782	11451.175
1218.21708	11361.075
1221.79391	11377.575
1225.36829	11417.775
1228.94024	11469.275
1232.50976	11433.775
1236.07685	11411.575
1239.6415	11352.775
1243.20374	11341.075
1246.76355	11378.675
1250.32093	11521.575
1253.8759	11748.875
1257.42845	12064.475
1260.97859	12412.375
1264.52631	12657.875
1268.07163	12958.375
1271.61453	13294.975
1275.15503	13602.775
1278.69312	13859.975
1282.22882	14067.875
1285.76211	14336.675
1289.29301	14694.775
1292.82151	15050.275
1296.34761	15514.075
1299.87133	16183.675
1303.39266	17151.875
1306.9116	18579.975
1310.42815	20209.375
1313.94233	21387.175
1317.45412	21431.075
1320.96354	20716.975
1324.47058	19713.475
1327.97525	18841.875
1331.47754	18260.375
1334.97747	18011.375
1338.47502	18121.475
1341.97022	18309.675
1345.46305	18495.175
1348.95352	18652.475
1352.44163	18961.575
1355.92738	19749.975
1359.41078	21410.875
1362.89183	23272.475
1366.37053	23044.875
1369.84688	20446.975
1373.32088	17558.975
1376.79254	15722.375
1380.26186	14838.275
1383.72883	14514.175
1387.19347	14264.075
1390.65578	14002.675
1394.11575	13819.975
1397.57339	13834.475
1401.0287	14052.275
1404.48168	14350.575
1407.93234	14565.475
1411.38068	14719.075
1414.82669	14573.375
1418.27039	14181.075
1421.71177	13757.775
1425.15083	13342.975
1428.58758	13063.775
1432.02203	12994.075
1435.45416	13053.875
1438.88399	13186.775
1442.31151	13290.775
1445.73673	13392.275
1449.15965	13558.275
1452.58027	13604.575
1455.9986	13614.175
1459.41463	13626.175
1462.82837	13750.475
1466.23982	13984.275
1469.64898	14244.175
1473.05586	14400.875
1476.46045	14479.675
1479.86276	14572.075
1483.26279	14687.975
1486.66054	14882.375
1490.05602	15095.675
1493.44922	15460.875
1496.84016	15908.575
1500.22882	16602.175
1503.61521	17598.075
1506.99934	18914.275
1510.38121	20287.575
1513.76081	21163.675
1517.13816	20731.375
1520.51324	19201.275
1523.88607	17455.575
1527.25665	16144.575
1530.62498	15348.975
1533.99105	14913.475
1537.35488	14597.275
1540.71647	14402.675
1544.07581	14250.775
1547.4329	14157.275
1550.78776	14013.175
1554.14038	13929.375
1557.49077	14077.275
1560.83892	14206.875
1564.18484	14394.775
1567.52853	14509.275
1570.86999	14595.175
1574.20922	14695.175
1577.54624	14677.475
1580.88103	14382.675
1584.2136	13977.375
1587.54395	13927.275
1590.87208	14334.575
1594.19801	15117.675
1597.52172	16080.875
1600.84321	16496.375
1604.16251	15982.575
1607.47959	14974.175
1610.79447	13849.275
1614.10715	12811.475
1617.41763	11959.075
1620.7259	11372.175
1624.03199	11087.875
1627.33587	11064.775
1630.63757	11341.975
1633.93707	11855.275
1637.23439	12660.875
1640.52951	13729.075
1643.82246	14974.375
1647.11321	16165.875
1650.40179	16861.375
1653.68819	16355.875
1656.97241	14626.075
1660.25446	12604.775
1663.53433	11079.775
1666.81203	10132.575
1670.08756	9598.475
1673.36092	9236.375
1676.63211	9044.675
1679.90115	8903.675
1683.16801	8767.375
1686.43272	8662.575
1689.69527	8586.475
1692.95567	8505.675
1696.2139	8473.775
1699.46999	8380.475
1702.72392	8379.775
1705.97571	8392.875
1709.22535	8402.475
1712.47284	8473.475
1715.71819	8463.375
1718.96139	8460.175
1722.20246	8445.075
1725.44139	8442.775
1728.67818	8395.375
1731.91284	8331.875
1735.14537	8294.575
1738.37576	8268.975
1741.60403	8220.875
1744.83017	8206.475
1748.05418	8175.375
1751.27607	8129.975
1754.49584	8112.475
1757.71349	8113.375
1760.92903	8051.475
1764.14244	8055.675
1767.35375	8069.675
1770.56294	8035.475
1773.77002	8050.375
1776.97499	8058.175
1780.17785	8047.875
1783.37861	8060.175
1786.57727	8050.575
1789.77382	8081.875
1792.96828	8051.975
1796.16064	8049.075
1799.3509	8049.675
1802.53907	8036.575
1805.72514	8014.275
1808.90913	7995.575
1812.09102	7990.975
1815.27083	7966.475
1818.44856	7951.575
1821.6242	7933.575
1824.79776	7919.875
1827.96924	7910.875
1831.13864	7911.175
1834.30597	7918.275
1837.47122	7907.975
1840.6344	7913.075
1843.7955	7924.475
1846.95454	7908.175
1850.11151	7909.675
1853.26642	7913.375
1856.41926	7910.375
1859.57004	7961.475
1862.71876	7932.675
1865.86542	7939.075
1869.01003	7952.375
1872.15258	7948.075
1875.29308	7964.275
1878.43152	7956.175
1881.56792	7951.075
1884.70227	7975.075
1887.83457	7938.775
1890.96482	7944.275
1894.09304	7969.675
1897.21921	7967.475
1900.34335	7938.875
1903.46544	7953.675
1906.58551	7968.875
1909.70353	7939.475
1912.81953	7955.475
1915.93349	7953.775
1919.04543	7944.875
1922.15534	7947.875
1925.26322	7935.475
1928.36908	7901.875
1931.47292	7895.675
1934.57473	7824.575
1937.67453	7816.875
1940.77232	7781.975
1943.86808	7754.875
1946.96184	7699.275
1950.05358	7694.175
1953.14331	7673.575
1956.23103	7625.275
1959.31675	7607.975
1962.40046	7586.575
1965.48217	7581.475
1968.56188	7544.175
1971.63959	7532.575
1974.7153	7490.675
1977.78901	7477.075
1980.86073	7446.675
1983.93046	7438.475
1986.99819	7414.975
1990.06394	7373.675
1993.1277	7379.875
1996.18947	7336.475
1999.24925	7330.775
2002.30706	7283.575
2005.36288	7274.275
2008.41672	7262.875
2011.46859	7250.775
2014.51848	7228.775
2017.56639	7208.375
2020.61233	7200.575
2023.6563	7176.675
2026.6983	7174.075
2029.73833	7157.675
2032.7764	7135.275
2035.8125	7111.975
2038.84664	7103.575
2041.87881	7098.575
2044.90903	7074.575
2047.93729	7072.375
2050.96359	7070.075
2053.98794	7061.375
2057.01034	7058.075
2060.03078	7035.275
2063.04927	7033.875
2066.06582	7048.375
2069.08042	7053.375
2072.09307	7030.475
2075.10378	6997.075
2078.11255	6998.375
2081.11938	7008.475
2084.12426	7005.375
2087.12722	7002.975
2090.12824	6983.875
2093.12732	6989.675
2096.12447	6995.675
2099.11969	6986.075
2102.11299	6993.475
2105.10435	6993.675
2108.09379	7003.675
2111.08131	7018.475
2114.0669	7028.775
2117.05057	7003.775
2120.03233	7024.475
2123.01216	7021.675
2125.99008	7034.775
2128.96609	7046.675
2131.94018	7055.175
2134.91236	7065.375
2137.88263	7054.675
2140.851	7045.175
2143.81746	7067.475
2146.78201	7058.875
2149.74466	7056.175
2152.7054	7062.475
2155.66425	7063.775
2158.6212	7055.475
2161.57625	7049.875
2164.52941	7047.875
2167.48067	7039.375
2170.43004	7061.375
2173.37752	7041.175
2176.32311	7045.475
2179.26681	7051.975
2182.20863	7054.475
2185.14856	7049.975
2188.08661	7065.075
2191.02278	7061.675
2193.95707	7052.575
2196.88948	7047.175
2199.82001	7024.575
2202.74867	7040.475
2205.67545	7036.875
2208.60037	7040.575
2211.52341	7011.075
2214.44458	7031.975
2217.36388	7009.375
2220.28132	6981.775
2223.1969	6986.675
2226.11061	6985.275
2229.02246	6953.175
2231.93245	6951.675
2234.84058	6921.675
2237.74686	6922.575
2240.65128	6918.875
2243.55385	6922.375
2246.45456	6908.875
2249.35343	6897.775
2252.25044	6899.975
2255.14561	6871.475
2258.03893	6878.375
2260.93041	6860.275
2263.82004	6849.075
2266.70783	6837.875
2269.59378	6811.075
2272.4779	6799.275
2275.36017	6803.375
2278.24061	6768.675
2281.11922	6772.475
2283.996	6769.575
2286.87094	6754.075
2289.74405	6729.775
2292.61534	6713.475
2295.4848	6699.875
2298.35243	6724.975
2301.21824	6720.075
2304.08223	6707.375
2306.94439	6729.175
2309.80474	6717.775
2312.66327	6722.275
2315.51999	6704.475
2318.37489	6728.475
2321.22797	6700.175
2324.07925	6693.775
2326.92871	6711.975
2329.77637	6704.075
2332.62222	6693.075
2335.46626	6699.175
2338.3085	6671.175
2341.14893	6697.075
2343.98756	6707.275
2346.8244	6688.975
2349.65943	6678.175
2352.49267	6696.975
2355.32411	6709.775
2358.15376	6703.175
2360.98161	6699.675
2363.80768	6688.075
2366.63195	6682.775
2369.45444	6672.775
2372.27514	6661.775
2375.09405	6652.975
2377.91118	6635.475
2380.72652	6629.375
2383.54009	6591.675
2386.35187	6590.675
2389.16188	6554.875
2391.97011	6534.875
2394.77657	6546.075
2397.58125	6534.975
2400.38416	6531.575
2403.18529	6515.775
2405.98466	6519.575
2408.78226	6498.575
2411.57809	6479.875
2414.37216	6472.375
2417.16446	6460.875
2419.955	6467.675
2422.74378	6449.275
2425.5308	6428.075
2428.31606	6447.375
2431.09956	6454.575
2433.88131	6438.875
2436.6613	6441.575
2439.43954	6423.775
2442.21603	6420.375
2444.99077	6421.875
2447.76377	6396.575
2450.53501	6426.975
2453.30451	6417.675
2456.07226	6423.075
2458.83827	6393.275
2461.60254	6406.575
2464.36507	6409.975
2467.12586	6386.475
2469.88492	6386.175
2472.64224	6428.375
2475.39782	6394.375
2478.15167	6419.175
2480.90379	6406.275
2483.65417	6413.275
2486.40283	6400.475
2489.14976	6431.275
2491.89497	6441.175
2494.63845	6457.275
2497.3802	6435.775
2500.12024	6448.475
2502.85855	6435.075
2505.59514	6426.375
2508.33002	6414.575
2511.06318	6399.475
2513.79462	6389.075
2516.52435	6381.075
2519.25237	6357.075
2521.97867	6358.075
2524.70327	6351.075
2527.42616	6330.775
2530.14734	6323.175
2532.86681	6315.475
2535.58458	6339.075
2538.30065	6335.475
2541.01501	6330.275
2543.72768	6308.375
2546.43864	6316.775
2549.14791	6319.275
2551.85548	6295.475
2554.56136	6307.075
2557.26554	6290.175
2559.96803	6275.375
2562.66883	6287.575
2565.36794	6284.575
2568.06536	6259.275
2570.7611	6266.675
2573.45514	6253.075
2576.14751	6245.875
2578.83819	6258.075
2581.52719	6256.175
2584.21451	6242.575
2586.90015	6240.375
2589.58411	6232.675
2592.2664	6216.775
2594.94701	6235.175
2597.62594	6228.075
2600.30321	6197.775
2602.9788	6215.975
2605.65273	6207.375
2608.32498	6218.175
2610.99557	6205.475
2613.66449	6224.775
2616.33175	6192.475
2618.99734	6220.775
2621.66128	6220.875
2624.32355	6197.875
2626.98416	6213.275
2629.64311	6212.075
2632.30041	6201.175
2634.95605	6192.575
2637.61004	6164.875
2640.26238	6176.875
2642.91306	6171.075
2645.56209	6161.775
2648.20948	6165.975
2650.85521	6136.175
2653.4993	6150.175
2656.14175	6162.575
2658.78255	6167.475
2661.42171	6171.275
2664.05923	6166.475
2666.6951	6174.175
2669.32934	6189.275
2671.96194	6173.775
2674.59291	6202.275
2677.22224	6183.275
2679.84993	6176.775
2682.476	6177.075
2685.10043	6188.475
2687.72324	6174.375
2690.34441	6173.175
2692.96396	6169.875
2695.58188	6180.575
2698.19818	6171.475
2700.81285	6170.575
2703.4259	6166.575
2706.03733	6152.975
2708.64714	6137.875
2711.25533	6164.675
2713.86191	6170.975
2716.46687	6199.275
2719.07021	6169.675
2721.67194	6214.775
2724.27206	6172.675
2726.87057	6193.175
2729.46747	6205.875
2732.06276	6181.675
2734.65644	6192.075
2737.24852	6182.775
2739.83899	6196.475
2742.42786	6185.775
2745.01513	6159.475
2747.60079	6151.475
2750.18486	6175.275
2752.76733	6158.875
2755.3482	6160.175
2757.92747	6164.275
2760.50515	6146.275
2763.08123	6159.375
2765.65573	6141.175
2768.22863	6140.375
2770.79994	6140.275
2773.36967	6127.275
2775.9378	6134.275
2778.50435	6141.175
2781.06932	6113.175
2783.6327	6131.875
2786.1945	6121.975
2788.75471	6103.075
2791.31335	6107.175
2793.87041	6108.075
2796.42589	6075.275
2798.97979	6094.875
2801.53212	6080.575
2804.08288	6057.875
2806.63206	6059.375
2809.17967	6032.775
2811.72571	6034.275
2814.27018	6015.775
2816.81308	6032.175
2819.35442	6028.975
2821.89419	6031.675
2824.43239	6033.175
2826.96904	6030.275
2829.50412	6031.275
2832.03763	6025.375
2834.56959	6022.575
2837.1	6029.075
2839.62884	6035.175
2842.15613	6028.075
2844.68186	6041.775
2847.20604	6053.575
2849.72867	6062.075
2852.24974	6050.075
2854.76927	6044.575
2857.28724	6038.175
2859.80367	6045.375
2862.31855	6028.275
2864.83189	6038.675
2867.34368	6028.475
2869.85393	6019.075
2872.36264	6021.075
2874.8698	6022.075
2877.37543	6004.675
2879.87952	6005.675
2882.38207	6017.475
2884.88308	6002.975
2887.38256	5995.075
2889.88051	6008.775
2892.37692	6007.675
2894.8718	5996.375
2897.36515	6003.175
2899.85698	6009.275
2902.34727	6020.875
2904.83604	6008.075
2907.32328	6019.875
2909.809	6016.575
2912.29319	6038.275
2914.77587	6021.375
2917.25702	6037.775
2919.73665	6018.775
2922.21476	6032.675
2924.69136	6038.875
2927.16644	6031.575
2929.64	5994.475
2932.11205	6008.775
2934.58258	5992.275
2937.05161	5997.375
2939.51912	5991.975
2941.98513	5988.175
2944.44962	5962.775
2946.91261	5928.975
2949.37409	5941.875
2951.83407	5927.475
2954.29254	5924.475
2956.74951	5908.175
2959.20498	5922.275
2961.65895	5914.475
2964.11142	5911.475
2966.56239	5906.975
2969.01186	5872.575
2971.45984	5868.075
2973.90632	5880.575
2976.35131	5856.775
2978.7948	5841.275
2981.23681	5835.875
2983.67732	5829.975
2986.11635	5813.075
2988.55388	5803.675
2990.98993	5778.575
2993.4245	5782.475
2995.85758	5759.475
2998.28917	5756.175
3000.71928	5747.975
3003.14791	5729.575
3005.57506	5729.175
3008.00073	5712.075
3010.42493	5725.575
3012.84764	5727.975
3015.26888	5719.975
3017.68865	5695.775
3020.10694	5712.175
3022.52376	5669.375
3024.9391	5685.975
3027.35298	5659.175
3029.76539	5666.775
3032.17632	5668.075
3034.5858	5636.875
3036.9938	5622.675
3039.40034	5651.975
3041.80542	5638.975
3044.20903	5643.675
3046.61118	5643.475
3049.01187	5616.875
3051.4111	5612.175
3053.80888	5599.175
3056.20519	5600.175
3058.60005	5574.575
3060.99345	5552.175
3063.3854	5547.875
3065.7759	5543.075
3068.16494	5540.775
3070.55254	5523.275
3072.93868	5503.375
3075.32338	5511.875
3077.70662	5490.375
3080.08842	5474.475
3082.46878	5461.475
3084.84769	5454.075
3087.22515	5459.075
3089.60118	5466.475
3091.97576	5445.775
3094.3489	5454.375
3096.72061	5447.375
3099.09087	5478.975
3101.4597	5459.775
3103.82709	5463.375
3106.19305	5468.375
3108.55757	5467.875
3110.92066	5437.875
3113.28232	5444.275
3115.64255	5429.675
3118.00134	5437.375
3120.35871	5434.175
3122.71466	5407.675
3125.06917	5389.075
3127.42226	5393.375
3129.77393	5383.975
3132.12417	5386.175
3134.47299	5373.675
3136.82039	5388.975
3139.16636	5389.175
3141.51092	5393.575
3143.85406	5413.075
3146.19579	5410.375
3148.53609	5407.075
3150.87499	5423.475
3153.21246	5422.475
3155.54853	5435.875
3157.88318	5436.075
3160.21642	5443.175
3162.54826	5442.275
3164.87868	5424.875
3167.2077	5448.775
3169.5353	5438.675
3171.86151	5441.975
3174.18631	5430.975
3176.5097	5441.575
3178.83169	5424.075
3181.15228	5432.575
3183.47147	5415.175
3185.78926	5438.675
3188.10565	5423.775
3190.42065	5428.075
3192.73424	5434.175
3195.04645	5412.875
3197.35725	5446.175
3199.66667	5436.175
3201.97469	5433.675
3204.28132	5428.575
3206.58656	5446.175
3208.8904	5445.175
