Data from AgNPs_FTO_APTES_UA_1uM_CRN_10uM_R6G_20uM_NaF_0.1M_Addition_RamanShift__35__15-38-39-715.txt Node

Date: Thu Jan 27 15:38:39 GMT 2022
User: TCL
Spectrometer: QEP01345
Trigger mode: 4
Integration Time (sec): 7.000000E0
Scans to average: 10
Electric dark correction enabled: true
Nonlinearity correction enabled: false
Boxcar width: 0
XAxis mode: Raman Shifts
Number of Pixels in Spectrum: 1044
>>>>>Begin Spectral Data<<<<<
46.04893	0.5
50.45542	0.7
54.85868	-2.3
59.25871	-0.4
63.6555	51.2
68.04907	54.3
72.43941	58.6
76.82654	60.8
81.21044	62.9
85.59113	64
89.96862	62.7
94.34289	66.6
98.71396	71
103.08183	70.1
107.4465	73.2
111.80798	75.2
116.16626	76.4
120.52136	81.6
124.87327	78.8
129.222	82.4
133.56755	82.4
137.90993	93.2
142.24913	96
146.58517	106.4
150.91804	120
155.24774	143.7
159.57429	166
163.89768	214.7
168.21792	277.8
172.53501	377.7
176.84895	513.9
181.15975	714.9
185.46741	1008
189.77193	1380
194.07331	1849.7
198.37157	2388.3
202.6667	2943.2
206.9587	3511.4
211.24758	4048.8
215.53334	4588.7
219.81599	5180.2
224.09553	5819.4
228.37195	6519.7
232.64527	7292.9
236.91549	8108.8
241.18261	8946.9
245.44663	9693.4
249.70755	10408.3
253.96539	10988.4
258.22014	11539.3
262.4718	11995.4
266.72039	12283.6
270.96589	12446.8
275.20832	12462.1
279.44768	12390.3
283.68397	12263.6
287.91719	12121.2
292.14735	12026.1
296.37445	11955.1
300.59849	12011.9
304.81948	12085.1
309.03742	12102.2
313.25231	12031.9
317.46415	11861.7
321.67296	11664.2
325.87872	11448.9
330.08145	11354.4
334.28114	11369.3
338.47781	11452.3
342.67145	11591.5
346.86207	11762.6
351.04966	11999.7
355.23424	12219.4
359.4158	12410.6
363.59435	12576.3
367.76989	12697.7
371.94243	12785.6
376.11196	12912.4
380.27849	12970.3
384.44203	13058.2
388.60257	13126.6
392.76012	13237.9
396.91468	13359.9
401.06626	13573.3
405.21485	13711
409.36047	13704.1
413.50311	13580.7
417.64277	13445.1
421.77947	13448.1
425.9132	13477.7
430.04396	13530.2
434.17176	13654.6
438.2966	13786.4
442.41849	14033.7
446.53742	14424.4
450.6534	14895.9
454.76644	15218.2
458.87653	15317.8
462.98368	15232.5
467.08789	15003.1
471.18916	14780.1
475.2875	14522.4
479.38291	14368.2
483.4754	14242.3
487.56496	14108.4
491.6516	13978.6
495.73531	13844.9
499.81612	13791.5
503.89401	13825.6
507.96899	13867.8
512.04106	13833.3
516.11023	13738.9
520.1765	13710.2
524.23987	13673.5
528.30034	13650.9
532.35792	13578.6
536.41261	13438
540.46441	13274.7
544.51333	13251.3
548.55936	13336
552.60252	13549.3
556.64279	13791
560.6802	13949.7
564.71473	14042.4
568.7464	14144.4
572.7752	14406.7
576.80114	14580.9
580.82422	14829.8
584.84444	15077.4
588.86181	15551.9
592.87633	16009.1
596.888	16258.7
600.89682	16139
604.9028	16334.6
608.90594	17343
612.90624	18448.8
616.90371	17594.6
620.89834	15355.9
624.89015	14323.8
628.87913	14215
632.86528	14181.5
636.84862	14007.6
640.82913	13765.3
644.80683	13427.5
648.78172	13268.8
652.75379	13251.1
656.72306	13433.5
660.68952	13621.1
664.65319	13598.6
668.61405	13401.7
672.57211	13367.1
676.52738	13419.6
680.47986	13377.3
684.42955	13308.1
688.37646	13285.5
692.32058	13359.6
696.26192	13562.4
700.20048	13715.2
704.13626	13790.9
708.06928	13670.2
711.99952	13563.8
715.927	13572.6
719.85171	13640
723.77365	13614
727.69284	13487.3
731.60928	13330.9
735.52295	13265.2
739.43388	13297.5
743.34206	13343.8
747.24749	13374.2
751.15017	13472.6
755.05012	13645.6
758.94733	13945.8
762.8418	14473.4
766.73354	15234.2
770.62254	15968
774.50882	16219.4
778.39237	15747.5
782.27321	14912.7
786.15132	14188.4
790.02671	13758.4
793.89938	13604.9
797.76935	13514.7
801.6366	13510.2
805.50115	13486.1
809.36299	13396.1
813.22213	13337.6
817.07857	13312.5
820.93231	13281.3
824.78336	13273.3
828.63172	13317.9
832.47738	13332.7
836.32036	13440.2
840.16066	13541.9
843.99827	13624.1
847.8332	13572.2
851.66546	13440.5
855.49504	13391.7
859.32195	13382.9
863.1462	13342.2
866.96777	13267.7
870.78668	13240
874.60293	13221.5
878.41652	13230.2
882.22745	13251.8
886.03573	13333.8
889.84136	13306.5
893.64433	13285.1
897.44466	13184.2
901.24235	13144.4
905.0374	13103.8
908.8298	13101.8
912.61957	13148.4
916.40671	13247.7
920.19121	13448.6
923.97308	13682.2
927.75233	13787.7
931.52895	13771.7
935.30295	13660.7
939.07433	13441.8
942.84309	13304.9
946.60924	13281.9
950.37278	13240.3
954.13371	13166.3
957.89203	13071
961.64774	13009.2
965.40086	12966.3
969.15137	12963
972.89929	12943.4
976.64461	12965
980.38733	13001
984.12747	13156.4
987.86502	13279.9
991.59999	13473.7
995.33237	13786.5
999.06217	14302
1002.78939	14860.2
1006.51404	15120.6
1010.23611	15190.2
1013.95561	15231.7
1017.67255	15174.2
1021.38692	15039.5
1025.09872	14964.5
1028.80796	15337.5
1032.51465	16238.6
1036.21877	16983.1
1039.92035	17090
1043.61937	16690.2
1047.31584	16041.2
1051.00976	15303.7
1054.70114	14868.9
1058.38998	14692.4
1062.07627	14598.4
1065.76003	14504.4
1069.44126	14514.4
1073.11995	14671.3
1076.79611	14792.6
1080.46974	14957.4
1084.14085	15019.5
1087.80943	15165.9
1091.47549	15149.4
1095.13903	15084.6
1098.80005	14897.1
1102.45857	14688.2
1106.11456	14582.5
1109.76805	14550.7
1113.41903	14590
1117.06751	14647.5
1120.71348	14728.6
1124.35696	14764.9
1127.99793	14901
1131.63641	14994.1
1135.2724	14907.7
1138.90589	14808.5
1142.5369	14766.4
1146.16542	14774.8
1149.79145	14818.3
1153.415	14906.9
1157.03607	15014.1
1160.65467	15314.8
1164.27079	15816.3
1167.88443	16492.8
1171.49561	17261.4
1175.10432	18277.2
1178.71056	19594.2
1182.31434	20861.4
1185.91565	21616.7
1189.51451	21544.5
1193.11091	20914.5
1196.70485	20108
1200.29634	19434
1203.88538	19061.4
1207.47197	18742.5
1211.05612	18397.5
1214.63782	18067.3
1218.21708	17864.9
1221.79391	17738.5
1225.36829	17641.4
1228.94024	17407
1232.50976	16986.6
1236.07685	16670
1239.6415	16520.1
1243.20374	16538.2
1246.76355	16740.2
1250.32093	17026
1253.8759	17392.1
1257.42845	17860.4
1260.97859	18291.3
1264.52631	18759.2
1268.07163	19251.2
1271.61453	19864.3
1275.15503	20540.5
1278.69312	21190.2
1282.22882	21629.5
1285.76211	21958.4
1289.29301	22390.7
1292.82151	23022.7
1296.34761	24017.7
1299.87133	25415.6
1303.39266	27124.4
1306.9116	28853.2
1310.42815	30131
1313.94233	30496.4
1317.45412	29934
1320.96354	28984.1
1324.47058	28003.4
1327.97525	27045.1
1331.47754	26413.9
1334.97747	25955.4
1338.47502	25663.5
1341.97022	25333.8
1345.46305	24886
1348.95352	24666.5
1352.44163	24907.1
1355.92738	25770.4
1359.41078	27272
1362.89183	28439.1
1366.37053	28049.7
1369.84688	25971.1
1373.32088	23406
1376.79254	21609
1380.26186	20853.2
1383.72883	20764.1
1387.19347	20724.9
1390.65578	20524
1394.11575	20343.5
1397.57339	20453.1
1401.0287	20710.2
1404.48168	20958.5
1407.93234	20990.9
1411.38068	20809.3
1414.82669	20374.3
1418.27039	19812.6
1421.71177	19214.5
1425.15083	18663
1428.58758	18398
1432.02203	18479.8
1435.45416	18857.1
1438.88399	19314.8
1442.31151	19668
1445.73673	19864.2
1449.15965	20009.5
1452.58027	20040.6
1455.9986	19925
1459.41463	19894.5
1462.82837	20089.2
1466.23982	20487.2
1469.64898	20837.5
1473.05586	21201.1
1476.46045	21370.3
1479.86276	21369.5
1483.26279	21238.4
1486.66054	21103.6
1490.05602	21126.4
1493.44922	21232.3
1496.84016	21314.5
1500.22882	21404.3
1503.61521	21673.1
1506.99934	22170.7
1510.38121	22615.1
1513.76081	22750.8
1517.13816	22471.9
1520.51324	21788.4
1523.88607	21217.9
1527.25665	20907.1
1530.62498	20786
1533.99105	20830.1
1537.35488	20691.9
1540.71647	20444
1544.07581	20150.7
1547.4329	19835
1550.78776	19608
1554.14038	19377.7
1557.49077	19263.5
1560.83892	19134.5
1564.18484	19036
1567.52853	19033.2
1570.86999	19142.6
1574.20922	19345.8
1577.54624	19541.3
1580.88103	19662.5
1584.2136	19870.1
1587.54395	20563.3
1590.87208	21692.4
1594.19801	23069.1
1597.52172	24290
1600.84321	24646
1604.16251	23633.6
1607.47959	21782.5
1610.79447	19898.7
1614.10715	18279.4
1617.41763	17151.1
1620.7259	16437.6
1624.03199	16217.8
1627.33587	16324.8
1630.63757	16804.9
1633.93707	17576.3
1637.23439	18763.7
1640.52951	20384.4
1643.82246	22309.8
1647.11321	23790.3
1650.40179	24009
1653.68819	22504.4
1656.97241	20006
1660.25446	17623.9
1663.53433	15920.9
1666.81203	14871.6
1670.08756	14222.6
1673.36092	13882.5
1676.63211	13604.5
1679.90115	13441.1
1683.16801	13304.7
1686.43272	13181.4
1689.69527	13109.4
1692.95567	12995.4
1696.2139	12940.4
1699.46999	12900.1
1702.72392	12833.6
1705.97571	12882.7
1709.22535	12901.6
1712.47284	12911.6
1715.71819	12917.6
1718.96139	12921.9
1722.20246	12879.6
1725.44139	12856.1
1728.67818	12788.9
1731.91284	12760.9
1735.14537	12722.9
1738.37576	12666.5
1741.60403	12645.1
1744.83017	12596.6
1748.05418	12576.8
1751.27607	12558.4
1754.49584	12533.3
1757.71349	12505.2
1760.92903	12473.2
1764.14244	12446.1
1767.35375	12434.4
1770.56294	12438.3
1773.77002	12461.1
1776.97499	12465.9
1780.17785	12499.2
1783.37861	12495.3
1786.57727	12487.9
1789.77382	12484.9
1792.96828	12459.8
1796.16064	12450.6
1799.3509	12421.1
1802.53907	12439.2
1805.72514	12430.4
1808.90913	12400.5
1812.09102	12359.6
1815.27083	12333.3
1818.44856	12366.1
1821.6242	12317.3
1824.79776	12314.4
1827.96924	12315.5
1831.13864	12288.6
1834.30597	12264
1837.47122	12275.3
1840.6344	12270.7
1843.7955	12268.3
1846.95454	12281.9
1850.11151	12267.5
1853.26642	12305.3
1856.41926	12308.3
1859.57004	12291
1862.71876	12293.1
1865.86542	12266.8
1869.01003	12271.7
1872.15258	12278.4
1875.29308	12282.5
1878.43152	12271.9
1881.56792	12253.4
1884.70227	12234
1887.83457	12236.2
1890.96482	12231.3
1894.09304	12237.2
1897.21921	12221.4
1900.34335	12219.7
1903.46544	12239.4
1906.58551	12237.9
1909.70353	12225.2
1912.81953	12235.5
1915.93349	12217.8
1919.04543	12189.1
1922.15534	12169.2
1925.26322	12157.4
1928.36908	12162.8
1931.47292	12147.7
1934.57473	12102.7
1937.67453	12092.8
1940.77232	12071.1
1943.86808	12027.2
1946.96184	12017.5
1950.05358	11953.9
1953.14331	11962.8
1956.23103	11923
1959.31675	11919.5
1962.40046	11867
1965.48217	11851.4
1968.56188	11835.7
1971.63959	11801.3
1974.7153	11789.8
1977.78901	11731.9
1980.86073	11712.8
1983.93046	11692.2
1986.99819	11637.3
1990.06394	11601.8
1993.1277	11580.4
1996.18947	11531.8
1999.24925	11525.8
2002.30706	11514.4
2005.36288	11480.2
2008.41672	11464
2011.46859	11409.1
2014.51848	11389.6
2017.56639	11399.7
2020.61233	11363.3
2023.6563	11365.9
2026.6983	11341.3
2029.73833	11341.5
2032.7764	11315.6
2035.8125	11311.9
2038.84664	11282.4
2041.87881	11298.1
2044.90903	11288
2047.93729	11279.9
2050.96359	11255
2053.98794	11232.4
2057.01034	11255
2060.03078	11224.7
2063.04927	11217
2066.06582	11242
2069.08042	11242.8
2072.09307	11234.2
2075.10378	11200.5
2078.11255	11230.4
2081.11938	11219.9
2084.12426	11194.7
2087.12722	11208.3
2090.12824	11215.4
2093.12732	11198.3
2096.12447	11204.3
2099.11969	11201.3
2102.11299	11236.3
2105.10435	11246.7
2108.09379	11281.2
2111.08131	11258.9
2114.0669	11279.2
2117.05057	11281.8
2120.03233	11309.8
2123.01216	11305.5
2125.99008	11323
2128.96609	11350.5
2131.94018	11363.8
2134.91236	11383.7
2137.88263	11372.6
2140.851	11398.2
2143.81746	11430.9
2146.78201	11401.9
2149.74466	11446.4
2152.7054	11458.9
2155.66425	11464.6
2158.6212	11474.7
2161.57625	11446.1
2164.52941	11440.1
2167.48067	11449.2
2170.43004	11453.3
2173.37752	11440.9
2176.32311	11452.6
2179.26681	11471.4
2182.20863	11486.4
2185.14856	11484.2
2188.08661	11521.9
2191.02278	11552.8
2193.95707	11536.3
2196.88948	11550.3
2199.82001	11550.3
2202.74867	11534.2
2205.67545	11534.5
2208.60037	11532.5
2211.52341	11501.7
2214.44458	11505.4
2217.36388	11505.9
2220.28132	11509.5
2223.1969	11491.6
2226.11061	11478
2229.02246	11476.4
2231.93245	11453.3
2234.84058	11441.3
2237.74686	11422
2240.65128	11416.8
2243.55385	11412.9
2246.45456	11386.5
2249.35343	11366.5
2252.25044	11380.7
2255.14561	11346.4
2258.03893	11321.7
2260.93041	11329.4
2263.82004	11289.2
2266.70783	11278.6
2269.59378	11261.5
2272.4779	11241.8
2275.36017	11221.4
2278.24061	11215.3
2281.11922	11226
2283.996	11209.7
2286.87094	11229.9
2289.74405	11178.4
2292.61534	11199.1
2295.4848	11189.5
2298.35243	11225.6
2301.21824	11218.7
2304.08223	11253.6
2306.94439	11263.7
2309.80474	11260.5
2312.66327	11274.6
2315.51999	11292.2
2318.37489	11293
2321.22797	11299.6
2324.07925	11293.7
2326.92871	11274.9
2329.77637	11282.4
2332.62222	11251.8
2335.46626	11275.1
2338.3085	11251.4
2341.14893	11278.5
2343.98756	11287.6
2346.8244	11285
2349.65943	11255
2352.49267	11250.8
2355.32411	11239.4
2358.15376	11227.5
2360.98161	11234.5
2363.80768	11211
2366.63195	11209.1
2369.45444	11209.7
2372.27514	11178.7
2375.09405	11163.2
2377.91118	11158.3
2380.72652	11131.7
2383.54009	11110.4
2386.35187	11122.3
2389.16188	11109.2
2391.97011	11089.5
2394.77657	11065.1
2397.58125	11087.5
2400.38416	11061.7
2403.18529	11047.9
2405.98466	11039.9
2408.78226	11024
2411.57809	11017.1
2414.37216	10978.3
2417.16446	10992.7
2419.955	10962.9
2422.74378	10970.2
2425.5308	10970.2
2428.31606	10987.1
2431.09956	10982.4
2433.88131	10969.9
2436.6613	10962.1
2439.43954	10970.5
2442.21603	10956.9
2444.99077	10945
2447.76377	10959.3
2450.53501	10953
2453.30451	10977.3
2456.07226	10948.1
2458.83827	10973
2461.60254	10962
2464.36507	10943.1
2467.12586	10948.1
2469.88492	10951.5
2472.64224	10989.8
2475.39782	10982.1
2478.15167	10945.2
2480.90379	10977.1
2483.65417	11019.1
2486.40283	11019.9
2489.14976	11036.3
2491.89497	11040.4
2494.63845	11056.3
2497.3802	11026.3
2500.12024	11043.8
2502.85855	11073.1
2505.59514	11033.2
2508.33002	11018.3
2511.06318	11030.9
2513.79462	11038.9
2516.52435	11014.4
2519.25237	11019.6
2521.97867	11027.1
2524.70327	11047.7
2527.42616	11005.1
2530.14734	11005.6
2532.86681	11008
2535.58458	11008.7
2538.30065	10997.1
2541.01501	10983.2
2543.72768	10995.4
2546.43864	10980.1
2549.14791	10968
2551.85548	10998.5
2554.56136	10964.9
2557.26554	10983.1
2559.96803	10974.3
2562.66883	10977.6
2565.36794	10980.5
2568.06536	10980.1
2570.7611	10971.9
2573.45514	10972.1
2576.14751	10967.2
2578.83819	10975.8
2581.52719	10984.1
2584.21451	10969.8
2586.90015	10975.7
2589.58411	10954.8
2592.2664	10973.7
2594.94701	10961.4
2597.62594	10945
2600.30321	10932.2
2602.9788	10940.2
2605.65273	10934.8
2608.32498	10936.5
2610.99557	10945.4
2613.66449	10973.4
2616.33175	10941.7
2618.99734	10947.3
2621.66128	10939.4
2624.32355	10957.7
2626.98416	10974.9
2629.64311	10963.9
2632.30041	10981.5
2634.95605	10928.4
2637.61004	10906.8
2640.26238	10914.2
2642.91306	10921.6
2645.56209	10921.6
2648.20948	10884.8
2650.85521	10895.5
2653.4993	10911.6
2656.14175	10908.1
2658.78255	10910.7
2661.42171	10918.3
2664.05923	10957.4
2666.6951	10947
2669.32934	10963.2
2671.96194	10953.5
2674.59291	10974.1
2677.22224	10945.4
2679.84993	10950.6
2682.476	10933.6
2685.10043	10938.8
2687.72324	10901.6
2690.34441	10941
2692.96396	10931.7
2695.58188	10945.1
2698.19818	10919.1
2700.81285	10923.2
2703.4259	10951.9
2706.03733	10926.6
2708.64714	10935.6
2711.25533	10967.7
2713.86191	10960.5
2716.46687	10999.2
2719.07021	10985
2721.67194	11012.8
2724.27206	11021.1
2726.87057	11036.6
2729.46747	11019.1
2732.06276	11057.1
2734.65644	11037.2
2737.24852	11039.6
2739.83899	11050.2
2742.42786	11019.3
2745.01513	11022.7
2747.60079	11041.5
2750.18486	11053.6
2752.76733	11047.9
2755.3482	11021.4
2757.92747	11041
2760.50515	11034.5
2763.08123	11038.7
2765.65573	11051.8
2768.22863	11039.2
2770.79994	11032.2
2773.36967	11061.2
2775.9378	11040.6
2778.50435	11065
2781.06932	11039.9
2783.6327	11020.2
2786.1945	11032.1
2788.75471	11005
2791.31335	11001.3
2793.87041	11006.2
2796.42589	10975.8
2798.97979	10996.8
2801.53212	10986.8
2804.08288	10962.3
2806.63206	10939.2
2809.17967	10922
2811.72571	10907.1
2814.27018	10891.8
2816.81308	10894.5
2819.35442	10871.6
2821.89419	10886.3
2824.43239	10885.8
2826.96904	10877
2829.50412	10872.2
2832.03763	10872.5
2834.56959	10867.5
2837.1	10843.7
2839.62884	10893.2
2842.15613	10865.1
2844.68186	10889.3
2847.20604	10883.2
2849.72867	10896.2
2852.24974	10889.4
2854.76927	10880.1
2857.28724	10877.9
2859.80367	10887.9
2862.31855	10861.9
2864.83189	10851.8
2867.34368	10863.2
2869.85393	10857.6
2872.36264	10838.9
2874.8698	10878.1
2877.37543	10864.4
2879.87952	10854.5
2882.38207	10890.4
2884.88308	10878
2887.38256	10877.1
2889.88051	10913.5
2892.37692	10920.4
2894.8718	10925.3
2897.36515	10948.2
2899.85698	10944.8
2902.34727	10955.8
2904.83604	10973.7
2907.32328	11006.9
2909.809	10987.9
2912.29319	11001.8
2914.77587	11017.1
2917.25702	10996.1
2919.73665	11032.7
2922.21476	11002.4
2924.69136	11017.2
2927.16644	11001.4
2929.64	10989
2932.11205	11000.7
2934.58258	10977
2937.05161	10998.7
2939.51912	10979.6
2941.98513	10963
2944.44962	10965.4
2946.91261	10921.4
2949.37409	10970.6
2951.83407	10950.4
2954.29254	10967.2
2956.74951	10935.9
2959.20498	10957
2961.65895	10932.6
2964.11142	10943
2966.56239	10941.1
2969.01186	10927.9
2971.45984	10936.2
2973.90632	10926.5
2976.35131	10903.5
2978.7948	10886.5
2981.23681	10867.1
2983.67732	10877.8
2986.11635	10848.4
2988.55388	10828
2990.98993	10826.4
2993.4245	10801.1
2995.85758	10772.5
2998.28917	10771.7
3000.71928	10756.3
3003.14791	10762.2
3005.57506	10738.6
3008.00073	10745.8
3010.42493	10741.9
3012.84764	10725.8
3015.26888	10756.4
3017.68865	10736.5
3020.10694	10712.2
3022.52376	10687.2
3024.9391	10673.5
3027.35298	10696.9
3029.76539	10695.7
3032.17632	10668.5
3034.5858	10653
3036.9938	10663.7
3039.40034	10677.1
3041.80542	10679.6
3044.20903	10640.8
3046.61118	10669.9
3049.01187	10654.3
3051.4111	10649.9
3053.80888	10629.5
3056.20519	10612.8
3058.60005	10617.5
3060.99345	10592.8
3063.3854	10575.3
3065.7759	10563.4
3068.16494	10564.8
3070.55254	10540.4
3072.93868	10533.4
3075.32338	10498
3077.70662	10506.5
3080.08842	10467.5
3082.46878	10471.8
3084.84769	10476.6
3087.22515	10504.8
3089.60118	10478.1
3091.97576	10481.8
3094.3489	10498.1
3096.72061	10493.2
3099.09087	10518.8
3101.4597	10507.2
3103.82709	10529.1
3106.19305	10522.2
3108.55757	10490.1
3110.92066	10491
3113.28232	10480.6
3115.64255	10473.2
3118.00134	10488.3
3120.35871	10489.3
3122.71466	10431
3125.06917	10444.5
3127.42226	10430.3
3129.77393	10437.5
3132.12417	10420.2
3134.47299	10400.1
3136.82039	10419.3
3139.16636	10447.6
3141.51092	10453.7
3143.85406	10441
3146.19579	10466
3148.53609	10480.6
3150.87499	10480.6
3153.21246	10504.7
3155.54853	10500.9
3157.88318	10512.4
3160.21642	10509.5
3162.54826	10508.9
3164.87868	10544.5
3167.2077	10524.7
3169.5353	10557
3171.86151	10543.9
3174.18631	10561.4
3176.5097	10536.4
3178.83169	10530.9
3181.15228	10530.3
3183.47147	10521.8
3185.78926	10516.5
3188.10565	10525.9
3190.42065	10525.4
3192.73424	10540.9
3195.04645	10513.9
3197.35725	10522.4
3199.66667	10545.2
3201.97469	10540.3
3204.28132	10546.4
3206.58656	10550.5
3208.8904	10567.1
3211.19287	10594.1
3213.49394	10582.9
3215.79363	10609.9
3218.09193	10583.9
3220.38884	10595.5
3222.68438	10596.2
3224.97853	10608.8
3227.2713	10577.9
3229.56269	10586.1
3231.8527	10608.2
3234.14133	10571.4
3236.42858	10554.4
3238.71446	10537.7
3240.99896	10527.5
3243.28209	10530.7
3245.56384	10530
3247.84423	10536.1
3250.12324	10525
3252.40088	10535.1
3254.67715	10514.2
3256.95205	10544.3
3259.22558	10541.7
3261.49775	10533.1
3263.76855	10554.9
3266.03799	10513.9
3268.30606	10514
3270.57277	10517.1
3272.83812	10462.3
3275.10211	10429.9
3277.36474	10452.6
3279.62601	10461.6
3281.88593	10427.6
3284.14448	10460.7
3286.40168	10463.9
3288.65753	10459.7
3290.91202	10463.8
3293.16516	10431.7
3295.41695	10412.7
3297.66738	10351.1
3299.91647	10305.2
3302.16421	10255.8
3304.4106	10214.4
3306.65564	10177.9
3308.89933	10128.5
3311.14169	10091.1
3313.38269	10013.7
3315.62236	9922.9
3317.86068	9881.6
3320.09766	9827.5
3322.3333	9765.8
3324.5676	9755.7
3326.80056	9589.5
3329.03219	9522.6
3331.26248	3.2
3333.49143	0.1
3335.71905	-1
