Data from AgNPs_FTO_APTES_UA_1uM_CRN_10uM_R6G_20uM_NaF_0.1M_Addition_RamanShift__20__15-21-09-695.txt Node

Date: Thu Jan 27 15:21:09 GMT 2022
User: TCL
Spectrometer: QEP01345
Trigger mode: 4
Integration Time (sec): 7.000000E0
Scans to average: 10
Electric dark correction enabled: true
Nonlinearity correction enabled: false
Boxcar width: 0
XAxis mode: Raman Shifts
Number of Pixels in Spectrum: 1044
>>>>>Begin Spectral Data<<<<<
46.04893	1.5625
50.45542	0.2625
54.85868	-0.1375
59.25871	-2.1375
63.6555	51.3625
68.04907	52.3625
72.43941	54.4625
76.82654	57.5625
81.21044	60.3625
85.59113	61.0625
89.96862	64.0625
94.34289	66.1625
98.71396	70.0625
103.08183	71.9625
107.4465	73.1625
111.80798	75.4625
116.16626	72.0625
120.52136	78.1625
124.87327	80.6625
129.222	79.5625
133.56755	85.8625
137.90993	84.4625
142.24913	95.1625
146.58517	107.0625
150.91804	123.4625
155.24774	139.6625
159.57429	170.5625
163.89768	216.5625
168.21792	279.9625
172.53501	380.5625
176.84895	514.8625
181.15975	724.2625
185.46741	1008.4625
189.77193	1386.2625
194.07331	1861.3625
198.37157	2401.2625
202.6667	2964.5625
206.9587	3520.3625
211.24758	4064.4625
215.53334	4614.0625
219.81599	5191.7625
224.09553	5834.4625
228.37195	6555.4625
232.64527	7337.0625
236.91549	8174.1625
241.18261	8992.6625
245.44663	9798.8625
249.70755	10474.0625
253.96539	11126.1625
258.22014	11639.4625
262.4718	12113.0625
266.72039	12415.0625
270.96589	12599.0625
275.20832	12675.2625
279.44768	12647.9625
283.68397	12560.5625
287.91719	12503.5625
292.14735	12484.7625
296.37445	12496.0625
300.59849	12522.6625
304.81948	12595.2625
309.03742	12552.4625
313.25231	12383.2625
317.46415	12063.9625
321.67296	11678.4625
325.87872	11396.5625
330.08145	11198.1625
334.28114	11211.8625
338.47781	11302.5625
342.67145	11479.5625
346.86207	11681.9625
351.04966	11934.1625
355.23424	12235.8625
359.4158	12458.8625
363.59435	12638.5625
367.76989	12759.6625
371.94243	12842.2625
376.11196	12936.1625
380.27849	12983.8625
384.44203	13067.7625
388.60257	13138.9625
392.76012	13211.3625
396.91468	13396.0625
401.06626	13591.0625
405.21485	13759.7625
409.36047	13734.2625
413.50311	13497.2625
417.64277	13353.9625
421.77947	13321.5625
425.9132	13355.9625
430.04396	13443.3625
434.17176	13520.9625
438.2966	13669.4625
442.41849	13872.2625
446.53742	14184.6625
450.6534	14565.8625
454.76644	14908.5625
458.87653	15029.7625
462.98368	15003.7625
467.08789	14869.2625
471.18916	14654.6625
475.2875	14479.2625
479.38291	14380.8625
483.4754	14269.7625
487.56496	14111.4625
491.6516	13910.9625
495.73531	13743.6625
499.81612	13647.8625
503.89401	13679.5625
507.96899	13737.4625
512.04106	13724.9625
516.11023	13682.4625
520.1765	13606.4625
524.23987	13509.4625
528.30034	13391.5625
532.35792	13231.9625
536.41261	13109.2625
540.46441	12979.6625
544.51333	12982.8625
548.55936	13141.2625
552.60252	13396.6625
556.64279	13656.1625
560.6802	13839.2625
564.71473	13927.8625
568.7464	14080.3625
572.7752	14331.7625
576.80114	14497.4625
580.82422	14670.6625
584.84444	14778.4625
588.86181	14936.4625
592.87633	15098.4625
596.888	15281.7625
600.89682	15405.4625
604.9028	15872.2625
608.90594	17198.9625
612.90624	18721.4625
616.90371	17809.4625
620.89834	15111.1625
624.89015	13933.5625
628.87913	13832.5625
632.86528	13851.1625
636.84862	13750.5625
640.82913	13504.8625
644.80683	13173.7625
648.78172	12920.7625
652.75379	12839.2625
656.72306	12957.9625
660.68952	13183.4625
664.65319	13185.9625
668.61405	13000.3625
672.57211	12872.0625
676.52738	12859.9625
680.47986	12898.2625
684.42955	12863.7625
688.37646	12844.9625
692.32058	12862.9625
696.26192	12956.7625
700.20048	13104.1625
704.13626	13158.9625
708.06928	13128.8625
711.99952	13057.0625
715.927	13021.5625
719.85171	13011.6625
723.77365	12977.3625
727.69284	12863.3625
731.60928	12783.2625
735.52295	12745.1625
739.43388	12794.9625
743.34206	12823.4625
747.24749	12873.6625
751.15017	12983.1625
755.05012	13174.5625
758.94733	13545.7625
762.8418	14210.7625
766.73354	15167.7625
770.62254	16193.3625
774.50882	16453.7625
778.39237	15832.6625
782.27321	14653.5625
786.15132	13736.6625
790.02671	13168.0625
793.89938	12946.0625
797.76935	12837.7625
801.6366	12842.8625
805.50115	12785.3625
809.36299	12743.8625
813.22213	12675.7625
817.07857	12628.2625
820.93231	12620.6625
824.78336	12576.4625
828.63172	12582.2625
832.47738	12616.5625
836.32036	12652.2625
840.16066	12687.7625
843.99827	12703.7625
847.8332	12711.3625
851.66546	12615.8625
855.49504	12571.3625
859.32195	12584.5625
863.1462	12495.8625
866.96777	12498.7625
870.78668	12431.5625
874.60293	12441.7625
878.41652	12441.8625
882.22745	12491.5625
886.03573	12509.5625
889.84136	12495.7625
893.64433	12481.6625
897.44466	12412.9625
901.24235	12372.6625
905.0374	12334.7625
908.8298	12299.1625
912.61957	12337.2625
916.40671	12438.7625
920.19121	12605.8625
923.97308	12750.3625
927.75233	12789.8625
931.52895	12758.8625
935.30295	12698.2625
939.07433	12480.3625
942.84309	12294.6625
946.60924	12189.7625
950.37278	12140.0625
954.13371	12092.2625
957.89203	12014.1625
961.64774	11985.6625
965.40086	11957.5625
969.15137	11891.7625
972.89929	11853.6625
976.64461	11819.1625
980.38733	11799.6625
984.12747	11869.0625
987.86502	12004.4625
991.59999	12172.5625
995.33237	12421.9625
999.06217	12822.5625
1002.78939	13305.8625
1006.51404	13535.7625
1010.23611	13659.4625
1013.95561	13745.4625
1017.67255	13764.9625
1021.38692	13653.1625
1025.09872	13554.4625
1028.80796	13729.2625
1032.51465	14213.7625
1036.21877	14665.2625
1039.92035	14700.8625
1043.61937	14454.0625
1047.31584	13977.5625
1051.00976	13539.7625
1054.70114	13304.0625
1058.38998	13278.3625
1062.07627	13310.1625
1065.76003	13340.6625
1069.44126	13380.3625
1073.11995	13469.2625
1076.79611	13590.3625
1080.46974	13642.2625
1084.14085	13714.6625
1087.80943	13840.0625
1091.47549	13903.9625
1095.13903	13837.8625
1098.80005	13681.1625
1102.45857	13448.9625
1106.11456	13279.2625
1109.76805	13261.8625
1113.41903	13330.8625
1117.06751	13466.9625
1120.71348	13607.8625
1124.35696	13745.3625
1127.99793	13872.1625
1131.63641	13959.9625
1135.2724	13843.4625
1138.90589	13699.0625
1142.5369	13616.5625
1146.16542	13593.3625
1149.79145	13571.7625
1153.415	13643.0625
1157.03607	13825.9625
1160.65467	14092.5625
1164.27079	14527.3625
1167.88443	15171.1625
1171.49561	16083.1625
1175.10432	17254.9625
1178.71056	18750.3625
1182.31434	20103.9625
1185.91565	20908.0625
1189.51451	21042.4625
1193.11091	20467.7625
1196.70485	19561.9625
1200.29634	18694.6625
1203.88538	17976.7625
1207.47197	17398.6625
1211.05612	16993.9625
1214.63782	16687.1625
1218.21708	16539.4625
1221.79391	16500.5625
1225.36829	16516.3625
1228.94024	16410.2625
1232.50976	16183.8625
1236.07685	15993.2625
1239.6415	15844.9625
1243.20374	15837.1625
1246.76355	15883.3625
1250.32093	16076.0625
1253.8759	16426.2625
1257.42845	16860.3625
1260.97859	17277.6625
1264.52631	17617.8625
1268.07163	18045.0625
1271.61453	18483.6625
1275.15503	19080.0625
1278.69312	19665.4625
1282.22882	20165.7625
1285.76211	20575.0625
1289.29301	20976.1625
1292.82151	21498.6625
1296.34761	22286.2625
1299.87133	23354.4625
1303.39266	24664.5625
1306.9116	26305.1625
1310.42815	27874.7625
1313.94233	29037.2625
1317.45412	29054.2625
1320.96354	28406.6625
1324.47058	27631.8625
1327.97525	26894.8625
1331.47754	26395.4625
1334.97747	26257.0625
1338.47502	26378.6625
1341.97022	26569.3625
1345.46305	26522.6625
1348.95352	26169.3625
1352.44163	25773.9625
1355.92738	25881.4625
1359.41078	26773.5625
1362.89183	27818.4625
1366.37053	27407.3625
1369.84688	25254.3625
1373.32088	22790.6625
1376.79254	21003.1625
1380.26186	20216.4625
1383.72883	20010.0625
1387.19347	19928.1625
1390.65578	19830.3625
1394.11575	19836.2625
1397.57339	20080.6625
1401.0287	20541.9625
1404.48168	20956.5625
1407.93234	21263.3625
1411.38068	21218.3625
1414.82669	20869.9625
1418.27039	20183.8625
1421.71177	19332.1625
1425.15083	18678.2625
1428.58758	18313.6625
1432.02203	18223.7625
1435.45416	18378.5625
1438.88399	18727.4625
1442.31151	19068.4625
1445.73673	19321.9625
1449.15965	19624.8625
1452.58027	19842.5625
1455.9986	19911.7625
1459.41463	20017.3625
1462.82837	20219.6625
1466.23982	20547.8625
1469.64898	20903.3625
1473.05586	21087.6625
1476.46045	21157.3625
1479.86276	21064.4625
1483.26279	20946.7625
1486.66054	20864.6625
1490.05602	20920.9625
1493.44922	21081.3625
1496.84016	21199.9625
1500.22882	21443.5625
1503.61521	21923.8625
1506.99934	22633.6625
1510.38121	23356.5625
1513.76081	23700.5625
1517.13816	23372.0625
1520.51324	22516.6625
1523.88607	21621.5625
1527.25665	20950.2625
1530.62498	20592.6625
1533.99105	20381.5625
1537.35488	20275.9625
1540.71647	20155.8625
1544.07581	19958.5625
1547.4329	19728.5625
1550.78776	19434.1625
1554.14038	19251.8625
1557.49077	19200.3625
1560.83892	19143.9625
1564.18484	19198.7625
1567.52853	19141.8625
1570.86999	19165.0625
1574.20922	19262.0625
1577.54624	19404.9625
1580.88103	19421.8625
1584.2136	19479.6625
1587.54395	19929.5625
1590.87208	20755.5625
1594.19801	21956.8625
1597.52172	23240.3625
1600.84321	23795.9625
1604.16251	23008.6625
1607.47959	21458.8625
1610.79447	19720.1625
1614.10715	18153.5625
1617.41763	16866.0625
1620.7259	15953.9625
1624.03199	15475.8625
1627.33587	15451.2625
1630.63757	15797.0625
1633.93707	16642.9625
1637.23439	17886.2625
1640.52951	19468.8625
1643.82246	21135.8625
1647.11321	22342.4625
1650.40179	22558.4625
1653.68819	21375.7625
1656.97241	19077.6625
1660.25446	16754.1625
1663.53433	14986.3625
1666.81203	13796.7625
1670.08756	13096.2625
1673.36092	12639.1625
1676.63211	12337.2625
1679.90115	12137.9625
1683.16801	11973.2625
1686.43272	11841.6625
1689.69527	11720.2625
1692.95567	11637.7625
1696.2139	11555.2625
1699.46999	11491.5625
1702.72392	11448.7625
1705.97571	11470.3625
1709.22535	11487.5625
1712.47284	11477.3625
1715.71819	11486.5625
1718.96139	11486.6625
1722.20246	11445.8625
1725.44139	11404.7625
1728.67818	11367.7625
1731.91284	11317.8625
1735.14537	11270.6625
1738.37576	11220.7625
1741.60403	11170.8625
1744.83017	11131.0625
1748.05418	11124.8625
1751.27607	11087.4625
1754.49584	11087.1625
1757.71349	11044.8625
1760.92903	11010.0625
1764.14244	10991.4625
1767.35375	10999.8625
1770.56294	11001.8625
1773.77002	10980.0625
1776.97499	10976.9625
1780.17785	10974.5625
1783.37861	10970.3625
1786.57727	10968.6625
1789.77382	10993.3625
1792.96828	10966.9625
1796.16064	10955.4625
1799.3509	10934.2625
1802.53907	10949.4625
1805.72514	10894.3625
1808.90913	10881.3625
1812.09102	10879.8625
1815.27083	10848.5625
1818.44856	10825.0625
1821.6242	10813.4625
1824.79776	10790.2625
1827.96924	10786.8625
1831.13864	10785.5625
1834.30597	10782.1625
1837.47122	10802.3625
1840.6344	10793.8625
1843.7955	10788.8625
1846.95454	10799.3625
1850.11151	10819.4625
1853.26642	10795.6625
1856.41926	10810.7625
1859.57004	10841.9625
1862.71876	10831.3625
1865.86542	10827.6625
1869.01003	10806.6625
1872.15258	10830.8625
1875.29308	10802.3625
1878.43152	10807.9625
1881.56792	10817.9625
1884.70227	10783.6625
1887.83457	10800.8625
1890.96482	10808.1625
1894.09304	10782.9625
1897.21921	10796.4625
1900.34335	10802.8625
1903.46544	10770.1625
1906.58551	10784.4625
1909.70353	10785.0625
1912.81953	10804.3625
1915.93349	10765.1625
1919.04543	10734.4625
1922.15534	10728.5625
1925.26322	10714.3625
1928.36908	10685.9625
1931.47292	10654.0625
1934.57473	10616.0625
1937.67453	10602.1625
1940.77232	10549.9625
1943.86808	10533.3625
1946.96184	10472.4625
1950.05358	10436.8625
1953.14331	10401.8625
1956.23103	10398.5625
1959.31675	10354.0625
1962.40046	10331.5625
1965.48217	10306.5625
1968.56188	10262.3625
1971.63959	10251.3625
1974.7153	10211.2625
1977.78901	10168.4625
1980.86073	10139.5625
1983.93046	10148.9625
1986.99819	10099.1625
1990.06394	10040.3625
1993.1277	10026.0625
1996.18947	10007.4625
1999.24925	9974.5625
2002.30706	9952.9625
2005.36288	9908.9625
2008.41672	9894.6625
2011.46859	9875.2625
2014.51848	9839.9625
2017.56639	9804.7625
2020.61233	9801.1625
2023.6563	9778.8625
2026.6983	9768.8625
2029.73833	9769.2625
2032.7764	9732.9625
2035.8125	9731.3625
2038.84664	9706.5625
2041.87881	9682.5625
2044.90903	9675.2625
2047.93729	9667.0625
2050.96359	9662.6625
2053.98794	9634.5625
2057.01034	9646.7625
2060.03078	9635.1625
2063.04927	9638.3625
2066.06582	9643.8625
2069.08042	9613.8625
2072.09307	9616.2625
2075.10378	9615.5625
2078.11255	9573.9625
2081.11938	9592.3625
2084.12426	9591.3625
2087.12722	9580.7625
2090.12824	9570.1625
2093.12732	9578.3625
2096.12447	9569.4625
2099.11969	9570.5625
2102.11299	9576.1625
2105.10435	9586.8625
2108.09379	9600.4625
2111.08131	9585.5625
2114.0669	9612.5625
2117.05057	9599.2625
2120.03233	9611.2625
2123.01216	9613.0625
2125.99008	9615.3625
2128.96609	9626.5625
2131.94018	9633.0625
2134.91236	9646.0625
2137.88263	9643.8625
2140.851	9663.4625
2143.81746	9652.9625
2146.78201	9658.5625
2149.74466	9690.8625
2152.7054	9720.0625
2155.66425	9691.2625
2158.6212	9673.5625
2161.57625	9671.7625
2164.52941	9659.8625
2167.48067	9674.8625
2170.43004	9663.2625
2173.37752	9644.0625
2176.32311	9665.4625
2179.26681	9685.2625
2182.20863	9677.0625
2185.14856	9688.8625
2188.08661	9717.4625
2191.02278	9679.9625
2193.95707	9680.7625
2196.88948	9673.1625
2199.82001	9685.6625
2202.74867	9682.5625
2205.67545	9680.5625
2208.60037	9674.9625
2211.52341	9664.8625
2214.44458	9649.2625
2217.36388	9636.9625
2220.28132	9646.1625
2223.1969	9648.3625
2226.11061	9624.4625
2229.02246	9580.0625
2231.93245	9584.6625
2234.84058	9547.4625
2237.74686	9552.7625
2240.65128	9537.5625
2243.55385	9531.6625
2246.45456	9483.1625
2249.35343	9509.3625
2252.25044	9484.2625
2255.14561	9463.2625
2258.03893	9456.9625
2260.93041	9447.4625
2263.82004	9411.5625
2266.70783	9406.3625
2269.59378	9377.9625
2272.4779	9360.6625
2275.36017	9341.2625
2278.24061	9321.6625
2281.11922	9322.0625
2283.996	9296.9625
2286.87094	9298.0625
2289.74405	9282.9625
2292.61534	9282.9625
2295.4848	9261.0625
2298.35243	9282.6625
2301.21824	9270.7625
2304.08223	9276.0625
2306.94439	9298.9625
2309.80474	9327.4625
2312.66327	9298.5625
2315.51999	9290.3625
2318.37489	9321.1625
2321.22797	9328.0625
2324.07925	9308.7625
2326.92871	9275.7625
2329.77637	9273.5625
2332.62222	9253.5625
2335.46626	9280.1625
2338.3085	9251.0625
2341.14893	9260.0625
2343.98756	9282.6625
2346.8244	9298.1625
2349.65943	9287.0625
2352.49267	9279.2625
2355.32411	9261.4625
2358.15376	9272.4625
2360.98161	9274.9625
2363.80768	9235.0625
2366.63195	9222.8625
2369.45444	9202.9625
2372.27514	9196.6625
2375.09405	9176.5625
2377.91118	9175.2625
2380.72652	9134.9625
2383.54009	9118.2625
2386.35187	9121.2625
2389.16188	9096.1625
2391.97011	9062.9625
2394.77657	9067.0625
2397.58125	9044.2625
2400.38416	9050.6625
2403.18529	9044.1625
2405.98466	9033.9625
2408.78226	8998.5625
2411.57809	8990.0625
2414.37216	8967.7625
2417.16446	8977.2625
2419.955	8960.0625
2422.74378	8958.5625
2425.5308	8918.7625
2428.31606	8937.4625
2431.09956	8911.3625
2433.88131	8914.0625
2436.6613	8947.1625
2439.43954	8932.4625
2442.21603	8925.2625
2444.99077	8890.6625
2447.76377	8893.2625
2450.53501	8921.8625
2453.30451	8895.7625
2456.07226	8895.9625
2458.83827	8877.8625
2461.60254	8906.7625
2464.36507	8893.9625
2467.12586	8856.8625
2469.88492	8874.1625
2472.64224	8896.6625
2475.39782	8901.9625
2478.15167	8902.8625
2480.90379	8901.3625
2483.65417	8900.4625
2486.40283	8895.4625
2489.14976	8932.0625
2491.89497	8957.0625
2494.63845	8938.7625
2497.3802	8931.4625
2500.12024	8951.5625
2502.85855	8925.2625
2505.59514	8937.9625
2508.33002	8907.4625
2511.06318	8925.6625
2513.79462	8887.8625
2516.52435	8903.7625
2519.25237	8889.1625
2521.97867	8878.8625
2524.70327	8884.9625
2527.42616	8877.7625
2530.14734	8847.7625
2532.86681	8865.2625
2535.58458	8863.8625
2538.30065	8837.1625
2541.01501	8828.2625
2543.72768	8843.7625
2546.43864	8846.9625
2549.14791	8833.6625
2551.85548	8828.4625
2554.56136	8825.0625
2557.26554	8790.8625
2559.96803	8779.9625
2562.66883	8807.4625
2565.36794	8786.1625
2568.06536	8771.6625
2570.7611	8780.9625
2573.45514	8768.4625
2576.14751	8773.3625
2578.83819	8754.7625
2581.52719	8732.5625
2584.21451	8778.8625
2586.90015	8780.2625
2589.58411	8730.4625
2592.2664	8749.7625
2594.94701	8741.3625
2597.62594	8728.3625
2600.30321	8728.4625
2602.9788	8743.8625
2605.65273	8727.9625
2608.32498	8722.5625
2610.99557	8724.1625
2613.66449	8729.8625
2616.33175	8716.5625
2618.99734	8742.9625
2621.66128	8751.6625
2624.32355	8726.8625
2626.98416	8745.2625
2629.64311	8769.9625
2632.30041	8747.4625
2634.95605	8729.2625
2637.61004	8743.5625
2640.26238	8730.7625
2642.91306	8721.6625
2645.56209	8691.1625
2648.20948	8703.0625
2650.85521	8691.7625
2653.4993	8680.7625
2656.14175	8696.4625
2658.78255	8722.5625
2661.42171	8706.5625
2664.05923	8727.7625
2666.6951	8712.8625
2669.32934	8725.2625
2671.96194	8717.0625
2674.59291	8715.2625
2677.22224	8725.7625
2679.84993	8740.4625
2682.476	8724.8625
2685.10043	8705.7625
2687.72324	8683.3625
2690.34441	8707.1625
2692.96396	8702.9625
2695.58188	8696.7625
2698.19818	8705.5625
2700.81285	8714.4625
2703.4259	8668.2625
2706.03733	8666.1625
2708.64714	8667.2625
2711.25533	8691.9625
2713.86191	8676.1625
2716.46687	8715.6625
2719.07021	8695.8625
2721.67194	8717.5625
2724.27206	8718.3625
2726.87057	8751.1625
2729.46747	8743.5625
2732.06276	8738.3625
2734.65644	8736.2625
2737.24852	8745.1625
2739.83899	8712.2625
2742.42786	8728.6625
2745.01513	8710.0625
2747.60079	8712.6625
2750.18486	8723.0625
2752.76733	8705.4625
2755.3482	8738.8625
2757.92747	8726.9625
2760.50515	8700.2625
2763.08123	8709.5625
2765.65573	8703.6625
2768.22863	8709.0625
2770.79994	8695.1625
2773.36967	8696.4625
2775.9378	8703.1625
2778.50435	8699.4625
2781.06932	8687.5625
2783.6327	8684.8625
2786.1945	8678.3625
2788.75471	8682.3625
2791.31335	8649.9625
2793.87041	8657.7625
2796.42589	8630.5625
2798.97979	8626.9625
2801.53212	8617.0625
2804.08288	8624.2625
2806.63206	8577.9625
2809.17967	8578.8625
2811.72571	8535.4625
2814.27018	8544.2625
2816.81308	8549.0625
2819.35442	8535.2625
2821.89419	8540.0625
2824.43239	8550.5625
2826.96904	8537.0625
2829.50412	8544.6625
2832.03763	8496.1625
2834.56959	8513.7625
2837.1	8502.4625
2839.62884	8509.1625
2842.15613	8526.3625
2844.68186	8493.7625
2847.20604	8520.9625
2849.72867	8513.4625
2852.24974	8510.6625
2854.76927	8495.1625
2857.28724	8498.4625
2859.80367	8510.0625
2862.31855	8466.9625
2864.83189	8488.9625
2867.34368	8443.0625
2869.85393	8468.5625
2872.36264	8427.5625
2874.8698	8453.9625
2877.37543	8431.3625
2879.87952	8454.7625
2882.38207	8455.8625
2884.88308	8450.5625
2887.38256	8481.3625
2889.88051	8479.4625
2892.37692	8457.9625
2894.8718	8467.3625
2897.36515	8478.5625
2899.85698	8471.6625
2902.34727	8485.8625
2904.83604	8491.1625
2907.32328	8534.1625
2909.809	8518.1625
2912.29319	8513.2625
2914.77587	8526.6625
2917.25702	8535.1625
2919.73665	8526.1625
2922.21476	8510.0625
2924.69136	8511.0625
2927.16644	8524.3625
2929.64	8497.3625
2932.11205	8505.3625
2934.58258	8476.9625
2937.05161	8475.4625
2939.51912	8485.9625
2941.98513	8467.0625
2944.44962	8428.0625
2946.91261	8418.2625
2949.37409	8448.2625
2951.83407	8412.7625
2954.29254	8422.1625
2956.74951	8408.6625
2959.20498	8409.1625
2961.65895	8393.0625
2964.11142	8407.4625
2966.56239	8387.0625
2969.01186	8374.8625
2971.45984	8359.9625
2973.90632	8354.1625
2976.35131	8353.0625
2978.7948	8329.9625
2981.23681	8297.7625
2983.67732	8302.1625
2986.11635	8287.2625
2988.55388	8252.2625
2990.98993	8252.0625
2993.4245	8236.6625
2995.85758	8231.1625
2998.28917	8199.7625
3000.71928	8191.5625
3003.14791	8178.2625
3005.57506	8184.3625
3008.00073	8126.1625
3010.42493	8142.7625
3012.84764	8165.3625
3015.26888	8140.5625
3017.68865	8131.1625
3020.10694	8116.4625
3022.52376	8093.8625
3024.9391	8108.4625
3027.35298	8091.5625
3029.76539	8075.3625
3032.17632	8070.4625
3034.5858	8061.2625
3036.9938	8066.3625
3039.40034	8079.3625
3041.80542	8071.4625
3044.20903	8060.0625
3046.61118	8039.0625
3049.01187	8012.6625
3051.4111	8018.4625
3053.80888	8029.3625
3056.20519	8003.8625
3058.60005	7993.3625
3060.99345	7937.7625
3063.3854	7924.1625
3065.7759	7930.8625
3068.16494	7917.2625
3070.55254	7890.1625
