Data from AgNPs_FTO_APTES_UA_1uM_CRN_5uM_R6G_10uM_NaF_0.1M_Addition_RamanShift__12__13-50-09-590.txt Node

Date: Thu Jan 27 13:50:09 GMT 2022
User: TCL
Spectrometer: QEP01345
Trigger mode: 4
Integration Time (sec): 7.000000E0
Scans to average: 10
Electric dark correction enabled: true
Nonlinearity correction enabled: false
Boxcar width: 0
XAxis mode: Raman Shifts
Number of Pixels in Spectrum: 1044
>>>>>Begin Spectral Data<<<<<
46.04893	2.125
50.45542	0.725
54.85868	-0.775
59.25871	-1.675
63.6555	56.625
68.04907	58.825
72.43941	61.525
76.82654	65.825
81.21044	64.625
85.59113	68.625
89.96862	68.325
94.34289	73.625
98.71396	78.725
103.08183	77.125
107.4465	83.525
111.80798	81.225
116.16626	84.425
120.52136	89.225
124.87327	91.525
129.222	96.425
133.56755	98.725
137.90993	108.725
142.24913	113.725
146.58517	127.625
150.91804	152.325
155.24774	172.025
159.57429	208.425
163.89768	267.225
168.21792	354.625
172.53501	476.225
176.84895	657.625
181.15975	922.325
185.46741	1295.325
189.77193	1790.025
194.07331	2398.225
198.37157	3114.825
202.6667	3838.925
206.9587	4570.025
211.24758	5308.825
215.53334	6015.625
219.81599	6771.825
224.09553	7554.325
228.37195	8439.525
232.64527	9426.825
236.91549	10487.825
241.18261	11582.825
245.44663	12594.525
249.70755	13573.525
253.96539	14461.125
258.22014	15172.725
262.4718	15768.225
266.72039	16136.725
270.96589	16321.625
275.20832	16346.325
279.44768	16291.425
283.68397	16134.725
287.91719	15962.325
292.14735	15854.625
296.37445	15732.925
300.59849	15701.725
304.81948	15684.425
309.03742	15684.125
313.25231	15621.525
317.46415	15430.925
321.67296	15157.425
325.87872	14984.225
330.08145	14873.525
334.28114	14888.225
338.47781	14977.825
342.67145	15123.525
346.86207	15346.825
351.04966	15572.725
355.23424	15830.025
359.4158	16015.425
363.59435	16177.425
367.76989	16341.625
371.94243	16450.125
376.11196	16532.625
380.27849	16578.225
384.44203	16627.225
388.60257	16736.125
392.76012	16911.425
396.91468	17107.725
401.06626	17349.225
405.21485	17490.225
409.36047	17483.925
413.50311	17329.825
417.64277	17229.825
421.77947	17203.325
425.9132	17301.525
430.04396	17412.625
434.17176	17493.725
438.2966	17583.225
442.41849	17679.125
446.53742	17899.625
450.6534	18172.625
454.76644	18391.425
458.87653	18474.825
462.98368	18489.025
467.08789	18444.825
471.18916	18343.525
475.2875	18200.925
479.38291	18081.825
483.4754	18029.625
487.56496	17918.325
491.6516	17833.425
495.73531	17684.525
499.81612	17639.125
503.89401	17702.425
507.96899	17817.225
512.04106	17831.825
516.11023	17802.825
520.1765	17736.925
524.23987	17563.525
528.30034	17464.825
532.35792	17393.125
536.41261	17287.225
540.46441	17173.125
544.51333	17162.825
548.55936	17294.425
552.60252	17474.225
556.64279	17723.325
560.6802	17871.225
564.71473	17946.725
568.7464	18122.925
572.7752	18410.825
576.80114	18765.725
580.82422	19202.325
584.84444	19589.425
588.86181	20046.025
592.87633	20399.425
596.888	20385.025
600.89682	19946.725
604.9028	19866.225
608.90594	20608.825
612.90624	21541.225
616.90371	20739.425
620.89834	18665.125
624.89015	17721.625
628.87913	17619.225
632.86528	17745.225
636.84862	17847.525
640.82913	17719.125
644.80683	17416.525
648.78172	17211.925
652.75379	17188.225
656.72306	17324.425
660.68952	17500.125
664.65319	17473.725
668.61405	17321.425
672.57211	17295.525
676.52738	17317.425
680.47986	17310.225
684.42955	17275.525
688.37646	17210.025
692.32058	17245.125
696.26192	17376.725
700.20048	17514.025
704.13626	17611.725
708.06928	17663.925
711.99952	17644.325
715.927	17586.925
719.85171	17557.825
723.77365	17472.825
727.69284	17374.925
731.60928	17227.925
735.52295	17142.025
739.43388	17136.125
743.34206	17157.525
747.24749	17234.625
751.15017	17289.225
755.05012	17502.125
758.94733	17774.425
762.8418	18312.625
766.73354	19077.925
770.62254	19842.625
774.50882	20018.625
778.39237	19526.825
782.27321	18741.725
786.15132	18044.225
790.02671	17595.025
793.89938	17338.425
797.76935	17175.525
801.6366	17135.025
805.50115	17053.525
809.36299	17036.725
813.22213	16968.425
817.07857	16910.425
820.93231	16901.925
824.78336	16902.225
828.63172	16866.125
832.47738	16878.525
836.32036	16811.025
840.16066	16798.125
843.99827	16789.125
847.8332	16771.025
851.66546	16799.425
855.49504	16795.825
859.32195	16810.925
863.1462	16799.525
866.96777	16823.225
870.78668	16813.625
874.60293	16802.525
878.41652	16818.025
882.22745	16870.025
886.03573	16879.225
889.84136	16927.525
893.64433	16894.125
897.44466	16875.925
901.24235	16821.225
905.0374	16777.025
908.8298	16736.125
912.61957	16758.525
916.40671	16851.525
920.19121	16965.225
923.97308	17071.125
927.75233	17073.725
931.52895	16959.925
935.30295	16804.725
939.07433	16627.225
942.84309	16475.825
946.60924	16389.725
950.37278	16356.625
954.13371	16348.625
957.89203	16324.025
961.64774	16288.025
965.40086	16267.425
969.15137	16245.125
972.89929	16172.625
976.64461	16134.225
980.38733	16098.025
984.12747	16110.525
987.86502	16144.025
991.59999	16172.725
995.33237	16225.925
999.06217	16339.125
1002.78939	16510.925
1006.51404	16716.225
1010.23611	16898.525
1013.95561	17017.925
1017.67255	17062.125
1021.38692	16962.925
1025.09872	16815.825
1028.80796	16662.725
1032.51465	16581.525
1036.21877	16559.025
1039.92035	16597.225
1043.61937	16683.625
1047.31584	16744.525
1051.00976	16786.625
1054.70114	16824.925
1058.38998	16906.325
1062.07627	17043.625
1065.76003	17193.625
1069.44126	17350.425
1073.11995	17578.725
1076.79611	17764.625
1080.46974	17830.925
1084.14085	17859.125
1087.80943	17914.825
1091.47549	18025.525
1095.13903	18133.825
1098.80005	18060.825
1102.45857	17773.825
1106.11456	17555.525
1109.76805	17368.725
1113.41903	17268.825
1117.06751	17283.725
1120.71348	17338.125
1124.35696	17470.425
1127.99793	17622.525
1131.63641	17707.925
1135.2724	17652.925
1138.90589	17553.225
1142.5369	17549.625
1146.16542	17595.525
1149.79145	17625.225
1153.415	17690.425
1157.03607	17754.025
1160.65467	17956.325
1164.27079	18350.625
1167.88443	18905.825
1171.49561	19548.125
1175.10432	20276.925
1178.71056	21188.225
1182.31434	22066.125
1185.91565	22574.525
1189.51451	22755.925
1193.11091	22646.125
1196.70485	22255.825
1200.29634	21674.925
1203.88538	21221.525
1207.47197	20868.125
1211.05612	20616.925
1214.63782	20370.625
1218.21708	20042.225
1221.79391	19569.925
1225.36829	19262.325
1228.94024	19108.725
1232.50976	19017.225
1236.07685	18971.725
1239.6415	18911.625
1243.20374	18923.025
1246.76355	19029.725
1250.32093	19147.225
1253.8759	19351.525
1257.42845	19687.725
1260.97859	20029.425
1264.52631	20371.125
1268.07163	20724.325
1271.61453	21076.725
1275.15503	21378.125
1278.69312	21704.525
1282.22882	22046.625
1285.76211	22487.825
1289.29301	23001.925
1292.82151	23559.625
1296.34761	24266.625
1299.87133	25081.125
1303.39266	25905.425
1306.9116	26663.125
1310.42815	27249.825
1313.94233	27583.225
1317.45412	27462.425
1320.96354	27188.825
1324.47058	27092.925
1327.97525	26872.125
1331.47754	26835.925
1334.97747	26848.325
1338.47502	26849.025
1341.97022	27000.125
1345.46305	27197.725
1348.95352	27285.825
1352.44163	27255.025
1355.92738	27290.925
1359.41078	27587.125
1362.89183	27919.525
1366.37053	27569.125
1369.84688	26171.325
1373.32088	24323.225
1376.79254	22877.225
1380.26186	22194.425
1383.72883	21973.825
1387.19347	21901.825
1390.65578	21653.925
1394.11575	21455.625
1397.57339	21416.725
1401.0287	21491.925
1404.48168	21541.925
1407.93234	21535.725
1411.38068	21296.125
1414.82669	20939.625
1418.27039	20391.725
1421.71177	19918.625
1425.15083	19536.925
1428.58758	19386.625
1432.02203	19429.125
1435.45416	19631.625
1438.88399	19950.625
1442.31151	20170.825
1445.73673	20339.225
1449.15965	20469.625
1452.58027	20519.125
1455.9986	20559.625
1459.41463	20661.925
1462.82837	20868.325
1466.23982	21186.725
1469.64898	21430.225
1473.05586	21622.725
1476.46045	21679.225
1479.86276	21649.625
1483.26279	21597.025
1486.66054	21570.625
1490.05602	21670.925
1493.44922	21963.925
1496.84016	22412.925
1500.22882	22909.925
1503.61521	23570.325
1506.99934	24282.825
1510.38121	24761.325
1513.76081	24790.925
1517.13816	24399.025
1520.51324	23896.125
1523.88607	23432.325
1527.25665	23085.025
1530.62498	22899.825
1533.99105	22698.325
1537.35488	22373.225
1540.71647	21968.625
1544.07581	21580.225
1547.4329	21108.825
1550.78776	20756.325
1554.14038	20593.725
1557.49077	20489.525
1560.83892	20451.325
1564.18484	20475.525
1567.52853	20520.125
1570.86999	20679.725
1574.20922	20895.425
1577.54624	21104.625
1580.88103	21092.125
1584.2136	21060.825
1587.54395	21217.225
1590.87208	21681.725
1594.19801	22340.825
1597.52172	23013.325
1600.84321	23247.125
1604.16251	22639.125
1607.47959	21642.525
1610.79447	20553.925
1614.10715	19457.225
1617.41763	18488.625
1620.7259	17794.725
1624.03199	17416.625
1627.33587	17308.125
1630.63757	17516.725
1633.93707	18137.425
1637.23439	19166.225
1640.52951	20735.625
1643.82246	22641.325
1647.11321	24257.825
1650.40179	24777.125
1653.68819	23759.625
1656.97241	21605.825
1660.25446	19422.325
1663.53433	17705.625
1666.81203	16618.825
1670.08756	15878.225
1673.36092	15468.025
1676.63211	15160.025
1679.90115	14950.925
1683.16801	14795.725
1686.43272	14665.225
1689.69527	14555.625
1692.95567	14447.325
1696.2139	14404.325
1699.46999	14314.525
1702.72392	14288.225
1705.97571	14258.725
1709.22535	14270.325
1712.47284	14281.225
1715.71819	14290.725
1718.96139	14277.025
1722.20246	14228.425
1725.44139	14197.125
1728.67818	14132.225
1731.91284	14073.925
1735.14537	13991.325
1738.37576	13935.925
1741.60403	13883.225
1744.83017	13858.525
1748.05418	13817.525
1751.27607	13760.025
1754.49584	13745.625
1757.71349	13734.925
1760.92903	13671.125
1764.14244	13657.325
1767.35375	13664.825
1770.56294	13638.725
1773.77002	13623.825
1776.97499	13635.225
1780.17785	13599.625
1783.37861	13599.125
1786.57727	13603.125
1789.77382	13572.725
1792.96828	13547.625
1796.16064	13515.525
1799.3509	13476.925
1802.53907	13466.825
1805.72514	13433.825
1808.90913	13409.625
1812.09102	13372.325
1815.27083	13362.025
1818.44856	13323.725
1821.6242	13298.625
1824.79776	13294.925
1827.96924	13282.025
1831.13864	13254.125
1834.30597	13273.625
1837.47122	13247.525
1840.6344	13244.525
1843.7955	13238.525
1846.95454	13240.525
1850.11151	13216.625
1853.26642	13205.125
1856.41926	13239.625
1859.57004	13262.225
1862.71876	13200.125
1865.86542	13186.425
1869.01003	13172.325
1872.15258	13134.625
1875.29308	13094.125
1878.43152	13061.325
1881.56792	13054.025
1884.70227	13020.425
1887.83457	13021.425
1890.96482	12989.525
1894.09304	12963.725
1897.21921	12932.225
1900.34335	12929.825
1903.46544	12908.925
1906.58551	12870.425
1909.70353	12867.925
1912.81953	12845.525
1915.93349	12858.725
1919.04543	12763.925
1922.15534	12773.625
1925.26322	12727.425
1928.36908	12723.425
1931.47292	12686.625
1934.57473	12639.025
1937.67453	12639.125
1940.77232	12572.825
1943.86808	12551.625
1946.96184	12529.125
1950.05358	12473.325
1953.14331	12442.825
1956.23103	12371.425
1959.31675	12398.125
1962.40046	12373.725
1965.48217	12324.525
1968.56188	12278.925
1971.63959	12232.125
1974.7153	12181.525
1977.78901	12128.125
1980.86073	12107.825
1983.93046	12075.325
1986.99819	12010.625
1990.06394	11998.225
1993.1277	11961.525
1996.18947	11905.525
1999.24925	11881.725
2002.30706	11834.325
2005.36288	11826.825
2008.41672	11775.225
2011.46859	11727.825
2014.51848	11665.325
2017.56639	11671.325
2020.61233	11658.425
2023.6563	11620.125
2026.6983	11581.425
2029.73833	11542.625
2032.7764	11499.925
2035.8125	11485.225
2038.84664	11459.225
2041.87881	11417.825
2044.90903	11408.125
2047.93729	11384.525
2050.96359	11371.525
2053.98794	11358.025
2057.01034	11332.425
2060.03078	11332.825
2063.04927	11339.925
2066.06582	11313.225
2069.08042	11297.825
2072.09307	11290.125
2075.10378	11269.025
2078.11255	11271.625
2081.11938	11261.725
2084.12426	11253.925
2087.12722	11253.525
2090.12824	11262.725
2093.12732	11249.825
2096.12447	11258.125
2099.11969	11254.925
2102.11299	11270.025
2105.10435	11264.825
2108.09379	11264.025
2111.08131	11302.125
2114.0669	11263.325
2117.05057	11272.225
2120.03233	11239.825
2123.01216	11285.225
2125.99008	11299.225
2128.96609	11285.525
2131.94018	11277.725
2134.91236	11276.725
2137.88263	11277.825
2140.851	11293.025
2143.81746	11307.625
2146.78201	11288.025
2149.74466	11309.925
2152.7054	11332.525
2155.66425	11298.025
2158.6212	11276.725
2161.57625	11258.725
2164.52941	11265.325
2167.48067	11253.625
2170.43004	11265.925
2173.37752	11251.825
2176.32311	11246.425
2179.26681	11257.725
2182.20863	11227.725
2185.14856	11238.825
2188.08661	11227.025
2191.02278	11246.925
2193.95707	11206.425
2196.88948	11185.725
2199.82001	11189.625
2202.74867	11188.625
2205.67545	11152.425
2208.60037	11149.225
2211.52341	11124.325
2214.44458	11098.225
2217.36388	11063.525
2220.28132	11068.125
2223.1969	11026.225
2226.11061	11004.925
2229.02246	10960.625
2231.93245	10996.125
2234.84058	10925.025
2237.74686	10931.325
2240.65128	10942.725
2243.55385	10916.725
2246.45456	10866.425
2249.35343	10860.825
2252.25044	10833.625
2255.14561	10844.825
2258.03893	10810.425
2260.93041	10777.825
2263.82004	10742.525
2266.70783	10730.125
2269.59378	10692.125
2272.4779	10668.025
2275.36017	10666.025
2278.24061	10641.425
2281.11922	10627.925
2283.996	10603.325
2286.87094	10581.725
2289.74405	10550.125
2292.61534	10534.825
2295.4848	10501.725
2298.35243	10500.225
2301.21824	10526.425
2304.08223	10495.325
2306.94439	10470.225
2309.80474	10447.525
2312.66327	10447.625
2315.51999	10435.425
2318.37489	10447.225
2321.22797	10412.425
2324.07925	10402.125
2326.92871	10368.725
2329.77637	10370.125
2332.62222	10329.125
2335.46626	10314.725
2338.3085	10297.825
2341.14893	10283.325
2343.98756	10282.325
2346.8244	10228.025
2349.65943	10257.425
2352.49267	10239.225
2355.32411	10229.725
2358.15376	10202.025
2360.98161	10185.825
2363.80768	10224.025
2366.63195	10225.825
2369.45444	10213.525
2372.27514	10171.625
2375.09405	10175.525
2377.91118	10160.325
2380.72652	10139.925
2383.54009	10120.125
2386.35187	10097.825
2389.16188	10080.225
2391.97011	10025.825
2394.77657	10011.425
2397.58125	9993.125
2400.38416	9991.125
2403.18529	9970.525
2405.98466	9946.825
2408.78226	9937.725
2411.57809	9924.025
2414.37216	9886.925
2417.16446	9897.025
2419.955	9879.625
2422.74378	9901.025
2425.5308	9863.425
2428.31606	9857.125
2431.09956	9883.925
2433.88131	9813.625
2436.6613	9830.425
2439.43954	9820.125
2442.21603	9824.625
2444.99077	9799.625
2447.76377	9792.425
2450.53501	9793.925
2453.30451	9766.425
2456.07226	9731.825
2458.83827	9741.225
2461.60254	9736.825
2464.36507	9727.125
2467.12586	9715.325
2469.88492	9694.425
2472.64224	9706.725
2475.39782	9666.725
2478.15167	9682.425
2480.90379	9675.425
2483.65417	9681.525
2486.40283	9652.225
2489.14976	9687.025
2491.89497	9645.825
2494.63845	9641.525
2497.3802	9621.725
2500.12024	9608.625
2502.85855	9594.425
2505.59514	9594.525
2508.33002	9577.025
2511.06318	9570.825
2513.79462	9577.525
2516.52435	9529.425
2519.25237	9530.025
2521.97867	9515.925
2524.70327	9539.225
2527.42616	9504.625
2530.14734	9509.125
2532.86681	9476.025
2535.58458	9447.325
2538.30065	9430.725
2541.01501	9419.025
2543.72768	9403.425
2546.43864	9388.425
2549.14791	9372.725
2551.85548	9365.325
2554.56136	9328.625
2557.26554	9321.025
2559.96803	9323.125
2562.66883	9323.625
2565.36794	9297.025
2568.06536	9284.825
2570.7611	9262.625
2573.45514	9239.825
2576.14751	9217.725
2578.83819	9220.125
2581.52719	9197.425
2584.21451	9168.925
2586.90015	9173.525
2589.58411	9149.825
2592.2664	9132.425
2594.94701	9104.325
2597.62594	9128.325
2600.30321	9083.525
2602.9788	9090.725
2605.65273	9044.525
2608.32498	9050.225
2610.99557	9047.425
2613.66449	9034.725
2616.33175	9027.525
2618.99734	9021.925
2621.66128	9011.625
2624.32355	8986.225
2626.98416	8983.825
2629.64311	8948.225
2632.30041	8946.325
2634.95605	8921.125
2637.61004	8925.825
2640.26238	8918.725
2642.91306	8889.925
2645.56209	8901.825
2648.20948	8899.125
2650.85521	8886.325
2653.4993	8890.925
2656.14175	8880.625
2658.78255	8906.925
2661.42171	8886.925
2664.05923	8875.325
2666.6951	8879.225
2669.32934	8891.325
2671.96194	8878.725
2674.59291	8899.925
2677.22224	8877.125
2679.84993	8877.625
2682.476	8853.525
2685.10043	8864.225
2687.72324	8846.025
2690.34441	8866.425
2692.96396	8854.225
2695.58188	8843.325
2698.19818	8824.825
2700.81285	8829.325
2703.4259	8830.725
2706.03733	8814.325
2708.64714	8808.825
2711.25533	8809.225
2713.86191	8822.225
2716.46687	8847.825
2719.07021	8835.425
2721.67194	8824.125
2724.27206	8821.925
2726.87057	8839.925
2729.46747	8821.425
2732.06276	8832.425
2734.65644	8811.625
2737.24852	8823.125
2739.83899	8810.925
2742.42786	8812.125
2745.01513	8778.025
2747.60079	8773.925
2750.18486	8762.125
2752.76733	8768.825
2755.3482	8727.725
2757.92747	8705.725
2760.50515	8696.725
2763.08123	8708.225
2765.65573	8690.725
2768.22863	8674.125
2770.79994	8689.325
2773.36967	8679.225
2775.9378	8653.925
2778.50435	8649.525
2781.06932	8617.225
2783.6327	8599.925
2786.1945	8596.825
2788.75471	8574.825
2791.31335	8546.125
2793.87041	8540.125
2796.42589	8524.725
2798.97979	8524.325
2801.53212	8489.925
2804.08288	8490.325
2806.63206	8463.525
2809.17967	8428.025
2811.72571	8429.725
2814.27018	8394.425
2816.81308	8398.125
2819.35442	8391.925
2821.89419	8360.425
2824.43239	8339.525
2826.96904	8345.125
2829.50412	8354.625
2832.03763	8321.925
2834.56959	8324.125
2837.1	8313.425
2839.62884	8291.725
2842.15613	8300.125
2844.68186	8314.325
2847.20604	8311.125
2849.72867	8316.125
2852.24974	8295.725
2854.76927	8302.525
2857.28724	8278.025
2859.80367	8287.925
2862.31855	8262.725
2864.83189	8238.125
2867.34368	8215.225
2869.85393	8199.725
2872.36264	8200.625
2874.8698	8191.525
2877.37543	8197.125
2879.87952	8192.525
2882.38207	8152.625
2884.88308	8164.625
2887.38256	8174.025
2889.88051	8146.325
2892.37692	8151.225
2894.8718	8128.225
2897.36515	8146.325
2899.85698	8146.125
2902.34727	8154.725
2904.83604	8152.225
2907.32328	8165.425
2909.809	8175.025
2912.29319	8160.025
2914.77587	8162.025
2917.25702	8131.925
2919.73665	8119.925
2922.21476	8148.525
2924.69136	8138.025
2927.16644	8135.825
2929.64	8150.925
2932.11205	8124.325
2934.58258	8084.425
2937.05161	8105.525
2939.51912	8076.725
2941.98513	8054.025
2944.44962	8038.025
2946.91261	8015.925
2949.37409	8024.525
2951.83407	8015.125
2954.29254	8010.425
2956.74951	8004.025
2959.20498	7980.425
2961.65895	7979.925
2964.11142	7994.725
2966.56239	7986.325
2969.01186	7975.525
2971.45984	7934.925
2973.90632	7941.125
2976.35131	7938.825
2978.7948	7922.125
2981.23681	7901.625
2983.67732	7881.725
2986.11635	7852.425
2988.55388	7820.825
2990.98993	7818.825
2993.4245	7779.425
2995.85758	7772.625
2998.28917	7782.125
3000.71928	7762.425
3003.14791	7741.825
3005.57506	7734.025
3008.00073	7701.425
3010.42493	7701.125
3012.84764	7696.525
3015.26888	7698.725
3017.68865	7653.425
3020.10694	7656.425
3022.52376	7628.525
3024.9391	7616.625
3027.35298	7608.925
3029.76539	7604.025
3032.17632	7600.525
3034.5858	7583.925
3036.9938	7594.125
3039.40034	7568.525
3041.80542	7555.825
3044.20903	7561.425
3046.61118	7552.125
3049.01187	7521.625
3051.4111	7500.025
3053.80888	7515.425
3056.20519	7505.125
3058.60005	7480.225
3060.99345	7441.525
3063.3854	7406.825
3065.7759	7379.025
3068.16494	7386.325
3070.55254	7375.025
3072.93868	7375.425
3075.32338	7340.325
3077.70662	7352.025
3080.08842	7322.725
3082.46878	7322.325
3084.84769	7286.125
3087.22515	7298.925
3089.60118	7285.725
3091.97576	7304.925
3094.3489	7275.825
3096.72061	7280.925
3099.09087	7286.425
3101.4597	7284.725
3103.82709	7272.125
3106.19305	7271.025
3108.55757	7281.225
3110.92066	7248.525
3113.28232	7207.925
3115.64255	7206.525
3118.00134	7192.525
3120.35871	7210.925
3122.71466	7199.025
3125.06917	7163.925
3127.42226	7143.025
3129.77393	7136.825
3132.12417	7121.625
3134.47299	7125.725
3136.82039	7126.625
3139.16636	7128.025
3141.51092	7125.025
3143.85406	7132.825
3146.19579	7134.525
3148.53609	7156.825
3150.87499	7143.525
3153.21246	7157.325
3155.54853	7156.225
3157.88318	7140.325
3160.21642	7152.025
3162.54826	7128.625
