Data from AgNPs_FTO_APTES_UA_1uM_CRN_10uM_R6G_10uM_NaF_0.1M_Addition_RamanShift__15__14-33-19-640.txt Node

Date: Thu Jan 27 14:33:19 GMT 2022
User: TCL
Spectrometer: QEP01345
Trigger mode: 4
Integration Time (sec): 7.000000E0
Scans to average: 10
Electric dark correction enabled: true
Nonlinearity correction enabled: false
Boxcar width: 0
XAxis mode: Raman Shifts
Number of Pixels in Spectrum: 1044
>>>>>Begin Spectral Data<<<<<
46.04893	1.7125
50.45542	0.4125
54.85868	-1.5875
59.25871	-1.3875
63.6555	44.8125
68.04907	47.0125
72.43941	49.8125
76.82654	55.2125
81.21044	54.4125
85.59113	55.0125
89.96862	59.8125
94.34289	63.0125
98.71396	68.6125
103.08183	62.8125
107.4465	71.3125
111.80798	71.9125
116.16626	71.6125
120.52136	76.8125
124.87327	74.8125
129.222	73.9125
133.56755	85.0125
137.90993	85.3125
142.24913	95.7125
146.58517	105.4125
150.91804	124.8125
155.24774	140.0125
159.57429	170.8125
163.89768	216.1125
168.21792	281.2125
172.53501	377.1125
176.84895	524.9125
181.15975	729.9125
185.46741	1031.3125
189.77193	1425.0125
194.07331	1908.4125
198.37157	2465.8125
202.6667	3031.5125
206.9587	3613.1125
211.24758	4172.0125
215.53334	4726.3125
219.81599	5333.1125
224.09553	5954.6125
228.37195	6680.2125
232.64527	7458.2125
236.91549	8302.9125
241.18261	9171.3125
245.44663	9954.4125
249.70755	10708.4125
253.96539	11355.6125
258.22014	11896.9125
262.4718	12360.2125
266.72039	12665.8125
270.96589	12848.6125
275.20832	12882.4125
279.44768	12878.8125
283.68397	12727.7125
287.91719	12636.3125
292.14735	12542.4125
296.37445	12538.9125
300.59849	12568.1125
304.81948	12621.4125
309.03742	12618.1125
313.25231	12487.7125
317.46415	12201.7125
321.67296	11917.1125
325.87872	11663.6125
330.08145	11530.5125
334.28114	11522.2125
338.47781	11605.8125
342.67145	11726.9125
346.86207	11893.3125
351.04966	12114.7125
355.23424	12341.4125
359.4158	12538.5125
363.59435	12703.5125
367.76989	12824.3125
371.94243	12900.2125
376.11196	12974.2125
380.27849	13039.0125
384.44203	13078.4125
388.60257	13190.5125
392.76012	13285.5125
396.91468	13444.5125
401.06626	13613.5125
405.21485	13751.4125
409.36047	13709.8125
413.50311	13521.4125
417.64277	13331.2125
421.77947	13321.4125
425.9132	13337.9125
430.04396	13417.8125
434.17176	13458.5125
438.2966	13509.3125
442.41849	13645.6125
446.53742	13874.9125
450.6534	14145.8125
454.76644	14403.5125
458.87653	14501.8125
462.98368	14526.6125
467.08789	14445.3125
471.18916	14353.5125
475.2875	14235.5125
479.38291	14130.6125
483.4754	14071.0125
487.56496	13985.4125
491.6516	13825.1125
495.73531	13680.0125
499.81612	13625.6125
503.89401	13710.6125
507.96899	13750.4125
512.04106	13784.4125
516.11023	13747.5125
520.1765	13660.3125
524.23987	13546.9125
528.30034	13437.1125
532.35792	13337.6125
536.41261	13207.6125
540.46441	13101.9125
544.51333	13096.5125
548.55936	13217.3125
552.60252	13466.1125
556.64279	13718.6125
560.6802	13883.0125
564.71473	13929.7125
568.7464	14079.4125
572.7752	14291.9125
576.80114	14546.5125
580.82422	14781.2125
584.84444	14977.4125
588.86181	15112.8125
592.87633	15133.7125
596.888	15057.3125
600.89682	14960.6125
604.9028	15272.1125
608.90594	16345.4125
612.90624	17607.8125
616.90371	16866.2125
620.89834	14624.1125
624.89015	13570.8125
628.87913	13465.2125
632.86528	13541.2125
636.84862	13535.9125
640.82913	13434.6125
644.80683	13206.9125
648.78172	13005.3125
652.75379	12948.1125
656.72306	13069.2125
660.68952	13265.4125
664.65319	13223.6125
668.61405	13057.8125
672.57211	12963.0125
676.52738	13027.7125
680.47986	13007.8125
684.42955	12970.2125
688.37646	12940.3125
692.32058	12957.5125
696.26192	13066.6125
700.20048	13197.6125
704.13626	13283.8125
708.06928	13261.2125
711.99952	13230.0125
715.927	13182.2125
719.85171	13202.3125
723.77365	13177.7125
727.69284	13076.3125
731.60928	12971.6125
735.52295	12892.3125
739.43388	12882.0125
743.34206	12950.6125
747.24749	12951.4125
751.15017	13073.4125
755.05012	13225.2125
758.94733	13530.6125
762.8418	13998.2125
766.73354	14863.4125
770.62254	15702.5125
774.50882	15924.5125
778.39237	15426.7125
782.27321	14526.0125
786.15132	13779.4125
790.02671	13316.4125
793.89938	13095.0125
797.76935	12958.8125
801.6366	12938.6125
805.50115	12886.7125
809.36299	12842.2125
813.22213	12761.3125
817.07857	12736.7125
820.93231	12698.6125
824.78336	12674.2125
828.63172	12660.1125
832.47738	12624.6125
836.32036	12644.2125
840.16066	12655.5125
843.99827	12651.5125
847.8332	12671.2125
851.66546	12620.3125
855.49504	12627.1125
859.32195	12639.8125
863.1462	12616.2125
866.96777	12590.2125
870.78668	12570.6125
874.60293	12595.9125
878.41652	12607.3125
882.22745	12609.4125
886.03573	12661.7125
889.84136	12679.8125
893.64433	12651.7125
897.44466	12584.2125
901.24235	12557.5125
905.0374	12509.7125
908.8298	12468.7125
912.61957	12490.6125
916.40671	12553.6125
920.19121	12693.0125
923.97308	12776.5125
927.75233	12754.3125
931.52895	12734.1125
935.30295	12622.1125
939.07433	12467.7125
942.84309	12340.7125
946.60924	12239.2125
950.37278	12229.8125
954.13371	12197.7125
957.89203	12156.9125
961.64774	12139.6125
965.40086	12105.2125
969.15137	12111.7125
972.89929	12040.1125
976.64461	12023.5125
980.38733	12013.3125
984.12747	12053.9125
987.86502	12116.6125
991.59999	12199.4125
995.33237	12317.7125
999.06217	12507.3125
1002.78939	12742.7125
1006.51404	12844.5125
1010.23611	12949.8125
1013.95561	13055.5125
1017.67255	13068.4125
1021.38692	12996.2125
1025.09872	12879.7125
1028.80796	12839.3125
1032.51465	12976.0125
1036.21877	13170.2125
1039.92035	13266.3125
1043.61937	13194.3125
1047.31584	13068.5125
1051.00976	12929.1125
1054.70114	12861.0125
1058.38998	12941.1125
1062.07627	12988.2125
1065.76003	13092.2125
1069.44126	13198.8125
1073.11995	13373.5125
1076.79611	13507.8125
1080.46974	13557.6125
1084.14085	13642.9125
1087.80943	13717.1125
1091.47549	13804.6125
1095.13903	13809.5125
1098.80005	13725.4125
1102.45857	13508.6125
1106.11456	13306.9125
1109.76805	13207.0125
1113.41903	13202.9125
1117.06751	13275.3125
1120.71348	13351.1125
1124.35696	13458.3125
1127.99793	13572.2125
1131.63641	13667.1125
1135.2724	13604.5125
1138.90589	13484.7125
1142.5369	13423.6125
1146.16542	13445.5125
1149.79145	13446.7125
1153.415	13509.8125
1157.03607	13600.4125
1160.65467	13811.9125
1164.27079	14255.7125
1167.88443	14809.6125
1171.49561	15489.0125
1175.10432	16307.0125
1178.71056	17364.3125
1182.31434	18391.4125
1185.91565	18985.3125
1189.51451	19094.5125
1193.11091	18781.3125
1196.70485	18219.5125
1200.29634	17561.8125
1203.88538	17063.9125
1207.47197	16682.7125
1211.05612	16333.5125
1214.63782	16058.3125
1218.21708	15789.5125
1221.79391	15495.9125
1225.36829	15342.3125
1228.94024	15166.2125
1232.50976	15023.9125
1236.07685	14897.4125
1239.6415	14829.8125
1243.20374	14851.7125
1246.76355	14945.7125
1250.32093	15088.7125
1253.8759	15296.1125
1257.42845	15629.6125
1260.97859	15978.7125
1264.52631	16287.6125
1268.07163	16648.3125
1271.61453	16984.9125
1275.15503	17380.0125
1278.69312	17726.4125
1282.22882	18046.7125
1285.76211	18352.0125
1289.29301	18745.9125
1292.82151	19260.3125
1296.34761	19967.4125
1299.87133	20862.9125
1303.39266	21856.3125
1306.9116	22899.8125
1310.42815	23814.7125
1313.94233	24298.2125
1317.45412	24204.1125
1320.96354	23896.6125
1324.47058	23546.8125
1327.97525	23246.9125
1331.47754	23068.7125
1334.97747	22966.6125
1338.47502	22988.8125
1341.97022	22978.6125
1345.46305	22971.5125
1348.95352	22926.5125
1352.44163	22826.3125
1355.92738	22955.9125
1359.41078	23501.1125
1362.89183	24130.8125
1366.37053	23789.7125
1369.84688	22202.8125
1373.32088	20227.8125
1376.79254	18827.9125
1380.26186	18205.7125
1383.72883	18080.0125
1387.19347	18041.7125
1390.65578	17842.9125
1394.11575	17742.3125
1397.57339	17731.0125
1401.0287	17878.5125
1404.48168	17993.4125
1407.93234	18020.7125
1411.38068	17799.7125
1414.82669	17405.8125
1418.27039	16900.2125
1421.71177	16352.5125
1425.15083	15994.7125
1428.58758	15745.2125
1432.02203	15753.2125
1435.45416	15982.1125
1438.88399	16332.7125
1442.31151	16591.7125
1445.73673	16803.6125
1449.15965	16951.3125
1452.58027	17072.5125
1455.9986	17152.5125
1459.41463	17217.3125
1462.82837	17400.1125
1466.23982	17639.3125
1469.64898	17872.6125
1473.05586	18010.3125
1476.46045	18041.1125
1479.86276	17953.1125
1483.26279	17869.1125
1486.66054	17789.3125
1490.05602	17856.1125
1493.44922	18057.1125
1496.84016	18384.2125
1500.22882	18888.0125
1503.61521	19598.9125
1506.99934	20395.6125
1510.38121	21062.7125
1513.76081	21252.1125
1517.13816	20803.4125
1520.51324	20026.1125
1523.88607	19234.1125
1527.25665	18803.9125
1530.62498	18569.2125
1533.99105	18441.8125
1537.35488	18255.1125
1540.71647	18012.8125
1544.07581	17734.7125
1547.4329	17405.7125
1550.78776	17088.2125
1554.14038	16925.9125
1557.49077	16865.5125
1560.83892	16889.9125
1564.18484	16930.7125
1567.52853	16943.6125
1570.86999	17103.4125
1574.20922	17331.7125
1577.54624	17480.9125
1580.88103	17470.5125
1584.2136	17410.9125
1587.54395	17635.1125
1590.87208	18062.0125
1594.19801	18777.9125
1597.52172	19505.0125
1600.84321	19786.5125
1604.16251	19211.3125
1607.47959	18152.1125
1610.79447	17053.8125
1614.10715	15985.5125
1617.41763	15013.5125
1620.7259	14333.1125
1624.03199	13926.9125
1627.33587	13858.3125
1630.63757	14048.4125
1633.93707	14634.8125
1637.23439	15578.6125
1640.52951	16933.9125
1643.82246	18551.1125
1647.11321	19867.3125
1650.40179	20328.3125
1653.68819	19490.1125
1656.97241	17610.2125
1660.25446	15634.9125
1663.53433	14096.0125
1666.81203	13023.2125
1670.08756	12383.6125
1673.36092	11980.6125
1676.63211	11696.2125
1679.90115	11486.4125
1683.16801	11339.2125
1686.43272	11231.2125
1689.69527	11160.0125
1692.95567	11060.3125
1696.2139	10972.5125
1699.46999	10941.3125
1702.72392	10903.2125
1705.97571	10884.0125
1709.22535	10907.6125
1712.47284	10890.1125
1715.71819	10900.1125
1718.96139	10888.7125
1722.20246	10859.2125
1725.44139	10841.9125
1728.67818	10788.0125
1731.91284	10712.2125
1735.14537	10681.2125
1738.37576	10613.8125
1741.60403	10602.9125
1744.83017	10552.8125
1748.05418	10511.9125
1751.27607	10525.8125
1754.49584	10480.3125
1757.71349	10473.6125
1760.92903	10419.8125
1764.14244	10414.6125
1767.35375	10409.5125
1770.56294	10397.1125
1773.77002	10378.6125
1776.97499	10348.1125
1780.17785	10368.2125
1783.37861	10377.1125
1786.57727	10365.4125
1789.77382	10356.7125
1792.96828	10317.4125
1796.16064	10315.6125
1799.3509	10295.1125
1802.53907	10307.1125
1805.72514	10257.4125
1808.90913	10219.7125
1812.09102	10211.4125
1815.27083	10199.9125
1818.44856	10179.7125
1821.6242	10162.6125
1824.79776	10176.1125
1827.96924	10144.7125
1831.13864	10132.9125
1834.30597	10129.5125
1837.47122	10125.2125
1840.6344	10112.2125
1843.7955	10121.7125
1846.95454	10116.8125
1850.11151	10137.7125
1853.26642	10108.2125
1856.41926	10125.5125
1859.57004	10116.1125
1862.71876	10104.5125
1865.86542	10086.8125
1869.01003	10071.2125
1872.15258	10047.3125
1875.29308	10052.9125
1878.43152	10039.2125
1881.56792	10016.6125
1884.70227	10005.8125
1887.83457	9976.8125
1890.96482	9966.7125
1894.09304	9949.9125
1897.21921	9948.8125
1900.34335	9930.1125
1903.46544	9953.6125
1906.58551	9921.8125
1909.70353	9909.2125
1912.81953	9859.5125
1915.93349	9862.9125
1919.04543	9829.6125
1922.15534	9838.4125
1925.26322	9798.4125
1928.36908	9788.7125
1931.47292	9774.5125
1934.57473	9731.0125
1937.67453	9703.0125
1940.77232	9667.5125
1943.86808	9661.3125
1946.96184	9637.0125
1950.05358	9598.9125
1953.14331	9580.9125
1956.23103	9563.1125
1959.31675	9508.7125
1962.40046	9498.9125
1965.48217	9484.8125
1968.56188	9464.0125
1971.63959	9432.8125
1974.7153	9387.9125
1977.78901	9361.1125
1980.86073	9321.9125
1983.93046	9330.9125
1986.99819	9270.0125
1990.06394	9242.7125
1993.1277	9234.2125
1996.18947	9185.4125
1999.24925	9191.0125
2002.30706	9137.0125
2005.36288	9113.9125
2008.41672	9103.9125
2011.46859	9066.8125
2014.51848	9036.3125
2017.56639	9012.8125
2020.61233	8981.3125
2023.6563	8980.8125
2026.6983	8957.5125
2029.73833	8947.9125
2032.7764	8904.0125
2035.8125	8901.2125
2038.84664	8874.2125
2041.87881	8854.5125
2044.90903	8849.9125
2047.93729	8805.4125
2050.96359	8808.6125
2053.98794	8788.7125
2057.01034	8794.8125
2060.03078	8785.3125
2063.04927	8774.4125
2066.06582	8801.9125
2069.08042	8764.6125
2072.09307	8759.0125
2075.10378	8785.4125
2078.11255	8749.4125
2081.11938	8753.0125
2084.12426	8744.6125
2087.12722	8747.5125
2090.12824	8758.4125
2093.12732	8740.4125
2096.12447	8736.2125
2099.11969	8746.2125
2102.11299	8742.5125
2105.10435	8747.4125
2108.09379	8762.6125
2111.08131	8774.0125
2114.0669	8773.1125
2117.05057	8768.3125
2120.03233	8777.6125
2123.01216	8774.0125
2125.99008	8795.3125
2128.96609	8795.5125
2131.94018	8793.6125
2134.91236	8797.6125
2137.88263	8796.6125
2140.851	8801.6125
2143.81746	8817.7125
2146.78201	8816.3125
2149.74466	8818.7125
2152.7054	8840.5125
2155.66425	8822.2125
2158.6212	8824.8125
2161.57625	8807.2125
2164.52941	8793.2125
2167.48067	8800.7125
2170.43004	8791.4125
2173.37752	8808.2125
2176.32311	8784.4125
2179.26681	8793.6125
2182.20863	8786.7125
2185.14856	8790.0125
2188.08661	8789.6125
2191.02278	8803.7125
2193.95707	8786.5125
2196.88948	8774.6125
2199.82001	8770.1125
2202.74867	8784.2125
2205.67545	8739.1125
2208.60037	8738.7125
2211.52341	8730.9125
2214.44458	8706.8125
2217.36388	8666.2125
2220.28132	8672.3125
2223.1969	8676.7125
2226.11061	8663.2125
2229.02246	8622.5125
2231.93245	8610.0125
2234.84058	8620.6125
2237.74686	8574.0125
2240.65128	8571.9125
2243.55385	8584.8125
2246.45456	8534.2125
2249.35343	8514.0125
2252.25044	8536.0125
2255.14561	8508.3125
2258.03893	8510.1125
2260.93041	8487.4125
2263.82004	8487.4125
2266.70783	8450.2125
2269.59378	8426.1125
2272.4779	8409.1125
2275.36017	8386.6125
2278.24061	8374.9125
2281.11922	8346.9125
2283.996	8343.5125
2286.87094	8337.7125
2289.74405	8316.7125
2292.61534	8296.2125
2295.4848	8300.9125
2298.35243	8311.0125
2301.21824	8303.5125
2304.08223	8303.5125
2306.94439	8302.7125
2309.80474	8287.7125
2312.66327	8285.2125
2315.51999	8284.9125
2318.37489	8273.4125
2321.22797	8263.7125
2324.07925	8246.0125
2326.92871	8256.8125
2329.77637	8240.4125
2332.62222	8212.2125
2335.46626	8205.0125
2338.3085	8164.3125
2341.14893	8185.0125
2343.98756	8170.0125
2346.8244	8169.7125
2349.65943	8153.2125
2352.49267	8177.8125
2355.32411	8170.3125
2358.15376	8168.9125
2360.98161	8137.3125
2363.80768	8154.4125
2366.63195	8145.9125
2369.45444	8135.7125
2372.27514	8113.4125
2375.09405	8112.5125
2377.91118	8077.7125
2380.72652	8074.7125
2383.54009	8045.2125
2386.35187	8054.5125
2389.16188	8044.9125
2391.97011	8008.9125
2394.77657	8009.4125
2397.58125	7992.2125
2400.38416	7985.3125
2403.18529	7974.0125
2405.98466	7939.5125
2408.78226	7933.0125
2411.57809	7915.0125
2414.37216	7922.5125
2417.16446	7907.6125
2419.955	7885.9125
2422.74378	7910.6125
2425.5308	7888.3125
2428.31606	7899.3125
2431.09956	7881.6125
2433.88131	7855.6125
2436.6613	7871.2125
2439.43954	7864.0125
2442.21603	7876.1125
2444.99077	7839.8125
2447.76377	7848.1125
2450.53501	7839.7125
2453.30451	7845.6125
2456.07226	7827.9125
2458.83827	7802.3125
2461.60254	7819.4125
2464.36507	7815.3125
2467.12586	7806.2125
2469.88492	7776.0125
2472.64224	7806.7125
2475.39782	7807.1125
2478.15167	7796.3125
2480.90379	7798.0125
2483.65417	7806.0125
2486.40283	7795.8125
2489.14976	7781.2125
2491.89497	7791.0125
2494.63845	7773.1125
2497.3802	7776.4125
2500.12024	7765.4125
2502.85855	7770.4125
2505.59514	7761.5125
2508.33002	7745.3125
2511.06318	7743.2125
2513.79462	7749.0125
2516.52435	7733.2125
2519.25237	7715.8125
2521.97867	7701.7125
2524.70327	7723.8125
2527.42616	7690.8125
2530.14734	7691.9125
2532.86681	7690.0125
2535.58458	7681.4125
2538.30065	7645.0125
2541.01501	7650.6125
2543.72768	7638.3125
2546.43864	7646.1125
2549.14791	7615.1125
2551.85548	7603.0125
2554.56136	7595.7125
2557.26554	7594.5125
2559.96803	7598.4125
2562.66883	7581.8125
2565.36794	7590.8125
2568.06536	7547.9125
2570.7611	7553.4125
2573.45514	7532.9125
2576.14751	7518.2125
2578.83819	7498.3125
2581.52719	7487.2125
2584.21451	7499.1125
2586.90015	7496.3125
2589.58411	7470.4125
2592.2664	7469.4125
2594.94701	7471.0125
2597.62594	7462.2125
2600.30321	7440.4125
2602.9788	7430.3125
2605.65273	7422.9125
2608.32498	7425.9125
2610.99557	7421.6125
2613.66449	7427.6125
2616.33175	7395.4125
2618.99734	7414.9125
2621.66128	7408.5125
2624.32355	7367.3125
2626.98416	7392.5125
2629.64311	7370.4125
2632.30041	7379.0125
2634.95605	7359.9125
2637.61004	7340.6125
2640.26238	7346.3125
2642.91306	7332.3125
2645.56209	7347.6125
2648.20948	7320.6125
2650.85521	7333.6125
2653.4993	7333.8125
2656.14175	7339.8125
2658.78255	7353.2125
2661.42171	7317.5125
2664.05923	7339.3125
2666.6951	7340.3125
2669.32934	7345.2125
2671.96194	7326.9125
2674.59291	7341.7125
2677.22224	7348.3125
2679.84993	7340.2125
2682.476	7331.5125
2685.10043	7337.9125
2687.72324	7304.9125
2690.34441	7313.5125
2692.96396	7322.0125
2695.58188	7310.7125
2698.19818	7301.9125
2700.81285	7319.0125
2703.4259	7320.3125
2706.03733	7289.4125
2708.64714	7280.0125
2711.25533	7315.2125
2713.86191	7305.2125
2716.46687	7316.5125
2719.07021	7316.7125
2721.67194	7326.1125
2724.27206	7344.3125
2726.87057	7322.0125
2729.46747	7333.2125
2732.06276	7328.0125
2734.65644	7325.8125
2737.24852	7316.2125
2739.83899	7322.6125
2742.42786	7336.5125
2745.01513	7287.6125
2747.60079	7299.0125
2750.18486	7297.9125
2752.76733	7274.4125
2755.3482	7269.2125
2757.92747	7271.5125
2760.50515	7282.1125
2763.08123	7250.3125
2765.65573	7257.7125
2768.22863	7249.2125
2770.79994	7245.8125
2773.36967	7231.9125
2775.9378	7237.5125
2778.50435	7251.2125
2781.06932	7223.4125
2783.6327	7226.1125
2786.1945	7201.8125
2788.75471	7182.5125
2791.31335	7193.7125
2793.87041	7182.2125
2796.42589	7157.0125
2798.97979	7159.8125
2801.53212	7137.5125
2804.08288	7139.5125
2806.63206	7117.6125
2809.17967	7096.7125
2811.72571	7083.4125
2814.27018	7069.4125
2816.81308	7049.9125
2819.35442	7048.5125
2821.89419	7063.1125
2824.43239	7045.2125
2826.96904	7033.7125
2829.50412	7027.1125
2832.03763	7028.2125
2834.56959	7034.4125
2837.1	6992.9125
2839.62884	7017.2125
2842.15613	7002.6125
2844.68186	7029.3125
2847.20604	7037.0125
2849.72867	7025.5125
2852.24974	7026.3125
2854.76927	6999.1125
2857.28724	7015.1125
2859.80367	7007.1125
2862.31855	6993.6125
2864.83189	6969.0125
2867.34368	6973.9125
2869.85393	6961.1125
2872.36264	6955.0125
2874.8698	6966.8125
2877.37543	6959.0125
2879.87952	6951.5125
2882.38207	6932.4125
2884.88308	6937.8125
2887.38256	6932.7125
2889.88051	6952.4125
2892.37692	6937.9125
2894.8718	6959.1125
2897.36515	6949.1125
2899.85698	6947.3125
2902.34727	6959.9125
2904.83604	6938.0125
2907.32328	6964.6125
2909.809	6953.4125
2912.29319	6958.7125
2914.77587	6958.8125
2917.25702	6968.5125
2919.73665	6952.0125
2922.21476	6948.8125
2924.69136	6944.3125
2927.16644	6964.5125
2929.64	6943.5125
2932.11205	6946.9125
2934.58258	6922.2125
2937.05161	6933.4125
2939.51912	6938.7125
2941.98513	6911.6125
2944.44962	6887.6125
2946.91261	6878.6125
2949.37409	6881.5125
2951.83407	6869.7125
2954.29254	6862.6125
2956.74951	6862.7125
2959.20498	6863.9125
2961.65895	6836.6125
2964.11142	6842.1125
2966.56239	6838.8125
2969.01186	6830.2125
2971.45984	6815.5125
2973.90632	6805.4125
2976.35131	6794.4125
2978.7948	6787.5125
2981.23681	6788.6125
2983.67732	6786.7125
2986.11635	6760.3125
2988.55388	6738.3125
2990.98993	6721.1125
2993.4245	6711.3125
2995.85758	6683.9125
2998.28917	6674.8125
3000.71928	6676.4125
3003.14791	6656.0125
3005.57506	6654.6125
3008.00073	6660.7125
3010.42493	6637.3125
3012.84764	6625.7125
3015.26888	6625.8125
3017.68865	6629.8125
3020.10694	6602.7125
3022.52376	6599.6125
3024.9391	6587.4125
3027.35298	6555.8125
3029.76539	6566.7125
3032.17632	6561.8125
3034.5858	6550.3125
3036.9938	6565.2125
3039.40034	6564.1125
3041.80542	6542.3125
3044.20903	6544.6125
3046.61118	6535.5125
3049.01187	6502.1125
3051.4111	6516.4125
3053.80888	6511.3125
3056.20519	6498.2125
3058.60005	6480.4125
3060.99345	6454.6125
3063.3854	6447.5125
3065.7759	6430.3125
3068.16494	6423.9125
3070.55254	6429.0125
3072.93868	6398.0125
