Data from AgNPs_FTO_APTES_UA_1uM_CRN_0uM_R6G_10uM_NaF_0.1M_Addition_RamanShift__27__11-37-09-438.txt Node

Date: Thu Jan 27 11:37:09 GMT 2022
User: TCL
Spectrometer: QEP01345
Trigger mode: 4
Integration Time (sec): 7.000000E0
Scans to average: 10
Electric dark correction enabled: true
Nonlinearity correction enabled: false
Boxcar width: 0
XAxis mode: Raman Shifts
Number of Pixels in Spectrum: 1044
>>>>>Begin Spectral Data<<<<<
46.04893	-0.075
50.45542	0.725
54.85868	-1.175
59.25871	-1.075
63.6555	49.825
68.04907	56.025
72.43941	57.525
76.82654	61.925
81.21044	60.825
85.59113	58.325
89.96862	62.725
94.34289	67.425
98.71396	68.625
103.08183	67.825
107.4465	73.725
111.80798	74.125
116.16626	74.625
120.52136	83.325
124.87327	84.225
129.222	79.725
133.56755	85.125
137.90993	93.525
142.24913	97.625
146.58517	116.125
150.91804	128.825
155.24774	147.625
159.57429	175.625
163.89768	226.925
168.21792	293.725
172.53501	394.725
176.84895	547.325
181.15975	769.525
185.46741	1067.525
189.77193	1467.225
194.07331	1950.325
198.37157	2530.325
202.6667	3127.425
206.9587	3724.225
211.24758	4293.125
215.53334	4891.525
219.81599	5523.025
224.09553	6214.925
228.37195	6990.425
232.64527	7842.925
236.91549	8713.025
241.18261	9594.225
245.44663	10386.725
249.70755	11097.425
253.96539	11697.625
258.22014	12192.625
262.4718	12582.225
266.72039	12879.525
270.96589	12972.325
275.20832	12941.425
279.44768	12804.325
283.68397	12625.925
287.91719	12455.425
292.14735	12370.925
296.37445	12312.725
300.59849	12368.225
304.81948	12443.725
309.03742	12554.925
313.25231	12608.625
317.46415	12505.825
321.67296	12381.125
325.87872	12246.425
330.08145	12171.425
334.28114	12193.325
338.47781	12257.225
342.67145	12402.425
346.86207	12600.125
351.04966	12851.625
355.23424	13094.825
359.4158	13325.825
363.59435	13427.625
367.76989	13549.825
371.94243	13598.125
376.11196	13665.025
380.27849	13706.025
384.44203	13775.925
388.60257	13892.225
392.76012	13983.325
396.91468	14119.825
401.06626	14273.925
405.21485	14426.625
409.36047	14433.225
413.50311	14327.225
417.64277	14316.525
421.77947	14403.325
425.9132	14466.725
430.04396	14535.225
434.17176	14630.325
438.2966	14753.525
442.41849	15017.425
446.53742	15526.425
450.6534	16049.225
454.76644	16376.725
458.87653	16371.725
462.98368	16139.625
467.08789	15785.125
471.18916	15421.525
475.2875	14944.025
479.38291	14605.125
483.4754	14410.325
487.56496	14302.325
491.6516	14255.225
495.73531	14284.625
499.81612	14368.425
503.89401	14548.325
507.96899	14582.525
512.04106	14498.425
516.11023	14440.125
520.1765	14378.925
524.23987	14356.525
528.30034	14329.125
532.35792	14257.125
536.41261	14070.225
540.46441	13836.425
544.51333	13734.725
548.55936	13814.425
552.60252	14041.225
556.64279	14386.725
560.6802	14651.625
564.71473	14658.725
568.7464	14674.725
572.7752	14872.925
576.80114	15207.825
580.82422	15698.425
584.84444	16553.325
588.86181	17758.325
592.87633	18993.025
596.888	19289.825
600.89682	18272.525
604.9028	17566.125
608.90594	18467.825
612.90624	19744.425
616.90371	18890.025
620.89834	16213.325
624.89015	14935.525
628.87913	14710.725
632.86528	14672.825
636.84862	14543.925
640.82913	14219.325
644.80683	13884.125
648.78172	13727.925
652.75379	13732.825
656.72306	13932.225
660.68952	14226.325
664.65319	14152.025
668.61405	13948.425
672.57211	13941.225
676.52738	14076.525
680.47986	14025.525
684.42955	13878.125
688.37646	13809.725
692.32058	13930.825
696.26192	14215.025
700.20048	14466.125
704.13626	14552.825
708.06928	14437.025
711.99952	14325.025
715.927	14325.225
719.85171	14494.925
723.77365	14456.325
727.69284	14176.025
731.60928	13951.325
735.52295	13855.225
739.43388	13928.225
743.34206	13991.125
747.24749	14066.125
751.15017	14202.025
755.05012	14373.325
758.94733	14701.625
762.8418	15265.925
766.73354	16136.825
770.62254	17087.025
774.50882	17334.525
778.39237	16805.025
782.27321	15904.425
786.15132	15099.025
790.02671	14605.925
793.89938	14350.425
797.76935	14246.525
801.6366	14231.925
805.50115	14208.825
809.36299	14153.625
813.22213	14021.425
817.07857	13903.025
820.93231	13822.525
824.78336	13799.425
828.63172	13810.125
832.47738	13838.525
836.32036	13876.925
840.16066	13963.325
843.99827	14037.025
847.8332	14011.725
851.66546	13931.425
855.49504	13892.825
859.32195	13900.125
863.1462	13864.825
866.96777	13774.225
870.78668	13736.825
874.60293	13755.525
878.41652	13793.725
882.22745	13837.625
886.03573	13955.625
889.84136	13972.125
893.64433	13891.625
897.44466	13815.525
901.24235	13738.325
905.0374	13679.125
908.8298	13647.325
912.61957	13677.825
916.40671	13801.025
920.19121	13954.325
923.97308	14253.725
927.75233	14446.225
931.52895	14443.025
935.30295	14243.025
939.07433	14027.525
942.84309	13844.225
946.60924	13770.325
950.37278	13753.525
954.13371	13724.725
957.89203	13645.925
961.64774	13573.425
965.40086	13580.925
969.15137	13555.625
972.89929	13562.525
976.64461	13581.425
980.38733	13684.825
984.12747	13744.025
987.86502	13874.725
991.59999	14068.725
995.33237	14347.725
999.06217	14843.125
1002.78939	15430.925
1006.51404	15847.925
1010.23611	16075.625
1013.95561	16192.325
1017.67255	16157.325
1021.38692	15965.225
1025.09872	15757.425
1028.80796	15923.825
1032.51465	16496.725
1036.21877	17178.025
1039.92035	17326.625
1043.61937	17054.225
1047.31584	16526.225
1051.00976	15921.825
1054.70114	15504.425
1058.38998	15363.725
1062.07627	15321.625
1065.76003	15295.025
1069.44126	15340.225
1073.11995	15573.925
1076.79611	15880.925
1080.46974	16064.625
1084.14085	16223.425
1087.80943	16381.025
1091.47549	16378.825
1095.13903	16291.525
1098.80005	15971.725
1102.45857	15639.125
1106.11456	15410.225
1109.76805	15313.625
1113.41903	15340.825
1117.06751	15362.525
1120.71348	15458.425
1124.35696	15551.325
1127.99793	15663.125
1131.63641	15797.925
1135.2724	15746.425
1138.90589	15685.125
1142.5369	15688.125
1146.16542	15701.825
1149.79145	15751.125
1153.415	15791.525
1157.03607	15890.525
1160.65467	16191.425
1164.27079	16852.425
1167.88443	17648.525
1171.49561	18608.525
1175.10432	19775.525
1178.71056	21443.625
1182.31434	23084.925
1185.91565	23944.725
1189.51451	23729.925
1193.11091	22969.025
1196.70485	22073.325
1200.29634	21226.725
1203.88538	20612.825
1207.47197	20241.125
1211.05612	19830.125
1214.63782	19419.925
1218.21708	19083.125
1221.79391	18893.925
1225.36829	18887.125
1228.94024	18749.725
1232.50976	18350.425
1236.07685	17862.625
1239.6415	17547.425
1243.20374	17486.625
1246.76355	17615.325
1250.32093	17964.125
1253.8759	18437.625
1257.42845	18960.725
1260.97859	19563.425
1264.52631	20163.725
1268.07163	20853.425
1271.61453	21611.025
1275.15503	22315.825
1278.69312	23030.625
1282.22882	23616.125
1285.76211	24273.325
1289.29301	24990.225
1292.82151	25865.125
1296.34761	27144.425
1299.87133	28801.725
1303.39266	30744.725
1306.9116	32665.825
1310.42815	34141.225
1313.94233	34751.625
1317.45412	34159.225
1320.96354	32618.625
1324.47058	31146.225
1327.97525	29945.825
1331.47754	29249.625
1334.97747	28768.325
1338.47502	28313.725
1341.97022	27693.625
1345.46305	27075.025
1348.95352	27006.625
1352.44163	27597.125
1355.92738	29275.825
1359.41078	31572.725
1362.89183	33352.925
1366.37053	33245.025
1369.84688	30763.925
1373.32088	27080.925
1376.79254	24334.925
1380.26186	23215.725
1383.72883	23079.925
1387.19347	22936.325
1390.65578	22488.325
1394.11575	22153.325
1397.57339	22177.325
1401.0287	22482.725
1404.48168	22722.825
1407.93234	22772.125
1411.38068	22589.325
1414.82669	22259.825
1418.27039	21754.225
1421.71177	21152.325
1425.15083	20563.625
1428.58758	20390.825
1432.02203	20716.825
1435.45416	21378.825
1438.88399	21982.825
1442.31151	22284.325
1445.73673	22302.025
1449.15965	22219.925
1452.58027	21924.725
1455.9986	21605.925
1459.41463	21516.425
1462.82837	21782.525
1466.23982	22333.125
1469.64898	22920.025
1473.05586	23386.525
1476.46045	23705.025
1479.86276	23739.225
1483.26279	23611.525
1486.66054	23568.325
1490.05602	23655.625
1493.44922	23823.025
1496.84016	23886.625
1500.22882	23893.025
1503.61521	24104.125
1506.99934	24485.925
1510.38121	24916.825
1513.76081	25060.425
1517.13816	24652.825
1520.51324	23858.525
1523.88607	23279.825
1527.25665	23073.425
1530.62498	23076.625
1533.99105	23078.625
1537.35488	22838.225
1540.71647	22445.925
1544.07581	21989.525
1547.4329	21552.325
1550.78776	21150.425
1554.14038	20822.325
1557.49077	20569.725
1560.83892	20397.325
1564.18484	20231.625
1567.52853	20194.925
1570.86999	20292.825
1574.20922	20569.025
1577.54624	20780.125
1580.88103	20884.025
1584.2136	21111.125
1587.54395	21862.625
1590.87208	23394.125
1594.19801	25351.725
1597.52172	27199.725
1600.84321	27999.625
1604.16251	26784.925
1607.47959	24394.425
1610.79447	21854.325
1614.10715	19692.425
1617.41763	18168.625
1620.7259	17280.425
1624.03199	16915.625
1627.33587	17015.825
1630.63757	17552.925
1633.93707	18556.625
1637.23439	20243.325
1640.52951	22766.225
1643.82246	25942.125
1647.11321	28440.825
1650.40179	28729.525
1653.68819	26171.925
1656.97241	22328.125
1660.25446	19019.325
1663.53433	16789.325
1666.81203	15522.325
1670.08756	14782.525
1673.36092	14347.725
1676.63211	14048.025
1679.90115	13826.125
1683.16801	13654.125
1686.43272	13547.525
1689.69527	13430.525
1692.95567	13344.425
1696.2139	13241.425
1699.46999	13163.925
1702.72392	13119.925
1705.97571	13116.925
1709.22535	13171.825
1712.47284	13206.625
1715.71819	13193.925
1718.96139	13181.325
1722.20246	13162.625
1725.44139	13140.825
1728.67818	13072.525
1731.91284	12993.425
1735.14537	12920.825
1738.37576	12879.925
1741.60403	12829.925
1744.83017	12789.925
1748.05418	12748.825
1751.27607	12745.025
1754.49584	12703.825
1757.71349	12649.725
1760.92903	12658.425
1764.14244	12623.725
1767.35375	12626.625
1770.56294	12627.425
1773.77002	12617.925
1776.97499	12638.325
1780.17785	12639.025
1783.37861	12650.925
1786.57727	12656.925
1789.77382	12631.425
1792.96828	12602.525
1796.16064	12574.125
1799.3509	12555.425
1802.53907	12580.825
1805.72514	12532.025
1808.90913	12497.225
1812.09102	12468.125
1815.27083	12466.025
1818.44856	12441.425
1821.6242	12431.725
1824.79776	12439.525
1827.96924	12432.525
1831.13864	12407.525
1834.30597	12440.925
1837.47122	12414.325
1840.6344	12416.225
1843.7955	12427.425
1846.95454	12431.725
1850.11151	12420.725
1853.26642	12410.125
1856.41926	12402.725
1859.57004	12409.025
1862.71876	12396.725
1865.86542	12405.725
1869.01003	12389.525
1872.15258	12371.125
1875.29308	12374.025
1878.43152	12369.625
1881.56792	12350.825
1884.70227	12348.825
1887.83457	12338.225
1890.96482	12321.725
1894.09304	12306.225
1897.21921	12344.925
1900.34335	12308.925
1903.46544	12292.725
1906.58551	12320.225
1909.70353	12257.425
1912.81953	12263.525
1915.93349	12248.925
1919.04543	12236.525
1922.15534	12197.025
1925.26322	12205.425
1928.36908	12181.225
1931.47292	12143.625
1934.57473	12140.425
1937.67453	12101.125
1940.77232	12076.025
1943.86808	12047.525
1946.96184	12012.625
1950.05358	11997.725
1953.14331	11980.925
1956.23103	11945.125
1959.31675	11950.325
1962.40046	11912.525
1965.48217	11842.625
1968.56188	11826.725
1971.63959	11826.325
1974.7153	11774.225
1977.78901	11768.325
1980.86073	11700.225
1983.93046	11665.525
1986.99819	11664.425
1990.06394	11632.625
1993.1277	11602.425
1996.18947	11561.925
1999.24925	11544.825
2002.30706	11518.225
2005.36288	11474.425
2008.41672	11454.725
2011.46859	11428.725
2014.51848	11377.625
2017.56639	11350.625
2020.61233	11352.725
2023.6563	11338.125
2026.6983	11340.025
2029.73833	11309.825
2032.7764	11278.725
2035.8125	11288.725
2038.84664	11273.725
2041.87881	11279.425
2044.90903	11261.525
2047.93729	11216.625
2050.96359	11207.325
2053.98794	11184.425
2057.01034	11189.125
2060.03078	11210.625
2063.04927	11196.425
2066.06582	11198.425
2069.08042	11209.625
2072.09307	11155.025
2075.10378	11188.325
2078.11255	11171.125
2081.11938	11186.325
2084.12426	11207.825
2087.12722	11184.725
2090.12824	11190.925
2093.12732	11208.425
2096.12447	11190.025
2099.11969	11203.925
2102.11299	11199.525
2105.10435	11200.525
2108.09379	11201.825
2111.08131	11247.225
2114.0669	11218.325
2117.05057	11227.425
2120.03233	11245.025
2123.01216	11237.225
2125.99008	11281.125
2128.96609	11274.225
2131.94018	11279.825
2134.91236	11278.725
2137.88263	11297.625
2140.851	11297.225
2143.81746	11352.925
2146.78201	11338.925
2149.74466	11360.125
2152.7054	11358.625
2155.66425	11348.125
2158.6212	11327.125
2161.57625	11354.025
2164.52941	11349.325
2167.48067	11330.725
2170.43004	11333.225
2173.37752	11330.625
2176.32311	11371.825
2179.26681	11342.425
2182.20863	11347.225
2185.14856	11385.925
2188.08661	11383.225
2191.02278	11392.425
2193.95707	11358.025
2196.88948	11394.925
2199.82001	11397.925
2202.74867	11386.425
2205.67545	11378.425
2208.60037	11371.325
2211.52341	11383.625
2214.44458	11364.025
2217.36388	11333.725
2220.28132	11341.625
2223.1969	11304.825
2226.11061	11305.125
2229.02246	11300.425
2231.93245	11298.625
2234.84058	11261.125
2237.74686	11271.925
2240.65128	11262.925
2243.55385	11239.925
2246.45456	11205.925
2249.35343	11207.025
2252.25044	11198.225
2255.14561	11170.225
2258.03893	11175.225
2260.93041	11143.325
2263.82004	11115.325
2266.70783	11088.225
2269.59378	11080.125
2272.4779	11070.525
2275.36017	11053.625
2278.24061	11042.125
2281.11922	11025.925
2283.996	11028.325
2286.87094	10990.125
2289.74405	10988.725
2292.61534	11008.125
2295.4848	10990.825
2298.35243	11031.325
2301.21824	11041.625
2304.08223	11048.325
2306.94439	11060.925
2309.80474	11053.225
2312.66327	11036.425
2315.51999	11067.425
2318.37489	11061.525
2321.22797	11061.825
2324.07925	11057.825
2326.92871	11044.625
2329.77637	11069.925
2332.62222	11041.925
2335.46626	11036.025
2338.3085	11031.725
2341.14893	11023.625
2343.98756	11034.525
2346.8244	11030.225
2349.65943	10999.325
2352.49267	11008.025
2355.32411	11016.225
2358.15376	11016.525
2360.98161	11002.525
2363.80768	10950.825
2366.63195	10991.325
2369.45444	10987.625
2372.27514	10971.325
2375.09405	10921.225
2377.91118	10921.125
2380.72652	10896.725
2383.54009	10872.325
2386.35187	10844.825
2389.16188	10856.025
2391.97011	10815.325
2394.77657	10836.825
2397.58125	10819.725
2400.38416	10799.025
2403.18529	10779.125
2405.98466	10764.425
2408.78226	10734.925
2411.57809	10737.325
2414.37216	10733.725
2417.16446	10735.125
2419.955	10698.225
2422.74378	10733.325
2425.5308	10692.225
2428.31606	10709.025
2431.09956	10689.325
2433.88131	10673.625
2436.6613	10696.925
2439.43954	10695.825
2442.21603	10689.525
2444.99077	10691.125
2447.76377	10699.125
2450.53501	10687.425
2453.30451	10718.325
2456.07226	10676.225
2458.83827	10651.825
2461.60254	10692.525
2464.36507	10687.825
2467.12586	10674.925
2469.88492	10679.425
2472.64224	10723.325
2475.39782	10716.125
2478.15167	10712.825
2480.90379	10711.725
2483.65417	10729.825
2486.40283	10728.325
2489.14976	10753.025
2491.89497	10739.825
2494.63845	10756.725
2497.3802	10742.125
2500.12024	10747.925
2502.85855	10722.225
2505.59514	10724.325
2508.33002	10721.025
2511.06318	10700.625
2513.79462	10702.725
2516.52435	10701.325
2519.25237	10688.025
2521.97867	10672.825
2524.70327	10708.025
2527.42616	10667.125
2530.14734	10697.825
2532.86681	10658.025
2535.58458	10669.025
2538.30065	10667.125
2541.01501	10693.425
2543.72768	10664.525
2546.43864	10642.125
2549.14791	10649.925
2551.85548	10651.725
2554.56136	10656.425
2557.26554	10604.525
2559.96803	10626.625
2562.66883	10617.325
2565.36794	10638.325
2568.06536	10628.425
2570.7611	10620.925
2573.45514	10609.725
2576.14751	10638.725
2578.83819	10633.225
2581.52719	10602.325
2584.21451	10618.725
2586.90015	10617.025
2589.58411	10601.325
2592.2664	10624.025
2594.94701	10581.225
2597.62594	10590.925
2600.30321	10572.625
2602.9788	10564.125
2605.65273	10552.125
2608.32498	10554.725
2610.99557	10561.225
2613.66449	10574.825
2616.33175	10574.625
2618.99734	10580.625
2621.66128	10529.425
2624.32355	10518.525
2626.98416	10532.925
2629.64311	10511.925
2632.30041	10538.225
2634.95605	10499.325
2637.61004	10504.825
2640.26238	10451.325
2642.91306	10475.025
2645.56209	10491.225
2648.20948	10462.725
2650.85521	10458.925
2653.4993	10464.325
2656.14175	10472.225
2658.78255	10506.525
2661.42171	10498.325
2664.05923	10531.725
2666.6951	10534.725
2669.32934	10544.225
2671.96194	10535.925
2674.59291	10533.525
2677.22224	10542.925
2679.84993	10526.525
2682.476	10519.925
2685.10043	10519.925
2687.72324	10492.725
2690.34441	10476.525
2692.96396	10504.025
2695.58188	10504.325
2698.19818	10501.225
2700.81285	10470.125
2703.4259	10471.325
2706.03733	10452.625
2708.64714	10484.625
2711.25533	10506.325
2713.86191	10489.125
2716.46687	10529.925
2719.07021	10532.725
2721.67194	10554.625
2724.27206	10565.025
2726.87057	10561.525
2729.46747	10579.625
2732.06276	10576.525
2734.65644	10562.925
2737.24852	10617.225
2739.83899	10579.925
2742.42786	10608.625
2745.01513	10557.425
2747.60079	10565.525
2750.18486	10558.425
2752.76733	10539.525
2755.3482	10561.725
2757.92747	10553.425
2760.50515	10550.025
2763.08123	10551.525
2765.65573	10533.325
2768.22863	10552.325
2770.79994	10558.725
2773.36967	10553.725
2775.9378	10568.225
2778.50435	10536.525
2781.06932	10513.825
2783.6327	10547.925
2786.1945	10555.725
2788.75471	10553.425
2791.31335	10507.325
2793.87041	10504.625
2796.42589	10510.625
2798.97979	10497.325
2801.53212	10467.025
2804.08288	10477.125
2806.63206	10467.125
2809.17967	10448.325
2811.72571	10416.025
2814.27018	10413.325
2816.81308	10386.225
2819.35442	10369.725
2821.89419	10368.525
2824.43239	10364.625
2826.96904	10350.125
2829.50412	10354.625
2832.03763	10339.325
2834.56959	10355.125
2837.1	10348.525
2839.62884	10349.825
2842.15613	10352.925
2844.68186	10351.625
2847.20604	10393.425
2849.72867	10403.125
2852.24974	10388.425
2854.76927	10365.225
2857.28724	10359.425
2859.80367	10362.325
2862.31855	10361.425
2864.83189	10360.425
2867.34368	10357.325
2869.85393	10369.225
2872.36264	10349.325
2874.8698	10363.025
2877.37543	10380.725
2879.87952	10374.625
2882.38207	10401.925
2884.88308	10375.525
2887.38256	10409.625
2889.88051	10411.525
2892.37692	10424.525
2894.8718	10427.025
2897.36515	10468.625
2899.85698	10479.725
2902.34727	10491.425
2904.83604	10486.725
2907.32328	10500.825
2909.809	10490.925
2912.29319	10492.125
2914.77587	10472.725
2917.25702	10462.325
2919.73665	10467.925
2922.21476	10474.525
2924.69136	10448.625
2927.16644	10467.525
2929.64	10432.025
2932.11205	10440.725
2934.58258	10394.425
2937.05161	10429.925
2939.51912	10427.625
2941.98513	10420.525
2944.44962	10381.125
2946.91261	10359.725
2949.37409	10377.825
2951.83407	10338.425
2954.29254	10328.025
2956.74951	10324.425
2959.20498	10317.525
2961.65895	10268.925
2964.11142	10300.725
2966.56239	10257.025
2969.01186	10263.925
2971.45984	10229.325
2973.90632	10224.125
2976.35131	10202.225
2978.7948	10198.325
2981.23681	10138.525
2983.67732	10160.925
2986.11635	10109.325
2988.55388	10095.625
2990.98993	10059.225
2993.4245	10048.725
2995.85758	10032.625
2998.28917	9986.325
3000.71928	10004.425
3003.14791	9963.925
3005.57506	9949.925
3008.00073	9933.725
3010.42493	9919.525
3012.84764	9916.825
3015.26888	9921.525
3017.68865	9886.225
3020.10694	9896.025
3022.52376	9868.325
3024.9391	9885.825
3027.35298	9855.525
3029.76539	9859.825
3032.17632	9847.425
3034.5858	9840.925
3036.9938	9836.325
3039.40034	9840.325
3041.80542	9819.125
3044.20903	9815.325
3046.61118	9819.025
3049.01187	9815.325
3051.4111	9796.325
3053.80888	9772.625
3056.20519	9794.425
3058.60005	9752.625
3060.99345	9747.125
3063.3854	9730.725
3065.7759	9684.825
3068.16494	9691.625
3070.55254	9668.625
3072.93868	9658.525
3075.32338	9622.325
3077.70662	9643.925
3080.08842	9589.725
3082.46878	9619.425
3084.84769	9616.625
3087.22515	9583.225
3089.60118	9602.725
3091.97576	9601.025
3094.3489	9609.025
3096.72061	9601.425
3099.09087	9610.225
3101.4597	9563.625
3103.82709	9596.525
3106.19305	9571.125
3108.55757	9579.025
3110.92066	9554.225
3113.28232	9541.525
3115.64255	9539.425
3118.00134	9507.325
3120.35871	9501.525
3122.71466	9497.225
3125.06917	9479.325
3127.42226	9464.325
3129.77393	9484.725
3132.12417	9445.625
3134.47299	9465.325
3136.82039	9452.525
