Data from AgNPs_FTO_APTES_UA_1uM_CRN_0uM_R6G_10uM_NaF_0.1M_Addition_RamanShift__35__11-46-29-448.txt Node

Date: Thu Jan 27 11:46:29 GMT 2022
User: TCL
Spectrometer: QEP01345
Trigger mode: 4
Integration Time (sec): 7.000000E0
Scans to average: 10
Electric dark correction enabled: true
Nonlinearity correction enabled: false
Boxcar width: 0
XAxis mode: Raman Shifts
Number of Pixels in Spectrum: 1044
>>>>>Begin Spectral Data<<<<<
46.04893	-0.5875
50.45542	-0.1875
54.85868	-2.1875
59.25871	-1.3875
63.6555	53.5125
68.04907	59.9125
72.43941	59.1125
76.82654	62.4125
81.21044	63.6125
85.59113	61.8125
89.96862	68.9125
94.34289	71.6125
98.71396	70.9125
103.08183	76.3125
107.4465	80.3125
111.80798	82.9125
116.16626	81.1125
120.52136	88.3125
124.87327	84.7125
129.222	87.0125
133.56755	92.9125
137.90993	100.9125
142.24913	109.5125
146.58517	123.4125
150.91804	141.8125
155.24774	165.3125
159.57429	203.4125
163.89768	265.7125
168.21792	354.1125
172.53501	474.5125
176.84895	654.7125
181.15975	921.9125
185.46741	1282.1125
189.77193	1781.3125
194.07331	2410.3125
198.37157	3111.0125
202.6667	3853.5125
206.9587	4606.3125
211.24758	5340.5125
215.53334	6061.6125
219.81599	6835.1125
224.09553	7659.8125
228.37195	8587.6125
232.64527	9587.9125
236.91549	10673.0125
241.18261	11801.4125
245.44663	12862.0125
249.70755	13837.6125
253.96539	14718.0125
258.22014	15404.2125
262.4718	15995.0125
266.72039	16307.3125
270.96589	16467.7125
275.20832	16440.5125
279.44768	16269.8125
283.68397	16071.0125
287.91719	15834.7125
292.14735	15665.8125
296.37445	15536.5125
300.59849	15443.7125
304.81948	15437.7125
309.03742	15474.2125
313.25231	15441.6125
317.46415	15259.9125
321.67296	15060.4125
325.87872	14874.9125
330.08145	14800.1125
334.28114	14811.6125
338.47781	14915.8125
342.67145	15105.1125
346.86207	15285.8125
351.04966	15541.4125
355.23424	15821.4125
359.4158	16075.4125
363.59435	16300.0125
367.76989	16411.1125
371.94243	16543.5125
376.11196	16600.5125
380.27849	16638.0125
384.44203	16704.4125
388.60257	16765.9125
392.76012	16905.3125
396.91468	17061.2125
401.06626	17290.8125
405.21485	17444.6125
409.36047	17428.0125
413.50311	17257.2125
417.64277	17144.0125
421.77947	17180.8125
425.9132	17201.2125
430.04396	17277.7125
434.17176	17345.4125
438.2966	17458.0125
442.41849	17585.3125
446.53742	17847.9125
450.6534	18060.4125
454.76644	18240.5125
458.87653	18362.9125
462.98368	18362.2125
467.08789	18292.2125
471.18916	18171.0125
475.2875	17978.2125
479.38291	17846.0125
483.4754	17742.2125
487.56496	17673.0125
491.6516	17625.4125
495.73531	17550.4125
499.81612	17521.1125
503.89401	17669.8125
507.96899	17747.3125
512.04106	17766.0125
516.11023	17798.8125
520.1765	17713.4125
524.23987	17617.7125
528.30034	17518.6125
532.35792	17474.6125
536.41261	17364.7125
540.46441	17231.3125
544.51333	17213.5125
548.55936	17316.9125
552.60252	17484.6125
556.64279	17750.4125
560.6802	17911.9125
564.71473	17958.6125
568.7464	18089.1125
572.7752	18327.0125
576.80114	18593.2125
580.82422	18935.4125
584.84444	19366.7125
588.86181	19954.2125
592.87633	20557.8125
596.888	20716.3125
600.89682	20158.2125
604.9028	20002.6125
608.90594	20900.3125
612.90624	22146.7125
616.90371	21464.3125
620.89834	19129.4125
624.89015	18016.6125
628.87913	17829.1125
632.86528	17982.0125
636.84862	18062.8125
640.82913	17919.9125
644.80683	17652.8125
648.78172	17420.0125
652.75379	17433.8125
656.72306	17553.4125
660.68952	17790.3125
664.65319	17765.5125
668.61405	17602.1125
672.57211	17574.0125
676.52738	17618.2125
680.47986	17649.4125
684.42955	17536.5125
688.37646	17473.4125
692.32058	17511.5125
696.26192	17640.9125
700.20048	17779.0125
704.13626	17902.9125
708.06928	17904.0125
711.99952	17896.4125
715.927	17873.6125
719.85171	17832.0125
723.77365	17795.1125
727.69284	17678.4125
731.60928	17501.3125
735.52295	17418.1125
739.43388	17404.4125
743.34206	17504.3125
747.24749	17548.7125
751.15017	17617.6125
755.05012	17821.5125
758.94733	18083.7125
762.8418	18591.7125
766.73354	19434.4125
770.62254	20294.1125
774.50882	20573.2125
778.39237	20181.8125
782.27321	19392.3125
786.15132	18662.2125
790.02671	18145.4125
793.89938	17836.0125
797.76935	17687.7125
801.6366	17617.9125
805.50115	17550.2125
809.36299	17496.3125
813.22213	17409.3125
817.07857	17371.4125
820.93231	17323.5125
824.78336	17316.2125
828.63172	17332.5125
832.47738	17338.9125
836.32036	17314.2125
840.16066	17319.8125
843.99827	17273.4125
847.8332	17271.1125
851.66546	17325.2125
855.49504	17347.2125
859.32195	17372.2125
863.1462	17374.0125
866.96777	17346.5125
870.78668	17387.7125
874.60293	17397.8125
878.41652	17421.2125
882.22745	17483.9125
886.03573	17568.5125
889.84136	17553.4125
893.64433	17524.3125
897.44466	17547.7125
901.24235	17560.4125
905.0374	17528.5125
908.8298	17501.3125
912.61957	17481.9125
916.40671	17543.5125
920.19121	17661.8125
923.97308	17755.6125
927.75233	17801.2125
931.52895	17760.6125
935.30295	17598.9125
939.07433	17416.0125
942.84309	17252.8125
946.60924	17154.0125
950.37278	17099.6125
954.13371	17081.5125
957.89203	17059.5125
961.64774	17013.6125
965.40086	16955.5125
969.15137	16959.4125
972.89929	16901.8125
976.64461	16845.0125
980.38733	16821.7125
984.12747	16845.3125
987.86502	16867.0125
991.59999	16880.2125
995.33237	16937.0125
999.06217	17103.0125
1002.78939	17217.3125
1006.51404	17441.6125
1010.23611	17657.5125
1013.95561	17826.3125
1017.67255	17825.2125
1021.38692	17744.5125
1025.09872	17579.5125
1028.80796	17430.7125
1032.51465	17298.8125
1036.21877	17310.3125
1039.92035	17333.4125
1043.61937	17459.7125
1047.31584	17465.8125
1051.00976	17562.9125
1054.70114	17607.7125
1058.38998	17655.5125
1062.07627	17725.4125
1065.76003	17809.2125
1069.44126	17921.9125
1073.11995	18174.3125
1076.79611	18417.5125
1080.46974	18579.3125
1084.14085	18615.4125
1087.80943	18690.3125
1091.47549	18789.0125
1095.13903	18831.5125
1098.80005	18718.8125
1102.45857	18459.0125
1106.11456	18215.8125
1109.76805	18088.4125
1113.41903	18020.8125
1117.06751	18003.0125
1120.71348	18074.7125
1124.35696	18186.2125
1127.99793	18342.3125
1131.63641	18437.4125
1135.2724	18376.2125
1138.90589	18281.6125
1142.5369	18174.0125
1146.16542	18185.9125
1149.79145	18203.0125
1153.415	18211.7125
1157.03607	18250.7125
1160.65467	18436.6125
1164.27079	18859.1125
1167.88443	19388.4125
1171.49561	20021.5125
1175.10432	20780.0125
1178.71056	21738.5125
1182.31434	22694.4125
1185.91565	23287.7125
1189.51451	23424.2125
1193.11091	23204.0125
1196.70485	22827.8125
1200.29634	22217.1125
1203.88538	21681.7125
1207.47197	21255.5125
1211.05612	20903.0125
1214.63782	20571.5125
1218.21708	20206.4125
1221.79391	19843.3125
1225.36829	19639.2125
1228.94024	19555.9125
1232.50976	19477.7125
1236.07685	19429.0125
1239.6415	19357.5125
1243.20374	19330.6125
1246.76355	19358.7125
1250.32093	19456.0125
1253.8759	19652.2125
1257.42845	19999.6125
1260.97859	20341.2125
1264.52631	20747.9125
1268.07163	21131.8125
1271.61453	21464.8125
1275.15503	21800.1125
1278.69312	22165.5125
1282.22882	22538.7125
1285.76211	22962.1125
1289.29301	23395.5125
1292.82151	23918.1125
1296.34761	24547.9125
1299.87133	25253.3125
1303.39266	26087.1125
1306.9116	26927.3125
1310.42815	27629.5125
1313.94233	28090.0125
1317.45412	28005.6125
1320.96354	27661.4125
1324.47058	27342.2125
1327.97525	27038.5125
1331.47754	26773.5125
1334.97747	26609.8125
1338.47502	26525.3125
1341.97022	26605.6125
1345.46305	26757.8125
1348.95352	27016.2125
1352.44163	27297.7125
1355.92738	27626.8125
1359.41078	28255.1125
1362.89183	28920.8125
1366.37053	28786.6125
1369.84688	27279.2125
1373.32088	25081.9125
1376.79254	23314.2125
1380.26186	22476.2125
1383.72883	22160.6125
1387.19347	21897.4125
1390.65578	21528.4125
1394.11575	21303.2125
1397.57339	21244.6125
1401.0287	21404.9125
1404.48168	21553.7125
1407.93234	21521.8125
1411.38068	21334.0125
1414.82669	21019.1125
1418.27039	20630.7125
1421.71177	20283.6125
1425.15083	19975.9125
1428.58758	19841.0125
1432.02203	19850.7125
1435.45416	20090.4125
1438.88399	20311.9125
1442.31151	20446.7125
1445.73673	20519.9125
1449.15965	20547.9125
1452.58027	20565.7125
1455.9986	20569.1125
1459.41463	20648.2125
1462.82837	20922.6125
1466.23982	21234.3125
1469.64898	21488.5125
1473.05586	21674.2125
1476.46045	21747.6125
1479.86276	21774.4125
1483.26279	21789.8125
1486.66054	21866.5125
1490.05602	22007.3125
1493.44922	22399.2125
1496.84016	22861.1125
1500.22882	23527.3125
1503.61521	24271.4125
1506.99934	25049.6125
1510.38121	25598.0125
1513.76081	25735.7125
1517.13816	25235.6125
1520.51324	24490.5125
1523.88607	23740.1125
1527.25665	23244.7125
1530.62498	22884.7125
1533.99105	22591.7125
1537.35488	22212.9125
1540.71647	21830.9125
1544.07581	21455.6125
1547.4329	21052.3125
1550.78776	20743.1125
1554.14038	20589.7125
1557.49077	20541.9125
1560.83892	20619.7125
1564.18484	20716.2125
1567.52853	20776.3125
1570.86999	20961.0125
1574.20922	21147.8125
1577.54624	21296.9125
1580.88103	21214.1125
1584.2136	21051.4125
1587.54395	21207.7125
1590.87208	21692.7125
1594.19801	22392.8125
1597.52172	23161.9125
1600.84321	23394.0125
1604.16251	22822.2125
1607.47959	21812.9125
1610.79447	20700.9125
1614.10715	19673.8125
1617.41763	18768.5125
1620.7259	18100.3125
1624.03199	17755.1125
1627.33587	17660.6125
1630.63757	17852.6125
1633.93707	18447.1125
1637.23439	19471.3125
1640.52951	21062.9125
1643.82246	23087.3125
1647.11321	24783.7125
1650.40179	25396.0125
1653.68819	24266.4125
1656.97241	21972.7125
1660.25446	19737.3125
1663.53433	18066.0125
1666.81203	16995.0125
1670.08756	16356.0125
1673.36092	15986.1125
1676.63211	15761.5125
1679.90115	15561.9125
1683.16801	15379.7125
1686.43272	15292.7125
1689.69527	15210.3125
1692.95567	15078.0125
1696.2139	15009.8125
1699.46999	14930.3125
1702.72392	14838.3125
1705.97571	14846.4125
1709.22535	14887.4125
1712.47284	14948.0125
1715.71819	14942.8125
1718.96139	14961.0125
1722.20246	14881.8125
1725.44139	14878.6125
1728.67818	14802.5125
1731.91284	14737.4125
1735.14537	14656.2125
1738.37576	14606.0125
1741.60403	14556.5125
1744.83017	14510.2125
1748.05418	14483.2125
1751.27607	14443.2125
1754.49584	14420.4125
1757.71349	14380.1125
1760.92903	14338.0125
1764.14244	14317.7125
1767.35375	14303.6125
1770.56294	14297.7125
1773.77002	14260.4125
1776.97499	14285.6125
1780.17785	14284.8125
1783.37861	14261.0125
1786.57727	14276.0125
1789.77382	14242.2125
1792.96828	14237.3125
1796.16064	14190.0125
1799.3509	14167.4125
1802.53907	14160.1125
1805.72514	14105.3125
1808.90913	14086.2125
1812.09102	14067.1125
1815.27083	14024.0125
1818.44856	14000.1125
1821.6242	13988.3125
1824.79776	14023.0125
1827.96924	13960.4125
1831.13864	13956.4125
1834.30597	13936.8125
1837.47122	13952.1125
1840.6344	13940.6125
1843.7955	13968.1125
1846.95454	13975.1125
1850.11151	13992.9125
1853.26642	13944.8125
1856.41926	13920.8125
1859.57004	13938.8125
1862.71876	13913.1125
1865.86542	13883.4125
1869.01003	13866.4125
1872.15258	13858.2125
1875.29308	13824.4125
1878.43152	13806.9125
1881.56792	13782.6125
1884.70227	13756.1125
1887.83457	13756.7125
1890.96482	13704.1125
1894.09304	13677.5125
1897.21921	13666.9125
1900.34335	13674.3125
1903.46544	13651.6125
1906.58551	13630.7125
1909.70353	13572.6125
1912.81953	13558.5125
1915.93349	13542.1125
1919.04543	13533.5125
1922.15534	13473.5125
1925.26322	13432.1125
1928.36908	13396.8125
1931.47292	13395.5125
1934.57473	13346.0125
1937.67453	13332.9125
1940.77232	13277.6125
1943.86808	13237.9125
1946.96184	13202.3125
1950.05358	13165.9125
1953.14331	13112.1125
1956.23103	13092.8125
1959.31675	13077.4125
1962.40046	13005.0125
1965.48217	12958.5125
1968.56188	12925.7125
1971.63959	12893.4125
1974.7153	12854.1125
1977.78901	12807.3125
1980.86073	12763.7125
1983.93046	12743.3125
1986.99819	12685.2125
1990.06394	12620.0125
1993.1277	12601.1125
1996.18947	12547.2125
1999.24925	12529.0125
2002.30706	12473.1125
2005.36288	12429.0125
2008.41672	12411.0125
2011.46859	12369.8125
2014.51848	12327.1125
2017.56639	12272.1125
2020.61233	12251.4125
2023.6563	12251.7125
2026.6983	12179.9125
2029.73833	12158.7125
2032.7764	12156.6125
2035.8125	12146.1125
2038.84664	12068.6125
2041.87881	12057.7125
2044.90903	12016.1125
2047.93729	11999.6125
2050.96359	11973.4125
2053.98794	11981.4125
2057.01034	11983.3125
2060.03078	11953.9125
2063.04927	11947.0125
2066.06582	11947.8125
2069.08042	11951.4125
2072.09307	11953.8125
2075.10378	11954.7125
2078.11255	11943.7125
2081.11938	11961.8125
2084.12426	11915.9125
2087.12722	11944.6125
2090.12824	11929.2125
2093.12732	11939.5125
2096.12447	11917.7125
2099.11969	11913.3125
2102.11299	11914.8125
2105.10435	11936.0125
2108.09379	11882.2125
2111.08131	11896.3125
2114.0669	11921.9125
2117.05057	11920.7125
2120.03233	11893.6125
2123.01216	11901.9125
2125.99008	11913.2125
2128.96609	11913.1125
2131.94018	11907.5125
2134.91236	11901.3125
2137.88263	11914.4125
2140.851	11904.3125
2143.81746	11920.1125
2146.78201	11931.7125
2149.74466	11939.2125
2152.7054	11906.7125
2155.66425	11887.0125
2158.6212	11887.5125
2161.57625	11916.3125
2164.52941	11903.1125
2167.48067	11867.1125
2170.43004	11868.5125
2173.37752	11839.0125
2176.32311	11841.0125
2179.26681	11846.1125
2182.20863	11869.5125
2185.14856	11872.4125
2188.08661	11854.5125
2191.02278	11832.6125
2193.95707	11819.9125
2196.88948	11822.9125
2199.82001	11789.0125
2202.74867	11773.9125
2205.67545	11768.5125
2208.60037	11747.0125
2211.52341	11754.1125
2214.44458	11722.8125
2217.36388	11671.9125
2220.28132	11643.7125
2223.1969	11602.3125
2226.11061	11608.6125
2229.02246	11590.6125
2231.93245	11548.8125
2234.84058	11547.2125
2237.74686	11550.7125
2240.65128	11522.3125
2243.55385	11506.0125
2246.45456	11473.7125
2249.35343	11478.7125
2252.25044	11450.7125
2255.14561	11437.4125
2258.03893	11424.5125
2260.93041	11384.3125
2263.82004	11351.7125
2266.70783	11330.9125
2269.59378	11305.0125
2272.4779	11291.6125
2275.36017	11287.9125
2278.24061	11260.2125
2281.11922	11212.5125
2283.996	11189.3125
2286.87094	11189.7125
2289.74405	11147.6125
2292.61534	11124.5125
2295.4848	11099.3125
2298.35243	11105.0125
2301.21824	11075.0125
2304.08223	11069.1125
2306.94439	11053.7125
2309.80474	11044.6125
2312.66327	11013.6125
2315.51999	11028.1125
2318.37489	11025.8125
2321.22797	11008.9125
2324.07925	10992.3125
2326.92871	10967.1125
2329.77637	10947.7125
2332.62222	10916.3125
2335.46626	10905.3125
2338.3085	10868.6125
2341.14893	10855.4125
2343.98756	10866.6125
2346.8244	10838.5125
2349.65943	10834.0125
2352.49267	10798.5125
2355.32411	10807.5125
2358.15376	10820.5125
2360.98161	10790.0125
2363.80768	10789.2125
2366.63195	10795.3125
2369.45444	10813.6125
2372.27514	10801.0125
2375.09405	10761.9125
2377.91118	10748.0125
2380.72652	10708.5125
2383.54009	10675.2125
2386.35187	10654.5125
2389.16188	10618.7125
2391.97011	10608.6125
2394.77657	10588.0125
2397.58125	10580.5125
2400.38416	10539.5125
2403.18529	10516.4125
2405.98466	10507.0125
2408.78226	10494.4125
2411.57809	10477.9125
2414.37216	10453.6125
2417.16446	10454.8125
2419.955	10442.7125
2422.74378	10462.1125
2425.5308	10410.6125
2428.31606	10405.9125
2431.09956	10394.6125
2433.88131	10364.2125
2436.6613	10359.7125
2439.43954	10370.3125
2442.21603	10380.0125
2444.99077	10354.0125
2447.76377	10360.1125
2450.53501	10346.0125
2453.30451	10318.8125
2456.07226	10306.1125
2458.83827	10306.3125
2461.60254	10280.5125
2464.36507	10250.1125
2467.12586	10249.3125
2469.88492	10237.3125
2472.64224	10271.6125
2475.39782	10241.8125
2478.15167	10234.8125
2480.90379	10204.7125
2483.65417	10197.2125
2486.40283	10211.2125
2489.14976	10189.1125
2491.89497	10196.9125
2494.63845	10199.8125
2497.3802	10169.1125
2500.12024	10148.5125
2502.85855	10160.7125
2505.59514	10144.0125
2508.33002	10120.8125
2511.06318	10088.2125
2513.79462	10079.6125
2516.52435	10078.6125
2519.25237	10057.4125
2521.97867	10035.7125
2524.70327	10036.7125
2527.42616	10005.8125
2530.14734	9974.9125
2532.86681	10006.3125
2535.58458	9989.0125
2538.30065	9949.0125
2541.01501	9987.5125
2543.72768	9948.3125
2546.43864	9908.7125
2549.14791	9893.6125
2551.85548	9891.5125
2554.56136	9853.9125
2557.26554	9845.0125
2559.96803	9832.7125
2562.66883	9824.9125
2565.36794	9806.5125
2568.06536	9776.5125
2570.7611	9771.5125
2573.45514	9740.9125
2576.14751	9721.3125
2578.83819	9710.9125
2581.52719	9709.9125
2584.21451	9696.2125
2586.90015	9668.3125
2589.58411	9641.7125
2592.2664	9631.6125
2594.94701	9598.6125
2597.62594	9593.1125
2600.30321	9580.5125
2602.9788	9549.4125
2605.65273	9528.0125
2608.32498	9509.4125
2610.99557	9510.8125
2613.66449	9510.5125
2616.33175	9489.6125
2618.99734	9485.6125
2621.66128	9455.9125
2624.32355	9417.8125
2626.98416	9429.6125
2629.64311	9419.8125
2632.30041	9421.4125
2634.95605	9401.9125
2637.61004	9371.0125
2640.26238	9370.5125
2642.91306	9349.9125
2645.56209	9352.0125
2648.20948	9351.1125
2650.85521	9336.2125
2653.4993	9312.6125
2656.14175	9344.1125
2658.78255	9327.0125
2661.42171	9310.0125
2664.05923	9345.0125
2666.6951	9342.2125
2669.32934	9342.4125
2671.96194	9317.5125
2674.59291	9320.0125
2677.22224	9315.2125
2679.84993	9308.6125
2682.476	9324.7125
2685.10043	9300.8125
2687.72324	9290.5125
2690.34441	9311.0125
2692.96396	9295.6125
2695.58188	9289.3125
2698.19818	9304.3125
2700.81285	9287.1125
2703.4259	9243.8125
2706.03733	9228.3125
2708.64714	9235.8125
2711.25533	9276.7125
2713.86191	9253.0125
2716.46687	9260.8125
2719.07021	9271.5125
2721.67194	9290.1125
2724.27206	9263.5125
2726.87057	9286.3125
2729.46747	9255.7125
2732.06276	9256.1125
2734.65644	9243.5125
2737.24852	9260.7125
2739.83899	9246.7125
2742.42786	9232.8125
2745.01513	9187.2125
2747.60079	9215.1125
2750.18486	9168.2125
2752.76733	9163.5125
2755.3482	9145.8125
2757.92747	9159.1125
2760.50515	9139.7125
2763.08123	9116.4125
2765.65573	9129.9125
2768.22863	9100.8125
2770.79994	9104.2125
2773.36967	9108.0125
2775.9378	9082.9125
2778.50435	9074.1125
2781.06932	9035.6125
2783.6327	9021.8125
2786.1945	9043.5125
2788.75471	9035.6125
2791.31335	8994.0125
2793.87041	8988.3125
2796.42589	8945.5125
2798.97979	8957.0125
2801.53212	8941.3125
2804.08288	8910.1125
2806.63206	8890.8125
2809.17967	8884.4125
2811.72571	8838.2125
2814.27018	8812.4125
2816.81308	8814.1125
2819.35442	8767.3125
2821.89419	8753.4125
2824.43239	8754.8125
2826.96904	8729.5125
2829.50412	8756.6125
2832.03763	8726.4125
2834.56959	8711.5125
2837.1	8725.6125
2839.62884	8717.3125
2842.15613	8694.9125
2844.68186	8725.4125
2847.20604	8696.4125
2849.72867	8680.0125
2852.24974	8690.6125
2854.76927	8674.8125
2857.28724	8653.2125
2859.80367	8643.0125
2862.31855	8612.2125
2864.83189	8595.1125
2867.34368	8610.1125
2869.85393	8606.8125
2872.36264	8583.2125
2874.8698	8605.2125
2877.37543	8551.6125
2879.87952	8581.1125
2882.38207	8577.3125
2884.88308	8563.5125
2887.38256	8575.3125
2889.88051	8582.3125
2892.37692	8568.9125
2894.8718	8551.1125
2897.36515	8582.7125
2899.85698	8581.6125
2902.34727	8580.7125
2904.83604	8590.2125
2907.32328	8594.2125
2909.809	8559.1125
2912.29319	8581.0125
2914.77587	8551.4125
2917.25702	8553.1125
2919.73665	8544.5125
2922.21476	8555.7125
2924.69136	8538.3125
2927.16644	8533.0125
2929.64	8524.2125
2932.11205	8499.2125
2934.58258	8477.2125
2937.05161	8507.4125
2939.51912	8493.1125
2941.98513	8495.8125
2944.44962	8468.3125
2946.91261	8454.1125
2949.37409	8439.1125
2951.83407	8444.7125
2954.29254	8417.4125
2956.74951	8408.1125
2959.20498	8415.1125
2961.65895	8374.8125
2964.11142	8393.4125
2966.56239	8385.7125
2969.01186	8368.1125
2971.45984	8327.0125
2973.90632	8334.5125
2976.35131	8325.5125
2978.7948	8307.3125
2981.23681	8261.3125
2983.67732	8279.9125
2986.11635	8245.9125
2988.55388	8209.8125
2990.98993	8184.0125
2993.4245	8167.7125
2995.85758	8165.8125
2998.28917	8143.2125
3000.71928	8116.0125
3003.14791	8092.4125
3005.57506	8079.7125
3008.00073	8059.3125
3010.42493	8059.3125
3012.84764	8033.8125
3015.26888	8045.9125
3017.68865	8017.9125
3020.10694	8010.4125
3022.52376	7980.9125
3024.9391	7987.9125
3027.35298	7987.8125
3029.76539	7961.5125
3032.17632	7946.7125
3034.5858	7918.1125
3036.9938	7910.7125
3039.40034	7914.2125
3041.80542	7901.8125
3044.20903	7888.1125
3046.61118	7885.9125
