Data from AgNPs_FTO_APTES_UA_1uM_CRN_10uM_R6G_50uM_NaF_0.1M_Addition_RamanShift__17__16-00-49-740.txt Node

Date: Thu Jan 27 16:00:49 GMT 2022
User: TCL
Spectrometer: QEP01345
Trigger mode: 4
Integration Time (sec): 7.000000E0
Scans to average: 10
Electric dark correction enabled: true
Nonlinearity correction enabled: false
Boxcar width: 0
XAxis mode: Raman Shifts
Number of Pixels in Spectrum: 1044
>>>>>Begin Spectral Data<<<<<
46.04893	1.9125
50.45542	0.3125
54.85868	0.0125
59.25871	-1.5875
63.6555	42.3125
68.04907	44.7125
72.43941	48.9125
76.82654	53.0125
81.21044	49.9125
85.59113	51.9125
89.96862	52.3125
94.34289	56.7125
98.71396	63.9125
103.08183	59.8125
107.4465	64.6125
111.80798	67.8125
116.16626	65.2125
120.52136	72.6125
124.87327	69.6125
129.222	72.0125
133.56755	71.5125
137.90993	77.2125
142.24913	86.3125
146.58517	93.4125
150.91804	107.8125
155.24774	124.8125
159.57429	149.5125
163.89768	186.4125
168.21792	247.2125
172.53501	330.4125
176.84895	449.9125
181.15975	635.4125
185.46741	893.8125
189.77193	1218.6125
194.07331	1631.6125
198.37157	2116.1125
202.6667	2610.2125
206.9587	3087.3125
211.24758	3574.8125
215.53334	4053.8125
219.81599	4553.7125
224.09553	5109.3125
228.37195	5707.2125
232.64527	6362.0125
236.91549	7103.9125
241.18261	7832.7125
245.44663	8508.6125
249.70755	9123.7125
253.96539	9686.5125
258.22014	10141.3125
262.4718	10533.7125
266.72039	10808.4125
270.96589	10972.7125
275.20832	11018.9125
279.44768	10980.6125
283.68397	10941.3125
287.91719	10863.7125
292.14735	10834.1125
296.37445	10843.1125
300.59849	10871.5125
304.81948	10868.8125
309.03742	10802.0125
313.25231	10679.7125
317.46415	10411.1125
321.67296	10107.8125
325.87872	9903.9125
330.08145	9769.1125
334.28114	9779.5125
338.47781	9832.2125
342.67145	9941.0125
346.86207	10083.5125
351.04966	10266.1125
355.23424	10431.5125
359.4158	10566.9125
363.59435	10685.3125
367.76989	10756.8125
371.94243	10841.2125
376.11196	10884.7125
380.27849	10949.4125
384.44203	11018.4125
388.60257	11141.6125
392.76012	11222.9125
396.91468	11352.9125
401.06626	11499.2125
405.21485	11605.8125
409.36047	11582.6125
413.50311	11430.4125
417.64277	11328.0125
421.77947	11306.3125
425.9132	11341.2125
430.04396	11402.4125
434.17176	11494.4125
438.2966	11584.6125
442.41849	11720.8125
446.53742	11981.3125
450.6534	12289.0125
454.76644	12506.0125
458.87653	12663.5125
462.98368	12663.9125
467.08789	12577.0125
471.18916	12463.5125
475.2875	12374.8125
479.38291	12370.1125
483.4754	12313.0125
487.56496	12145.9125
491.6516	11945.8125
495.73531	11770.7125
499.81612	11672.4125
503.89401	11715.2125
507.96899	11757.9125
512.04106	11755.8125
516.11023	11659.7125
520.1765	11553.5125
524.23987	11458.8125
528.30034	11338.5125
532.35792	11242.9125
536.41261	11157.6125
540.46441	11056.7125
544.51333	11069.8125
548.55936	11228.3125
552.60252	11470.4125
556.64279	11686.8125
560.6802	11868.1125
564.71473	11908.2125
568.7464	12052.5125
572.7752	12280.1125
576.80114	12499.0125
580.82422	12682.3125
584.84444	12830.8125
588.86181	12972.0125
592.87633	13123.1125
596.888	13210.2125
600.89682	13255.0125
604.9028	13558.4125
608.90594	14318.3125
612.90624	15039.1125
616.90371	14180.8125
620.89834	12358.0125
624.89015	11629.5125
628.87913	11623.5125
632.86528	11691.8125
636.84862	11613.4125
640.82913	11452.6125
644.80683	11215.9125
648.78172	10973.6125
652.75379	10873.8125
656.72306	10947.5125
660.68952	11080.2125
664.65319	11021.2125
668.61405	10902.8125
672.57211	10833.1125
676.52738	10853.2125
680.47986	10844.8125
684.42955	10831.8125
688.37646	10792.8125
692.32058	10826.5125
696.26192	10873.4125
700.20048	10982.5125
704.13626	11050.8125
708.06928	11038.1125
711.99952	11003.4125
715.927	10966.3125
719.85171	10965.4125
723.77365	10940.4125
727.69284	10859.8125
731.60928	10745.8125
735.52295	10717.9125
739.43388	10735.9125
743.34206	10748.7125
747.24749	10794.0125
751.15017	10890.7125
755.05012	11049.9125
758.94733	11333.1125
762.8418	11825.3125
766.73354	12575.8125
770.62254	13262.5125
774.50882	13368.7125
778.39237	12830.5125
782.27321	12013.7125
786.15132	11364.2125
790.02671	10978.6125
793.89938	10820.4125
797.76935	10754.5125
801.6366	10714.8125
805.50115	10695.1125
809.36299	10628.0125
813.22213	10558.4125
817.07857	10530.6125
820.93231	10539.4125
824.78336	10473.1125
828.63172	10440.9125
832.47738	10437.5125
836.32036	10440.2125
840.16066	10493.8125
843.99827	10548.7125
847.8332	10525.2125
851.66546	10442.8125
855.49504	10409.7125
859.32195	10445.3125
863.1462	10393.4125
866.96777	10360.7125
870.78668	10339.3125
874.60293	10324.9125
878.41652	10321.7125
882.22745	10337.7125
886.03573	10363.2125
889.84136	10400.0125
893.64433	10347.7125
897.44466	10289.3125
901.24235	10274.2125
905.0374	10217.7125
908.8298	10200.7125
912.61957	10198.4125
916.40671	10321.6125
920.19121	10454.3125
923.97308	10587.7125
927.75233	10553.9125
931.52895	10523.1125
935.30295	10427.1125
939.07433	10232.0125
942.84309	10090.3125
946.60924	10025.7125
950.37278	9978.7125
954.13371	9982.9125
957.89203	9928.3125
961.64774	9894.3125
965.40086	9895.5125
969.15137	9871.8125
972.89929	9799.1125
976.64461	9745.5125
980.38733	9738.0125
984.12747	9777.9125
987.86502	9856.4125
991.59999	9956.4125
995.33237	10149.0125
999.06217	10441.4125
1002.78939	10738.7125
1006.51404	10852.0125
1010.23611	10907.4125
1013.95561	10944.2125
1017.67255	10961.8125
1021.38692	10887.7125
1025.09872	10804.8125
1028.80796	10916.1125
1032.51465	11211.0125
1036.21877	11547.1125
1039.92035	11593.9125
1043.61937	11399.6125
1047.31584	11128.4125
1051.00976	10888.6125
1054.70114	10758.4125
1058.38998	10767.0125
1062.07627	10842.7125
1065.76003	10890.5125
1069.44126	10945.9125
1073.11995	11052.3125
1076.79611	11125.8125
1080.46974	11199.4125
1084.14085	11237.0125
1087.80943	11297.0125
1091.47549	11365.2125
1095.13903	11397.8125
1098.80005	11304.6125
1102.45857	11100.8125
1106.11456	10933.0125
1109.76805	10870.0125
1113.41903	10895.4125
1117.06751	10949.9125
1120.71348	11043.2125
1124.35696	11104.1125
1127.99793	11222.7125
1131.63641	11305.0125
1135.2724	11272.2125
1138.90589	11161.4125
1142.5369	11154.3125
1146.16542	11164.2125
1149.79145	11225.4125
1153.415	11323.2125
1157.03607	11482.2125
1160.65467	11724.5125
1164.27079	12118.5125
1167.88443	12738.4125
1171.49561	13457.4125
1175.10432	14333.8125
1178.71056	15441.2125
1182.31434	16487.2125
1185.91565	17091.8125
1189.51451	17147.9125
1193.11091	16754.8125
1196.70485	16136.2125
1200.29634	15514.5125
1203.88538	14975.5125
1207.47197	14604.0125
1211.05612	14334.0125
1214.63782	14077.9125
1218.21708	13852.8125
1221.79391	13693.7125
1225.36829	13579.6125
1228.94024	13401.8125
1232.50976	13158.0125
1236.07685	12941.1125
1239.6415	12822.7125
1243.20374	12795.6125
1246.76355	12876.4125
1250.32093	13026.0125
1253.8759	13273.9125
1257.42845	13601.4125
1260.97859	13938.3125
1264.52631	14227.8125
1268.07163	14568.4125
1271.61453	14976.6125
1275.15503	15439.1125
1278.69312	15962.7125
1282.22882	16412.6125
1285.76211	16770.8125
1289.29301	17167.5125
1292.82151	17696.9125
1296.34761	18473.3125
1299.87133	19448.0125
1303.39266	20587.9125
1306.9116	21800.8125
1310.42815	22913.8125
1313.94233	23595.3125
1317.45412	23557.7125
1320.96354	23137.5125
1324.47058	22737.7125
1327.97525	22373.8125
1331.47754	22057.3125
1334.97747	21921.6125
1338.47502	21895.0125
1341.97022	21819.2125
1345.46305	21689.9125
1348.95352	21409.9125
1352.44163	21081.4125
1355.92738	20999.8125
1359.41078	21425.6125
1362.89183	21868.4125
1366.37053	21491.3125
1369.84688	20014.5125
1373.32088	18253.5125
1376.79254	16999.0125
1380.26186	16486.1125
1383.72883	16439.4125
1387.19347	16542.9125
1390.65578	16526.7125
1394.11575	16528.8125
1397.57339	16720.9125
1401.0287	17060.0125
1404.48168	17349.1125
1407.93234	17329.4125
1411.38068	17000.3125
1414.82669	16472.6125
1418.27039	15780.9125
1421.71177	15093.9125
1425.15083	14569.4125
1428.58758	14215.8125
1432.02203	14200.4125
1435.45416	14431.5125
1438.88399	14852.6125
1442.31151	15231.8125
1445.73673	15543.3125
1449.15965	15794.2125
1452.58027	16057.3125
1455.9986	16141.3125
1459.41463	16285.9125
1462.82837	16503.9125
1466.23982	16746.8125
1469.64898	16999.5125
1473.05586	17094.0125
1476.46045	17070.3125
1479.86276	16953.1125
1483.26279	16697.8125
1486.66054	16469.8125
1490.05602	16396.5125
1493.44922	16442.2125
1496.84016	16532.6125
1500.22882	16713.2125
1503.61521	17116.0125
1506.99934	17638.5125
1510.38121	18134.5125
1513.76081	18332.9125
1517.13816	18082.7125
1520.51324	17608.1125
1523.88607	17144.5125
1527.25665	16876.1125
1530.62498	16761.0125
1533.99105	16695.8125
1537.35488	16660.3125
1540.71647	16488.1125
1544.07581	16208.3125
1547.4329	15893.8125
1550.78776	15584.2125
1554.14038	15392.0125
1557.49077	15295.5125
1560.83892	15235.8125
1564.18484	15194.0125
1567.52853	15201.1125
1570.86999	15286.0125
1574.20922	15523.2125
1577.54624	15712.6125
1580.88103	15825.8125
1584.2136	15891.6125
1587.54395	16255.9125
1590.87208	16843.2125
1594.19801	17718.9125
1597.52172	18655.1125
1600.84321	18985.1125
1604.16251	18271.9125
1607.47959	17057.3125
1610.79447	15764.1125
1614.10715	14538.6125
1617.41763	13484.6125
1620.7259	12725.1125
1624.03199	12292.9125
1627.33587	12203.5125
1630.63757	12491.4125
1633.93707	13159.5125
1637.23439	14227.1125
1640.52951	15743.2125
1643.82246	17367.0125
1647.11321	18664.7125
1650.40179	18919.1125
1653.68819	17881.5125
1656.97241	15929.2125
1660.25446	13885.1125
1663.53433	12293.7125
1666.81203	11258.5125
1670.08756	10555.0125
1673.36092	10128.6125
1676.63211	9836.8125
1679.90115	9624.1125
1683.16801	9482.3125
1686.43272	9373.5125
1689.69527	9271.9125
1692.95567	9181.5125
1696.2139	9118.0125
1699.46999	9076.0125
1702.72392	8991.8125
1705.97571	8997.2125
1709.22535	9019.3125
1712.47284	9012.0125
1715.71819	9011.8125
1718.96139	8984.9125
1722.20246	8970.6125
1725.44139	8907.0125
1728.67818	8894.8125
1731.91284	8839.3125
1735.14537	8798.8125
1738.37576	8754.3125
1741.60403	8735.1125
1744.83017	8692.2125
1748.05418	8685.6125
1751.27607	8650.0125
1754.49584	8638.5125
1757.71349	8627.8125
1760.92903	8590.8125
1764.14244	8579.5125
1767.35375	8580.4125
1770.56294	8541.3125
1773.77002	8520.5125
1776.97499	8534.4125
1780.17785	8539.6125
1783.37861	8537.1125
1786.57727	8517.0125
1789.77382	8528.2125
1792.96828	8495.6125
1796.16064	8466.7125
1799.3509	8461.4125
1802.53907	8465.8125
1805.72514	8427.7125
1808.90913	8418.5125
1812.09102	8400.9125
1815.27083	8362.8125
1818.44856	8371.2125
1821.6242	8348.8125
1824.79776	8325.6125
1827.96924	8338.6125
1831.13864	8324.0125
1834.30597	8340.1125
1837.47122	8307.5125
1840.6344	8291.2125
1843.7955	8309.5125
1846.95454	8308.9125
1850.11151	8303.4125
1853.26642	8304.1125
1856.41926	8292.6125
1859.57004	8306.1125
1862.71876	8301.3125
1865.86542	8278.2125
1869.01003	8272.1125
1872.15258	8267.1125
1875.29308	8277.0125
1878.43152	8242.8125
1881.56792	8264.5125
1884.70227	8242.4125
1887.83457	8238.7125
1890.96482	8219.9125
1894.09304	8207.4125
1897.21921	8208.1125
1900.34335	8181.3125
1903.46544	8184.8125
1906.58551	8168.4125
1909.70353	8183.6125
1912.81953	8151.0125
1915.93349	8156.2125
1919.04543	8152.7125
1922.15534	8120.5125
1925.26322	8104.1125
1928.36908	8084.5125
1931.47292	8080.7125
1934.57473	8056.6125
1937.67453	8053.8125
1940.77232	8031.4125
1943.86808	7982.0125
1946.96184	7943.9125
1950.05358	7941.5125
1953.14331	7912.2125
1956.23103	7888.6125
1959.31675	7869.8125
1962.40046	7854.7125
1965.48217	7843.7125
1968.56188	7788.1125
1971.63959	7786.7125
1974.7153	7776.2125
1977.78901	7779.5125
1980.86073	7717.2125
1983.93046	7693.5125
1986.99819	7682.7125
1990.06394	7644.7125
1993.1277	7645.9125
1996.18947	7601.1125
1999.24925	7574.3125
2002.30706	7566.4125
2005.36288	7526.4125
2008.41672	7536.2125
2011.46859	7498.8125
2014.51848	7467.6125
2017.56639	7470.9125
2020.61233	7469.0125
2023.6563	7432.9125
2026.6983	7415.4125
2029.73833	7405.3125
2032.7764	7407.3125
2035.8125	7391.5125
2038.84664	7376.1125
2041.87881	7361.3125
2044.90903	7350.3125
2047.93729	7339.0125
2050.96359	7333.6125
2053.98794	7320.8125
2057.01034	7318.3125
2060.03078	7335.2125
2063.04927	7314.1125
2066.06582	7317.6125
2069.08042	7308.7125
2072.09307	7304.1125
2075.10378	7277.1125
2078.11255	7277.4125
2081.11938	7306.6125
2084.12426	7279.7125
2087.12722	7276.1125
2090.12824	7273.3125
2093.12732	7266.9125
2096.12447	7263.1125
2099.11969	7267.7125
2102.11299	7280.2125
2105.10435	7272.3125
2108.09379	7283.3125
2111.08131	7273.8125
2114.0669	7277.5125
2117.05057	7294.7125
2120.03233	7281.4125
2123.01216	7287.9125
2125.99008	7307.2125
2128.96609	7319.0125
2131.94018	7329.7125
2134.91236	7331.6125
2137.88263	7346.2125
2140.851	7319.7125
2143.81746	7346.7125
2146.78201	7341.7125
2149.74466	7334.1125
2152.7054	7337.2125
2155.66425	7321.9125
2158.6212	7331.8125
2161.57625	7329.2125
2164.52941	7347.1125
2167.48067	7321.0125
2170.43004	7336.9125
2173.37752	7335.5125
2176.32311	7331.6125
2179.26681	7354.6125
2182.20863	7337.9125
2185.14856	7322.9125
2188.08661	7322.8125
2191.02278	7334.3125
2193.95707	7326.1125
2196.88948	7339.5125
2199.82001	7315.7125
2202.74867	7314.4125
2205.67545	7329.1125
2208.60037	7320.5125
2211.52341	7301.8125
2214.44458	7292.0125
2217.36388	7288.4125
2220.28132	7258.8125
2223.1969	7282.3125
2226.11061	7265.7125
2229.02246	7245.7125
2231.93245	7230.0125
2234.84058	7209.9125
2237.74686	7187.6125
2240.65128	7188.9125
2243.55385	7178.2125
2246.45456	7151.1125
2249.35343	7137.8125
2252.25044	7155.5125
2255.14561	7125.1125
2258.03893	7124.8125
2260.93041	7097.9125
2263.82004	7095.6125
2266.70783	7090.0125
2269.59378	7062.6125
2272.4779	7037.2125
2275.36017	7036.1125
2278.24061	7035.8125
2281.11922	7017.1125
2283.996	7013.3125
2286.87094	7016.2125
2289.74405	6991.9125
2292.61534	6971.0125
2295.4848	6971.2125
2298.35243	6974.5125
2301.21824	6987.2125
2304.08223	6993.7125
2306.94439	6979.7125
2309.80474	6988.9125
2312.66327	6998.4125
2315.51999	6986.0125
2318.37489	6994.5125
2321.22797	6970.6125
2324.07925	6957.8125
2326.92871	6951.0125
2329.77637	6937.3125
2332.62222	6947.0125
2335.46626	6934.6125
2338.3085	6931.0125
2341.14893	6932.3125
2343.98756	6940.2125
2346.8244	6941.6125
2349.65943	6935.7125
2352.49267	6940.8125
2355.32411	6947.6125
2358.15376	6942.8125
2360.98161	6946.4125
2363.80768	6920.4125
2366.63195	6923.8125
2369.45444	6916.2125
2372.27514	6878.2125
2375.09405	6897.6125
2377.91118	6854.3125
2380.72652	6851.9125
2383.54009	6825.1125
2386.35187	6840.2125
2389.16188	6796.6125
2391.97011	6796.0125
2394.77657	6782.9125
2397.58125	6772.1125
2400.38416	6766.0125
2403.18529	6770.4125
2405.98466	6757.0125
2408.78226	6751.5125
2411.57809	6724.9125
2414.37216	6712.8125
2417.16446	6711.6125
2419.955	6659.8125
2422.74378	6701.6125
2425.5308	6703.6125
2428.31606	6692.8125
2431.09956	6690.7125
2433.88131	6692.3125
2436.6613	6689.2125
2439.43954	6668.7125
2442.21603	6668.7125
2444.99077	6676.7125
2447.76377	6689.5125
2450.53501	6675.1125
2453.30451	6681.2125
2456.07226	6667.3125
2458.83827	6656.2125
2461.60254	6657.3125
2464.36507	6663.4125
2467.12586	6645.2125
2469.88492	6634.9125
2472.64224	6646.8125
2475.39782	6665.3125
2478.15167	6650.5125
2480.90379	6635.6125
2483.65417	6670.9125
2486.40283	6662.3125
2489.14976	6667.0125
2491.89497	6650.5125
2494.63845	6666.9125
2497.3802	6676.3125
2500.12024	6653.6125
2502.85855	6682.3125
2505.59514	6655.7125
2508.33002	6654.2125
2511.06318	6647.0125
2513.79462	6629.8125
2516.52435	6628.8125
2519.25237	6622.8125
2521.97867	6625.0125
2524.70327	6623.3125
2527.42616	6630.8125
2530.14734	6618.9125
2532.86681	6611.0125
2535.58458	6601.7125
2538.30065	6599.5125
2541.01501	6602.0125
2543.72768	6584.0125
2546.43864	6603.5125
2549.14791	6585.7125
2551.85548	6580.1125
2554.56136	6566.6125
2557.26554	6552.5125
2559.96803	6553.1125
2562.66883	6542.1125
2565.36794	6537.9125
2568.06536	6545.8125
2570.7611	6532.9125
2573.45514	6517.3125
2576.14751	6523.7125
2578.83819	6531.3125
2581.52719	6507.5125
2584.21451	6508.8125
2586.90015	6490.3125
2589.58411	6490.4125
2592.2664	6502.1125
2594.94701	6505.0125
2597.62594	6503.9125
2600.30321	6494.2125
2602.9788	6498.4125
2605.65273	6483.0125
2608.32498	6488.1125
2610.99557	6472.8125
2613.66449	6484.9125
2616.33175	6477.0125
2618.99734	6489.6125
2621.66128	6494.8125
2624.32355	6489.5125
2626.98416	6498.7125
2629.64311	6492.7125
2632.30041	6505.0125
2634.95605	6468.1125
2637.61004	6471.6125
2640.26238	6467.5125
2642.91306	6450.7125
2645.56209	6448.2125
2648.20948	6444.0125
2650.85521	6455.9125
2653.4993	6431.6125
2656.14175	6434.0125
2658.78255	6453.8125
2661.42171	6463.0125
2664.05923	6466.1125
2666.6951	6483.0125
2669.32934	6476.2125
2671.96194	6459.5125
2674.59291	6459.4125
2677.22224	6452.9125
2679.84993	6457.4125
2682.476	6431.6125
2685.10043	6435.3125
2687.72324	6439.0125
2690.34441	6433.0125
2692.96396	6437.1125
2695.58188	6434.9125
2698.19818	6419.6125
2700.81285	6437.6125
2703.4259	6441.1125
2706.03733	6449.2125
2708.64714	6394.2125
2711.25533	6443.4125
2713.86191	6414.2125
2716.46687	6441.6125
2719.07021	6445.5125
2721.67194	6448.0125
2724.27206	6458.2125
2726.87057	6453.8125
2729.46747	6471.7125
2732.06276	6472.2125
2734.65644	6467.4125
2737.24852	6471.5125
2739.83899	6466.7125
2742.42786	6452.2125
2745.01513	6451.6125
2747.60079	6442.0125
2750.18486	6461.6125
2752.76733	6445.4125
2755.3482	6447.2125
2757.92747	6450.1125
2760.50515	6442.1125
2763.08123	6438.9125
2765.65573	6453.6125
2768.22863	6442.6125
2770.79994	6451.9125
2773.36967	6424.6125
2775.9378	6442.8125
2778.50435	6433.7125
2781.06932	6426.1125
2783.6327	6408.3125
2786.1945	6436.6125
2788.75471	6429.4125
2791.31335	6424.5125
2793.87041	6400.1125
2796.42589	6387.9125
2798.97979	6388.2125
2801.53212	6376.4125
2804.08288	6376.4125
2806.63206	6355.3125
2809.17967	6347.9125
2811.72571	6328.5125
2814.27018	6331.5125
2816.81308	6325.6125
2819.35442	6322.2125
2821.89419	6319.9125
2824.43239	6303.8125
2826.96904	6308.1125
2829.50412	6301.1125
2832.03763	6286.5125
2834.56959	6281.3125
2837.1	6291.5125
2839.62884	6289.5125
2842.15613	6297.3125
2844.68186	6290.2125
2847.20604	6285.8125
2849.72867	6279.6125
2852.24974	6294.5125
2854.76927	6302.4125
2857.28724	6286.9125
2859.80367	6293.9125
2862.31855	6273.1125
2864.83189	6272.5125
2867.34368	6267.9125
2869.85393	6250.6125
2872.36264	6260.4125
2874.8698	6246.8125
2877.37543	6269.3125
2879.87952	6265.8125
2882.38207	6261.3125
2884.88308	6244.2125
2887.38256	6281.8125
2889.88051	6252.0125
2892.37692	6252.0125
2894.8718	6255.4125
2897.36515	6274.3125
2899.85698	6281.7125
2902.34727	6279.6125
2904.83604	6293.2125
2907.32328	6323.6125
2909.809	6325.6125
2912.29319	6314.5125
2914.77587	6308.1125
2917.25702	6326.2125
2919.73665	6306.9125
2922.21476	6320.1125
2924.69136	6319.1125
2927.16644	6308.4125
2929.64	6304.8125
2932.11205	6307.3125
2934.58258	6282.2125
2937.05161	6272.8125
2939.51912	6298.4125
2941.98513	6280.8125
2944.44962	6245.9125
2946.91261	6227.3125
2949.37409	6231.0125
2951.83407	6246.1125
2954.29254	6242.0125
2956.74951	6249.3125
2959.20498	6228.1125
2961.65895	6225.6125
2964.11142	6222.1125
2966.56239	6216.3125
2969.01186	6211.0125
2971.45984	6206.1125
2973.90632	6181.6125
2976.35131	6184.5125
2978.7948	6163.2125
2981.23681	6156.6125
2983.67732	6147.6125
2986.11635	6138.0125
2988.55388	6118.9125
2990.98993	6120.8125
2993.4245	6124.6125
2995.85758	6115.5125
2998.28917	6090.6125
3000.71928	6095.6125
3003.14791	6057.6125
3005.57506	6057.3125
3008.00073	6058.6125
3010.42493	6045.6125
3012.84764	6028.9125
3015.26888	6034.4125
3017.68865	6019.2125
3020.10694	6027.5125
3022.52376	6000.7125
3024.9391	6011.1125
3027.35298	5987.1125
3029.76539	6001.0125
3032.17632	5985.5125
3034.5858	5982.1125
3036.9938	5983.2125
3039.40034	5998.0125
3041.80542	5975.2125
3044.20903	5969.5125
3046.61118	5985.0125
3049.01187	5959.3125
3051.4111	5973.5125
3053.80888	5942.9125
3056.20519	5948.6125
3058.60005	5936.7125
3060.99345	5920.5125
3063.3854	5896.0125
3065.7759	5877.6125
3068.16494	5891.9125
3070.55254	5883.3125
3072.93868	5887.5125
3075.32338	5859.7125
3077.70662	5864.4125
3080.08842	5836.0125
3082.46878	5822.7125
3084.84769	5830.4125
