Data from AgNPs_FTO_APTES_UA_1uM_CRN_5uM_R6G_10uM_NaF_0.1M_Addition_RamanShift__4__13-40-49-579.txt Node

Date: Thu Jan 27 13:40:49 GMT 2022
User: TCL
Spectrometer: QEP01345
Trigger mode: 4
Integration Time (sec): 7.000000E0
Scans to average: 10
Electric dark correction enabled: true
Nonlinearity correction enabled: false
Boxcar width: 0
XAxis mode: Raman Shifts
Number of Pixels in Spectrum: 1044
>>>>>Begin Spectral Data<<<<<
46.04893	1.1375
50.45542	1.3375
54.85868	-1.1625
59.25871	-2.1625
63.6555	53.9375
68.04907	55.7375
72.43941	55.2375
76.82654	61.3375
81.21044	63.4375
85.59113	63.4375
89.96862	66.0375
94.34289	71.9375
98.71396	74.6375
103.08183	72.3375
107.4465	79.9375
111.80798	81.5375
116.16626	81.3375
120.52136	84.4375
124.87327	86.0375
129.222	85.0375
133.56755	91.7375
137.90993	95.4375
142.24913	105.3375
146.58517	117.6375
150.91804	136.1375
155.24774	158.4375
159.57429	190.6375
163.89768	243.3375
168.21792	317.5375
172.53501	429.5375
176.84895	590.4375
181.15975	819.6375
185.46741	1156.1375
189.77193	1577.5375
194.07331	2119.9375
198.37157	2742.5375
202.6667	3384.9375
206.9587	4017.4375
211.24758	4653.2375
215.53334	5280.4375
219.81599	5936.2375
224.09553	6667.6375
228.37195	7492.0375
232.64527	8389.0375
236.91549	9323.5375
241.18261	10284.6375
245.44663	11131.5375
249.70755	11926.9375
253.96539	12628.8375
258.22014	13240.0375
262.4718	13692.1375
266.72039	14011.2375
270.96589	14205.1375
275.20832	14196.6375
279.44768	14107.8375
283.68397	13939.6375
287.91719	13790.6375
292.14735	13714.0375
296.37445	13682.1375
300.59849	13740.9375
304.81948	13782.8375
309.03742	13806.4375
313.25231	13770.0375
317.46415	13573.5375
321.67296	13273.2375
325.87872	13072.6375
330.08145	12945.7375
334.28114	12955.0375
338.47781	13034.4375
342.67145	13167.3375
346.86207	13386.8375
351.04966	13650.4375
355.23424	13907.8375
359.4158	14158.7375
363.59435	14325.1375
367.76989	14459.4375
371.94243	14598.3375
376.11196	14696.5375
380.27849	14777.0375
384.44203	14837.7375
388.60257	14969.2375
392.76012	15091.7375
396.91468	15303.9375
401.06626	15505.5375
405.21485	15685.7375
409.36047	15645.6375
413.50311	15526.4375
417.64277	15436.3375
421.77947	15468.9375
425.9132	15555.8375
430.04396	15667.0375
434.17176	15728.4375
438.2966	15793.8375
442.41849	15966.9375
446.53742	16408.3375
450.6534	16874.2375
454.76644	17203.3375
458.87653	17277.9375
462.98368	17157.6375
467.08789	16920.1375
471.18916	16600.5375
475.2875	16295.1375
479.38291	16046.1375
483.4754	15915.4375
487.56496	15788.4375
491.6516	15627.6375
495.73531	15521.2375
499.81612	15515.9375
503.89401	15660.8375
507.96899	15710.4375
512.04106	15677.0375
516.11023	15607.4375
520.1765	15456.8375
524.23987	15381.0375
528.30034	15300.1375
532.35792	15217.4375
536.41261	14991.2375
540.46441	14818.4375
544.51333	14753.4375
548.55936	14876.4375
552.60252	15147.0375
556.64279	15470.0375
560.6802	15735.8375
564.71473	15771.7375
568.7464	15889.8375
572.7752	16163.7375
576.80114	16545.4375
580.82422	16973.7375
584.84444	17653.8375
588.86181	18402.2375
592.87633	19066.2375
596.888	19017.2375
600.89682	18356.4375
604.9028	18260.0375
608.90594	19414.6375
612.90624	20853.8375
616.90371	19881.8375
620.89834	17084.1375
624.89015	15813.7375
628.87913	15610.2375
632.86528	15581.0375
636.84862	15432.6375
640.82913	15159.7375
644.80683	14852.8375
648.78172	14627.7375
652.75379	14635.1375
656.72306	14848.3375
660.68952	15059.3375
664.65319	14984.1375
668.61405	14730.8375
672.57211	14705.4375
676.52738	14774.7375
680.47986	14719.2375
684.42955	14649.5375
688.37646	14584.0375
692.32058	14698.2375
696.26192	14917.6375
700.20048	15182.7375
704.13626	15271.0375
708.06928	15174.8375
711.99952	15050.4375
715.927	15055.8375
719.85171	15143.8375
723.77365	15129.6375
727.69284	14928.4375
731.60928	14720.4375
735.52295	14627.8375
739.43388	14645.7375
743.34206	14712.5375
747.24749	14793.1375
751.15017	14908.4375
755.05012	15149.1375
758.94733	15489.7375
762.8418	16106.0375
766.73354	17014.7375
770.62254	17937.0375
774.50882	18188.5375
778.39237	17533.3375
782.27321	16568.0375
786.15132	15691.4375
790.02671	15207.3375
793.89938	14987.8375
797.76935	14898.5375
801.6366	14861.1375
805.50115	14838.8375
809.36299	14736.8375
813.22213	14629.2375
817.07857	14542.2375
820.93231	14506.0375
824.78336	14466.8375
828.63172	14432.2375
832.47738	14475.6375
836.32036	14563.4375
840.16066	14619.6375
843.99827	14719.2375
847.8332	14654.9375
851.66546	14550.3375
855.49504	14498.1375
859.32195	14504.7375
863.1462	14471.9375
866.96777	14402.8375
870.78668	14376.0375
874.60293	14351.3375
878.41652	14383.4375
882.22745	14453.1375
886.03573	14495.1375
889.84136	14506.0375
893.64433	14421.4375
897.44466	14337.5375
901.24235	14274.4375
905.0374	14222.6375
908.8298	14220.2375
912.61957	14223.7375
916.40671	14380.7375
920.19121	14570.7375
923.97308	14803.2375
927.75233	14928.9375
931.52895	14883.6375
935.30295	14717.3375
939.07433	14483.4375
942.84309	14308.4375
946.60924	14257.8375
950.37278	14225.0375
954.13371	14207.1375
957.89203	14078.2375
961.64774	14041.8375
965.40086	14024.1375
969.15137	14013.1375
972.89929	13972.8375
976.64461	13987.9375
980.38733	14038.0375
984.12747	14107.5375
987.86502	14266.8375
991.59999	14461.7375
995.33237	14781.8375
999.06217	15303.9375
1002.78939	15867.1375
1006.51404	16210.3375
1010.23611	16370.4375
1013.95561	16480.9375
1017.67255	16407.5375
1021.38692	16185.6375
1025.09872	16061.8375
1028.80796	16268.7375
1032.51465	17008.9375
1036.21877	17694.9375
1039.92035	17920.4375
1043.61937	17661.1375
1047.31584	17009.5375
1051.00976	16353.6375
1054.70114	15914.7375
1058.38998	15742.6375
1062.07627	15680.5375
1065.76003	15672.8375
1069.44126	15753.9375
1073.11995	15991.8375
1076.79611	16213.7375
1080.46974	16351.8375
1084.14085	16497.3375
1087.80943	16594.0375
1091.47549	16697.2375
1095.13903	16636.7375
1098.80005	16440.5375
1102.45857	16086.1375
1106.11456	15887.4375
1109.76805	15802.9375
1113.41903	15808.9375
1117.06751	15849.3375
1120.71348	15892.1375
1124.35696	16012.1375
1127.99793	16205.3375
1131.63641	16299.3375
1135.2724	16250.6375
1138.90589	16175.0375
1142.5369	16157.6375
1146.16542	16198.4375
1149.79145	16244.2375
1153.415	16305.0375
1157.03607	16459.7375
1160.65467	16891.5375
1164.27079	17570.0375
1167.88443	18474.5375
1171.49561	19403.6375
1175.10432	20585.4375
1178.71056	22140.3375
1182.31434	23704.3375
1185.91565	24549.6375
1189.51451	24447.0375
1193.11091	23752.5375
1196.70485	22866.7375
1200.29634	22023.4375
1203.88538	21509.9375
1207.47197	21163.5375
1211.05612	20778.0375
1214.63782	20419.5375
1218.21708	20004.3375
1221.79391	19712.1375
1225.36829	19492.8375
1228.94024	19230.7375
1232.50976	18824.1375
1236.07685	18516.2375
1239.6415	18333.8375
1243.20374	18348.5375
1246.76355	18569.8375
1250.32093	18918.1375
1253.8759	19368.5375
1257.42845	19868.1375
1260.97859	20467.8375
1264.52631	21098.1375
1268.07163	21740.8375
1271.61453	22455.7375
1275.15503	23179.9375
1278.69312	23892.9375
1282.22882	24414.8375
1285.76211	24953.3375
1289.29301	25553.3375
1292.82151	26438.2375
1296.34761	27696.8375
1299.87133	29369.9375
1303.39266	31397.1375
1306.9116	33308.8375
1310.42815	34731.2375
1313.94233	35153.7375
1317.45412	34475.0375
1320.96354	33319.2375
1324.47058	32259.1375
1327.97525	31501.8375
1331.47754	30966.4375
1334.97747	30574.2375
1338.47502	30214.0375
1341.97022	29683.9375
1345.46305	29078.8375
1348.95352	28754.7375
1352.44163	29068.3375
1355.92738	30191.2375
1359.41078	32021.9375
1362.89183	33343.0375
1366.37053	32928.9375
1369.84688	30384.1375
1373.32088	27116.4375
1376.79254	24708.1375
1380.26186	23785.8375
1383.72883	23679.8375
1387.19347	23635.4375
1390.65578	23305.1375
1394.11575	23030.4375
1397.57339	23172.0375
1401.0287	23500.7375
1404.48168	23813.8375
1407.93234	23922.2375
1411.38068	23729.5375
1414.82669	23218.6375
1418.27039	22583.4375
1421.71177	21832.6375
1425.15083	21187.3375
1428.58758	20898.2375
1432.02203	21031.9375
1435.45416	21634.5375
1438.88399	22244.7375
1442.31151	22644.4375
1445.73673	22913.2375
1449.15965	22990.1375
1452.58027	22856.8375
1455.9986	22666.0375
1459.41463	22660.0375
1462.82837	22897.2375
1466.23982	23383.7375
1469.64898	23902.5375
1473.05586	24305.3375
1476.46045	24541.3375
1479.86276	24470.9375
1483.26279	24248.3375
1486.66054	24103.9375
1490.05602	24103.2375
1493.44922	24316.3375
1496.84016	24424.3375
1500.22882	24557.1375
1503.61521	24973.9375
1506.99934	25552.6375
1510.38121	26084.5375
1513.76081	26220.0375
1517.13816	25717.2375
1520.51324	24932.2375
1523.88607	24302.3375
1527.25665	23979.9375
1530.62498	23931.8375
1533.99105	23923.8375
1537.35488	23700.9375
1540.71647	23373.2375
1544.07581	22976.4375
1547.4329	22528.5375
1550.78776	22069.1375
1554.14038	21817.9375
1557.49077	21605.9375
1560.83892	21390.0375
1564.18484	21240.2375
1567.52853	21179.9375
1570.86999	21313.6375
1574.20922	21620.5375
1577.54624	21891.4375
1580.88103	22034.4375
1584.2136	22353.2375
1587.54395	23172.9375
1590.87208	24570.0375
1594.19801	26330.4375
1597.52172	27979.9375
1600.84321	28424.7375
1604.16251	27164.8375
1607.47959	24870.1375
1610.79447	22453.2375
1614.10715	20428.8375
1617.41763	18907.4375
1620.7259	17983.4375
1624.03199	17570.9375
1627.33587	17696.5375
1630.63757	18238.0375
1633.93707	19281.3375
1637.23439	20887.4375
1640.52951	23255.1375
1643.82246	26031.4375
1647.11321	28170.6375
1650.40179	28341.3375
1653.68819	26177.7375
1656.97241	22687.2375
1660.25446	19586.2375
1663.53433	17393.6375
1666.81203	16049.9375
1670.08756	15246.8375
1673.36092	14739.0375
1676.63211	14402.7375
1679.90115	14161.6375
1683.16801	13954.1375
1686.43272	13855.3375
1689.69527	13737.8375
1692.95567	13625.2375
1696.2139	13583.3375
1699.46999	13524.2375
1702.72392	13464.6375
1705.97571	13461.5375
1709.22535	13482.1375
1712.47284	13474.9375
1715.71819	13473.5375
1718.96139	13452.4375
1722.20246	13421.4375
1725.44139	13391.5375
1728.67818	13323.5375
1731.91284	13260.8375
1735.14537	13218.4375
1738.37576	13145.1375
1741.60403	13113.3375
1744.83017	13042.4375
1748.05418	13050.6375
1751.27607	12978.7375
1754.49584	12948.5375
1757.71349	12960.2375
1760.92903	12934.0375
1764.14244	12891.6375
1767.35375	12917.7375
1770.56294	12910.5375
1773.77002	12879.0375
1776.97499	12909.9375
1780.17785	12906.5375
1783.37861	12874.9375
1786.57727	12875.6375
1789.77382	12856.4375
1792.96828	12866.3375
1796.16064	12836.2375
1799.3509	12817.9375
1802.53907	12771.9375
1805.72514	12762.2375
1808.90913	12733.9375
1812.09102	12729.8375
1815.27083	12709.2375
1818.44856	12706.8375
1821.6242	12678.9375
1824.79776	12655.2375
1827.96924	12655.1375
1831.13864	12637.7375
1834.30597	12656.9375
1837.47122	12658.3375
1840.6344	12659.9375
1843.7955	12656.0375
1846.95454	12638.5375
1850.11151	12654.5375
1853.26642	12638.2375
1856.41926	12668.1375
1859.57004	12671.1375
1862.71876	12670.8375
1865.86542	12682.1375
1869.01003	12628.3375
1872.15258	12628.5375
1875.29308	12593.0375
1878.43152	12605.4375
1881.56792	12585.7375
1884.70227	12579.6375
1887.83457	12571.5375
1890.96482	12564.0375
1894.09304	12556.9375
1897.21921	12531.3375
1900.34335	12535.6375
1903.46544	12509.3375
1906.58551	12525.5375
1909.70353	12503.7375
1912.81953	12485.7375
1915.93349	12471.4375
1919.04543	12413.7375
1922.15534	12427.1375
1925.26322	12418.0375
1928.36908	12393.2375
1931.47292	12357.1375
1934.57473	12324.7375
1937.67453	12314.5375
1940.77232	12278.0375
1943.86808	12222.6375
1946.96184	12182.4375
1950.05358	12190.7375
1953.14331	12145.1375
1956.23103	12090.1375
1959.31675	12075.7375
1962.40046	12074.4375
1965.48217	12061.9375
1968.56188	12018.8375
1971.63959	11981.8375
1974.7153	11925.4375
1977.78901	11922.9375
1980.86073	11870.7375
1983.93046	11858.2375
1986.99819	11837.0375
1990.06394	11781.3375
1993.1277	11760.7375
1996.18947	11710.6375
1999.24925	11674.9375
2002.30706	11658.8375
2005.36288	11629.0375
2008.41672	11603.8375
2011.46859	11583.2375
2014.51848	11567.1375
2017.56639	11554.4375
2020.61233	11533.7375
2023.6563	11528.3375
2026.6983	11488.5375
2029.73833	11466.2375
2032.7764	11435.7375
2035.8125	11431.3375
2038.84664	11436.4375
2041.87881	11427.8375
2044.90903	11401.8375
2047.93729	11375.8375
2050.96359	11369.0375
2053.98794	11373.8375
2057.01034	11365.5375
2060.03078	11356.9375
2063.04927	11341.4375
2066.06582	11361.1375
2069.08042	11368.1375
2072.09307	11350.6375
2075.10378	11333.0375
2078.11255	11321.4375
2081.11938	11296.5375
2084.12426	11313.4375
2087.12722	11287.3375
2090.12824	11317.1375
2093.12732	11317.5375
2096.12447	11304.2375
2099.11969	11317.6375
2102.11299	11313.2375
2105.10435	11337.5375
2108.09379	11346.1375
2111.08131	11364.6375
2114.0669	11362.8375
2117.05057	11392.6375
2120.03233	11368.9375
2123.01216	11363.2375
2125.99008	11408.5375
2128.96609	11429.4375
2131.94018	11442.4375
2134.91236	11431.4375
2137.88263	11425.2375
2140.851	11458.8375
2143.81746	11473.1375
2146.78201	11474.1375
2149.74466	11465.3375
2152.7054	11472.9375
2155.66425	11480.5375
2158.6212	11503.0375
2161.57625	11484.4375
2164.52941	11497.7375
2167.48067	11487.9375
2170.43004	11483.4375
2173.37752	11502.1375
2176.32311	11454.2375
2179.26681	11482.3375
2182.20863	11480.4375
2185.14856	11497.3375
2188.08661	11533.6375
2191.02278	11535.8375
2193.95707	11536.8375
2196.88948	11512.0375
2199.82001	11517.8375
2202.74867	11534.5375
2205.67545	11531.0375
2208.60037	11514.3375
2211.52341	11496.7375
2214.44458	11513.4375
2217.36388	11489.0375
2220.28132	11463.1375
2223.1969	11463.1375
2226.11061	11451.4375
2229.02246	11439.1375
2231.93245	11447.0375
2234.84058	11397.2375
2237.74686	11366.1375
2240.65128	11369.7375
2243.55385	11373.6375
2246.45456	11335.6375
2249.35343	11307.2375
2252.25044	11313.2375
2255.14561	11295.6375
2258.03893	11276.0375
2260.93041	11248.4375
2263.82004	11255.0375
2266.70783	11257.3375
2269.59378	11214.7375
2272.4779	11183.5375
2275.36017	11173.4375
2278.24061	11160.5375
2281.11922	11186.5375
2283.996	11179.0375
2286.87094	11154.9375
2289.74405	11124.5375
2292.61534	11129.0375
2295.4848	11133.5375
2298.35243	11154.2375
2301.21824	11151.5375
2304.08223	11165.0375
2306.94439	11153.7375
2309.80474	11178.6375
2312.66327	11191.6375
2315.51999	11174.8375
2318.37489	11201.3375
2321.22797	11161.1375
2324.07925	11172.9375
2326.92871	11156.4375
2329.77637	11168.6375
2332.62222	11143.2375
2335.46626	11129.5375
2338.3085	11115.3375
2341.14893	11154.3375
2343.98756	11164.5375
2346.8244	11145.7375
2349.65943	11138.6375
2352.49267	11157.2375
2355.32411	11128.3375
2358.15376	11129.1375
2360.98161	11105.0375
2363.80768	11111.5375
2366.63195	11098.9375
2369.45444	11065.6375
2372.27514	11027.3375
2375.09405	11040.2375
2377.91118	11038.2375
2380.72652	10998.5375
2383.54009	10985.2375
2386.35187	10997.3375
2389.16188	10963.0375
2391.97011	10954.0375
2394.77657	10938.0375
2397.58125	10917.7375
2400.38416	10927.4375
2403.18529	10890.6375
2405.98466	10881.4375
2408.78226	10873.8375
2411.57809	10859.0375
2414.37216	10851.4375
2417.16446	10844.6375
2419.955	10846.4375
2422.74378	10851.4375
2425.5308	10825.8375
2428.31606	10803.2375
2431.09956	10808.6375
2433.88131	10803.2375
2436.6613	10813.6375
2439.43954	10803.6375
2442.21603	10827.8375
2444.99077	10779.1375
2447.76377	10816.5375
2450.53501	10799.0375
2453.30451	10803.4375
2456.07226	10791.9375
2458.83827	10781.7375
2461.60254	10804.6375
2464.36507	10798.9375
2467.12586	10782.8375
2469.88492	10780.5375
2472.64224	10816.2375
2475.39782	10829.3375
2478.15167	10827.5375
2480.90379	10811.8375
2483.65417	10836.1375
2486.40283	10838.9375
2489.14976	10859.1375
2491.89497	10859.1375
2494.63845	10874.7375
2497.3802	10834.9375
2500.12024	10865.6375
2502.85855	10837.9375
2505.59514	10854.1375
2508.33002	10829.0375
2511.06318	10838.8375
2513.79462	10815.4375
2516.52435	10821.4375
2519.25237	10799.0375
2521.97867	10811.9375
2524.70327	10825.7375
2527.42616	10810.3375
2530.14734	10781.4375
2532.86681	10792.6375
2535.58458	10794.2375
2538.30065	10792.9375
2541.01501	10794.3375
2543.72768	10779.0375
2546.43864	10769.1375
2549.14791	10770.7375
2551.85548	10777.7375
2554.56136	10769.5375
2557.26554	10743.2375
2559.96803	10745.9375
2562.66883	10745.5375
2565.36794	10763.4375
2568.06536	10757.4375
2570.7611	10738.9375
2573.45514	10736.6375
2576.14751	10736.7375
2578.83819	10751.5375
2581.52719	10728.1375
2584.21451	10738.9375
2586.90015	10710.1375
2589.58411	10703.1375
2592.2664	10709.3375
2594.94701	10711.0375
2597.62594	10678.7375
2600.30321	10707.1375
2602.9788	10685.7375
2605.65273	10688.5375
2608.32498	10667.2375
2610.99557	10676.3375
2613.66449	10707.7375
2616.33175	10678.9375
2618.99734	10707.5375
2621.66128	10700.8375
2624.32355	10698.5375
2626.98416	10673.4375
2629.64311	10660.9375
2632.30041	10687.7375
2634.95605	10672.4375
2637.61004	10633.0375
2640.26238	10626.1375
2642.91306	10623.0375
2645.56209	10630.3375
2648.20948	10627.9375
2650.85521	10623.1375
2653.4993	10621.5375
2656.14175	10626.1375
2658.78255	10629.2375
2661.42171	10648.8375
2664.05923	10660.1375
2666.6951	10650.6375
2669.32934	10695.0375
2671.96194	10650.0375
2674.59291	10689.4375
2677.22224	10689.4375
2679.84993	10670.8375
2682.476	10663.5375
2685.10043	10650.4375
2687.72324	10629.0375
2690.34441	10620.5375
2692.96396	10626.8375
2695.58188	10647.7375
2698.19818	10625.6375
2700.81285	10622.4375
2703.4259	10634.0375
2706.03733	10637.4375
2708.64714	10606.4375
2711.25533	10650.8375
2713.86191	10642.8375
2716.46687	10678.6375
2719.07021	10689.9375
2721.67194	10692.2375
2724.27206	10703.1375
2726.87057	10719.7375
2729.46747	10724.3375
2732.06276	10754.8375
2734.65644	10730.6375
2737.24852	10744.8375
2739.83899	10724.1375
2742.42786	10735.5375
2745.01513	10725.5375
2747.60079	10710.2375
2750.18486	10709.3375
2752.76733	10711.0375
2755.3482	10705.3375
2757.92747	10722.3375
2760.50515	10691.7375
2763.08123	10702.4375
2765.65573	10687.2375
2768.22863	10695.0375
2770.79994	10706.2375
2773.36967	10715.3375
2775.9378	10694.7375
2778.50435	10699.7375
2781.06932	10674.2375
2783.6327	10697.1375
2786.1945	10697.5375
2788.75471	10685.6375
2791.31335	10643.0375
2793.87041	10655.7375
2796.42589	10621.5375
2798.97979	10646.4375
2801.53212	10631.3375
2804.08288	10600.0375
2806.63206	10553.7375
2809.17967	10530.2375
2811.72571	10539.6375
2814.27018	10516.0375
2816.81308	10522.1375
2819.35442	10521.3375
2821.89419	10522.8375
2824.43239	10494.9375
2826.96904	10488.7375
2829.50412	10485.8375
2832.03763	10476.5375
2834.56959	10500.5375
2837.1	10461.6375
2839.62884	10478.7375
2842.15613	10437.7375
2844.68186	10485.8375
2847.20604	10517.8375
2849.72867	10521.9375
2852.24974	10507.3375
2854.76927	10494.0375
2857.28724	10523.7375
2859.80367	10494.3375
2862.31855	10466.1375
2864.83189	10484.3375
2867.34368	10471.3375
2869.85393	10456.5375
2872.36264	10453.0375
2874.8698	10432.9375
2877.37543	10461.9375
2879.87952	10473.4375
2882.38207	10460.7375
2884.88308	10453.9375
2887.38256	10489.7375
2889.88051	10474.0375
2892.37692	10475.6375
2894.8718	10477.5375
2897.36515	10487.0375
2899.85698	10505.5375
2902.34727	10546.2375
2904.83604	10554.1375
2907.32328	10557.5375
2909.809	10552.7375
2912.29319	10563.8375
2914.77587	10560.3375
2917.25702	10560.8375
2919.73665	10536.3375
2922.21476	10545.4375
2924.69136	10534.1375
2927.16644	10539.3375
2929.64	10544.6375
2932.11205	10548.7375
2934.58258	10509.7375
2937.05161	10515.3375
2939.51912	10519.2375
2941.98513	10498.0375
2944.44962	10469.3375
2946.91261	10437.9375
2949.37409	10456.2375
2951.83407	10445.6375
2954.29254	10474.2375
2956.74951	10450.8375
2959.20498	10453.4375
2961.65895	10455.6375
2964.11142	10415.0375
2966.56239	10425.7375
2969.01186	10395.5375
2971.45984	10394.9375
2973.90632	10364.6375
2976.35131	10385.9375
2978.7948	10360.8375
2981.23681	10342.7375
2983.67732	10309.2375
2986.11635	10291.0375
2988.55388	10263.3375
2990.98993	10258.6375
2993.4245	10246.9375
2995.85758	10222.9375
2998.28917	10210.8375
3000.71928	10200.8375
3003.14791	10189.6375
3005.57506	10182.2375
3008.00073	10135.9375
3010.42493	10162.6375
3012.84764	10147.7375
3015.26888	10155.2375
3017.68865	10112.9375
3020.10694	10110.6375
3022.52376	10098.1375
3024.9391	10072.9375
