Data from AgNPs_FTO_APTES_UA_1uM_CRN_5uM_R6G_10uM_NaF_0.1M_Addition_RamanShift__20__13-59-29-601.txt Node

Date: Thu Jan 27 13:59:29 GMT 2022
User: TCL
Spectrometer: QEP01345
Trigger mode: 4
Integration Time (sec): 7.000000E0
Scans to average: 10
Electric dark correction enabled: true
Nonlinearity correction enabled: false
Boxcar width: 0
XAxis mode: Raman Shifts
Number of Pixels in Spectrum: 1044
>>>>>Begin Spectral Data<<<<<
46.04893	2.225
50.45542	0.425
54.85868	-2.175
59.25871	-1.575
63.6555	54.725
68.04907	58.125
72.43941	58.925
76.82654	60.725
81.21044	63.825
85.59113	67.525
89.96862	65.625
94.34289	72.025
98.71396	76.725
103.08183	73.825
107.4465	76.625
111.80798	81.825
116.16626	80.625
120.52136	85.425
124.87327	88.525
129.222	85.325
133.56755	94.225
137.90993	101.025
142.24913	108.625
146.58517	119.625
150.91804	134.725
155.24774	163.725
159.57429	198.425
163.89768	246.025
168.21792	325.825
172.53501	447.125
176.84895	613.125
181.15975	863.825
185.46741	1206.425
189.77193	1658.525
194.07331	2213.625
198.37157	2862.125
202.6667	3532.225
206.9587	4206.525
211.24758	4849.825
215.53334	5517.425
219.81599	6215.025
224.09553	7004.325
228.37195	7879.925
232.64527	8847.225
236.91549	9872.925
241.18261	10872.425
245.44663	11809.625
249.70755	12655.325
253.96539	13346.325
258.22014	13993.225
262.4718	14528.625
266.72039	14892.025
270.96589	15142.925
275.20832	15189.125
279.44768	15141.125
283.68397	15029.825
287.91719	14915.925
292.14735	14853.725
296.37445	14872.425
300.59849	15005.925
304.81948	15132.125
309.03742	15130.925
313.25231	14970.625
317.46415	14538.025
321.67296	14019.725
325.87872	13584.925
330.08145	13386.825
334.28114	13387.125
338.47781	13506.225
342.67145	13715.825
346.86207	13991.825
351.04966	14398.925
355.23424	14799.025
359.4158	15150.825
363.59435	15387.625
367.76989	15563.725
371.94243	15643.525
376.11196	15741.525
380.27849	15788.125
384.44203	15842.325
388.60257	15892.925
392.76012	16002.025
396.91468	16200.325
401.06626	16478.525
405.21485	16714.025
409.36047	16674.425
413.50311	16367.525
417.64277	16075.825
421.77947	16000.925
425.9132	16003.625
430.04396	16100.325
434.17176	16194.525
438.2966	16353.025
442.41849	16584.125
446.53742	16997.225
450.6534	17492.525
454.76644	17840.925
458.87653	18033.425
462.98368	17973.925
467.08789	17761.025
471.18916	17475.425
475.2875	17172.625
479.38291	16975.725
483.4754	16820.125
487.56496	16679.425
491.6516	16447.725
495.73531	16281.225
499.81612	16171.325
503.89401	16283.525
507.96899	16321.625
512.04106	16309.925
516.11023	16332.625
520.1765	16283.725
524.23987	16159.125
528.30034	15983.425
532.35792	15828.425
536.41261	15630.625
540.46441	15459.925
544.51333	15423.425
548.55936	15597.725
552.60252	15911.125
556.64279	16231.425
560.6802	16381.725
564.71473	16470.725
568.7464	16679.225
572.7752	17010.125
576.80114	17132.625
580.82422	17248.525
584.84444	17414.425
588.86181	17559.225
592.87633	17737.425
596.888	17954.425
600.89682	18186.825
604.9028	18967.825
608.90594	21052.325
612.90624	23489.225
616.90371	22454.525
620.89834	18582.825
624.89015	16836.625
628.87913	16633.325
632.86528	16587.425
636.84862	16403.625
640.82913	16092.225
644.80683	15693.725
648.78172	15351.725
652.75379	15272.125
656.72306	15492.925
660.68952	15823.925
664.65319	15827.325
668.61405	15531.525
672.57211	15360.925
676.52738	15348.625
680.47986	15330.525
684.42955	15337.025
688.37646	15295.525
692.32058	15353.225
696.26192	15490.425
700.20048	15661.025
704.13626	15741.325
708.06928	15644.125
711.99952	15548.325
715.927	15487.925
719.85171	15483.525
723.77365	15446.425
727.69284	15327.225
731.60928	15202.925
735.52295	15154.325
739.43388	15204.925
743.34206	15269.825
747.24749	15370.625
751.15017	15495.925
755.05012	15746.325
758.94733	16230.825
762.8418	17060.525
766.73354	18414.325
770.62254	19851.725
774.50882	20334.925
778.39237	19473.825
782.27321	17923.425
786.15132	16614.925
790.02671	15870.525
793.89938	15514.925
797.76935	15413.925
801.6366	15348.225
805.50115	15306.225
809.36299	15229.225
813.22213	15140.025
817.07857	15087.525
820.93231	15062.025
824.78336	15054.725
828.63172	15088.925
832.47738	15109.825
836.32036	15178.325
840.16066	15230.325
843.99827	15290.625
847.8332	15281.925
851.66546	15182.225
855.49504	15136.125
859.32195	15071.025
863.1462	15027.825
866.96777	14947.725
870.78668	14896.125
874.60293	14883.225
878.41652	14887.625
882.22745	14940.225
886.03573	14993.525
889.84136	14976.625
893.64433	14930.825
897.44466	14848.525
901.24235	14820.025
905.0374	14779.925
908.8298	14742.825
912.61957	14777.625
916.40671	14919.825
920.19121	15124.525
923.97308	15321.625
927.75233	15435.425
931.52895	15469.425
935.30295	15328.625
939.07433	15034.825
942.84309	14800.325
946.60924	14679.925
950.37278	14635.825
954.13371	14539.325
957.89203	14432.125
961.64774	14366.225
965.40086	14299.625
969.15137	14270.125
972.89929	14175.925
976.64461	14146.825
980.38733	14150.125
984.12747	14282.125
987.86502	14443.925
991.59999	14666.925
995.33237	15071.525
999.06217	15637.325
1002.78939	16266.625
1006.51404	16623.525
1010.23611	16733.825
1013.95561	16881.025
1017.67255	16864.225
1021.38692	16699.725
1025.09872	16653.925
1028.80796	16946.925
1032.51465	17696.825
1036.21877	18345.425
1039.92035	18446.325
1043.61937	18001.825
1047.31584	17320.125
1051.00976	16590.525
1054.70114	16170.625
1058.38998	16033.925
1062.07627	16074.225
1065.76003	16066.125
1069.44126	16128.125
1073.11995	16285.725
1076.79611	16397.025
1080.46974	16511.625
1084.14085	16632.725
1087.80943	16814.725
1091.47549	16891.425
1095.13903	16834.225
1098.80005	16545.025
1102.45857	16218.125
1106.11456	16030.225
1109.76805	16051.925
1113.41903	16135.625
1117.06751	16319.225
1120.71348	16558.025
1124.35696	16763.825
1127.99793	16957.525
1131.63641	17086.325
1135.2724	16865.225
1138.90589	16617.825
1142.5369	16447.825
1146.16542	16346.025
1149.79145	16283.625
1153.415	16339.025
1157.03607	16508.625
1160.65467	16816.025
1164.27079	17354.225
1167.88443	18132.625
1171.49561	19256.425
1175.10432	20789.225
1178.71056	22816.325
1182.31434	24639.525
1185.91565	25682.425
1189.51451	25763.625
1193.11091	24941.625
1196.70485	23600.825
1200.29634	22408.525
1203.88538	21502.225
1207.47197	20695.925
1211.05612	20133.025
1214.63782	19779.625
1218.21708	19665.425
1221.79391	19672.925
1225.36829	19785.725
1228.94024	19716.725
1232.50976	19510.025
1236.07685	19253.425
1239.6415	19099.025
1243.20374	19052.625
1246.76355	19112.525
1250.32093	19361.225
1253.8759	19799.925
1257.42845	20419.025
1260.97859	20963.125
1264.52631	21416.325
1268.07163	21923.025
1271.61453	22510.725
1275.15503	23197.825
1278.69312	23996.825
1282.22882	24667.425
1285.76211	25060.625
1289.29301	25507.225
1292.82151	26070.925
1296.34761	26920.725
1299.87133	28116.425
1303.39266	29825.125
1306.9116	31984.025
1310.42815	34320.925
1313.94233	35754.725
1317.45412	35724.125
1320.96354	34669.625
1324.47058	33417.025
1327.97525	32244.225
1331.47754	31428.925
1334.97747	31125.225
1338.47502	31230.925
1341.97022	31418.625
1345.46305	31403.425
1348.95352	31104.425
1352.44163	30935.025
1355.92738	31497.125
1359.41078	33203.125
1362.89183	35011.725
1366.37053	34592.725
1369.84688	31497.425
1373.32088	27979.125
1376.79254	25545.725
1380.26186	24362.325
1383.72883	23970.525
1387.19347	23814.225
1390.65578	23473.425
1394.11575	23384.625
1397.57339	23582.725
1401.0287	24010.325
1404.48168	24539.525
1407.93234	24884.925
1411.38068	25011.025
1414.82669	24774.325
1418.27039	24057.225
1421.71177	23252.325
1425.15083	22520.125
1428.58758	22031.525
1432.02203	21934.025
1435.45416	22151.625
1438.88399	22444.925
1442.31151	22759.625
1445.73673	23021.725
1449.15965	23286.625
1452.58027	23444.325
1455.9986	23447.125
1459.41463	23511.725
1462.82837	23723.725
1466.23982	24151.925
1469.64898	24606.625
1473.05586	24877.725
1476.46045	25002.425
1479.86276	25081.325
1483.26279	25016.725
1486.66054	25073.925
1490.05602	25233.225
1493.44922	25548.525
1496.84016	25879.825
1500.22882	26330.525
1503.61521	27143.525
1506.99934	28176.625
1510.38121	29361.325
1513.76081	29952.225
1517.13816	29358.825
1520.51324	28015.325
1523.88607	26533.425
1527.25665	25428.425
1530.62498	24758.625
1533.99105	24337.625
1537.35488	24097.925
1540.71647	23976.225
1544.07581	23766.725
1547.4329	23471.825
1550.78776	23257.425
1554.14038	23100.725
1557.49077	23099.125
1560.83892	23094.125
1564.18484	23110.525
1567.52853	23088.625
1570.86999	23076.325
1574.20922	23202.025
1577.54624	23278.225
1580.88103	23231.925
1584.2136	23177.525
1587.54395	23598.625
1590.87208	24658.825
1594.19801	26188.625
1597.52172	27908.825
1600.84321	28620.725
1604.16251	27611.325
1607.47959	25663.025
1610.79447	23545.425
1614.10715	21596.225
1617.41763	20027.925
1620.7259	18965.425
1624.03199	18463.425
1627.33587	18468.125
1630.63757	18993.825
1633.93707	20055.125
1637.23439	21511.325
1640.52951	23349.325
1643.82246	25268.925
1647.11321	26643.025
1650.40179	26966.725
1653.68819	25562.525
1656.97241	22814.125
1660.25446	19927.725
1663.53433	17806.525
1666.81203	16436.225
1670.08756	15605.225
1673.36092	15069.525
1676.63211	14723.325
1679.90115	14477.225
1683.16801	14307.525
1686.43272	14118.325
1689.69527	14019.725
1692.95567	13931.925
1696.2139	13848.625
1699.46999	13789.825
1702.72392	13786.525
1705.97571	13754.325
1709.22535	13775.025
1712.47284	13767.025
1715.71819	13772.825
1718.96139	13767.825
1722.20246	13727.525
1725.44139	13687.525
1728.67818	13638.425
1731.91284	13543.625
1735.14537	13525.225
1738.37576	13441.725
1741.60403	13397.025
1744.83017	13346.025
1748.05418	13310.125
1751.27607	13284.825
1754.49584	13261.825
1757.71349	13239.225
1760.92903	13208.225
1764.14244	13187.425
1767.35375	13218.925
1770.56294	13190.325
1773.77002	13172.025
1776.97499	13163.425
1780.17785	13184.725
1783.37861	13180.925
1786.57727	13190.225
1789.77382	13164.325
1792.96828	13142.025
1796.16064	13119.125
1799.3509	13146.725
1802.53907	13103.425
1805.72514	13070.425
1808.90913	13057.825
1812.09102	13006.125
1815.27083	13024.225
1818.44856	12995.225
1821.6242	12995.925
1824.79776	12956.225
1827.96924	12963.625
1831.13864	12943.925
1834.30597	12946.825
1837.47122	12936.525
1840.6344	12940.025
1843.7955	12916.725
1846.95454	12959.625
1850.11151	12965.025
1853.26642	12958.325
1856.41926	13003.425
1859.57004	13022.125
1862.71876	13007.525
1865.86542	12970.425
1869.01003	12989.725
1872.15258	12981.425
1875.29308	13001.825
1878.43152	13014.025
1881.56792	13012.025
1884.70227	13004.525
1887.83457	12989.825
1890.96482	12984.525
1894.09304	13009.625
1897.21921	13005.125
1900.34335	13006.925
1903.46544	13001.025
1906.58551	13003.625
1909.70353	13008.525
1912.81953	12990.525
1915.93349	12999.025
1919.04543	12953.825
1922.15534	12914.225
1925.26322	12921.025
1928.36908	12858.125
1931.47292	12859.025
1934.57473	12791.525
1937.67453	12747.825
1940.77232	12705.425
1943.86808	12646.825
1946.96184	12579.125
1950.05358	12561.825
1953.14331	12498.825
1956.23103	12429.825
1959.31675	12429.225
1962.40046	12370.725
1965.48217	12370.325
1968.56188	12317.925
1971.63959	12304.825
1974.7153	12250.825
1977.78901	12224.825
1980.86073	12185.825
1983.93046	12110.325
1986.99819	12102.625
1990.06394	12083.125
1993.1277	12021.725
1996.18947	11987.625
1999.24925	11941.125
2002.30706	11918.025
2005.36288	11886.425
2008.41672	11892.625
2011.46859	11860.025
2014.51848	11794.525
2017.56639	11776.825
2020.61233	11760.725
2023.6563	11743.725
2026.6983	11720.525
2029.73833	11708.725
2032.7764	11688.625
2035.8125	11676.525
2038.84664	11658.625
2041.87881	11628.325
2044.90903	11618.525
2047.93729	11581.425
2050.96359	11571.925
2053.98794	11587.225
2057.01034	11541.225
2060.03078	11541.325
2063.04927	11554.325
2066.06582	11547.825
2069.08042	11542.525
2072.09307	11508.525
2075.10378	11500.925
2078.11255	11498.025
2081.11938	11476.125
2084.12426	11483.225
2087.12722	11471.325
2090.12824	11459.325
2093.12732	11462.025
2096.12447	11453.625
2099.11969	11433.225
2102.11299	11458.325
2105.10435	11472.825
2108.09379	11482.625
2111.08131	11494.225
2114.0669	11501.425
2117.05057	11492.825
2120.03233	11522.625
2123.01216	11514.125
2125.99008	11538.325
2128.96609	11545.925
2131.94018	11522.125
2134.91236	11590.325
2137.88263	11546.125
2140.851	11542.525
2143.81746	11580.425
2146.78201	11592.125
2149.74466	11565.425
2152.7054	11598.925
2155.66425	11587.125
2158.6212	11577.125
2161.57625	11576.925
2164.52941	11597.325
2167.48067	11569.525
2170.43004	11573.625
2173.37752	11578.925
2176.32311	11606.225
2179.26681	11579.525
2182.20863	11573.325
2185.14856	11584.525
2188.08661	11590.525
2191.02278	11623.525
2193.95707	11615.125
2196.88948	11606.025
2199.82001	11607.325
2202.74867	11611.725
2205.67545	11599.525
2208.60037	11591.925
2211.52341	11579.025
2214.44458	11585.225
2217.36388	11562.025
2220.28132	11523.125
2223.1969	11544.225
2226.11061	11512.625
2229.02246	11502.425
2231.93245	11507.525
2234.84058	11451.425
2237.74686	11443.025
2240.65128	11420.125
2243.55385	11393.425
2246.45456	11363.125
2249.35343	11376.325
2252.25044	11358.925
2255.14561	11352.625
2258.03893	11322.425
2260.93041	11318.025
2263.82004	11279.525
2266.70783	11263.525
2269.59378	11235.025
2272.4779	11221.325
2275.36017	11169.625
2278.24061	11175.125
2281.11922	11167.125
2283.996	11188.725
2286.87094	11152.425
2289.74405	11102.825
2292.61534	11085.925
2295.4848	11111.125
2298.35243	11107.725
2301.21824	11124.925
2304.08223	11132.825
2306.94439	11160.325
2309.80474	11145.625
2312.66327	11163.725
2315.51999	11158.625
2318.37489	11184.925
2321.22797	11155.225
2324.07925	11142.625
2326.92871	11138.525
2329.77637	11148.325
2332.62222	11119.625
2335.46626	11103.925
2338.3085	11112.725
2341.14893	11137.025
2343.98756	11145.725
2346.8244	11149.525
2349.65943	11151.125
2352.49267	11154.225
2355.32411	11157.525
2358.15376	11117.625
2360.98161	11119.225
2363.80768	11100.525
2366.63195	11100.925
2369.45444	11038.225
2372.27514	11027.225
2375.09405	11035.225
2377.91118	11013.725
2380.72652	10982.125
2383.54009	10928.225
2386.35187	10932.825
2389.16188	10914.425
2391.97011	10918.325
2394.77657	10891.825
2397.58125	10868.825
2400.38416	10851.725
2403.18529	10834.725
2405.98466	10840.225
2408.78226	10790.925
2411.57809	10772.025
2414.37216	10752.325
2417.16446	10756.825
2419.955	10720.725
2422.74378	10733.025
2425.5308	10717.925
2428.31606	10708.125
2431.09956	10716.025
2433.88131	10672.325
2436.6613	10694.625
2439.43954	10676.725
2442.21603	10673.025
2444.99077	10680.925
2447.76377	10683.825
2450.53501	10658.625
2453.30451	10668.225
2456.07226	10635.325
2458.83827	10642.525
2461.60254	10679.825
2464.36507	10678.525
2467.12586	10652.925
2469.88492	10671.025
2472.64224	10675.525
2475.39782	10674.325
2478.15167	10670.025
2480.90379	10661.625
2483.65417	10702.725
2486.40283	10700.425
2489.14976	10706.125
2491.89497	10724.625
2494.63845	10739.825
2497.3802	10708.625
2500.12024	10720.225
2502.85855	10705.625
2505.59514	10723.325
2508.33002	10692.025
2511.06318	10678.925
2513.79462	10652.425
2516.52435	10653.625
2519.25237	10658.325
2521.97867	10646.625
2524.70327	10630.125
2527.42616	10619.125
2530.14734	10593.725
2532.86681	10619.025
2535.58458	10622.925
2538.30065	10584.725
2541.01501	10607.625
2543.72768	10603.725
2546.43864	10591.525
2549.14791	10572.125
2551.85548	10556.325
2554.56136	10557.325
2557.26554	10532.825
2559.96803	10535.925
2562.66883	10541.825
2565.36794	10542.625
2568.06536	10531.425
2570.7611	10517.725
2573.45514	10480.225
2576.14751	10483.725
2578.83819	10502.125
2581.52719	10487.225
2584.21451	10487.625
2586.90015	10479.825
2589.58411	10479.825
2592.2664	10482.325
2594.94701	10480.325
2597.62594	10464.125
2600.30321	10470.825
2602.9788	10452.025
2605.65273	10472.625
2608.32498	10474.125
2610.99557	10468.625
2613.66449	10479.825
2616.33175	10491.625
2618.99734	10480.325
2621.66128	10515.525
2624.32355	10484.025
2626.98416	10506.025
2629.64311	10487.825
2632.30041	10518.825
2634.95605	10484.625
2637.61004	10458.525
2640.26238	10430.125
2642.91306	10432.925
2645.56209	10393.425
2648.20948	10422.225
2650.85521	10389.225
2653.4993	10373.525
2656.14175	10397.825
2658.78255	10406.425
2661.42171	10398.025
2664.05923	10415.725
2666.6951	10426.025
2669.32934	10439.525
2671.96194	10432.825
2674.59291	10439.725
2677.22224	10435.725
2679.84993	10413.625
2682.476	10394.225
2685.10043	10427.125
2687.72324	10410.525
2690.34441	10388.325
2692.96396	10395.125
2695.58188	10401.625
2698.19818	10385.425
2700.81285	10376.625
2703.4259	10384.325
2706.03733	10375.925
2708.64714	10363.625
2711.25533	10360.325
2713.86191	10369.225
2716.46687	10397.725
2719.07021	10395.125
2721.67194	10416.825
2724.27206	10427.025
2726.87057	10422.025
2729.46747	10426.025
2732.06276	10429.625
2734.65644	10386.525
2737.24852	10417.025
2739.83899	10387.225
2742.42786	10413.925
2745.01513	10389.225
2747.60079	10399.225
2750.18486	10398.225
2752.76733	10385.825
2755.3482	10393.225
2757.92747	10381.925
2760.50515	10367.025
2763.08123	10368.225
2765.65573	10377.025
2768.22863	10385.425
2770.79994	10374.125
2773.36967	10362.525
2775.9378	10363.225
2778.50435	10351.025
2781.06932	10333.225
2783.6327	10355.725
2786.1945	10338.225
2788.75471	10356.925
2791.31335	10327.525
2793.87041	10301.325
2796.42589	10282.825
2798.97979	10279.025
2801.53212	10263.425
2804.08288	10258.525
2806.63206	10221.425
2809.17967	10218.525
2811.72571	10179.925
2814.27018	10170.025
2816.81308	10183.625
2819.35442	10162.325
2821.89419	10185.525
2824.43239	10174.025
2826.96904	10175.225
2829.50412	10165.425
2832.03763	10169.225
2834.56959	10157.425
2837.1	10133.125
2839.62884	10143.325
2842.15613	10132.225
2844.68186	10150.725
2847.20604	10150.325
2849.72867	10183.225
2852.24974	10169.425
2854.76927	10152.925
2857.28724	10135.825
2859.80367	10111.825
2862.31855	10094.525
2864.83189	10116.625
2867.34368	10089.025
2869.85393	10103.825
2872.36264	10091.725
2874.8698	10098.625
2877.37543	10078.625
2879.87952	10088.925
2882.38207	10093.925
2884.88308	10087.325
2887.38256	10097.425
2889.88051	10096.325
2892.37692	10080.025
2894.8718	10067.025
2897.36515	10120.525
2899.85698	10111.725
2902.34727	10135.225
2904.83604	10123.525
2907.32328	10150.925
2909.809	10144.725
2912.29319	10183.025
2914.77587	10163.225
2917.25702	10157.825
2919.73665	10153.625
2922.21476	10148.125
2924.69136	10150.425
2927.16644	10125.925
2929.64	10136.325
2932.11205	10119.525
2934.58258	10080.725
2937.05161	10090.725
2939.51912	10094.425
2941.98513	10072.425
2944.44962	10016.825
2946.91261	10002.225
2949.37409	10036.125
2951.83407	10019.125
2954.29254	10025.625
2956.74951	9986.225
2959.20498	10004.625
2961.65895	9981.425
2964.11142	9994.425
2966.56239	9973.525
2969.01186	9949.425
2971.45984	9930.925
2973.90632	9913.925
2976.35131	9893.825
2978.7948	9878.725
2981.23681	9847.725
2983.67732	9835.725
2986.11635	9771.625
2988.55388	9801.425
2990.98993	9786.925
2993.4245	9744.825
2995.85758	9744.725
2998.28917	9736.625
3000.71928	9704.825
3003.14791	9666.225
3005.57506	9682.925
3008.00073	9657.225
3010.42493	9671.625
3012.84764	9637.025
3015.26888	9625.425
3017.68865	9626.925
3020.10694	9621.725
3022.52376	9590.825
3024.9391	9578.425
3027.35298	9570.125
3029.76539	9588.525
3032.17632	9544.725
3034.5858	9522.225
3036.9938	9508.825
3039.40034	9536.225
3041.80542	9525.425
3044.20903	9504.525
3046.61118	9518.325
3049.01187	9498.525
3051.4111	9507.625
3053.80888	9487.025
3056.20519	9446.525
3058.60005	9428.925
3060.99345	9387.125
3063.3854	9378.225
3065.7759	9359.325
3068.16494	9367.325
3070.55254	9291.525
3072.93868	9296.125
3075.32338	9278.225
3077.70662	9287.725
3080.08842	9253.925
3082.46878	9250.425
3084.84769	9236.725
3087.22515	9224.125
3089.60118	9208.725
3091.97576	9224.325
3094.3489	9210.525
3096.72061	9219.925
3099.09087	9231.325
3101.4597	9202.625
3103.82709	9220.225
3106.19305	9206.225
3108.55757	9219.225
3110.92066	9165.625
3113.28232	9179.125
3115.64255	9143.825
3118.00134	9127.725
3120.35871	9149.825
3122.71466	9100.325
3125.06917	9104.925
3127.42226	9086.525
3129.77393	9099.625
3132.12417	9055.825
3134.47299	9059.325
3136.82039	9079.125
