Data from AgNPs_FTO_APTES_UA_1uM_CRN_10uM_R6G_10uM_NaF_0.1M_Addition_RamanShift__10__14-27-29-633.txt Node

Date: Thu Jan 27 14:27:29 GMT 2022
User: TCL
Spectrometer: QEP01345
Trigger mode: 4
Integration Time (sec): 7.000000E0
Scans to average: 10
Electric dark correction enabled: true
Nonlinearity correction enabled: false
Boxcar width: 0
XAxis mode: Raman Shifts
Number of Pixels in Spectrum: 1044
>>>>>Begin Spectral Data<<<<<
46.04893	1.275
50.45542	0.175
54.85868	-0.725
59.25871	-1.525
63.6555	50.775
68.04907	49.775
72.43941	53.575
76.82654	56.775
81.21044	61.675
85.59113	61.275
89.96862	63.175
94.34289	67.575
98.71396	68.575
103.08183	70.175
107.4465	73.075
111.80798	75.175
116.16626	74.575
120.52136	77.375
124.87327	81.775
129.222	81.675
133.56755	87.175
137.90993	92.075
142.24913	102.475
146.58517	109.875
150.91804	131.475
155.24774	150.275
159.57429	176.375
163.89768	225.875
168.21792	297.375
172.53501	407.275
176.84895	555.675
181.15975	780.375
185.46741	1081.975
189.77193	1496.475
194.07331	2015.775
198.37157	2590.075
202.6667	3219.075
206.9587	3816.075
211.24758	4412.175
215.53334	5010.275
219.81599	5629.475
224.09553	6296.175
228.37195	7039.475
232.64527	7841.375
236.91549	8752.775
241.18261	9642.875
245.44663	10485.675
249.70755	11261.275
253.96539	11956.875
258.22014	12558.575
262.4718	13017.975
266.72039	13354.875
270.96589	13538.575
275.20832	13548.575
279.44768	13506.275
283.68397	13372.575
287.91719	13237.075
292.14735	13173.975
296.37445	13077.575
300.59849	13087.475
304.81948	13091.475
309.03742	13123.375
313.25231	13072.275
317.46415	12881.875
321.67296	12669.875
325.87872	12485.175
330.08145	12384.975
334.28114	12373.175
338.47781	12465.275
342.67145	12563.575
346.86207	12741.575
351.04966	12940.875
355.23424	13124.175
359.4158	13307.075
363.59435	13452.575
367.76989	13571.475
371.94243	13659.375
376.11196	13699.675
380.27849	13760.675
384.44203	13816.475
388.60257	13908.175
392.76012	13985.375
396.91468	14210.575
401.06626	14374.675
405.21485	14556.275
409.36047	14516.475
413.50311	14348.275
417.64277	14335.375
421.77947	14366.975
425.9132	14415.575
430.04396	14506.775
434.17176	14540.875
438.2966	14598.475
442.41849	14733.675
446.53742	14953.375
450.6534	15203.375
454.76644	15418.475
458.87653	15503.275
462.98368	15528.075
467.08789	15425.075
471.18916	15304.675
475.2875	15178.075
479.38291	15078.075
483.4754	14995.675
487.56496	14893.875
491.6516	14770.475
495.73531	14649.275
499.81612	14582.275
503.89401	14627.275
507.96899	14734.175
512.04106	14737.275
516.11023	14704.375
520.1765	14601.975
524.23987	14452.275
528.30034	14351.775
532.35792	14229.875
536.41261	14150.975
540.46441	14063.975
544.51333	14031.475
548.55936	14159.475
552.60252	14354.475
556.64279	14559.875
560.6802	14717.675
564.71473	14844.275
568.7464	14990.075
572.7752	15301.775
576.80114	15666.875
580.82422	16085.275
584.84444	16510.575
588.86181	17018.275
592.87633	17480.275
596.888	17443.375
600.89682	16892.175
604.9028	16621.975
608.90594	17245.275
612.90624	18060.675
616.90371	17300.375
620.89834	15361.975
624.89015	14477.875
628.87913	14409.775
632.86528	14539.675
636.84862	14589.375
640.82913	14389.275
644.80683	14182.875
648.78172	14010.975
652.75379	13969.975
656.72306	14109.775
660.68952	14268.275
664.65319	14204.175
668.61405	14063.975
672.57211	14038.675
676.52738	14086.375
680.47986	14102.775
684.42955	14035.175
688.37646	13949.275
692.32058	13984.375
696.26192	14125.975
700.20048	14288.575
704.13626	14381.175
708.06928	14411.875
711.99952	14372.175
715.927	14352.475
719.85171	14346.275
723.77365	14294.475
727.69284	14146.175
731.60928	14020.875
735.52295	13949.075
739.43388	13926.875
743.34206	13945.975
747.24749	13995.375
751.15017	14120.075
755.05012	14304.475
758.94733	14564.075
762.8418	15070.275
766.73354	15744.275
770.62254	16463.775
774.50882	16584.075
778.39237	16099.975
782.27321	15381.475
786.15132	14760.575
790.02671	14325.075
793.89938	14097.975
797.76935	14002.275
801.6366	13944.675
805.50115	13902.475
809.36299	13841.875
813.22213	13770.175
817.07857	13752.875
820.93231	13698.975
824.78336	13686.175
828.63172	13655.975
832.47738	13624.775
836.32036	13608.775
840.16066	13581.575
843.99827	13594.375
847.8332	13584.775
851.66546	13560.575
855.49504	13589.375
859.32195	13631.075
863.1462	13619.275
866.96777	13584.375
870.78668	13557.175
874.60293	13582.875
878.41652	13597.875
882.22745	13644.875
886.03573	13677.775
889.84136	13686.375
893.64433	13630.675
897.44466	13605.375
901.24235	13559.175
905.0374	13545.475
908.8298	13510.775
912.61957	13520.175
916.40671	13605.275
920.19121	13732.675
923.97308	13854.475
927.75233	13818.875
931.52895	13739.375
935.30295	13567.175
939.07433	13412.575
942.84309	13267.675
946.60924	13198.675
950.37278	13167.275
954.13371	13151.675
957.89203	13149.575
961.64774	13120.075
965.40086	13125.275
969.15137	13088.175
972.89929	13018.575
976.64461	12996.975
980.38733	12960.175
984.12747	12975.675
987.86502	13001.175
991.59999	13044.175
995.33237	13143.075
999.06217	13235.475
1002.78939	13413.275
1006.51404	13569.575
1010.23611	13761.475
1013.95561	13885.275
1017.67255	13905.675
1021.38692	13841.575
1025.09872	13689.475
1028.80796	13537.675
1032.51465	13506.775
1036.21877	13492.875
1039.92035	13543.375
1043.61937	13588.475
1047.31584	13611.875
1051.00976	13641.075
1054.70114	13650.575
1058.38998	13710.475
1062.07627	13830.675
1065.76003	13953.575
1069.44126	14092.875
1073.11995	14289.275
1076.79611	14482.675
1080.46974	14532.175
1084.14085	14566.775
1087.80943	14635.775
1091.47549	14760.275
1095.13903	14797.175
1098.80005	14699.075
1102.45857	14427.575
1106.11456	14212.175
1109.76805	14070.875
1113.41903	14021.975
1117.06751	14063.675
1120.71348	14154.675
1124.35696	14270.475
1127.99793	14355.975
1131.63641	14457.975
1135.2724	14415.475
1138.90589	14340.075
1142.5369	14368.175
1146.16542	14408.475
1149.79145	14494.775
1153.415	14554.975
1157.03607	14648.075
1160.65467	14900.975
1164.27079	15380.075
1167.88443	15937.275
1171.49561	16516.975
1175.10432	17213.675
1178.71056	18129.275
1182.31434	18972.075
1185.91565	19422.475
1189.51451	19496.175
1193.11091	19295.075
1196.70485	18883.475
1200.29634	18359.875
1203.88538	17950.075
1207.47197	17704.175
1211.05612	17572.475
1214.63782	17292.875
1218.21708	16943.575
1221.79391	16529.675
1225.36829	16208.075
1228.94024	15999.375
1232.50976	15913.775
1236.07685	15836.675
1239.6415	15759.875
1243.20374	15762.975
1246.76355	15831.975
1250.32093	15998.175
1253.8759	16190.875
1257.42845	16503.175
1260.97859	16888.375
1264.52631	17217.975
1268.07163	17565.375
1271.61453	17889.775
1275.15503	18221.775
1278.69312	18599.775
1282.22882	19053.675
1285.76211	19459.375
1289.29301	20009.875
1292.82151	20687.975
1296.34761	21473.175
1299.87133	22434.675
1303.39266	23327.375
1306.9116	24144.675
1310.42815	24705.475
1313.94233	24931.675
1317.45412	24806.475
1320.96354	24534.875
1324.47058	24303.375
1327.97525	24157.575
1331.47754	24084.375
1334.97747	24019.175
1338.47502	23948.175
1341.97022	23892.775
1345.46305	23819.375
1348.95352	23735.975
1352.44163	23717.175
1355.92738	23890.475
1359.41078	24354.175
1362.89183	24792.875
1366.37053	24554.275
1369.84688	23127.275
1373.32088	21209.575
1376.79254	19779.775
1380.26186	19186.975
1383.72883	19114.075
1387.19347	19159.675
1390.65578	18960.275
1394.11575	18767.775
1397.57339	18784.675
1401.0287	18986.075
1404.48168	19108.375
1407.93234	19116.175
1411.38068	18818.175
1414.82669	18342.975
1418.27039	17787.975
1421.71177	17271.075
1425.15083	16842.975
1428.58758	16676.675
1432.02203	16692.975
1435.45416	17011.975
1438.88399	17364.875
1442.31151	17646.175
1445.73673	17745.975
1449.15965	17856.875
1452.58027	17942.475
1455.9986	17912.775
1459.41463	18016.775
1462.82837	18222.275
1466.23982	18497.575
1469.64898	18743.875
1473.05586	18870.175
1476.46045	18917.475
1479.86276	18881.875
1483.26279	18748.275
1486.66054	18700.275
1490.05602	18815.075
1493.44922	19026.775
1496.84016	19370.275
1500.22882	19786.375
1503.61521	20289.475
1506.99934	20838.975
1510.38121	21255.275
1513.76081	21355.075
1517.13816	21030.275
1520.51324	20583.075
1523.88607	20216.275
1527.25665	20073.475
1530.62498	19951.675
1533.99105	19802.475
1537.35488	19493.075
1540.71647	19116.575
1544.07581	18676.975
1547.4329	18205.175
1550.78776	17877.275
1554.14038	17620.675
1557.49077	17517.675
1560.83892	17455.175
1564.18484	17463.075
1567.52853	17465.275
1570.86999	17606.575
1574.20922	17848.675
1577.54624	18089.575
1580.88103	18164.775
1584.2136	18205.375
1587.54395	18487.375
1590.87208	19106.675
1594.19801	19837.875
1597.52172	20607.475
1600.84321	20773.075
1604.16251	20092.975
1607.47959	18953.275
1610.79447	17753.675
1614.10715	16592.175
1617.41763	15664.075
1620.7259	14962.375
1624.03199	14608.875
1627.33587	14557.675
1630.63757	14799.875
1633.93707	15471.375
1637.23439	16584.375
1640.52951	18278.675
1643.82246	20266.375
1647.11321	21953.175
1650.40179	22376.375
1653.68819	21113.475
1656.97241	18847.675
1660.25446	16602.075
1663.53433	14893.575
1666.81203	13805.375
1670.08756	13129.575
1673.36092	12697.175
1676.63211	12396.575
1679.90115	12210.875
1683.16801	12051.275
1686.43272	11920.875
1689.69527	11856.075
1692.95567	11782.675
1696.2139	11686.375
1699.46999	11628.275
1702.72392	11593.875
1705.97571	11597.275
1709.22535	11609.775
1712.47284	11611.575
1715.71819	11586.475
1718.96139	11579.275
1722.20246	11549.175
1725.44139	11513.275
1728.67818	11452.775
1731.91284	11433.975
1735.14537	11361.775
1738.37576	11304.575
1741.60403	11243.275
1744.83017	11239.775
1748.05418	11203.275
1751.27607	11156.475
1754.49584	11126.075
1757.71349	11095.975
1760.92903	11097.575
1764.14244	11069.975
1767.35375	11075.875
1770.56294	11039.275
1773.77002	11025.375
1776.97499	11034.075
1780.17785	11015.875
1783.37861	10998.875
1786.57727	11025.575
1789.77382	10989.575
1792.96828	10987.575
1796.16064	10941.775
1799.3509	10928.675
1802.53907	10908.275
1805.72514	10902.175
1808.90913	10871.875
1812.09102	10843.575
1815.27083	10816.875
1818.44856	10837.375
1821.6242	10787.675
1824.79776	10770.075
1827.96924	10778.575
1831.13864	10729.275
1834.30597	10752.175
1837.47122	10756.675
1840.6344	10750.775
1843.7955	10724.375
1846.95454	10729.775
1850.11151	10738.475
1853.26642	10709.275
1856.41926	10716.775
1859.57004	10735.775
1862.71876	10703.575
1865.86542	10674.975
1869.01003	10651.775
1872.15258	10631.975
1875.29308	10609.675
1878.43152	10586.475
1881.56792	10596.575
1884.70227	10556.575
1887.83457	10546.675
1890.96482	10527.675
1894.09304	10528.675
1897.21921	10487.275
1900.34335	10490.775
1903.46544	10464.675
1906.58551	10461.075
1909.70353	10434.275
1912.81953	10435.875
1915.93349	10423.675
1919.04543	10380.675
1922.15534	10374.975
1925.26322	10331.275
1928.36908	10340.475
1931.47292	10309.275
1934.57473	10265.975
1937.67453	10256.075
1940.77232	10240.275
1943.86808	10205.875
1946.96184	10178.275
1950.05358	10144.575
1953.14331	10137.875
1956.23103	10068.675
1959.31675	10047.875
1962.40046	10030.675
1965.48217	9998.775
1968.56188	9964.875
1971.63959	9966.075
1974.7153	9905.475
1977.78901	9848.275
1980.86073	9840.775
1983.93046	9802.575
1986.99819	9797.075
1990.06394	9743.875
1993.1277	9713.475
1996.18947	9672.175
1999.24925	9666.975
2002.30706	9624.775
2005.36288	9616.675
2008.41672	9587.875
2011.46859	9549.475
2014.51848	9508.775
2017.56639	9505.075
2020.61233	9445.075
2023.6563	9470.975
2026.6983	9449.275
2029.73833	9401.675
2032.7764	9373.475
2035.8125	9334.875
2038.84664	9311.675
2041.87881	9310.075
2044.90903	9285.775
2047.93729	9256.675
2050.96359	9274.175
2053.98794	9249.575
2057.01034	9231.975
2060.03078	9224.775
2063.04927	9226.475
2066.06582	9236.475
2069.08042	9221.875
2072.09307	9223.375
2075.10378	9209.075
2078.11255	9193.475
2081.11938	9180.775
2084.12426	9179.575
2087.12722	9166.975
2090.12824	9173.275
2093.12732	9171.475
2096.12447	9150.975
2099.11969	9165.575
2102.11299	9161.475
2105.10435	9181.275
2108.09379	9196.275
2111.08131	9185.675
2114.0669	9178.375
2117.05057	9208.875
2120.03233	9196.575
2123.01216	9189.375
2125.99008	9210.175
2128.96609	9214.175
2131.94018	9204.575
2134.91236	9231.175
2137.88263	9247.975
2140.851	9240.775
2143.81746	9216.675
2146.78201	9221.875
2149.74466	9226.575
2152.7054	9228.375
2155.66425	9205.675
2158.6212	9198.775
2161.57625	9210.975
2164.52941	9212.475
2167.48067	9182.775
2170.43004	9191.075
2173.37752	9194.475
2176.32311	9182.575
2179.26681	9176.975
2182.20863	9173.375
2185.14856	9177.175
2188.08661	9178.575
2191.02278	9203.175
2193.95707	9180.375
2196.88948	9165.875
2199.82001	9140.675
2202.74867	9156.975
2205.67545	9148.075
2208.60037	9106.975
2211.52341	9106.475
2214.44458	9088.375
2217.36388	9038.375
2220.28132	9022.675
2223.1969	9015.575
2226.11061	8998.275
2229.02246	9004.575
2231.93245	8975.075
2234.84058	8967.475
2237.74686	8956.675
2240.65128	8945.275
2243.55385	8942.275
2246.45456	8909.975
2249.35343	8895.175
2252.25044	8865.675
2255.14561	8861.475
2258.03893	8847.375
2260.93041	8809.675
2263.82004	8801.275
2266.70783	8773.775
2269.59378	8762.375
2272.4779	8767.075
2275.36017	8722.375
2278.24061	8716.075
2281.11922	8715.875
2283.996	8688.975
2286.87094	8663.275
2289.74405	8653.975
2292.61534	8608.375
2295.4848	8601.775
2298.35243	8631.175
2301.21824	8604.075
2304.08223	8616.775
2306.94439	8612.675
2309.80474	8591.575
2312.66327	8587.075
2315.51999	8574.275
2318.37489	8551.075
2321.22797	8548.975
2324.07925	8525.775
2326.92871	8519.575
2329.77637	8502.175
2332.62222	8482.975
2335.46626	8469.175
2338.3085	8459.175
2341.14893	8440.375
2343.98756	8451.675
2346.8244	8441.175
2349.65943	8437.975
2352.49267	8430.575
2355.32411	8423.675
2358.15376	8403.975
2360.98161	8415.975
2363.80768	8437.875
2366.63195	8408.575
2369.45444	8390.975
2372.27514	8395.375
2375.09405	8381.075
2377.91118	8355.175
2380.72652	8356.475
2383.54009	8307.775
2386.35187	8316.375
2389.16188	8301.575
2391.97011	8271.475
2394.77657	8241.975
2397.58125	8248.075
2400.38416	8232.175
2403.18529	8200.475
2405.98466	8220.275
2408.78226	8194.875
2411.57809	8172.675
2414.37216	8163.175
2417.16446	8148.475
2419.955	8154.675
2422.74378	8164.175
2425.5308	8167.775
2428.31606	8155.675
2431.09956	8116.475
2433.88131	8110.075
2436.6613	8129.475
2439.43954	8128.175
2442.21603	8101.675
2444.99077	8093.775
2447.76377	8094.575
2450.53501	8079.575
2453.30451	8071.575
2456.07226	8075.275
2458.83827	8069.675
2461.60254	8052.475
2464.36507	8031.275
2467.12586	8052.275
2469.88492	8043.575
2472.64224	8033.675
2475.39782	8023.275
2478.15167	7998.675
2480.90379	8020.175
2483.65417	8013.675
2486.40283	8005.775
2489.14976	8014.375
2491.89497	8002.875
2494.63845	7967.875
2497.3802	7978.875
2500.12024	7965.875
2502.85855	7964.475
2505.59514	7957.475
2508.33002	7948.575
2511.06318	7944.275
2513.79462	7946.475
2516.52435	7941.075
2519.25237	7937.175
2521.97867	7915.175
2524.70327	7915.875
2527.42616	7898.975
2530.14734	7885.175
2532.86681	7871.775
2535.58458	7839.775
2538.30065	7856.875
2541.01501	7866.175
2543.72768	7842.275
2546.43864	7833.075
2549.14791	7815.675
2551.85548	7804.675
2554.56136	7791.275
2557.26554	7775.275
2559.96803	7781.675
2562.66883	7788.475
2565.36794	7778.275
2568.06536	7748.475
2570.7611	7727.275
2573.45514	7711.675
2576.14751	7694.475
2578.83819	7697.575
2581.52719	7667.975
2584.21451	7673.275
2586.90015	7672.875
2589.58411	7623.775
2592.2664	7646.175
2594.94701	7637.875
2597.62594	7618.175
2600.30321	7596.075
2602.9788	7587.575
2605.65273	7587.075
2608.32498	7570.675
2610.99557	7555.075
2613.66449	7565.975
2616.33175	7558.075
2618.99734	7544.975
2621.66128	7552.075
2624.32355	7540.375
2626.98416	7538.775
2629.64311	7533.375
2632.30041	7506.675
2634.95605	7511.475
2637.61004	7491.475
2640.26238	7461.275
2642.91306	7482.575
2645.56209	7468.375
2648.20948	7471.075
2650.85521	7463.675
2653.4993	7457.875
2656.14175	7467.075
2658.78255	7488.375
2661.42171	7464.875
2664.05923	7469.875
2666.6951	7465.175
2669.32934	7480.475
2671.96194	7469.775
2674.59291	7468.375
2677.22224	7474.175
2679.84993	7477.475
2682.476	7442.875
2685.10043	7476.775
2687.72324	7422.375
2690.34441	7458.775
2692.96396	7434.075
2695.58188	7440.575
2698.19818	7464.775
2700.81285	7443.075
2703.4259	7423.175
2706.03733	7428.275
2708.64714	7411.275
2711.25533	7444.275
2713.86191	7428.375
2716.46687	7451.475
2719.07021	7451.575
2721.67194	7458.875
2724.27206	7447.375
2726.87057	7467.475
2729.46747	7471.375
2732.06276	7451.575
2734.65644	7448.775
2737.24852	7448.875
2739.83899	7441.075
2742.42786	7451.275
2745.01513	7421.575
2747.60079	7401.675
2750.18486	7409.775
2752.76733	7380.875
2755.3482	7382.975
2757.92747	7360.075
2760.50515	7355.875
2763.08123	7357.175
2765.65573	7348.875
2768.22863	7371.275
2770.79994	7344.675
2773.36967	7332.375
2775.9378	7336.675
2778.50435	7328.675
2781.06932	7321.475
2783.6327	7288.475
2786.1945	7309.275
2788.75471	7300.775
2791.31335	7268.675
2793.87041	7268.375
2796.42589	7241.175
2798.97979	7241.275
2801.53212	7231.175
2804.08288	7194.375
2806.63206	7205.275
2809.17967	7176.375
2811.72571	7162.975
2814.27018	7154.775
2816.81308	7136.675
2819.35442	7135.175
2821.89419	7114.975
2824.43239	7101.475
2826.96904	7110.175
2829.50412	7113.175
2832.03763	7082.475
2834.56959	7099.275
2837.1	7076.275
2839.62884	7090.875
2842.15613	7056.775
2844.68186	7088.275
2847.20604	7088.175
2849.72867	7098.975
2852.24974	7082.075
2854.76927	7078.075
2857.28724	7071.475
2859.80367	7052.675
2862.31855	7046.775
2864.83189	7021.475
2867.34368	7000.075
2869.85393	7005.275
2872.36264	6987.575
2874.8698	7015.375
2877.37543	6983.275
2879.87952	6973.675
2882.38207	6976.275
2884.88308	6959.075
2887.38256	6967.375
2889.88051	6957.075
2892.37692	6984.375
2894.8718	6969.875
2897.36515	6984.375
2899.85698	6964.875
2902.34727	6973.175
2904.83604	6982.075
2907.32328	6991.875
2909.809	6984.675
2912.29319	6984.475
2914.77587	6969.775
2917.25702	6963.075
2919.73665	6986.675
2922.21476	6976.675
2924.69136	6960.775
2927.16644	6973.075
2929.64	6970.375
2932.11205	6960.975
2934.58258	6966.275
2937.05161	6961.675
2939.51912	6957.175
2941.98513	6909.475
2944.44962	6901.475
2946.91261	6868.575
2949.37409	6871.675
2951.83407	6881.775
2954.29254	6887.475
2956.74951	6851.775
2959.20498	6867.075
2961.65895	6839.775
2964.11142	6843.575
2966.56239	6854.375
2969.01186	6832.575
2971.45984	6823.175
2973.90632	6812.775
2976.35131	6802.275
2978.7948	6790.775
2981.23681	6773.975
2983.67732	6764.675
2986.11635	6740.775
2988.55388	6732.075
2990.98993	6721.575
2993.4245	6697.075
2995.85758	6693.375
2998.28917	6672.775
3000.71928	6669.775
3003.14791	6641.575
3005.57506	6653.775
3008.00073	6635.875
3010.42493	6628.175
3012.84764	6614.575
3015.26888	6615.975
3017.68865	6600.075
3020.10694	6574.475
3022.52376	6567.775
3024.9391	6551.775
3027.35298	6540.975
3029.76539	6540.875
3032.17632	6538.375
3034.5858	6532.875
3036.9938	6521.175
3039.40034	6532.575
3041.80542	6516.075
3044.20903	6499.475
3046.61118	6503.975
3049.01187	6503.875
3051.4111	6498.475
3053.80888	6473.275
3056.20519	6463.475
3058.60005	6427.675
3060.99345	6414.075
3063.3854	6414.175
3065.7759	6383.475
3068.16494	6383.675
3070.55254	6372.475
3072.93868	6350.175
3075.32338	6349.975
3077.70662	6338.975
3080.08842	6315.875
3082.46878	6326.175
3084.84769	6283.875
3087.22515	6298.975
3089.60118	6283.075
3091.97576	6280.275
3094.3489	6311.875
3096.72061	6297.475
3099.09087	6302.375
3101.4597	6288.975
3103.82709	6282.075
3106.19305	6279.375
3108.55757	6281.575
3110.92066	6260.475
3113.28232	6247.575
3115.64255	6240.775
3118.00134	6214.675
3120.35871	6209.775
3122.71466	6207.975
3125.06917	6210.975
3127.42226	6172.475
3129.77393	6171.875
3132.12417	6186.375
3134.47299	6163.175
3136.82039	6190.875
3139.16636	6168.075
3141.51092	6158.475
3143.85406	6188.775
3146.19579	6175.475
3148.53609	6187.175
3150.87499	6184.975
3153.21246	6206.675
3155.54853	6203.775
3157.88318	6179.775
3160.21642	6198.675
3162.54826	6181.075
3164.87868	6199.575
3167.2077	6194.275
3169.5353	6193.675
3171.86151	6193.075
3174.18631	6183.275
3176.5097	6168.975
3178.83169	6170.175
3181.15228	6176.775
