Data from AgNPs_FTO_APTES_UA_1uM_CRN_100uM_R6G_10uM_NaF_0.1M_Addition_RamanShift__27__16-52-09-798.txt Node

Date: Thu Jan 27 16:52:09 GMT 2022
User: TCL
Spectrometer: QEP01345
Trigger mode: 4
Integration Time (sec): 7.000000E0
Scans to average: 10
Electric dark correction enabled: true
Nonlinearity correction enabled: false
Boxcar width: 0
XAxis mode: Raman Shifts
Number of Pixels in Spectrum: 1044
>>>>>Begin Spectral Data<<<<<
46.04893	1.1125
50.45542	0.1125
54.85868	-2.3875
59.25871	-1.0875
63.6555	46.6125
68.04907	48.0125
72.43941	48.6125
76.82654	55.4125
81.21044	54.1125
85.59113	57.7125
89.96862	57.8125
94.34289	62.9125
98.71396	63.9125
103.08183	63.8125
107.4465	66.5125
111.80798	71.8125
116.16626	70.2125
120.52136	75.8125
124.87327	73.0125
129.222	72.1125
133.56755	77.7125
137.90993	82.5125
142.24913	90.7125
146.58517	100.4125
150.91804	114.8125
155.24774	132.6125
159.57429	159.6125
163.89768	204.8125
168.21792	262.7125
172.53501	361.5125
176.84895	500.9125
181.15975	697.9125
185.46741	965.6125
189.77193	1326.2125
194.07331	1775.9125
198.37157	2293.5125
202.6667	2836.5125
206.9587	3384.6125
211.24758	3913.5125
215.53334	4457.4125
219.81599	5031.9125
224.09553	5686.0125
228.37195	6424.3125
232.64527	7204.5125
236.91549	8019.0125
241.18261	8818.9125
245.44663	9526.5125
249.70755	10138.3125
253.96539	10689.3125
258.22014	11164.3125
262.4718	11563.1125
266.72039	11881.3125
270.96589	12080.2125
275.20832	12159.3125
279.44768	12129.3125
283.68397	12012.4125
287.91719	11936.8125
292.14735	11948.0125
296.37445	12049.0125
300.59849	12243.7125
304.81948	12455.1125
309.03742	12577.8125
313.25231	12409.9125
317.46415	11980.8125
321.67296	11342.4125
325.87872	10829.9125
330.08145	10610.3125
334.28114	10579.1125
338.47781	10696.9125
342.67145	10920.1125
346.86207	11267.5125
351.04966	11675.2125
355.23424	12169.9125
359.4158	12582.7125
363.59435	12765.7125
367.76989	12871.1125
371.94243	12913.6125
376.11196	12950.5125
380.27849	12946.8125
384.44203	12925.8125
388.60257	12888.8125
392.76012	12876.3125
396.91468	13006.8125
401.06626	13271.4125
405.21485	13463.5125
409.36047	13356.5125
413.50311	12942.5125
417.64277	12534.3125
421.77947	12357.3125
425.9132	12323.9125
430.04396	12354.5125
434.17176	12429.5125
438.2966	12590.2125
442.41849	12850.6125
446.53742	13188.0125
450.6534	13536.2125
454.76644	13815.3125
458.87653	13930.4125
462.98368	13902.3125
467.08789	13725.6125
471.18916	13536.7125
475.2875	13375.0125
479.38291	13221.5125
483.4754	13070.7125
487.56496	12907.5125
491.6516	12722.4125
495.73531	12592.4125
499.81612	12531.2125
503.89401	12599.9125
507.96899	12653.5125
512.04106	12698.1125
516.11023	12778.2125
520.1765	12788.7125
524.23987	12736.5125
528.30034	12590.2125
532.35792	12412.1125
536.41261	12226.4125
540.46441	12073.8125
544.51333	12038.5125
548.55936	12142.8125
552.60252	12396.8125
556.64279	12672.3125
560.6802	12848.1125
564.71473	12980.3125
568.7464	13321.3125
572.7752	13589.8125
576.80114	13500.7125
580.82422	13298.2125
584.84444	13213.3125
588.86181	13265.0125
592.87633	13367.3125
596.888	13504.0125
600.89682	13710.7125
604.9028	14517.5125
608.90594	16785.8125
612.90624	19767.6125
616.90371	19174.4125
620.89834	14998.0125
624.89015	12994.6125
628.87913	12623.7125
632.86528	12688.5125
636.84862	12674.1125
640.82913	12532.4125
644.80683	12158.8125
648.78172	11878.0125
652.75379	11856.9125
656.72306	12095.6125
660.68952	12487.9125
664.65319	12498.3125
668.61405	12139.5125
672.57211	11963.3125
676.52738	11945.4125
680.47986	11983.5125
684.42955	11941.9125
688.37646	11894.7125
692.32058	11913.5125
696.26192	11999.6125
700.20048	12108.9125
704.13626	12187.1125
708.06928	12170.2125
711.99952	12071.1125
715.927	12026.6125
719.85171	12054.7125
723.77365	12057.2125
727.69284	11974.8125
731.60928	11879.5125
735.52295	11871.7125
739.43388	11886.4125
743.34206	11949.8125
747.24749	11966.5125
751.15017	12104.7125
755.05012	12259.5125
758.94733	12670.2125
762.8418	13484.7125
766.73354	14826.8125
770.62254	16339.5125
774.50882	17062.7125
778.39237	16351.4125
782.27321	14760.8125
786.15132	13309.6125
790.02671	12453.8125
793.89938	12076.6125
797.76935	11925.4125
801.6366	11863.5125
805.50115	11820.9125
809.36299	11786.1125
813.22213	11743.5125
817.07857	11754.9125
820.93231	11752.2125
824.78336	11742.1125
828.63172	11775.2125
832.47738	11775.5125
836.32036	11788.5125
840.16066	11760.8125
843.99827	11768.9125
847.8332	11708.5125
851.66546	11708.0125
855.49504	11689.1125
859.32195	11676.0125
863.1462	11647.1125
866.96777	11593.6125
870.78668	11581.0125
874.60293	11563.3125
878.41652	11600.7125
882.22745	11643.0125
886.03573	11683.5125
889.84136	11651.2125
893.64433	11593.2125
897.44466	11563.9125
901.24235	11552.9125
905.0374	11517.0125
908.8298	11488.2125
912.61957	11513.1125
916.40671	11597.5125
920.19121	11689.1125
923.97308	11782.2125
927.75233	11834.1125
931.52895	11869.7125
935.30295	11789.3125
939.07433	11561.8125
942.84309	11373.8125
946.60924	11252.3125
950.37278	11196.6125
954.13371	11145.9125
957.89203	11084.4125
961.64774	11070.4125
965.40086	11046.1125
969.15137	10996.7125
972.89929	10947.3125
976.64461	10913.6125
980.38733	10928.7125
984.12747	10965.7125
987.86502	11012.8125
991.59999	11139.7125
995.33237	11272.2125
999.06217	11528.3125
1002.78939	11855.6125
1006.51404	12041.9125
1010.23611	12217.9125
1013.95561	12351.4125
1017.67255	12350.0125
1021.38692	12246.0125
1025.09872	12144.9125
1028.80796	12155.5125
1032.51465	12315.1125
1036.21877	12520.6125
1039.92035	12544.6125
1043.61937	12448.8125
1047.31584	12242.8125
1051.00976	12045.9125
1054.70114	11960.7125
1058.38998	11951.3125
1062.07627	12016.1125
1065.76003	12098.7125
1069.44126	12146.6125
1073.11995	12201.1125
1076.79611	12280.8125
1080.46974	12387.3125
1084.14085	12511.4125
1087.80943	12675.9125
1091.47549	12775.5125
1095.13903	12661.3125
1098.80005	12466.7125
1102.45857	12223.2125
1106.11456	12083.7125
1109.76805	12070.1125
1113.41903	12228.2125
1117.06751	12453.5125
1120.71348	12720.6125
1124.35696	12998.7125
1127.99793	13245.1125
1131.63641	13306.2125
1135.2724	12970.8125
1138.90589	12636.2125
1142.5369	12422.0125
1146.16542	12297.1125
1149.79145	12293.7125
1153.415	12315.6125
1157.03607	12407.3125
1160.65467	12644.2125
1164.27079	12993.8125
1167.88443	13532.2125
1171.49561	14318.3125
1175.10432	15553.2125
1178.71056	17126.9125
1182.31434	18465.5125
1185.91565	18962.7125
1189.51451	18802.7125
1193.11091	18108.4125
1196.70485	17159.9125
1200.29634	16361.5125
1203.88538	15734.6125
1207.47197	15133.8125
1211.05612	14585.2125
1214.63782	14254.4125
1218.21708	14103.1125
1221.79391	14057.5125
1225.36829	14063.5125
1228.94024	14038.3125
1232.50976	13909.1125
1236.07685	13861.8125
1239.6415	13809.8125
1243.20374	13856.6125
1246.76355	13914.8125
1250.32093	14102.7125
1253.8759	14344.9125
1257.42845	14716.9125
1260.97859	15089.8125
1264.52631	15347.8125
1268.07163	15643.9125
1271.61453	16001.1125
1275.15503	16347.9125
1278.69312	16621.0125
1282.22882	16849.3125
1285.76211	17174.7125
1289.29301	17523.9125
1292.82151	18041.8125
1296.34761	18671.7125
1299.87133	19498.3125
1303.39266	20662.1125
1306.9116	22274.6125
1310.42815	24074.6125
1313.94233	25299.5125
1317.45412	25303.9125
1320.96354	24456.5125
1324.47058	23432.4125
1327.97525	22489.1125
1331.47754	21862.3125
1334.97747	21702.7125
1338.47502	21796.9125
1341.97022	22063.5125
1345.46305	22260.1125
1348.95352	22350.4125
1352.44163	22582.0125
1355.92738	23357.6125
1359.41078	25090.8125
1362.89183	27098.4125
1366.37053	26789.5125
1369.84688	23843.3125
1373.32088	20691.9125
1376.79254	18637.9125
1380.26186	17737.7125
1383.72883	17399.9125
1387.19347	17269.3125
1390.65578	17052.1125
1394.11575	16946.3125
1397.57339	17079.5125
1401.0287	17380.8125
1404.48168	17715.7125
1407.93234	18002.4125
1411.38068	18098.6125
1414.82669	17877.2125
1418.27039	17327.4125
1421.71177	16663.7125
1425.15083	16156.2125
1428.58758	15799.4125
1432.02203	15747.1125
1435.45416	15874.5125
1438.88399	16010.6125
1442.31151	16222.2125
1445.73673	16364.7125
1449.15965	16556.3125
1452.58027	16720.2125
1455.9986	16779.9125
1459.41463	16826.0125
1462.82837	17016.8125
1466.23982	17245.6125
1469.64898	17514.1125
1473.05586	17678.0125
1476.46045	17672.8125
1479.86276	17731.3125
1483.26279	17780.0125
1486.66054	17884.7125
1490.05602	18060.3125
1493.44922	18376.6125
1496.84016	18776.6125
1500.22882	19484.6125
1503.61521	20508.2125
1506.99934	21920.7125
1510.38121	23453.8125
1513.76081	24380.5125
1517.13816	23869.9125
1520.51324	22158.1125
1523.88607	20258.2125
1527.25665	18925.7125
1530.62498	18144.2125
1533.99105	17742.2125
1537.35488	17457.2125
1540.71647	17284.4125
1544.07581	17149.1125
1547.4329	16997.0125
1550.78776	16858.7125
1554.14038	16771.0125
1557.49077	16821.7125
1560.83892	16990.6125
1564.18484	17156.0125
1567.52853	17322.9125
1570.86999	17441.3125
1574.20922	17565.4125
1577.54624	17660.2125
1580.88103	17375.9125
1584.2136	16987.6125
1587.54395	16967.4125
1590.87208	17399.5125
1594.19801	18338.5125
1597.52172	19412.2125
1600.84321	19915.7125
1604.16251	19379.4125
1607.47959	18176.5125
1610.79447	16869.9125
1614.10715	15600.1125
1617.41763	14581.9125
1620.7259	13856.5125
1624.03199	13509.7125
1627.33587	13466.1125
1630.63757	13721.0125
1633.93707	14319.6125
1637.23439	15258.0125
1640.52951	16503.8125
1643.82246	17954.7125
1647.11321	19401.3125
1650.40179	20236.2125
1653.68819	19654.7125
1656.97241	17624.0125
1660.25446	15322.8125
1663.53433	13558.7125
1666.81203	12494.3125
1670.08756	11846.2125
1673.36092	11457.5125
1676.63211	11209.1125
1679.90115	11023.7125
1683.16801	10898.3125
1686.43272	10779.2125
1689.69527	10675.5125
1692.95567	10605.6125
1696.2139	10568.8125
1699.46999	10496.0125
1702.72392	10448.2125
1705.97571	10455.6125
1709.22535	10480.5125
1712.47284	10514.3125
1715.71819	10528.3125
1718.96139	10530.3125
1722.20246	10500.5125
1725.44139	10493.1125
1728.67818	10463.2125
1731.91284	10396.2125
1735.14537	10329.2125
1738.37576	10308.8125
1741.60403	10251.4125
1744.83017	10226.0125
1748.05418	10228.8125
1751.27607	10155.9125
1754.49584	10145.4125
1757.71349	10123.1125
1760.92903	10109.0125
1764.14244	10090.0125
1767.35375	10103.2125
1770.56294	10077.5125
1773.77002	10048.7125
1776.97499	10083.1125
1780.17785	10074.1125
1783.37861	10055.8125
1786.57727	10066.6125
1789.77382	10052.9125
1792.96828	10030.9125
1796.16064	10047.5125
1799.3509	10013.0125
1802.53907	10037.1125
1805.72514	9978.1125
1808.90913	9968.4125
1812.09102	9950.3125
1815.27083	9947.6125
1818.44856	9908.2125
1821.6242	9905.2125
1824.79776	9874.0125
1827.96924	9873.2125
1831.13864	9868.3125
1834.30597	9901.4125
1837.47122	9869.6125
1840.6344	9860.9125
1843.7955	9867.9125
1846.95454	9842.2125
1850.11151	9863.1125
1853.26642	9855.8125
1856.41926	9886.9125
1859.57004	9882.8125
1862.71876	9865.8125
1865.86542	9861.9125
1869.01003	9861.1125
1872.15258	9860.1125
1875.29308	9897.5125
1878.43152	9879.1125
1881.56792	9871.1125
1884.70227	9852.6125
1887.83457	9836.5125
1890.96482	9829.4125
1894.09304	9861.3125
1897.21921	9859.1125
1900.34335	9826.9125
1903.46544	9840.1125
1906.58551	9838.2125
1909.70353	9820.9125
1912.81953	9825.2125
1915.93349	9808.3125
1919.04543	9815.3125
1922.15534	9808.8125
1925.26322	9790.9125
1928.36908	9772.8125
1931.47292	9729.0125
1934.57473	9714.9125
1937.67453	9694.3125
1940.77232	9657.5125
1943.86808	9629.0125
1946.96184	9592.6125
1950.05358	9541.2125
1953.14331	9525.3125
1956.23103	9506.2125
1959.31675	9480.0125
1962.40046	9452.0125
1965.48217	9414.1125
1968.56188	9389.0125
1971.63959	9372.2125
1974.7153	9350.3125
1977.78901	9332.3125
1980.86073	9287.0125
1983.93046	9268.8125
1986.99819	9251.1125
1990.06394	9203.3125
1993.1277	9205.7125
1996.18947	9162.1125
1999.24925	9128.1125
2002.30706	9096.4125
2005.36288	9075.4125
2008.41672	9072.7125
2011.46859	9028.1125
2014.51848	9017.6125
2017.56639	9001.0125
2020.61233	8970.4125
2023.6563	8949.6125
2026.6983	8932.0125
2029.73833	8923.3125
2032.7764	8910.3125
2035.8125	8874.9125
2038.84664	8855.3125
2041.87881	8843.9125
2044.90903	8859.3125
2047.93729	8829.6125
2050.96359	8820.1125
2053.98794	8797.1125
2057.01034	8788.6125
2060.03078	8792.0125
2063.04927	8799.8125
2066.06582	8759.9125
2069.08042	8777.8125
2072.09307	8768.1125
2075.10378	8771.1125
2078.11255	8754.8125
2081.11938	8749.9125
2084.12426	8730.8125
2087.12722	8733.2125
2090.12824	8720.7125
2093.12732	8732.6125
2096.12447	8722.6125
2099.11969	8724.5125
2102.11299	8718.0125
2105.10435	8745.0125
2108.09379	8750.4125
2111.08131	8763.4125
2114.0669	8756.5125
2117.05057	8766.0125
2120.03233	8763.8125
2123.01216	8753.9125
2125.99008	8782.0125
2128.96609	8787.0125
2131.94018	8802.8125
2134.91236	8816.3125
2137.88263	8812.6125
2140.851	8818.8125
2143.81746	8816.6125
2146.78201	8809.1125
2149.74466	8814.0125
2152.7054	8809.8125
2155.66425	8810.8125
2158.6212	8809.2125
2161.57625	8795.3125
2164.52941	8832.2125
2167.48067	8804.1125
2170.43004	8830.3125
2173.37752	8799.2125
2176.32311	8797.1125
2179.26681	8805.3125
2182.20863	8791.6125
2185.14856	8809.7125
2188.08661	8784.3125
2191.02278	8816.9125
2193.95707	8803.8125
2196.88948	8797.8125
2199.82001	8801.8125
2202.74867	8799.1125
2205.67545	8789.1125
2208.60037	8782.6125
2211.52341	8754.0125
2214.44458	8736.8125
2217.36388	8764.6125
2220.28132	8732.2125
2223.1969	8718.0125
2226.11061	8731.0125
2229.02246	8692.3125
2231.93245	8689.1125
2234.84058	8658.5125
2237.74686	8653.9125
2240.65128	8640.1125
2243.55385	8635.3125
2246.45456	8595.6125
2249.35343	8609.3125
2252.25044	8595.7125
2255.14561	8570.9125
2258.03893	8610.9125
2260.93041	8546.1125
2263.82004	8553.4125
2266.70783	8529.4125
2269.59378	8524.2125
2272.4779	8505.2125
2275.36017	8466.3125
2278.24061	8469.7125
2281.11922	8448.2125
2283.996	8453.4125
2286.87094	8420.7125
2289.74405	8385.3125
2292.61534	8391.0125
2295.4848	8395.1125
2298.35243	8374.7125
2301.21824	8368.3125
2304.08223	8388.5125
2306.94439	8396.8125
2309.80474	8373.6125
2312.66327	8405.7125
2315.51999	8383.8125
2318.37489	8384.7125
2321.22797	8367.7125
2324.07925	8392.1125
2326.92871	8361.4125
2329.77637	8341.7125
2332.62222	8340.3125
2335.46626	8335.9125
2338.3085	8341.4125
2341.14893	8336.2125
2343.98756	8332.1125
2346.8244	8312.0125
2349.65943	8316.4125
2352.49267	8341.3125
2355.32411	8335.5125
2358.15376	8335.8125
2360.98161	8344.3125
2363.80768	8330.3125
2366.63195	8314.9125
2369.45444	8310.9125
2372.27514	8306.0125
2375.09405	8275.1125
2377.91118	8292.6125
2380.72652	8254.8125
2383.54009	8210.4125
2386.35187	8204.2125
2389.16188	8185.5125
2391.97011	8169.5125
2394.77657	8173.4125
2397.58125	8140.6125
2400.38416	8106.1125
2403.18529	8123.7125
2405.98466	8085.3125
2408.78226	8089.8125
2411.57809	8082.2125
2414.37216	8048.4125
2417.16446	8039.2125
2419.955	8024.5125
2422.74378	8042.6125
2425.5308	8056.8125
2428.31606	8033.2125
2431.09956	8020.4125
2433.88131	8033.8125
2436.6613	8022.5125
2439.43954	8018.5125
2442.21603	8014.9125
2444.99077	8003.9125
2447.76377	8015.7125
2450.53501	7996.6125
2453.30451	8007.3125
2456.07226	7991.3125
2458.83827	7999.8125
2461.60254	7974.3125
2464.36507	7977.0125
2467.12586	7969.5125
2469.88492	7948.5125
2472.64224	7969.6125
2475.39782	7963.1125
2478.15167	7962.1125
2480.90379	7967.9125
2483.65417	7992.3125
2486.40283	7976.3125
2489.14976	7987.5125
2491.89497	7991.6125
2494.63845	8001.2125
2497.3802	8005.6125
2500.12024	7984.7125
2502.85855	8000.7125
2505.59514	7970.4125
2508.33002	7960.1125
2511.06318	7952.5125
2513.79462	7957.3125
2516.52435	7930.6125
2519.25237	7904.3125
2521.97867	7925.3125
2524.70327	7905.8125
2527.42616	7874.0125
2530.14734	7875.0125
2532.86681	7872.1125
2535.58458	7855.3125
2538.30065	7848.8125
2541.01501	7877.4125
2543.72768	7848.6125
2546.43864	7858.2125
2549.14791	7852.9125
2551.85548	7822.5125
2554.56136	7821.7125
2557.26554	7791.4125
2559.96803	7805.8125
2562.66883	7782.0125
2565.36794	7821.0125
2568.06536	7795.4125
2570.7611	7759.0125
2573.45514	7758.1125
2576.14751	7760.5125
2578.83819	7756.9125
2581.52719	7744.2125
2584.21451	7721.8125
2586.90015	7728.5125
2589.58411	7736.3125
2592.2664	7726.9125
2594.94701	7712.6125
2597.62594	7698.4125
2600.30321	7698.7125
2602.9788	7693.3125
2605.65273	7698.9125
2608.32498	7692.2125
2610.99557	7684.8125
2613.66449	7675.2125
2616.33175	7680.7125
2618.99734	7690.9125
2621.66128	7690.1125
2624.32355	7688.6125
2626.98416	7677.6125
2629.64311	7670.4125
2632.30041	7658.4125
2634.95605	7651.6125
2637.61004	7631.0125
2640.26238	7628.0125
2642.91306	7629.2125
2645.56209	7628.7125
2648.20948	7612.8125
2650.85521	7596.5125
2653.4993	7607.4125
2656.14175	7607.2125
2658.78255	7614.6125
2661.42171	7639.2125
2664.05923	7637.4125
2666.6951	7626.6125
2669.32934	7628.4125
2671.96194	7635.5125
2674.59291	7634.3125
2677.22224	7656.0125
2679.84993	7624.4125
2682.476	7628.3125
2685.10043	7644.6125
2687.72324	7631.0125
2690.34441	7620.7125
2692.96396	7614.5125
2695.58188	7628.5125
2698.19818	7605.7125
2700.81285	7625.6125
2703.4259	7615.0125
2706.03733	7588.2125
2708.64714	7591.6125
2711.25533	7625.9125
2713.86191	7617.7125
2716.46687	7646.4125
2719.07021	7618.4125
2721.67194	7646.3125
2724.27206	7638.1125
2726.87057	7662.4125
2729.46747	7636.3125
2732.06276	7677.2125
2734.65644	7667.4125
2737.24852	7640.5125
2739.83899	7632.9125
2742.42786	7637.7125
2745.01513	7625.3125
2747.60079	7607.4125
2750.18486	7626.8125
2752.76733	7626.5125
2755.3482	7626.0125
2757.92747	7614.1125
2760.50515	7606.9125
2763.08123	7589.7125
2765.65573	7599.9125
2768.22863	7598.4125
2770.79994	7565.6125
2773.36967	7583.8125
2775.9378	7582.1125
2778.50435	7577.8125
2781.06932	7569.7125
2783.6327	7563.1125
2786.1945	7562.9125
2788.75471	7561.5125
2791.31335	7535.9125
2793.87041	7541.2125
2796.42589	7523.0125
2798.97979	7512.0125
2801.53212	7503.9125
2804.08288	7497.6125
2806.63206	7452.2125
2809.17967	7463.7125
2811.72571	7446.0125
2814.27018	7455.9125
2816.81308	7444.6125
2819.35442	7428.5125
2821.89419	7432.4125
2824.43239	7448.8125
2826.96904	7414.3125
2829.50412	7416.3125
2832.03763	7403.5125
2834.56959	7425.0125
2837.1	7418.9125
2839.62884	7415.5125
2842.15613	7417.1125
2844.68186	7466.7125
2847.20604	7483.9125
2849.72867	7476.0125
2852.24974	7462.7125
2854.76927	7434.4125
2857.28724	7424.2125
2859.80367	7420.1125
2862.31855	7435.2125
2864.83189	7416.8125
2867.34368	7413.4125
2869.85393	7408.2125
2872.36264	7405.5125
2874.8698	7415.4125
2877.37543	7402.0125
2879.87952	7394.2125
2882.38207	7366.0125
2884.88308	7374.4125
2887.38256	7378.6125
2889.88051	7382.4125
2892.37692	7395.2125
2894.8718	7393.7125
2897.36515	7407.7125
2899.85698	7404.2125
2902.34727	7428.5125
2904.83604	7454.3125
2907.32328	7431.2125
2909.809	7411.6125
2912.29319	7440.2125
2914.77587	7421.6125
2917.25702	7427.5125
2919.73665	7441.7125
2922.21476	7427.4125
2924.69136	7428.2125
2927.16644	7417.3125
2929.64	7414.3125
2932.11205	7404.0125
2934.58258	7380.7125
2937.05161	7380.1125
2939.51912	7384.6125
2941.98513	7365.4125
2944.44962	7340.2125
2946.91261	7318.7125
2949.37409	7318.9125
2951.83407	7322.0125
2954.29254	7303.3125
2956.74951	7282.9125
2959.20498	7297.6125
2961.65895	7290.1125
2964.11142	7286.7125
2966.56239	7247.7125
2969.01186	7240.8125
2971.45984	7235.0125
2973.90632	7238.5125
2976.35131	7219.7125
2978.7948	7213.0125
2981.23681	7191.5125
2983.67732	7201.7125
2986.11635	7160.4125
2988.55388	7172.2125
2990.98993	7134.2125
2993.4245	7149.5125
2995.85758	7118.0125
2998.28917	7104.4125
3000.71928	7110.0125
3003.14791	7079.4125
3005.57506	7072.7125
3008.00073	7055.1125
3010.42493	7057.5125
3012.84764	7042.2125
3015.26888	7037.2125
3017.68865	7025.6125
3020.10694	7010.3125
3022.52376	6994.5125
3024.9391	6992.8125
3027.35298	6978.3125
3029.76539	6980.4125
3032.17632	6969.6125
3034.5858	6949.7125
3036.9938	6988.2125
3039.40034	6968.3125
3041.80542	6954.0125
3044.20903	6964.3125
3046.61118	6924.9125
3049.01187	6936.1125
3051.4111	6933.9125
3053.80888	6906.0125
3056.20519	6906.1125
3058.60005	6882.4125
3060.99345	6864.2125
3063.3854	6858.3125
3065.7759	6824.3125
3068.16494	6834.2125
3070.55254	6798.3125
3072.93868	6782.2125
3075.32338	6755.9125
3077.70662	6762.8125
