Data from AgNPs_FTO_APTES_UA_1uM_CRN_10uM_R6G_10uM_NaF_0.1M_Addition_RamanShift__20__14-39-09-646.txt Node

Date: Thu Jan 27 14:39:09 GMT 2022
User: TCL
Spectrometer: QEP01345
Trigger mode: 4
Integration Time (sec): 7.000000E0
Scans to average: 10
Electric dark correction enabled: true
Nonlinearity correction enabled: false
Boxcar width: 0
XAxis mode: Raman Shifts
Number of Pixels in Spectrum: 1044
>>>>>Begin Spectral Data<<<<<
46.04893	1.525
50.45542	0.325
54.85868	-2.575
59.25871	-0.975
63.6555	52.525
68.04907	53.125
72.43941	56.225
76.82654	60.325
81.21044	62.825
85.59113	62.725
89.96862	67.325
94.34289	66.925
98.71396	69.225
103.08183	72.225
107.4465	72.525
111.80798	76.525
116.16626	73.625
120.52136	84.425
124.87327	82.225
129.222	79.725
133.56755	83.925
137.90993	86.825
142.24913	99.125
146.58517	111.725
150.91804	125.725
155.24774	148.425
159.57429	173.925
163.89768	219.825
168.21792	291.125
172.53501	391.925
176.84895	540.425
181.15975	752.625
185.46741	1052.525
189.77193	1450.825
194.07331	1939.125
198.37157	2498.625
202.6667	3083.025
206.9587	3659.325
211.24758	4234.125
215.53334	4779.225
219.81599	5385.725
224.09553	6074.425
228.37195	6803.125
232.64527	7614.725
236.91549	8499.425
241.18261	9382.125
245.44663	10198.625
249.70755	10926.625
253.96539	11537.925
258.22014	12141.025
262.4718	12592.825
266.72039	12928.325
270.96589	13143.025
275.20832	13150.025
279.44768	13122.125
283.68397	13057.225
287.91719	12957.025
292.14735	12935.225
296.37445	12936.825
300.59849	13034.725
304.81948	13091.625
309.03742	13076.325
313.25231	12876.225
317.46415	12515.825
321.67296	12139.325
325.87872	11797.125
330.08145	11625.025
334.28114	11652.425
338.47781	11743.125
342.67145	11879.925
346.86207	12131.225
351.04966	12411.925
355.23424	12745.125
359.4158	13000.325
363.59435	13155.125
367.76989	13308.825
371.94243	13393.825
376.11196	13498.025
380.27849	13548.425
384.44203	13633.325
388.60257	13685.725
392.76012	13771.425
396.91468	13948.725
401.06626	14165.125
405.21485	14345.125
409.36047	14282.925
413.50311	14077.325
417.64277	13875.825
421.77947	13811.225
425.9132	13827.425
430.04396	13954.525
434.17176	14031.525
438.2966	14159.125
442.41849	14367.925
446.53742	14681.125
450.6534	15072.225
454.76644	15398.425
458.87653	15540.725
462.98368	15523.425
467.08789	15380.625
471.18916	15164.325
475.2875	14935.025
479.38291	14799.825
483.4754	14704.125
487.56496	14559.125
491.6516	14321.325
495.73531	14154.725
499.81612	14074.525
503.89401	14160.025
507.96899	14203.925
512.04106	14178.825
516.11023	14140.925
520.1765	14118.225
524.23987	14018.325
528.30034	13880.825
532.35792	13746.425
536.41261	13562.725
540.46441	13424.925
544.51333	13442.125
548.55936	13587.625
552.60252	13854.725
556.64279	14128.625
560.6802	14306.225
564.71473	14353.825
568.7464	14495.725
572.7752	14755.725
576.80114	14917.025
580.82422	15075.225
584.84444	15187.725
588.86181	15293.225
592.87633	15433.525
596.888	15613.625
600.89682	15740.525
604.9028	16330.025
608.90594	17907.225
612.90624	19682.125
616.90371	18781.525
620.89834	15801.625
624.89015	14459.025
628.87913	14368.525
632.86528	14347.425
636.84862	14227.925
640.82913	13962.125
644.80683	13598.725
648.78172	13338.625
652.75379	13260.925
656.72306	13432.325
660.68952	13645.625
664.65319	13662.725
668.61405	13440.825
672.57211	13297.425
676.52738	13310.525
680.47986	13314.625
684.42955	13275.225
688.37646	13269.825
692.32058	13312.225
696.26192	13428.025
700.20048	13542.425
704.13626	13623.525
708.06928	13561.425
711.99952	13460.925
715.927	13445.625
719.85171	13447.825
723.77365	13429.325
727.69284	13277.625
731.60928	13212.125
735.52295	13167.025
739.43388	13196.125
743.34206	13255.225
747.24749	13297.725
751.15017	13426.525
755.05012	13636.625
758.94733	14021.225
762.8418	14694.325
766.73354	15728.725
770.62254	16869.325
774.50882	17246.225
778.39237	16535.825
782.27321	15322.525
786.15132	14275.625
790.02671	13691.825
793.89938	13419.825
797.76935	13321.225
801.6366	13321.125
805.50115	13245.125
809.36299	13156.725
813.22213	13101.225
817.07857	13062.125
820.93231	13070.425
824.78336	13029.025
828.63172	13044.825
832.47738	13070.625
836.32036	13111.725
840.16066	13157.625
843.99827	13210.925
847.8332	13181.825
851.66546	13084.425
855.49504	13045.725
859.32195	13035.225
863.1462	12988.625
866.96777	12937.025
870.78668	12855.825
874.60293	12854.825
878.41652	12861.025
882.22745	12899.625
886.03573	12973.425
889.84136	12997.725
893.64433	12881.325
897.44466	12843.825
901.24235	12845.825
905.0374	12776.825
908.8298	12742.525
912.61957	12772.625
916.40671	12916.225
920.19121	13046.725
923.97308	13254.025
927.75233	13321.725
931.52895	13289.925
935.30295	13209.125
939.07433	12973.225
942.84309	12769.025
946.60924	12690.325
950.37278	12622.425
954.13371	12557.325
957.89203	12468.425
961.64774	12400.425
965.40086	12358.525
969.15137	12317.225
972.89929	12250.825
976.64461	12235.525
980.38733	12231.525
984.12747	12325.625
987.86502	12439.325
991.59999	12649.125
995.33237	12948.725
999.06217	13400.025
1002.78939	13939.725
1006.51404	14186.125
1010.23611	14280.925
1013.95561	14372.225
1017.67255	14392.425
1021.38692	14286.225
1025.09872	14170.725
1028.80796	14411.825
1032.51465	15018.925
1036.21877	15555.425
1039.92035	15601.925
1043.61937	15300.825
1047.31584	14745.025
1051.00976	14190.425
1054.70114	13886.225
1058.38998	13833.125
1062.07627	13862.625
1065.76003	13849.025
1069.44126	13917.825
1073.11995	13978.325
1076.79611	14130.425
1080.46974	14188.925
1084.14085	14273.225
1087.80943	14440.425
1091.47549	14467.225
1095.13903	14435.725
1098.80005	14239.625
1102.45857	13977.525
1106.11456	13797.825
1109.76805	13794.025
1113.41903	13888.025
1117.06751	14019.025
1120.71348	14179.725
1124.35696	14335.425
1127.99793	14501.025
1131.63641	14566.925
1135.2724	14440.325
1138.90589	14246.225
1142.5369	14138.425
1146.16542	14078.425
1149.79145	14097.525
1153.415	14133.325
1157.03607	14277.625
1160.65467	14561.425
1164.27079	15015.625
1167.88443	15696.125
1171.49561	16620.825
1175.10432	17882.525
1178.71056	19494.925
1182.31434	20979.525
1185.91565	21854.225
1189.51451	21977.025
1193.11091	21316.425
1196.70485	20300.425
1200.29634	19307.725
1203.88538	18569.225
1207.47197	17962.025
1211.05612	17475.925
1214.63782	17192.425
1218.21708	17020.025
1221.79391	17022.025
1225.36829	17034.325
1228.94024	16998.225
1232.50976	16730.125
1236.07685	16539.025
1239.6415	16397.325
1243.20374	16383.425
1246.76355	16452.825
1250.32093	16638.125
1253.8759	16979.925
1257.42845	17496.925
1260.97859	17989.125
1264.52631	18344.625
1268.07163	18734.325
1271.61453	19251.025
1275.15503	19890.925
1278.69312	20527.625
1282.22882	21109.725
1285.76211	21482.025
1289.29301	21876.325
1292.82151	22387.925
1296.34761	23061.725
1299.87133	24191.325
1303.39266	25623.525
1306.9116	27403.925
1310.42815	29184.325
1313.94233	30343.225
1317.45412	30290.425
1320.96354	29523.225
1324.47058	28578.825
1327.97525	27676.525
1331.47754	27120.925
1334.97747	26889.925
1338.47502	26967.825
1341.97022	27147.125
1345.46305	27088.925
1348.95352	26814.625
1352.44163	26561.225
1355.92738	26836.525
1359.41078	28012.225
1362.89183	29259.625
1366.37053	28854.625
1369.84688	26483.325
1373.32088	23705.325
1376.79254	21789.825
1380.26186	20910.525
1383.72883	20654.025
1387.19347	20490.925
1390.65578	20323.725
1394.11575	20278.725
1397.57339	20468.225
1401.0287	20893.025
1404.48168	21297.325
1407.93234	21574.225
1411.38068	21570.325
1414.82669	21271.125
1418.27039	20590.125
1421.71177	19859.125
1425.15083	19212.025
1428.58758	18814.325
1432.02203	18752.425
1435.45416	18955.725
1438.88399	19270.125
1442.31151	19567.725
1445.73673	19800.325
1449.15965	20043.625
1452.58027	20217.925
1455.9986	20255.725
1459.41463	20347.725
1462.82837	20550.525
1466.23982	20934.725
1469.64898	21282.325
1473.05586	21533.025
1476.46045	21584.425
1479.86276	21567.725
1483.26279	21512.225
1486.66054	21485.225
1490.05602	21575.325
1493.44922	21771.825
1496.84016	22046.825
1500.22882	22364.825
1503.61521	22934.325
1506.99934	23764.225
1510.38121	24612.425
1513.76081	25014.525
1517.13816	24618.525
1520.51324	23604.525
1523.88607	22496.725
1527.25665	21709.425
1530.62498	21281.925
1533.99105	21039.025
1537.35488	20881.725
1540.71647	20730.325
1544.07581	20516.925
1547.4329	20286.625
1550.78776	20039.525
1554.14038	19889.525
1557.49077	19860.225
1560.83892	19856.625
1564.18484	19820.025
1567.52853	19769.325
1570.86999	19794.725
1574.20922	19930.425
1577.54624	20060.325
1580.88103	20051.225
1584.2136	20062.325
1587.54395	20471.225
1590.87208	21321.325
1594.19801	22580.725
1597.52172	23983.525
1600.84321	24542.425
1604.16251	23706.025
1607.47959	22094.425
1610.79447	20284.125
1614.10715	18669.325
1617.41763	17305.825
1620.7259	16388.725
1624.03199	15943.325
1627.33587	15884.725
1630.63757	16331.725
1633.93707	17195.025
1637.23439	18457.825
1640.52951	20045.525
1643.82246	21670.425
1647.11321	22893.525
1650.40179	23086.825
1653.68819	21888.625
1656.97241	19628.325
1660.25446	17232.625
1663.53433	15392.625
1666.81203	14235.825
1670.08756	13509.625
1673.36092	13044.225
1676.63211	12746.625
1679.90115	12506.225
1683.16801	12347.825
1686.43272	12223.825
1689.69527	12133.825
1692.95567	12023.625
1696.2139	11959.925
1699.46999	11890.525
1702.72392	11850.925
1705.97571	11868.125
1709.22535	11862.325
1712.47284	11886.025
1715.71819	11866.025
1718.96139	11872.625
1722.20246	11856.725
1725.44139	11796.425
1728.67818	11777.625
1731.91284	11667.125
1735.14537	11618.125
1738.37576	11566.825
1741.60403	11548.825
1744.83017	11529.125
1748.05418	11499.125
1751.27607	11484.025
1754.49584	11424.725
1757.71349	11424.225
1760.92903	11387.525
1764.14244	11391.825
1767.35375	11393.325
1770.56294	11367.025
1773.77002	11352.625
1776.97499	11362.825
1780.17785	11365.025
1783.37861	11382.925
1786.57727	11378.525
1789.77382	11345.525
1792.96828	11357.425
1796.16064	11326.325
1799.3509	11313.125
1802.53907	11327.625
1805.72514	11283.525
1808.90913	11254.325
1812.09102	11240.325
1815.27083	11228.625
1818.44856	11200.725
1821.6242	11212.825
1824.79776	11173.825
1827.96924	11158.425
1831.13864	11145.925
1834.30597	11169.925
1837.47122	11166.525
1840.6344	11177.025
1843.7955	11177.525
1846.95454	11174.825
1850.11151	11195.125
1853.26642	11179.725
1856.41926	11196.425
1859.57004	11232.925
1862.71876	11221.225
1865.86542	11193.925
1869.01003	11222.825
1872.15258	11214.625
1875.29308	11188.325
1878.43152	11169.525
1881.56792	11187.925
1884.70227	11185.725
1887.83457	11168.325
1890.96482	11187.525
1894.09304	11194.825
1897.21921	11211.525
1900.34335	11192.225
1903.46544	11194.025
1906.58551	11162.825
1909.70353	11190.225
1912.81953	11164.125
1915.93349	11156.725
1919.04543	11129.725
1922.15534	11115.625
1925.26322	11110.225
1928.36908	11048.525
1931.47292	11030.725
1934.57473	10990.525
1937.67453	10966.625
1940.77232	10931.825
1943.86808	10870.825
1946.96184	10872.025
1950.05358	10825.225
1953.14331	10764.525
1956.23103	10729.325
1959.31675	10739.825
1962.40046	10709.325
1965.48217	10676.325
1968.56188	10644.025
1971.63959	10588.525
1974.7153	10577.725
1977.78901	10545.325
1980.86073	10492.525
1983.93046	10489.325
1986.99819	10431.825
1990.06394	10416.525
1993.1277	10374.425
1996.18947	10346.025
1999.24925	10322.025
2002.30706	10290.025
2005.36288	10269.625
2008.41672	10249.025
2011.46859	10225.925
2014.51848	10199.025
2017.56639	10174.725
2020.61233	10144.825
2023.6563	10145.925
2026.6983	10124.825
2029.73833	10130.625
2032.7764	10103.325
2035.8125	10077.525
2038.84664	10061.225
2041.87881	10046.125
2044.90903	10031.325
2047.93729	10012.625
2050.96359	10022.725
2053.98794	9985.125
2057.01034	9998.025
2060.03078	9975.625
2063.04927	9995.525
2066.06582	9980.425
2069.08042	9962.225
2072.09307	9960.225
2075.10378	9926.625
2078.11255	9932.625
2081.11938	9961.225
2084.12426	9951.325
2087.12722	9920.025
2090.12824	9913.525
2093.12732	9901.525
2096.12447	9897.525
2099.11969	9913.425
2102.11299	9918.925
2105.10435	9936.425
2108.09379	9937.625
2111.08131	9956.725
2114.0669	9946.325
2117.05057	9940.525
2120.03233	9952.825
2123.01216	9961.125
2125.99008	9974.725
2128.96609	9989.325
2131.94018	10011.125
2134.91236	10010.125
2137.88263	10000.225
2140.851	10022.825
2143.81746	10036.625
2146.78201	10017.225
2149.74466	10046.025
2152.7054	10059.825
2155.66425	10059.325
2158.6212	10052.725
2161.57625	10018.725
2164.52941	10039.725
2167.48067	10033.225
2170.43004	10024.325
2173.37752	10004.725
2176.32311	10020.225
2179.26681	10043.525
2182.20863	10033.825
2185.14856	10074.425
2188.08661	10041.825
2191.02278	10053.825
2193.95707	10063.725
2196.88948	10053.525
2199.82001	10064.525
2202.74867	10047.925
2205.67545	10062.225
2208.60037	10029.425
2211.52341	10050.725
2214.44458	10024.525
2217.36388	10021.225
2220.28132	10012.325
2223.1969	10008.625
2226.11061	9989.725
2229.02246	9960.625
2231.93245	9937.625
2234.84058	9909.225
2237.74686	9908.625
2240.65128	9898.825
2243.55385	9899.025
2246.45456	9883.025
2249.35343	9882.525
2252.25044	9830.925
2255.14561	9834.325
2258.03893	9818.125
2260.93041	9816.325
2263.82004	9776.225
2266.70783	9778.025
2269.59378	9730.025
2272.4779	9715.125
2275.36017	9697.525
2278.24061	9696.925
2281.11922	9691.225
2283.996	9659.125
2286.87094	9666.425
2289.74405	9622.925
2292.61534	9642.825
2295.4848	9610.525
2298.35243	9664.725
2301.21824	9646.225
2304.08223	9659.625
2306.94439	9659.925
2309.80474	9664.025
2312.66327	9676.625
2315.51999	9685.625
2318.37489	9687.925
2321.22797	9669.225
2324.07925	9666.625
2326.92871	9654.525
2329.77637	9653.025
2332.62222	9661.825
2335.46626	9629.825
2338.3085	9619.125
2341.14893	9638.325
2343.98756	9684.425
2346.8244	9670.625
2349.65943	9639.025
2352.49267	9643.325
2355.32411	9638.025
2358.15376	9637.525
2360.98161	9631.825
2363.80768	9617.725
2366.63195	9605.125
2369.45444	9587.525
2372.27514	9551.425
2375.09405	9562.725
2377.91118	9544.525
2380.72652	9503.225
2383.54009	9465.525
2386.35187	9485.025
2389.16188	9446.825
2391.97011	9439.925
2394.77657	9436.625
2397.58125	9427.525
2400.38416	9410.325
2403.18529	9387.125
2405.98466	9374.425
2408.78226	9375.725
2411.57809	9331.225
2414.37216	9314.625
2417.16446	9321.725
2419.955	9286.725
2422.74378	9296.925
2425.5308	9292.725
2428.31606	9296.725
2431.09956	9286.225
2433.88131	9270.725
2436.6613	9272.425
2439.43954	9282.025
2442.21603	9252.625
2444.99077	9266.225
2447.76377	9281.825
2450.53501	9252.725
2453.30451	9237.625
2456.07226	9262.025
2458.83827	9255.925
2461.60254	9250.725
2464.36507	9253.725
2467.12586	9224.425
2469.88492	9241.525
2472.64224	9251.425
2475.39782	9259.425
2478.15167	9254.525
2480.90379	9247.125
2483.65417	9266.425
2486.40283	9298.625
2489.14976	9302.725
2491.89497	9296.825
2494.63845	9315.925
2497.3802	9276.525
2500.12024	9296.225
2502.85855	9314.425
2505.59514	9317.025
2508.33002	9273.025
2511.06318	9255.025
2513.79462	9246.025
2516.52435	9230.625
2519.25237	9244.325
2521.97867	9238.325
2524.70327	9228.925
2527.42616	9234.425
2530.14734	9212.625
2532.86681	9206.325
2535.58458	9205.225
2538.30065	9162.525
2541.01501	9196.825
2543.72768	9166.325
2546.43864	9191.425
2549.14791	9173.225
2551.85548	9186.025
2554.56136	9166.725
2557.26554	9187.925
2559.96803	9141.525
2562.66883	9138.425
2565.36794	9150.525
2568.06536	9126.125
2570.7611	9119.625
2573.45514	9119.825
2576.14751	9103.225
2578.83819	9107.025
2581.52719	9093.725
2584.21451	9098.225
2586.90015	9106.125
2589.58411	9098.325
2592.2664	9112.325
2594.94701	9095.625
2597.62594	9111.925
2600.30321	9099.925
2602.9788	9079.525
2605.65273	9083.025
2608.32498	9093.825
2610.99557	9076.725
2613.66449	9088.925
2616.33175	9087.325
2618.99734	9100.825
2621.66128	9104.925
2624.32355	9104.225
2626.98416	9099.925
2629.64311	9097.525
2632.30041	9125.425
2634.95605	9086.925
2637.61004	9086.625
2640.26238	9068.925
2642.91306	9063.725
2645.56209	9051.325
2648.20948	9024.425
2650.85521	9046.425
2653.4993	9036.725
2656.14175	9053.025
2658.78255	9040.825
2661.42171	9058.325
2664.05923	9055.125
2666.6951	9053.825
2669.32934	9058.125
2671.96194	9079.125
2674.59291	9072.725
2677.22224	9075.625
2679.84993	9071.525
2682.476	9061.825
2685.10043	9070.025
2687.72324	9031.725
2690.34441	9047.125
2692.96396	9026.025
2695.58188	9040.125
2698.19818	9037.025
2700.81285	9027.825
2703.4259	9055.225
2706.03733	9021.425
2708.64714	8999.625
2711.25533	9034.525
2713.86191	9019.025
2716.46687	9049.825
2719.07021	9049.325
2721.67194	9081.425
2724.27206	9059.825
2726.87057	9066.625
2729.46747	9083.025
2732.06276	9088.925
2734.65644	9055.825
2737.24852	9068.825
2739.83899	9061.325
2742.42786	9089.425
2745.01513	9029.825
2747.60079	9056.725
2750.18486	9055.925
2752.76733	9045.125
2755.3482	9040.025
2757.92747	9062.925
2760.50515	9032.225
2763.08123	9053.925
2765.65573	9049.725
2768.22863	9052.625
2770.79994	9048.425
2773.36967	9026.825
2775.9378	9045.925
2778.50435	9051.625
2781.06932	9021.125
2783.6327	9012.025
2786.1945	9037.525
2788.75471	9002.725
2791.31335	9008.225
2793.87041	8985.725
2796.42589	8955.025
2798.97979	8974.225
2801.53212	8945.225
2804.08288	8952.025
2806.63206	8926.325
2809.17967	8892.925
2811.72571	8878.025
2814.27018	8878.125
2816.81308	8878.325
2819.35442	8885.325
2821.89419	8859.125
2824.43239	8884.625
2826.96904	8868.625
2829.50412	8872.525
2832.03763	8847.425
2834.56959	8864.625
2837.1	8853.425
2839.62884	8847.125
2842.15613	8829.825
2844.68186	8856.225
2847.20604	8854.125
2849.72867	8848.225
2852.24974	8865.225
2854.76927	8853.625
2857.28724	8827.925
2859.80367	8849.125
2862.31855	8819.025
2864.83189	8806.825
2867.34368	8798.325
2869.85393	8838.425
2872.36264	8816.425
2874.8698	8782.525
2877.37543	8799.725
2879.87952	8821.125
2882.38207	8791.625
2884.88308	8812.025
2887.38256	8804.425
2889.88051	8800.225
2892.37692	8804.425
2894.8718	8806.325
2897.36515	8818.625
2899.85698	8840.325
2902.34727	8834.825
2904.83604	8874.025
2907.32328	8876.725
2909.809	8871.025
2912.29319	8889.225
2914.77587	8873.825
2917.25702	8882.125
2919.73665	8859.625
2922.21476	8865.225
2924.69136	8861.225
2927.16644	8863.725
2929.64	8850.025
2932.11205	8846.525
2934.58258	8812.825
2937.05161	8817.825
2939.51912	8815.225
2941.98513	8819.325
2944.44962	8791.125
2946.91261	8742.525
2949.37409	8767.425
2951.83407	8769.725
2954.29254	8774.325
2956.74951	8744.425
2959.20498	8737.825
2961.65895	8724.025
2964.11142	8750.525
2966.56239	8726.725
2969.01186	8728.525
2971.45984	8682.725
2973.90632	8694.625
2976.35131	8659.125
2978.7948	8669.125
2981.23681	8632.025
2983.67732	8645.125
2986.11635	8608.725
2988.55388	8588.825
2990.98993	8552.525
2993.4245	8563.825
2995.85758	8527.525
2998.28917	8516.425
3000.71928	8533.525
3003.14791	8516.825
3005.57506	8504.725
3008.00073	8483.525
3010.42493	8483.925
3012.84764	8473.225
3015.26888	8456.425
3017.68865	8440.025
3020.10694	8441.225
3022.52376	8413.525
3024.9391	8388.625
3027.35298	8382.025
3029.76539	8388.225
3032.17632	8409.025
3034.5858	8377.825
3036.9938	8360.525
3039.40034	8381.925
3041.80542	8362.825
3044.20903	8349.825
3046.61118	8361.625
3049.01187	8352.225
3051.4111	8333.825
3053.80888	8330.625
3056.20519	8305.425
3058.60005	8280.325
3060.99345	8252.325
3063.3854	8233.525
3065.7759	8219.725
3068.16494	8219.625
3070.55254	8197.625
3072.93868	8175.825
3075.32338	8158.825
3077.70662	8162.925
3080.08842	8124.925
3082.46878	8122.525
3084.84769	8127.925
3087.22515	8132.225
3089.60118	8111.925
3091.97576	8123.825
3094.3489	8106.025
3096.72061	8120.825
3099.09087	8136.425
3101.4597	8138.525
3103.82709	8138.125
3106.19305	8126.325
3108.55757	8128.725
3110.92066	8096.025
3113.28232	8090.825
3115.64255	8059.525
3118.00134	8062.625
3120.35871	8042.325
3122.71466	8037.825
3125.06917	8020.625
3127.42226	8011.525
3129.77393	7994.825
3132.12417	8013.025
3134.47299	8001.925
3136.82039	7993.825
3139.16636	8020.925
3141.51092	8012.525
3143.85406	8032.225
3146.19579	8022.225
3148.53609	8032.025
3150.87499	8056.025
3153.21246	8038.625
3155.54853	8045.525
3157.88318	8045.725
3160.21642	8063.725
3162.54826	8064.325
3164.87868	8039.125
3167.2077	8035.325
3169.5353	8069.125
3171.86151	8082.725
3174.18631	8029.325
