Data from AgNPs_FTO_APTES_UA_1uM_CRN_100uM_R6G_10uM_NaF_0.1M_Addition_RamanShift__17__16-40-29-785.txt Node

Date: Thu Jan 27 16:40:29 GMT 2022
User: TCL
Spectrometer: QEP01345
Trigger mode: 4
Integration Time (sec): 7.000000E0
Scans to average: 10
Electric dark correction enabled: true
Nonlinearity correction enabled: false
Boxcar width: 0
XAxis mode: Raman Shifts
Number of Pixels in Spectrum: 1044
>>>>>Begin Spectral Data<<<<<
46.04893	1.025
50.45542	1.625
54.85868	-1.175
59.25871	-1.175
63.6555	42.025
68.04907	41.125
72.43941	48.925
76.82654	50.425
81.21044	50.325
85.59113	51.125
89.96862	51.125
94.34289	55.625
98.71396	58.925
103.08183	58.125
107.4465	60.225
111.80798	63.225
116.16626	64.025
120.52136	66.325
124.87327	66.125
129.222	67.225
133.56755	70.125
137.90993	75.625
142.24913	79.425
146.58517	87.925
150.91804	100.825
155.24774	112.325
159.57429	136.525
163.89768	176.825
168.21792	231.025
172.53501	308.725
176.84895	425.925
181.15975	593.325
185.46741	826.325
189.77193	1143.525
194.07331	1518.425
198.37157	1969.325
202.6667	2431.825
206.9587	2902.925
211.24758	3339.225
215.53334	3786.125
219.81599	4264.125
224.09553	4778.325
228.37195	5364.525
232.64527	5959.625
236.91549	6628.625
241.18261	7291.125
245.44663	7930.025
249.70755	8524.325
253.96539	9021.325
258.22014	9453.825
262.4718	9805.125
266.72039	10084.125
270.96589	10211.225
275.20832	10261.625
279.44768	10216.625
283.68397	10160.125
287.91719	10117.325
292.14735	10082.225
296.37445	10110.325
300.59849	10123.025
304.81948	10125.825
309.03742	10053.625
313.25231	9948.325
317.46415	9667.125
321.67296	9432.925
325.87872	9211.925
330.08145	9084.325
334.28114	9069.425
338.47781	9134.025
342.67145	9226.225
346.86207	9381.925
351.04966	9521.425
355.23424	9687.525
359.4158	9833.825
363.59435	9898.225
367.76989	9985.525
371.94243	10045.225
376.11196	10122.125
380.27849	10183.325
384.44203	10253.125
388.60257	10317.925
392.76012	10448.625
396.91468	10539.525
401.06626	10675.625
405.21485	10775.025
409.36047	10759.225
413.50311	10624.525
417.64277	10514.125
421.77947	10490.225
425.9132	10519.225
430.04396	10596.325
434.17176	10642.325
438.2966	10728.125
442.41849	10886.125
446.53742	11103.525
450.6534	11363.325
454.76644	11594.125
458.87653	11713.225
462.98368	11729.825
467.08789	11647.925
471.18916	11595.825
475.2875	11530.025
479.38291	11509.025
483.4754	11475.225
487.56496	11333.525
491.6516	11146.725
495.73531	10971.125
499.81612	10868.425
503.89401	10909.825
507.96899	10948.025
512.04106	10920.725
516.11023	10868.925
520.1765	10761.125
524.23987	10676.625
528.30034	10568.025
532.35792	10492.225
536.41261	10379.125
540.46441	10329.025
544.51333	10352.925
548.55936	10475.225
552.60252	10693.525
556.64279	10920.725
560.6802	11053.725
564.71473	11124.925
568.7464	11293.525
572.7752	11507.725
576.80114	11711.025
580.82422	11842.225
584.84444	11992.125
588.86181	12097.125
592.87633	12175.225
596.888	12246.625
600.89682	12202.225
604.9028	12500.125
608.90594	13213.525
612.90624	13894.025
616.90371	13175.325
620.89834	11501.025
624.89015	10789.025
628.87913	10760.025
632.86528	10843.925
636.84862	10825.125
640.82913	10706.825
644.80683	10476.425
648.78172	10265.325
652.75379	10214.225
656.72306	10268.925
660.68952	10348.825
664.65319	10348.625
668.61405	10226.625
672.57211	10171.225
676.52738	10198.925
680.47986	10235.425
684.42955	10202.425
688.37646	10161.225
692.32058	10163.525
696.26192	10229.525
700.20048	10312.925
704.13626	10366.425
708.06928	10363.325
711.99952	10315.025
715.927	10272.825
719.85171	10281.825
723.77365	10284.425
727.69284	10202.225
731.60928	10120.625
735.52295	10098.925
739.43388	10080.025
743.34206	10081.725
747.24749	10128.625
751.15017	10206.125
755.05012	10351.425
758.94733	10606.625
762.8418	11061.425
766.73354	11716.525
770.62254	12358.425
774.50882	12491.825
778.39237	12024.825
782.27321	11238.525
786.15132	10653.425
790.02671	10290.525
793.89938	10134.225
797.76935	10051.625
801.6366	10044.525
805.50115	10019.525
809.36299	9987.725
813.22213	9914.425
817.07857	9891.825
820.93231	9878.525
824.78336	9847.725
828.63172	9809.825
832.47738	9768.325
836.32036	9791.125
840.16066	9837.025
843.99827	9878.625
847.8332	9843.925
851.66546	9799.725
855.49504	9761.425
859.32195	9774.625
863.1462	9742.525
866.96777	9754.725
870.78668	9706.125
874.60293	9712.525
878.41652	9696.825
882.22745	9706.925
886.03573	9751.025
889.84136	9737.325
893.64433	9732.125
897.44466	9649.925
901.24235	9638.925
905.0374	9604.425
908.8298	9596.725
912.61957	9595.325
916.40671	9683.825
920.19121	9824.225
923.97308	9920.225
927.75233	9913.225
931.52895	9860.425
935.30295	9757.625
939.07433	9622.225
942.84309	9489.025
946.60924	9414.225
950.37278	9375.625
954.13371	9340.325
957.89203	9327.225
961.64774	9304.725
965.40086	9273.725
969.15137	9237.825
972.89929	9206.825
976.64461	9146.825
980.38733	9153.225
984.12747	9144.825
987.86502	9228.225
991.59999	9300.925
995.33237	9474.925
999.06217	9702.825
1002.78939	9938.125
1006.51404	10058.725
1010.23611	10074.825
1013.95561	10125.225
1017.67255	10166.825
1021.38692	10089.925
1025.09872	10034.625
1028.80796	10080.125
1032.51465	10295.725
1036.21877	10556.425
1039.92035	10587.025
1043.61937	10476.325
1047.31584	10289.225
1051.00976	10090.025
1054.70114	10005.925
1058.38998	10049.925
1062.07627	10115.425
1065.76003	10158.825
1069.44126	10233.725
1073.11995	10302.925
1076.79611	10400.325
1080.46974	10433.125
1084.14085	10465.625
1087.80943	10503.625
1091.47549	10575.225
1095.13903	10607.925
1098.80005	10524.225
1102.45857	10357.925
1106.11456	10175.825
1109.76805	10127.225
1113.41903	10157.825
1117.06751	10180.825
1120.71348	10273.725
1124.35696	10368.525
1127.99793	10451.225
1131.63641	10573.925
1135.2724	10484.425
1138.90589	10432.525
1142.5369	10387.925
1146.16542	10449.825
1149.79145	10469.725
1153.415	10554.025
1157.03607	10696.225
1160.65467	10927.325
1164.27079	11323.025
1167.88443	11832.125
1171.49561	12483.225
1175.10432	13298.425
1178.71056	14226.125
1182.31434	15149.425
1185.91565	15676.025
1189.51451	15717.125
1193.11091	15385.425
1196.70485	14875.325
1200.29634	14307.525
1203.88538	13848.725
1207.47197	13550.125
1211.05612	13297.925
1214.63782	13067.525
1218.21708	12813.925
1221.79391	12609.825
1225.36829	12500.325
1228.94024	12321.725
1232.50976	12135.625
1236.07685	11927.825
1239.6415	11863.525
1243.20374	11870.425
1246.76355	11926.525
1250.32093	12048.025
1253.8759	12270.025
1257.42845	12561.225
1260.97859	12840.325
1264.52631	13108.425
1268.07163	13411.625
1271.61453	13725.025
1275.15503	14121.525
1278.69312	14557.125
1282.22882	14952.125
1285.76211	15301.225
1289.29301	15666.625
1292.82151	16206.125
1296.34761	16943.325
1299.87133	17878.425
1303.39266	18853.525
1306.9116	19923.725
1310.42815	20840.025
1313.94233	21403.625
1317.45412	21381.525
1320.96354	21066.225
1324.47058	20737.225
1327.97525	20430.225
1331.47754	20267.125
1334.97747	20110.525
1338.47502	20024.925
1341.97022	19995.225
1345.46305	19875.225
1348.95352	19591.625
1352.44163	19302.625
1355.92738	19281.525
1359.41078	19626.825
1362.89183	19982.725
1366.37053	19668.025
1369.84688	18394.825
1373.32088	16780.425
1376.79254	15631.425
1380.26186	15200.825
1383.72883	15169.225
1387.19347	15283.025
1390.65578	15259.725
1394.11575	15267.725
1397.57339	15434.925
1401.0287	15718.925
1404.48168	15946.725
1407.93234	15931.425
1411.38068	15639.525
1414.82669	15119.325
1418.27039	14456.325
1421.71177	13859.625
1425.15083	13362.425
1428.58758	13037.825
1432.02203	13015.825
1435.45416	13208.025
1438.88399	13628.125
1442.31151	13939.925
1445.73673	14188.325
1449.15965	14430.425
1452.58027	14665.325
1455.9986	14789.425
1459.41463	14895.425
1462.82837	15086.025
1466.23982	15332.325
1469.64898	15488.625
1473.05586	15601.525
1476.46045	15552.525
1479.86276	15449.425
1483.26279	15188.925
1486.66054	15024.225
1490.05602	14957.425
1493.44922	14963.525
1496.84016	15063.425
1500.22882	15302.625
1503.61521	15676.025
1506.99934	16188.025
1510.38121	16696.625
1513.76081	16885.725
1517.13816	16632.125
1520.51324	16200.725
1523.88607	15772.025
1527.25665	15498.925
1530.62498	15435.425
1533.99105	15363.825
1537.35488	15283.225
1540.71647	15083.825
1544.07581	14821.025
1547.4329	14546.625
1550.78776	14261.625
1554.14038	14098.025
1557.49077	14062.525
1560.83892	13970.525
1564.18484	13975.025
1567.52853	13984.625
1570.86999	14095.425
1574.20922	14330.025
1577.54624	14537.025
1580.88103	14615.525
1584.2136	14684.525
1587.54395	15007.225
1590.87208	15519.925
1594.19801	16239.225
1597.52172	16964.225
1600.84321	17236.525
1604.16251	16622.825
1607.47959	15518.225
1610.79447	14379.225
1614.10715	13300.425
1617.41763	12422.925
1620.7259	11728.825
1624.03199	11351.725
1627.33587	11272.025
1630.63757	11536.625
1633.93707	12075.725
1637.23439	13030.925
1640.52951	14319.725
1643.82246	15794.425
1647.11321	16966.325
1650.40179	17277.625
1653.68819	16433.425
1656.97241	14667.125
1660.25446	12864.525
1663.53433	11416.725
1666.81203	10483.025
1670.08756	9837.825
1673.36092	9464.925
1676.63211	9207.725
1679.90115	9036.725
1683.16801	8882.025
1686.43272	8762.125
1689.69527	8666.825
1692.95567	8583.225
1696.2139	8543.425
1699.46999	8465.325
1702.72392	8399.925
1705.97571	8402.825
1709.22535	8437.425
1712.47284	8446.125
1715.71819	8430.125
1718.96139	8444.925
1722.20246	8429.525
1725.44139	8366.225
1728.67818	8336.325
1731.91284	8292.225
1735.14537	8267.325
1738.37576	8221.025
1741.60403	8202.225
1744.83017	8158.425
1748.05418	8154.825
1751.27607	8148.725
1754.49584	8102.225
1757.71349	8084.625
1760.92903	8047.525
1764.14244	8033.525
1767.35375	8042.925
1770.56294	8006.625
1773.77002	7997.725
1776.97499	7986.525
1780.17785	7995.725
1783.37861	8026.525
1786.57727	7986.225
1789.77382	7994.525
1792.96828	7977.325
1796.16064	7949.425
1799.3509	7937.925
1802.53907	7937.425
1805.72514	7903.125
1808.90913	7877.525
1812.09102	7859.025
1815.27083	7872.625
1818.44856	7835.625
1821.6242	7832.825
1824.79776	7832.225
1827.96924	7823.525
1831.13864	7811.525
1834.30597	7785.825
1837.47122	7791.625
1840.6344	7796.025
1843.7955	7792.225
1846.95454	7782.425
1850.11151	7776.725
1853.26642	7779.625
1856.41926	7779.225
1859.57004	7787.225
1862.71876	7757.325
1865.86542	7772.525
1869.01003	7756.025
1872.15258	7733.825
1875.29308	7727.925
1878.43152	7744.725
1881.56792	7714.625
1884.70227	7714.725
1887.83457	7713.325
1890.96482	7699.625
1894.09304	7695.425
1897.21921	7672.225
1900.34335	7675.425
1903.46544	7671.325
1906.58551	7659.425
1909.70353	7658.025
1912.81953	7637.325
1915.93349	7611.725
1919.04543	7628.025
1922.15534	7613.625
1925.26322	7597.825
1928.36908	7586.025
1931.47292	7563.025
1934.57473	7551.525
1937.67453	7537.925
1940.77232	7516.925
1943.86808	7491.225
1946.96184	7473.825
1950.05358	7423.925
1953.14331	7428.925
1956.23103	7402.025
1959.31675	7375.125
1962.40046	7344.925
1965.48217	7333.025
1968.56188	7317.225
1971.63959	7290.525
1974.7153	7274.525
1977.78901	7249.125
1980.86073	7236.325
1983.93046	7204.025
1986.99819	7195.625
1990.06394	7177.125
1993.1277	7169.325
1996.18947	7120.925
1999.24925	7124.825
2002.30706	7081.125
2005.36288	7058.225
2008.41672	7049.425
2011.46859	7053.825
2014.51848	7001.325
2017.56639	6994.825
2020.61233	6986.025
2023.6563	6963.525
2026.6983	6964.725
2029.73833	6935.225
2032.7764	6937.425
2035.8125	6921.025
2038.84664	6908.925
2041.87881	6900.825
2044.90903	6888.925
2047.93729	6873.525
2050.96359	6867.425
2053.98794	6832.725
2057.01034	6858.825
2060.03078	6874.725
2063.04927	6836.425
2066.06582	6845.425
2069.08042	6837.825
2072.09307	6817.725
2075.10378	6823.425
2078.11255	6822.125
2081.11938	6806.225
2084.12426	6819.125
2087.12722	6808.525
2090.12824	6801.525
2093.12732	6797.125
2096.12447	6786.025
2099.11969	6796.125
2102.11299	6799.225
2105.10435	6788.325
2108.09379	6802.125
2111.08131	6813.925
2114.0669	6815.925
2117.05057	6804.425
2120.03233	6812.425
2123.01216	6840.625
2125.99008	6826.625
2128.96609	6858.925
2131.94018	6855.425
2134.91236	6849.525
2137.88263	6874.825
2140.851	6845.125
2143.81746	6866.325
2146.78201	6875.025
2149.74466	6862.825
2152.7054	6875.225
2155.66425	6854.225
2158.6212	6857.825
2161.57625	6840.725
2164.52941	6876.025
2167.48067	6874.525
2170.43004	6863.725
2173.37752	6857.225
2176.32311	6848.425
2179.26681	6859.125
2182.20863	6862.425
2185.14856	6859.825
2188.08661	6886.725
2191.02278	6864.625
2193.95707	6870.825
2196.88948	6852.525
2199.82001	6836.025
2202.74867	6839.425
2205.67545	6858.325
2208.60037	6836.625
2211.52341	6828.925
2214.44458	6802.225
2217.36388	6813.325
2220.28132	6794.225
2223.1969	6801.425
2226.11061	6786.125
2229.02246	6762.225
2231.93245	6773.125
2234.84058	6738.825
2237.74686	6728.525
2240.65128	6732.125
2243.55385	6697.025
2246.45456	6726.625
2249.35343	6688.225
2252.25044	6686.225
2255.14561	6664.825
2258.03893	6682.125
2260.93041	6639.225
2263.82004	6630.525
2266.70783	6610.525
2269.59378	6601.225
2272.4779	6581.825
2275.36017	6593.225
2278.24061	6560.725
2281.11922	6555.425
2283.996	6541.725
2286.87094	6533.025
2289.74405	6518.025
2292.61534	6527.825
2295.4848	6520.925
2298.35243	6533.225
2301.21824	6511.325
2304.08223	6526.525
2306.94439	6526.025
2309.80474	6519.425
2312.66327	6520.725
2315.51999	6527.825
2318.37489	6517.025
2321.22797	6523.125
2324.07925	6514.925
2326.92871	6496.225
2329.77637	6492.825
2332.62222	6478.425
2335.46626	6470.625
2338.3085	6450.725
2341.14893	6461.925
2343.98756	6493.625
2346.8244	6458.525
2349.65943	6461.525
2352.49267	6473.725
2355.32411	6477.525
2358.15376	6460.325
2360.98161	6456.725
2363.80768	6451.625
2366.63195	6441.325
2369.45444	6439.825
2372.27514	6420.425
2375.09405	6431.725
2377.91118	6404.525
2380.72652	6399.225
2383.54009	6356.625
2386.35187	6356.125
2389.16188	6355.625
2391.97011	6335.625
2394.77657	6332.425
2397.58125	6303.525
2400.38416	6308.925
2403.18529	6306.625
2405.98466	6302.725
2408.78226	6286.725
2411.57809	6279.525
2414.37216	6266.725
2417.16446	6247.225
2419.955	6241.125
2422.74378	6246.225
2425.5308	6249.525
2428.31606	6241.325
2431.09956	6238.525
2433.88131	6221.125
2436.6613	6227.525
2439.43954	6233.225
2442.21603	6226.525
2444.99077	6221.225
2447.76377	6236.025
2450.53501	6223.725
2453.30451	6211.925
2456.07226	6223.525
2458.83827	6202.325
2461.60254	6198.025
2464.36507	6226.325
2467.12586	6180.225
2469.88492	6184.225
2472.64224	6195.825
2475.39782	6197.825
2478.15167	6194.025
2480.90379	6190.225
2483.65417	6201.125
2486.40283	6209.825
2489.14976	6222.525
2491.89497	6204.825
2494.63845	6204.725
2497.3802	6207.725
2500.12024	6205.525
2502.85855	6181.925
2505.59514	6185.725
2508.33002	6198.525
2511.06318	6178.225
2513.79462	6186.325
2516.52435	6165.225
2519.25237	6168.625
2521.97867	6179.125
2524.70327	6181.425
2527.42616	6148.925
2530.14734	6161.325
2532.86681	6127.925
2535.58458	6136.225
2538.30065	6113.525
2541.01501	6146.425
2543.72768	6134.025
2546.43864	6121.725
2549.14791	6117.125
2551.85548	6105.025
2554.56136	6081.825
2557.26554	6087.025
2559.96803	6086.425
2562.66883	6072.625
2565.36794	6077.425
2568.06536	6081.925
2570.7611	6067.225
2573.45514	6056.525
2576.14751	6062.125
2578.83819	6056.725
2581.52719	6048.625
2584.21451	6046.325
2586.90015	6042.325
2589.58411	6037.925
2592.2664	6041.725
2594.94701	6018.525
2597.62594	6022.825
2600.30321	6009.025
2602.9788	6005.125
2605.65273	5997.225
2608.32498	6014.425
2610.99557	5966.725
2613.66449	6010.325
2616.33175	5993.025
2618.99734	6006.925
2621.66128	5996.625
2624.32355	5994.925
2626.98416	5990.625
2629.64311	5983.125
2632.30041	5992.425
2634.95605	5979.425
2637.61004	5977.125
2640.26238	5958.625
2642.91306	5972.125
2645.56209	5959.625
2648.20948	5961.525
2650.85521	5943.425
2653.4993	5956.825
2656.14175	5971.025
2658.78255	5958.225
2661.42171	5963.325
2664.05923	5967.525
2666.6951	5973.325
2669.32934	5967.425
2671.96194	5966.625
2674.59291	5981.325
2677.22224	5962.225
2679.84993	5951.225
2682.476	5936.725
2685.10043	5942.725
2687.72324	5944.725
2690.34441	5929.825
2692.96396	5941.525
2695.58188	5959.425
2698.19818	5932.825
2700.81285	5951.125
2703.4259	5937.925
2706.03733	5896.725
2708.64714	5903.925
2711.25533	5954.225
2713.86191	5939.325
2716.46687	5956.625
2719.07021	5947.825
2721.67194	5954.325
2724.27206	5960.025
2726.87057	5972.425
2729.46747	5975.425
2732.06276	5984.725
2734.65644	5972.325
2737.24852	5980.725
2739.83899	5956.325
2742.42786	5962.625
2745.01513	5968.925
2747.60079	5955.725
2750.18486	5974.325
2752.76733	5945.125
2755.3482	5934.325
2757.92747	5941.125
2760.50515	5947.025
2763.08123	5935.125
2765.65573	5956.725
2768.22863	5943.525
2770.79994	5941.725
2773.36967	5923.125
2775.9378	5926.925
2778.50435	5916.225
2781.06932	5923.425
2783.6327	5900.025
2786.1945	5920.725
2788.75471	5904.825
2791.31335	5901.125
2793.87041	5889.425
2796.42589	5904.025
2798.97979	5883.525
2801.53212	5874.125
2804.08288	5869.725
2806.63206	5862.225
2809.17967	5849.825
2811.72571	5842.025
2814.27018	5823.025
2816.81308	5807.525
2819.35442	5798.725
2821.89419	5816.225
2824.43239	5800.425
2826.96904	5818.625
2829.50412	5793.225
2832.03763	5790.625
2834.56959	5790.025
2837.1	5779.425
2839.62884	5786.725
2842.15613	5784.225
2844.68186	5810.725
2847.20604	5807.625
2849.72867	5793.825
2852.24974	5806.525
2854.76927	5790.525
2857.28724	5781.225
2859.80367	5776.125
2862.31855	5769.125
2864.83189	5771.825
2867.34368	5769.525
2869.85393	5751.225
2872.36264	5762.225
2874.8698	5779.025
2877.37543	5738.025
2879.87952	5771.325
2882.38207	5750.225
2884.88308	5768.125
2887.38256	5765.325
2889.88051	5762.725
2892.37692	5756.825
2894.8718	5773.225
2897.36515	5786.225
2899.85698	5789.725
2902.34727	5797.025
2904.83604	5820.725
2907.32328	5807.925
2909.809	5815.525
2912.29319	5828.825
2914.77587	5822.825
2917.25702	5830.025
2919.73665	5814.625
2922.21476	5835.125
2924.69136	5806.325
2927.16644	5829.025
2929.64	5810.225
2932.11205	5813.125
2934.58258	5793.225
2937.05161	5795.325
2939.51912	5811.325
2941.98513	5784.725
2944.44962	5775.425
2946.91261	5764.425
2949.37409	5755.525
2951.83407	5767.025
2954.29254	5758.425
2956.74951	5759.925
2959.20498	5764.125
2961.65895	5740.025
2964.11142	5761.725
2966.56239	5718.325
2969.01186	5727.125
2971.45984	5714.625
2973.90632	5717.625
2976.35131	5686.425
2978.7948	5675.625
2981.23681	5679.525
2983.67732	5675.925
2986.11635	5654.825
2988.55388	5627.225
2990.98993	5636.525
2993.4245	5633.425
2995.85758	5621.825
2998.28917	5608.125
3000.71928	5596.325
3003.14791	5590.625
3005.57506	5590.425
3008.00073	5567.725
3010.42493	5564.725
3012.84764	5566.225
3015.26888	5553.825
3017.68865	5543.525
3020.10694	5538.525
3022.52376	5520.625
3024.9391	5518.125
3027.35298	5525.025
3029.76539	5529.325
3032.17632	5512.125
3034.5858	5511.125
3036.9938	5517.325
3039.40034	5511.725
3041.80542	5521.025
3044.20903	5488.925
3046.61118	5510.325
3049.01187	5496.625
3051.4111	5493.325
3053.80888	5482.525
3056.20519	5480.225
3058.60005	5473.125
3060.99345	5453.925
3063.3854	5450.525
3065.7759	5427.025
3068.16494	5428.825
3070.55254	5395.525
3072.93868	5415.825
3075.32338	5389.125
3077.70662	5402.925
3080.08842	5376.825
3082.46878	5385.825
3084.84769	5384.925
3087.22515	5386.325
3089.60118	5380.625
3091.97576	5366.725
3094.3489	5369.925
3096.72061	5386.425
3099.09087	5383.425
3101.4597	5387.825
3103.82709	5387.525
3106.19305	5383.125
3108.55757	5397.925
3110.92066	5379.425
3113.28232	5365.425
3115.64255	5367.625
3118.00134	5361.225
3120.35871	5356.825
3122.71466	5344.325
3125.06917	5350.525
3127.42226	5330.025
3129.77393	5347.025
3132.12417	5351.625
3134.47299	5343.225
3136.82039	5333.625
3139.16636	5343.825
3141.51092	5343.425
3143.85406	5356.925
3146.19579	5348.025
3148.53609	5364.425
3150.87499	5380.325
3153.21246	5383.225
3155.54853	5387.125
3157.88318	5392.825
3160.21642	5408.825
3162.54826	5405.425
3164.87868	5410.125
3167.2077	5396.425
3169.5353	5424.425
3171.86151	5420.725
3174.18631	5419.925
3176.5097	5416.025
3178.83169	5401.725
3181.15228	5410.025
3183.47147	5410.525
3185.78926	5415.025
3188.10565	5406.525
3190.42065	5407.825
3192.73424	5400.825
3195.04645	5412.625
3197.35725	5425.125
3199.66667	5406.925
