Data from AgNPs_FTO_APTES_UA_1uM_CRN_10uM_R6G_20uM_NaF_0.1M_Addition_RamanShift__9__15-08-19-680.txt Node

Date: Thu Jan 27 15:08:19 GMT 2022
User: TCL
Spectrometer: QEP01345
Trigger mode: 4
Integration Time (sec): 7.000000E0
Scans to average: 10
Electric dark correction enabled: true
Nonlinearity correction enabled: false
Boxcar width: 0
XAxis mode: Raman Shifts
Number of Pixels in Spectrum: 1044
>>>>>Begin Spectral Data<<<<<
46.04893	2.0625
50.45542	-0.4375
54.85868	-0.9375
59.25871	-1.8375
63.6555	49.4625
68.04907	51.7625
72.43941	52.4625
76.82654	56.9625
81.21044	60.5625
85.59113	57.9625
89.96862	61.8625
94.34289	67.6625
98.71396	68.1625
103.08183	67.7625
107.4465	72.7625
111.80798	74.5625
116.16626	72.5625
120.52136	78.5625
124.87327	83.4625
129.222	79.6625
133.56755	84.9625
137.90993	89.2625
142.24913	101.0625
146.58517	108.9625
150.91804	123.4625
155.24774	148.7625
159.57429	175.8625
163.89768	227.0625
168.21792	293.0625
172.53501	400.1625
176.84895	543.8625
181.15975	761.2625
185.46741	1077.5625
189.77193	1482.1625
194.07331	1984.7625
198.37157	2557.6625
202.6667	3179.2625
206.9587	3779.1625
211.24758	4345.4625
215.53334	4933.4625
219.81599	5554.1625
224.09553	6214.9625
228.37195	6942.5625
232.64527	7765.8625
236.91549	8622.0625
241.18261	9501.2625
245.44663	10340.0625
249.70755	11108.6625
253.96539	11776.9625
258.22014	12374.6625
262.4718	12827.1625
266.72039	13156.5625
270.96589	13308.7625
275.20832	13357.7625
279.44768	13293.0625
283.68397	13194.3625
287.91719	13065.8625
292.14735	12990.5625
296.37445	12926.9625
300.59849	12954.4625
304.81948	12985.2625
309.03742	12971.3625
313.25231	12902.8625
317.46415	12725.6625
321.67296	12500.5625
325.87872	12299.0625
330.08145	12193.3625
334.28114	12181.7625
338.47781	12266.9625
342.67145	12385.8625
346.86207	12583.7625
351.04966	12769.6625
355.23424	12956.5625
359.4158	13153.8625
363.59435	13268.4625
367.76989	13366.0625
371.94243	13445.4625
376.11196	13496.8625
380.27849	13556.6625
384.44203	13627.1625
388.60257	13700.3625
392.76012	13848.6625
396.91468	14027.9625
401.06626	14212.8625
405.21485	14352.6625
409.36047	14319.5625
413.50311	14167.7625
417.64277	14107.7625
421.77947	14136.2625
425.9132	14195.7625
430.04396	14265.5625
434.17176	14357.5625
438.2966	14399.6625
442.41849	14547.8625
446.53742	14740.6625
450.6534	15058.0625
454.76644	15262.3625
458.87653	15361.6625
462.98368	15351.6625
467.08789	15263.1625
471.18916	15125.1625
475.2875	14963.5625
479.38291	14871.9625
483.4754	14790.3625
487.56496	14682.1625
491.6516	14565.2625
495.73531	14391.0625
499.81612	14344.2625
503.89401	14423.6625
507.96899	14477.3625
512.04106	14504.9625
516.11023	14447.5625
520.1765	14335.3625
524.23987	14178.8625
528.30034	14081.6625
532.35792	13995.8625
536.41261	13891.0625
540.46441	13791.0625
544.51333	13777.8625
548.55936	13917.8625
552.60252	14114.9625
556.64279	14324.3625
560.6802	14510.8625
564.71473	14595.7625
568.7464	14760.8625
572.7752	15068.6625
576.80114	15481.4625
580.82422	15835.6625
584.84444	16310.5625
588.86181	16803.3625
592.87633	17213.4625
596.888	17133.3625
600.89682	16627.1625
604.9028	16400.6625
608.90594	16972.1625
612.90624	17702.2625
616.90371	16946.2625
620.89834	15024.9625
624.89015	14200.1625
628.87913	14068.7625
632.86528	14200.1625
636.84862	14234.4625
640.82913	14069.8625
644.80683	13811.5625
648.78172	13676.8625
652.75379	13669.2625
656.72306	13789.9625
660.68952	13929.8625
664.65319	13882.6625
668.61405	13723.4625
672.57211	13707.3625
676.52738	13732.4625
680.47986	13728.3625
684.42955	13681.6625
688.37646	13612.9625
692.32058	13655.7625
696.26192	13793.7625
700.20048	13949.3625
704.13626	14048.3625
708.06928	14044.4625
711.99952	14009.6625
715.927	14030.9625
719.85171	14016.1625
723.77365	13979.9625
727.69284	13825.7625
731.60928	13677.1625
735.52295	13591.3625
739.43388	13606.0625
743.34206	13630.8625
747.24749	13697.6625
751.15017	13804.6625
755.05012	13971.6625
758.94733	14222.2625
762.8418	14703.2625
766.73354	15471.0625
770.62254	16119.1625
774.50882	16214.9625
778.39237	15684.3625
782.27321	14988.3625
786.15132	14341.4625
790.02671	13923.6625
793.89938	13728.5625
797.76935	13630.6625
801.6366	13603.0625
805.50115	13531.0625
809.36299	13491.9625
813.22213	13414.5625
817.07857	13393.8625
820.93231	13361.5625
824.78336	13286.5625
828.63172	13270.6625
832.47738	13283.3625
836.32036	13212.8625
840.16066	13245.8625
843.99827	13244.5625
847.8332	13225.7625
851.66546	13236.6625
855.49504	13221.7625
859.32195	13235.2625
863.1462	13210.8625
866.96777	13203.0625
870.78668	13186.6625
874.60293	13203.3625
878.41652	13202.3625
882.22745	13254.9625
886.03573	13300.3625
889.84136	13290.0625
893.64433	13231.3625
897.44466	13210.1625
901.24235	13184.7625
905.0374	13132.7625
908.8298	13119.2625
912.61957	13119.7625
916.40671	13219.8625
920.19121	13338.8625
923.97308	13439.5625
927.75233	13448.6625
931.52895	13328.1625
935.30295	13150.9625
939.07433	12993.9625
942.84309	12891.4625
946.60924	12812.1625
950.37278	12774.3625
954.13371	12772.5625
957.89203	12744.5625
961.64774	12736.7625
965.40086	12737.2625
969.15137	12678.0625
972.89929	12653.3625
976.64461	12605.2625
980.38733	12591.9625
984.12747	12621.7625
987.86502	12610.5625
991.59999	12655.4625
995.33237	12750.3625
999.06217	12868.2625
1002.78939	13066.5625
1006.51404	13215.0625
1010.23611	13391.8625
1013.95561	13489.0625
1017.67255	13543.0625
1021.38692	13460.8625
1025.09872	13290.0625
1028.80796	13212.8625
1032.51465	13152.8625
1036.21877	13193.5625
1039.92035	13236.3625
1043.61937	13284.1625
1047.31584	13265.2625
1051.00976	13278.8625
1054.70114	13294.6625
1058.38998	13377.4625
1062.07627	13454.1625
1065.76003	13587.8625
1069.44126	13715.9625
1073.11995	13903.2625
1076.79611	14049.8625
1080.46974	14119.0625
1084.14085	14168.7625
1087.80943	14228.7625
1091.47549	14350.3625
1095.13903	14389.9625
1098.80005	14266.2625
1102.45857	14001.0625
1106.11456	13769.0625
1109.76805	13616.3625
1113.41903	13610.7625
1117.06751	13661.8625
1120.71348	13721.7625
1124.35696	13835.5625
1127.99793	13942.4625
1131.63641	14032.5625
1135.2724	13990.8625
1138.90589	13955.8625
1142.5369	13967.3625
1146.16542	14020.9625
1149.79145	14116.7625
1153.415	14176.1625
1157.03607	14297.7625
1160.65467	14553.2625
1164.27079	15044.3625
1167.88443	15616.1625
1171.49561	16212.0625
1175.10432	16952.7625
1178.71056	17845.0625
1182.31434	18711.1625
1185.91565	19200.8625
1189.51451	19240.4625
1193.11091	18982.6625
1196.70485	18561.0625
1200.29634	18023.8625
1203.88538	17656.3625
1207.47197	17357.0625
1211.05612	17227.7625
1214.63782	16986.3625
1218.21708	16632.7625
1221.79391	16203.3625
1225.36829	15863.4625
1228.94024	15703.5625
1232.50976	15594.3625
1236.07685	15439.8625
1239.6415	15366.9625
1243.20374	15372.2625
1246.76355	15444.4625
1250.32093	15586.1625
1253.8759	15832.9625
1257.42845	16125.1625
1260.97859	16479.2625
1264.52631	16833.4625
1268.07163	17206.2625
1271.61453	17509.8625
1275.15503	17862.6625
1278.69312	18236.0625
1282.22882	18651.3625
1285.76211	19104.2625
1289.29301	19700.9625
1292.82151	20447.2625
1296.34761	21285.4625
1299.87133	22260.4625
1303.39266	23237.0625
1306.9116	24104.0625
1310.42815	24681.4625
1313.94233	24989.6625
1317.45412	24804.9625
1320.96354	24501.5625
1324.47058	24267.7625
1327.97525	24151.3625
1331.47754	24071.1625
1334.97747	24017.2625
1338.47502	23939.4625
1341.97022	23864.7625
1345.46305	23704.5625
1348.95352	23587.3625
1352.44163	23495.9625
1355.92738	23690.2625
1359.41078	24182.2625
1362.89183	24630.5625
1366.37053	24331.3625
1369.84688	22901.1625
1373.32088	20972.6625
1376.79254	19511.1625
1380.26186	18911.3625
1383.72883	18888.1625
1387.19347	18943.4625
1390.65578	18804.3625
1394.11575	18654.0625
1397.57339	18692.7625
1401.0287	18868.8625
1404.48168	19004.8625
1407.93234	19006.6625
1411.38068	18716.0625
1414.82669	18232.3625
1418.27039	17637.0625
1421.71177	17066.3625
1425.15083	16618.3625
1428.58758	16382.5625
1432.02203	16517.2625
1435.45416	16820.2625
1438.88399	17198.1625
1442.31151	17512.1625
1445.73673	17714.0625
1449.15965	17795.4625
1452.58027	17837.7625
1455.9986	17850.7625
1459.41463	17879.0625
1462.82837	18080.8625
1466.23982	18360.8625
1469.64898	18611.6625
1473.05586	18781.0625
1476.46045	18788.6625
1479.86276	18721.1625
1483.26279	18586.4625
1486.66054	18535.7625
1490.05602	18600.3625
1493.44922	18831.2625
1496.84016	19079.0625
1500.22882	19449.6625
1503.61521	19917.8625
1506.99934	20455.6625
1510.38121	20855.0625
1513.76081	20941.9625
1517.13816	20616.4625
1520.51324	20159.2625
1523.88607	19868.7625
1527.25665	19710.9625
1530.62498	19656.5625
1533.99105	19565.2625
1537.35488	19280.8625
1540.71647	18908.0625
1544.07581	18438.6625
1547.4329	18021.6625
1550.78776	17623.5625
1554.14038	17349.1625
1557.49077	17229.1625
1560.83892	17149.0625
1564.18484	17128.1625
1567.52853	17161.5625
1570.86999	17296.2625
1574.20922	17551.9625
1577.54624	17835.0625
1580.88103	17919.7625
1584.2136	18011.7625
1587.54395	18330.2625
1590.87208	18955.4625
1594.19801	19807.4625
1597.52172	20583.0625
1600.84321	20773.4625
1604.16251	20026.2625
1607.47959	18803.8625
1610.79447	17563.4625
1614.10715	16402.4625
1617.41763	15418.4625
1620.7259	14693.1625
1624.03199	14328.6625
1627.33587	14286.7625
1630.63757	14543.3625
1633.93707	15197.0625
1637.23439	16352.6625
1640.52951	18079.3625
1643.82246	20127.7625
1647.11321	21826.2625
1650.40179	22288.0625
1653.68819	20950.8625
1656.97241	18624.8625
1660.25446	16349.7625
1663.53433	14602.8625
1666.81203	13499.3625
1670.08756	12770.8625
1673.36092	12354.5625
1676.63211	12088.9625
1679.90115	11884.9625
1683.16801	11749.6625
1686.43272	11608.0625
1689.69527	11512.2625
1692.95567	11400.7625
1696.2139	11345.0625
1699.46999	11274.0625
1702.72392	11205.8625
1705.97571	11221.3625
1709.22535	11263.2625
1712.47284	11256.8625
1715.71819	11238.0625
1718.96139	11217.1625
1722.20246	11193.5625
1725.44139	11168.3625
1728.67818	11120.3625
1731.91284	11059.2625
1735.14537	11003.2625
1738.37576	10952.2625
1741.60403	10931.7625
1744.83017	10879.7625
1748.05418	10812.7625
1751.27607	10817.8625
1754.49584	10786.5625
1757.71349	10734.1625
1760.92903	10734.2625
1764.14244	10701.0625
1767.35375	10698.2625
1770.56294	10692.0625
1773.77002	10686.6625
1776.97499	10674.4625
1780.17785	10699.2625
1783.37861	10676.6625
1786.57727	10650.4625
1789.77382	10631.3625
1792.96828	10648.6625
1796.16064	10616.6625
1799.3509	10575.0625
1802.53907	10560.7625
1805.72514	10560.4625
1808.90913	10525.7625
1812.09102	10499.2625
1815.27083	10483.6625
1818.44856	10484.1625
1821.6242	10449.5625
1824.79776	10429.2625
1827.96924	10416.1625
1831.13864	10403.4625
1834.30597	10416.5625
1837.47122	10398.3625
1840.6344	10412.6625
1843.7955	10398.2625
1846.95454	10367.5625
1850.11151	10368.2625
1853.26642	10389.8625
1856.41926	10372.5625
1859.57004	10403.6625
1862.71876	10364.5625
1865.86542	10335.8625
1869.01003	10342.1625
1872.15258	10284.3625
1875.29308	10264.3625
1878.43152	10233.5625
1881.56792	10273.8625
1884.70227	10232.9625
1887.83457	10230.5625
1890.96482	10212.5625
1894.09304	10206.0625
1897.21921	10190.3625
1900.34335	10135.1625
1903.46544	10160.4625
1906.58551	10147.4625
1909.70353	10117.7625
1912.81953	10110.7625
1915.93349	10089.1625
1919.04543	10059.7625
1922.15534	10043.0625
1925.26322	10034.1625
1928.36908	9996.3625
1931.47292	9981.1625
1934.57473	9938.7625
1937.67453	9903.7625
1940.77232	9915.7625
1943.86808	9908.8625
1946.96184	9854.9625
1950.05358	9839.4625
1953.14331	9812.8625
1956.23103	9766.9625
1959.31675	9760.7625
1962.40046	9731.9625
1965.48217	9689.5625
1968.56188	9650.8625
1971.63959	9642.1625
1974.7153	9611.2625
1977.78901	9583.0625
1980.86073	9551.2625
1983.93046	9552.1625
1986.99819	9469.6625
1990.06394	9455.6625
1993.1277	9434.5625
1996.18947	9411.1625
1999.24925	9356.7625
2002.30706	9335.2625
2005.36288	9302.2625
2008.41672	9303.6625
2011.46859	9257.4625
2014.51848	9240.7625
2017.56639	9200.6625
2020.61233	9168.0625
2023.6563	9164.2625
2026.6983	9148.5625
2029.73833	9118.2625
2032.7764	9105.6625
2035.8125	9073.2625
2038.84664	9054.1625
2041.87881	9027.2625
2044.90903	9024.9625
2047.93729	9010.1625
2050.96359	9005.3625
2053.98794	8958.8625
2057.01034	8967.2625
2060.03078	8958.6625
2063.04927	8972.6625
2066.06582	8936.4625
2069.08042	8968.7625
2072.09307	8940.5625
2075.10378	8905.6625
2078.11255	8923.4625
2081.11938	8911.8625
2084.12426	8905.9625
2087.12722	8916.4625
2090.12824	8925.1625
2093.12732	8888.7625
2096.12447	8897.2625
2099.11969	8897.6625
2102.11299	8905.7625
2105.10435	8910.3625
2108.09379	8923.6625
2111.08131	8925.5625
2114.0669	8921.4625
2117.05057	8931.0625
2120.03233	8926.5625
2123.01216	8931.6625
2125.99008	8945.8625
2128.96609	8951.3625
2131.94018	8953.0625
2134.91236	8926.7625
2137.88263	8943.1625
2140.851	8945.6625
2143.81746	8928.5625
2146.78201	8939.8625
2149.74466	8972.9625
2152.7054	8938.6625
2155.66425	8949.4625
2158.6212	8955.8625
2161.57625	8923.6625
2164.52941	8909.3625
2167.48067	8933.2625
2170.43004	8938.2625
2173.37752	8927.6625
2176.32311	8920.0625
2179.26681	8919.8625
2182.20863	8912.5625
2185.14856	8919.0625
2188.08661	8924.2625
2191.02278	8923.6625
2193.95707	8914.5625
2196.88948	8880.1625
2199.82001	8900.9625
2202.74867	8867.5625
2205.67545	8871.6625
2208.60037	8852.9625
2211.52341	8836.1625
2214.44458	8828.9625
2217.36388	8787.5625
2220.28132	8788.3625
2223.1969	8775.1625
2226.11061	8754.4625
2229.02246	8735.7625
2231.93245	8726.2625
2234.84058	8694.0625
2237.74686	8694.7625
2240.65128	8703.9625
2243.55385	8648.8625
2246.45456	8672.5625
2249.35343	8638.4625
2252.25044	8636.6625
2255.14561	8622.6625
2258.03893	8597.8625
2260.93041	8562.4625
2263.82004	8543.7625
2266.70783	8565.9625
2269.59378	8524.5625
2272.4779	8481.8625
2275.36017	8471.8625
2278.24061	8454.1625
2281.11922	8456.1625
2283.996	8432.0625
2286.87094	8431.3625
2289.74405	8407.3625
2292.61534	8387.9625
2295.4848	8375.9625
2298.35243	8381.7625
2301.21824	8372.6625
2304.08223	8357.1625
2306.94439	8375.3625
2309.80474	8340.9625
2312.66327	8343.7625
2315.51999	8331.7625
2318.37489	8320.8625
2321.22797	8326.1625
2324.07925	8292.4625
2326.92871	8286.3625
2329.77637	8283.8625
2332.62222	8253.9625
2335.46626	8223.6625
2338.3085	8238.5625
2341.14893	8216.7625
2343.98756	8235.8625
2346.8244	8217.4625
2349.65943	8228.0625
2352.49267	8195.4625
2355.32411	8206.2625
2358.15376	8194.8625
2360.98161	8188.9625
2363.80768	8189.0625
2366.63195	8195.7625
2369.45444	8178.6625
2372.27514	8172.5625
2375.09405	8151.2625
2377.91118	8140.0625
2380.72652	8121.5625
2383.54009	8089.1625
2386.35187	8102.5625
2389.16188	8072.6625
2391.97011	8064.1625
2394.77657	8063.0625
2397.58125	8011.1625
2400.38416	8012.8625
2403.18529	7998.9625
2405.98466	8001.6625
2408.78226	7979.9625
2411.57809	7964.3625
2414.37216	7943.6625
2417.16446	7963.1625
2419.955	7959.7625
2422.74378	7937.5625
2425.5308	7926.1625
2428.31606	7928.3625
2431.09956	7915.3625
2433.88131	7910.4625
2436.6613	7914.6625
2439.43954	7906.1625
2442.21603	7889.7625
2444.99077	7896.0625
2447.76377	7876.9625
2450.53501	7877.6625
2453.30451	7874.1625
2456.07226	7835.8625
2458.83827	7846.7625
2461.60254	7849.7625
2464.36507	7844.2625
2467.12586	7833.5625
2469.88492	7817.7625
2472.64224	7832.7625
2475.39782	7832.7625
2478.15167	7804.4625
2480.90379	7812.5625
2483.65417	7805.9625
2486.40283	7800.2625
2489.14976	7812.5625
2491.89497	7819.9625
2494.63845	7796.2625
2497.3802	7776.8625
2500.12024	7785.7625
2502.85855	7797.2625
2505.59514	7771.4625
2508.33002	7773.9625
2511.06318	7763.7625
2513.79462	7737.3625
2516.52435	7736.9625
2519.25237	7725.3625
2521.97867	7731.5625
2524.70327	7728.3625
2527.42616	7695.4625
2530.14734	7700.3625
2532.86681	7686.0625
2535.58458	7688.6625
2538.30065	7673.5625
2541.01501	7655.5625
2543.72768	7660.0625
2546.43864	7634.1625
2549.14791	7624.7625
2551.85548	7620.4625
2554.56136	7611.9625
2557.26554	7591.4625
2559.96803	7588.1625
2562.66883	7571.3625
2565.36794	7594.8625
2568.06536	7574.7625
2570.7611	7539.6625
2573.45514	7522.6625
2576.14751	7513.6625
2578.83819	7540.2625
2581.52719	7512.0625
2584.21451	7498.2625
2586.90015	7489.7625
2589.58411	7465.0625
2592.2664	7477.1625
2594.94701	7441.8625
2597.62594	7449.5625
2600.30321	7435.5625
2602.9788	7434.8625
2605.65273	7419.2625
2608.32498	7421.8625
2610.99557	7417.2625
2613.66449	7412.3625
2616.33175	7398.9625
2618.99734	7389.0625
2621.66128	7368.9625
2624.32355	7374.6625
2626.98416	7360.3625
2629.64311	7361.8625
2632.30041	7368.0625
2634.95605	7351.6625
2637.61004	7342.6625
2640.26238	7323.7625
2642.91306	7332.1625
2645.56209	7326.7625
2648.20948	7337.0625
2650.85521	7328.0625
2653.4993	7336.9625
2656.14175	7313.7625
2658.78255	7326.3625
2661.42171	7322.9625
2664.05923	7335.1625
2666.6951	7332.4625
2669.32934	7345.6625
2671.96194	7306.5625
2674.59291	7339.1625
2677.22224	7323.0625
2679.84993	7322.8625
2682.476	7299.3625
2685.10043	7320.0625
2687.72324	7303.2625
2690.34441	7318.7625
2692.96396	7317.7625
2695.58188	7318.5625
2698.19818	7303.0625
2700.81285	7302.0625
2703.4259	7288.7625
2706.03733	7275.7625
2708.64714	7258.6625
2711.25533	7298.0625
2713.86191	7304.4625
2716.46687	7312.9625
2719.07021	7314.8625
2721.67194	7321.8625
2724.27206	7307.9625
2726.87057	7313.6625
2729.46747	7332.7625
2732.06276	7329.8625
2734.65644	7320.2625
2737.24852	7300.5625
2739.83899	7296.5625
2742.42786	7319.3625
2745.01513	7279.4625
2747.60079	7283.4625
2750.18486	7267.3625
2752.76733	7267.4625
2755.3482	7271.2625
2757.92747	7271.7625
2760.50515	7230.9625
2763.08123	7233.9625
2765.65573	7243.2625
2768.22863	7229.7625
2770.79994	7230.2625
2773.36967	7218.9625
2775.9378	7195.9625
2778.50435	7223.6625
2781.06932	7196.5625
2783.6327	7204.2625
2786.1945	7200.0625
2788.75471	7170.8625
2791.31335	7169.6625
2793.87041	7163.3625
2796.42589	7128.8625
2798.97979	7115.6625
2801.53212	7129.3625
2804.08288	7098.2625
2806.63206	7104.4625
2809.17967	7037.3625
2811.72571	7068.3625
2814.27018	7041.1625
2816.81308	7028.7625
2819.35442	7027.0625
2821.89419	7007.8625
2824.43239	7014.7625
2826.96904	6981.4625
2829.50412	6996.9625
2832.03763	6968.2625
2834.56959	6974.9625
2837.1	6971.5625
2839.62884	6974.4625
2842.15613	6956.5625
2844.68186	6973.4625
2847.20604	6983.5625
2849.72867	6957.1625
2852.24974	6953.9625
2854.76927	6968.5625
2857.28724	6933.2625
2859.80367	6968.3625
2862.31855	6940.1625
2864.83189	6930.7625
2867.34368	6902.5625
2869.85393	6915.8625
2872.36264	6907.4625
2874.8698	6890.2625
2877.37543	6894.0625
2879.87952	6889.7625
2882.38207	6875.1625
2884.88308	6879.8625
2887.38256	6876.7625
2889.88051	6875.6625
2892.37692	6862.0625
2894.8718	6867.2625
2897.36515	6874.1625
2899.85698	6877.3625
2902.34727	6890.0625
2904.83604	6884.3625
2907.32328	6901.3625
2909.809	6884.9625
2912.29319	6903.8625
2914.77587	6893.8625
2917.25702	6885.1625
2919.73665	6845.8625
2922.21476	6882.2625
2924.69136	6896.2625
2927.16644	6861.6625
2929.64	6860.3625
2932.11205	6886.5625
2934.58258	6857.1625
2937.05161	6860.6625
2939.51912	6849.1625
2941.98513	6822.0625
2944.44962	6809.0625
2946.91261	6781.4625
2949.37409	6805.4625
2951.83407	6810.1625
2954.29254	6791.0625
2956.74951	6774.1625
2959.20498	6750.9625
2961.65895	6761.9625
2964.11142	6778.1625
2966.56239	6757.0625
2969.01186	6754.3625
2971.45984	6717.5625
2973.90632	6728.0625
2976.35131	6718.7625
2978.7948	6724.8625
2981.23681	6692.2625
2983.67732	6708.5625
2986.11635	6656.3625
2988.55388	6659.0625
2990.98993	6634.4625
2993.4245	6627.2625
2995.85758	6611.9625
2998.28917	6600.7625
3000.71928	6583.6625
3003.14791	6567.8625
3005.57506	6562.4625
3008.00073	6536.4625
3010.42493	6529.8625
3012.84764	6529.0625
3015.26888	6536.1625
3017.68865	6527.6625
3020.10694	6515.0625
3022.52376	6495.4625
3024.9391	6477.1625
3027.35298	6468.8625
3029.76539	6483.6625
3032.17632	6455.2625
3034.5858	6428.1625
3036.9938	6460.8625
3039.40034	6439.6625
3041.80542	6438.8625
3044.20903	6427.9625
3046.61118	6421.9625
3049.01187	6416.1625
3051.4111	6406.3625
3053.80888	6394.1625
3056.20519	6394.8625
3058.60005	6374.9625
3060.99345	6359.1625
3063.3854	6324.9625
3065.7759	6299.4625
3068.16494	6323.3625
3070.55254	6302.2625
3072.93868	6266.8625
