Data from AgNPs_FTO_APTES_UA_1uM_CRN_2uM_R6G_10uM_NaF_0.1M_Addition_RamanShift__20__13-18-39-554.txt Node

Date: Thu Jan 27 13:18:39 GMT 2022
User: TCL
Spectrometer: QEP01345
Trigger mode: 4
Integration Time (sec): 7.000000E0
Scans to average: 10
Electric dark correction enabled: true
Nonlinearity correction enabled: false
Boxcar width: 0
XAxis mode: Raman Shifts
Number of Pixels in Spectrum: 1044
>>>>>Begin Spectral Data<<<<<
46.04893	-0.0875
50.45542	0.2125
54.85868	-0.4875
59.25871	-2.8875
63.6555	60.3125
68.04907	63.2125
72.43941	62.0125
76.82654	70.5125
81.21044	67.9125
85.59113	72.0125
89.96862	75.5125
94.34289	77.3125
98.71396	81.3125
103.08183	80.0125
107.4465	85.9125
111.80798	85.8125
116.16626	87.2125
120.52136	93.2125
124.87327	99.5125
129.222	95.2125
133.56755	102.8125
137.90993	108.7125
142.24913	120.1125
146.58517	136.3125
150.91804	151.6125
155.24774	182.4125
159.57429	219.3125
163.89768	274.2125
168.21792	368.4125
172.53501	499.8125
176.84895	686.7125
181.15975	957.2125
185.46741	1336.7125
189.77193	1859.7125
194.07331	2490.7125
198.37157	3210.5125
202.6667	3957.4125
206.9587	4720.1125
211.24758	5442.1125
215.53334	6199.6125
219.81599	6975.6125
224.09553	7838.5125
228.37195	8847.7125
232.64527	9907.1125
236.91549	11074.1125
241.18261	12196.3125
245.44663	13253.9125
249.70755	14164.0125
253.96539	14974.8125
258.22014	15699.5125
262.4718	16298.5125
266.72039	16768.6125
270.96589	16977.1125
275.20832	17052.0125
279.44768	16937.1125
283.68397	16782.2125
287.91719	16617.0125
292.14735	16598.7125
296.37445	16578.8125
300.59849	16710.8125
304.81948	16856.8125
309.03742	16887.3125
313.25231	16679.9125
317.46415	16263.6125
321.67296	15688.3125
325.87872	15220.4125
330.08145	15012.9125
334.28114	15017.2125
338.47781	15192.8125
342.67145	15391.9125
346.86207	15683.9125
351.04966	16114.1125
355.23424	16558.8125
359.4158	16931.4125
363.59435	17226.1125
367.76989	17417.6125
371.94243	17541.5125
376.11196	17651.7125
380.27849	17724.3125
384.44203	17777.3125
388.60257	17867.6125
392.76012	17973.8125
396.91468	18214.0125
401.06626	18508.0125
405.21485	18771.8125
409.36047	18740.3125
413.50311	18401.8125
417.64277	18119.3125
421.77947	18036.6125
425.9132	18073.1125
430.04396	18177.4125
434.17176	18266.3125
438.2966	18424.7125
442.41849	18697.3125
446.53742	19133.6125
450.6534	19665.3125
454.76644	20102.0125
458.87653	20346.0125
462.98368	20261.9125
467.08789	20004.6125
471.18916	19644.1125
475.2875	19244.1125
479.38291	19067.7125
483.4754	18913.0125
487.56496	18733.6125
491.6516	18480.7125
495.73531	18254.3125
499.81612	18200.4125
503.89401	18316.5125
507.96899	18352.2125
512.04106	18331.9125
516.11023	18328.0125
520.1765	18280.3125
524.23987	18184.9125
528.30034	18014.3125
532.35792	17756.2125
536.41261	17557.2125
540.46441	17352.5125
544.51333	17310.2125
548.55936	17481.7125
552.60252	17834.8125
556.64279	18174.4125
560.6802	18343.5125
564.71473	18431.7125
568.7464	18652.9125
572.7752	18996.9125
576.80114	19249.9125
580.82422	19437.5125
584.84444	19667.1125
588.86181	19863.2125
592.87633	20088.4125
596.888	20286.5125
600.89682	20494.7125
604.9028	21335.7125
608.90594	23658.2125
612.90624	26372.6125
616.90371	25260.1125
620.89834	20955.9125
624.89015	19020.1125
628.87913	18909.6125
632.86528	18807.9125
636.84862	18490.8125
640.82913	18127.8125
644.80683	17614.8125
648.78172	17244.1125
652.75379	17182.8125
656.72306	17400.8125
660.68952	17789.9125
664.65319	17786.3125
668.61405	17450.3125
672.57211	17263.9125
676.52738	17256.4125
680.47986	17230.2125
684.42955	17190.9125
688.37646	17180.6125
692.32058	17274.3125
696.26192	17432.5125
700.20048	17590.5125
704.13626	17718.4125
708.06928	17627.3125
711.99952	17439.1125
715.927	17438.8125
719.85171	17417.7125
723.77365	17374.3125
727.69284	17202.6125
731.60928	17061.7125
735.52295	17020.6125
739.43388	17100.3125
743.34206	17145.3125
747.24749	17244.1125
751.15017	17423.0125
755.05012	17729.9125
758.94733	18187.9125
762.8418	19110.9125
766.73354	20584.1125
770.62254	22147.5125
774.50882	22721.3125
778.39237	21813.4125
782.27321	20086.6125
786.15132	18677.5125
790.02671	17843.8125
793.89938	17502.1125
797.76935	17386.7125
801.6366	17333.2125
805.50115	17270.3125
809.36299	17148.0125
813.22213	17041.5125
817.07857	16960.3125
820.93231	16966.9125
824.78336	16958.5125
828.63172	16948.3125
832.47738	17031.6125
836.32036	17082.6125
840.16066	17193.5125
843.99827	17312.6125
847.8332	17259.8125
851.66546	17127.4125
855.49504	17065.5125
859.32195	17006.8125
863.1462	16936.9125
866.96777	16842.5125
870.78668	16752.7125
874.60293	16753.2125
878.41652	16751.4125
882.22745	16786.2125
886.03573	16892.7125
889.84136	16899.2125
893.64433	16782.5125
897.44466	16683.6125
901.24235	16641.2125
905.0374	16631.4125
908.8298	16578.1125
912.61957	16604.7125
916.40671	16793.5125
920.19121	17042.6125
923.97308	17308.1125
927.75233	17467.4125
931.52895	17507.3125
935.30295	17372.9125
939.07433	17023.8125
942.84309	16706.3125
946.60924	16573.9125
950.37278	16576.1125
954.13371	16451.3125
957.89203	16273.9125
961.64774	16212.7125
965.40086	16134.7125
969.15137	16065.8125
972.89929	15992.4125
976.64461	15969.3125
980.38733	16018.2125
984.12747	16115.8125
987.86502	16328.0125
991.59999	16631.8125
995.33237	17133.2125
999.06217	17856.9125
1002.78939	18712.3125
1006.51404	19066.4125
1010.23611	19195.9125
1013.95561	19319.8125
1017.67255	19282.2125
1021.38692	19084.8125
1025.09872	19041.8125
1028.80796	19452.1125
1032.51465	20489.5125
1036.21877	21397.7125
1039.92035	21525.8125
1043.61937	20939.9125
1047.31584	19993.2125
1051.00976	19017.3125
1054.70114	18461.0125
1058.38998	18300.7125
1062.07627	18307.4125
1065.76003	18289.8125
1069.44126	18298.3125
1073.11995	18453.7125
1076.79611	18646.3125
1080.46974	18801.3125
1084.14085	18951.0125
1087.80943	19111.9125
1091.47549	19214.4125
1095.13903	19122.6125
1098.80005	18835.1125
1102.45857	18415.8125
1106.11456	18213.1125
1109.76805	18195.7125
1113.41903	18334.3125
1117.06751	18487.6125
1120.71348	18724.4125
1124.35696	18930.0125
1127.99793	19132.5125
1131.63641	19269.2125
1135.2724	19059.9125
1138.90589	18827.0125
1142.5369	18627.1125
1146.16542	18512.9125
1149.79145	18455.0125
1153.415	18537.4125
1157.03607	18673.5125
1160.65467	19039.6125
1164.27079	19646.2125
1167.88443	20573.5125
1171.49561	21834.5125
1175.10432	23663.9125
1178.71056	25878.2125
1182.31434	28062.2125
1185.91565	29280.8125
1189.51451	29448.4125
1193.11091	28330.6125
1196.70485	26802.1125
1200.29634	25405.0125
1203.88538	24365.0125
1207.47197	23543.7125
1211.05612	22925.0125
1214.63782	22533.4125
1218.21708	22426.6125
1221.79391	22468.5125
1225.36829	22621.0125
1228.94024	22507.4125
1232.50976	22158.5125
1236.07685	21817.6125
1239.6415	21599.2125
1243.20374	21526.2125
1246.76355	21595.0125
1250.32093	21912.7125
1253.8759	22448.1125
1257.42845	23141.2125
1260.97859	23821.8125
1264.52631	24377.5125
1268.07163	25012.8125
1271.61453	25780.2125
1275.15503	26671.8125
1278.69312	27613.0125
1282.22882	28407.0125
1285.76211	28955.2125
1289.29301	29388.4125
1292.82151	29934.4125
1296.34761	30932.3125
1299.87133	32388.7125
1303.39266	34489.5125
1306.9116	37037.9125
1310.42815	39781.6125
1313.94233	41431.3125
1317.45412	41343.9125
1320.96354	39973.2125
1324.47058	38374.1125
1327.97525	36917.8125
1331.47754	35987.7125
1334.97747	35530.1125
1338.47502	35582.3125
1341.97022	35658.3125
1345.46305	35544.3125
1348.95352	35153.9125
1352.44163	34990.5125
1355.92738	35705.9125
1359.41078	37716.1125
1362.89183	39802.2125
1366.37053	39296.4125
1369.84688	35783.6125
1373.32088	31782.0125
1376.79254	28983.4125
1380.26186	27620.0125
1383.72883	27185.2125
1387.19347	26957.3125
1390.65578	26652.2125
1394.11575	26531.5125
1397.57339	26725.1125
1401.0287	27239.8125
1404.48168	27769.2125
1407.93234	28150.4125
1411.38068	28210.8125
1414.82669	27896.9125
1418.27039	27159.5125
1421.71177	26266.5125
1425.15083	25396.4125
1428.58758	24863.9125
1432.02203	24799.5125
1435.45416	25078.5125
1438.88399	25507.4125
1442.31151	25819.2125
1445.73673	26144.4125
1449.15965	26402.6125
1452.58027	26503.7125
1455.9986	26462.6125
1459.41463	26509.3125
1462.82837	26793.8125
1466.23982	27320.2125
1469.64898	27851.5125
1473.05586	28227.2125
1476.46045	28371.8125
1479.86276	28446.0125
1483.26279	28362.7125
1486.66054	28318.2125
1490.05602	28518.2125
1493.44922	28845.6125
1496.84016	29191.0125
1500.22882	29651.6125
1503.61521	30519.6125
1506.99934	31681.0125
1510.38121	32900.5125
1513.76081	33446.8125
1517.13816	32866.2125
1520.51324	31311.1125
1523.88607	29742.3125
1527.25665	28594.5125
1530.62498	27919.1125
1533.99105	27514.8125
1537.35488	27225.8125
1540.71647	27020.5125
1544.07581	26831.1125
1547.4329	26546.1125
1550.78776	26250.3125
1554.14038	26019.1125
1557.49077	25981.1125
1560.83892	25895.7125
1564.18484	25902.3125
1567.52853	25876.4125
1570.86999	25896.3125
1574.20922	26075.0125
1577.54624	26206.1125
1580.88103	26163.7125
1584.2136	26205.9125
1587.54395	26781.3125
1590.87208	28074.5125
1594.19801	29939.6125
1597.52172	32031.5125
1600.84321	32890.0125
1604.16251	31690.4125
1607.47959	29249.5125
1610.79447	26649.4125
1614.10715	24331.4125
1617.41763	22515.6125
1620.7259	21302.2125
1624.03199	20746.5125
1627.33587	20789.4125
1630.63757	21451.2125
1633.93707	22632.2125
1637.23439	24408.8125
1640.52951	26538.4125
1643.82246	28690.3125
1647.11321	30252.4125
1650.40179	30513.2125
1653.68819	28865.4125
1656.97241	25693.9125
1660.25446	22425.2125
1663.53433	20009.7125
1666.81203	18452.4125
1670.08756	17515.8125
1673.36092	16937.0125
1676.63211	16592.6125
1679.90115	16254.1125
1683.16801	16077.0125
1686.43272	15899.6125
1689.69527	15768.2125
1692.95567	15643.1125
1696.2139	15587.7125
1699.46999	15515.9125
1702.72392	15458.1125
1705.97571	15494.5125
1709.22535	15494.3125
1712.47284	15488.6125
1715.71819	15486.1125
1718.96139	15479.3125
1722.20246	15432.6125
1725.44139	15377.8125
1728.67818	15333.5125
1731.91284	15227.0125
1735.14537	15175.3125
1738.37576	15097.4125
1741.60403	15062.8125
1744.83017	14991.1125
1748.05418	14960.9125
1751.27607	14903.4125
1754.49584	14901.3125
1757.71349	14871.3125
1760.92903	14836.2125
1764.14244	14823.1125
1767.35375	14825.3125
1770.56294	14803.9125
1773.77002	14818.3125
1776.97499	14811.1125
1780.17785	14828.6125
1783.37861	14797.2125
1786.57727	14811.0125
1789.77382	14802.6125
1792.96828	14751.4125
1796.16064	14759.4125
1799.3509	14740.6125
1802.53907	14690.8125
1805.72514	14685.1125
1808.90913	14637.0125
1812.09102	14610.2125
1815.27083	14600.6125
1818.44856	14596.6125
1821.6242	14575.7125
1824.79776	14531.5125
1827.96924	14560.8125
1831.13864	14521.3125
1834.30597	14550.4125
1837.47122	14545.5125
1840.6344	14531.9125
1843.7955	14560.6125
1846.95454	14582.4125
1850.11151	14579.3125
1853.26642	14581.3125
1856.41926	14587.0125
1859.57004	14624.1125
1862.71876	14630.0125
1865.86542	14608.2125
1869.01003	14577.4125
1872.15258	14582.1125
1875.29308	14614.7125
1878.43152	14616.6125
1881.56792	14619.8125
1884.70227	14605.2125
1887.83457	14596.4125
1890.96482	14610.9125
1894.09304	14593.7125
1897.21921	14603.4125
1900.34335	14602.2125
1903.46544	14615.0125
1906.58551	14601.6125
1909.70353	14601.6125
1912.81953	14614.1125
1915.93349	14594.2125
1919.04543	14548.5125
1922.15534	14519.3125
1925.26322	14487.3125
1928.36908	14430.6125
1931.47292	14397.7125
1934.57473	14351.5125
1937.67453	14314.5125
1940.77232	14246.1125
1943.86808	14230.4125
1946.96184	14133.2125
1950.05358	14083.1125
1953.14331	14041.5125
1956.23103	13968.3125
1959.31675	13981.1125
1962.40046	13915.9125
1965.48217	13852.5125
1968.56188	13829.0125
1971.63959	13813.1125
1974.7153	13769.9125
1977.78901	13736.9125
1980.86073	13671.0125
1983.93046	13672.5125
1986.99819	13583.9125
1990.06394	13544.2125
1993.1277	13487.8125
1996.18947	13469.6125
1999.24925	13421.2125
2002.30706	13373.3125
2005.36288	13357.8125
2008.41672	13319.7125
2011.46859	13282.6125
2014.51848	13257.1125
2017.56639	13240.9125
2020.61233	13222.5125
2023.6563	13191.8125
2026.6983	13140.4125
2029.73833	13148.6125
2032.7764	13136.1125
2035.8125	13131.1125
2038.84664	13081.0125
2041.87881	13076.9125
2044.90903	13060.5125
2047.93729	13037.3125
2050.96359	13044.1125
2053.98794	12984.5125
2057.01034	12995.2125
2060.03078	12996.7125
2063.04927	13001.5125
2066.06582	12979.8125
2069.08042	12960.1125
2072.09307	12986.8125
2075.10378	12964.6125
2078.11255	12937.5125
2081.11938	12921.5125
2084.12426	12932.7125
2087.12722	12899.3125
2090.12824	12869.9125
2093.12732	12888.9125
2096.12447	12903.3125
2099.11969	12876.8125
2102.11299	12917.2125
2105.10435	12906.4125
2108.09379	12925.2125
2111.08131	12946.6125
2114.0669	12930.8125
2117.05057	12958.7125
2120.03233	12940.4125
2123.01216	12945.2125
2125.99008	12976.6125
2128.96609	12976.7125
2131.94018	12974.6125
2134.91236	12992.1125
2137.88263	12999.0125
2140.851	12993.8125
2143.81746	13008.9125
2146.78201	13022.4125
2149.74466	13036.4125
2152.7054	13050.4125
2155.66425	13056.5125
2158.6212	13025.1125
2161.57625	13029.4125
2164.52941	13042.1125
2167.48067	13049.9125
2170.43004	13019.1125
2173.37752	13015.3125
2176.32311	13014.4125
2179.26681	13065.6125
2182.20863	13029.3125
2185.14856	13031.4125
2188.08661	13055.1125
2191.02278	13065.0125
2193.95707	13075.5125
2196.88948	13090.2125
2199.82001	13054.4125
2202.74867	13067.0125
2205.67545	13068.6125
2208.60037	13057.4125
2211.52341	13061.1125
2214.44458	13049.0125
2217.36388	13041.5125
2220.28132	13003.9125
2223.1969	13012.0125
2226.11061	13023.6125
2229.02246	12976.7125
2231.93245	12960.7125
2234.84058	12906.0125
2237.74686	12880.2125
2240.65128	12874.1125
2243.55385	12856.6125
2246.45456	12834.0125
2249.35343	12825.2125
2252.25044	12815.7125
2255.14561	12788.4125
2258.03893	12766.2125
2260.93041	12750.8125
2263.82004	12724.7125
2266.70783	12712.8125
2269.59378	12689.6125
2272.4779	12665.8125
2275.36017	12606.2125
2278.24061	12621.8125
2281.11922	12579.2125
2283.996	12598.1125
2286.87094	12572.6125
2289.74405	12557.0125
2292.61534	12535.6125
2295.4848	12528.7125
2298.35243	12551.8125
2301.21824	12563.7125
2304.08223	12582.0125
2306.94439	12578.2125
2309.80474	12602.3125
2312.66327	12609.8125
2315.51999	12635.7125
2318.37489	12634.0125
2321.22797	12607.2125
2324.07925	12600.9125
2326.92871	12623.5125
2329.77637	12585.2125
2332.62222	12567.1125
2335.46626	12580.7125
2338.3085	12582.5125
2341.14893	12590.6125
2343.98756	12645.8125
2346.8244	12619.4125
2349.65943	12640.4125
2352.49267	12597.8125
2355.32411	12608.1125
2358.15376	12590.7125
2360.98161	12599.2125
2363.80768	12554.7125
2366.63195	12572.9125
2369.45444	12536.3125
2372.27514	12488.6125
2375.09405	12474.4125
2377.91118	12454.3125
2380.72652	12420.1125
2383.54009	12384.9125
2386.35187	12364.8125
2389.16188	12326.4125
2391.97011	12312.8125
2394.77657	12320.5125
2397.58125	12290.6125
2400.38416	12289.9125
2403.18529	12257.1125
2405.98466	12230.5125
2408.78226	12203.5125
2411.57809	12164.2125
2414.37216	12131.2125
2417.16446	12125.4125
2419.955	12121.8125
2422.74378	12121.6125
2425.5308	12122.9125
2428.31606	12096.4125
2431.09956	12096.1125
2433.88131	12084.6125
2436.6613	12091.0125
2439.43954	12084.9125
2442.21603	12068.9125
2444.99077	12072.1125
2447.76377	12061.8125
2450.53501	12082.2125
2453.30451	12092.2125
2456.07226	12052.0125
2458.83827	12035.9125
2461.60254	12054.6125
2464.36507	12047.2125
2467.12586	12046.8125
2469.88492	12046.0125
2472.64224	12086.2125
2475.39782	12068.6125
2478.15167	12070.8125
2480.90379	12111.3125
2483.65417	12104.2125
2486.40283	12092.4125
2489.14976	12157.8125
2491.89497	12130.0125
2494.63845	12150.7125
2497.3802	12130.8125
2500.12024	12108.1125
2502.85855	12140.7125
2505.59514	12123.3125
2508.33002	12076.1125
2511.06318	12086.0125
2513.79462	12073.1125
2516.52435	12052.9125
2519.25237	12063.8125
2521.97867	12055.8125
2524.70327	12075.6125
2527.42616	12019.1125
2530.14734	12043.6125
2532.86681	12024.9125
2535.58458	12038.9125
2538.30065	12023.8125
2541.01501	12034.7125
2543.72768	12039.3125
2546.43864	12021.7125
2549.14791	11982.9125
2551.85548	11967.9125
2554.56136	11977.0125
2557.26554	11955.5125
2559.96803	11972.3125
2562.66883	11982.7125
2565.36794	11955.4125
2568.06536	11951.8125
2570.7611	11909.8125
2573.45514	11881.6125
2576.14751	11915.9125
2578.83819	11898.2125
2581.52719	11927.3125
2584.21451	11901.2125
2586.90015	11937.5125
2589.58411	11898.9125
2592.2664	11923.5125
2594.94701	11885.2125
2597.62594	11889.1125
2600.30321	11884.3125
2602.9788	11898.2125
2605.65273	11870.9125
2608.32498	11872.9125
2610.99557	11871.2125
2613.66449	11903.7125
2616.33175	11918.0125
2618.99734	11881.6125
2621.66128	11893.8125
2624.32355	11884.1125
2626.98416	11902.6125
2629.64311	11900.7125
2632.30041	11890.0125
2634.95605	11907.8125
2637.61004	11878.2125
2640.26238	11849.3125
2642.91306	11844.4125
2645.56209	11849.5125
2648.20948	11828.5125
2650.85521	11801.0125
2653.4993	11823.2125
2656.14175	11794.3125
2658.78255	11825.4125
2661.42171	11815.9125
2664.05923	11832.1125
2666.6951	11826.6125
2669.32934	11825.2125
2671.96194	11841.0125
2674.59291	11865.2125
2677.22224	11870.2125
2679.84993	11837.4125
2682.476	11825.9125
2685.10043	11830.4125
2687.72324	11782.0125
2690.34441	11777.2125
2692.96396	11769.5125
2695.58188	11776.8125
2698.19818	11757.8125
2700.81285	11766.0125
2703.4259	11755.9125
2706.03733	11763.6125
2708.64714	11740.6125
2711.25533	11772.3125
2713.86191	11784.9125
2716.46687	11781.3125
2719.07021	11781.0125
2721.67194	11794.2125
2724.27206	11788.4125
2726.87057	11807.2125
2729.46747	11812.2125
2732.06276	11813.3125
2734.65644	11821.2125
2737.24852	11796.5125
2739.83899	11775.4125
2742.42786	11809.0125
2745.01513	11779.9125
2747.60079	11776.2125
2750.18486	11787.8125
2752.76733	11789.4125
2755.3482	11773.8125
2757.92747	11771.6125
2760.50515	11741.9125
2763.08123	11763.8125
2765.65573	11753.1125
2768.22863	11744.3125
2770.79994	11748.6125
2773.36967	11750.9125
2775.9378	11774.3125
2778.50435	11768.7125
2781.06932	11748.2125
2783.6327	11757.7125
2786.1945	11709.2125
2788.75471	11730.8125
2791.31335	11696.6125
2793.87041	11696.5125
2796.42589	11658.4125
2798.97979	11657.3125
2801.53212	11639.4125
2804.08288	11622.3125
2806.63206	11603.2125
2809.17967	11580.7125
2811.72571	11543.8125
2814.27018	11515.7125
2816.81308	11534.6125
2819.35442	11547.9125
2821.89419	11537.6125
2824.43239	11537.5125
2826.96904	11517.1125
2829.50412	11526.7125
2832.03763	11498.9125
2834.56959	11504.9125
2837.1	11496.8125
2839.62884	11495.4125
2842.15613	11470.7125
2844.68186	11516.6125
2847.20604	11517.3125
2849.72867	11532.2125
2852.24974	11504.3125
2854.76927	11509.2125
2857.28724	11485.8125
2859.80367	11505.6125
2862.31855	11456.0125
2864.83189	11475.7125
2867.34368	11435.1125
2869.85393	11460.9125
2872.36264	11433.1125
2874.8698	11432.6125
2877.37543	11443.1125
2879.87952	11434.5125
2882.38207	11442.7125
2884.88308	11428.4125
2887.38256	11427.3125
2889.88051	11449.4125
2892.37692	11441.2125
2894.8718	11444.8125
2897.36515	11460.2125
2899.85698	11464.1125
2902.34727	11499.7125
2904.83604	11517.0125
2907.32328	11544.3125
2909.809	11531.7125
2912.29319	11532.1125
2914.77587	11567.1125
2917.25702	11534.8125
2919.73665	11519.2125
2922.21476	11546.3125
2924.69136	11524.7125
2927.16644	11489.5125
2929.64	11505.6125
2932.11205	11462.4125
2934.58258	11446.8125
2937.05161	11451.6125
2939.51912	11448.0125
2941.98513	11415.7125
2944.44962	11387.3125
2946.91261	11345.0125
2949.37409	11380.4125
2951.83407	11356.7125
2954.29254	11386.5125
2956.74951	11356.9125
2959.20498	11347.3125
2961.65895	11332.5125
2964.11142	11311.4125
2966.56239	11285.4125
2969.01186	11308.5125
2971.45984	11269.4125
2973.90632	11260.5125
2976.35131	11251.8125
2978.7948	11200.4125
2981.23681	11176.6125
2983.67732	11155.7125
2986.11635	11129.4125
2988.55388	11118.5125
2990.98993	11089.5125
2993.4245	11060.8125
2995.85758	11022.3125
2998.28917	11033.0125
3000.71928	10998.2125
3003.14791	10999.5125
3005.57506	10956.8125
3008.00073	10959.4125
3010.42493	10977.3125
3012.84764	10950.2125
3015.26888	10945.5125
3017.68865	10921.1125
3020.10694	10891.2125
3022.52376	10867.6125
3024.9391	10869.6125
