Data from AgNPs_FTO_APTES_UA_1uM_CRN_2uM_R6G_10uM_NaF_0.1M_Addition_RamanShift__25__13-24-29-561.txt Node

Date: Thu Jan 27 13:24:29 GMT 2022
User: TCL
Spectrometer: QEP01345
Trigger mode: 4
Integration Time (sec): 7.000000E0
Scans to average: 10
Electric dark correction enabled: true
Nonlinearity correction enabled: false
Boxcar width: 0
XAxis mode: Raman Shifts
Number of Pixels in Spectrum: 1044
>>>>>Begin Spectral Data<<<<<
46.04893	0.6625
50.45542	1.4625
54.85868	-2.6375
59.25871	-2.0375
63.6555	52.3625
68.04907	56.8625
72.43941	58.0625
76.82654	63.3625
81.21044	65.7625
85.59113	67.2625
89.96862	68.5625
94.34289	71.9625
98.71396	76.0625
103.08183	70.4625
107.4465	78.8625
111.80798	78.4625
116.16626	79.7625
120.52136	86.0625
124.87327	86.7625
129.222	84.8625
133.56755	93.4625
137.90993	98.3625
142.24913	105.3625
146.58517	117.5625
150.91804	132.0625
155.24774	155.1625
159.57429	186.7625
163.89768	228.0625
168.21792	306.6625
172.53501	415.5625
176.84895	569.7625
181.15975	800.5625
185.46741	1116.0625
189.77193	1529.6625
194.07331	2044.9625
198.37157	2641.2625
202.6667	3271.0625
206.9587	3887.4625
211.24758	4519.7625
215.53334	5161.4625
219.81599	5846.1625
224.09553	6614.1625
228.37195	7482.0625
232.64527	8408.1625
236.91549	9410.1625
241.18261	10330.6625
245.44663	11126.5625
249.70755	11822.9625
253.96539	12449.2625
258.22014	13001.8625
262.4718	13482.0625
266.72039	13879.5625
270.96589	14090.1625
275.20832	14154.9625
279.44768	14081.3625
283.68397	13948.7625
287.91719	13842.6625
292.14735	13830.7625
296.37445	13951.0625
300.59849	14209.2625
304.81948	14523.1625
309.03742	14783.7625
313.25231	14688.1625
317.46415	14167.0625
321.67296	13395.8625
325.87872	12761.9625
330.08145	12450.8625
334.28114	12464.1625
338.47781	12623.5625
342.67145	12895.5625
346.86207	13290.7625
351.04966	13899.6625
355.23424	14577.6625
359.4158	15138.7625
363.59435	15402.2625
367.76989	15529.4625
371.94243	15588.9625
376.11196	15573.4625
380.27849	15556.2625
384.44203	15500.4625
388.60257	15424.5625
392.76012	15451.4625
396.91468	15641.4625
401.06626	16019.7625
405.21485	16305.2625
409.36047	16186.9625
413.50311	15694.5625
417.64277	15243.8625
421.77947	15023.6625
425.9132	14977.9625
430.04396	14994.9625
434.17176	15082.8625
438.2966	15270.0625
442.41849	15564.3625
446.53742	16010.3625
450.6534	16449.0625
454.76644	16836.8625
458.87653	17000.6625
462.98368	16906.2625
467.08789	16659.5625
471.18916	16295.3625
475.2875	15949.5625
479.38291	15683.0625
483.4754	15510.5625
487.56496	15313.1625
491.6516	15173.1625
495.73531	15092.1625
499.81612	15056.6625
503.89401	15142.0625
507.96899	15259.1625
512.04106	15354.4625
516.11023	15462.4625
520.1765	15547.3625
524.23987	15482.6625
528.30034	15302.0625
532.35792	15084.4625
536.41261	14844.5625
540.46441	14602.6625
544.51333	14561.8625
548.55936	14665.9625
552.60252	14961.9625
556.64279	15237.4625
560.6802	15414.0625
564.71473	15531.1625
568.7464	15942.2625
572.7752	16293.8625
576.80114	16201.8625
580.82422	16070.2625
584.84444	16039.1625
588.86181	16087.0625
592.87633	16211.8625
596.888	16403.9625
600.89682	16788.0625
604.9028	17951.8625
608.90594	21078.3625
612.90624	25048.9625
616.90371	24306.9625
620.89834	18893.8625
624.89015	16321.0625
628.87913	15919.8625
632.86528	15851.6625
636.84862	15755.5625
640.82913	15477.0625
644.80683	15047.3625
648.78172	14711.8625
652.75379	14693.6625
656.72306	15093.6625
660.68952	15634.2625
664.65319	15605.5625
668.61405	15176.3625
672.57211	14925.0625
676.52738	14910.9625
680.47986	14915.7625
684.42955	14886.9625
688.37646	14861.2625
692.32058	14923.9625
696.26192	14992.1625
700.20048	15138.2625
704.13626	15268.7625
708.06928	15219.4625
711.99952	15124.4625
715.927	15050.7625
719.85171	15063.2625
723.77365	15007.3625
727.69284	14915.6625
731.60928	14816.8625
735.52295	14779.1625
739.43388	14844.4625
743.34206	14940.8625
747.24749	15049.6625
751.15017	15171.3625
755.05012	15455.3625
758.94733	15966.1625
762.8418	16960.9625
766.73354	18730.3625
770.62254	20590.1625
774.50882	21448.7625
778.39237	20601.4625
782.27321	18673.9625
786.15132	16861.7625
790.02671	15775.0625
793.89938	15312.6625
797.76935	15135.5625
801.6366	15053.0625
805.50115	14990.4625
809.36299	14933.0625
813.22213	14878.2625
817.07857	14853.9625
820.93231	14877.5625
824.78336	14894.3625
828.63172	14954.3625
832.47738	15039.7625
836.32036	15068.7625
840.16066	15074.9625
843.99827	15101.3625
847.8332	15061.2625
851.66546	14984.6625
855.49504	14989.4625
859.32195	14927.1625
863.1462	14895.5625
866.96777	14793.1625
870.78668	14785.2625
874.60293	14819.0625
878.41652	14835.1625
882.22745	14899.1625
886.03573	14961.7625
889.84136	14968.6625
893.64433	14895.0625
897.44466	14824.3625
901.24235	14821.7625
905.0374	14820.7625
908.8298	14760.1625
912.61957	14791.5625
916.40671	14898.6625
920.19121	15067.6625
923.97308	15264.4625
927.75233	15376.5625
931.52895	15458.0625
935.30295	15404.1625
939.07433	15071.8625
942.84309	14801.4625
946.60924	14688.1625
950.37278	14605.2625
954.13371	14545.1625
957.89203	14444.2625
961.64774	14371.6625
965.40086	14327.0625
969.15137	14253.8625
972.89929	14218.5625
976.64461	14218.7625
980.38733	14220.3625
984.12747	14329.9625
987.86502	14471.8625
991.59999	14650.5625
995.33237	14936.7625
999.06217	15379.0625
1002.78939	15972.5625
1006.51404	16330.3625
1010.23611	16599.8625
1013.95561	16781.0625
1017.67255	16819.3625
1021.38692	16685.9625
1025.09872	16573.7625
1028.80796	16747.1625
1032.51465	17204.2625
1036.21877	17668.5625
1039.92035	17669.2625
1043.61937	17366.2625
1047.31584	16852.3625
1051.00976	16302.0625
1054.70114	16033.5625
1058.38998	15935.7625
1062.07627	16007.5625
1065.76003	16036.3625
1069.44126	16105.7625
1073.11995	16202.0625
1076.79611	16326.0625
1080.46974	16448.8625
1084.14085	16631.2625
1087.80943	16877.9625
1091.47549	16946.4625
1095.13903	16814.0625
1098.80005	16464.7625
1102.45857	16134.9625
1106.11456	15918.5625
1109.76805	15959.8625
1113.41903	16154.0625
1117.06751	16412.1625
1120.71348	16767.0625
1124.35696	17105.3625
1127.99793	17454.7625
1131.63641	17532.9625
1135.2724	17126.5625
1138.90589	16709.8625
1142.5369	16408.8625
1146.16542	16157.1625
1149.79145	16102.2625
1153.415	16133.0625
1157.03607	16262.5625
1160.65467	16494.3625
1164.27079	16954.1625
1167.88443	17640.0625
1171.49561	18668.8625
1175.10432	20292.1625
1178.71056	22402.0625
1182.31434	24199.6625
1185.91565	25128.8625
1189.51451	25090.1625
1193.11091	24007.2625
1196.70485	22574.3625
1200.29634	21271.8625
1203.88538	20311.3625
1207.47197	19485.0625
1211.05612	18799.9625
1214.63782	18453.7625
1218.21708	18411.1625
1221.79391	18501.1625
1225.36829	18711.4625
1228.94024	18865.9625
1232.50976	18855.4625
1236.07685	18721.1625
1239.6415	18617.1625
1243.20374	18549.5625
1246.76355	18583.8625
1250.32093	18822.4625
1253.8759	19207.8625
1257.42845	19746.4625
1260.97859	20311.6625
1264.52631	20678.0625
1268.07163	21119.5625
1271.61453	21595.0625
1275.15503	22161.8625
1278.69312	22659.0625
1282.22882	23119.1625
1285.76211	23591.0625
1289.29301	24040.3625
1292.82151	24585.5625
1296.34761	25197.8625
1299.87133	26110.4625
1303.39266	27580.1625
1306.9116	29785.4625
1310.42815	32413.9625
1313.94233	34251.3625
1317.45412	34332.3625
1320.96354	32952.3625
1324.47058	31294.3625
1327.97525	29825.2625
1331.47754	28869.3625
1334.97747	28521.1625
1338.47502	28662.1625
1341.97022	28989.2625
1345.46305	29222.2625
1348.95352	29360.7625
1352.44163	29800.4625
1355.92738	30945.6625
1359.41078	33436.3625
1362.89183	36264.9625
1366.37053	35924.5625
1369.84688	32013.3625
1373.32088	27786.5625
1376.79254	25035.0625
1380.26186	23737.1625
1383.72883	23185.9625
1387.19347	22772.8625
1390.65578	22314.2625
1394.11575	22033.1625
1397.57339	22054.4625
1401.0287	22410.3625
1404.48168	22819.9625
1407.93234	23321.5625
1411.38068	23685.0625
1414.82669	23661.9625
1418.27039	23162.7625
1421.71177	22528.9625
1425.15083	22001.1625
1428.58758	21634.7625
1432.02203	21519.7625
1435.45416	21660.6625
1438.88399	21763.3625
1442.31151	21832.6625
1445.73673	21929.2625
1449.15965	22027.5625
1452.58027	22040.9625
1455.9986	21919.5625
1459.41463	21842.4625
1462.82837	21981.0625
1466.23982	22295.6625
1469.64898	22656.2625
1473.05586	22930.5625
1476.46045	23122.8625
1479.86276	23330.6625
1483.26279	23601.4625
1486.66054	23872.2625
1490.05602	24285.5625
1493.44922	24877.5625
1496.84016	25550.6625
1500.22882	26462.5625
1503.61521	27781.6625
1506.99934	29450.9625
1510.38121	31322.8625
1513.76081	32532.6625
1517.13816	31924.7625
1520.51324	29794.9625
1523.88607	27299.1625
1527.25665	25467.2625
1530.62498	24243.8625
1533.99105	23554.7625
1537.35488	23091.3625
1540.71647	22923.8625
1544.07581	22777.7625
1547.4329	22626.1625
1550.78776	22472.7625
1554.14038	22449.9625
1557.49077	22525.8625
1560.83892	22697.4625
1564.18484	22888.3625
1567.52853	22978.0625
1570.86999	23053.9625
1574.20922	23116.6625
1577.54624	23073.7625
1580.88103	22719.4625
1584.2136	22286.6625
1587.54395	22369.2625
1590.87208	23144.1625
1594.19801	24569.0625
1597.52172	26274.8625
1600.84321	27045.4625
1604.16251	26328.3625
1607.47959	24588.7625
1610.79447	22648.6625
1614.10715	20897.2625
1617.41763	19568.3625
1620.7259	18703.7625
1624.03199	18305.9625
1627.33587	18355.6625
1630.63757	18856.0625
1633.93707	19785.5625
1637.23439	21061.2625
1640.52951	22637.6625
1643.82246	24232.7625
1647.11321	25618.4625
1650.40179	26387.5625
1653.68819	25482.6625
1656.97241	22937.8625
1660.25446	20089.5625
1663.53433	18009.7625
1666.81203	16725.4625
1670.08756	15951.5625
1673.36092	15493.3625
1676.63211	15195.5625
1679.90115	14980.8625
1683.16801	14825.1625
1686.43272	14679.2625
1689.69527	14582.0625
1692.95567	14507.6625
1696.2139	14466.4625
1699.46999	14401.6625
1702.72392	14384.5625
1705.97571	14397.2625
1709.22535	14401.5625
1712.47284	14448.1625
1715.71819	14478.9625
1718.96139	14463.7625
1722.20246	14417.9625
1725.44139	14413.8625
1728.67818	14363.3625
1731.91284	14295.9625
1735.14537	14193.1625
1738.37576	14170.9625
1741.60403	14114.3625
1744.83017	14078.7625
1748.05418	14034.9625
1751.27607	14000.1625
1754.49584	14008.4625
1757.71349	13967.6625
1760.92903	13952.5625
1764.14244	13927.1625
1767.35375	13941.8625
1770.56294	13934.3625
1773.77002	13907.8625
1776.97499	13920.4625
1780.17785	13916.3625
1783.37861	13931.7625
1786.57727	13951.5625
1789.77382	13933.7625
1792.96828	13887.2625
1796.16064	13880.0625
1799.3509	13894.3625
1802.53907	13879.7625
1805.72514	13846.2625
1808.90913	13831.7625
1812.09102	13798.0625
1815.27083	13783.9625
1818.44856	13753.0625
1821.6242	13736.9625
1824.79776	13702.1625
1827.96924	13735.5625
1831.13864	13717.6625
1834.30597	13720.5625
1837.47122	13725.2625
1840.6344	13715.1625
1843.7955	13731.9625
1846.95454	13724.9625
1850.11151	13744.5625
1853.26642	13751.4625
1856.41926	13778.2625
1859.57004	13800.4625
1862.71876	13782.3625
1865.86542	13757.5625
1869.01003	13770.5625
1872.15258	13777.5625
1875.29308	13810.4625
1878.43152	13819.8625
1881.56792	13845.0625
1884.70227	13826.1625
1887.83457	13827.6625
1890.96482	13830.5625
1894.09304	13853.3625
1897.21921	13853.5625
1900.34335	13839.1625
1903.46544	13865.8625
1906.58551	13856.5625
1909.70353	13846.9625
1912.81953	13863.4625
1915.93349	13865.2625
1919.04543	13812.9625
1922.15534	13815.2625
1925.26322	13766.2625
1928.36908	13746.3625
1931.47292	13704.4625
1934.57473	13688.5625
1937.67453	13621.8625
1940.77232	13551.8625
1943.86808	13492.8625
1946.96184	13433.8625
1950.05358	13388.6625
1953.14331	13354.7625
1956.23103	13299.5625
1959.31675	13255.7625
1962.40046	13227.6625
1965.48217	13180.5625
1968.56188	13152.4625
1971.63959	13095.9625
1974.7153	13071.5625
1977.78901	13036.7625
1980.86073	12992.3625
1983.93046	12964.3625
1986.99819	12930.1625
1990.06394	12868.6625
1993.1277	12846.4625
1996.18947	12766.7625
1999.24925	12778.4625
2002.30706	12708.5625
2005.36288	12696.5625
2008.41672	12666.8625
2011.46859	12635.5625
2014.51848	12617.6625
2017.56639	12601.2625
2020.61233	12551.5625
2023.6563	12546.1625
2026.6983	12499.1625
2029.73833	12474.0625
2032.7764	12438.7625
2035.8125	12454.5625
2038.84664	12404.0625
2041.87881	12408.1625
2044.90903	12373.8625
2047.93729	12341.6625
2050.96359	12333.3625
2053.98794	12326.3625
2057.01034	12314.8625
2060.03078	12327.4625
2063.04927	12303.6625
2066.06582	12313.8625
2069.08042	12292.6625
2072.09307	12265.1625
2075.10378	12253.1625
2078.11255	12242.6625
2081.11938	12243.7625
2084.12426	12260.4625
2087.12722	12239.6625
2090.12824	12250.9625
2093.12732	12252.3625
2096.12447	12243.9625
2099.11969	12235.3625
2102.11299	12250.2625
2105.10435	12246.9625
2108.09379	12261.8625
2111.08131	12264.9625
2114.0669	12275.5625
2117.05057	12283.9625
2120.03233	12281.1625
2123.01216	12292.3625
2125.99008	12309.2625
2128.96609	12317.2625
2131.94018	12315.3625
2134.91236	12323.0625
2137.88263	12343.7625
2140.851	12330.5625
2143.81746	12354.8625
2146.78201	12342.3625
2149.74466	12378.9625
2152.7054	12396.8625
2155.66425	12375.4625
2158.6212	12395.7625
2161.57625	12358.1625
2164.52941	12361.8625
2167.48067	12354.5625
2170.43004	12363.5625
2173.37752	12369.3625
2176.32311	12349.7625
2179.26681	12370.1625
2182.20863	12364.0625
2185.14856	12357.1625
2188.08661	12373.0625
2191.02278	12379.9625
2193.95707	12370.8625
2196.88948	12358.3625
2199.82001	12391.1625
2202.74867	12349.7625
2205.67545	12372.1625
2208.60037	12350.5625
2211.52341	12322.6625
2214.44458	12336.2625
2217.36388	12299.7625
2220.28132	12302.7625
2223.1969	12295.7625
2226.11061	12278.9625
2229.02246	12252.8625
2231.93245	12241.6625
2234.84058	12193.1625
2237.74686	12184.2625
2240.65128	12192.4625
2243.55385	12152.2625
2246.45456	12114.8625
2249.35343	12131.2625
2252.25044	12114.1625
2255.14561	12101.8625
2258.03893	12078.0625
2260.93041	12067.7625
2263.82004	12048.0625
2266.70783	12037.6625
2269.59378	11992.0625
2272.4779	11981.8625
2275.36017	11952.2625
2278.24061	11930.9625
2281.11922	11896.0625
2283.996	11910.4625
2286.87094	11881.5625
2289.74405	11851.0625
2292.61534	11851.3625
2295.4848	11837.5625
2298.35243	11849.9625
2301.21824	11840.8625
2304.08223	11841.5625
2306.94439	11879.1625
2309.80474	11867.7625
2312.66327	11895.2625
2315.51999	11901.8625
2318.37489	11884.0625
2321.22797	11861.7625
2324.07925	11837.6625
2326.92871	11855.8625
2329.77637	11819.9625
2332.62222	11826.5625
2335.46626	11810.8625
2338.3085	11811.7625
2341.14893	11810.7625
2343.98756	11834.6625
2346.8244	11803.8625
2349.65943	11865.4625
2352.49267	11848.1625
2355.32411	11823.1625
2358.15376	11837.2625
2360.98161	11826.8625
2363.80768	11789.5625
2366.63195	11802.1625
2369.45444	11770.2625
2372.27514	11761.5625
2375.09405	11741.7625
2377.91118	11732.9625
2380.72652	11676.3625
2383.54009	11651.8625
2386.35187	11610.9625
2389.16188	11600.1625
2391.97011	11593.3625
2394.77657	11577.4625
2397.58125	11558.8625
2400.38416	11548.7625
2403.18529	11497.2625
2405.98466	11519.3625
2408.78226	11473.1625
2411.57809	11444.3625
2414.37216	11433.1625
2417.16446	11431.0625
2419.955	11383.1625
2422.74378	11420.3625
2425.5308	11366.2625
2428.31606	11384.6625
2431.09956	11382.8625
2433.88131	11347.7625
2436.6613	11370.0625
2439.43954	11362.7625
2442.21603	11335.2625
2444.99077	11343.1625
2447.76377	11343.2625
2450.53501	11300.1625
2453.30451	11341.6625
2456.07226	11311.6625
2458.83827	11334.9625
2461.60254	11307.1625
2464.36507	11303.9625
2467.12586	11293.6625
2469.88492	11300.8625
2472.64224	11316.0625
2475.39782	11313.8625
2478.15167	11285.7625
2480.90379	11300.0625
2483.65417	11349.2625
2486.40283	11346.7625
2489.14976	11351.1625
2491.89497	11350.3625
2494.63845	11385.4625
2497.3802	11365.3625
2500.12024	11362.5625
2502.85855	11344.4625
2505.59514	11333.4625
2508.33002	11318.0625
2511.06318	11312.4625
2513.79462	11282.2625
2516.52435	11260.7625
2519.25237	11241.2625
2521.97867	11233.8625
2524.70327	11250.6625
2527.42616	11186.3625
2530.14734	11220.8625
2532.86681	11214.4625
2535.58458	11196.0625
2538.30065	11170.7625
2541.01501	11185.7625
2543.72768	11175.3625
2546.43864	11174.7625
2549.14791	11139.6625
2551.85548	11133.6625
2554.56136	11126.4625
2557.26554	11121.3625
2559.96803	11121.5625
2562.66883	11098.1625
2565.36794	11117.2625
2568.06536	11093.0625
2570.7611	11083.3625
2573.45514	11049.6625
2576.14751	11028.4625
2578.83819	11038.1625
2581.52719	11038.0625
2584.21451	11034.2625
2586.90015	11059.4625
2589.58411	10997.4625
2592.2664	11010.6625
2594.94701	11010.0625
2597.62594	11019.6625
2600.30321	11007.7625
2602.9788	11008.7625
2605.65273	10964.1625
2608.32498	10987.8625
2610.99557	10975.3625
2613.66449	10980.0625
2616.33175	10987.0625
2618.99734	10968.3625
2621.66128	10977.3625
2624.32355	11003.6625
2626.98416	10983.8625
2629.64311	10987.1625
2632.30041	10975.0625
2634.95605	10950.0625
2637.61004	10947.9625
2640.26238	10938.2625
2642.91306	10933.1625
2645.56209	10902.7625
2648.20948	10893.0625
2650.85521	10875.6625
2653.4993	10881.2625
2656.14175	10890.2625
2658.78255	10883.5625
2661.42171	10898.7625
2664.05923	10908.4625
2666.6951	10924.4625
2669.32934	10935.7625
2671.96194	10913.5625
2674.59291	10949.8625
2677.22224	10935.8625
2679.84993	10946.3625
2682.476	10907.5625
2685.10043	10933.1625
2687.72324	10913.1625
2690.34441	10910.7625
2692.96396	10901.2625
2695.58188	10903.3625
2698.19818	10899.1625
2700.81285	10899.0625
2703.4259	10887.6625
2706.03733	10889.4625
2708.64714	10869.9625
2711.25533	10905.2625
2713.86191	10905.3625
2716.46687	10907.4625
2719.07021	10921.5625
2721.67194	10921.8625
2724.27206	10953.4625
2726.87057	10935.6625
2729.46747	10924.1625
2732.06276	10936.8625
2734.65644	10905.6625
2737.24852	10925.8625
2739.83899	10917.5625
2742.42786	10914.4625
2745.01513	10910.7625
2747.60079	10860.8625
2750.18486	10871.5625
2752.76733	10869.9625
2755.3482	10877.7625
2757.92747	10877.6625
2760.50515	10860.4625
2763.08123	10867.0625
2765.65573	10882.1625
2768.22863	10835.1625
2770.79994	10839.8625
2773.36967	10862.3625
2775.9378	10810.6625
2778.50435	10846.2625
2781.06932	10800.0625
2783.6327	10818.4625
2786.1945	10814.5625
2788.75471	10800.0625
2791.31335	10765.8625
2793.87041	10762.5625
2796.42589	10764.7625
2798.97979	10727.1625
2801.53212	10683.8625
2804.08288	10712.6625
2806.63206	10692.0625
2809.17967	10642.5625
2811.72571	10645.4625
2814.27018	10610.0625
2816.81308	10631.4625
2819.35442	10617.7625
2821.89419	10616.4625
2824.43239	10625.9625
2826.96904	10623.1625
2829.50412	10633.6625
2832.03763	10616.5625
2834.56959	10604.6625
2837.1	10602.5625
2839.62884	10609.6625
2842.15613	10614.9625
2844.68186	10630.1625
2847.20604	10650.7625
2849.72867	10672.5625
2852.24974	10654.7625
2854.76927	10643.2625
2857.28724	10632.1625
2859.80367	10660.8625
2862.31855	10605.2625
2864.83189	10571.0625
2867.34368	10605.6625
2869.85393	10578.2625
2872.36264	10540.5625
2874.8698	10565.7625
2877.37543	10569.6625
2879.87952	10537.4625
2882.38207	10537.2625
2884.88308	10558.1625
2887.38256	10544.9625
2889.88051	10539.0625
2892.37692	10552.9625
2894.8718	10545.8625
2897.36515	10560.3625
2899.85698	10549.8625
2902.34727	10576.3625
2904.83604	10586.7625
2907.32328	10595.5625
2909.809	10616.5625
2912.29319	10633.0625
2914.77587	10642.0625
2917.25702	10591.5625
2919.73665	10589.8625
2922.21476	10607.5625
2924.69136	10572.2625
2927.16644	10571.6625
2929.64	10568.0625
2932.11205	10541.4625
2934.58258	10525.9625
2937.05161	10505.6625
2939.51912	10528.5625
2941.98513	10498.3625
2944.44962	10454.1625
2946.91261	10419.9625
2949.37409	10442.5625
2951.83407	10427.1625
2954.29254	10428.3625
2956.74951	10414.4625
2959.20498	10413.3625
2961.65895	10404.7625
2964.11142	10412.9625
2966.56239	10365.7625
2969.01186	10370.9625
2971.45984	10326.6625
2973.90632	10298.3625
2976.35131	10288.2625
2978.7948	10302.0625
2981.23681	10243.4625
2983.67732	10250.6625
2986.11635	10215.0625
2988.55388	10195.6625
2990.98993	10194.1625
2993.4245	10145.7625
2995.85758	10122.7625
2998.28917	10108.4625
3000.71928	10082.7625
3003.14791	10075.0625
3005.57506	10077.7625
3008.00073	10045.7625
3010.42493	10073.2625
3012.84764	10047.9625
3015.26888	10039.5625
3017.68865	9982.9625
3020.10694	9982.4625
3022.52376	9982.0625
3024.9391	9957.6625
