Data from AgNPs_FTO_APTES_UA_1uM_CRN_0uM_R6G_10uM_NaF_0.1M_Addition_RamanShift__28__11-38-19-439.txt Node

Date: Thu Jan 27 11:38:19 GMT 2022
User: TCL
Spectrometer: QEP01345
Trigger mode: 4
Integration Time (sec): 7.000000E0
Scans to average: 10
Electric dark correction enabled: true
Nonlinearity correction enabled: false
Boxcar width: 0
XAxis mode: Raman Shifts
Number of Pixels in Spectrum: 1044
>>>>>Begin Spectral Data<<<<<
46.04893	1.0625
50.45542	0.5625
54.85868	-2.2375
59.25871	-0.9375
63.6555	49.1625
68.04907	50.7625
72.43941	52.9625
76.82654	57.9625
81.21044	58.0625
85.59113	56.7625
89.96862	64.9625
94.34289	66.5625
98.71396	70.3625
103.08183	66.9625
107.4465	72.0625
111.80798	75.2625
116.16626	74.2625
120.52136	82.5625
124.87327	81.9625
129.222	81.9625
133.56755	87.6625
137.90993	93.2625
142.24913	99.1625
146.58517	112.9625
150.91804	128.1625
155.24774	147.5625
159.57429	179.5625
163.89768	231.5625
168.21792	306.1625
172.53501	409.4625
176.84895	562.4625
181.15975	780.1625
185.46741	1093.2625
189.77193	1507.1625
194.07331	2016.0625
198.37157	2608.7625
202.6667	3219.5625
206.9587	3841.5625
211.24758	4429.9625
215.53334	5047.3625
219.81599	5683.6625
224.09553	6389.4625
228.37195	7170.8625
232.64527	8039.6625
236.91549	8931.9625
241.18261	9831.3625
245.44663	10701.1625
249.70755	11404.8625
253.96539	12072.9625
258.22014	12575.7625
262.4718	12997.6625
266.72039	13274.0625
270.96589	13402.9625
275.20832	13347.3625
279.44768	13227.9625
283.68397	13036.9625
287.91719	12868.6625
292.14735	12751.1625
296.37445	12710.3625
300.59849	12723.1625
304.81948	12826.0625
309.03742	12925.2625
313.25231	12938.1625
317.46415	12867.2625
321.67296	12712.8625
325.87872	12609.8625
330.08145	12536.0625
334.28114	12525.2625
338.47781	12566.4625
342.67145	12733.8625
346.86207	12935.7625
351.04966	13158.4625
355.23424	13418.1625
359.4158	13666.8625
363.59435	13813.2625
367.76989	13883.0625
371.94243	13916.9625
376.11196	13945.6625
380.27849	13992.5625
384.44203	14046.2625
388.60257	14128.3625
392.76012	14232.7625
396.91468	14405.7625
401.06626	14594.7625
405.21485	14755.6625
409.36047	14723.2625
413.50311	14625.0625
417.64277	14651.4625
421.77947	14745.6625
425.9132	14772.6625
430.04396	14821.0625
434.17176	14878.3625
438.2966	14930.8625
442.41849	15181.1625
446.53742	15614.4625
450.6534	16063.0625
454.76644	16299.8625
458.87653	16307.7625
462.98368	16106.1625
467.08789	15852.8625
471.18916	15540.5625
475.2875	15156.3625
479.38291	14831.6625
483.4754	14629.7625
487.56496	14494.0625
491.6516	14446.0625
495.73531	14438.7625
499.81612	14509.2625
503.89401	14669.0625
507.96899	14748.3625
512.04106	14762.9625
516.11023	14595.7625
520.1765	14550.8625
524.23987	14483.0625
528.30034	14430.7625
532.35792	14350.5625
536.41261	14157.4625
540.46441	13972.6625
544.51333	13864.5625
548.55936	13949.2625
552.60252	14141.7625
556.64279	14517.4625
560.6802	14794.8625
564.71473	14819.7625
568.7464	14868.6625
572.7752	15132.1625
576.80114	15530.8625
580.82422	16112.4625
584.84444	17055.6625
588.86181	18389.0625
592.87633	19753.7625
596.888	19976.8625
600.89682	18682.2625
604.9028	17707.6625
608.90594	18311.1625
612.90624	19484.6625
616.90371	18641.7625
620.89834	16076.3625
624.89015	14787.6625
628.87913	14574.8625
632.86528	14655.4625
636.84862	14615.4625
640.82913	14388.5625
644.80683	14035.0625
648.78172	13886.4625
652.75379	13943.8625
656.72306	14141.1625
660.68952	14355.0625
664.65319	14287.6625
668.61405	13990.5625
672.57211	14021.6625
676.52738	14121.7625
680.47986	14125.0625
684.42955	13998.8625
688.37646	13888.6625
692.32058	13970.2625
696.26192	14241.6625
700.20048	14468.9625
704.13626	14612.1625
708.06928	14566.4625
711.99952	14491.2625
715.927	14484.1625
719.85171	14624.2625
723.77365	14555.2625
727.69284	14283.6625
731.60928	14061.0625
735.52295	13972.8625
739.43388	13984.8625
743.34206	14049.8625
747.24749	14188.4625
751.15017	14271.3625
755.05012	14477.8625
758.94733	14820.6625
762.8418	15378.4625
766.73354	16280.1625
770.62254	17214.7625
774.50882	17426.5625
778.39237	16857.2625
782.27321	15959.8625
786.15132	15127.1625
790.02671	14654.8625
793.89938	14374.9625
797.76935	14256.4625
801.6366	14204.7625
805.50115	14155.3625
809.36299	14093.1625
813.22213	14003.1625
817.07857	13887.3625
820.93231	13793.6625
824.78336	13780.5625
828.63172	13752.0625
832.47738	13753.2625
836.32036	13779.6625
840.16066	13794.0625
843.99827	13802.6625
847.8332	13787.4625
851.66546	13795.0625
855.49504	13785.9625
859.32195	13812.2625
863.1462	13796.7625
866.96777	13739.1625
870.78668	13748.4625
874.60293	13773.3625
878.41652	13784.8625
882.22745	13839.2625
886.03573	13906.5625
889.84136	13943.4625
893.64433	13859.4625
897.44466	13840.3625
901.24235	13771.6625
905.0374	13741.2625
908.8298	13701.6625
912.61957	13679.4625
916.40671	13767.8625
920.19121	13934.8625
923.97308	14127.2625
927.75233	14266.3625
931.52895	14204.2625
935.30295	14028.6625
939.07433	13762.7625
942.84309	13602.2625
946.60924	13542.7625
950.37278	13534.2625
954.13371	13526.0625
957.89203	13502.5625
961.64774	13466.3625
965.40086	13462.7625
969.15137	13468.4625
972.89929	13456.1625
976.64461	13458.7625
980.38733	13488.2625
984.12747	13530.6625
987.86502	13592.2625
991.59999	13661.2625
995.33237	13818.0625
999.06217	14076.0625
1002.78939	14439.3625
1006.51404	14788.1625
1010.23611	15100.4625
1013.95561	15276.7625
1017.67255	15239.9625
1021.38692	15146.2625
1025.09872	14828.5625
1028.80796	14687.9625
1032.51465	14786.1625
1036.21877	14962.9625
1039.92035	15041.0625
1043.61937	14983.4625
1047.31584	14888.8625
1051.00976	14741.1625
1054.70114	14656.6625
1058.38998	14680.7625
1062.07627	14739.8625
1065.76003	14828.0625
1069.44126	14955.7625
1073.11995	15236.5625
1076.79611	15519.4625
1080.46974	15674.1625
1084.14085	15790.8625
1087.80943	15927.0625
1091.47549	16017.4625
1095.13903	16002.9625
1098.80005	15793.5625
1102.45857	15400.9625
1106.11456	15112.5625
1109.76805	14996.2625
1113.41903	14959.4625
1117.06751	15001.2625
1120.71348	15105.1625
1124.35696	15264.7625
1127.99793	15371.3625
1131.63641	15489.7625
1135.2724	15445.3625
1138.90589	15366.3625
1142.5369	15354.4625
1146.16542	15462.0625
1149.79145	15550.6625
1153.415	15595.2625
1157.03607	15650.0625
1160.65467	16005.1625
1164.27079	16608.2625
1167.88443	17399.6625
1171.49561	18223.4625
1175.10432	19286.4625
1178.71056	20632.4625
1182.31434	22035.3625
1185.91565	22633.4625
1189.51451	22408.3625
1193.11091	21851.3625
1196.70485	21138.1625
1200.29634	20433.4625
1203.88538	19953.8625
1207.47197	19619.8625
1211.05612	19338.0625
1214.63782	18957.5625
1218.21708	18541.8625
1221.79391	18213.7625
1225.36829	18063.7625
1228.94024	17956.4625
1232.50976	17755.6625
1236.07685	17428.8625
1239.6415	17130.8625
1243.20374	17045.4625
1246.76355	17127.8625
1250.32093	17403.7625
1253.8759	17727.0625
1257.42845	18211.0625
1260.97859	18733.4625
1264.52631	19301.4625
1268.07163	19893.8625
1271.61453	20471.9625
1275.15503	21020.5625
1278.69312	21508.7625
1282.22882	22072.9625
1285.76211	22822.0625
1289.29301	23683.5625
1292.82151	24617.2625
1296.34761	25837.2625
1299.87133	27250.8625
1303.39266	28829.8625
1306.9116	30236.8625
1310.42815	31357.5625
1313.94233	31916.9625
1317.45412	31505.9625
1320.96354	30439.5625
1324.47058	29322.6625
1327.97525	28595.5625
1331.47754	28126.2625
1334.97747	27770.1625
1338.47502	27355.2625
1341.97022	26884.5625
1345.46305	26414.9625
1348.95352	26302.8625
1352.44163	26809.3625
1355.92738	28054.7625
1359.41078	29961.5625
1362.89183	31555.3625
1366.37053	31638.0625
1369.84688	29510.9625
1373.32088	26003.5625
1376.79254	23367.0625
1380.26186	22317.0625
1383.72883	22164.8625
1387.19347	22107.9625
1390.65578	21647.1625
1394.11575	21343.4625
1397.57339	21456.4625
1401.0287	21715.7625
1404.48168	22089.8625
1407.93234	22125.2625
1411.38068	21913.2625
1414.82669	21475.2625
1418.27039	20888.3625
1421.71177	20316.6625
1425.15083	19827.5625
1428.58758	19620.3625
1432.02203	19897.1625
1435.45416	20506.5625
1438.88399	21073.3625
1442.31151	21349.0625
1445.73673	21362.5625
1449.15965	21234.7625
1452.58027	21026.3625
1455.9986	20772.2625
1459.41463	20709.9625
1462.82837	21011.3625
1466.23982	21524.4625
1469.64898	22035.0625
1473.05586	22405.6625
1476.46045	22639.9625
1479.86276	22593.2625
1483.26279	22497.1625
1486.66054	22451.4625
1490.05602	22576.9625
1493.44922	22780.9625
1496.84016	22955.5625
1500.22882	23144.8625
1503.61521	23504.9625
1506.99934	24022.8625
1510.38121	24478.8625
1513.76081	24619.4625
1517.13816	24163.0625
1520.51324	23499.2625
1523.88607	22930.1625
1527.25665	22736.7625
1530.62498	22718.2625
1533.99105	22575.7625
1537.35488	22230.1625
1540.71647	21774.0625
1544.07581	21178.4625
1547.4329	20661.4625
1550.78776	20273.3625
1554.14038	19956.0625
1557.49077	19751.7625
1560.83892	19638.5625
1564.18484	19588.8625
1567.52853	19572.8625
1570.86999	19724.7625
1574.20922	20004.4625
1577.54624	20217.3625
1580.88103	20261.7625
1584.2136	20404.5625
1587.54395	21038.5625
1590.87208	22288.0625
1594.19801	23952.8625
1597.52172	25606.6625
1600.84321	26209.1625
1604.16251	25123.8625
1607.47959	22973.2625
1610.79447	20717.1625
1614.10715	18798.5625
1617.41763	17458.1625
1620.7259	16614.4625
1624.03199	16232.0625
1627.33587	16246.2625
1630.63757	16728.7625
1633.93707	17670.1625
1637.23439	19368.7625
1640.52951	22017.1625
1643.82246	25345.5625
1647.11321	28083.4625
1650.40179	28467.6625
1653.68819	26041.1625
1656.97241	22149.6625
1660.25446	18765.1625
1663.53433	16474.1625
1666.81203	15140.8625
1670.08756	14368.3625
1673.36092	13897.6625
1676.63211	13624.7625
1679.90115	13390.1625
1683.16801	13220.2625
1686.43272	13113.4625
1689.69527	13026.2625
1692.95567	12904.5625
1696.2139	12835.4625
1699.46999	12719.7625
1702.72392	12667.4625
1705.97571	12700.4625
1709.22535	12742.2625
1712.47284	12771.8625
1715.71819	12769.8625
1718.96139	12766.8625
1722.20246	12740.9625
1725.44139	12703.8625
1728.67818	12591.4625
1731.91284	12541.8625
1735.14537	12476.1625
1738.37576	12436.0625
1741.60403	12377.3625
1744.83017	12320.0625
1748.05418	12289.7625
1751.27607	12266.1625
1754.49584	12222.1625
1757.71349	12200.0625
1760.92903	12182.5625
1764.14244	12159.9625
1767.35375	12179.3625
1770.56294	12148.3625
1773.77002	12112.7625
1776.97499	12142.7625
1780.17785	12141.2625
1783.37861	12156.9625
1786.57727	12151.9625
1789.77382	12156.6625
1792.96828	12117.4625
1796.16064	12096.3625
1799.3509	12078.0625
1802.53907	12062.7625
1805.72514	12028.7625
1808.90913	11976.4625
1812.09102	11966.7625
1815.27083	11967.0625
1818.44856	11959.7625
1821.6242	11954.0625
1824.79776	11943.3625
1827.96924	11937.1625
1831.13864	11930.5625
1834.30597	11908.5625
1837.47122	11918.3625
1840.6344	11910.4625
1843.7955	11906.1625
1846.95454	11921.1625
1850.11151	11909.8625
1853.26642	11912.6625
1856.41926	11877.0625
1859.57004	11874.4625
1862.71876	11859.0625
1865.86542	11893.2625
1869.01003	11868.8625
1872.15258	11856.8625
1875.29308	11832.6625
1878.43152	11832.0625
1881.56792	11824.0625
1884.70227	11792.2625
1887.83457	11776.4625
1890.96482	11792.5625
1894.09304	11740.5625
1897.21921	11749.2625
1900.34335	11768.5625
1903.46544	11744.5625
1906.58551	11717.4625
1909.70353	11713.1625
1912.81953	11690.0625
1915.93349	11687.0625
1919.04543	11671.4625
1922.15534	11632.3625
1925.26322	11608.8625
1928.36908	11599.2625
1931.47292	11555.5625
1934.57473	11539.1625
1937.67453	11534.2625
1940.77232	11478.9625
1943.86808	11442.9625
1946.96184	11443.9625
1950.05358	11412.9625
1953.14331	11387.6625
1956.23103	11378.2625
1959.31675	11323.8625
1962.40046	11300.7625
1965.48217	11268.5625
1968.56188	11237.5625
1971.63959	11213.7625
1974.7153	11219.3625
1977.78901	11166.6625
1980.86073	11113.5625
1983.93046	11072.3625
1986.99819	11051.0625
1990.06394	11038.3625
1993.1277	10983.9625
1996.18947	10955.0625
1999.24925	10963.2625
2002.30706	10904.4625
2005.36288	10867.8625
2008.41672	10853.2625
2011.46859	10806.9625
2014.51848	10797.5625
2017.56639	10769.5625
2020.61233	10767.8625
2023.6563	10746.4625
2026.6983	10719.5625
2029.73833	10698.1625
2032.7764	10673.8625
2035.8125	10659.7625
2038.84664	10646.7625
2041.87881	10639.8625
2044.90903	10602.4625
2047.93729	10597.9625
2050.96359	10559.9625
2053.98794	10547.1625
2057.01034	10548.0625
2060.03078	10560.4625
2063.04927	10545.8625
2066.06582	10542.9625
2069.08042	10547.4625
2072.09307	10552.0625
2075.10378	10551.1625
2078.11255	10549.6625
2081.11938	10540.7625
2084.12426	10537.8625
2087.12722	10562.3625
2090.12824	10549.9625
2093.12732	10544.9625
2096.12447	10547.2625
2099.11969	10542.2625
2102.11299	10567.2625
2105.10435	10550.3625
2108.09379	10564.8625
2111.08131	10605.2625
2114.0669	10610.4625
2117.05057	10572.1625
2120.03233	10562.0625
2123.01216	10580.8625
2125.99008	10625.0625
2128.96609	10600.7625
2131.94018	10600.8625
2134.91236	10624.5625
2137.88263	10629.9625
2140.851	10637.7625
2143.81746	10646.1625
2146.78201	10634.6625
2149.74466	10645.1625
2152.7054	10654.0625
2155.66425	10627.1625
2158.6212	10647.9625
2161.57625	10647.0625
2164.52941	10646.9625
2167.48067	10616.4625
2170.43004	10629.8625
2173.37752	10641.3625
2176.32311	10636.0625
2179.26681	10636.1625
2182.20863	10649.5625
2185.14856	10662.5625
2188.08661	10656.9625
2191.02278	10670.5625
2193.95707	10660.2625
2196.88948	10628.0625
2199.82001	10624.3625
2202.74867	10629.3625
2205.67545	10632.7625
2208.60037	10601.1625
2211.52341	10606.5625
2214.44458	10596.1625
2217.36388	10555.6625
2220.28132	10559.6625
2223.1969	10531.7625
2226.11061	10520.7625
2229.02246	10507.2625
2231.93245	10511.5625
2234.84058	10483.6625
2237.74686	10482.7625
2240.65128	10483.2625
2243.55385	10470.2625
2246.45456	10462.3625
2249.35343	10446.2625
2252.25044	10424.0625
2255.14561	10391.8625
2258.03893	10378.9625
2260.93041	10360.7625
2263.82004	10327.0625
2266.70783	10334.2625
2269.59378	10285.2625
2272.4779	10294.0625
2275.36017	10272.6625
2278.24061	10273.6625
2281.11922	10236.1625
2283.996	10223.1625
2286.87094	10207.5625
2289.74405	10219.3625
2292.61534	10192.8625
2295.4848	10190.0625
2298.35243	10206.0625
2301.21824	10203.6625
2304.08223	10190.1625
2306.94439	10206.6625
2309.80474	10206.7625
2312.66327	10191.7625
2315.51999	10173.4625
2318.37489	10195.5625
2321.22797	10183.6625
2324.07925	10171.0625
2326.92871	10153.5625
2329.77637	10181.9625
2332.62222	10142.9625
2335.46626	10115.6625
2338.3085	10109.6625
2341.14893	10112.3625
2343.98756	10115.9625
2346.8244	10111.9625
2349.65943	10114.6625
2352.49267	10082.2625
2355.32411	10080.9625
2358.15376	10078.3625
2360.98161	10082.4625
2363.80768	10111.7625
2366.63195	10080.2625
2369.45444	10082.5625
2372.27514	10069.4625
2375.09405	10057.0625
2377.91118	10006.9625
2380.72652	9977.6625
2383.54009	9976.8625
2386.35187	9958.3625
2389.16188	9938.5625
2391.97011	9909.6625
2394.77657	9920.1625
2397.58125	9902.2625
2400.38416	9933.4625
2403.18529	9871.4625
2405.98466	9855.1625
2408.78226	9849.0625
2411.57809	9841.4625
2414.37216	9858.6625
2417.16446	9836.1625
2419.955	9810.6625
2422.74378	9816.3625
2425.5308	9829.6625
2428.31606	9821.8625
2431.09956	9808.6625
2433.88131	9789.2625
2436.6613	9799.5625
2439.43954	9779.4625
2442.21603	9810.8625
2444.99077	9799.6625
2447.76377	9794.5625
2450.53501	9775.7625
2453.30451	9793.3625
2456.07226	9772.1625
2458.83827	9771.2625
2461.60254	9772.0625
2464.36507	9768.1625
2467.12586	9773.8625
2469.88492	9763.4625
2472.64224	9787.4625
2475.39782	9780.9625
2478.15167	9773.0625
2480.90379	9752.8625
2483.65417	9781.6625
2486.40283	9767.3625
2489.14976	9792.5625
2491.89497	9756.0625
2494.63845	9773.3625
2497.3802	9789.6625
2500.12024	9773.3625
2502.85855	9760.7625
2505.59514	9738.3625
2508.33002	9724.3625
2511.06318	9734.4625
2513.79462	9725.3625
2516.52435	9730.5625
2519.25237	9716.9625
2521.97867	9706.3625
2524.70327	9722.1625
2527.42616	9693.4625
2530.14734	9682.2625
2532.86681	9675.7625
2535.58458	9702.3625
2538.30065	9680.7625
2541.01501	9671.9625
2543.72768	9662.1625
2546.43864	9679.5625
2549.14791	9640.7625
2551.85548	9659.3625
2554.56136	9615.7625
2557.26554	9630.6625
2559.96803	9636.6625
2562.66883	9604.5625
2565.36794	9593.8625
2568.06536	9578.0625
2570.7611	9569.6625
2573.45514	9582.2625
2576.14751	9561.7625
2578.83819	9562.2625
2581.52719	9569.1625
2584.21451	9552.6625
2586.90015	9553.4625
2589.58411	9511.6625
2592.2664	9522.1625
2594.94701	9508.6625
2597.62594	9510.1625
2600.30321	9486.9625
2602.9788	9506.8625
2605.65273	9454.7625
2608.32498	9487.9625
2610.99557	9458.1625
2613.66449	9466.5625
2616.33175	9461.6625
2618.99734	9465.2625
2621.66128	9428.7625
2624.32355	9408.1625
2626.98416	9422.9625
2629.64311	9384.5625
2632.30041	9415.7625
2634.95605	9394.2625
2637.61004	9375.6625
2640.26238	9350.3625
2642.91306	9368.1625
2645.56209	9364.7625
2648.20948	9394.9625
2650.85521	9365.9625
2653.4993	9369.8625
2656.14175	9389.2625
2658.78255	9393.5625
2661.42171	9400.6625
2664.05923	9423.4625
2666.6951	9435.1625
2669.32934	9436.2625
2671.96194	9427.8625
2674.59291	9407.4625
2677.22224	9430.8625
2679.84993	9444.1625
2682.476	9417.1625
2685.10043	9408.4625
2687.72324	9379.8625
2690.34441	9402.0625
2692.96396	9396.4625
2695.58188	9404.4625
2698.19818	9392.2625
2700.81285	9409.4625
2703.4259	9395.0625
2706.03733	9363.4625
2708.64714	9356.9625
2711.25533	9390.7625
2713.86191	9406.9625
2716.46687	9437.0625
2719.07021	9441.9625
2721.67194	9461.6625
2724.27206	9440.8625
2726.87057	9450.4625
2729.46747	9452.1625
2732.06276	9455.4625
2734.65644	9457.2625
2737.24852	9447.6625
2739.83899	9453.3625
2742.42786	9455.3625
2745.01513	9432.8625
2747.60079	9440.9625
2750.18486	9434.2625
2752.76733	9453.0625
2755.3482	9406.0625
2757.92747	9427.5625
2760.50515	9398.9625
2763.08123	9407.1625
2765.65573	9404.0625
2768.22863	9396.9625
2770.79994	9374.7625
2773.36967	9393.0625
2775.9378	9402.1625
2778.50435	9409.7625
2781.06932	9362.0625
2783.6327	9365.4625
2786.1945	9376.2625
2788.75471	9361.2625
2791.31335	9356.3625
2793.87041	9337.6625
2796.42589	9309.1625
2798.97979	9339.7625
2801.53212	9304.8625
2804.08288	9305.3625
2806.63206	9266.1625
2809.17967	9256.0625
2811.72571	9224.5625
2814.27018	9215.7625
2816.81308	9190.0625
2819.35442	9197.7625
2821.89419	9171.0625
2824.43239	9162.5625
2826.96904	9198.9625
2829.50412	9188.9625
2832.03763	9185.1625
2834.56959	9147.6625
2837.1	9165.5625
2839.62884	9151.6625
2842.15613	9141.4625
2844.68186	9182.5625
2847.20604	9178.4625
2849.72867	9183.5625
2852.24974	9179.3625
2854.76927	9154.0625
2857.28724	9161.7625
2859.80367	9142.9625
2862.31855	9140.7625
2864.83189	9141.8625
2867.34368	9105.8625
2869.85393	9117.1625
2872.36264	9114.0625
2874.8698	9121.3625
2877.37543	9117.2625
2879.87952	9127.6625
2882.38207	9122.6625
2884.88308	9136.6625
2887.38256	9160.0625
2889.88051	9138.9625
2892.37692	9152.8625
2894.8718	9162.5625
2897.36515	9159.7625
2899.85698	9178.5625
2902.34727	9192.1625
2904.83604	9204.2625
2907.32328	9189.9625
2909.809	9175.2625
2912.29319	9180.6625
2914.77587	9181.9625
2917.25702	9173.7625
2919.73665	9154.3625
2922.21476	9181.7625
2924.69136	9175.8625
2927.16644	9173.8625
2929.64	9169.3625
2932.11205	9169.1625
2934.58258	9129.2625
2937.05161	9132.1625
2939.51912	9167.4625
2941.98513	9142.2625
2944.44962	9113.3625
2946.91261	9077.0625
2949.37409	9099.7625
2951.83407	9036.0625
2954.29254	9062.4625
2956.74951	9051.6625
2959.20498	9031.5625
2961.65895	9018.9625
2964.11142	9014.8625
2966.56239	8996.5625
2969.01186	8964.2625
2971.45984	8957.1625
2973.90632	8960.3625
2976.35131	8927.4625
2978.7948	8922.8625
2981.23681	8891.8625
2983.67732	8889.3625
2986.11635	8866.7625
2988.55388	8824.7625
2990.98993	8799.2625
2993.4245	8788.4625
2995.85758	8741.7625
2998.28917	8726.8625
3000.71928	8735.2625
3003.14791	8700.6625
3005.57506	8703.3625
3008.00073	8666.0625
3010.42493	8684.0625
3012.84764	8673.1625
3015.26888	8661.8625
3017.68865	8635.6625
3020.10694	8626.2625
3022.52376	8627.8625
3024.9391	8614.1625
3027.35298	8593.3625
3029.76539	8602.4625
3032.17632	8601.5625
3034.5858	8589.3625
3036.9938	8562.7625
3039.40034	8553.7625
3041.80542	8564.2625
3044.20903	8539.2625
3046.61118	8534.5625
3049.01187	8510.9625
3051.4111	8507.9625
3053.80888	8498.7625
