Data from AgNPs_FTO_APTES_UA_1uM_CRN_10uM_R6G_50uM_NaF_0.1M_Addition_RamanShift__20__16-04-19-744.txt Node

Date: Thu Jan 27 16:04:19 GMT 2022
User: TCL
Spectrometer: QEP01345
Trigger mode: 4
Integration Time (sec): 7.000000E0
Scans to average: 10
Electric dark correction enabled: true
Nonlinearity correction enabled: false
Boxcar width: 0
XAxis mode: Raman Shifts
Number of Pixels in Spectrum: 1044
>>>>>Begin Spectral Data<<<<<
46.04893	0.725
50.45542	0.625
54.85868	-1.575
59.25871	-1.875
63.6555	43.925
68.04907	48.725
72.43941	49.925
76.82654	52.825
81.21044	56.425
85.59113	54.425
89.96862	57.225
94.34289	60.525
98.71396	63.625
103.08183	63.225
107.4465	66.725
111.80798	68.425
116.16626	70.125
120.52136	72.725
124.87327	74.025
129.222	74.425
133.56755	77.225
137.90993	83.525
142.24913	91.425
146.58517	102.725
150.91804	116.425
155.24774	135.425
159.57429	162.225
163.89768	206.625
168.21792	267.925
172.53501	360.825
176.84895	498.925
181.15975	693.125
185.46741	967.225
189.77193	1344.125
194.07331	1781.025
198.37157	2293.725
202.6667	2838.625
206.9587	3384.425
211.24758	3901.825
215.53334	4427.125
219.81599	4990.625
224.09553	5583.825
228.37195	6247.325
232.64527	6994.925
236.91549	7792.325
241.18261	8575.025
245.44663	9315.625
249.70755	10050.825
253.96539	10618.425
258.22014	11159.325
262.4718	11598.525
266.72039	11884.825
270.96589	12081.825
275.20832	12150.125
279.44768	12120.325
283.68397	12069.825
287.91719	12014.825
292.14735	11987.825
296.37445	12003.925
300.59849	12028.325
304.81948	12052.925
309.03742	11959.125
313.25231	11793.225
317.46415	11521.625
321.67296	11182.825
325.87872	10897.225
330.08145	10814.725
334.28114	10805.825
338.47781	10888.425
342.67145	11007.725
346.86207	11183.825
351.04966	11400.225
355.23424	11631.625
359.4158	11825.025
363.59435	11959.825
367.76989	12075.825
371.94243	12156.225
376.11196	12223.725
380.27849	12312.725
384.44203	12372.525
388.60257	12453.525
392.76012	12577.025
396.91468	12740.825
401.06626	12918.625
405.21485	13038.525
409.36047	13041.025
413.50311	12856.025
417.64277	12744.125
421.77947	12722.225
425.9132	12781.825
430.04396	12866.825
434.17176	12992.025
438.2966	13077.525
442.41849	13328.525
446.53742	13605.825
450.6534	13968.625
454.76644	14256.425
458.87653	14373.425
462.98368	14382.425
467.08789	14305.925
471.18916	14129.425
475.2875	13988.525
479.38291	13940.325
483.4754	13852.625
487.56496	13698.025
491.6516	13464.425
495.73531	13250.725
499.81612	13182.325
503.89401	13241.525
507.96899	13238.225
512.04106	13213.025
516.11023	13124.025
520.1765	13053.325
524.23987	12972.225
528.30034	12850.825
532.35792	12725.825
536.41261	12630.225
540.46441	12539.525
544.51333	12535.725
548.55936	12696.925
552.60252	12928.225
556.64279	13207.825
560.6802	13334.725
564.71473	13463.825
568.7464	13583.025
572.7752	13835.325
576.80114	14006.125
580.82422	14170.225
584.84444	14299.525
588.86181	14463.825
592.87633	14645.525
596.888	14820.825
600.89682	14955.225
604.9028	15292.325
608.90594	16257.325
612.90624	17283.925
616.90371	16423.625
620.89834	14237.325
624.89015	13301.925
628.87913	13290.625
632.86528	13334.825
636.84862	13286.225
640.82913	13051.625
644.80683	12765.525
648.78172	12517.225
652.75379	12416.025
656.72306	12530.925
660.68952	12657.025
664.65319	12645.225
668.61405	12521.025
672.57211	12416.825
676.52738	12435.025
680.47986	12441.525
684.42955	12431.425
688.37646	12386.725
692.32058	12416.125
696.26192	12488.125
700.20048	12617.825
704.13626	12672.825
708.06928	12652.725
711.99952	12595.625
715.927	12577.625
719.85171	12573.825
723.77365	12545.425
727.69284	12416.625
731.60928	12343.725
735.52295	12344.825
739.43388	12330.625
743.34206	12361.925
747.24749	12451.325
751.15017	12536.425
755.05012	12736.625
758.94733	13056.325
762.8418	13641.025
766.73354	14461.825
770.62254	15281.825
774.50882	15464.625
778.39237	14835.225
782.27321	13866.625
786.15132	13085.925
790.02671	12622.825
793.89938	12440.425
797.76935	12387.225
801.6366	12344.425
805.50115	12334.825
809.36299	12271.425
813.22213	12210.725
817.07857	12165.325
820.93231	12190.725
824.78336	12142.925
828.63172	12120.625
832.47738	12126.825
836.32036	12161.125
840.16066	12186.525
843.99827	12231.525
847.8332	12201.825
851.66546	12147.025
855.49504	12110.925
859.32195	12118.125
863.1462	12107.625
866.96777	12043.025
870.78668	12001.825
874.60293	12005.925
878.41652	12021.725
882.22745	12009.025
886.03573	12078.125
889.84136	12091.925
893.64433	12009.925
897.44466	11957.125
901.24235	11928.125
905.0374	11937.625
908.8298	11889.525
912.61957	11911.025
916.40671	11994.625
920.19121	12172.625
923.97308	12294.325
927.75233	12289.825
931.52895	12255.325
935.30295	12159.725
939.07433	12008.325
942.84309	11818.125
946.60924	11755.725
950.37278	11719.025
954.13371	11644.625
957.89203	11629.425
961.64774	11574.125
965.40086	11555.725
969.15137	11505.125
972.89929	11435.525
976.64461	11405.225
980.38733	11409.525
984.12747	11446.525
987.86502	11531.825
991.59999	11710.225
995.33237	11914.825
999.06217	12236.525
1002.78939	12650.725
1006.51404	12832.125
1010.23611	12890.925
1013.95561	12979.225
1017.67255	13022.325
1021.38692	12929.525
1025.09872	12848.325
1028.80796	12951.825
1032.51465	13381.025
1036.21877	13716.025
1039.92035	13760.225
1043.61937	13572.225
1047.31584	13187.925
1051.00976	12830.025
1054.70114	12679.925
1058.38998	12638.325
1062.07627	12743.025
1065.76003	12763.225
1069.44126	12842.025
1073.11995	12921.225
1076.79611	13008.525
1080.46974	13036.025
1084.14085	13105.925
1087.80943	13209.025
1091.47549	13248.425
1095.13903	13227.525
1098.80005	13132.525
1102.45857	12925.225
1106.11456	12761.125
1109.76805	12703.325
1113.41903	12801.325
1117.06751	12865.125
1120.71348	13005.325
1124.35696	13106.325
1127.99793	13226.225
1131.63641	13300.425
1135.2724	13232.425
1138.90589	13097.425
1142.5369	13041.425
1146.16542	13040.225
1149.79145	13081.625
1153.415	13161.725
1157.03607	13323.625
1160.65467	13591.025
1164.27079	14015.625
1167.88443	14647.725
1171.49561	15452.425
1175.10432	16475.825
1178.71056	17765.425
1182.31434	18924.425
1185.91565	19629.525
1189.51451	19759.925
1193.11091	19339.825
1196.70485	18622.725
1200.29634	17832.825
1203.88538	17217.225
1207.47197	16775.525
1211.05612	16393.425
1214.63782	16111.825
1218.21708	15961.925
1221.79391	15827.825
1225.36829	15791.525
1228.94024	15656.925
1232.50976	15429.425
1236.07685	15186.925
1239.6415	15104.025
1243.20374	15067.725
1246.76355	15138.425
1250.32093	15337.825
1253.8759	15633.725
1257.42845	16021.625
1260.97859	16383.625
1264.52631	16705.725
1268.07163	17049.025
1271.61453	17453.325
1275.15503	17933.325
1278.69312	18529.025
1282.22882	19055.825
1285.76211	19429.825
1289.29301	19823.125
1292.82151	20429.125
1296.34761	21201.725
1299.87133	22266.825
1303.39266	23486.525
1306.9116	24857.125
1310.42815	26236.325
1313.94233	27108.225
1317.45412	27137.625
1320.96354	26667.825
1324.47058	26084.725
1327.97525	25597.225
1331.47754	25223.925
1334.97747	25121.725
1338.47502	25153.825
1341.97022	25313.825
1345.46305	25236.425
1348.95352	24861.225
1352.44163	24412.525
1355.92738	24350.125
1359.41078	24924.625
1362.89183	25572.725
1366.37053	25153.125
1369.84688	23369.825
1373.32088	21308.925
1376.79254	19814.225
1380.26186	19190.625
1383.72883	19107.725
1387.19347	19150.325
1390.65578	19126.925
1394.11575	19216.125
1397.57339	19464.225
1401.0287	19907.525
1404.48168	20280.125
1407.93234	20436.825
1411.38068	20328.325
1414.82669	19874.525
1418.27039	19135.625
1421.71177	18318.425
1425.15083	17648.925
1428.58758	17243.025
1432.02203	17167.225
1435.45416	17404.525
1438.88399	17756.525
1442.31151	18144.725
1445.73673	18428.125
1449.15965	18749.125
1452.58027	18993.125
1455.9986	19116.725
1459.41463	19267.525
1462.82837	19483.425
1466.23982	19793.225
1469.64898	20045.325
1473.05586	20220.225
1476.46045	20219.125
1479.86276	20084.525
1483.26279	19899.725
1486.66054	19741.025
1490.05602	19687.025
1493.44922	19759.925
1496.84016	19827.025
1500.22882	20004.125
1503.61521	20321.625
1506.99934	20813.925
1510.38121	21411.925
1513.76081	21672.425
1517.13816	21384.125
1520.51324	20749.825
1523.88607	20177.225
1527.25665	19758.525
1530.62498	19601.125
1533.99105	19515.025
1537.35488	19438.325
1540.71647	19314.925
1544.07581	19114.825
1547.4329	18802.425
1550.78776	18541.025
1554.14038	18348.225
1557.49077	18238.425
1560.83892	18242.925
1564.18484	18195.025
1567.52853	18119.925
1570.86999	18182.525
1574.20922	18337.925
1577.54624	18517.725
1580.88103	18600.625
1584.2136	18714.725
1587.54395	19114.725
1590.87208	19909.925
1594.19801	20982.225
1597.52172	22098.925
1600.84321	22577.025
1604.16251	21829.925
1607.47959	20416.125
1610.79447	18839.125
1614.10715	17422.225
1617.41763	16202.225
1620.7259	15334.825
1624.03199	14840.125
1627.33587	14770.125
1630.63757	15122.525
1633.93707	15867.025
1637.23439	17034.325
1640.52951	18555.425
1643.82246	20233.625
1647.11321	21461.325
1650.40179	21693.825
1653.68819	20541.325
1656.97241	18437.225
1660.25446	16243.925
1663.53433	14548.525
1666.81203	13417.525
1670.08756	12681.625
1673.36092	12244.325
1676.63211	11965.125
1679.90115	11720.225
1683.16801	11560.525
1686.43272	11435.925
1689.69527	11360.525
1692.95567	11234.725
1696.2139	11176.725
1699.46999	11100.525
1702.72392	11060.825
1705.97571	11081.225
1709.22535	11083.225
1712.47284	11082.125
1715.71819	11083.725
1718.96139	11068.225
1722.20246	11064.425
1725.44139	11005.025
1728.67818	10953.025
1731.91284	10901.825
1735.14537	10868.225
1738.37576	10826.425
1741.60403	10785.225
1744.83017	10725.725
1748.05418	10727.125
1751.27607	10703.025
1754.49584	10682.525
1757.71349	10668.325
1760.92903	10640.425
1764.14244	10639.825
1767.35375	10613.325
1770.56294	10607.725
1773.77002	10590.025
1776.97499	10597.625
1780.17785	10606.625
1783.37861	10600.425
1786.57727	10627.025
1789.77382	10589.425
1792.96828	10581.325
1796.16064	10557.325
1799.3509	10550.025
1802.53907	10531.925
1805.72514	10521.325
1808.90913	10507.525
1812.09102	10457.325
1815.27083	10457.325
1818.44856	10441.025
1821.6242	10440.525
1824.79776	10387.425
1827.96924	10392.125
1831.13864	10409.425
1834.30597	10412.125
1837.47122	10381.625
1840.6344	10376.425
1843.7955	10374.425
1846.95454	10389.625
1850.11151	10376.725
1853.26642	10408.925
1856.41926	10391.925
1859.57004	10415.525
1862.71876	10423.525
1865.86542	10397.525
1869.01003	10396.825
1872.15258	10397.325
1875.29308	10369.825
1878.43152	10392.525
1881.56792	10370.125
1884.70227	10360.125
1887.83457	10345.225
1890.96482	10342.525
1894.09304	10357.525
1897.21921	10338.825
1900.34335	10351.625
1903.46544	10340.025
1906.58551	10321.825
1909.70353	10328.025
1912.81953	10309.325
1915.93349	10305.725
1919.04543	10285.325
1922.15534	10279.625
1925.26322	10249.325
1928.36908	10233.025
1931.47292	10219.925
1934.57473	10171.125
1937.67453	10173.825
1940.77232	10165.125
1943.86808	10110.025
1946.96184	10066.725
1950.05358	10031.125
1953.14331	9993.225
1956.23103	9979.025
1959.31675	9939.825
1962.40046	9923.625
1965.48217	9897.625
1968.56188	9873.025
1971.63959	9847.525
1974.7153	9814.725
1977.78901	9805.525
1980.86073	9777.625
1983.93046	9751.225
1986.99819	9709.125
1990.06394	9679.125
1993.1277	9649.525
1996.18947	9622.825
1999.24925	9612.425
2002.30706	9557.425
2005.36288	9554.425
2008.41672	9550.425
2011.46859	9510.025
2014.51848	9489.425
2017.56639	9451.725
2020.61233	9440.825
2023.6563	9441.725
2026.6983	9395.325
2029.73833	9369.525
2032.7764	9379.225
2035.8125	9363.125
2038.84664	9342.425
2041.87881	9337.725
2044.90903	9324.725
2047.93729	9305.625
2050.96359	9308.825
2053.98794	9304.925
2057.01034	9292.725
2060.03078	9295.825
2063.04927	9265.825
2066.06582	9263.925
2069.08042	9286.125
2072.09307	9275.525
2075.10378	9251.925
2078.11255	9253.025
2081.11938	9248.125
2084.12426	9234.225
2087.12722	9235.125
2090.12824	9223.525
2093.12732	9235.425
2096.12447	9207.125
2099.11969	9209.925
2102.11299	9209.825
2105.10435	9221.825
2108.09379	9245.725
2111.08131	9267.225
2114.0669	9225.525
2117.05057	9250.625
2120.03233	9264.925
2123.01216	9282.525
2125.99008	9279.225
2128.96609	9274.025
2131.94018	9284.225
2134.91236	9294.725
2137.88263	9318.125
2140.851	9287.025
2143.81746	9323.925
2146.78201	9318.125
2149.74466	9337.725
2152.7054	9323.325
2155.66425	9336.025
2158.6212	9335.825
2161.57625	9318.425
2164.52941	9326.725
2167.48067	9328.125
2170.43004	9325.025
2173.37752	9326.225
2176.32311	9328.225
2179.26681	9320.725
2182.20863	9324.525
2185.14856	9321.125
2188.08661	9355.425
2191.02278	9364.825
2193.95707	9353.025
2196.88948	9357.625
2199.82001	9340.225
2202.74867	9325.425
2205.67545	9342.725
2208.60037	9312.725
2211.52341	9325.625
2214.44458	9302.425
2217.36388	9290.525
2220.28132	9304.725
2223.1969	9259.425
2226.11061	9253.725
2229.02246	9250.925
2231.93245	9246.625
2234.84058	9215.425
2237.74686	9181.825
2240.65128	9188.425
2243.55385	9166.525
2246.45456	9153.625
2249.35343	9141.425
2252.25044	9117.325
2255.14561	9114.025
2258.03893	9091.525
2260.93041	9113.825
2263.82004	9070.325
2266.70783	9046.125
2269.59378	9025.625
2272.4779	9001.025
2275.36017	8991.825
2278.24061	8968.825
2281.11922	8972.125
2283.996	8950.725
2286.87094	8963.825
2289.74405	8947.725
2292.61534	8933.625
2295.4848	8936.525
2298.35243	8928.925
2301.21824	8950.725
2304.08223	8945.825
2306.94439	8953.525
2309.80474	8949.025
2312.66327	8958.625
2315.51999	8936.225
2318.37489	8946.525
2321.22797	8928.625
2324.07925	8918.825
2326.92871	8905.625
2329.77637	8888.325
2332.62222	8902.025
2335.46626	8906.425
2338.3085	8892.625
2341.14893	8905.225
2343.98756	8909.825
2346.8244	8902.325
2349.65943	8924.925
2352.49267	8918.625
2355.32411	8906.725
2358.15376	8906.225
2360.98161	8878.325
2363.80768	8877.325
2366.63195	8880.725
2369.45444	8859.725
2372.27514	8836.025
2375.09405	8835.525
2377.91118	8824.725
2380.72652	8792.825
2383.54009	8772.025
2386.35187	8780.125
2389.16188	8736.525
2391.97011	8729.325
2394.77657	8696.125
2397.58125	8709.225
2400.38416	8679.825
2403.18529	8691.825
2405.98466	8672.925
2408.78226	8672.125
2411.57809	8628.225
2414.37216	8637.825
2417.16446	8614.425
2419.955	8622.025
2422.74378	8618.925
2425.5308	8600.925
2428.31606	8609.525
2431.09956	8601.825
2433.88131	8570.825
2436.6613	8576.725
2439.43954	8590.525
2442.21603	8573.725
2444.99077	8565.325
2447.76377	8555.025
2450.53501	8555.925
2453.30451	8566.525
2456.07226	8562.925
2458.83827	8573.125
2461.60254	8561.825
2464.36507	8546.325
2467.12586	8540.425
2469.88492	8512.525
2472.64224	8558.925
2475.39782	8550.125
2478.15167	8545.725
2480.90379	8536.625
2483.65417	8560.025
2486.40283	8554.025
2489.14976	8577.825
2491.89497	8567.125
2494.63845	8586.525
2497.3802	8555.525
2500.12024	8576.425
2502.85855	8574.525
2505.59514	8557.725
2508.33002	8549.925
2511.06318	8540.725
2513.79462	8540.325
2516.52435	8528.225
2519.25237	8519.325
2521.97867	8527.525
2524.70327	8538.625
2527.42616	8507.825
2530.14734	8511.525
2532.86681	8519.025
2535.58458	8514.525
2538.30065	8501.525
2541.01501	8491.425
2543.72768	8483.125
2546.43864	8494.525
2549.14791	8472.225
2551.85548	8457.625
2554.56136	8448.625
2557.26554	8452.925
2559.96803	8436.825
2562.66883	8427.525
2565.36794	8405.225
2568.06536	8423.425
2570.7611	8409.525
2573.45514	8391.925
2576.14751	8387.925
2578.83819	8401.525
2581.52719	8390.125
2584.21451	8383.525
2586.90015	8377.825
2589.58411	8377.825
2592.2664	8412.525
2594.94701	8370.125
2597.62594	8388.925
2600.30321	8386.125
2602.9788	8346.225
2605.65273	8366.925
2608.32498	8379.425
2610.99557	8346.725
2613.66449	8367.025
2616.33175	8364.125
2618.99734	8367.925
2621.66128	8366.825
2624.32355	8357.325
2626.98416	8373.725
2629.64311	8391.325
2632.30041	8367.625
2634.95605	8363.125
2637.61004	8357.025
2640.26238	8356.125
2642.91306	8332.925
2645.56209	8339.625
2648.20948	8303.925
2650.85521	8306.025
2653.4993	8325.625
2656.14175	8328.125
2658.78255	8346.225
2661.42171	8336.625
2664.05923	8372.025
2666.6951	8355.425
2669.32934	8347.825
2671.96194	8341.825
2674.59291	8349.525
2677.22224	8338.725
2679.84993	8343.325
2682.476	8334.725
2685.10043	8316.925
2687.72324	8324.925
2690.34441	8315.725
2692.96396	8325.325
2695.58188	8338.725
2698.19818	8313.725
2700.81285	8327.825
2703.4259	8309.425
2706.03733	8338.525
2708.64714	8289.925
2711.25533	8329.725
2713.86191	8346.125
2716.46687	8344.825
2719.07021	8366.625
2721.67194	8359.525
2724.27206	8364.925
2726.87057	8365.825
2729.46747	8360.325
2732.06276	8368.125
2734.65644	8369.325
2737.24852	8365.125
2739.83899	8347.825
2742.42786	8358.625
2745.01513	8345.225
2747.60079	8347.125
2750.18486	8355.025
2752.76733	8343.425
2755.3482	8340.725
2757.92747	8366.725
2760.50515	8339.825
2763.08123	8340.725
2765.65573	8333.325
2768.22863	8337.425
2770.79994	8334.725
2773.36967	8340.725
2775.9378	8329.525
2778.50435	8355.625
2781.06932	8325.925
2783.6327	8337.025
2786.1945	8320.025
2788.75471	8330.125
2791.31335	8319.425
2793.87041	8301.225
2796.42589	8271.525
2798.97979	8275.425
2801.53212	8258.525
2804.08288	8266.825
2806.63206	8230.525
2809.17967	8205.825
2811.72571	8194.625
2814.27018	8190.725
2816.81308	8185.425
2819.35442	8186.725
2821.89419	8176.925
2824.43239	8195.825
2826.96904	8187.925
2829.50412	8165.625
2832.03763	8159.025
2834.56959	8167.525
2837.1	8154.125
2839.62884	8164.625
2842.15613	8129.425
2844.68186	8156.225
2847.20604	8158.125
2849.72867	8157.225
2852.24974	8163.725
2854.76927	8159.625
2857.28724	8137.725
2859.80367	8134.325
2862.31855	8139.125
2864.83189	8117.225
2867.34368	8101.425
2869.85393	8126.825
2872.36264	8096.425
2874.8698	8103.225
2877.37543	8122.225
2879.87952	8115.425
2882.38207	8106.525
2884.88308	8106.525
2887.38256	8129.925
2889.88051	8116.325
2892.37692	8115.025
2894.8718	8106.325
2897.36515	8139.125
2899.85698	8122.125
2902.34727	8158.425
2904.83604	8147.925
2907.32328	8186.025
2909.809	8156.025
2912.29319	8181.125
2914.77587	8196.425
2917.25702	8176.325
2919.73665	8175.225
2922.21476	8171.125
2924.69136	8179.425
2927.16644	8161.325
2929.64	8164.225
2932.11205	8145.925
2934.58258	8138.525
2937.05161	8153.025
2939.51912	8142.625
2941.98513	8114.625
2944.44962	8089.025
2946.91261	8073.325
2949.37409	8114.525
2951.83407	8092.025
2954.29254	8091.125
2956.74951	8079.425
2959.20498	8105.925
2961.65895	8055.725
2964.11142	8060.925
2966.56239	8058.925
2969.01186	8048.725
2971.45984	8042.325
2973.90632	8015.325
2976.35131	8007.425
2978.7948	8015.825
2981.23681	7983.525
2983.67732	7988.025
2986.11635	7940.925
2988.55388	7941.225
2990.98993	7939.625
2993.4245	7937.225
2995.85758	7923.225
2998.28917	7914.125
3000.71928	7883.125
3003.14791	7878.825
3005.57506	7879.925
3008.00073	7835.125
3010.42493	7828.025
3012.84764	7847.825
3015.26888	7846.725
3017.68865	7814.625
3020.10694	7796.325
3022.52376	7772.125
3024.9391	7775.925
3027.35298	7781.625
3029.76539	7789.625
3032.17632	7744.025
3034.5858	7761.925
3036.9938	7743.625
3039.40034	7741.625
3041.80542	7774.325
3044.20903	7737.625
3046.61118	7736.025
3049.01187	7709.025
3051.4111	7728.525
3053.80888	7732.625
3056.20519	7703.025
3058.60005	7694.625
3060.99345	7641.425
3063.3854	7648.425
3065.7759	7614.525
3068.16494	7614.125
3070.55254	7595.225
3072.93868	7605.025
3075.32338	7575.825
3077.70662	7584.125
3080.08842	7558.125
3082.46878	7542.225
3084.84769	7533.225
3087.22515	7537.725
3089.60118	7555.125
3091.97576	7540.425
3094.3489	7536.325
3096.72061	7558.925
3099.09087	7561.225
3101.4597	7547.225
3103.82709	7548.925
3106.19305	7536.125
3108.55757	7536.725
3110.92066	7525.225
3113.28232	7509.825
3115.64255	7486.025
3118.00134	7506.125
3120.35871	7486.725
3122.71466	7486.525
3125.06917	7478.125
3127.42226	7448.425
3129.77393	7465.725
3132.12417	7437.925
3134.47299	7450.625
3136.82039	7444.325
3139.16636	7457.525
3141.51092	7443.925
3143.85406	7468.725
3146.19579	7457.725
3148.53609	7475.425
3150.87499	7487.825
3153.21246	7492.125
3155.54853	7501.825
3157.88318	7502.025
3160.21642	7487.725
3162.54826	7506.425
3164.87868	7496.225
3167.2077	7510.425
3169.5353	7519.025
3171.86151	7510.625
3174.18631	7495.725
3176.5097	7510.925
3178.83169	7473.525
3181.15228	7512.625
