Data from AgNPs_FTO_APTES_UA_1uM_CRN_1uM_R6G_10uM_NaF_0.1M_Addition_RamanShift__32__12-49-29-521.txt Node

Date: Thu Jan 27 12:49:29 GMT 2022
User: TCL
Spectrometer: QEP01345
Trigger mode: 4
Integration Time (sec): 7.000000E0
Scans to average: 10
Electric dark correction enabled: true
Nonlinearity correction enabled: false
Boxcar width: 0
XAxis mode: Raman Shifts
Number of Pixels in Spectrum: 1044
>>>>>Begin Spectral Data<<<<<
46.04893	1.375
50.45542	-0.125
54.85868	0.075
59.25871	-1.425
63.6555	33.075
68.04907	35.875
72.43941	39.775
76.82654	42.075
81.21044	43.775
85.59113	42.675
89.96862	45.475
94.34289	46.175
98.71396	50.975
103.08183	48.375
107.4465	54.275
111.80798	53.775
116.16626	53.775
120.52136	57.875
124.87327	53.775
129.222	52.975
133.56755	55.675
137.90993	56.175
142.24913	59.575
146.58517	61.275
150.91804	70.175
155.24774	76.175
159.57429	83.675
163.89768	112.375
168.21792	137.275
172.53501	177.075
176.84895	237.475
181.15975	321.775
185.46741	448.175
189.77193	602.775
194.07331	808.175
198.37157	1037.675
202.6667	1277.375
206.9587	1516.175
211.24758	1763.875
215.53334	2025.275
219.81599	2313.075
224.09553	2646.475
228.37195	3000.675
232.64527	3392.675
236.91549	3778.775
241.18261	4121.675
245.44663	4364.875
249.70755	4576.575
253.96539	4726.475
258.22014	4885.175
262.4718	5030.275
266.72039	5174.275
270.96589	5251.075
275.20832	5250.775
279.44768	5221.075
283.68397	5114.175
287.91719	5058.675
292.14735	5083.675
296.37445	5194.875
300.59849	5443.575
304.81948	5719.675
309.03742	5957.475
313.25231	5983.875
317.46415	5661.675
321.67296	5123.975
325.87872	4700.975
330.08145	4519.375
334.28114	4491.075
338.47781	4584.875
342.67145	4729.875
346.86207	4988.975
351.04966	5361.975
355.23424	5807.075
359.4158	6136.475
363.59435	6294.475
367.76989	6295.975
371.94243	6251.375
376.11196	6210.575
380.27849	6151.075
384.44203	6068.675
388.60257	5922.975
392.76012	5858.275
396.91468	5910.675
401.06626	6102.975
405.21485	6252.475
409.36047	6119.175
413.50311	5744.175
417.64277	5379.175
421.77947	5160.975
425.9132	5043.675
430.04396	5020.575
434.17176	5038.975
438.2966	5143.075
442.41849	5298.475
446.53742	5504.275
450.6534	5685.475
454.76644	5804.475
458.87653	5806.075
462.98368	5721.375
467.08789	5606.375
471.18916	5426.475
475.2875	5279.175
479.38291	5156.975
483.4754	5073.875
487.56496	4985.375
491.6516	4914.075
495.73531	4911.675
499.81612	4923.075
503.89401	4978.275
507.96899	5073.175
512.04106	5167.375
516.11023	5302.975
520.1765	5376.875
524.23987	5386.675
528.30034	5260.775
532.35792	5107.375
536.41261	4938.975
540.46441	4812.675
544.51333	4716.375
548.55936	4757.975
552.60252	4859.375
556.64279	4999.475
560.6802	5078.275
564.71473	5183.775
568.7464	5432.575
572.7752	5621.375
576.80114	5443.475
580.82422	5204.075
584.84444	5135.175
588.86181	5117.575
592.87633	5134.575
596.888	5228.775
600.89682	5466.075
604.9028	6135.075
608.90594	8076.575
612.90624	10780.575
616.90371	10616.075
620.89834	7144.875
624.89015	5370.875
628.87913	5014.675
632.86528	4996.275
636.84862	5079.575
640.82913	5049.575
644.80683	4801.775
648.78172	4637.675
652.75379	4679.175
656.72306	4930.675
660.68952	5263.075
664.65319	5216.475
668.61405	4890.875
672.57211	4680.475
676.52738	4678.175
680.47986	4645.675
684.42955	4618.575
688.37646	4596.475
692.32058	4617.575
696.26192	4651.075
700.20048	4719.775
704.13626	4772.275
708.06928	4779.475
711.99952	4729.475
715.927	4686.875
719.85171	4699.275
723.77365	4705.575
727.69284	4622.675
731.60928	4606.275
735.52295	4591.075
739.43388	4646.175
743.34206	4661.675
747.24749	4693.375
751.15017	4731.675
755.05012	4840.275
758.94733	5087.775
762.8418	5671.075
766.73354	6742.775
770.62254	7931.075
774.50882	8642.975
778.39237	8382.275
782.27321	7222.275
786.15132	5961.975
790.02671	5215.675
793.89938	4913.275
797.76935	4769.875
801.6366	4712.075
805.50115	4659.475
809.36299	4639.875
813.22213	4612.675
817.07857	4596.475
820.93231	4597.275
824.78336	4602.475
828.63172	4668.075
832.47738	4660.175
836.32036	4650.375
840.16066	4610.375
843.99827	4570.075
847.8332	4556.375
851.66546	4554.575
855.49504	4558.175
859.32195	4554.875
863.1462	4520.775
866.96777	4486.375
870.78668	4485.575
874.60293	4495.275
878.41652	4519.475
882.22745	4536.875
886.03573	4569.675
889.84136	4571.175
893.64433	4524.875
897.44466	4523.275
901.24235	4527.675
905.0374	4524.375
908.8298	4485.275
912.61957	4476.575
916.40671	4504.675
920.19121	4535.275
923.97308	4603.775
927.75233	4648.375
931.52895	4718.975
935.30295	4683.175
939.07433	4536.475
942.84309	4402.275
946.60924	4307.275
950.37278	4270.575
954.13371	4233.875
957.89203	4203.075
961.64774	4213.275
965.40086	4167.575
969.15137	4160.175
972.89929	4159.775
976.64461	4159.075
980.38733	4147.575
984.12747	4167.475
987.86502	4163.975
991.59999	4210.275
995.33237	4246.575
999.06217	4336.575
1002.78939	4482.875
1006.51404	4583.575
1010.23611	4714.475
1013.95561	4783.975
1017.67255	4757.175
1021.38692	4684.575
1025.09872	4592.875
1028.80796	4493.275
1032.51465	4498.475
1036.21877	4567.575
1039.92035	4635.675
1043.61937	4662.475
1047.31584	4636.375
1051.00976	4615.675
1054.70114	4599.875
1058.38998	4554.375
1062.07627	4550.075
1065.76003	4597.375
1069.44126	4638.175
1073.11995	4695.075
1076.79611	4751.475
1080.46974	4835.675
1084.14085	4994.975
1087.80943	5141.575
1091.47549	5214.075
1095.13903	5099.775
1098.80005	4881.275
1102.45857	4691.675
1106.11456	4626.475
1109.76805	4642.275
1113.41903	4772.975
1117.06751	4958.775
1120.71348	5196.475
1124.35696	5475.575
1127.99793	5690.875
1131.63641	5708.175
1135.2724	5390.875
1138.90589	5081.975
1142.5369	4889.275
1146.16542	4782.075
1149.79145	4697.075
1153.415	4683.775
1157.03607	4739.675
1160.65467	4837.475
1164.27079	5034.475
1167.88443	5310.175
1171.49561	5804.675
1175.10432	6630.575
1178.71056	7777.975
1182.31434	8642.775
1185.91565	8855.075
1189.51451	8641.675
1193.11091	8040.975
1196.70485	7229.075
1200.29634	6646.775
1203.88538	6215.175
1207.47197	5762.475
1211.05612	5380.175
1214.63782	5180.375
1218.21708	5105.075
1221.79391	5142.975
1225.36829	5217.975
1228.94024	5307.275
1232.50976	5359.175
1236.07685	5393.775
1239.6415	5406.575
1243.20374	5387.875
1246.76355	5373.275
1250.32093	5414.775
1253.8759	5501.675
1257.42845	5691.575
1260.97859	5904.075
1264.52631	6119.875
1268.07163	6342.775
1271.61453	6532.475
1275.15503	6679.975
1278.69312	6740.175
1282.22882	6742.075
1285.76211	6898.775
1289.29301	7134.875
1292.82151	7400.675
1296.34761	7622.775
1299.87133	7950.175
1303.39266	8537.875
1306.9116	9568.275
1310.42815	10826.675
1313.94233	11716.275
1317.45412	11665.175
1320.96354	10859.175
1324.47058	9918.375
1327.97525	9080.175
1331.47754	8618.975
1334.97747	8378.075
1338.47502	8342.975
1341.97022	8422.675
1345.46305	8664.275
1348.95352	9250.975
1352.44163	10073.475
1355.92738	11178.175
1359.41078	12908.075
1362.89183	14721.275
1366.37053	14555.375
1369.84688	12325.975
1373.32088	9901.575
1376.79254	8322.775
1380.26186	7562.575
1383.72883	7198.275
1387.19347	6938.775
1390.65578	6566.775
1394.11575	6281.675
1397.57339	6136.075
1401.0287	6137.575
1404.48168	6244.575
1407.93234	6374.175
1411.38068	6502.175
1414.82669	6511.675
1418.27039	6408.975
1421.71177	6261.875
1425.15083	6139.775
1428.58758	6103.675
1432.02203	6114.575
1435.45416	6202.475
1438.88399	6232.475
1442.31151	6219.475
1445.73673	6214.175
1449.15965	6228.375
1452.58027	6214.375
1455.9986	6097.375
1459.41463	6076.975
1462.82837	6117.975
1466.23982	6198.075
1469.64898	6351.375
1473.05586	6443.675
1476.46045	6514.375
1479.86276	6599.375
1483.26279	6759.575
1486.66054	6953.275
1490.05602	7189.475
1493.44922	7541.375
1496.84016	8083.375
1500.22882	8944.775
1503.61521	10110.175
1506.99934	11480.475
1510.38121	12797.675
1513.76081	13597.675
1517.13816	13086.275
1520.51324	11393.775
1523.88607	9622.675
1527.25665	8350.775
1530.62498	7626.975
1533.99105	7229.975
1537.35488	6974.475
1540.71647	6767.775
1544.07581	6689.975
1547.4329	6661.975
1550.78776	6608.475
1554.14038	6572.975
1557.49077	6594.575
1560.83892	6715.775
1564.18484	6900.875
1567.52853	7147.575
1570.86999	7370.175
1574.20922	7554.975
1577.54624	7540.675
1580.88103	7194.275
1584.2136	6642.075
1587.54395	6325.575
1590.87208	6369.975
1594.19801	6776.175
1597.52172	7336.175
1600.84321	7668.975
1604.16251	7464.075
1607.47959	6980.175
1610.79447	6376.775
1614.10715	5776.675
1617.41763	5319.075
1620.7259	5054.175
1624.03199	4936.975
1627.33587	4934.675
1630.63757	5064.075
1633.93707	5324.875
1637.23439	5750.375
1640.52951	6354.775
1643.82246	7211.275
1647.11321	8144.875
1650.40179	8912.275
1653.68819	8763.575
1656.97241	7591.275
1660.25446	6192.975
1663.53433	5198.775
1666.81203	4627.475
1670.08756	4293.075
1673.36092	4110.975
1676.63211	4014.775
1679.90115	3933.975
1683.16801	3868.675
1686.43272	3827.975
1689.69527	3792.875
1692.95567	3752.675
1696.2139	3713.975
1699.46999	3659.275
1702.72392	3650.975
1705.97571	3645.975
1709.22535	3699.975
1712.47284	3719.275
1715.71819	3747.675
1718.96139	3756.575
1722.20246	3747.375
1725.44139	3746.375
1728.67818	3713.375
1731.91284	3668.675
1735.14537	3634.475
1738.37576	3619.275
1741.60403	3583.775
1744.83017	3551.975
1748.05418	3548.175
1751.27607	3512.375
1754.49584	3496.775
1757.71349	3482.775
1760.92903	3468.175
1764.14244	3448.975
1767.35375	3451.075
1770.56294	3439.875
1773.77002	3439.575
1776.97499	3426.575
1780.17785	3447.775
1783.37861	3453.875
1786.57727	3452.775
1789.77382	3456.675
1792.96828	3432.975
1796.16064	3427.275
1799.3509	3430.075
1802.53907	3425.675
1805.72514	3414.675
1808.90913	3398.475
1812.09102	3397.175
1815.27083	3391.075
1818.44856	3379.575
1821.6242	3374.175
1824.79776	3368.475
1827.96924	3356.275
1831.13864	3364.375
1834.30597	3354.775
1837.47122	3348.775
1840.6344	3344.975
1843.7955	3331.775
1846.95454	3336.275
1850.11151	3330.675
1853.26642	3333.975
1856.41926	3340.675
1859.57004	3345.375
1862.71876	3366.075
1865.86542	3364.575
1869.01003	3341.975
1872.15258	3370.675
1875.29308	3337.875
1878.43152	3352.975
1881.56792	3362.275
1884.70227	3353.575
1887.83457	3374.475
1890.96482	3352.275
1894.09304	3356.275
1897.21921	3364.275
1900.34335	3350.775
1903.46544	3355.475
1906.58551	3367.875
1909.70353	3353.275
1912.81953	3364.075
1915.93349	3347.275
1919.04543	3350.275
1922.15534	3321.575
1925.26322	3330.675
1928.36908	3311.675
1931.47292	3311.275
1934.57473	3292.975
1937.67453	3269.975
1940.77232	3252.275
1943.86808	3233.875
1946.96184	3211.475
1950.05358	3195.675
1953.14331	3181.975
1956.23103	3157.975
1959.31675	3148.975
1962.40046	3141.575
1965.48217	3139.375
1968.56188	3121.275
1971.63959	3115.375
1974.7153	3103.175
1977.78901	3092.975
1980.86073	3077.975
1983.93046	3069.775
1986.99819	3057.975
1990.06394	3048.675
1993.1277	3033.575
1996.18947	3014.875
1999.24925	3012.375
2002.30706	3001.775
2005.36288	2976.875
2008.41672	2978.375
2011.46859	2976.675
2014.51848	2955.075
2017.56639	2949.275
2020.61233	2938.675
2023.6563	2946.075
2026.6983	2922.975
2029.73833	2925.675
2032.7764	2908.175
2035.8125	2905.675
2038.84664	2897.975
2041.87881	2903.475
2044.90903	2890.375
2047.93729	2875.175
2050.96359	2873.775
2053.98794	2869.875
2057.01034	2858.775
2060.03078	2867.975
2063.04927	2850.175
2066.06582	2853.175
2069.08042	2844.675
2072.09307	2847.175
2075.10378	2837.475
2078.11255	2848.075
2081.11938	2849.175
2084.12426	2832.775
2087.12722	2821.675
2090.12824	2830.475
2093.12732	2841.175
2096.12447	2830.075
2099.11969	2840.075
2102.11299	2826.075
2105.10435	2831.375
2108.09379	2829.675
2111.08131	2818.075
2114.0669	2814.875
2117.05057	2826.275
2120.03233	2821.175
2123.01216	2824.175
2125.99008	2829.975
2128.96609	2825.975
2131.94018	2825.775
2134.91236	2835.475
2137.88263	2821.575
2140.851	2822.675
2143.81746	2830.575
2146.78201	2825.675
2149.74466	2818.275
2152.7054	2818.275
2155.66425	2818.475
2158.6212	2816.575
2161.57625	2799.075
2164.52941	2804.575
2167.48067	2803.975
2170.43004	2796.375
2173.37752	2804.075
2176.32311	2793.175
2179.26681	2804.775
2182.20863	2805.775
2185.14856	2804.975
2188.08661	2803.575
2191.02278	2809.975
2193.95707	2790.375
2196.88948	2782.375
2199.82001	2788.875
2202.74867	2768.275
2205.67545	2784.075
2208.60037	2773.075
2211.52341	2764.975
2214.44458	2757.675
2217.36388	2752.975
2220.28132	2744.375
2223.1969	2742.275
2226.11061	2737.675
2229.02246	2734.875
2231.93245	2718.275
2234.84058	2719.675
2237.74686	2713.075
2240.65128	2696.375
2243.55385	2690.075
2246.45456	2700.075
2249.35343	2699.675
2252.25044	2693.675
2255.14561	2694.475
2258.03893	2690.475
2260.93041	2678.675
2263.82004	2674.775
2266.70783	2685.075
2269.59378	2666.875
2272.4779	2663.175
2275.36017	2649.975
2278.24061	2641.575
2281.11922	2649.475
2283.996	2634.275
2286.87094	2636.575
2289.74405	2609.175
2292.61534	2618.675
2295.4848	2595.475
2298.35243	2612.775
2301.21824	2606.475
2304.08223	2606.875
2306.94439	2595.875
2309.80474	2592.075
2312.66327	2582.275
2315.51999	2584.475
2318.37489	2591.275
2321.22797	2592.175
2324.07925	2584.575
2326.92871	2572.275
2329.77637	2574.375
2332.62222	2577.475
2335.46626	2549.675
2338.3085	2565.675
2341.14893	2571.475
2343.98756	2561.475
2346.8244	2556.275
2349.65943	2569.775
2352.49267	2562.775
2355.32411	2560.075
2358.15376	2569.175
2360.98161	2578.975
2363.80768	2579.675
2366.63195	2572.275
2369.45444	2571.275
2372.27514	2576.775
2375.09405	2572.475
2377.91118	2561.775
2380.72652	2554.575
2383.54009	2537.075
2386.35187	2529.675
2389.16188	2520.475
2391.97011	2509.675
2394.77657	2501.375
2397.58125	2478.475
2400.38416	2484.275
2403.18529	2477.475
2405.98466	2471.375
2408.78226	2468.075
2411.57809	2458.275
2414.37216	2454.475
2417.16446	2462.675
2419.955	2440.975
2422.74378	2452.675
2425.5308	2436.775
2428.31606	2447.675
2431.09956	2448.675
2433.88131	2434.875
2436.6613	2438.775
2439.43954	2450.475
2442.21603	2439.275
2444.99077	2436.975
2447.76377	2444.575
2450.53501	2434.975
2453.30451	2439.275
2456.07226	2437.775
2458.83827	2428.875
2461.60254	2431.175
2464.36507	2432.675
2467.12586	2427.175
2469.88492	2430.875
2472.64224	2427.375
2475.39782	2426.375
2478.15167	2432.775
2480.90379	2428.075
2483.65417	2439.075
2486.40283	2440.775
2489.14976	2448.075
2491.89497	2454.975
2494.63845	2453.875
2497.3802	2452.275
2500.12024	2439.675
2502.85855	2439.075
2505.59514	2429.975
2508.33002	2420.475
2511.06318	2403.875
2513.79462	2413.375
2516.52435	2391.875
2519.25237	2378.875
2521.97867	2382.375
2524.70327	2375.575
2527.42616	2363.575
2530.14734	2354.275
2532.86681	2361.175
2535.58458	2351.575
2538.30065	2354.075
2541.01501	2356.875
2543.72768	2354.475
2546.43864	2354.875
2549.14791	2347.475
2551.85548	2350.975
2554.56136	2329.075
2557.26554	2348.975
2559.96803	2341.575
2562.66883	2340.575
2565.36794	2336.575
2568.06536	2337.075
2570.7611	2324.875
2573.45514	2324.675
2576.14751	2310.175
2578.83819	2309.175
2581.52719	2324.275
2584.21451	2310.675
2586.90015	2307.675
2589.58411	2293.975
2592.2664	2299.275
2594.94701	2289.575
2597.62594	2296.475
2600.30321	2286.375
2602.9788	2287.575
2605.65273	2279.075
2608.32498	2290.175
2610.99557	2282.775
2613.66449	2279.175
2616.33175	2287.275
2618.99734	2279.675
2621.66128	2273.475
2624.32355	2265.975
2626.98416	2269.675
2629.64311	2266.775
2632.30041	2269.475
2634.95605	2246.875
2637.61004	2239.575
2640.26238	2237.575
2642.91306	2241.375
2645.56209	2241.775
2648.20948	2241.775
2650.85521	2237.975
2653.4993	2243.375
2656.14175	2247.675
2658.78255	2251.375
2661.42171	2248.175
2664.05923	2249.675
2666.6951	2253.475
2669.32934	2251.575
2671.96194	2253.975
2674.59291	2258.975
2677.22224	2249.675
2679.84993	2262.575
2682.476	2259.975
2685.10043	2264.275
2687.72324	2270.375
2690.34441	2257.875
2692.96396	2263.275
2695.58188	2263.075
2698.19818	2272.075
2700.81285	2259.475
2703.4259	2258.275
2706.03733	2247.675
2708.64714	2242.775
2711.25533	2264.775
2713.86191	2263.075
2716.46687	2273.875
2719.07021	2272.575
2721.67194	2288.175
2724.27206	2269.375
2726.87057	2281.675
2729.46747	2277.175
2732.06276	2274.775
2734.65644	2265.175
2737.24852	2267.175
2739.83899	2256.175
2742.42786	2269.975
2745.01513	2248.375
2747.60079	2244.275
2750.18486	2239.975
2752.76733	2236.575
2755.3482	2236.075
2757.92747	2240.175
2760.50515	2241.575
2763.08123	2235.975
2765.65573	2236.575
2768.22863	2239.875
2770.79994	2233.675
2773.36967	2226.575
2775.9378	2221.875
2778.50435	2232.375
2781.06932	2216.375
2783.6327	2229.275
2786.1945	2229.175
2788.75471	2223.375
2791.31335	2223.175
2793.87041	2225.275
2796.42589	2224.375
2798.97979	2228.475
2801.53212	2219.275
2804.08288	2229.475
2806.63206	2231.575
2809.17967	2220.175
2811.72571	2222.675
2814.27018	2229.975
2816.81308	2242.375
2819.35442	2237.675
2821.89419	2244.175
2824.43239	2238.975
2826.96904	2251.275
2829.50412	2260.475
2832.03763	2268.075
2834.56959	2262.275
2837.1	2275.775
2839.62884	2278.275
2842.15613	2307.875
2844.68186	2348.475
2847.20604	2385.275
2849.72867	2418.875
2852.24974	2424.475
2854.76927	2422.175
2857.28724	2406.575
2859.80367	2409.375
2862.31855	2405.175
2864.83189	2385.875
2867.34368	2376.875
2869.85393	2380.575
2872.36264	2372.675
2874.8698	2376.175
2877.37543	2365.575
2879.87952	2371.675
2882.38207	2354.775
2884.88308	2361.775
2887.38256	2350.075
2889.88051	2353.275
2892.37692	2353.175
2894.8718	2353.275
2897.36515	2360.275
2899.85698	2364.675
2902.34727	2372.175
2904.83604	2369.775
2907.32328	2369.175
2909.809	2370.275
2912.29319	2364.475
2914.77587	2350.375
2917.25702	2355.775
2919.73665	2348.275
2922.21476	2343.875
2924.69136	2334.775
2927.16644	2334.675
2929.64	2335.175
2932.11205	2323.275
2934.58258	2324.775
2937.05161	2312.875
2939.51912	2304.775
2941.98513	2276.475
2944.44962	2242.275
2946.91261	2220.675
2949.37409	2199.675
2951.83407	2194.475
2954.29254	2167.475
2956.74951	2169.275
2959.20498	2165.575
2961.65895	2152.575
2964.11142	2157.975
2966.56239	2146.175
2969.01186	2143.475
2971.45984	2126.275
2973.90632	2120.775
2976.35131	2112.975
2978.7948	2103.675
2981.23681	2089.875
2983.67732	2101.075
2986.11635	2082.175
2988.55388	2073.375
2990.98993	2061.075
2993.4245	2053.775
2995.85758	2059.875
2998.28917	2044.075
3000.71928	2032.275
3003.14791	2026.775
3005.57506	2026.575
3008.00073	2026.275
3010.42493	2026.275
3012.84764	2016.775
3015.26888	2012.975
3017.68865	2007.675
3020.10694	2016.275
3022.52376	2002.875
3024.9391	2005.975
3027.35298	2007.675
3029.76539	1999.475
3032.17632	2007.175
3034.5858	2001.175
3036.9938	2001.275
3039.40034	1991.875
3041.80542	1984.175
3044.20903	1988.675
3046.61118	1993.075
3049.01187	1983.275
3051.4111	1987.475
3053.80888	1981.175
3056.20519	1983.475
3058.60005	1982.775
3060.99345	1974.275
3063.3854	1979.075
3065.7759	1972.275
3068.16494	1971.575
3070.55254	1963.275
3072.93868	1962.875
3075.32338	1949.775
3077.70662	1951.975
3080.08842	1946.875
3082.46878	1943.675
3084.84769	1940.675
3087.22515	1939.975
3089.60118	1945.875
3091.97576	1933.475
3094.3489	1927.075
3096.72061	1935.075
3099.09087	1945.075
3101.4597	1936.575
3103.82709	1938.875
3106.19305	1929.375
3108.55757	1939.575
3110.92066	1931.575
3113.28232	1938.175
3115.64255	1924.875
3118.00134	1937.375
3120.35871	1932.675
3122.71466	1934.975
3125.06917	1937.175
3127.42226	1926.675
3129.77393	1939.875
3132.12417	1939.875
3134.47299	1942.175
3136.82039	1946.075
3139.16636	1943.575
3141.51092	1950.675
3143.85406	1959.475
3146.19579	1962.175
3148.53609	1964.075
3150.87499	1978.075
3153.21246	1971.775
3155.54853	1983.175
3157.88318	1995.675
3160.21642	1989.275
3162.54826	1991.975
3164.87868	1985.475
3167.2077	1997.475
3169.5353	2000.675
3171.86151	1994.975
3174.18631	2004.375
3176.5097	2013.575
3178.83169	2015.275
3181.15228	2003.275
3183.47147	2009.075
3185.78926	2022.675
3188.10565	2016.075
3190.42065	2005.775
3192.73424	2021.375
3195.04645	2020.675
3197.35725	2034.975
3199.66667	2027.575
3201.97469	2035.375
3204.28132	2034.775
3206.58656	2039.375
3208.8904	2038.175
3211.19287	2057.275
3213.49394	2055.975
3215.79363	2052.775
3218.09193	2061.075
3220.38884	2063.075
3222.68438	2050.875
3224.97853	2055.275
3227.2713	2072.175
3229.56269	2052.575
3231.8527	2058.875
3234.14133	2062.075
