Data from AgNPs_FTO_APTES_UA_1uM_CRN_2uM_R6G_10uM_NaF_0.1M_Addition_RamanShift__30__13-30-19-567.txt Node

Date: Thu Jan 27 13:30:19 GMT 2022
User: TCL
Spectrometer: QEP01345
Trigger mode: 4
Integration Time (sec): 7.000000E0
Scans to average: 10
Electric dark correction enabled: true
Nonlinearity correction enabled: false
Boxcar width: 0
XAxis mode: Raman Shifts
Number of Pixels in Spectrum: 1044
>>>>>Begin Spectral Data<<<<<
46.04893	0.45
50.45542	0.75
54.85868	-1.15
59.25871	-0.05
63.6555	32.95
68.04907	34.95
72.43941	37.75
76.82654	41.85
81.21044	41.85
85.59113	42.45
89.96862	45.45
94.34289	47.55
98.71396	50.35
103.08183	48.65
107.4465	53.55
111.80798	52.25
116.16626	49.55
120.52136	56.55
124.87327	53.55
129.222	53.75
133.56755	59.05
137.90993	55.15
142.24913	58.75
146.58517	64.25
150.91804	69.25
155.24774	77.45
159.57429	92.95
163.89768	110.75
168.21792	146.45
172.53501	186.45
176.84895	248.05
181.15975	342.15
185.46741	469.85
189.77193	641.55
194.07331	851.15
198.37157	1096.45
202.6667	1356.75
206.9587	1614.85
211.24758	1864.15
215.53334	2132.85
219.81599	2457.15
224.09553	2786.45
228.37195	3182.55
232.64527	3579.45
236.91549	3979.55
241.18261	4341.25
245.44663	4624.65
249.70755	4864.85
253.96539	5049.05
258.22014	5230.75
262.4718	5379.45
266.72039	5542.45
270.96589	5634.95
275.20832	5652.25
279.44768	5599.55
283.68397	5546.65
287.91719	5473.95
292.14735	5481.45
296.37445	5600.35
300.59849	5824.05
304.81948	6126.95
309.03742	6347.45
313.25231	6356.35
317.46415	6032.35
321.67296	5525.45
325.87872	5075.15
330.08145	4878.95
334.28114	4844.45
338.47781	4954.55
342.67145	5125.55
346.86207	5369.35
351.04966	5744.75
355.23424	6169.25
359.4158	6486.65
363.59435	6644.25
367.76989	6681.35
371.94243	6622.65
376.11196	6573.55
380.27849	6529.35
384.44203	6413.65
388.60257	6293.15
392.76012	6242.45
396.91468	6312.15
401.06626	6508.05
405.21485	6657.55
409.36047	6551.05
413.50311	6176.35
417.64277	5828.85
421.77947	5600.55
425.9132	5517.95
430.04396	5488.15
434.17176	5514.25
438.2966	5577.05
442.41849	5724.35
446.53742	5904.95
450.6534	6091.05
454.76644	6191.55
458.87653	6207.35
462.98368	6183.55
467.08789	6040.65
471.18916	5881.75
475.2875	5733.75
479.38291	5609.75
483.4754	5530.55
487.56496	5461.25
491.6516	5407.55
495.73531	5379.45
499.81612	5409.95
503.89401	5487.05
507.96899	5547.85
512.04106	5662.55
516.11023	5778.15
520.1765	5844.25
524.23987	5822.05
528.30034	5691.05
532.35792	5543.45
536.41261	5389.75
540.46441	5257.45
544.51333	5203.55
548.55936	5234.45
552.60252	5349.35
556.64279	5492.35
560.6802	5577.15
564.71473	5682.65
568.7464	5929.65
572.7752	6112.55
576.80114	5960.95
580.82422	5745.55
584.84444	5646.25
588.86181	5631.05
592.87633	5617.25
596.888	5670.45
600.89682	5894.75
604.9028	6596.05
608.90594	8530.05
612.90624	11232.15
616.90371	11026.55
620.89834	7589.95
624.89015	5856.75
628.87913	5508.35
632.86528	5518.45
636.84862	5618.05
640.82913	5553.05
644.80683	5302.05
648.78172	5127.55
652.75379	5168.55
656.72306	5423.25
660.68952	5758.65
664.65319	5727.75
668.61405	5401.35
672.57211	5217.15
676.52738	5191.35
680.47986	5183.45
684.42955	5175.35
688.37646	5134.65
692.32058	5146.15
696.26192	5207.05
700.20048	5256.85
704.13626	5328.05
708.06928	5314.75
711.99952	5265.15
715.927	5238.45
719.85171	5258.35
723.77365	5238.65
727.69284	5185.85
731.60928	5147.35
735.52295	5124.55
739.43388	5169.05
743.34206	5193.45
747.24749	5219.45
751.15017	5274.65
755.05012	5381.05
758.94733	5649.75
762.8418	6266.55
766.73354	7350.45
770.62254	8547.35
774.50882	9175.65
778.39237	8842.65
782.27321	7661.05
786.15132	6449.05
790.02671	5729.15
793.89938	5411.95
797.76935	5304.35
801.6366	5234.35
805.50115	5166.75
809.36299	5142.45
813.22213	5117.45
817.07857	5113.65
820.93231	5116.25
824.78336	5141.65
828.63172	5157.85
832.47738	5200.05
836.32036	5181.75
840.16066	5135.05
843.99827	5107.65
847.8332	5093.05
851.66546	5095.45
855.49504	5083.05
859.32195	5062.15
863.1462	5053.15
866.96777	5022.95
870.78668	5013.55
874.60293	5035.95
878.41652	5056.35
882.22745	5072.15
886.03573	5116.95
889.84136	5086.15
893.64433	5058.75
897.44466	5051.65
901.24235	5042.25
905.0374	5043.85
908.8298	5008.65
912.61957	4999.45
916.40671	5027.15
920.19121	5078.95
923.97308	5123.85
927.75233	5196.05
931.52895	5253.45
935.30295	5202.95
939.07433	5053.35
942.84309	4902.55
946.60924	4832.15
950.37278	4779.75
954.13371	4763.15
957.89203	4730.55
961.64774	4718.95
965.40086	4695.65
969.15137	4697.05
972.89929	4677.35
976.64461	4669.95
980.38733	4656.15
984.12747	4662.15
987.86502	4689.45
991.59999	4724.35
995.33237	4773.15
999.06217	4859.65
1002.78939	5010.95
1006.51404	5137.35
1010.23611	5264.85
1013.95561	5352.85
1017.67255	5332.55
1021.38692	5263.55
1025.09872	5144.25
1028.80796	5089.55
1032.51465	5083.35
1036.21877	5164.75
1039.92035	5240.15
1043.61937	5243.95
1047.31584	5220.85
1051.00976	5172.35
1054.70114	5165.35
1058.38998	5154.45
1062.07627	5185.75
1065.76003	5193.45
1069.44126	5237.15
1073.11995	5306.25
1076.79611	5378.55
1080.46974	5431.85
1084.14085	5588.25
1087.80943	5733.85
1091.47549	5809.15
1095.13903	5709.75
1098.80005	5501.65
1102.45857	5305.65
1106.11456	5225.35
1109.76805	5245.25
1113.41903	5343.55
1117.06751	5505.65
1120.71348	5721.25
1124.35696	5996.85
1127.99793	6245.85
1131.63641	6273.15
1135.2724	5964.35
1138.90589	5630.15
1142.5369	5470.55
1146.16542	5357.15
1149.79145	5274.85
1153.415	5282.65
1157.03607	5341.85
1160.65467	5466.75
1164.27079	5638.25
1167.88443	5915.95
1171.49561	6409.55
1175.10432	7220.75
1178.71056	8340.65
1182.31434	9174.75
1185.91565	9333.35
1189.51451	9093.85
1193.11091	8503.75
1196.70485	7750.15
1200.29634	7207.35
1203.88538	6813.75
1207.47197	6368.55
1211.05612	6034.05
1214.63782	5827.05
1218.21708	5763.95
1221.79391	5767.55
1225.36829	5830.75
1228.94024	5933.45
1232.50976	6000.25
1236.07685	6038.75
1239.6415	6038.85
1243.20374	6021.15
1246.76355	6015.65
1250.32093	6074.55
1253.8759	6197.45
1257.42845	6372.95
1260.97859	6590.55
1264.52631	6797.95
1268.07163	6971.05
1271.61453	7172.75
1275.15503	7324.85
1278.69312	7374.75
1282.22882	7418.85
1285.76211	7585.35
1289.29301	7820.35
1292.82151	8085.95
1296.34761	8326.05
1299.87133	8643.65
1303.39266	9271.45
1306.9116	10280.45
1310.42815	11549.15
1313.94233	12437.65
1317.45412	12344.55
1320.96354	11545.85
1324.47058	10608.55
1327.97525	9814.75
1331.47754	9338.25
1334.97747	9157.25
1338.47502	9134.65
1341.97022	9272.85
1345.46305	9525.45
1348.95352	10016.05
1352.44163	10729.65
1355.92738	11727.75
1359.41078	13407.85
1362.89183	15173.35
1366.37053	15010.35
1369.84688	12733.55
1373.32088	10391.75
1376.79254	8904.05
1380.26186	8185.45
1383.72883	7810.75
1387.19347	7548.85
1390.65578	7237.25
1394.11575	6964.35
1397.57339	6825.95
1401.0287	6863.85
1404.48168	6974.25
1407.93234	7115.85
1411.38068	7251.25
1414.82669	7261.35
1418.27039	7162.25
1421.71177	6997.75
1425.15083	6857.75
1428.58758	6775.95
1432.02203	6774.15
1435.45416	6827.85
1438.88399	6881.85
1442.31151	6853.95
1445.73673	6852.15
1449.15965	6889.65
1452.58027	6859.65
1455.9986	6789.95
1459.41463	6751.45
1462.82837	6791.85
1466.23982	6903.55
1469.64898	7047.25
1473.05586	7130.75
1476.46045	7213.15
1479.86276	7341.15
1483.26279	7512.35
1486.66054	7721.95
1490.05602	7993.05
1493.44922	8364.15
1496.84016	8932.65
1500.22882	9774.45
1503.61521	10909.65
1506.99934	12233.85
1510.38121	13528.35
1513.76081	14328.45
1517.13816	13843.75
1520.51324	12223.55
1523.88607	10433.75
1527.25665	9195.35
1530.62498	8457.65
1533.99105	8015.05
1537.35488	7724.75
1540.71647	7546.65
1544.07581	7460.65
1547.4329	7422.05
1550.78776	7346.85
1554.14038	7357.25
1557.49077	7419.15
1560.83892	7561.05
1564.18484	7777.85
1567.52853	8009.95
1570.86999	8197.05
1574.20922	8332.75
1577.54624	8310.85
1580.88103	7953.15
1584.2136	7411.85
1587.54395	7151.05
1590.87208	7234.95
1594.19801	7647.35
1597.52172	8177.55
1600.84321	8459.65
1604.16251	8187.25
1607.47959	7660.35
1610.79447	7081.95
1614.10715	6509.55
1617.41763	6063.35
1620.7259	5779.65
1624.03199	5672.75
1627.33587	5669.35
1630.63757	5806.95
1633.93707	6113.35
1637.23439	6548.35
1640.52951	7170.35
1643.82246	7948.95
1647.11321	8849.05
1650.40179	9581.75
1653.68819	9495.45
1656.97241	8306.95
1660.25446	6911.65
1663.53433	5877.55
1666.81203	5292.35
1670.08756	4950.75
1673.36092	4747.25
1676.63211	4640.45
1679.90115	4566.95
1683.16801	4490.75
1686.43272	4447.15
1689.69527	4382.75
1692.95567	4367.35
1696.2139	4319.25
1699.46999	4279.85
1702.72392	4262.35
1705.97571	4271.55
1709.22535	4302.15
1712.47284	4326.75
1715.71819	4347.95
1718.96139	4329.95
1722.20246	4358.75
1725.44139	4340.95
1728.67818	4314.95
1731.91284	4272.55
1735.14537	4234.45
1738.37576	4204.05
1741.60403	4184.05
1744.83017	4169.55
1748.05418	4128.55
1751.27607	4122.45
1754.49584	4091.15
1757.71349	4089.25
1760.92903	4063.45
1764.14244	4057.05
1767.35375	4063.75
1770.56294	4048.75
1773.77002	4032.85
1776.97499	4033.85
1780.17785	4045.35
1783.37861	4041.45
1786.57727	4045.95
1789.77382	4043.55
1792.96828	4025.45
1796.16064	4026.75
1799.3509	4035.55
1802.53907	4016.15
1805.72514	4013.75
1808.90913	3989.15
1812.09102	3971.65
1815.27083	3976.65
1818.44856	3972.55
1821.6242	3953.85
1824.79776	3951.85
1827.96924	3943.85
1831.13864	3949.75
1834.30597	3934.95
1837.47122	3946.35
1840.6344	3934.95
1843.7955	3936.75
1846.95454	3935.65
1850.11151	3935.25
1853.26642	3938.55
1856.41926	3946.65
1859.57004	3947.95
1862.71876	3942.05
1865.86542	3952.85
1869.01003	3951.65
1872.15258	3958.15
1875.29308	3950.25
1878.43152	3959.05
1881.56792	3970.35
1884.70227	3967.25
1887.83457	3964.75
1890.96482	3971.15
1894.09304	3975.55
1897.21921	3977.25
1900.34335	3980.55
1903.46544	3974.55
1906.58551	3960.55
1909.70353	3957.35
1912.81953	3966.45
1915.93349	3954.85
1919.04543	3950.15
1922.15534	3945.95
1925.26322	3922.15
1928.36908	3915.75
1931.47292	3903.15
1934.57473	3889.95
1937.67453	3863.75
1940.77232	3836.55
1943.86808	3813.25
1946.96184	3792.85
1950.05358	3785.55
1953.14331	3763.45
1956.23103	3742.65
1959.31675	3735.85
1962.40046	3715.15
1965.48217	3713.65
1968.56188	3700.45
1971.63959	3698.75
1974.7153	3676.95
1977.78901	3655.55
1980.86073	3645.65
1983.93046	3636.95
1986.99819	3614.05
1990.06394	3607.45
1993.1277	3590.45
1996.18947	3570.85
1999.24925	3574.95
2002.30706	3559.65
2005.36288	3545.35
2008.41672	3537.85
2011.46859	3518.25
2014.51848	3515.45
2017.56639	3501.55
2020.61233	3505.05
2023.6563	3500.45
2026.6983	3473.65
2029.73833	3459.75
2032.7764	3449.75
2035.8125	3475.75
2038.84664	3441.75
2041.87881	3452.95
2044.90903	3437.25
2047.93729	3419.05
2050.96359	3416.25
2053.98794	3417.75
2057.01034	3396.75
2060.03078	3399.45
2063.04927	3401.35
2066.06582	3378.95
2069.08042	3389.85
2072.09307	3381.65
2075.10378	3376.15
2078.11255	3367.75
2081.11938	3378.55
2084.12426	3366.85
2087.12722	3377.25
2090.12824	3367.75
2093.12732	3378.55
2096.12447	3374.75
2099.11969	3366.95
2102.11299	3354.05
2105.10435	3359.75
2108.09379	3367.45
2111.08131	3356.95
2114.0669	3362.95
2117.05057	3364.65
2120.03233	3362.95
2123.01216	3368.25
2125.99008	3372.05
2128.96609	3373.45
2131.94018	3378.45
2134.91236	3369.45
2137.88263	3369.25
2140.851	3381.05
2143.81746	3386.55
2146.78201	3371.25
2149.74466	3365.15
2152.7054	3359.65
2155.66425	3373.75
2158.6212	3365.85
2161.57625	3355.25
2164.52941	3366.05
2167.48067	3349.05
2170.43004	3350.05
2173.37752	3362.15
2176.32311	3338.85
2179.26681	3360.15
2182.20863	3340.95
2185.14856	3343.75
2188.08661	3351.45
2191.02278	3351.75
2193.95707	3336.45
2196.88948	3332.65
2199.82001	3347.35
2202.74867	3334.05
2205.67545	3329.95
2208.60037	3322.05
2211.52341	3316.55
2214.44458	3321.45
2217.36388	3300.75
2220.28132	3299.75
2223.1969	3288.35
2226.11061	3293.95
2229.02246	3274.85
2231.93245	3269.85
2234.84058	3250.05
2237.74686	3247.05
2240.65128	3246.95
2243.55385	3239.25
2246.45456	3236.75
2249.35343	3238.65
2252.25044	3234.05
2255.14561	3230.35
2258.03893	3230.45
2260.93041	3227.45
2263.82004	3206.05
2266.70783	3204.55
2269.59378	3207.55
2272.4779	3191.95
2275.36017	3181.35
2278.24061	3168.35
2281.11922	3175.95
2283.996	3158.75
2286.87094	3152.35
2289.74405	3155.45
2292.61534	3131.65
2295.4848	3125.85
2298.35243	3139.35
2301.21824	3119.65
2304.08223	3123.75
2306.94439	3133.95
2309.80474	3118.15
2312.66327	3121.15
2315.51999	3121.05
2318.37489	3119.45
2321.22797	3109.95
2324.07925	3085.75
2326.92871	3104.15
2329.77637	3099.25
2332.62222	3095.85
2335.46626	3082.15
2338.3085	3082.95
2341.14893	3083.55
2343.98756	3081.25
2346.8244	3087.35
2349.65943	3084.75
2352.49267	3080.75
2355.32411	3095.25
2358.15376	3091.45
2360.98161	3093.45
2363.80768	3093.05
2366.63195	3085.05
2369.45444	3088.45
2372.27514	3086.45
2375.09405	3095.55
2377.91118	3073.85
2380.72652	3065.95
2383.54009	3043.65
2386.35187	3043.95
2389.16188	3026.85
2391.97011	3004.55
2394.77657	3009.75
2397.58125	3010.95
2400.38416	2995.55
2403.18529	2981.75
2405.98466	2978.45
2408.78226	2981.55
2411.57809	2965.65
2414.37216	2965.05
2417.16446	2963.05
2419.955	2950.25
2422.74378	2956.25
2425.5308	2951.25
2428.31606	2946.35
2431.09956	2939.15
2433.88131	2928.85
2436.6613	2944.35
2439.43954	2945.55
2442.21603	2942.75
2444.99077	2938.25
2447.76377	2947.05
2450.53501	2930.95
2453.30451	2934.55
2456.07226	2930.05
2458.83827	2912.15
2461.60254	2932.05
2464.36507	2930.65
2467.12586	2926.45
2469.88492	2903.35
2472.64224	2925.45
2475.39782	2929.55
2478.15167	2922.85
2480.90379	2923.55
2483.65417	2914.15
2486.40283	2927.15
2489.14976	2933.85
2491.89497	2939.85
2494.63845	2939.35
2497.3802	2917.55
2500.12024	2928.35
2502.85855	2928.85
2505.59514	2930.05
2508.33002	2903.25
2511.06318	2902.05
2513.79462	2896.15
2516.52435	2874.95
2519.25237	2871.25
2521.97867	2853.15
2524.70327	2857.85
2527.42616	2848.15
2530.14734	2851.75
2532.86681	2840.25
2535.58458	2833.25
2538.30065	2832.45
2541.01501	2841.15
2543.72768	2831.75
2546.43864	2845.75
2549.14791	2835.85
2551.85548	2824.45
2554.56136	2821.85
2557.26554	2815.75
2559.96803	2812.25
2562.66883	2824.05
2565.36794	2812.45
2568.06536	2803.85
2570.7611	2791.45
2573.45514	2791.25
2576.14751	2787.25
2578.83819	2775.75
2581.52719	2792.05
2584.21451	2774.95
2586.90015	2767.45
2589.58411	2772.05
2592.2664	2771.55
2594.94701	2764.35
2597.62594	2759.45
2600.30321	2753.55
2602.9788	2745.05
2605.65273	2752.05
2608.32498	2745.25
2610.99557	2745.25
2613.66449	2752.55
2616.33175	2740.85
2618.99734	2744.95
2621.66128	2747.65
2624.32355	2735.15
2626.98416	2742.65
2629.64311	2739.45
2632.30041	2727.25
2634.95605	2729.55
2637.61004	2715.95
2640.26238	2716.75
2642.91306	2709.15
2645.56209	2699.25
2648.20948	2705.85
2650.85521	2702.15
2653.4993	2695.95
2656.14175	2706.85
2658.78255	2692.85
2661.42171	2705.75
2664.05923	2704.35
2666.6951	2721.55
2669.32934	2714.05
2671.96194	2710.05
2674.59291	2711.15
2677.22224	2724.85
2679.84993	2724.25
2682.476	2712.65
2685.10043	2722.05
2687.72324	2707.15
2690.34441	2703.85
2692.96396	2709.05
2695.58188	2720.15
2698.19818	2711.95
2700.81285	2702.85
2703.4259	2724.55
2706.03733	2701.85
2708.64714	2676.95
2711.25533	2718.55
2713.86191	2717.35
2716.46687	2724.55
2719.07021	2698.75
2721.67194	2714.85
2724.27206	2724.75
2726.87057	2724.85
2729.46747	2724.55
2732.06276	2721.15
2734.65644	2713.95
2737.24852	2720.95
2739.83899	2703.95
2742.42786	2719.45
2745.01513	2689.55
2747.60079	2691.85
2750.18486	2687.65
2752.76733	2690.35
2755.3482	2675.45
2757.92747	2680.25
2760.50515	2667.05
2763.08123	2674.95
2765.65573	2684.35
2768.22863	2669.15
2770.79994	2661.75
2773.36967	2670.45
2775.9378	2668.75
2778.50435	2665.55
2781.06932	2667.65
2783.6327	2665.95
2786.1945	2663.15
2788.75471	2658.25
2791.31335	2645.95
2793.87041	2649.15
2796.42589	2646.15
2798.97979	2654.45
2801.53212	2641.65
2804.08288	2647.85
2806.63206	2640.25
2809.17967	2631.05
2811.72571	2624.55
2814.27018	2629.65
2816.81308	2638.55
2819.35442	2641.85
2821.89419	2651.95
2824.43239	2656.15
2826.96904	2650.55
2829.50412	2660.05
2832.03763	2654.35
2834.56959	2671.85
2837.1	2675.65
2839.62884	2677.45
2842.15613	2703.15
2844.68186	2716.35
2847.20604	2764.15
2849.72867	2784.15
2852.24974	2801.75
2854.76927	2789.65
2857.28724	2785.15
2859.80367	2775.85
2862.31855	2767.55
2864.83189	2760.75
2867.34368	2752.25
2869.85393	2750.85
2872.36264	2737.75
2874.8698	2755.15
2877.37543	2735.85
2879.87952	2737.55
2882.38207	2729.05
2884.88308	2732.75
2887.38256	2740.15
2889.88051	2720.65
2892.37692	2725.65
2894.8718	2724.05
2897.36515	2740.55
2899.85698	2723.35
2902.34727	2734.95
2904.83604	2729.05
2907.32328	2738.95
2909.809	2726.55
2912.29319	2724.45
2914.77587	2736.25
2917.25702	2745.15
2919.73665	2721.45
2922.21476	2733.15
2924.69136	2726.05
2927.16644	2716.35
2929.64	2712.35
2932.11205	2708.35
2934.58258	2680.95
2937.05161	2690.65
2939.51912	2676.65
2941.98513	2661.65
2944.44962	2642.35
2946.91261	2613.15
2949.37409	2604.15
2951.83407	2594.55
2954.29254	2581.65
2956.74951	2569.85
2959.20498	2575.75
2961.65895	2554.25
2964.11142	2555.75
2966.56239	2551.05
2969.01186	2548.45
2971.45984	2536.65
2973.90632	2516.35
2976.35131	2534.15
2978.7948	2517.35
2981.23681	2507.25
2983.67732	2498.45
2986.11635	2490.75
2988.55388	2483.25
2990.98993	2469.25
2993.4245	2471.65
2995.85758	2463.95
2998.28917	2456.15
3000.71928	2445.95
3003.14791	2445.15
3005.57506	2444.95
3008.00073	2438.05
3010.42493	2432.75
3012.84764	2429.45
3015.26888	2423.95
3017.68865	2428.45
3020.10694	2422.25
3022.52376	2419.45
3024.9391	2404.95
3027.35298	2421.45
3029.76539	2414.25
3032.17632	2403.65
3034.5858	2400.85
3036.9938	2414.45
3039.40034	2397.95
3041.80542	2415.45
3044.20903	2398.95
3046.61118	2389.75
3049.01187	2391.55
3051.4111	2390.15
3053.80888	2384.25
3056.20519	2385.25
3058.60005	2377.05
3060.99345	2378.95
3063.3854	2357.65
3065.7759	2370.95
3068.16494	2369.35
3070.55254	2351.15
3072.93868	2352.65
3075.32338	2345.55
3077.70662	2335.85
3080.08842	2329.15
3082.46878	2329.05
3084.84769	2323.95
3087.22515	2326.95
3089.60118	2321.85
3091.97576	2330.15
3094.3489	2330.75
3096.72061	2325.95
3099.09087	2337.85
3101.4597	2314.35
3103.82709	2324.45
3106.19305	2330.75
3108.55757	2323.95
3110.92066	2332.75
3113.28232	2329.95
3115.64255	2329.25
3118.00134	2328.95
3120.35871	2310.25
3122.71466	2323.25
3125.06917	2317.65
3127.42226	2318.55
3129.77393	2316.25
3132.12417	2328.15
3134.47299	2320.45
3136.82039	2322.55
3139.16636	2330.85
3141.51092	2333.95
3143.85406	2339.95
3146.19579	2346.25
3148.53609	2339.35
3150.87499	2353.65
3153.21246	2352.55
3155.54853	2360.25
3157.88318	2363.55
3160.21642	2369.75
3162.54826	2373.45
3164.87868	2357.65
3167.2077	2366.85
3169.5353	2378.55
3171.86151	2384.25
3174.18631	2379.55
3176.5097	2384.25
3178.83169	2382.65
3181.15228	2381.35
3183.47147	2385.65
3185.78926	2373.55
3188.10565	2398.15
3190.42065	2397.15
3192.73424	2385.35
3195.04645	2390.35
3197.35725	2390.45
3199.66667	2401.25
3201.97469	2409.75
3204.28132	2408.25
3206.58656	2419.25
3208.8904	2407.05
3211.19287	2415.65
3213.49394	2414.85
3215.79363	2434.85
3218.09193	2434.55
3220.38884	2425.85
3222.68438	2431.15
3224.97853	2430.65
3227.2713	2420.95
3229.56269	2428.55
3231.8527	2427.85
3234.14133	2427.25
3236.42858	2432.85
3238.71446	2419.05
3240.99896	2413.35
3243.28209	2407.95
3245.56384	2400.45
3247.84423	2409.35
3250.12324	2406.85
3252.40088	2412.25
3254.67715	2410.95
3256.95205	2400.75
3259.22558	2403.95
3261.49775	2403.15
3263.76855	2396.55
3266.03799	2384.15
3268.30606	2393.95
3270.57277	2388.05
3272.83812	2376.55
3275.10211	2376.95
3277.36474	2370.65
3279.62601	2372.55
3281.88593	2366.25
3284.14448	2377.15
3286.40168	2373.25
3288.65753	2373.15
3290.91202	2352.05
3293.16516	2358.75
3295.41695	2348.95
3297.66738	2332.85
3299.91647	2325.45
3302.16421	2312.95
3304.4106	2300.45
3306.65564	2287.95
3308.89933	2279.85
3311.14169	2252.85
3313.38269	2252.25
3315.62236	2221.75
3317.86068	2201.55
3320.09766	2198.05
3322.3333	2171.55
3324.5676	2179.95
3326.80056	2134.75
3329.03219	2121.45
3331.26248	-0.55
3333.49143	0.15
3335.71905	-0.95
