Data from AgNPs_FTO_APTES_UA_1uM_CRN_0uM_R6G_10uM_NaF_0.1M_Addition_RamanShift__51__12-05-09-470.txt Node

Date: Thu Jan 27 12:05:09 GMT 2022
User: TCL
Spectrometer: QEP01345
Trigger mode: 4
Integration Time (sec): 7.000000E0
Scans to average: 10
Electric dark correction enabled: true
Nonlinearity correction enabled: false
Boxcar width: 0
XAxis mode: Raman Shifts
Number of Pixels in Spectrum: 1044
>>>>>Begin Spectral Data<<<<<
46.04893	0.2125
50.45542	0.8125
54.85868	-0.3875
59.25871	0.5125
63.6555	36.8125
68.04907	36.2125
72.43941	37.8125
76.82654	41.0125
81.21044	39.5125
85.59113	42.7125
89.96862	44.8125
94.34289	45.6125
98.71396	50.4125
103.08183	46.7125
107.4465	51.3125
111.80798	48.7125
116.16626	51.4125
120.52136	58.5125
124.87327	52.6125
129.222	50.5125
133.56755	53.3125
137.90993	54.3125
142.24913	59.1125
146.58517	63.7125
150.91804	72.1125
155.24774	75.9125
159.57429	87.1125
163.89768	109.1125
168.21792	139.4125
172.53501	179.7125
176.84895	236.4125
181.15975	327.6125
185.46741	451.4125
189.77193	614.6125
194.07331	816.0125
198.37157	1049.0125
202.6667	1292.1125
206.9587	1530.4125
211.24758	1779.2125
215.53334	2034.0125
219.81599	2328.5125
224.09553	2643.0125
228.37195	3003.3125
232.64527	3368.1125
236.91549	3756.8125
241.18261	4098.6125
245.44663	4372.9125
249.70755	4576.3125
253.96539	4771.2125
258.22014	4941.9125
262.4718	5094.2125
266.72039	5214.6125
270.96589	5300.3125
275.20832	5310.4125
279.44768	5250.1125
283.68397	5185.6125
287.91719	5139.3125
292.14735	5133.1125
296.37445	5227.3125
300.59849	5414.0125
304.81948	5685.4125
309.03742	5849.5125
313.25231	5861.0125
317.46415	5588.6125
321.67296	5160.8125
325.87872	4787.1125
330.08145	4605.0125
334.28114	4583.0125
338.47781	4678.0125
342.67145	4806.4125
346.86207	5035.7125
351.04966	5374.2125
355.23424	5744.3125
359.4158	6032.7125
363.59435	6186.2125
367.76989	6197.1125
371.94243	6175.3125
376.11196	6122.8125
380.27849	6084.0125
384.44203	6014.6125
388.60257	5908.8125
392.76012	5879.0125
396.91468	5955.1125
401.06626	6113.8125
405.21485	6244.1125
409.36047	6161.8125
413.50311	5851.7125
417.64277	5551.0125
421.77947	5360.6125
425.9132	5291.9125
430.04396	5273.1125
434.17176	5320.8125
438.2966	5408.2125
442.41849	5589.4125
446.53742	5789.6125
450.6534	6010.1125
454.76644	6112.1125
458.87653	6141.1125
462.98368	6040.3125
467.08789	5907.7125
471.18916	5748.7125
475.2875	5609.7125
479.38291	5486.1125
483.4754	5393.7125
487.56496	5316.9125
491.6516	5237.9125
495.73531	5220.3125
499.81612	5187.3125
503.89401	5283.2125
507.96899	5362.9125
512.04106	5423.6125
516.11023	5523.4125
520.1765	5586.7125
524.23987	5566.5125
528.30034	5462.0125
532.35792	5336.3125
536.41261	5194.0125
540.46441	5040.3125
544.51333	4977.6125
548.55936	5002.6125
552.60252	5120.9125
556.64279	5249.6125
560.6802	5316.2125
564.71473	5414.4125
568.7464	5659.7125
572.7752	5874.5125
576.80114	5739.8125
580.82422	5576.6125
584.84444	5509.3125
588.86181	5511.8125
592.87633	5566.9125
596.888	5669.3125
600.89682	5883.5125
604.9028	6479.8125
608.90594	8154.4125
612.90624	10462.9125
616.90371	10234.8125
620.89834	7176.9125
624.89015	5615.6125
628.87913	5311.7125
632.86528	5285.5125
636.84862	5335.4125
640.82913	5265.2125
644.80683	5055.3125
648.78172	4894.4125
652.75379	4934.1125
656.72306	5186.8125
660.68952	5473.7125
664.65319	5439.2125
668.61405	5157.4125
672.57211	4983.1125
676.52738	4957.1125
680.47986	4934.8125
684.42955	4903.2125
688.37646	4878.1125
692.32058	4913.1125
696.26192	4956.2125
700.20048	5018.2125
704.13626	5081.0125
708.06928	5053.5125
711.99952	5019.1125
715.927	4959.4125
719.85171	4967.4125
723.77365	4944.1125
727.69284	4882.9125
731.60928	4855.3125
735.52295	4853.1125
739.43388	4883.8125
743.34206	4921.8125
747.24749	4964.6125
751.15017	5013.9125
755.05012	5112.6125
758.94733	5349.6125
762.8418	5886.3125
766.73354	6869.0125
770.62254	7932.1125
774.50882	8521.0125
778.39237	8264.0125
782.27321	7212.3125
786.15132	6093.1125
790.02671	5438.3125
793.89938	5137.7125
797.76935	5019.4125
801.6366	4966.1125
805.50115	4916.3125
809.36299	4884.3125
813.22213	4849.2125
817.07857	4846.5125
820.93231	4844.2125
824.78336	4880.0125
828.63172	4893.4125
832.47738	4918.5125
836.32036	4914.4125
840.16066	4890.2125
843.99827	4857.7125
847.8332	4824.2125
851.66546	4826.9125
855.49504	4818.1125
859.32195	4790.7125
863.1462	4757.4125
866.96777	4763.0125
870.78668	4737.2125
874.60293	4762.3125
878.41652	4790.7125
882.22745	4780.6125
886.03573	4836.5125
889.84136	4824.9125
893.64433	4791.8125
897.44466	4784.9125
901.24235	4788.1125
905.0374	4755.0125
908.8298	4738.8125
912.61957	4736.1125
916.40671	4762.7125
920.19121	4803.3125
923.97308	4863.9125
927.75233	4927.9125
931.52895	4981.2125
935.30295	4929.4125
939.07433	4793.0125
942.84309	4658.9125
946.60924	4572.5125
950.37278	4540.3125
954.13371	4499.1125
957.89203	4492.9125
961.64774	4479.7125
965.40086	4451.3125
969.15137	4435.5125
972.89929	4426.6125
976.64461	4418.3125
980.38733	4418.9125
984.12747	4433.3125
987.86502	4450.1125
991.59999	4484.8125
995.33237	4551.3125
999.06217	4657.9125
1002.78939	4826.0125
1006.51404	4958.4125
1010.23611	5061.4125
1013.95561	5142.4125
1017.67255	5130.0125
1021.38692	5040.3125
1025.09872	4898.3125
1028.80796	4830.0125
1032.51465	4849.6125
1036.21877	4921.1125
1039.92035	5012.7125
1043.61937	5024.7125
1047.31584	4985.2125
1051.00976	4916.8125
1054.70114	4875.4125
1058.38998	4853.6125
1062.07627	4861.5125
1065.76003	4871.3125
1069.44126	4923.2125
1073.11995	4994.6125
1076.79611	5071.6125
1080.46974	5165.9125
1084.14085	5273.9125
1087.80943	5430.5125
1091.47549	5476.3125
1095.13903	5393.4125
1098.80005	5155.0125
1102.45857	4959.7125
1106.11456	4885.1125
1109.76805	4906.5125
1113.41903	5019.0125
1117.06751	5174.2125
1120.71348	5371.9125
1124.35696	5632.2125
1127.99793	5839.7125
1131.63641	5861.2125
1135.2724	5599.6125
1138.90589	5311.4125
1142.5369	5140.3125
1146.16542	5046.6125
1149.79145	4982.9125
1153.415	4990.3125
1157.03607	5035.0125
1160.65467	5168.0125
1164.27079	5330.8125
1167.88443	5631.9125
1171.49561	6116.4125
1175.10432	6958.5125
1178.71056	8038.2125
1182.31434	8848.6125
1185.91565	9120.4125
1189.51451	8968.5125
1193.11091	8445.4125
1196.70485	7742.3125
1200.29634	7124.1125
1203.88538	6662.0125
1207.47197	6195.8125
1211.05612	5812.4125
1214.63782	5616.4125
1218.21708	5575.7125
1221.79391	5626.7125
1225.36829	5701.5125
1228.94024	5787.4125
1232.50976	5826.4125
1236.07685	5854.8125
1239.6415	5841.0125
1243.20374	5804.1125
1246.76355	5762.1125
1250.32093	5807.2125
1253.8759	5930.3125
1257.42845	6127.2125
1260.97859	6327.6125
1264.52631	6560.3125
1268.07163	6764.9125
1271.61453	6989.1125
1275.15503	7146.8125
1278.69312	7233.1125
1282.22882	7284.2125
1285.76211	7480.4125
1289.29301	7739.2125
1292.82151	8032.1125
1296.34761	8284.0125
1299.87133	8634.0125
1303.39266	9228.2125
1306.9116	10201.0125
1310.42815	11416.8125
1313.94233	12268.2125
1317.45412	12241.7125
1320.96354	11590.6125
1324.47058	10735.7125
1327.97525	10025.5125
1331.47754	9595.3125
1334.97747	9386.4125
1338.47502	9324.3125
1341.97022	9338.8125
1345.46305	9525.5125
1348.95352	9942.0125
1352.44163	10642.7125
1355.92738	11613.3125
1359.41078	13147.8125
1362.89183	14687.8125
1366.37053	14463.4125
1369.84688	12514.0125
1373.32088	10350.0125
1376.79254	8900.7125
1380.26186	8198.6125
1383.72883	7839.0125
1387.19347	7566.9125
1390.65578	7280.1125
1394.11575	6999.0125
1397.57339	6883.6125
1401.0287	6936.6125
1404.48168	7079.1125
1407.93234	7219.5125
1411.38068	7331.8125
1414.82669	7287.4125
1418.27039	7119.3125
1421.71177	6927.4125
1425.15083	6751.8125
1428.58758	6683.4125
1432.02203	6724.8125
1435.45416	6788.1125
1438.88399	6855.6125
1442.31151	6828.2125
1445.73673	6838.2125
1449.15965	6852.4125
1452.58027	6786.5125
1455.9986	6724.1125
1459.41463	6682.3125
1462.82837	6738.4125
1466.23982	6872.3125
1469.64898	7001.6125
1473.05586	7096.9125
1476.46045	7188.6125
1479.86276	7255.4125
1483.26279	7403.2125
1486.66054	7548.4125
1490.05602	7745.1125
1493.44922	8079.8125
1496.84016	8530.9125
1500.22882	9291.2125
1503.61521	10264.1125
1506.99934	11368.5125
1510.38121	12496.8125
1513.76081	13178.6125
1517.13816	12725.0125
1520.51324	11287.9125
1523.88607	9755.6125
1527.25665	8694.0125
1530.62498	8085.7125
1533.99105	7769.8125
1537.35488	7538.7125
1540.71647	7410.5125
1544.07581	7318.0125
1547.4329	7236.0125
1550.78776	7153.8125
1554.14038	7069.6125
1557.49077	7053.8125
1560.83892	7106.3125
1564.18484	7295.8125
1567.52853	7477.3125
1570.86999	7675.6125
1574.20922	7813.7125
1577.54624	7828.3125
1580.88103	7540.1125
1584.2136	7044.1125
1587.54395	6827.9125
1590.87208	6978.8125
1594.19801	7472.4125
1597.52172	8136.2125
1600.84321	8515.6125
1604.16251	8319.0125
1607.47959	7714.5125
1610.79447	6979.1125
1614.10715	6275.7125
1617.41763	5744.9125
1620.7259	5438.2125
1624.03199	5307.7125
1627.33587	5299.9125
1630.63757	5447.7125
1633.93707	5776.6125
1637.23439	6233.3125
1640.52951	6929.7125
1643.82246	7799.3125
1647.11321	8685.3125
1650.40179	9316.7125
1653.68819	9056.0125
1656.97241	7849.6125
1660.25446	6481.5125
1663.53433	5486.7125
1666.81203	4882.2125
1670.08756	4562.6125
1673.36092	4385.1125
1676.63211	4263.4125
1679.90115	4195.2125
1683.16801	4110.0125
1686.43272	4074.3125
1689.69527	4036.2125
1692.95567	3986.2125
1696.2139	3939.2125
1699.46999	3887.8125
1702.72392	3861.9125
1705.97571	3879.5125
1709.22535	3932.6125
1712.47284	3950.2125
1715.71819	3973.8125
1718.96139	3986.6125
1722.20246	3984.6125
1725.44139	3982.8125
1728.67818	3947.3125
1731.91284	3892.5125
1735.14537	3866.3125
1738.37576	3832.9125
1741.60403	3803.0125
1744.83017	3780.4125
1748.05418	3770.4125
1751.27607	3751.9125
1754.49584	3725.5125
1757.71349	3687.6125
1760.92903	3679.5125
1764.14244	3655.8125
1767.35375	3666.7125
1770.56294	3652.2125
1773.77002	3652.4125
1776.97499	3652.0125
1780.17785	3659.1125
1783.37861	3672.1125
1786.57727	3660.7125
1789.77382	3669.4125
1792.96828	3660.3125
1796.16064	3658.4125
1799.3509	3660.7125
1802.53907	3665.8125
1805.72514	3641.2125
1808.90913	3638.0125
1812.09102	3613.8125
1815.27083	3599.2125
1818.44856	3611.3125
1821.6242	3589.0125
1824.79776	3579.2125
1827.96924	3570.5125
1831.13864	3591.8125
1834.30597	3583.4125
1837.47122	3577.5125
1840.6344	3572.4125
1843.7955	3563.7125
1846.95454	3570.1125
1850.11151	3571.2125
1853.26642	3573.3125
1856.41926	3564.1125
1859.57004	3570.5125
1862.71876	3568.8125
1865.86542	3590.0125
1869.01003	3574.1125
1872.15258	3586.8125
1875.29308	3587.7125
1878.43152	3571.2125
1881.56792	3593.2125
1884.70227	3587.0125
1887.83457	3596.2125
1890.96482	3602.8125
1894.09304	3599.7125
1897.21921	3614.5125
1900.34335	3610.6125
1903.46544	3606.8125
1906.58551	3604.3125
1909.70353	3605.3125
1912.81953	3610.9125
1915.93349	3598.5125
1919.04543	3591.2125
1922.15534	3589.0125
1925.26322	3572.9125
1928.36908	3552.3125
1931.47292	3540.2125
1934.57473	3508.1125
1937.67453	3511.3125
1940.77232	3470.6125
1943.86808	3458.3125
1946.96184	3429.8125
1950.05358	3432.9125
1953.14331	3401.3125
1956.23103	3386.0125
1959.31675	3386.9125
1962.40046	3369.7125
1965.48217	3347.9125
1968.56188	3339.2125
1971.63959	3332.7125
1974.7153	3321.8125
1977.78901	3304.7125
1980.86073	3296.8125
1983.93046	3284.6125
1986.99819	3271.4125
1990.06394	3247.3125
1993.1277	3235.3125
1996.18947	3227.6125
1999.24925	3219.4125
2002.30706	3206.6125
2005.36288	3204.4125
2008.41672	3186.9125
2011.46859	3178.0125
2014.51848	3170.2125
2017.56639	3165.8125
2020.61233	3140.8125
2023.6563	3125.4125
2026.6983	3121.0125
2029.73833	3107.4125
2032.7764	3109.2125
2035.8125	3105.8125
2038.84664	3096.2125
2041.87881	3095.5125
2044.90903	3090.1125
2047.93729	3080.2125
2050.96359	3064.0125
2053.98794	3058.4125
2057.01034	3051.3125
2060.03078	3052.7125
2063.04927	3050.6125
2066.06582	3052.6125
2069.08042	3034.4125
2072.09307	3032.3125
2075.10378	3039.3125
2078.11255	3035.8125
2081.11938	3029.8125
2084.12426	3034.9125
2087.12722	3030.9125
2090.12824	3024.6125
2093.12732	3023.9125
2096.12447	3017.7125
2099.11969	3022.9125
2102.11299	3017.2125
2105.10435	3007.6125
2108.09379	3019.4125
2111.08131	3029.8125
2114.0669	3025.1125
2117.05057	3017.1125
2120.03233	3015.1125
2123.01216	3022.8125
2125.99008	3035.8125
2128.96609	3019.1125
2131.94018	3015.3125
2134.91236	3015.8125
2137.88263	3020.1125
2140.851	3017.8125
2143.81746	3013.4125
2146.78201	3017.7125
2149.74466	3024.4125
2152.7054	3008.4125
2155.66425	2998.3125
2158.6212	3001.2125
2161.57625	3003.8125
2164.52941	2988.8125
2167.48067	2991.8125
2170.43004	2994.1125
2173.37752	2991.5125
2176.32311	2986.7125
2179.26681	2993.8125
2182.20863	2999.7125
2185.14856	2977.0125
2188.08661	2991.2125
2191.02278	2979.5125
2193.95707	2978.4125
2196.88948	2980.5125
2199.82001	2972.5125
2202.74867	2977.8125
2205.67545	2965.8125
2208.60037	2966.9125
2211.52341	2956.7125
2214.44458	2942.9125
2217.36388	2943.9125
2220.28132	2934.1125
2223.1969	2914.7125
2226.11061	2909.5125
2229.02246	2904.8125
2231.93245	2899.8125
2234.84058	2903.6125
2237.74686	2901.2125
2240.65128	2890.6125
2243.55385	2893.1125
2246.45456	2872.7125
2249.35343	2874.8125
2252.25044	2872.1125
2255.14561	2886.2125
2258.03893	2866.7125
2260.93041	2854.5125
2263.82004	2861.5125
2266.70783	2851.8125
2269.59378	2846.7125
2272.4779	2846.1125
2275.36017	2830.5125
2278.24061	2822.5125
2281.11922	2815.1125
2283.996	2808.5125
2286.87094	2809.2125
2289.74405	2791.8125
2292.61534	2796.2125
2295.4848	2784.2125
2298.35243	2787.7125
2301.21824	2782.9125
2304.08223	2782.2125
2306.94439	2769.6125
2309.80474	2767.9125
2312.66327	2773.9125
2315.51999	2761.8125
2318.37489	2767.9125
2321.22797	2762.1125
2324.07925	2762.7125
2326.92871	2758.5125
2329.77637	2751.6125
2332.62222	2749.3125
2335.46626	2729.5125
2338.3085	2729.2125
2341.14893	2741.8125
2343.98756	2726.2125
2346.8244	2730.4125
2349.65943	2732.7125
2352.49267	2731.3125
2355.32411	2741.5125
2358.15376	2750.7125
2360.98161	2739.5125
2363.80768	2751.1125
2366.63195	2745.9125
2369.45444	2759.5125
2372.27514	2751.0125
2375.09405	2748.0125
2377.91118	2728.6125
2380.72652	2713.0125
2383.54009	2712.5125
2386.35187	2698.4125
2389.16188	2688.4125
2391.97011	2674.6125
2394.77657	2667.3125
2397.58125	2659.7125
2400.38416	2648.8125
2403.18529	2650.9125
2405.98466	2638.2125
2408.78226	2627.4125
2411.57809	2621.6125
2414.37216	2615.9125
2417.16446	2612.2125
2419.955	2607.7125
2422.74378	2617.2125
2425.5308	2611.9125
2428.31606	2604.8125
2431.09956	2611.9125
2433.88131	2597.9125
2436.6613	2611.3125
2439.43954	2602.3125
2442.21603	2601.3125
2444.99077	2611.1125
2447.76377	2614.7125
2450.53501	2613.8125
2453.30451	2602.1125
2456.07226	2595.1125
2458.83827	2584.6125
2461.60254	2605.0125
2464.36507	2590.2125
2467.12586	2595.4125
2469.88492	2587.1125
2472.64224	2594.5125
2475.39782	2594.5125
2478.15167	2590.7125
2480.90379	2586.6125
2483.65417	2590.1125
2486.40283	2587.5125
2489.14976	2598.3125
2491.89497	2609.6125
2494.63845	2602.5125
2497.3802	2606.3125
2500.12024	2595.6125
2502.85855	2604.8125
2505.59514	2583.8125
2508.33002	2583.0125
2511.06318	2569.2125
2513.79462	2561.7125
2516.52435	2557.2125
2519.25237	2554.1125
2521.97867	2543.0125
2524.70327	2539.3125
2527.42616	2531.2125
2530.14734	2527.1125
2532.86681	2520.4125
2535.58458	2511.0125
2538.30065	2522.0125
2541.01501	2525.0125
2543.72768	2529.7125
2546.43864	2527.4125
2549.14791	2521.0125
2551.85548	2514.6125
2554.56136	2512.6125
2557.26554	2509.1125
2559.96803	2502.0125
2562.66883	2502.8125
2565.36794	2495.1125
2568.06536	2494.0125
2570.7611	2483.6125
2573.45514	2469.7125
2576.14751	2478.3125
2578.83819	2488.8125
2581.52719	2476.1125
2584.21451	2482.6125
2586.90015	2477.0125
2589.58411	2456.6125
2592.2664	2453.4125
2594.94701	2462.0125
2597.62594	2463.3125
2600.30321	2461.5125
2602.9788	2458.3125
2605.65273	2448.8125
2608.32498	2452.3125
2610.99557	2452.4125
2613.66449	2456.8125
2616.33175	2454.2125
2618.99734	2463.2125
2621.66128	2450.1125
2624.32355	2433.5125
2626.98416	2435.7125
2629.64311	2442.9125
2632.30041	2439.6125
2634.95605	2426.3125
2637.61004	2421.4125
2640.26238	2413.0125
2642.91306	2420.1125
2645.56209	2410.7125
2648.20948	2402.2125
2650.85521	2408.7125
2653.4993	2408.9125
2656.14175	2409.8125
2658.78255	2416.8125
2661.42171	2406.2125
2664.05923	2413.2125
2666.6951	2427.5125
2669.32934	2428.2125
2671.96194	2420.3125
2674.59291	2430.6125
2677.22224	2420.8125
2679.84993	2433.0125
2682.476	2428.2125
2685.10043	2426.2125
2687.72324	2427.8125
2690.34441	2421.8125
2692.96396	2424.4125
2695.58188	2435.9125
2698.19818	2445.0125
2700.81285	2441.1125
2703.4259	2426.1125
2706.03733	2415.3125
2708.64714	2399.9125
2711.25533	2428.8125
2713.86191	2436.0125
2716.46687	2438.8125
2719.07021	2446.1125
2721.67194	2452.0125
2724.27206	2450.9125
2726.87057	2453.2125
2729.46747	2454.0125
2732.06276	2453.0125
2734.65644	2448.4125
2737.24852	2445.0125
2739.83899	2448.5125
2742.42786	2429.3125
2745.01513	2425.1125
2747.60079	2427.3125
2750.18486	2427.8125
2752.76733	2424.1125
2755.3482	2417.1125
2757.92747	2415.7125
2760.50515	2416.7125
2763.08123	2415.9125
2765.65573	2422.8125
2768.22863	2412.6125
2770.79994	2413.7125
2773.36967	2420.9125
2775.9378	2419.1125
2778.50435	2416.0125
2781.06932	2422.2125
2783.6327	2412.1125
2786.1945	2420.2125
2788.75471	2415.0125
2791.31335	2414.9125
2793.87041	2427.1125
2796.42589	2411.4125
2798.97979	2439.9125
2801.53212	2430.0125
2804.08288	2432.2125
2806.63206	2426.9125
2809.17967	2422.4125
2811.72571	2431.8125
2814.27018	2440.3125
2816.81308	2446.1125
2819.35442	2443.4125
2821.89419	2457.1125
2824.43239	2458.4125
2826.96904	2460.8125
2829.50412	2465.9125
2832.03763	2467.1125
2834.56959	2484.1125
2837.1	2483.4125
2839.62884	2492.9125
2842.15613	2517.5125
2844.68186	2549.8125
2847.20604	2590.8125
2849.72867	2632.5125
2852.24974	2638.8125
2854.76927	2631.6125
2857.28724	2631.2125
2859.80367	2612.9125
2862.31855	2615.4125
2864.83189	2595.6125
2867.34368	2584.3125
2869.85393	2567.4125
2872.36264	2574.8125
2874.8698	2579.9125
2877.37543	2572.8125
2879.87952	2563.4125
2882.38207	2555.1125
2884.88308	2568.2125
2887.38256	2567.3125
2889.88051	2556.0125
2892.37692	2551.5125
2894.8718	2554.4125
2897.36515	2560.6125
2899.85698	2561.9125
2902.34727	2553.3125
2904.83604	2573.8125
2907.32328	2573.6125
2909.809	2562.9125
2912.29319	2540.1125
2914.77587	2540.4125
2917.25702	2550.6125
2919.73665	2544.7125
2922.21476	2545.8125
2924.69136	2537.3125
2927.16644	2534.8125
2929.64	2534.6125
2932.11205	2524.8125
2934.58258	2505.5125
2937.05161	2509.7125
2939.51912	2475.2125
2941.98513	2458.1125
2944.44962	2443.2125
2946.91261	2393.0125
2949.37409	2394.5125
2951.83407	2381.3125
2954.29254	2345.1125
2956.74951	2344.8125
2959.20498	2338.6125
2961.65895	2325.6125
2964.11142	2321.9125
2966.56239	2314.0125
2969.01186	2299.1125
2971.45984	2294.7125
2973.90632	2285.2125
2976.35131	2272.6125
2978.7948	2257.2125
2981.23681	2256.9125
2983.67732	2247.2125
2986.11635	2230.0125
2988.55388	2236.4125
2990.98993	2209.1125
2993.4245	2202.8125
2995.85758	2203.9125
2998.28917	2184.6125
3000.71928	2190.7125
3003.14791	2185.1125
3005.57506	2180.9125
3008.00073	2164.0125
3010.42493	2173.1125
3012.84764	2169.9125
3015.26888	2173.3125
3017.68865	2169.5125
3020.10694	2150.4125
3022.52376	2151.3125
3024.9391	2162.7125
3027.35298	2139.4125
3029.76539	2148.4125
3032.17632	2152.1125
3034.5858	2132.6125
3036.9938	2131.6125
3039.40034	2137.1125
3041.80542	2141.7125
3044.20903	2128.9125
3046.61118	2118.5125
3049.01187	2125.0125
3051.4111	2120.6125
3053.80888	2122.4125
3056.20519	2129.6125
3058.60005	2131.0125
3060.99345	2115.9125
3063.3854	2102.7125
3065.7759	2102.0125
3068.16494	2111.2125
3070.55254	2101.3125
3072.93868	2097.3125
3075.32338	2090.1125
3077.70662	2095.9125
3080.08842	2080.6125
3082.46878	2083.3125
3084.84769	2073.1125
3087.22515	2072.4125
3089.60118	2068.2125
3091.97576	2072.9125
3094.3489	2075.5125
3096.72061	2080.6125
3099.09087	2071.6125
3101.4597	2056.2125
3103.82709	2067.1125
3106.19305	2071.6125
3108.55757	2060.6125
3110.92066	2071.6125
3113.28232	2064.7125
3115.64255	2063.1125
3118.00134	2054.8125
3120.35871	2062.2125
3122.71466	2047.5125
