Data from AgNPs_FTO_APTES_UA_1uM_CRN_10uM_R6G_20uM_NaF_0.1M_Addition_RamanShift__8__15-07-09-679.txt Node

Date: Thu Jan 27 15:07:09 GMT 2022
User: TCL
Spectrometer: QEP01345
Trigger mode: 4
Integration Time (sec): 7.000000E0
Scans to average: 10
Electric dark correction enabled: true
Nonlinearity correction enabled: false
Boxcar width: 0
XAxis mode: Raman Shifts
Number of Pixels in Spectrum: 1044
>>>>>Begin Spectral Data<<<<<
46.04893	1.525
50.45542	0.225
54.85868	-0.575
59.25871	-1.275
63.6555	48.725
68.04907	52.125
72.43941	53.525
76.82654	58.625
81.21044	56.225
85.59113	57.925
89.96862	59.925
94.34289	64.625
98.71396	66.025
103.08183	65.925
107.4465	70.525
111.80798	69.725
116.16626	69.625
120.52136	79.125
124.87327	77.825
129.222	76.225
133.56755	81.425
137.90993	88.325
142.24913	96.525
146.58517	107.225
150.91804	124.425
155.24774	140.925
159.57429	169.325
163.89768	215.825
168.21792	293.025
172.53501	391.125
176.84895	540.425
181.15975	747.825
185.46741	1050.025
189.77193	1445.825
194.07331	1935.625
198.37157	2497.725
202.6667	3098.725
206.9587	3680.525
211.24758	4252.925
215.53334	4822.425
219.81599	5420.425
224.09553	6068.325
228.37195	6793.625
232.64527	7577.225
236.91549	8407.125
241.18261	9289.225
245.44663	10092.025
249.70755	10844.325
253.96539	11493.725
258.22014	12062.725
262.4718	12507.725
266.72039	12816.325
270.96589	12986.925
275.20832	13014.625
279.44768	12947.225
283.68397	12823.125
287.91719	12723.825
292.14735	12627.825
296.37445	12606.425
300.59849	12625.325
304.81948	12657.525
309.03742	12645.025
313.25231	12573.625
317.46415	12409.725
321.67296	12204.625
325.87872	11974.525
330.08145	11875.325
334.28114	11856.825
338.47781	11949.625
342.67145	12059.825
346.86207	12237.225
351.04966	12439.125
355.23424	12642.925
359.4158	12808.025
363.59435	12924.425
367.76989	13039.525
371.94243	13124.225
376.11196	13171.225
380.27849	13215.025
384.44203	13263.325
388.60257	13367.625
392.76012	13511.125
396.91468	13659.725
401.06626	13852.825
405.21485	13987.325
409.36047	13947.625
413.50311	13824.625
417.64277	13760.925
421.77947	13805.225
425.9132	13879.125
430.04396	13937.825
434.17176	14006.825
438.2966	14053.525
442.41849	14190.625
446.53742	14446.025
450.6534	14752.825
454.76644	14949.325
458.87653	15027.925
462.98368	15018.525
467.08789	14916.025
471.18916	14767.025
475.2875	14604.525
479.38291	14487.025
483.4754	14398.125
487.56496	14298.725
491.6516	14143.225
495.73531	14020.825
499.81612	13953.425
503.89401	14007.225
507.96899	14104.525
512.04106	14128.625
516.11023	14042.925
520.1765	13925.725
524.23987	13801.525
528.30034	13717.625
532.35792	13595.925
536.41261	13470.325
540.46441	13397.525
544.51333	13356.825
548.55936	13506.325
552.60252	13700.425
556.64279	13941.725
560.6802	14126.325
564.71473	14215.325
568.7464	14344.025
572.7752	14673.325
576.80114	15076.825
580.82422	15440.825
584.84444	15961.925
588.86181	16470.625
592.87633	16930.425
596.888	16853.025
600.89682	16292.625
604.9028	16011.925
608.90594	16608.625
612.90624	17348.925
616.90371	16575.225
620.89834	14667.325
624.89015	13774.225
628.87913	13668.525
632.86528	13771.525
636.84862	13812.625
640.82913	13648.925
644.80683	13395.125
648.78172	13246.625
652.75379	13232.025
656.72306	13345.125
660.68952	13493.725
664.65319	13451.025
668.61405	13289.825
672.57211	13255.225
676.52738	13321.225
680.47986	13305.325
684.42955	13239.425
688.37646	13202.325
692.32058	13221.925
696.26192	13378.225
700.20048	13521.125
704.13626	13605.225
708.06928	13600.725
711.99952	13594.025
715.927	13569.325
719.85171	13589.725
723.77365	13550.225
727.69284	13411.125
731.60928	13219.125
735.52295	13167.825
739.43388	13153.625
743.34206	13189.225
747.24749	13238.425
751.15017	13369.125
755.05012	13533.525
758.94733	13827.225
762.8418	14285.125
766.73354	15028.425
770.62254	15673.325
774.50882	15757.725
778.39237	15291.225
782.27321	14535.325
786.15132	13933.825
790.02671	13493.325
793.89938	13299.525
797.76935	13198.925
801.6366	13166.825
805.50115	13149.025
809.36299	13070.325
813.22213	13012.925
817.07857	12944.425
820.93231	12914.825
824.78336	12875.825
828.63172	12814.725
832.47738	12841.325
836.32036	12822.525
840.16066	12826.125
843.99827	12806.225
847.8332	12794.725
851.66546	12785.425
855.49504	12792.625
859.32195	12810.625
863.1462	12783.725
866.96777	12746.425
870.78668	12738.225
874.60293	12769.925
878.41652	12778.225
882.22745	12828.025
886.03573	12854.425
889.84136	12850.325
893.64433	12827.325
897.44466	12750.625
901.24235	12744.925
905.0374	12710.925
908.8298	12650.625
912.61957	12671.325
916.40671	12763.925
920.19121	12905.625
923.97308	13026.325
927.75233	13002.725
931.52895	12894.925
935.30295	12746.825
939.07433	12563.625
942.84309	12458.725
946.60924	12375.325
950.37278	12337.925
954.13371	12348.225
957.89203	12322.025
961.64774	12326.725
965.40086	12306.825
969.15137	12277.625
972.89929	12230.625
976.64461	12184.525
980.38733	12201.825
984.12747	12189.725
987.86502	12233.025
991.59999	12286.325
995.33237	12363.125
999.06217	12466.325
1002.78939	12651.125
1006.51404	12826.825
1010.23611	13022.825
1013.95561	13126.525
1017.67255	13155.425
1021.38692	13100.225
1025.09872	12964.925
1028.80796	12821.225
1032.51465	12818.425
1036.21877	12860.325
1039.92035	12896.625
1043.61937	12919.125
1047.31584	12893.625
1051.00976	12899.725
1054.70114	12902.425
1058.38998	12972.225
1062.07627	13059.825
1065.76003	13173.825
1069.44126	13308.825
1073.11995	13505.525
1076.79611	13677.925
1080.46974	13746.925
1084.14085	13791.825
1087.80943	13874.525
1091.47549	13964.225
1095.13903	13989.525
1098.80005	13847.925
1102.45857	13603.325
1106.11456	13379.525
1109.76805	13240.725
1113.41903	13227.125
1117.06751	13269.225
1120.71348	13345.125
1124.35696	13473.325
1127.99793	13585.725
1131.63641	13660.925
1135.2724	13624.425
1138.90589	13567.225
1142.5369	13584.525
1146.16542	13657.425
1149.79145	13707.625
1153.415	13790.125
1157.03607	13904.325
1160.65467	14194.725
1164.27079	14676.025
1167.88443	15257.025
1171.49561	15914.625
1175.10432	16683.825
1178.71056	17587.225
1182.31434	18506.325
1185.91565	18946.125
1189.51451	18952.525
1193.11091	18714.325
1196.70485	18245.525
1200.29634	17722.725
1203.88538	17335.925
1207.47197	17093.125
1211.05612	16962.725
1214.63782	16725.625
1218.21708	16307.925
1221.79391	15887.425
1225.36829	15574.425
1228.94024	15398.025
1232.50976	15273.325
1236.07685	15109.725
1239.6415	15000.925
1243.20374	15032.825
1246.76355	15107.525
1250.32093	15286.725
1253.8759	15499.725
1257.42845	15808.425
1260.97859	16176.025
1264.52631	16554.225
1268.07163	16876.325
1271.61453	17252.325
1275.15503	17599.925
1278.69312	18011.425
1282.22882	18362.925
1285.76211	18891.825
1289.29301	19508.825
1292.82151	20224.725
1296.34761	21138.325
1299.87133	22164.225
1303.39266	23164.025
1306.9116	24093.025
1310.42815	24731.125
1313.94233	25008.325
1317.45412	24847.025
1320.96354	24478.325
1324.47058	24207.525
1327.97525	24011.025
1331.47754	23962.625
1334.97747	23893.725
1338.47502	23814.025
1341.97022	23684.725
1345.46305	23462.225
1348.95352	23302.425
1352.44163	23273.725
1355.92738	23505.125
1359.41078	24054.125
1362.89183	24597.525
1366.37053	24284.425
1369.84688	22832.925
1373.32088	20784.925
1376.79254	19297.625
1380.26186	18744.225
1383.72883	18718.825
1387.19347	18747.625
1390.65578	18561.025
1394.11575	18408.925
1397.57339	18493.025
1401.0287	18707.425
1404.48168	18890.325
1407.93234	18870.725
1411.38068	18617.225
1414.82669	18101.325
1418.27039	17498.125
1421.71177	16899.625
1425.15083	16422.625
1428.58758	16228.625
1432.02203	16329.325
1435.45416	16660.125
1438.88399	17083.325
1442.31151	17415.025
1445.73673	17575.125
1449.15965	17649.225
1452.58027	17674.025
1455.9986	17682.825
1459.41463	17748.025
1462.82837	17917.025
1466.23982	18199.525
1469.64898	18470.725
1473.05586	18642.925
1476.46045	18668.225
1479.86276	18582.325
1483.26279	18454.525
1486.66054	18374.425
1490.05602	18430.025
1493.44922	18648.525
1496.84016	18888.925
1500.22882	19205.825
1503.61521	19700.225
1506.99934	20208.425
1510.38121	20644.025
1513.76081	20672.825
1517.13816	20345.025
1520.51324	19925.325
1523.88607	19576.925
1527.25665	19444.425
1530.62498	19416.425
1533.99105	19285.425
1537.35488	19048.925
1540.71647	18687.825
1544.07581	18196.725
1547.4329	17779.725
1550.78776	17383.925
1554.14038	17111.225
1557.49077	16964.325
1560.83892	16894.425
1564.18484	16876.025
1567.52853	16894.025
1570.86999	17034.325
1574.20922	17328.625
1577.54624	17560.925
1580.88103	17709.225
1584.2136	17810.425
1587.54395	18163.025
1590.87208	18837.925
1594.19801	19736.325
1597.52172	20623.325
1600.84321	20789.225
1604.16251	20002.625
1607.47959	18727.725
1610.79447	17381.125
1614.10715	16155.625
1617.41763	15152.625
1620.7259	14445.625
1624.03199	14057.525
1627.33587	14014.425
1630.63757	14316.325
1633.93707	14993.525
1637.23439	16158.125
1640.52951	18008.225
1643.82246	20125.025
1647.11321	21836.225
1650.40179	22272.125
1653.68819	20899.625
1656.97241	18489.525
1660.25446	16149.825
1663.53433	14329.825
1666.81203	13200.825
1670.08756	12502.525
1673.36092	12092.025
1676.63211	11783.725
1679.90115	11596.225
1683.16801	11434.325
1686.43272	11293.625
1689.69527	11215.625
1692.95567	11114.125
1696.2139	11054.525
1699.46999	10985.325
1702.72392	10924.625
1705.97571	10929.125
1709.22535	10943.725
1712.47284	10956.125
1715.71819	10976.725
1718.96139	10940.025
1722.20246	10918.325
1725.44139	10887.225
1728.67818	10855.125
1731.91284	10777.425
1735.14537	10750.625
1738.37576	10695.525
1741.60403	10621.825
1744.83017	10554.925
1748.05418	10538.925
1751.27607	10501.225
1754.49584	10494.525
1757.71349	10456.725
1760.92903	10456.025
1764.14244	10435.825
1767.35375	10412.725
1770.56294	10398.525
1773.77002	10402.225
1776.97499	10401.925
1780.17785	10419.725
1783.37861	10401.225
1786.57727	10384.025
1789.77382	10383.525
1792.96828	10348.925
1796.16064	10333.725
1799.3509	10310.925
1802.53907	10309.925
1805.72514	10276.225
1808.90913	10282.625
1812.09102	10227.025
1815.27083	10207.025
1818.44856	10182.325
1821.6242	10184.125
1824.79776	10164.125
1827.96924	10138.925
1831.13864	10156.825
1834.30597	10142.825
1837.47122	10137.825
1840.6344	10133.225
1843.7955	10123.025
1846.95454	10126.825
1850.11151	10134.725
1853.26642	10104.125
1856.41926	10129.525
1859.57004	10102.125
1862.71876	10122.025
1865.86542	10087.325
1869.01003	10059.525
1872.15258	10034.225
1875.29308	10030.225
1878.43152	10021.525
1881.56792	10018.825
1884.70227	9989.725
1887.83457	9952.225
1890.96482	9945.425
1894.09304	9952.725
1897.21921	9917.625
1900.34335	9901.825
1903.46544	9918.725
1906.58551	9896.425
1909.70353	9878.225
1912.81953	9868.325
1915.93349	9842.225
1919.04543	9806.125
1922.15534	9800.125
1925.26322	9776.925
1928.36908	9741.325
1931.47292	9737.625
1934.57473	9705.125
1937.67453	9690.725
1940.77232	9665.525
1943.86808	9663.325
1946.96184	9610.625
1950.05358	9597.525
1953.14331	9565.625
1956.23103	9541.925
1959.31675	9506.925
1962.40046	9523.425
1965.48217	9456.925
1968.56188	9453.425
1971.63959	9426.925
1974.7153	9376.425
1977.78901	9348.825
1980.86073	9348.925
1983.93046	9296.025
1986.99819	9255.125
1990.06394	9240.425
1993.1277	9186.325
1996.18947	9176.925
1999.24925	9145.125
2002.30706	9125.125
2005.36288	9096.125
2008.41672	9078.125
2011.46859	9040.625
2014.51848	9005.025
2017.56639	8998.125
2020.61233	8975.925
2023.6563	8972.925
2026.6983	8932.925
2029.73833	8924.925
2032.7764	8878.925
2035.8125	8853.025
2038.84664	8835.225
2041.87881	8804.725
2044.90903	8794.925
2047.93729	8797.825
2050.96359	8770.225
2053.98794	8773.225
2057.01034	8757.725
2060.03078	8771.825
2063.04927	8766.625
2066.06582	8752.325
2069.08042	8737.125
2072.09307	8730.825
2075.10378	8730.225
2078.11255	8726.125
2081.11938	8715.925
2084.12426	8722.125
2087.12722	8716.025
2090.12824	8705.625
2093.12732	8713.625
2096.12447	8673.625
2099.11969	8697.225
2102.11299	8716.925
2105.10435	8718.225
2108.09379	8707.525
2111.08131	8722.925
2114.0669	8738.625
2117.05057	8701.825
2120.03233	8710.925
2123.01216	8729.925
2125.99008	8739.225
2128.96609	8735.625
2131.94018	8755.625
2134.91236	8752.825
2137.88263	8748.125
2140.851	8779.925
2143.81746	8766.025
2146.78201	8768.625
2149.74466	8770.025
2152.7054	8755.625
2155.66425	8752.725
2158.6212	8746.725
2161.57625	8741.525
2164.52941	8731.325
2167.48067	8741.825
2170.43004	8726.625
2173.37752	8726.825
2176.32311	8725.925
2179.26681	8718.825
2182.20863	8723.125
2185.14856	8722.325
2188.08661	8739.025
2191.02278	8758.625
2193.95707	8733.125
2196.88948	8696.625
2199.82001	8707.625
2202.74867	8694.825
2205.67545	8670.125
2208.60037	8656.025
2211.52341	8645.025
2214.44458	8647.225
2217.36388	8599.225
2220.28132	8588.325
2223.1969	8579.825
2226.11061	8573.425
2229.02246	8544.625
2231.93245	8558.425
2234.84058	8537.825
2237.74686	8508.625
2240.65128	8539.025
2243.55385	8514.525
2246.45456	8483.225
2249.35343	8487.125
2252.25044	8465.325
2255.14561	8437.225
2258.03893	8428.625
2260.93041	8423.625
2263.82004	8378.925
2266.70783	8368.925
2269.59378	8355.625
2272.4779	8323.625
2275.36017	8307.225
2278.24061	8288.725
2281.11922	8270.825
2283.996	8265.425
2286.87094	8254.525
2289.74405	8230.025
2292.61534	8227.825
2295.4848	8218.525
2298.35243	8207.525
2301.21824	8186.825
2304.08223	8219.125
2306.94439	8204.325
2309.80474	8214.625
2312.66327	8193.925
2315.51999	8187.525
2318.37489	8170.625
2321.22797	8174.425
2324.07925	8145.125
2326.92871	8147.725
2329.77637	8122.925
2332.62222	8123.625
2335.46626	8106.725
2338.3085	8072.925
2341.14893	8064.525
2343.98756	8080.425
2346.8244	8096.725
2349.65943	8079.425
2352.49267	8046.125
2355.32411	8049.225
2358.15376	8047.825
2360.98161	8065.025
2363.80768	8036.425
2366.63195	8034.825
2369.45444	8020.425
2372.27514	8011.425
2375.09405	8014.225
2377.91118	8006.925
2380.72652	7973.025
2383.54009	7962.225
2386.35187	7959.425
2389.16188	7948.425
2391.97011	7896.825
2394.77657	7906.625
2397.58125	7879.225
2400.38416	7890.325
2403.18529	7879.025
2405.98466	7853.525
2408.78226	7837.625
2411.57809	7824.025
2414.37216	7819.625
2417.16446	7821.425
2419.955	7812.225
2422.74378	7803.625
2425.5308	7803.725
2428.31606	7796.725
2431.09956	7790.325
2433.88131	7766.325
2436.6613	7780.225
2439.43954	7781.825
2442.21603	7767.625
2444.99077	7758.525
2447.76377	7753.025
2450.53501	7716.325
2453.30451	7739.125
2456.07226	7727.325
2458.83827	7728.325
2461.60254	7725.125
2464.36507	7705.525
2467.12586	7708.525
2469.88492	7694.925
2472.64224	7704.925
2475.39782	7705.325
2478.15167	7698.325
2480.90379	7688.425
2483.65417	7693.625
2486.40283	7686.925
2489.14976	7690.625
2491.89497	7681.825
2494.63845	7664.825
2497.3802	7656.525
2500.12024	7657.725
2502.85855	7666.825
2505.59514	7678.425
2508.33002	7632.325
2511.06318	7630.025
2513.79462	7623.025
2516.52435	7610.725
2519.25237	7619.925
2521.97867	7610.725
2524.70327	7615.625
2527.42616	7593.125
2530.14734	7574.025
2532.86681	7586.025
2535.58458	7561.625
2538.30065	7552.325
2541.01501	7550.625
2543.72768	7543.525
2546.43864	7538.025
2549.14791	7537.525
2551.85548	7514.625
2554.56136	7499.425
2557.26554	7499.725
2559.96803	7475.625
2562.66883	7487.125
2565.36794	7478.525
2568.06536	7477.525
2570.7611	7443.925
2573.45514	7414.825
2576.14751	7428.125
2578.83819	7422.525
2581.52719	7422.525
2584.21451	7420.225
2586.90015	7399.625
2589.58411	7367.425
2592.2664	7391.125
2594.94701	7373.025
2597.62594	7361.025
2600.30321	7339.725
2602.9788	7360.925
2605.65273	7342.425
2608.32498	7345.625
2610.99557	7337.025
2613.66449	7315.925
2616.33175	7323.225
2618.99734	7307.125
2621.66128	7328.025
2624.32355	7295.125
2626.98416	7282.025
2629.64311	7283.325
2632.30041	7280.225
2634.95605	7267.125
2637.61004	7253.425
2640.26238	7255.225
2642.91306	7256.225
2645.56209	7262.325
2648.20948	7237.925
2650.85521	7238.025
2653.4993	7243.425
2656.14175	7234.725
2658.78255	7265.025
2661.42171	7263.625
2664.05923	7248.525
2666.6951	7223.725
2669.32934	7265.225
2671.96194	7239.525
2674.59291	7262.025
2677.22224	7242.025
2679.84993	7241.425
2682.476	7253.125
2685.10043	7248.625
2687.72324	7236.825
2690.34441	7232.825
2692.96396	7245.125
2695.58188	7249.025
2698.19818	7244.125
2700.81285	7230.025
2703.4259	7221.625
2706.03733	7217.025
2708.64714	7207.625
2711.25533	7227.325
2713.86191	7226.025
2716.46687	7267.125
2719.07021	7232.625
2721.67194	7260.225
2724.27206	7250.025
2726.87057	7269.325
2729.46747	7271.925
2732.06276	7246.925
2734.65644	7254.925
2737.24852	7254.825
2739.83899	7246.425
2742.42786	7253.825
2745.01513	7237.725
2747.60079	7226.325
2750.18486	7209.625
2752.76733	7224.525
2755.3482	7212.625
2757.92747	7205.125
2760.50515	7194.325
2763.08123	7204.925
2765.65573	7186.425
2768.22863	7175.125
2770.79994	7176.725
2773.36967	7185.325
2775.9378	7178.525
2778.50435	7165.525
2781.06932	7154.225
2783.6327	7145.825
2786.1945	7127.325
2788.75471	7116.325
2791.31335	7105.325
2793.87041	7107.625
2796.42589	7094.525
2798.97979	7103.125
2801.53212	7083.625
2804.08288	7067.025
2806.63206	7038.325
2809.17967	7020.925
2811.72571	7006.725
2814.27018	7001.825
2816.81308	6984.925
2819.35442	6990.325
2821.89419	6972.025
2824.43239	6974.625
2826.96904	6970.325
2829.50412	6968.625
2832.03763	6921.125
2834.56959	6970.625
2837.1	6928.125
2839.62884	6944.125
2842.15613	6915.925
2844.68186	6927.325
2847.20604	6928.725
2849.72867	6929.725
2852.24974	6928.225
2854.76927	6939.925
2857.28724	6894.225
2859.80367	6907.125
2862.31855	6913.225
2864.83189	6859.825
2867.34368	6847.925
2869.85393	6883.225
2872.36264	6869.225
2874.8698	6859.725
2877.37543	6852.225
2879.87952	6836.625
2882.38207	6840.225
2884.88308	6843.025
2887.38256	6847.325
2889.88051	6849.025
2892.37692	6839.125
2894.8718	6837.025
2897.36515	6829.025
2899.85698	6843.525
2902.34727	6864.725
2904.83604	6843.425
2907.32328	6861.325
2909.809	6846.825
2912.29319	6856.125
2914.77587	6871.325
2917.25702	6856.925
2919.73665	6853.725
2922.21476	6847.625
2924.69136	6842.225
2927.16644	6840.225
2929.64	6827.225
2932.11205	6842.125
2934.58258	6806.025
2937.05161	6828.825
2939.51912	6831.925
2941.98513	6809.025
2944.44962	6784.625
2946.91261	6770.625
2949.37409	6780.525
2951.83407	6776.125
2954.29254	6758.225
2956.74951	6746.225
2959.20498	6749.525
2961.65895	6761.525
2964.11142	6728.225
2966.56239	6726.825
2969.01186	6720.825
2971.45984	6710.325
2973.90632	6710.625
2976.35131	6690.325
2978.7948	6684.425
2981.23681	6657.825
2983.67732	6666.825
2986.11635	6625.925
2988.55388	6613.325
2990.98993	6617.725
2993.4245	6595.425
2995.85758	6584.325
2998.28917	6576.525
3000.71928	6573.525
3003.14791	6537.925
3005.57506	6543.425
3008.00073	6515.525
3010.42493	6514.925
3012.84764	6507.825
3015.26888	6504.525
3017.68865	6494.725
3020.10694	6486.125
3022.52376	6465.225
3024.9391	6455.625
3027.35298	6452.525
3029.76539	6455.825
3032.17632	6440.225
3034.5858	6425.025
3036.9938	6420.325
3039.40034	6423.125
3041.80542	6421.525
3044.20903	6420.625
3046.61118	6420.825
3049.01187	6392.725
3051.4111	6411.425
3053.80888	6391.425
3056.20519	6352.525
3058.60005	6350.625
3060.99345	6332.525
3063.3854	6312.325
3065.7759	6308.825
3068.16494	6287.425
3070.55254	6296.625
3072.93868	6268.525
3075.32338	6250.425
3077.70662	6273.525
3080.08842	6240.325
3082.46878	6239.525
3084.84769	6220.425
3087.22515	6215.825
3089.60118	6213.325
3091.97576	6207.325
3094.3489	6229.025
3096.72061	6213.325
3099.09087	6227.725
3101.4597	6212.325
3103.82709	6213.425
3106.19305	6200.625
3108.55757	6209.625
3110.92066	6183.425
3113.28232	6174.325
3115.64255	6179.725
3118.00134	6170.225
3120.35871	6148.825
3122.71466	6140.825
3125.06917	6117.725
3127.42226	6108.625
3129.77393	6129.625
3132.12417	6120.125
3134.47299	6118.625
3136.82039	6086.025
3139.16636	6103.625
3141.51092	6105.725
3143.85406	6122.425
3146.19579	6122.125
3148.53609	6122.725
3150.87499	6136.425
3153.21246	6145.625
3155.54853	6139.625
3157.88318	6125.325
3160.21642	6119.825
3162.54826	6144.425
3164.87868	6111.825
3167.2077	6113.325
3169.5353	6153.225
3171.86151	6141.325
3174.18631	6140.525
3176.5097	6144.625
3178.83169	6114.425
3181.15228	6107.325
3183.47147	6122.925
