Data from AgNPs_FTO_APTES_UA_1uM_CRN_2uM_R6G_10uM_NaF_0.1M_Addition_RamanShift__9__13-05-49-539.txt Node

Date: Thu Jan 27 13:05:49 GMT 2022
User: TCL
Spectrometer: QEP01345
Trigger mode: 4
Integration Time (sec): 7.000000E0
Scans to average: 10
Electric dark correction enabled: true
Nonlinearity correction enabled: false
Boxcar width: 0
XAxis mode: Raman Shifts
Number of Pixels in Spectrum: 1044
>>>>>Begin Spectral Data<<<<<
46.04893	0.4625
50.45542	1.0625
54.85868	-1.2375
59.25871	-1.2375
63.6555	60.9625
68.04907	63.7625
72.43941	65.3625
76.82654	70.9625
81.21044	72.3625
85.59113	71.8625
89.96862	77.3625
94.34289	77.8625
98.71396	84.1625
103.08183	79.8625
107.4465	84.8625
111.80798	90.7625
116.16626	91.7625
120.52136	95.1625
124.87327	97.4625
129.222	99.6625
133.56755	107.1625
137.90993	113.2625
142.24913	125.6625
146.58517	136.4625
150.91804	160.8625
155.24774	189.7625
159.57429	228.8625
163.89768	296.0625
168.21792	389.2625
172.53501	526.6625
176.84895	733.1625
181.15975	1025.0625
185.46741	1435.6625
189.77193	1981.1625
194.07331	2652.9625
198.37157	3415.8625
202.6667	4235.0625
206.9587	5044.1625
211.24758	5825.4625
215.53334	6615.2625
219.81599	7429.5625
224.09553	8322.6625
228.37195	9361.5625
232.64527	10430.1625
236.91549	11627.8625
241.18261	12815.1625
245.44663	13901.8625
249.70755	14957.0625
253.96539	15853.3625
258.22014	16614.7625
262.4718	17221.0625
266.72039	17640.9625
270.96589	17813.1625
275.20832	17861.1625
279.44768	17757.4625
283.68397	17549.8625
287.91719	17369.8625
292.14735	17216.8625
296.37445	17131.0625
300.59849	17106.4625
304.81948	17190.1625
309.03742	17176.3625
313.25231	17128.1625
317.46415	16905.5625
321.67296	16642.7625
325.87872	16412.9625
330.08145	16343.1625
334.28114	16332.9625
338.47781	16422.2625
342.67145	16592.4625
346.86207	16862.2625
351.04966	17138.7625
355.23424	17465.9625
359.4158	17736.1625
363.59435	17942.5625
367.76989	18125.0625
371.94243	18206.3625
376.11196	18293.5625
380.27849	18342.6625
384.44203	18434.3625
388.60257	18548.8625
392.76012	18733.3625
396.91468	18954.8625
401.06626	19221.5625
405.21485	19385.2625
409.36047	19374.8625
413.50311	19208.5625
417.64277	19158.5625
421.77947	19237.6625
425.9132	19344.1625
430.04396	19457.9625
434.17176	19525.0625
438.2966	19581.2625
442.41849	19781.6625
446.53742	20129.6625
450.6534	20539.2625
454.76644	20777.8625
458.87653	20897.7625
462.98368	20813.6625
467.08789	20565.3625
471.18916	20370.5625
475.2875	20060.7625
479.38291	19848.0625
483.4754	19665.6625
487.56496	19530.8625
491.6516	19380.6625
495.73531	19261.5625
499.81612	19241.4625
503.89401	19381.8625
507.96899	19472.6625
512.04106	19534.8625
516.11023	19453.1625
520.1765	19320.6625
524.23987	19109.7625
528.30034	18936.1625
532.35792	18775.0625
536.41261	18643.3625
540.46441	18496.4625
544.51333	18422.0625
548.55936	18527.0625
552.60252	18784.0625
556.64279	19158.1625
560.6802	19386.2625
564.71473	19516.5625
568.7464	19656.8625
572.7752	20037.7625
576.80114	20597.0625
580.82422	21247.8625
584.84444	22139.5625
588.86181	23221.0625
592.87633	24143.6625
596.888	23997.5625
600.89682	22912.4625
604.9028	22369.9625
608.90594	23192.2625
612.90624	24402.1625
616.90371	23367.9625
620.89834	20502.2625
624.89015	19195.7625
628.87913	19043.1625
632.86528	19185.5625
636.84862	19165.7625
640.82913	18890.5625
644.80683	18531.6625
648.78172	18325.0625
652.75379	18350.2625
656.72306	18534.2625
660.68952	18754.1625
664.65319	18671.1625
668.61405	18423.2625
672.57211	18367.9625
676.52738	18449.9625
680.47986	18432.8625
684.42955	18343.8625
688.37646	18230.5625
692.32058	18314.2625
696.26192	18550.8625
700.20048	18784.2625
704.13626	18905.1625
708.06928	18911.5625
711.99952	18871.1625
715.927	18866.5625
719.85171	18891.2625
723.77365	18819.5625
727.69284	18588.8625
731.60928	18371.0625
735.52295	18287.0625
739.43388	18272.2625
743.34206	18346.1625
747.24749	18387.0625
751.15017	18542.1625
755.05012	18800.6625
758.94733	19181.8625
762.8418	19853.2625
766.73354	20876.9625
770.62254	21812.0625
774.50882	21985.3625
778.39237	21310.8625
782.27321	20311.3625
786.15132	19408.4625
790.02671	18802.8625
793.89938	18501.2625
797.76935	18391.5625
801.6366	18331.1625
805.50115	18322.0625
809.36299	18209.4625
813.22213	18104.7625
817.07857	18025.5625
820.93231	17968.4625
824.78336	17886.0625
828.63172	17852.8625
832.47738	17843.7625
836.32036	17813.2625
840.16066	17840.7625
843.99827	17788.9625
847.8332	17801.4625
851.66546	17764.5625
855.49504	17836.4625
859.32195	17819.2625
863.1462	17787.4625
866.96777	17798.6625
870.78668	17779.8625
874.60293	17786.3625
878.41652	17787.0625
882.22745	17888.1625
886.03573	17907.1625
889.84136	17907.2625
893.64433	17862.2625
897.44466	17818.3625
901.24235	17738.2625
905.0374	17683.8625
908.8298	17643.5625
912.61957	17610.2625
916.40671	17754.7625
920.19121	17966.2625
923.97308	18109.7625
927.75233	18161.1625
931.52895	18062.0625
935.30295	17829.2625
939.07433	17616.3625
942.84309	17397.0625
946.60924	17326.9625
950.37278	17293.1625
954.13371	17299.9625
957.89203	17280.0625
961.64774	17219.6625
965.40086	17201.4625
969.15137	17178.5625
972.89929	17171.4625
976.64461	17094.0625
980.38733	17092.2625
984.12747	17109.4625
987.86502	17177.1625
991.59999	17280.7625
995.33237	17402.0625
999.06217	17664.7625
1002.78939	17941.3625
1006.51404	18319.8625
1010.23611	18595.6625
1013.95561	18748.2625
1017.67255	18737.2625
1021.38692	18597.0625
1025.09872	18322.0625
1028.80796	18125.9625
1032.51465	18156.8625
1036.21877	18245.3625
1039.92035	18349.2625
1043.61937	18348.5625
1047.31584	18287.1625
1051.00976	18207.2625
1054.70114	18172.7625
1058.38998	18267.2625
1062.07627	18383.7625
1065.76003	18516.1625
1069.44126	18715.2625
1073.11995	19018.6625
1076.79611	19287.5625
1080.46974	19429.0625
1084.14085	19510.2625
1087.80943	19643.4625
1091.47549	19752.4625
1095.13903	19817.6625
1098.80005	19631.6625
1102.45857	19291.2625
1106.11456	18963.5625
1109.76805	18718.6625
1113.41903	18702.5625
1117.06751	18736.4625
1120.71348	18831.6625
1124.35696	18959.5625
1127.99793	19131.2625
1131.63641	19274.5625
1135.2724	19197.4625
1138.90589	19133.6625
1142.5369	19162.9625
1146.16542	19295.0625
1149.79145	19349.6625
1153.415	19413.3625
1157.03607	19544.4625
1160.65467	19939.3625
1164.27079	20657.7625
1167.88443	21498.0625
1171.49561	22384.9625
1175.10432	23414.3625
1178.71056	24728.6625
1182.31434	26041.4625
1185.91565	26717.3625
1189.51451	26704.9625
1193.11091	26212.5625
1196.70485	25593.5625
1200.29634	24883.8625
1203.88538	24353.7625
1207.47197	24115.3625
1211.05612	23944.8625
1214.63782	23563.6625
1218.21708	23057.8625
1221.79391	22470.2625
1225.36829	22033.4625
1228.94024	21791.2625
1232.50976	21583.3625
1236.07685	21352.6625
1239.6415	21193.1625
1243.20374	21152.5625
1246.76355	21324.3625
1250.32093	21597.5625
1253.8759	21914.1625
1257.42845	22432.1625
1260.97859	22970.3625
1264.52631	23563.5625
1268.07163	24102.3625
1271.61453	24640.0625
1275.15503	25202.4625
1278.69312	25740.9625
1282.22882	26292.9625
1285.76211	26974.2625
1289.29301	27823.5625
1292.82151	28819.3625
1296.34761	30099.3625
1299.87133	31610.2625
1303.39266	33152.0625
1306.9116	34603.6625
1310.42815	35627.3625
1313.94233	36028.5625
1317.45412	35697.1625
1320.96354	34994.8625
1324.47058	34392.7625
1327.97525	34014.0625
1331.47754	33878.7625
1334.97747	33684.8625
1338.47502	33449.5625
1341.97022	33119.5625
1345.46305	32704.1625
1348.95352	32434.2625
1352.44163	32429.1625
1355.92738	33052.3625
1359.41078	34307.3625
1362.89183	35414.1625
1366.37053	35144.3625
1369.84688	32958.1625
1373.32088	29780.2625
1376.79254	27404.7625
1380.26186	26413.4625
1383.72883	26307.1625
1387.19347	26326.0625
1390.65578	26028.3625
1394.11575	25832.9625
1397.57339	25953.5625
1401.0287	26301.7625
1404.48168	26675.8625
1407.93234	26736.3625
1411.38068	26431.2625
1414.82669	25821.5625
1418.27039	25012.7625
1421.71177	24230.6625
1425.15083	23590.0625
1428.58758	23289.8625
1432.02203	23466.7625
1435.45416	24079.5625
1438.88399	24684.8625
1442.31151	25159.4625
1445.73673	25295.9625
1449.15965	25326.2625
1452.58027	25255.6625
1455.9986	25137.5625
1459.41463	25151.2625
1462.82837	25503.9625
1466.23982	25970.5625
1469.64898	26389.7625
1473.05586	26714.4625
1476.46045	26786.9625
1479.86276	26609.4625
1483.26279	26392.8625
1486.66054	26236.2625
1490.05602	26286.9625
1493.44922	26573.2625
1496.84016	26876.5625
1500.22882	27284.4625
1503.61521	27837.6625
1506.99934	28509.7625
1510.38121	29066.0625
1513.76081	29082.4625
1517.13816	28604.7625
1520.51324	27926.8625
1523.88607	27365.1625
1527.25665	27160.5625
1530.62498	27081.0625
1533.99105	26968.6625
1537.35488	26581.8625
1540.71647	26115.5625
1544.07581	25478.2625
1547.4329	24912.5625
1550.78776	24451.9625
1554.14038	24109.5625
1557.49077	23920.5625
1560.83892	23732.8625
1564.18484	23697.8625
1567.52853	23705.2625
1570.86999	23835.1625
1574.20922	24248.0625
1577.54624	24520.7625
1580.88103	24636.7625
1584.2136	24857.9625
1587.54395	25548.9625
1590.87208	26781.8625
1594.19801	28307.3625
1597.52172	29812.9625
1600.84321	30208.9625
1604.16251	29001.9625
1607.47959	26880.6625
1610.79447	24635.3625
1614.10715	22739.0625
1617.41763	21206.6625
1620.7259	20225.3625
1624.03199	19738.0625
1627.33587	19700.6625
1630.63757	20176.7625
1633.93707	21256.5625
1637.23439	23052.7625
1640.52951	25800.1625
1643.82246	28995.4625
1647.11321	31590.5625
1650.40179	31998.3625
1653.68819	29745.8625
1656.97241	25981.7625
1660.25446	22453.2625
1663.53433	20004.5625
1666.81203	18436.9625
1670.08756	17501.8625
1673.36092	16954.6625
1676.63211	16576.1625
1679.90115	16291.7625
1683.16801	16122.9625
1686.43272	15921.8625
1689.69527	15790.0625
1692.95567	15702.0625
1696.2139	15628.7625
1699.46999	15526.4625
1702.72392	15458.7625
1705.97571	15480.4625
1709.22535	15475.1625
1712.47284	15468.9625
1715.71819	15459.9625
1718.96139	15456.5625
1722.20246	15383.7625
1725.44139	15382.1625
1728.67818	15285.3625
1731.91284	15230.7625
1735.14537	15138.3625
1738.37576	15100.0625
1741.60403	14996.7625
1744.83017	14946.7625
1748.05418	14925.0625
1751.27607	14869.1625
1754.49584	14879.1625
1757.71349	14791.7625
1760.92903	14760.6625
1764.14244	14733.0625
1767.35375	14782.9625
1770.56294	14754.4625
1773.77002	14733.4625
1776.97499	14729.7625
1780.17785	14711.0625
1783.37861	14726.2625
1786.57727	14677.0625
1789.77382	14700.8625
1792.96828	14636.8625
1796.16064	14609.4625
1799.3509	14587.6625
1802.53907	14568.1625
1805.72514	14537.3625
1808.90913	14467.4625
1812.09102	14459.7625
1815.27083	14422.9625
1818.44856	14416.6625
1821.6242	14382.0625
1824.79776	14365.9625
1827.96924	14398.3625
1831.13864	14339.4625
1834.30597	14334.0625
1837.47122	14377.4625
1840.6344	14366.9625
1843.7955	14366.7625
1846.95454	14352.0625
1850.11151	14327.3625
1853.26642	14326.5625
1856.41926	14331.7625
1859.57004	14336.5625
1862.71876	14296.7625
1865.86542	14254.0625
1869.01003	14249.3625
1872.15258	14215.6625
1875.29308	14246.3625
1878.43152	14183.8625
1881.56792	14196.5625
1884.70227	14153.0625
1887.83457	14145.9625
1890.96482	14125.0625
1894.09304	14098.5625
1897.21921	14090.7625
1900.34335	14052.2625
1903.46544	14038.2625
1906.58551	14063.9625
1909.70353	13981.7625
1912.81953	13956.8625
1915.93349	13972.6625
1919.04543	13923.4625
1922.15534	13910.7625
1925.26322	13845.6625
1928.36908	13835.4625
1931.47292	13802.4625
1934.57473	13764.9625
1937.67453	13729.3625
1940.77232	13737.5625
1943.86808	13673.3625
1946.96184	13624.7625
1950.05358	13580.9625
1953.14331	13558.2625
1956.23103	13502.7625
1959.31675	13498.0625
1962.40046	13448.0625
1965.48217	13404.8625
1968.56188	13352.9625
1971.63959	13321.3625
1974.7153	13293.0625
1977.78901	13236.1625
1980.86073	13202.6625
1983.93046	13166.1625
1986.99819	13137.9625
1990.06394	13070.6625
1993.1277	13050.8625
1996.18947	13003.0625
1999.24925	12981.9625
2002.30706	12916.3625
2005.36288	12995.8625
2008.41672	12870.4625
2011.46859	12834.6625
2014.51848	12782.6625
2017.56639	12767.6625
2020.61233	12713.4625
2023.6563	12713.2625
2026.6983	12652.2625
2029.73833	12642.5625
2032.7764	12608.5625
2035.8125	12580.8625
2038.84664	12508.1625
2041.87881	12521.8625
2044.90903	12518.8625
2047.93729	12474.3625
2050.96359	12465.3625
2053.98794	12443.4625
2057.01034	12455.4625
2060.03078	12428.4625
2063.04927	12405.8625
2066.06582	12421.1625
2069.08042	12408.9625
2072.09307	12398.0625
2075.10378	12388.7625
2078.11255	12364.7625
2081.11938	12374.7625
2084.12426	12379.9625
2087.12722	12372.9625
2090.12824	12359.1625
2093.12732	12342.4625
2096.12447	12352.3625
2099.11969	12367.6625
2102.11299	12374.7625
2105.10435	12383.5625
2108.09379	12376.2625
2111.08131	12394.7625
2114.0669	12402.2625
2117.05057	12416.7625
2120.03233	12412.1625
2123.01216	12399.4625
2125.99008	12419.5625
2128.96609	12433.1625
2131.94018	12438.1625
2134.91236	12426.9625
2137.88263	12429.6625
2140.851	12425.5625
2143.81746	12448.5625
2146.78201	12443.5625
2149.74466	12429.6625
2152.7054	12466.3625
2155.66425	12433.7625
2158.6212	12444.7625
2161.57625	12401.1625
2164.52941	12407.4625
2167.48067	12420.7625
2170.43004	12412.5625
2173.37752	12392.9625
2176.32311	12374.3625
2179.26681	12406.4625
2182.20863	12376.3625
2185.14856	12385.9625
2188.08661	12422.1625
2191.02278	12396.3625
2193.95707	12370.8625
2196.88948	12363.6625
2199.82001	12371.4625
2202.74867	12342.2625
2205.67545	12359.9625
2208.60037	12282.2625
2211.52341	12306.6625
2214.44458	12274.0625
2217.36388	12257.4625
2220.28132	12231.0625
2223.1969	12188.8625
2226.11061	12197.9625
2229.02246	12177.9625
2231.93245	12171.9625
2234.84058	12121.8625
2237.74686	12132.8625
2240.65128	12120.3625
2243.55385	12115.3625
2246.45456	12089.2625
2249.35343	12075.5625
2252.25044	12021.3625
2255.14561	11974.6625
2258.03893	11977.2625
2260.93041	11951.8625
2263.82004	11938.7625
2266.70783	11917.0625
2269.59378	11883.6625
2272.4779	11857.9625
2275.36017	11846.2625
2278.24061	11809.4625
2281.11922	11800.9625
2283.996	11765.1625
2286.87094	11763.3625
2289.74405	11726.7625
2292.61534	11718.5625
2295.4848	11714.0625
2298.35243	11713.7625
2301.21824	11712.4625
2304.08223	11700.4625
2306.94439	11679.7625
2309.80474	11666.4625
2312.66327	11681.5625
2315.51999	11672.0625
2318.37489	11658.3625
2321.22797	11638.8625
2324.07925	11637.6625
2326.92871	11622.2625
2329.77637	11584.2625
2332.62222	11573.7625
2335.46626	11552.7625
2338.3085	11538.1625
2341.14893	11508.6625
2343.98756	11526.1625
2346.8244	11526.9625
2349.65943	11525.2625
2352.49267	11503.3625
2355.32411	11495.7625
2358.15376	11474.3625
2360.98161	11482.0625
2363.80768	11476.2625
2366.63195	11461.2625
2369.45444	11473.8625
2372.27514	11432.0625
2375.09405	11426.7625
2377.91118	11411.1625
2380.72652	11388.3625
2383.54009	11343.6625
2386.35187	11339.0625
2389.16188	11321.4625
2391.97011	11292.3625
2394.77657	11266.4625
2397.58125	11280.9625
2400.38416	11247.9625
2403.18529	11238.6625
2405.98466	11214.8625
2408.78226	11174.5625
2411.57809	11188.2625
2414.37216	11156.0625
2417.16446	11158.9625
2419.955	11154.8625
2422.74378	11151.9625
2425.5308	11111.5625
2428.31606	11150.9625
2431.09956	11099.8625
2433.88131	11088.8625
2436.6613	11088.8625
2439.43954	11086.5625
2442.21603	11085.9625
2444.99077	11054.0625
2447.76377	11065.4625
2450.53501	11061.2625
2453.30451	11056.2625
2456.07226	11041.1625
2458.83827	11044.7625
2461.60254	11003.0625
2464.36507	11023.0625
2467.12586	11005.2625
2469.88492	11004.5625
2472.64224	11006.7625
2475.39782	11011.4625
2478.15167	10999.7625
2480.90379	10985.6625
2483.65417	11001.9625
2486.40283	10999.2625
2489.14976	10992.0625
2491.89497	10990.5625
2494.63845	10974.8625
2497.3802	10953.3625
2500.12024	10963.0625
2502.85855	10958.0625
2505.59514	10949.2625
2508.33002	10926.9625
2511.06318	10917.0625
2513.79462	10915.7625
2516.52435	10876.3625
2519.25237	10889.1625
2521.97867	10869.5625
2524.70327	10874.0625
2527.42616	10867.1625
2530.14734	10847.2625
2532.86681	10837.8625
2535.58458	10833.9625
2538.30065	10818.4625
2541.01501	10808.3625
2543.72768	10795.1625
2546.43864	10778.4625
2549.14791	10776.4625
2551.85548	10757.9625
2554.56136	10758.2625
2557.26554	10733.1625
2559.96803	10720.1625
2562.66883	10724.2625
2565.36794	10736.7625
2568.06536	10702.1625
2570.7611	10675.2625
2573.45514	10624.8625
2576.14751	10631.6625
2578.83819	10617.9625
2581.52719	10632.8625
2584.21451	10608.1625
2586.90015	10599.4625
2589.58411	10565.2625
2592.2664	10561.7625
2594.94701	10534.8625
2597.62594	10527.0625
2600.30321	10514.1625
2602.9788	10495.3625
2605.65273	10500.1625
2608.32498	10487.6625
2610.99557	10491.0625
2613.66449	10503.5625
2616.33175	10479.2625
2618.99734	10475.3625
2621.66128	10441.3625
2624.32355	10457.2625
2626.98416	10416.4625
2629.64311	10411.5625
2632.30041	10419.8625
2634.95605	10392.4625
2637.61004	10372.8625
2640.26238	10370.8625
2642.91306	10374.8625
2645.56209	10394.7625
2648.20948	10399.5625
2650.85521	10391.5625
2653.4993	10364.7625
2656.14175	10353.7625
2658.78255	10399.4625
2661.42171	10367.0625
2664.05923	10372.3625
2666.6951	10403.5625
2669.32934	10394.8625
2671.96194	10372.6625
2674.59291	10400.3625
2677.22224	10394.0625
2679.84993	10382.0625
2682.476	10382.7625
2685.10043	10390.6625
2687.72324	10365.1625
2690.34441	10359.4625
2692.96396	10357.6625
2695.58188	10360.4625
2698.19818	10345.5625
2700.81285	10343.0625
2703.4259	10353.7625
2706.03733	10328.8625
2708.64714	10340.8625
2711.25533	10349.6625
2713.86191	10331.0625
2716.46687	10382.4625
2719.07021	10364.9625
2721.67194	10355.3625
2724.27206	10371.2625
2726.87057	10384.0625
2729.46747	10385.5625
2732.06276	10383.5625
2734.65644	10380.4625
2737.24852	10390.1625
2739.83899	10355.6625
2742.42786	10375.8625
2745.01513	10328.3625
2747.60079	10336.6625
2750.18486	10312.6625
2752.76733	10312.0625
2755.3482	10293.9625
2757.92747	10296.6625
2760.50515	10314.4625
2763.08123	10285.2625
2765.65573	10282.3625
2768.22863	10285.9625
2770.79994	10264.9625
2773.36967	10262.9625
2775.9378	10257.3625
2778.50435	10240.3625
2781.06932	10247.8625
2783.6327	10199.8625
2786.1945	10192.5625
2788.75471	10211.4625
2791.31335	10171.7625
2793.87041	10138.2625
2796.42589	10137.6625
2798.97979	10124.7625
2801.53212	10128.1625
2804.08288	10089.4625
2806.63206	10050.9625
2809.17967	10067.0625
2811.72571	10027.9625
2814.27018	10015.7625
2816.81308	9998.9625
2819.35442	9983.3625
2821.89419	9960.2625
2824.43239	9933.2625
2826.96904	9962.2625
2829.50412	9937.9625
2832.03763	9930.5625
2834.56959	9930.7625
2837.1	9909.0625
2839.62884	9919.3625
2842.15613	9898.9625
2844.68186	9913.4625
2847.20604	9936.8625
2849.72867	9915.5625
2852.24974	9913.5625
2854.76927	9900.3625
2857.28724	9899.9625
2859.80367	9877.7625
2862.31855	9866.3625
2864.83189	9846.3625
2867.34368	9833.3625
2869.85393	9820.9625
2872.36264	9825.5625
2874.8698	9828.4625
2877.37543	9822.0625
2879.87952	9765.3625
2882.38207	9790.6625
2884.88308	9782.3625
2887.38256	9799.7625
2889.88051	9800.3625
2892.37692	9790.9625
2894.8718	9779.4625
2897.36515	9794.1625
2899.85698	9818.8625
2902.34727	9812.7625
2904.83604	9792.9625
2907.32328	9850.9625
2909.809	9818.6625
2912.29319	9807.5625
2914.77587	9815.6625
2917.25702	9819.3625
2919.73665	9768.7625
2922.21476	9821.1625
2924.69136	9802.8625
2927.16644	9810.4625
2929.64	9788.2625
2932.11205	9792.0625
2934.58258	9758.7625
2937.05161	9746.1625
2939.51912	9740.7625
2941.98513	9728.3625
2944.44962	9692.8625
2946.91261	9669.0625
2949.37409	9697.4625
2951.83407	9647.6625
2954.29254	9668.0625
2956.74951	9661.6625
2959.20498	9630.9625
2961.65895	9632.4625
2964.11142	9635.8625
2966.56239	9608.0625
2969.01186	9605.5625
2971.45984	9608.4625
2973.90632	9562.4625
2976.35131	9562.9625
2978.7948	9540.9625
2981.23681	9505.4625
2983.67732	9485.0625
2986.11635	9472.3625
2988.55388	9423.8625
2990.98993	9395.6625
2993.4245	9394.7625
2995.85758	9377.3625
2998.28917	9352.9625
3000.71928	9330.7625
3003.14791	9289.4625
3005.57506	9309.9625
3008.00073	9283.6625
3010.42493	9283.9625
3012.84764	9297.7625
3015.26888	9293.0625
3017.68865	9236.0625
3020.10694	9223.7625
3022.52376	9213.8625
3024.9391	9196.6625
3027.35298	9197.5625
3029.76539	9195.6625
3032.17632	9160.3625
3034.5858	9159.7625
