Data from AgNPs_FTO_APTES_UA_1uM_CRN_0uM_R6G_10uM_NaF_0.1M_Addition_RamanShift__37__11-48-49-451.txt Node

Date: Thu Jan 27 11:48:49 GMT 2022
User: TCL
Spectrometer: QEP01345
Trigger mode: 4
Integration Time (sec): 7.000000E0
Scans to average: 10
Electric dark correction enabled: true
Nonlinearity correction enabled: false
Boxcar width: 0
XAxis mode: Raman Shifts
Number of Pixels in Spectrum: 1044
>>>>>Begin Spectral Data<<<<<
46.04893	0.3875
50.45542	-0.2125
54.85868	-0.6125
59.25871	-0.6125
63.6555	50.6875
68.04907	53.4875
72.43941	56.5875
76.82654	58.6875
81.21044	59.5875
85.59113	61.7875
89.96862	64.4875
94.34289	66.5875
98.71396	68.8875
103.08183	69.3875
107.4465	72.4875
111.80798	75.4875
116.16626	74.3875
120.52136	82.7875
124.87327	82.2875
129.222	82.4875
133.56755	88.1875
137.90993	95.3875
142.24913	102.0875
146.58517	116.5875
150.91804	132.3875
155.24774	155.9875
159.57429	186.3875
163.89768	242.7875
168.21792	315.5875
172.53501	430.5875
176.84895	592.0875
181.15975	829.1875
185.46741	1160.4875
189.77193	1602.9875
194.07331	2140.0875
198.37157	2764.3875
202.6667	3409.9875
206.9587	4078.4875
211.24758	4690.7875
215.53334	5339.0875
219.81599	6032.3875
224.09553	6793.3875
228.37195	7615.7875
232.64527	8524.6875
236.91549	9500.5875
241.18261	10484.8875
245.44663	11393.1875
249.70755	12153.4875
253.96539	12862.7875
258.22014	13437.2875
262.4718	13943.5875
266.72039	14256.1875
270.96589	14425.0875
275.20832	14401.0875
279.44768	14299.4875
283.68397	14109.4875
287.91719	13972.0875
292.14735	13893.3875
296.37445	13852.8875
300.59849	13947.4875
304.81948	14055.1875
309.03742	14123.2875
313.25231	14051.7875
317.46415	13798.2875
321.67296	13362.7875
325.87872	13026.6875
330.08145	12851.0875
334.28114	12861.0875
338.47781	12961.7875
342.67145	13150.8875
346.86207	13367.7875
351.04966	13701.2875
355.23424	14017.4875
359.4158	14340.8875
363.59435	14568.5875
367.76989	14722.7875
371.94243	14813.1875
376.11196	14854.9875
380.27849	14914.3875
384.44203	14982.4875
388.60257	15054.3875
392.76012	15136.4875
396.91468	15341.0875
401.06626	15522.3875
405.21485	15707.7875
409.36047	15655.9875
413.50311	15395.2875
417.64277	15219.2875
421.77947	15115.9875
425.9132	15134.1875
430.04396	15185.2875
434.17176	15215.1875
438.2966	15293.9875
442.41849	15473.8875
446.53742	15768.9875
450.6534	16159.9875
454.76644	16420.2875
458.87653	16536.2875
462.98368	16462.5875
467.08789	16313.5875
471.18916	16095.8875
475.2875	15855.5875
479.38291	15716.3875
483.4754	15607.9875
487.56496	15512.3875
491.6516	15396.7875
495.73531	15334.1875
499.81612	15309.6875
503.89401	15425.2875
507.96899	15538.7875
512.04106	15525.9875
516.11023	15472.7875
520.1765	15413.4875
524.23987	15282.7875
528.30034	15168.7875
532.35792	15028.3875
536.41261	14862.0875
540.46441	14636.6875
544.51333	14600.0875
548.55936	14714.1875
552.60252	14997.8875
556.64279	15319.9875
560.6802	15513.8875
564.71473	15611.3875
568.7464	15789.6875
572.7752	16091.8875
576.80114	16315.3875
580.82422	16568.4875
584.84444	16960.6875
588.86181	17287.9875
592.87633	17508.9875
596.888	17424.9875
600.89682	17205.6875
604.9028	17591.3875
608.90594	19299.5875
612.90624	21382.7875
616.90371	20541.0875
620.89834	17173.5875
624.89015	15552.1875
628.87913	15317.5875
632.86528	15355.1875
636.84862	15408.0875
640.82913	15224.8875
644.80683	14886.1875
648.78172	14622.4875
652.75379	14568.3875
656.72306	14749.7875
660.68952	15044.2875
664.65319	15004.7875
668.61405	14724.9875
672.57211	14623.0875
676.52738	14696.4875
680.47986	14647.0875
684.42955	14583.4875
688.37646	14483.9875
692.32058	14541.3875
696.26192	14671.9875
700.20048	14875.7875
704.13626	14972.9875
708.06928	14920.8875
711.99952	14842.4875
715.927	14848.4875
719.85171	14884.1875
723.77365	14864.4875
727.69284	14708.2875
731.60928	14524.7875
735.52295	14500.3875
739.43388	14494.9875
743.34206	14534.6875
747.24749	14609.5875
751.15017	14704.7875
755.05012	14918.7875
758.94733	15276.8875
762.8418	15989.2875
766.73354	17164.3875
770.62254	18412.0875
774.50882	18828.4875
778.39237	18226.2875
782.27321	17055.3875
786.15132	15939.3875
790.02671	15264.7875
793.89938	14900.5875
797.76935	14756.9875
801.6366	14686.1875
805.50115	14676.7875
809.36299	14590.9875
813.22213	14463.2875
817.07857	14360.0875
820.93231	14310.8875
824.78336	14268.1875
828.63172	14274.3875
832.47738	14244.7875
836.32036	14276.2875
840.16066	14307.7875
843.99827	14314.5875
847.8332	14314.3875
851.66546	14290.5875
855.49504	14263.3875
859.32195	14271.3875
863.1462	14282.6875
866.96777	14243.4875
870.78668	14213.3875
874.60293	14239.2875
878.41652	14240.4875
882.22745	14318.0875
886.03573	14362.9875
889.84136	14387.1875
893.64433	14350.3875
897.44466	14291.9875
901.24235	14276.3875
905.0374	14206.3875
908.8298	14147.8875
912.61957	14131.2875
916.40671	14209.2875
920.19121	14350.0875
923.97308	14493.5875
927.75233	14585.4875
931.52895	14591.0875
935.30295	14507.9875
939.07433	14250.2875
942.84309	14027.6875
946.60924	13946.5875
950.37278	13903.8875
954.13371	13868.6875
957.89203	13818.4875
961.64774	13782.1875
965.40086	13728.8875
969.15137	13741.7875
972.89929	13688.9875
976.64461	13681.7875
980.38733	13670.4875
984.12747	13686.7875
987.86502	13799.7875
991.59999	13930.5875
995.33237	14104.2875
999.06217	14420.6875
1002.78939	14739.0875
1006.51404	14973.3875
1010.23611	15170.0875
1013.95561	15285.6875
1017.67255	15304.5875
1021.38692	15183.1875
1025.09872	15008.5875
1028.80796	14991.3875
1032.51465	15176.2875
1036.21877	15478.7875
1039.92035	15552.7875
1043.61937	15395.4875
1047.31584	15187.0875
1051.00976	14945.4875
1054.70114	14858.7875
1058.38998	14821.7875
1062.07627	14926.8875
1065.76003	15001.2875
1069.44126	15113.6875
1073.11995	15338.9875
1076.79611	15587.2875
1080.46974	15787.7875
1084.14085	15867.1875
1087.80943	16028.5875
1091.47549	16144.6875
1095.13903	16138.0875
1098.80005	15932.9875
1102.45857	15573.1875
1106.11456	15337.4875
1109.76805	15231.7875
1113.41903	15239.1875
1117.06751	15298.5875
1120.71348	15440.8875
1124.35696	15594.3875
1127.99793	15793.3875
1131.63641	15920.3875
1135.2724	15820.6875
1138.90589	15637.9875
1142.5369	15554.4875
1146.16542	15504.5875
1149.79145	15470.6875
1153.415	15474.4875
1157.03607	15596.1875
1160.65467	15866.6875
1164.27079	16433.8875
1167.88443	17158.9875
1171.49561	18121.7875
1175.10432	19341.6875
1178.71056	20897.3875
1182.31434	22427.6875
1185.91565	23270.2875
1189.51451	23273.7875
1193.11091	22681.1875
1196.70485	21733.1875
1200.29634	20793.7875
1203.88538	20041.3875
1207.47197	19452.7875
1211.05612	18898.1875
1214.63782	18510.0875
1218.21708	18197.1875
1221.79391	18024.7875
1225.36829	17938.7875
1228.94024	17843.5875
1232.50976	17627.4875
1236.07685	17409.2875
1239.6415	17274.3875
1243.20374	17208.1875
1246.76355	17269.4875
1250.32093	17469.0875
1253.8759	17775.2875
1257.42845	18190.3875
1260.97859	18725.8875
1264.52631	19251.4875
1268.07163	19792.9875
1271.61453	20325.8875
1275.15503	20923.3875
1278.69312	21377.4875
1282.22882	21766.8875
1285.76211	22159.7875
1289.29301	22580.0875
1292.82151	23209.3875
1296.34761	24020.4875
1299.87133	25137.1875
1303.39266	26562.5875
1306.9116	28170.7875
1310.42815	29785.6875
1313.94233	30724.9875
1317.45412	30726.1875
1320.96354	29998.1875
1324.47058	29155.2875
1327.97525	28495.9875
1331.47754	27938.9875
1334.97747	27609.1875
1338.47502	27341.7875
1341.97022	27172.8875
1345.46305	27075.6875
1348.95352	27016.2875
1352.44163	27201.7875
1355.92738	27842.8875
1359.41078	29213.1875
1362.89183	30664.6875
1366.37053	30570.1875
1369.84688	28244.7875
1373.32088	25099.8875
1376.79254	22794.9875
1380.26186	21688.4875
1383.72883	21317.2875
1387.19347	21142.8875
1390.65578	20792.6875
1394.11575	20542.9875
1397.57339	20587.1875
1401.0287	20831.7875
1404.48168	21082.3875
1407.93234	21210.2875
1411.38068	21035.5875
1414.82669	20635.5875
1418.27039	20076.0875
1421.71177	19543.8875
1425.15083	19014.3875
1428.58758	18829.3875
1432.02203	18879.6875
1435.45416	19250.6875
1438.88399	19660.7875
1442.31151	19941.8875
1445.73673	20156.9875
1449.15965	20251.5875
1452.58027	20276.5875
1455.9986	20267.6875
1459.41463	20310.6875
1462.82837	20646.1875
1466.23982	21035.4875
1469.64898	21423.7875
1473.05586	21678.4875
1476.46045	21771.4875
1479.86276	21719.7875
1483.26279	21604.6875
1486.66054	21574.3875
1490.05602	21699.9875
1493.44922	22019.0875
1496.84016	22387.5875
1500.22882	23105.8875
1503.61521	24128.6875
1506.99934	25333.8875
1510.38121	26379.2875
1513.76081	26755.3875
1517.13816	26009.9875
1520.51324	24621.1875
1523.88607	23258.8875
1527.25665	22298.2875
1530.62498	21776.3875
1533.99105	21483.4875
1537.35488	21238.7875
1540.71647	20964.4875
1544.07581	20679.9875
1547.4329	20296.5875
1550.78776	19998.4875
1554.14038	19817.9875
1557.49077	19753.9875
1560.83892	19767.3875
1564.18484	19838.8875
1567.52853	19999.0875
1570.86999	20168.3875
1574.20922	20438.9875
1577.54624	20608.8875
1580.88103	20458.6875
1584.2136	20285.6875
1587.54395	20481.5875
1590.87208	21240.6875
1594.19801	22454.1875
1597.52172	23706.5875
1600.84321	24229.3875
1604.16251	23393.9875
1607.47959	21830.8875
1610.79447	20175.6875
1614.10715	18637.2875
1617.41763	17377.8875
1620.7259	16512.0875
1624.03199	16042.0875
1627.33587	15970.0875
1630.63757	16321.3875
1633.93707	17109.4875
1637.23439	18411.6875
1640.52951	20401.7875
1643.82246	22774.5875
1647.11321	24739.9875
1650.40179	25395.6875
1653.68819	24036.8875
1656.97241	21277.8875
1660.25446	18408.2875
1663.53433	16313.4875
1666.81203	15017.9875
1670.08756	14209.7875
1673.36092	13732.1875
1676.63211	13419.7875
1679.90115	13205.2875
1683.16801	13009.3875
1686.43272	12882.7875
1689.69527	12807.3875
1692.95567	12682.1875
1696.2139	12592.8875
1699.46999	12497.4875
1702.72392	12463.4875
1705.97571	12466.1875
1709.22535	12512.7875
1712.47284	12545.5875
1715.71819	12552.6875
1718.96139	12555.8875
1722.20246	12503.4875
1725.44139	12476.5875
1728.67818	12391.2875
1731.91284	12310.5875
1735.14537	12248.1875
1738.37576	12222.1875
1741.60403	12196.2875
1744.83017	12116.3875
1748.05418	12088.4875
1751.27607	12035.4875
1754.49584	12024.3875
1757.71349	11997.7875
1760.92903	11970.8875
1764.14244	11935.7875
1767.35375	11938.7875
1770.56294	11910.7875
1773.77002	11929.3875
1776.97499	11910.2875
1780.17785	11910.8875
1783.37861	11915.0875
1786.57727	11898.6875
1789.77382	11895.0875
1792.96828	11866.3875
1796.16064	11848.5875
1799.3509	11834.7875
1802.53907	11801.4875
1805.72514	11781.4875
1808.90913	11770.4875
1812.09102	11744.3875
1815.27083	11717.3875
1818.44856	11674.9875
1821.6242	11673.3875
1824.79776	11673.0875
1827.96924	11647.4875
1831.13864	11640.1875
1834.30597	11658.4875
1837.47122	11645.0875
1840.6344	11646.8875
1843.7955	11641.4875
1846.95454	11665.9875
1850.11151	11671.7875
1853.26642	11657.2875
1856.41926	11653.1875
1859.57004	11686.4875
1862.71876	11634.3875
1865.86542	11615.2875
1869.01003	11615.7875
1872.15258	11605.3875
1875.29308	11578.9875
1878.43152	11578.6875
1881.56792	11579.0875
1884.70227	11568.9875
1887.83457	11564.5875
1890.96482	11507.7875
1894.09304	11522.1875
1897.21921	11515.4875
1900.34335	11505.1875
1903.46544	11513.4875
1906.58551	11460.6875
1909.70353	11459.0875
1912.81953	11447.3875
1915.93349	11442.3875
1919.04543	11389.1875
1922.15534	11351.6875
1925.26322	11332.3875
1928.36908	11290.8875
1931.47292	11270.8875
1934.57473	11273.5875
1937.67453	11219.4875
1940.77232	11185.5875
1943.86808	11154.4875
1946.96184	11114.5875
1950.05358	11089.1875
1953.14331	11034.8875
1956.23103	11010.6875
1959.31675	11002.9875
1962.40046	10947.7875
1965.48217	10916.2875
1968.56188	10901.1875
1971.63959	10868.3875
1974.7153	10844.6875
1977.78901	10797.5875
1980.86073	10768.3875
1983.93046	10736.9875
1986.99819	10700.5875
1990.06394	10665.4875
1993.1277	10632.3875
1996.18947	10612.0875
1999.24925	10600.6875
2002.30706	10549.8875
2005.36288	10505.6875
2008.41672	10491.5875
2011.46859	10462.0875
2014.51848	10422.0875
2017.56639	10398.7875
2020.61233	10354.7875
2023.6563	10357.6875
2026.6983	10344.1875
2029.73833	10298.7875
2032.7764	10272.6875
2035.8125	10252.4875
2038.84664	10256.1875
2041.87881	10245.4875
2044.90903	10218.4875
2047.93729	10190.3875
2050.96359	10176.3875
2053.98794	10172.1875
2057.01034	10152.0875
2060.03078	10159.8875
2063.04927	10153.7875
2066.06582	10167.8875
2069.08042	10134.9875
2072.09307	10097.3875
2075.10378	10116.5875
2078.11255	10131.6875
2081.11938	10122.1875
2084.12426	10118.0875
2087.12722	10122.8875
2090.12824	10105.2875
2093.12732	10099.8875
2096.12447	10112.5875
2099.11969	10102.7875
2102.11299	10116.6875
2105.10435	10114.0875
2108.09379	10116.1875
2111.08131	10120.6875
2114.0669	10108.8875
2117.05057	10139.7875
2120.03233	10145.4875
2123.01216	10147.0875
2125.99008	10133.2875
2128.96609	10154.7875
2131.94018	10156.0875
2134.91236	10142.9875
2137.88263	10161.4875
2140.851	10168.3875
2143.81746	10183.3875
2146.78201	10207.5875
2149.74466	10200.5875
2152.7054	10207.1875
2155.66425	10203.3875
2158.6212	10212.7875
2161.57625	10198.8875
2164.52941	10165.6875
2167.48067	10185.0875
2170.43004	10166.8875
2173.37752	10166.4875
2176.32311	10157.2875
2179.26681	10197.6875
2182.20863	10171.3875
2185.14856	10169.1875
2188.08661	10179.5875
2191.02278	10148.6875
2193.95707	10166.5875
2196.88948	10150.8875
2199.82001	10165.8875
2202.74867	10132.6875
2205.67545	10148.8875
2208.60037	10151.5875
2211.52341	10116.8875
2214.44458	10131.6875
2217.36388	10091.7875
2220.28132	10070.1875
2223.1969	10027.3875
2226.11061	10033.8875
2229.02246	10022.2875
2231.93245	10008.3875
2234.84058	9990.9875
2237.74686	9968.2875
2240.65128	9968.5875
2243.55385	9917.7875
2246.45456	9922.9875
2249.35343	9916.8875
2252.25044	9916.4875
2255.14561	9894.8875
2258.03893	9878.3875
2260.93041	9851.5875
2263.82004	9822.0875
2266.70783	9832.8875
2269.59378	9777.6875
2272.4779	9793.4875
2275.36017	9755.3875
2278.24061	9751.0875
2281.11922	9728.3875
2283.996	9705.9875
2286.87094	9691.2875
2289.74405	9679.3875
2292.61534	9670.6875
2295.4848	9666.5875
2298.35243	9658.4875
2301.21824	9659.7875
2304.08223	9669.7875
2306.94439	9670.1875
2309.80474	9655.5875
2312.66327	9650.7875
2315.51999	9622.8875
2318.37489	9650.0875
2321.22797	9649.2875
2324.07925	9638.5875
2326.92871	9621.1875
2329.77637	9586.0875
2332.62222	9579.1875
2335.46626	9586.1875
2338.3085	9589.6875
2341.14893	9591.0875
2343.98756	9593.2875
2346.8244	9573.1875
2349.65943	9577.1875
2352.49267	9543.5875
2355.32411	9566.2875
2358.15376	9561.0875
2360.98161	9557.8875
2363.80768	9570.0875
2366.63195	9556.4875
2369.45444	9539.7875
2372.27514	9512.8875
2375.09405	9498.4875
2377.91118	9470.1875
2380.72652	9486.0875
2383.54009	9423.4875
2386.35187	9429.6875
2389.16188	9384.1875
2391.97011	9370.3875
2394.77657	9360.5875
2397.58125	9345.7875
2400.38416	9347.4875
2403.18529	9327.0875
2405.98466	9294.0875
2408.78226	9269.0875
2411.57809	9255.4875
2414.37216	9270.8875
2417.16446	9252.4875
2419.955	9220.6875
2422.74378	9252.5875
2425.5308	9233.6875
2428.31606	9212.3875
2431.09956	9211.4875
2433.88131	9192.3875
2436.6613	9198.5875
2439.43954	9211.6875
2442.21603	9191.6875
2444.99077	9209.4875
2447.76377	9200.3875
2450.53501	9190.1875
2453.30451	9197.6875
2456.07226	9169.1875
2458.83827	9162.3875
2461.60254	9162.9875
2464.36507	9170.6875
2467.12586	9170.0875
2469.88492	9160.1875
2472.64224	9180.5875
2475.39782	9171.7875
2478.15167	9170.0875
2480.90379	9153.4875
2483.65417	9155.3875
2486.40283	9162.8875
2489.14976	9171.9875
2491.89497	9165.2875
2494.63845	9160.4875
2497.3802	9143.0875
2500.12024	9152.3875
2502.85855	9143.1875
2505.59514	9132.4875
2508.33002	9120.2875
2511.06318	9085.1875
2513.79462	9085.8875
2516.52435	9058.6875
2519.25237	9046.1875
2521.97867	9043.3875
2524.70327	9070.3875
2527.42616	9048.1875
2530.14734	9045.4875
2532.86681	9028.9875
2535.58458	9014.3875
2538.30065	9026.4875
2541.01501	9032.7875
2543.72768	9006.3875
2546.43864	9002.5875
2549.14791	8986.5875
2551.85548	8984.6875
2554.56136	8940.3875
2557.26554	8950.0875
2559.96803	8929.1875
2562.66883	8918.9875
2565.36794	8922.6875
2568.06536	8904.7875
2570.7611	8905.5875
2573.45514	8879.8875
2576.14751	8877.7875
2578.83819	8884.2875
2581.52719	8890.2875
2584.21451	8868.9875
2586.90015	8854.6875
2589.58411	8836.5875
2592.2664	8836.2875
2594.94701	8832.7875
2597.62594	8815.5875
2600.30321	8795.7875
2602.9788	8813.5875
2605.65273	8775.0875
2608.32498	8774.8875
2610.99557	8745.9875
2613.66449	8783.8875
2616.33175	8770.2875
2618.99734	8744.4875
2621.66128	8744.2875
2624.32355	8732.0875
2626.98416	8712.6875
2629.64311	8716.6875
2632.30041	8702.3875
2634.95605	8699.2875
2637.61004	8698.4875
2640.26238	8682.2875
2642.91306	8696.9875
2645.56209	8649.2875
2648.20948	8663.0875
2650.85521	8659.7875
2653.4993	8674.2875
2656.14175	8677.8875
2658.78255	8670.8875
2661.42171	8700.2875
2664.05923	8680.9875
2666.6951	8701.0875
2669.32934	8705.2875
2671.96194	8693.3875
2674.59291	8681.2875
2677.22224	8672.4875
2679.84993	8682.4875
2682.476	8666.6875
2685.10043	8658.0875
2687.72324	8654.0875
2690.34441	8669.1875
2692.96396	8648.3875
2695.58188	8669.2875
2698.19818	8644.4875
2700.81285	8652.2875
2703.4259	8625.4875
2706.03733	8594.1875
2708.64714	8607.2875
2711.25533	8643.7875
2713.86191	8628.5875
2716.46687	8653.8875
2719.07021	8630.3875
2721.67194	8650.5875
2724.27206	8659.8875
2726.87057	8689.8875
2729.46747	8669.9875
2732.06276	8653.3875
2734.65644	8659.6875
2737.24852	8670.8875
2739.83899	8657.5875
2742.42786	8644.1875
2745.01513	8634.4875
2747.60079	8615.9875
2750.18486	8602.9875
2752.76733	8601.0875
2755.3482	8620.0875
2757.92747	8617.4875
2760.50515	8596.7875
2763.08123	8605.7875
2765.65573	8600.3875
2768.22863	8582.1875
2770.79994	8582.1875
2773.36967	8576.1875
2775.9378	8585.6875
2778.50435	8583.2875
2781.06932	8558.3875
2783.6327	8561.8875
2786.1945	8542.8875
2788.75471	8550.5875
2791.31335	8522.2875
2793.87041	8521.2875
2796.42589	8501.0875
2798.97979	8494.1875
2801.53212	8479.4875
2804.08288	8496.0875
2806.63206	8463.6875
2809.17967	8428.8875
2811.72571	8409.3875
2814.27018	8398.2875
2816.81308	8390.4875
2819.35442	8365.1875
2821.89419	8366.0875
2824.43239	8369.3875
2826.96904	8366.5875
2829.50412	8353.2875
2832.03763	8334.3875
2834.56959	8338.3875
2837.1	8355.6875
2839.62884	8341.6875
2842.15613	8339.1875
2844.68186	8355.5875
2847.20604	8357.9875
2849.72867	8362.5875
2852.24974	8345.3875
2854.76927	8327.5875
2857.28724	8304.2875
2859.80367	8330.3875
2862.31855	8300.1875
2864.83189	8288.4875
2867.34368	8282.3875
2869.85393	8290.3875
2872.36264	8287.5875
2874.8698	8287.5875
2877.37543	8261.9875
2879.87952	8273.5875
2882.38207	8309.9875
2884.88308	8301.3875
2887.38256	8282.7875
2889.88051	8278.5875
2892.37692	8276.1875
2894.8718	8308.3875
2897.36515	8319.7875
2899.85698	8328.5875
2902.34727	8319.7875
2904.83604	8331.3875
2907.32328	8332.8875
2909.809	8334.5875
2912.29319	8330.2875
2914.77587	8326.5875
2917.25702	8334.9875
2919.73665	8338.7875
2922.21476	8322.3875
2924.69136	8312.3875
2927.16644	8285.0875
2929.64	8312.3875
2932.11205	8282.0875
2934.58258	8268.5875
2937.05161	8277.7875
2939.51912	8278.4875
2941.98513	8282.0875
2944.44962	8241.8875
2946.91261	8212.9875
2949.37409	8209.9875
2951.83407	8200.7875
2954.29254	8202.4875
2956.74951	8203.2875
2959.20498	8208.9875
2961.65895	8177.0875
2964.11142	8166.6875
2966.56239	8153.7875
2969.01186	8161.7875
2971.45984	8134.9875
2973.90632	8108.3875
2976.35131	8096.5875
2978.7948	8084.1875
2981.23681	8072.5875
2983.67732	8066.2875
2986.11635	8045.6875
2988.55388	7987.1875
2990.98993	7989.2875
2993.4245	7950.7875
2995.85758	7930.3875
2998.28917	7938.4875
3000.71928	7912.7875
3003.14791	7891.5875
3005.57506	7900.2875
3008.00073	7879.8875
3010.42493	7892.6875
3012.84764	7888.3875
3015.26888	7872.1875
3017.68865	7852.5875
3020.10694	7835.1875
3022.52376	7827.3875
3024.9391	7816.6875
3027.35298	7824.3875
3029.76539	7813.9875
3032.17632	7802.4875
3034.5858	7769.6875
3036.9938	7781.5875
3039.40034	7779.1875
3041.80542	7756.3875
3044.20903	7768.6875
3046.61118	7763.9875
3049.01187	7733.4875
3051.4111	7726.5875
3053.80888	7713.5875
3056.20519	7717.1875
3058.60005	7668.7875
3060.99345	7660.7875
