Data from AgNPs_FTO_APTES_UA_1uM_CRN_500uM_R6G_10uM_NaF_0.1M_Addition_RamanShift__19__18-06-49-883.txt Node

Date: Thu Jan 27 18:06:49 GMT 2022
User: TCL
Spectrometer: QEP01345
Trigger mode: 4
Integration Time (sec): 7.000000E0
Scans to average: 10
Electric dark correction enabled: true
Nonlinearity correction enabled: false
Boxcar width: 0
XAxis mode: Raman Shifts
Number of Pixels in Spectrum: 1044
>>>>>Begin Spectral Data<<<<<
46.04893	0.7125
50.45542	0.7125
54.85868	-0.4875
59.25871	-1.8875
63.6555	42.4125
68.04907	43.9125
72.43941	48.0125
76.82654	47.1125
81.21044	49.4125
85.59113	50.9125
89.96862	53.0125
94.34289	55.9125
98.71396	58.3125
103.08183	55.0125
107.4465	61.7125
111.80798	63.2125
116.16626	62.4125
120.52136	68.7125
124.87327	69.5125
129.222	69.2125
133.56755	72.0125
137.90993	70.8125
142.24913	80.6125
146.58517	86.7125
150.91804	99.3125
155.24774	113.3125
159.57429	132.9125
163.89768	166.6125
168.21792	218.0125
172.53501	285.9125
176.84895	394.7125
181.15975	545.4125
185.46741	764.5125
189.77193	1057.3125
194.07331	1409.4125
198.37157	1822.3125
202.6667	2251.7125
206.9587	2685.5125
211.24758	3105.3125
215.53334	3534.4125
219.81599	3962.2125
224.09553	4463.5125
228.37195	4992.1125
232.64527	5573.0125
236.91549	6201.3125
241.18261	6801.7125
245.44663	7376.7125
249.70755	7895.9125
253.96539	8359.2125
258.22014	8722.6125
262.4718	9016.3125
266.72039	9232.3125
270.96589	9327.3125
275.20832	9345.1125
279.44768	9278.1125
283.68397	9171.9125
287.91719	9071.6125
292.14735	9012.0125
296.37445	9017.3125
300.59849	9033.6125
304.81948	9058.2125
309.03742	9043.0125
313.25231	8935.5125
317.46415	8711.7125
321.67296	8469.6125
325.87872	8267.3125
330.08145	8164.7125
334.28114	8133.3125
338.47781	8189.7125
342.67145	8273.0125
346.86207	8401.8125
351.04966	8573.5125
355.23424	8736.7125
359.4158	8862.4125
363.59435	8992.9125
367.76989	9069.5125
371.94243	9116.5125
376.11196	9188.9125
380.27849	9252.5125
384.44203	9302.1125
388.60257	9354.9125
392.76012	9401.0125
396.91468	9511.4125
401.06626	9629.9125
405.21485	9738.2125
409.36047	9731.6125
413.50311	9600.2125
417.64277	9517.5125
421.77947	9533.2125
425.9132	9591.0125
430.04396	9639.4125
434.17176	9669.8125
438.2966	9722.2125
442.41849	9809.9125
446.53742	10000.5125
450.6534	10284.3125
454.76644	10449.9125
458.87653	10502.2125
462.98368	10474.3125
467.08789	10382.0125
471.18916	10245.9125
475.2875	10125.8125
479.38291	10078.1125
483.4754	10026.7125
487.56496	9934.0125
491.6516	9788.6125
495.73531	9713.3125
499.81612	9671.5125
503.89401	9747.3125
507.96899	9773.3125
512.04106	9765.4125
516.11023	9711.2125
520.1765	9615.4125
524.23987	9548.7125
528.30034	9464.7125
532.35792	9363.9125
536.41261	9281.4125
540.46441	9197.0125
544.51333	9193.5125
548.55936	9255.2125
552.60252	9466.1125
556.64279	9631.0125
560.6802	9763.2125
564.71473	9846.5125
568.7464	9968.5125
572.7752	10194.3125
576.80114	10396.0125
580.82422	10580.2125
584.84444	10786.4125
588.86181	11011.2125
592.87633	11178.1125
596.888	11167.1125
600.89682	11002.0125
604.9028	11145.4125
608.90594	11827.0125
612.90624	12655.4125
616.90371	12092.2125
620.89834	10324.4125
624.89015	9509.9125
628.87913	9466.9125
632.86528	9499.0125
636.84862	9494.3125
640.82913	9436.5125
644.80683	9242.3125
648.78172	9088.8125
652.75379	9032.1125
656.72306	9098.8125
660.68952	9200.5125
664.65319	9161.6125
668.61405	9096.8125
672.57211	9082.2125
676.52738	9174.4125
680.47986	9214.5125
684.42955	9198.8125
688.37646	9139.3125
692.32058	9063.8125
696.26192	9081.6125
700.20048	9125.6125
704.13626	9181.7125
708.06928	9162.4125
711.99952	9110.3125
715.927	9081.1125
719.85171	9096.9125
723.77365	9071.2125
727.69284	9037.1125
731.60928	8972.3125
735.52295	8950.0125
739.43388	8921.3125
743.34206	8945.1125
747.24749	9006.3125
751.15017	9035.6125
755.05012	9161.0125
758.94733	9367.3125
762.8418	9735.5125
766.73354	10368.4125
770.62254	11041.1125
774.50882	11272.1125
778.39237	10881.5125
782.27321	10143.4125
786.15132	9482.6125
790.02671	9086.7125
793.89938	8950.1125
797.76935	8904.1125
801.6366	8861.0125
805.50115	8853.8125
809.36299	8801.4125
813.22213	8739.5125
817.07857	8681.5125
820.93231	8617.8125
824.78336	8600.0125
828.63172	8570.5125
832.47738	8577.0125
836.32036	8582.2125
840.16066	8595.7125
843.99827	8609.1125
847.8332	8561.4125
851.66546	8538.3125
855.49504	8549.8125
859.32195	8542.4125
863.1462	8539.4125
866.96777	8555.5125
870.78668	8534.8125
874.60293	8524.4125
878.41652	8515.1125
882.22745	8518.0125
886.03573	8569.4125
889.84136	8598.1125
893.64433	8557.1125
897.44466	8526.7125
901.24235	8483.6125
905.0374	8425.1125
908.8298	8407.8125
912.61957	8394.5125
916.40671	8456.9125
920.19121	8548.4125
923.97308	8643.7125
927.75233	8675.6125
931.52895	8660.2125
935.30295	8566.6125
939.07433	8412.5125
942.84309	8272.5125
946.60924	8199.6125
950.37278	8145.1125
954.13371	8140.4125
957.89203	8116.7125
961.64774	8063.4125
965.40086	8057.9125
969.15137	8023.8125
972.89929	7966.1125
976.64461	7941.0125
980.38733	7922.3125
984.12747	7925.2125
987.86502	7969.9125
991.59999	8019.5125
995.33237	8136.9125
999.06217	8298.1125
1002.78939	8498.2125
1006.51404	8610.6125
1010.23611	8664.3125
1013.95561	8748.2125
1017.67255	8757.6125
1021.38692	8731.5125
1025.09872	8641.8125
1028.80796	8630.6125
1032.51465	8730.9125
1036.21877	8877.9125
1039.92035	8927.6125
1043.61937	8869.2125
1047.31584	8735.3125
1051.00976	8647.0125
1054.70114	8590.1125
1058.38998	8586.6125
1062.07627	8656.5125
1065.76003	8701.2125
1069.44126	8754.3125
1073.11995	8854.2125
1076.79611	8959.0125
1080.46974	8980.9125
1084.14085	8981.8125
1087.80943	9005.1125
1091.47549	9037.3125
1095.13903	9042.0125
1098.80005	8946.1125
1102.45857	8775.5125
1106.11456	8639.3125
1109.76805	8608.2125
1113.41903	8613.3125
1117.06751	8709.4125
1120.71348	8787.2125
1124.35696	8922.4125
1127.99793	9072.3125
1131.63641	9183.6125
1135.2724	9116.4125
1138.90589	8982.5125
1142.5369	8931.4125
1146.16542	8956.0125
1149.79145	8938.6125
1153.415	8987.8125
1157.03607	9099.8125
1160.65467	9342.0125
1164.27079	9704.7125
1167.88443	10207.3125
1171.49561	10763.5125
1175.10432	11466.2125
1178.71056	12377.0125
1182.31434	13247.0125
1185.91565	13680.6125
1189.51451	13615.7125
1193.11091	13218.7125
1196.70485	12672.0125
1200.29634	12162.4125
1203.88538	11736.3125
1207.47197	11424.1125
1211.05612	11195.6125
1214.63782	10938.9125
1218.21708	10735.5125
1221.79391	10610.7125
1225.36829	10552.6125
1228.94024	10430.0125
1232.50976	10257.0125
1236.07685	10120.6125
1239.6415	9985.0125
1243.20374	9967.3125
1246.76355	10008.0125
1250.32093	10089.5125
1253.8759	10256.4125
1257.42845	10514.4125
1260.97859	10765.7125
1264.52631	11016.2125
1268.07163	11310.4125
1271.61453	11586.7125
1275.15503	11923.8125
1278.69312	12270.0125
1282.22882	12628.2125
1285.76211	12912.5125
1289.29301	13289.6125
1292.82151	13796.7125
1296.34761	14490.2125
1299.87133	15309.6125
1303.39266	16236.5125
1306.9116	17258.2125
1310.42815	18176.0125
1313.94233	18718.6125
1317.45412	18671.1125
1320.96354	18209.2125
1324.47058	17685.8125
1327.97525	17274.5125
1331.47754	17007.5125
1334.97747	16830.5125
1338.47502	16728.5125
1341.97022	16584.9125
1345.46305	16418.6125
1348.95352	16305.0125
1352.44163	16371.5125
1355.92738	16749.7125
1359.41078	17484.6125
1362.89183	18165.3125
1366.37053	18019.1125
1369.84688	16683.7125
1373.32088	14874.7125
1376.79254	13487.8125
1380.26186	12913.6125
1383.72883	12765.4125
1387.19347	12721.4125
1390.65578	12587.2125
1394.11575	12515.7125
1397.57339	12680.4125
1401.0287	12998.3125
1404.48168	13320.2125
1407.93234	13408.9125
1411.38068	13301.9125
1414.82669	12951.8125
1418.27039	12463.2125
1421.71177	11951.3125
1425.15083	11513.8125
1428.58758	11229.1125
1432.02203	11231.6125
1435.45416	11450.2125
1438.88399	11770.0125
1442.31151	12044.4125
1445.73673	12250.7125
1449.15965	12435.5125
1452.58027	12513.7125
1455.9986	12528.2125
1459.41463	12557.1125
1462.82837	12672.0125
1466.23982	12900.3125
1469.64898	13166.7125
1473.05586	13293.0125
1476.46045	13382.1125
1479.86276	13317.1125
1483.26279	13199.1125
1486.66054	13067.5125
1490.05602	13037.3125
1493.44922	13109.2125
1496.84016	13194.6125
1500.22882	13366.0125
1503.61521	13788.1125
1506.99934	14291.8125
1510.38121	14820.0125
1513.76081	14925.4125
1517.13816	14553.9125
1520.51324	13959.6125
1523.88607	13384.2125
1527.25665	13025.9125
1530.62498	12870.4125
1533.99105	12782.4125
1537.35488	12691.0125
1540.71647	12586.9125
1544.07581	12374.1125
1547.4329	12152.1125
1550.78776	11931.6125
1554.14038	11770.5125
1557.49077	11660.3125
1560.83892	11571.2125
1564.18484	11574.2125
1567.52853	11598.4125
1570.86999	11725.2125
1574.20922	11920.4125
1577.54624	12104.1125
1580.88103	12142.6125
1584.2136	12107.9125
1587.54395	12299.5125
1590.87208	12823.0125
1594.19801	13573.8125
1597.52172	14463.5125
1600.84321	14909.0125
1604.16251	14495.8125
1607.47959	13472.4125
1610.79447	12312.6125
1614.10715	11196.1125
1617.41763	10310.0125
1620.7259	9700.6125
1624.03199	9354.9125
1627.33587	9322.4125
1630.63757	9523.5125
1633.93707	10054.8125
1637.23439	10889.9125
1640.52951	12183.9125
1643.82246	13749.6125
1647.11321	15070.1125
1650.40179	15417.4125
1653.68819	14488.1125
1656.97241	12672.9125
1660.25446	10868.7125
1663.53433	9557.8125
1666.81203	8734.7125
1670.08756	8226.4125
1673.36092	7924.6125
1676.63211	7709.3125
1679.90115	7617.8125
1683.16801	7478.2125
1686.43272	7384.2125
1689.69527	7304.4125
1692.95567	7238.7125
1696.2139	7180.1125
1699.46999	7110.0125
1702.72392	7078.9125
1705.97571	7055.2125
1709.22535	7083.6125
1712.47284	7076.3125
1715.71819	7103.8125
1718.96139	7087.0125
1722.20246	7082.9125
1725.44139	7022.8125
1728.67818	6991.3125
1731.91284	6939.0125
1735.14537	6921.5125
1738.37576	6902.8125
1741.60403	6872.8125
1744.83017	6886.8125
1748.05418	6878.4125
1751.27607	6879.4125
1754.49584	6865.9125
1757.71349	6839.9125
1760.92903	6819.0125
1764.14244	6778.3125
1767.35375	6746.5125
1770.56294	6723.0125
1773.77002	6696.2125
1776.97499	6689.7125
1780.17785	6685.0125
1783.37861	6692.9125
1786.57727	6681.5125
1789.77382	6661.6125
1792.96828	6651.1125
1796.16064	6636.9125
1799.3509	6614.0125
1802.53907	6597.1125
1805.72514	6581.9125
1808.90913	6564.2125
1812.09102	6543.3125
1815.27083	6536.0125
1818.44856	6526.6125
1821.6242	6513.2125
1824.79776	6472.4125
1827.96924	6490.5125
1831.13864	6471.5125
1834.30597	6489.3125
1837.47122	6477.0125
1840.6344	6482.4125
1843.7955	6486.8125
1846.95454	6448.0125
1850.11151	6478.0125
1853.26642	6486.1125
1856.41926	6454.5125
1859.57004	6472.6125
1862.71876	6468.5125
1865.86542	6466.7125
1869.01003	6462.9125
1872.15258	6467.4125
1875.29308	6429.8125
1878.43152	6426.6125
1881.56792	6437.2125
1884.70227	6420.7125
1887.83457	6402.6125
1890.96482	6406.3125
1894.09304	6401.0125
1897.21921	6384.5125
1900.34335	6368.0125
1903.46544	6382.7125
1906.58551	6368.8125
1909.70353	6350.5125
1912.81953	6345.1125
1915.93349	6343.2125
1919.04543	6323.7125
1922.15534	6312.0125
1925.26322	6298.4125
1928.36908	6276.8125
1931.47292	6257.0125
1934.57473	6270.9125
1937.67453	6233.3125
1940.77232	6221.1125
1943.86808	6203.0125
1946.96184	6189.2125
1950.05358	6157.7125
1953.14331	6158.1125
1956.23103	6117.7125
1959.31675	6123.1125
1962.40046	6098.3125
1965.48217	6089.3125
1968.56188	6068.3125
1971.63959	6048.4125
1974.7153	6026.4125
1977.78901	6012.7125
1980.86073	5996.7125
1983.93046	5985.9125
1986.99819	5963.4125
1990.06394	5954.2125
1993.1277	5907.0125
1996.18947	5914.5125
1999.24925	5882.6125
2002.30706	5878.0125
2005.36288	5872.5125
2008.41672	5854.0125
2011.46859	5848.4125
2014.51848	5816.5125
2017.56639	5802.8125
2020.61233	5783.3125
2023.6563	5788.0125
2026.6983	5760.8125
2029.73833	5761.5125
2032.7764	5748.1125
2035.8125	5735.3125
2038.84664	5726.8125
2041.87881	5721.1125
2044.90903	5700.3125
2047.93729	5691.8125
2050.96359	5678.4125
2053.98794	5683.6125
2057.01034	5658.8125
2060.03078	5675.6125
2063.04927	5662.0125
2066.06582	5657.8125
2069.08042	5673.6125
2072.09307	5662.0125
2075.10378	5662.5125
2078.11255	5640.6125
2081.11938	5664.3125
2084.12426	5657.9125
2087.12722	5641.2125
2090.12824	5627.5125
2093.12732	5631.8125
2096.12447	5633.8125
2099.11969	5631.2125
2102.11299	5629.1125
2105.10435	5630.1125
2108.09379	5653.8125
2111.08131	5642.5125
2114.0669	5651.9125
2117.05057	5653.6125
2120.03233	5649.9125
2123.01216	5654.0125
2125.99008	5670.4125
2128.96609	5673.6125
2131.94018	5687.0125
2134.91236	5676.7125
2137.88263	5694.9125
2140.851	5674.2125
2143.81746	5694.1125
2146.78201	5682.3125
2149.74466	5680.1125
2152.7054	5681.3125
2155.66425	5691.8125
2158.6212	5657.2125
2161.57625	5657.1125
2164.52941	5656.5125
2167.48067	5657.6125
2170.43004	5661.3125
2173.37752	5663.1125
2176.32311	5678.1125
2179.26681	5668.9125
2182.20863	5666.8125
2185.14856	5658.4125
2188.08661	5680.8125
2191.02278	5686.2125
2193.95707	5657.9125
2196.88948	5660.8125
2199.82001	5674.2125
2202.74867	5640.2125
2205.67545	5649.7125
2208.60037	5653.9125
2211.52341	5645.8125
2214.44458	5629.4125
2217.36388	5612.3125
2220.28132	5611.4125
2223.1969	5594.5125
2226.11061	5591.1125
2229.02246	5605.0125
2231.93245	5585.4125
2234.84058	5572.5125
2237.74686	5552.0125
2240.65128	5572.1125
2243.55385	5542.0125
2246.45456	5518.3125
2249.35343	5527.3125
2252.25044	5508.4125
2255.14561	5500.4125
2258.03893	5496.6125
2260.93041	5472.9125
2263.82004	5465.9125
2266.70783	5468.1125
2269.59378	5435.2125
2272.4779	5443.6125
2275.36017	5418.6125
2278.24061	5433.7125
2281.11922	5406.5125
2283.996	5417.4125
2286.87094	5378.4125
2289.74405	5391.8125
2292.61534	5367.1125
2295.4848	5375.1125
2298.35243	5367.6125
2301.21824	5373.6125
2304.08223	5373.3125
2306.94439	5366.7125
2309.80474	5379.8125
2312.66327	5365.1125
2315.51999	5377.4125
2318.37489	5368.4125
2321.22797	5358.9125
2324.07925	5356.0125
2326.92871	5329.7125
2329.77637	5329.5125
2332.62222	5354.9125
2335.46626	5335.6125
2338.3085	5329.4125
2341.14893	5330.0125
2343.98756	5329.1125
2346.8244	5319.7125
2349.65943	5325.6125
2352.49267	5316.7125
2355.32411	5308.3125
2358.15376	5294.8125
2360.98161	5320.5125
2363.80768	5312.1125
2366.63195	5321.6125
2369.45444	5317.6125
2372.27514	5296.1125
2375.09405	5295.6125
2377.91118	5266.4125
2380.72652	5261.2125
2383.54009	5263.5125
2386.35187	5238.0125
2389.16188	5234.0125
2391.97011	5211.9125
2394.77657	5200.6125
2397.58125	5204.9125
2400.38416	5188.8125
2403.18529	5188.9125
2405.98466	5180.7125
2408.78226	5158.7125
2411.57809	5168.2125
2414.37216	5142.2125
2417.16446	5150.2125
2419.955	5146.3125
2422.74378	5149.5125
2425.5308	5148.0125
2428.31606	5149.9125
2431.09956	5141.3125
2433.88131	5121.5125
2436.6613	5130.2125
2439.43954	5123.2125
2442.21603	5120.8125
2444.99077	5108.5125
2447.76377	5112.8125
2450.53501	5118.9125
2453.30451	5119.9125
2456.07226	5105.6125
2458.83827	5111.8125
2461.60254	5119.0125
2464.36507	5110.0125
2467.12586	5086.0125
2469.88492	5102.7125
2472.64224	5117.1125
2475.39782	5111.9125
2478.15167	5095.8125
2480.90379	5091.9125
2483.65417	5106.7125
2486.40283	5101.4125
2489.14976	5116.1125
2491.89497	5102.4125
2494.63845	5112.8125
2497.3802	5104.4125
2500.12024	5097.8125
2502.85855	5106.5125
2505.59514	5091.4125
2508.33002	5095.6125
2511.06318	5089.8125
2513.79462	5073.0125
2516.52435	5067.6125
2519.25237	5056.9125
2521.97867	5054.6125
2524.70327	5057.6125
2527.42616	5061.2125
2530.14734	5071.6125
2532.86681	5028.0125
2535.58458	5036.2125
2538.30065	5023.3125
2541.01501	5055.0125
2543.72768	5028.3125
2546.43864	5018.2125
2549.14791	5027.3125
2551.85548	5022.7125
2554.56136	5003.9125
2557.26554	5010.6125
2559.96803	4999.0125
2562.66883	4993.1125
2565.36794	5003.2125
2568.06536	4987.5125
2570.7611	4982.9125
2573.45514	4979.7125
2576.14751	4974.7125
2578.83819	4958.1125
2581.52719	4961.0125
2584.21451	4938.3125
2586.90015	4963.6125
2589.58411	4939.7125
2592.2664	4937.4125
2594.94701	4936.6125
2597.62594	4932.7125
2600.30321	4925.0125
2602.9788	4930.3125
2605.65273	4920.2125
2608.32498	4924.4125
2610.99557	4912.8125
2613.66449	4925.7125
2616.33175	4910.2125
2618.99734	4892.6125
2621.66128	4930.8125
2624.32355	4915.4125
2626.98416	4915.1125
2629.64311	4918.1125
2632.30041	4913.6125
2634.95605	4892.3125
2637.61004	4874.5125
2640.26238	4875.7125
2642.91306	4891.8125
2645.56209	4880.5125
2648.20948	4878.2125
2650.85521	4871.2125
2653.4993	4879.8125
2656.14175	4884.3125
2658.78255	4885.4125
2661.42171	4899.7125
2664.05923	4889.7125
2666.6951	4900.8125
2669.32934	4904.9125
2671.96194	4900.5125
2674.59291	4898.3125
2677.22224	4897.1125
2679.84993	4890.1125
2682.476	4887.7125
2685.10043	4889.7125
2687.72324	4878.6125
2690.34441	4864.7125
2692.96396	4871.6125
2695.58188	4887.4125
2698.19818	4875.0125
2700.81285	4879.8125
2703.4259	4881.7125
2706.03733	4842.5125
2708.64714	4851.9125
2711.25533	4881.7125
2713.86191	4886.3125
2716.46687	4868.5125
2719.07021	4880.6125
2721.67194	4901.5125
2724.27206	4897.7125
2726.87057	4909.2125
2729.46747	4893.9125
2732.06276	4912.6125
2734.65644	4905.2125
2737.24852	4905.6125
2739.83899	4893.2125
2742.42786	4910.3125
2745.01513	4883.9125
2747.60079	4896.7125
2750.18486	4905.0125
2752.76733	4899.1125
2755.3482	4886.8125
2757.92747	4879.4125
2760.50515	4880.4125
2763.08123	4887.7125
2765.65573	4880.4125
2768.22863	4887.0125
2770.79994	4861.4125
2773.36967	4870.5125
2775.9378	4864.9125
2778.50435	4858.3125
2781.06932	4865.6125
2783.6327	4868.1125
2786.1945	4857.7125
2788.75471	4855.1125
2791.31335	4854.8125
2793.87041	4848.6125
2796.42589	4844.3125
2798.97979	4859.0125
2801.53212	4840.3125
2804.08288	4845.8125
2806.63206	4826.7125
2809.17967	4794.5125
2811.72571	4802.1125
2814.27018	4794.6125
2816.81308	4794.0125
2819.35442	4795.6125
2821.89419	4802.6125
2824.43239	4780.5125
2826.96904	4792.2125
2829.50412	4783.1125
2832.03763	4766.9125
2834.56959	4802.4125
2837.1	4784.1125
2839.62884	4796.3125
2842.15613	4818.1125
2844.68186	4820.1125
2847.20604	4861.4125
2849.72867	4863.3125
2852.24974	4869.2125
2854.76927	4874.0125
2857.28724	4846.7125
2859.80367	4843.1125
2862.31855	4840.5125
2864.83189	4839.0125
2867.34368	4834.5125
2869.85393	4836.0125
2872.36264	4847.1125
2874.8698	4824.2125
2877.37543	4849.4125
2879.87952	4834.7125
2882.38207	4836.2125
2884.88308	4838.2125
2887.38256	4826.8125
2889.88051	4843.2125
2892.37692	4851.1125
2894.8718	4857.6125
2897.36515	4870.8125
2899.85698	4874.7125
2902.34727	4891.8125
2904.83604	4904.4125
2907.32328	4918.0125
2909.809	4913.8125
2912.29319	4927.8125
2914.77587	4935.9125
2917.25702	4920.3125
2919.73665	4917.1125
2922.21476	4932.2125
2924.69136	4926.8125
2927.16644	4929.6125
2929.64	4921.6125
2932.11205	4918.5125
2934.58258	4916.9125
2937.05161	4926.4125
2939.51912	4934.9125
2941.98513	4900.6125
2944.44962	4874.9125
2946.91261	4863.9125
2949.37409	4885.3125
2951.83407	4874.6125
2954.29254	4859.3125
2956.74951	4846.9125
2959.20498	4845.8125
2961.65895	4819.5125
2964.11142	4835.0125
2966.56239	4808.8125
2969.01186	4801.4125
2971.45984	4778.0125
2973.90632	4782.5125
2976.35131	4774.0125
2978.7948	4749.0125
2981.23681	4724.3125
2983.67732	4737.6125
2986.11635	4720.6125
2988.55388	4710.7125
2990.98993	4694.4125
2993.4245	4677.8125
2995.85758	4658.4125
2998.28917	4682.5125
3000.71928	4659.7125
3003.14791	4664.8125
3005.57506	4652.0125
3008.00073	4630.7125
3010.42493	4634.8125
3012.84764	4636.4125
3015.26888	4641.6125
3017.68865	4633.2125
3020.10694	4614.1125
3022.52376	4594.4125
3024.9391	4615.1125
3027.35298	4588.9125
3029.76539	4598.8125
3032.17632	4583.6125
3034.5858	4588.4125
3036.9938	4595.5125
3039.40034	4573.8125
3041.80542	4580.6125
3044.20903	4575.2125
3046.61118	4584.9125
3049.01187	4579.5125
3051.4111	4581.3125
3053.80888	4564.8125
3056.20519	4567.3125
3058.60005	4570.9125
3060.99345	4534.7125
3063.3854	4525.7125
3065.7759	4518.0125
3068.16494	4541.0125
3070.55254	4509.1125
3072.93868	4518.5125
3075.32338	4501.3125
3077.70662	4486.3125
3080.08842	4501.9125
3082.46878	4489.1125
3084.84769	4498.3125
3087.22515	4501.7125
3089.60118	4498.1125
3091.97576	4501.4125
3094.3489	4514.2125
3096.72061	4531.6125
3099.09087	4524.8125
3101.4597	4512.9125
3103.82709	4523.3125
3106.19305	4515.6125
