Data from AgNPs_FTO_APTES_UA_1uM_CRN_200uM_R6G_10uM_NaF_0.1M_Addition_RamanShift__14__17-21-19-831.txt Node

Date: Thu Jan 27 17:21:19 GMT 2022
User: TCL
Spectrometer: QEP01345
Trigger mode: 4
Integration Time (sec): 7.000000E0
Scans to average: 10
Electric dark correction enabled: true
Nonlinearity correction enabled: false
Boxcar width: 0
XAxis mode: Raman Shifts
Number of Pixels in Spectrum: 1044
>>>>>Begin Spectral Data<<<<<
46.04893	0.875
50.45542	0.375
54.85868	-0.525
59.25871	-2.325
63.6555	42.775
68.04907	43.575
72.43941	44.575
76.82654	53.175
81.21044	53.475
85.59113	53.775
89.96862	53.675
94.34289	55.575
98.71396	59.975
103.08183	57.675
107.4465	63.175
111.80798	68.975
116.16626	65.575
120.52136	70.875
124.87327	69.975
129.222	68.475
133.56755	73.775
137.90993	77.775
142.24913	83.975
146.58517	90.975
150.91804	107.675
155.24774	120.775
159.57429	143.075
163.89768	176.175
168.21792	239.975
172.53501	317.775
176.84895	431.575
181.15975	609.575
185.46741	846.475
189.77193	1169.875
194.07331	1577.175
198.37157	2049.475
202.6667	2538.675
206.9587	3032.675
211.24758	3512.775
215.53334	4007.975
219.81599	4489.875
224.09553	5042.775
228.37195	5640.375
232.64527	6283.175
236.91549	6994.475
241.18261	7712.575
245.44663	8389.975
249.70755	9022.975
253.96539	9565.775
258.22014	10040.175
262.4718	10374.275
266.72039	10642.675
270.96589	10754.575
275.20832	10778.075
279.44768	10685.675
283.68397	10564.375
287.91719	10439.375
292.14735	10278.775
296.37445	10220.275
300.59849	10221.975
304.81948	10258.975
309.03742	10258.575
313.25231	10191.875
317.46415	10015.075
321.67296	9790.675
325.87872	9618.475
330.08145	9540.075
334.28114	9566.075
338.47781	9646.275
342.67145	9762.175
346.86207	9918.975
351.04966	10104.075
355.23424	10268.875
359.4158	10460.975
363.59435	10578.875
367.76989	10694.375
371.94243	10763.075
376.11196	10851.175
380.27849	10895.975
384.44203	10937.375
388.60257	11002.575
392.76012	11051.775
396.91468	11149.575
401.06626	11283.075
405.21485	11392.975
409.36047	11349.275
413.50311	11219.375
417.64277	11097.975
421.77947	11033.175
425.9132	11017.175
430.04396	11035.475
434.17176	11039.375
438.2966	11157.375
442.41849	11210.475
446.53742	11327.275
450.6534	11465.475
454.76644	11569.975
458.87653	11636.875
462.98368	11679.375
467.08789	11635.375
471.18916	11608.575
475.2875	11536.975
479.38291	11448.875
483.4754	11390.575
487.56496	11332.975
491.6516	11300.975
495.73531	11304.975
499.81612	11312.275
503.89401	11379.875
507.96899	11398.675
512.04106	11466.175
516.11023	11497.375
520.1765	11479.375
524.23987	11446.175
528.30034	11375.575
532.35792	11322.075
536.41261	11250.375
540.46441	11179.075
544.51333	11160.775
548.55936	11199.775
552.60252	11333.975
556.64279	11423.675
560.6802	11472.275
564.71473	11530.275
568.7464	11583.775
572.7752	11649.075
576.80114	11730.575
580.82422	11773.475
584.84444	11941.875
588.86181	12043.975
592.87633	12065.075
596.888	12007.475
600.89682	12038.575
604.9028	12278.675
608.90594	13164.975
612.90624	14289.075
616.90371	14003.775
620.89834	12354.075
624.89015	11533.675
628.87913	11384.575
632.86528	11419.975
636.84862	11559.275
640.82913	11509.275
644.80683	11399.775
648.78172	11232.675
652.75379	11254.275
656.72306	11319.475
660.68952	11489.775
664.65319	11501.475
668.61405	11397.075
672.57211	11370.575
676.52738	11423.475
680.47986	11452.475
684.42955	11445.775
688.37646	11383.375
692.32058	11348.075
696.26192	11395.575
700.20048	11417.275
704.13626	11423.375
708.06928	11456.875
711.99952	11412.575
715.927	11386.675
719.85171	11379.775
723.77365	11374.075
727.69284	11342.975
731.60928	11280.075
735.52295	11275.175
739.43388	11260.475
743.34206	11255.275
747.24749	11283.875
751.15017	11308.675
755.05012	11391.375
758.94733	11514.075
762.8418	11850.975
766.73354	12401.275
770.62254	13105.275
774.50882	13431.875
778.39237	13179.775
782.27321	12546.375
786.15132	11945.675
790.02671	11557.875
793.89938	11351.375
797.76935	11242.775
801.6366	11183.475
805.50115	11162.175
809.36299	11156.375
813.22213	11107.975
817.07857	11088.275
820.93231	11087.775
824.78336	11074.575
828.63172	11100.875
832.47738	11094.775
836.32036	11112.275
840.16066	11078.675
843.99827	11086.775
847.8332	11082.275
851.66546	11060.175
855.49504	11058.175
859.32195	11065.975
863.1462	11066.775
866.96777	11090.775
870.78668	11093.775
874.60293	11072.375
878.41652	11077.675
882.22745	11108.475
886.03573	11152.575
889.84136	11126.875
893.64433	11137.375
897.44466	11118.775
901.24235	11091.275
905.0374	11061.875
908.8298	11026.275
912.61957	11009.975
916.40671	11030.875
920.19121	11073.475
923.97308	11143.175
927.75233	11152.875
931.52895	11151.275
935.30295	11099.175
939.07433	11000.675
942.84309	10902.375
946.60924	10850.075
950.37278	10763.875
954.13371	10736.175
957.89203	10701.875
961.64774	10707.275
965.40086	10698.175
969.15137	10649.875
972.89929	10628.475
976.64461	10601.975
980.38733	10606.075
984.12747	10611.275
987.86502	10629.075
991.59999	10660.675
995.33237	10698.475
999.06217	10736.875
1002.78939	10813.775
1006.51404	10871.375
1010.23611	10924.875
1013.95561	11002.475
1017.67255	11025.075
1021.38692	10998.975
1025.09872	10940.775
1028.80796	10888.175
1032.51465	10891.175
1036.21877	10929.575
1039.92035	10968.575
1043.61937	10983.075
1047.31584	10983.475
1051.00976	11017.975
1054.70114	11014.775
1058.38998	11041.975
1062.07627	11068.275
1065.76003	11131.675
1069.44126	11191.975
1073.11995	11303.475
1076.79611	11400.975
1080.46974	11461.575
1084.14085	11452.475
1087.80943	11466.775
1091.47549	11490.075
1095.13903	11517.875
1098.80005	11455.275
1102.45857	11344.675
1106.11456	11224.675
1109.76805	11167.375
1113.41903	11136.975
1117.06751	11178.475
1120.71348	11273.075
1124.35696	11390.975
1127.99793	11520.775
1131.63641	11617.175
1135.2724	11471.275
1138.90589	11322.475
1142.5369	11211.575
1146.16542	11133.675
1149.79145	11110.075
1153.415	11061.575
1157.03607	11061.075
1160.65467	11155.975
1164.27079	11304.075
1167.88443	11566.275
1171.49561	11886.675
1175.10432	12372.675
1178.71056	12971.175
1182.31434	13558.775
1185.91565	13907.775
1189.51451	13905.875
1193.11091	13667.175
1196.70485	13335.975
1200.29634	12949.675
1203.88538	12640.375
1207.47197	12324.875
1211.05612	12037.075
1214.63782	11851.475
1218.21708	11714.575
1221.79391	11589.675
1225.36829	11522.075
1228.94024	11498.175
1232.50976	11495.675
1236.07685	11462.275
1239.6415	11446.575
1243.20374	11454.475
1246.76355	11494.775
1250.32093	11545.175
1253.8759	11621.575
1257.42845	11745.375
1260.97859	11890.675
1264.52631	12046.375
1268.07163	12196.675
1271.61453	12341.775
1275.15503	12473.175
1278.69312	12611.075
1282.22882	12685.275
1285.76211	12776.375
1289.29301	12950.775
1292.82151	13181.375
1296.34761	13438.175
1299.87133	13777.675
1303.39266	14219.475
1306.9116	14783.675
1310.42815	15371.975
1313.94233	15698.875
1317.45412	15568.875
1320.96354	15227.375
1324.47058	14901.075
1327.97525	14578.075
1331.47754	14314.875
1334.97747	14239.575
1338.47502	14200.975
1341.97022	14251.675
1345.46305	14449.575
1348.95352	14720.175
1352.44163	15081.275
1355.92738	15511.175
1359.41078	16127.575
1362.89183	16762.575
1366.37053	16664.375
1369.84688	15579.775
1373.32088	14288.375
1376.79254	13263.075
1380.26186	12697.775
1383.72883	12418.875
1387.19347	12198.675
1390.65578	12005.075
1394.11575	11829.475
1397.57339	11726.775
1401.0287	11691.175
1404.48168	11701.475
1407.93234	11655.275
1411.38068	11637.975
1414.82669	11544.375
1418.27039	11461.275
1421.71177	11335.175
1425.15083	11215.175
1428.58758	11118.075
1432.02203	11096.675
1435.45416	11142.875
1438.88399	11216.875
1442.31151	11219.875
1445.73673	11233.175
1449.15965	11294.275
1452.58027	11320.175
1455.9986	11368.375
1459.41463	11375.175
1462.82837	11467.075
1466.23982	11588.475
1469.64898	11729.675
1473.05586	11816.975
1476.46045	11893.375
1479.86276	11947.875
1483.26279	12022.875
1486.66054	12148.775
1490.05602	12277.675
1493.44922	12554.675
1496.84016	12931.475
1500.22882	13532.775
1503.61521	14288.175
1506.99934	15123.175
1510.38121	15745.175
1513.76081	15814.275
1517.13816	15297.575
1520.51324	14452.175
1523.88607	13615.475
1527.25665	13072.575
1530.62498	12762.275
1533.99105	12527.975
1537.35488	12396.475
1540.71647	12245.175
1544.07581	12105.675
1547.4329	12014.175
1550.78776	11933.875
1554.14038	11870.675
1557.49077	11878.275
1560.83892	11901.175
1564.18484	12005.575
1567.52853	12097.975
1570.86999	12283.075
1574.20922	12395.775
1577.54624	12434.575
1580.88103	12272.075
1584.2136	11960.475
1587.54395	11800.875
1590.87208	11792.175
1594.19801	11999.075
1597.52172	12348.575
1600.84321	12507.875
1604.16251	12402.775
1607.47959	12115.675
1610.79447	11761.075
1614.10715	11346.275
1617.41763	10982.475
1620.7259	10634.275
1624.03199	10449.875
1627.33587	10355.475
1630.63757	10392.375
1633.93707	10539.375
1637.23439	10824.075
1640.52951	11298.075
1643.82246	12004.275
1647.11321	12806.475
1650.40179	13372.575
1653.68819	13256.975
1656.97241	12476.975
1660.25446	11499.075
1663.53433	10716.575
1666.81203	10196.475
1670.08756	9910.375
1673.36092	9686.675
1676.63211	9547.075
1679.90115	9493.475
1683.16801	9402.575
1686.43272	9348.275
1689.69527	9281.575
1692.95567	9232.175
1696.2139	9198.175
1699.46999	9144.875
1702.72392	9108.675
1705.97571	9140.475
1709.22535	9162.675
1712.47284	9181.575
1715.71819	9173.475
1718.96139	9188.675
1722.20246	9168.675
1725.44139	9152.675
1728.67818	9124.475
1731.91284	9064.575
1735.14537	9073.775
1738.37576	9042.175
1741.60403	8995.275
1744.83017	8981.875
1748.05418	8941.275
1751.27607	8967.575
1754.49584	8929.375
1757.71349	8947.375
1760.92903	8951.675
1764.14244	8906.075
1767.35375	8901.775
1770.56294	8833.475
1773.77002	8866.975
1776.97499	8819.275
1780.17785	8812.875
1783.37861	8815.575
1786.57727	8801.275
1789.77382	8767.475
1792.96828	8770.275
1796.16064	8762.475
1799.3509	8718.175
1802.53907	8727.175
1805.72514	8705.675
1808.90913	8667.075
1812.09102	8654.575
1815.27083	8621.275
1818.44856	8631.775
1821.6242	8607.475
1824.79776	8589.075
1827.96924	8586.275
1831.13864	8556.675
1834.30597	8577.875
1837.47122	8564.975
1840.6344	8522.275
1843.7955	8519.775
1846.95454	8525.075
1850.11151	8526.275
1853.26642	8526.775
1856.41926	8510.475
1859.57004	8527.475
1862.71876	8503.075
1865.86542	8495.775
1869.01003	8482.475
1872.15258	8478.075
1875.29308	8443.875
1878.43152	8443.875
1881.56792	8439.175
1884.70227	8416.775
1887.83457	8392.875
1890.96482	8400.075
1894.09304	8368.275
1897.21921	8338.775
1900.34335	8356.375
1903.46544	8353.775
1906.58551	8338.975
1909.70353	8310.975
1912.81953	8302.475
1915.93349	8308.375
1919.04543	8296.875
1922.15534	8289.975
1925.26322	8269.075
1928.36908	8251.675
1931.47292	8232.775
1934.57473	8211.475
1937.67453	8196.275
1940.77232	8161.575
1943.86808	8143.175
1946.96184	8111.875
1950.05358	8100.775
1953.14331	8082.775
1956.23103	8048.375
1959.31675	8033.775
1962.40046	8022.075
1965.48217	7987.375
1968.56188	7978.475
1971.63959	7943.875
1974.7153	7909.675
1977.78901	7894.875
1980.86073	7868.875
1983.93046	7855.475
1986.99819	7817.675
1990.06394	7796.875
1993.1277	7775.675
1996.18947	7745.275
1999.24925	7743.475
2002.30706	7727.075
2005.36288	7693.875
2008.41672	7663.075
2011.46859	7626.275
2014.51848	7616.575
2017.56639	7598.875
2020.61233	7560.275
2023.6563	7560.975
2026.6983	7546.075
2029.73833	7513.075
2032.7764	7498.575
2035.8125	7486.375
2038.84664	7440.775
2041.87881	7438.975
2044.90903	7410.075
2047.93729	7391.875
2050.96359	7385.375
2053.98794	7380.875
2057.01034	7388.775
2060.03078	7381.975
2063.04927	7370.475
2066.06582	7376.175
2069.08042	7367.075
2072.09307	7359.775
2075.10378	7358.375
2078.11255	7347.375
2081.11938	7324.175
2084.12426	7334.175
2087.12722	7332.675
2090.12824	7331.375
2093.12732	7326.775
2096.12447	7312.075
2099.11969	7331.475
2102.11299	7318.875
2105.10435	7326.375
2108.09379	7337.175
2111.08131	7338.175
2114.0669	7356.475
2117.05057	7338.675
2120.03233	7335.275
2123.01216	7342.675
2125.99008	7362.975
2128.96609	7372.575
2131.94018	7356.775
2134.91236	7343.275
2137.88263	7392.375
2140.851	7379.475
2143.81746	7386.775
2146.78201	7378.275
2149.74466	7369.975
2152.7054	7386.375
2155.66425	7365.875
2158.6212	7373.475
2161.57625	7347.675
2164.52941	7355.375
2167.48067	7356.875
2170.43004	7367.975
2173.37752	7371.075
2176.32311	7340.275
2179.26681	7354.975
2182.20863	7328.375
2185.14856	7337.675
2188.08661	7342.475
2191.02278	7349.075
2193.95707	7334.575
2196.88948	7316.575
2199.82001	7327.675
2202.74867	7291.975
2205.67545	7291.775
2208.60037	7298.775
2211.52341	7264.275
2214.44458	7250.975
2217.36388	7245.275
2220.28132	7218.875
2223.1969	7220.475
2226.11061	7203.475
2229.02246	7184.575
2231.93245	7173.375
2234.84058	7164.675
2237.74686	7145.075
2240.65128	7155.575
2243.55385	7140.675
2246.45456	7104.475
2249.35343	7108.275
2252.25044	7098.675
2255.14561	7083.575
2258.03893	7065.575
2260.93041	7062.675
2263.82004	7061.475
2266.70783	7042.975
2269.59378	6999.075
2272.4779	6989.275
2275.36017	6971.075
2278.24061	6970.575
2281.11922	6968.875
2283.996	6958.075
2286.87094	6931.475
2289.74405	6908.275
2292.61534	6907.575
2295.4848	6896.075
2298.35243	6895.075
2301.21824	6885.575
2304.08223	6871.975
2306.94439	6883.975
2309.80474	6883.775
2312.66327	6881.275
2315.51999	6856.275
2318.37489	6851.975
2321.22797	6828.475
2324.07925	6817.475
2326.92871	6809.475
2329.77637	6787.575
2332.62222	6788.375
2335.46626	6771.775
2338.3085	6757.675
2341.14893	6747.575
2343.98756	6751.775
2346.8244	6737.975
2349.65943	6722.175
2352.49267	6708.575
2355.32411	6717.175
2358.15376	6724.875
2360.98161	6721.575
2363.80768	6722.475
2366.63195	6708.275
2369.45444	6707.175
2372.27514	6707.975
2375.09405	6686.375
2377.91118	6677.375
2380.72652	6666.775
2383.54009	6633.675
2386.35187	6631.775
2389.16188	6590.375
2391.97011	6602.675
2394.77657	6578.175
2397.58125	6569.575
2400.38416	6542.375
2403.18529	6540.175
2405.98466	6513.975
2408.78226	6514.775
2411.57809	6512.175
2414.37216	6486.575
2417.16446	6510.175
2419.955	6496.175
2422.74378	6481.475
2425.5308	6490.475
2428.31606	6455.975
2431.09956	6467.375
2433.88131	6460.975
2436.6613	6456.275
2439.43954	6438.675
2442.21603	6432.575
2444.99077	6427.575
2447.76377	6467.175
2450.53501	6413.375
2453.30451	6413.375
2456.07226	6405.775
2458.83827	6385.375
2461.60254	6386.475
2464.36507	6388.375
2467.12586	6381.175
2469.88492	6363.775
2472.64224	6354.375
2475.39782	6346.075
2478.15167	6335.575
2480.90379	6337.475
2483.65417	6340.775
2486.40283	6319.975
2489.14976	6325.975
2491.89497	6318.075
2494.63845	6320.675
2497.3802	6306.775
2500.12024	6307.875
2502.85855	6283.075
2505.59514	6296.375
2508.33002	6282.275
2511.06318	6286.075
2513.79462	6268.075
2516.52435	6241.275
2519.25237	6230.675
2521.97867	6232.575
2524.70327	6237.675
2527.42616	6207.175
2530.14734	6198.375
2532.86681	6197.075
2535.58458	6168.575
2538.30065	6166.375
2541.01501	6163.075
2543.72768	6163.275
2546.43864	6153.875
2549.14791	6143.475
2551.85548	6110.975
2554.56136	6103.675
2557.26554	6089.475
2559.96803	6086.375
2562.66883	6096.875
2565.36794	6084.675
2568.06536	6064.375
2570.7611	6048.875
2573.45514	6051.975
2576.14751	6024.475
2578.83819	6010.575
2581.52719	6034.175
2584.21451	5989.975
2586.90015	5977.775
2589.58411	5968.575
2592.2664	5957.875
2594.94701	5945.075
2597.62594	5921.275
2600.30321	5921.175
2602.9788	5912.275
2605.65273	5909.375
2608.32498	5893.775
2610.99557	5885.075
2613.66449	5895.775
2616.33175	5855.875
2618.99734	5847.375
2621.66128	5852.475
2624.32355	5844.375
2626.98416	5842.975
2629.64311	5833.075
2632.30041	5823.875
2634.95605	5795.475
2637.61004	5778.075
2640.26238	5779.575
2642.91306	5784.775
2645.56209	5780.875
2648.20948	5761.975
2650.85521	5756.875
2653.4993	5768.975
2656.14175	5763.775
2658.78255	5763.775
2661.42171	5764.775
2664.05923	5741.675
2666.6951	5757.775
2669.32934	5765.075
2671.96194	5726.075
2674.59291	5754.775
2677.22224	5723.675
2679.84993	5728.775
2682.476	5732.775
2685.10043	5729.275
2687.72324	5724.075
2690.34441	5728.775
2692.96396	5728.775
2695.58188	5745.675
2698.19818	5725.275
2700.81285	5730.475
2703.4259	5734.875
2706.03733	5719.875
2708.64714	5699.475
2711.25533	5717.575
2713.86191	5726.175
2716.46687	5717.375
2719.07021	5716.275
2721.67194	5726.575
2724.27206	5716.975
2726.87057	5737.475
2729.46747	5704.175
2732.06276	5699.975
2734.65644	5691.975
2737.24852	5687.375
2739.83899	5689.175
2742.42786	5676.775
2745.01513	5669.675
2747.60079	5664.675
2750.18486	5675.075
2752.76733	5658.675
2755.3482	5643.975
2757.92747	5638.575
2760.50515	5633.175
2763.08123	5627.375
2765.65573	5624.375
2768.22863	5611.875
2770.79994	5611.175
2773.36967	5593.975
2775.9378	5577.475
2778.50435	5574.475
2781.06932	5571.675
2783.6327	5555.275
2786.1945	5537.875
2788.75471	5555.675
2791.31335	5516.075
2793.87041	5514.775
2796.42589	5498.075
2798.97979	5495.075
2801.53212	5477.275
2804.08288	5483.675
2806.63206	5468.275
2809.17967	5456.375
2811.72571	5438.775
2814.27018	5441.275
2816.81308	5415.475
2819.35442	5416.675
2821.89419	5404.975
2824.43239	5405.275
2826.96904	5397.975
2829.50412	5398.475
2832.03763	5384.875
2834.56959	5388.575
2837.1	5383.275
2839.62884	5399.575
2842.15613	5384.775
2844.68186	5427.675
2847.20604	5428.375
2849.72867	5458.275
2852.24974	5427.875
2854.76927	5425.475
2857.28724	5411.875
2859.80367	5419.275
2862.31855	5394.875
2864.83189	5396.875
2867.34368	5381.975
2869.85393	5376.375
2872.36264	5380.575
2874.8698	5374.275
2877.37543	5380.075
2879.87952	5372.875
2882.38207	5374.475
2884.88308	5368.375
2887.38256	5354.875
2889.88051	5315.175
2892.37692	5355.475
2894.8718	5346.475
2897.36515	5359.875
2899.85698	5381.375
2902.34727	5371.275
2904.83604	5369.475
2907.32328	5380.675
2909.809	5376.775
2912.29319	5362.975
2914.77587	5393.075
2917.25702	5379.575
2919.73665	5365.575
2922.21476	5376.375
2924.69136	5385.075
2927.16644	5367.475
2929.64	5358.675
2932.11205	5363.275
2934.58258	5340.975
2937.05161	5368.075
2939.51912	5353.475
2941.98513	5348.275
2944.44962	5318.275
2946.91261	5312.875
2949.37409	5300.575
2951.83407	5297.475
2954.29254	5289.275
2956.74951	5280.875
2959.20498	5277.975
2961.65895	5288.975
2964.11142	5274.175
2966.56239	5252.975
2969.01186	5233.775
2971.45984	5234.275
2973.90632	5224.275
2976.35131	5239.575
2978.7948	5199.475
2981.23681	5183.275
2983.67732	5163.775
2986.11635	5175.375
2988.55388	5164.075
2990.98993	5152.775
2993.4245	5153.775
2995.85758	5138.675
2998.28917	5130.675
3000.71928	5131.775
3003.14791	5105.675
3005.57506	5102.775
3008.00073	5079.875
3010.42493	5065.275
3012.84764	5084.175
3015.26888	5078.675
3017.68865	5072.675
3020.10694	5065.775
3022.52376	5058.075
3024.9391	5040.075
3027.35298	5044.075
3029.76539	5043.275
3032.17632	5020.775
3034.5858	5016.975
3036.9938	5017.375
3039.40034	5014.275
3041.80542	5005.875
3044.20903	4999.075
3046.61118	4999.275
3049.01187	4993.975
3051.4111	4997.375
3053.80888	4951.175
3056.20519	4960.875
3058.60005	4963.275
3060.99345	4949.875
3063.3854	4939.375
3065.7759	4929.275
3068.16494	4920.275
3070.55254	4926.675
3072.93868	4899.375
3075.32338	4910.675
3077.70662	4899.675
3080.08842	4891.875
3082.46878	4881.475
3084.84769	4879.675
3087.22515	4895.775
3089.60118	4876.475
3091.97576	4880.275
3094.3489	4908.375
3096.72061	4895.375
3099.09087	4909.575
3101.4597	4888.575
3103.82709	4892.375
3106.19305	4892.975
3108.55757	4900.575
3110.92066	4888.575
3113.28232	4876.175
3115.64255	4874.775
3118.00134	4869.775
3120.35871	4863.975
3122.71466	4857.675
3125.06917	4854.375
3127.42226	4837.775
3129.77393	4849.575
3132.12417	4851.875
3134.47299	4848.075
3136.82039	4842.475
3139.16636	4869.675
3141.51092	4867.075
3143.85406	4883.475
3146.19579	4875.475
3148.53609	4894.875
3150.87499	4896.775
3153.21246	4891.475
3155.54853	4895.275
3157.88318	4918.275
3160.21642	4924.575
3162.54826	4917.075
3164.87868	4919.975
3167.2077	4923.475
3169.5353	4925.475
3171.86151	4928.875
3174.18631	4907.375
3176.5097	4930.575
3178.83169	4915.575
3181.15228	4916.375
3183.47147	4926.575
3185.78926	4905.775
3188.10565	4907.775
3190.42065	4905.175
3192.73424	4904.575
