Data from AgNPs_FTO_APTES_UA_1uM_CRN_2uM_R6G_10uM_NaF_0.1M_Addition_RamanShift__4__12-59-59-533.txt Node

Date: Thu Jan 27 12:59:59 GMT 2022
User: TCL
Spectrometer: QEP01345
Trigger mode: 4
Integration Time (sec): 7.000000E0
Scans to average: 10
Electric dark correction enabled: true
Nonlinearity correction enabled: false
Boxcar width: 0
XAxis mode: Raman Shifts
Number of Pixels in Spectrum: 1044
>>>>>Begin Spectral Data<<<<<
46.04893	0.125
50.45542	0.425
54.85868	-1.375
59.25871	-0.975
63.6555	59.925
68.04907	63.125
72.43941	67.225
76.82654	68.025
81.21044	69.925
85.59113	72.725
89.96862	74.025
94.34289	78.625
98.71396	81.025
103.08183	83.825
107.4465	86.625
111.80798	88.325
116.16626	89.125
120.52136	95.025
124.87327	98.925
129.222	95.725
133.56755	99.125
137.90993	107.025
142.24913	119.025
146.58517	132.825
150.91804	154.425
155.24774	177.425
159.57429	211.425
163.89768	274.025
168.21792	360.225
172.53501	485.025
176.84895	657.625
181.15975	932.125
185.46741	1296.425
189.77193	1780.025
194.07331	2387.125
198.37157	3071.725
202.6667	3816.825
206.9587	4529.825
211.24758	5235.525
215.53334	5924.425
219.81599	6711.225
224.09553	7531.825
228.37195	8470.025
232.64527	9456.425
236.91549	10536.225
241.18261	11616.725
245.44663	12586.925
249.70755	13487.025
253.96539	14237.325
258.22014	14909.425
262.4718	15462.125
266.72039	15832.225
270.96589	16011.425
275.20832	16007.925
279.44768	15889.525
283.68397	15681.025
287.91719	15489.825
292.14735	15381.925
296.37445	15327.125
300.59849	15377.525
304.81948	15455.225
309.03742	15478.725
313.25231	15427.225
317.46415	15258.025
321.67296	14979.725
325.87872	14773.425
330.08145	14658.725
334.28114	14662.925
338.47781	14781.425
342.67145	14947.025
346.86207	15168.925
351.04966	15470.625
355.23424	15781.725
359.4158	16056.125
363.59435	16244.825
367.76989	16439.425
371.94243	16531.525
376.11196	16647.625
380.27849	16758.025
384.44203	16857.725
388.60257	16986.125
392.76012	17165.225
396.91468	17341.625
401.06626	17593.825
405.21485	17756.225
409.36047	17784.225
413.50311	17668.125
417.64277	17612.125
421.77947	17689.425
425.9132	17785.025
430.04396	17891.725
434.17176	18002.325
438.2966	18123.425
442.41849	18342.725
446.53742	18811.725
450.6534	19397.225
454.76644	19761.925
458.87653	19845.425
462.98368	19650.825
467.08789	19362.925
471.18916	18932.325
475.2875	18550.525
479.38291	18199.825
483.4754	18043.925
487.56496	17890.625
491.6516	17746.525
495.73531	17692.125
499.81612	17701.225
503.89401	17902.225
507.96899	17952.425
512.04106	17918.225
516.11023	17822.925
520.1765	17681.825
524.23987	17603.525
528.30034	17504.525
532.35792	17373.525
536.41261	17211.525
540.46441	16951.725
544.51333	16831.625
548.55936	16979.225
552.60252	17251.625
556.64279	17628.525
560.6802	17905.725
564.71473	17944.325
568.7464	18077.825
572.7752	18371.925
576.80114	18789.025
580.82422	19363.225
584.84444	20130.125
588.86181	21144.525
592.87633	21979.325
596.888	22029.925
600.89682	21226.325
604.9028	20993.725
608.90594	22312.025
612.90624	23846.025
616.90371	22711.525
620.89834	19687.225
624.89015	18255.225
628.87913	18032.425
632.86528	17960.225
636.84862	17722.025
640.82913	17393.525
644.80683	16978.825
648.78172	16764.325
652.75379	16774.325
656.72306	17003.025
660.68952	17261.325
664.65319	17187.925
668.61405	16935.025
672.57211	16921.925
676.52738	16990.825
680.47986	16962.725
684.42955	16850.725
688.37646	16771.525
692.32058	16910.925
696.26192	17177.425
700.20048	17492.125
704.13626	17598.925
708.06928	17426.025
711.99952	17291.325
715.927	17305.125
719.85171	17423.125
723.77365	17378.625
727.69284	17133.325
731.60928	16888.525
735.52295	16796.225
739.43388	16821.725
743.34206	16904.025
747.24749	16992.625
751.15017	17121.325
755.05012	17388.525
758.94733	17762.325
762.8418	18402.625
766.73354	19429.925
770.62254	20412.525
774.50882	20700.125
778.39237	20044.825
782.27321	18957.525
786.15132	18046.325
790.02671	17511.225
793.89938	17277.025
797.76935	17185.925
801.6366	17197.925
805.50115	17135.625
809.36299	17062.525
813.22213	16893.525
817.07857	16804.325
820.93231	16731.525
824.78336	16695.625
828.63172	16705.325
832.47738	16761.025
836.32036	16843.825
840.16066	16974.725
843.99827	17108.425
847.8332	17035.425
851.66546	16895.325
855.49504	16838.225
859.32195	16809.525
863.1462	16727.425
866.96777	16694.025
870.78668	16593.925
874.60293	16616.225
878.41652	16630.925
882.22745	16679.125
886.03573	16768.025
889.84136	16801.225
893.64433	16692.425
897.44466	16610.425
901.24235	16515.825
905.0374	16465.825
908.8298	16410.225
912.61957	16495.125
916.40671	16650.225
920.19121	16910.425
923.97308	17199.625
927.75233	17387.325
931.52895	17354.225
935.30295	17199.625
939.07433	16902.225
942.84309	16698.025
946.60924	16648.225
950.37278	16649.525
954.13371	16578.225
957.89203	16423.925
961.64774	16351.425
965.40086	16331.325
969.15137	16327.125
972.89929	16267.425
976.64461	16291.125
980.38733	16362.425
984.12747	16493.325
987.86502	16693.225
991.59999	16963.525
995.33237	17411.225
999.06217	18113.625
1002.78939	18900.025
1006.51404	19380.925
1010.23611	19573.225
1013.95561	19643.825
1017.67255	19493.825
1021.38692	19276.925
1025.09872	19070.625
1028.80796	19445.225
1032.51465	20511.925
1036.21877	21574.625
1039.92035	21883.225
1043.61937	21464.025
1047.31584	20596.225
1051.00976	19576.325
1054.70114	18906.125
1058.38998	18629.125
1062.07627	18520.325
1065.76003	18464.425
1069.44126	18503.225
1073.11995	18803.725
1076.79611	19081.425
1080.46974	19223.525
1084.14085	19361.525
1087.80943	19473.625
1091.47549	19508.825
1095.13903	19462.825
1098.80005	19198.425
1102.45857	18864.225
1106.11456	18603.025
1109.76805	18513.325
1113.41903	18496.125
1117.06751	18491.425
1120.71348	18584.625
1124.35696	18670.025
1127.99793	18824.025
1131.63641	18980.025
1135.2724	18929.225
1138.90589	18881.225
1142.5369	18894.525
1146.16542	18948.025
1149.79145	18981.325
1153.415	19044.925
1157.03607	19194.925
1160.65467	19587.525
1164.27079	20408.025
1167.88443	21379.525
1171.49561	22464.825
1175.10432	23849.725
1178.71056	25610.125
1182.31434	27461.725
1185.91565	28493.225
1189.51451	28494.425
1193.11091	27643.925
1196.70485	26592.225
1200.29634	25645.725
1203.88538	25012.325
1207.47197	24671.825
1211.05612	24298.125
1214.63782	23861.725
1218.21708	23447.725
1221.79391	23097.225
1225.36829	22827.525
1228.94024	22502.025
1232.50976	21972.825
1236.07685	21569.625
1239.6415	21289.425
1243.20374	21317.325
1246.76355	21555.525
1250.32093	22067.125
1253.8759	22641.125
1257.42845	23288.625
1260.97859	24014.625
1264.52631	24765.225
1268.07163	25579.325
1271.61453	26479.025
1275.15503	27426.125
1278.69312	28307.525
1282.22882	28986.325
1285.76211	29543.325
1289.29301	30141.525
1292.82151	31087.825
1296.34761	32534.325
1299.87133	34556.625
1303.39266	36985.225
1306.9116	39439.425
1310.42815	41040.625
1313.94233	41410.625
1317.45412	40485.325
1320.96354	38855.725
1324.47058	37349.125
1327.97525	36300.625
1331.47754	35639.025
1334.97747	35197.825
1338.47502	34709.425
1341.97022	33998.925
1345.46305	33203.225
1348.95352	32799.625
1352.44163	33226.025
1355.92738	34770.125
1359.41078	37114.425
1362.89183	38775.925
1366.37053	38279.625
1369.84688	35386.425
1373.32088	31517.125
1376.79254	28740.425
1380.26186	27618.325
1383.72883	27467.625
1387.19347	27394.425
1390.65578	27001.325
1394.11575	26729.625
1397.57339	26798.325
1401.0287	27117.425
1404.48168	27412.225
1407.93234	27586.425
1411.38068	27396.825
1414.82669	26920.025
1418.27039	26143.425
1421.71177	25336.125
1425.15083	24633.425
1428.58758	24326.825
1432.02203	24563.425
1435.45416	25314.825
1438.88399	26094.725
1442.31151	26601.825
1445.73673	26761.725
1449.15965	26777.625
1452.58027	26590.125
1455.9986	26336.625
1459.41463	26277.325
1462.82837	26666.625
1466.23982	27240.325
1469.64898	27890.225
1473.05586	28343.425
1476.46045	28596.625
1479.86276	28527.325
1483.26279	28237.825
1486.66054	28022.525
1490.05602	28025.125
1493.44922	28164.225
1496.84016	28249.125
1500.22882	28311.925
1503.61521	28636.225
1506.99934	29166.725
1510.38121	29652.825
1513.76081	29735.925
1517.13816	29167.825
1520.51324	28381.725
1523.88607	27682.025
1527.25665	27456.225
1530.62498	27458.525
1533.99105	27485.225
1537.35488	27269.525
1540.71647	26954.025
1544.07581	26528.825
1547.4329	26107.925
1550.78776	25684.725
1554.14038	25341.725
1557.49077	25082.125
1560.83892	24763.825
1564.18484	24554.125
1567.52853	24437.825
1570.86999	24554.625
1574.20922	24855.425
1577.54624	25137.125
1580.88103	25348.225
1584.2136	25767.625
1587.54395	26880.125
1590.87208	28664.625
1594.19801	30939.425
1597.52172	32920.625
1600.84321	33523.025
1604.16251	31945.425
1607.47959	29069.525
1610.79447	26093.525
1614.10715	23632.125
1617.41763	21900.325
1620.7259	20833.225
1624.03199	20450.325
1627.33587	20621.725
1630.63757	21290.025
1633.93707	22513.725
1637.23439	24353.225
1640.52951	27011.925
1643.82246	30083.925
1647.11321	32396.025
1650.40179	32500.025
1653.68819	29866.125
1656.97241	25910.425
1660.25446	22365.625
1663.53433	19941.225
1666.81203	18518.025
1670.08756	17604.725
1673.36092	17096.325
1676.63211	16764.425
1679.90115	16490.925
1683.16801	16302.625
1686.43272	16149.625
1689.69527	16032.325
1692.95567	15888.025
1696.2139	15828.825
1699.46999	15805.425
1702.72392	15709.225
1705.97571	15748.125
1709.22535	15750.625
1712.47284	15773.125
1715.71819	15742.425
1718.96139	15743.825
1722.20246	15716.625
1725.44139	15667.725
1728.67818	15610.325
1731.91284	15523.025
1735.14537	15436.125
1738.37576	15394.825
1741.60403	15347.125
1744.83017	15291.425
1748.05418	15220.425
1751.27607	15221.125
1754.49584	15198.725
1757.71349	15154.725
1760.92903	15095.825
1764.14244	15102.325
1767.35375	15110.425
1770.56294	15114.825
1773.77002	15081.325
1776.97499	15092.025
1780.17785	15095.825
1783.37861	15109.025
1786.57727	15110.125
1789.77382	15080.125
1792.96828	15084.325
1796.16064	15047.325
1799.3509	15000.525
1802.53907	15001.825
1805.72514	14964.025
1808.90913	14910.125
1812.09102	14875.525
1815.27083	14883.125
1818.44856	14886.025
1821.6242	14831.325
1824.79776	14831.325
1827.96924	14822.025
1831.13864	14823.925
1834.30597	14833.825
1837.47122	14833.225
1840.6344	14852.325
1843.7955	14812.525
1846.95454	14848.225
1850.11151	14824.225
1853.26642	14831.325
1856.41926	14841.725
1859.57004	14845.625
1862.71876	14830.225
1865.86542	14823.425
1869.01003	14804.325
1872.15258	14782.925
1875.29308	14796.425
1878.43152	14783.625
1881.56792	14786.225
1884.70227	14777.125
1887.83457	14749.125
1890.96482	14725.125
1894.09304	14745.025
1897.21921	14698.225
1900.34335	14714.325
1903.46544	14697.625
1906.58551	14685.825
1909.70353	14660.025
1912.81953	14649.625
1915.93349	14649.325
1919.04543	14630.825
1922.15534	14600.425
1925.26322	14558.325
1928.36908	14532.625
1931.47292	14532.525
1934.57473	14486.525
1937.67453	14480.125
1940.77232	14441.925
1943.86808	14386.025
1946.96184	14332.525
1950.05358	14308.025
1953.14331	14274.825
1956.23103	14227.925
1959.31675	14240.225
1962.40046	14195.925
1965.48217	14154.625
1968.56188	14125.325
1971.63959	14077.925
1974.7153	14060.125
1977.78901	14014.625
1980.86073	13964.725
1983.93046	13917.925
1986.99819	13906.225
1990.06394	13860.625
1993.1277	13807.425
1996.18947	13766.925
1999.24925	13738.325
2002.30706	13695.025
2005.36288	13686.025
2008.41672	13682.725
2011.46859	13646.725
2014.51848	13572.225
2017.56639	13572.225
2020.61233	13561.925
2023.6563	13542.225
2026.6983	13516.425
2029.73833	13469.925
2032.7764	13503.025
2035.8125	13482.625
2038.84664	13449.425
2041.87881	13431.225
2044.90903	13441.525
2047.93729	13419.725
2050.96359	13387.825
2053.98794	13382.925
2057.01034	13366.525
2060.03078	13376.425
2063.04927	13353.325
2066.06582	13363.125
2069.08042	13347.725
2072.09307	13334.025
2075.10378	13328.925
2078.11255	13326.125
2081.11938	13322.725
2084.12426	13340.925
2087.12722	13304.625
2090.12824	13306.225
2093.12732	13300.625
2096.12447	13318.625
2099.11969	13310.625
2102.11299	13332.525
2105.10435	13357.825
2108.09379	13373.225
2111.08131	13368.525
2114.0669	13393.525
2117.05057	13381.825
2120.03233	13426.625
2123.01216	13382.725
2125.99008	13461.225
2128.96609	13430.525
2131.94018	13496.225
2134.91236	13462.525
2137.88263	13452.325
2140.851	13478.525
2143.81746	13516.725
2146.78201	13500.125
2149.74466	13507.625
2152.7054	13543.025
2155.66425	13537.925
2158.6212	13553.525
2161.57625	13528.025
2164.52941	13537.225
2167.48067	13544.225
2170.43004	13519.125
2173.37752	13513.725
2176.32311	13546.125
2179.26681	13527.725
2182.20863	13538.725
2185.14856	13547.625
2188.08661	13544.225
2191.02278	13574.925
2193.95707	13584.725
2196.88948	13575.625
2199.82001	13601.625
2202.74867	13603.725
2205.67545	13578.925
2208.60037	13580.825
2211.52341	13590.825
2214.44458	13545.225
2217.36388	13543.225
2220.28132	13545.925
2223.1969	13514.725
2226.11061	13529.825
2229.02246	13507.725
2231.93245	13510.725
2234.84058	13478.225
2237.74686	13439.525
2240.65128	13439.625
2243.55385	13421.525
2246.45456	13390.925
2249.35343	13375.825
2252.25044	13333.525
2255.14561	13332.625
2258.03893	13304.725
2260.93041	13293.825
2263.82004	13266.025
2266.70783	13267.225
2269.59378	13224.125
2272.4779	13192.625
2275.36017	13186.125
2278.24061	13171.325
2281.11922	13168.825
2283.996	13161.825
2286.87094	13158.925
2289.74405	13138.625
2292.61534	13157.225
2295.4848	13136.525
2298.35243	13164.225
2301.21824	13173.325
2304.08223	13216.425
2306.94439	13216.125
2309.80474	13232.125
2312.66327	13237.425
2315.51999	13260.225
2318.37489	13219.525
2321.22797	13221.025
2324.07925	13227.425
2326.92871	13214.725
2329.77637	13196.425
2332.62222	13212.025
2335.46626	13225.925
2338.3085	13193.225
2341.14893	13221.825
2343.98756	13230.625
2346.8244	13226.125
2349.65943	13209.525
2352.49267	13193.525
2355.32411	13188.925
2358.15376	13153.325
2360.98161	13137.925
2363.80768	13142.425
2366.63195	13132.625
2369.45444	13083.225
2372.27514	13056.125
2375.09405	13045.425
2377.91118	13037.725
2380.72652	13013.625
2383.54009	13005.825
2386.35187	12991.225
2389.16188	12974.925
2391.97011	12952.625
2394.77657	12947.025
2397.58125	12945.525
2400.38416	12922.325
2403.18529	12935.825
2405.98466	12895.625
2408.78226	12839.325
2411.57809	12845.625
2414.37216	12817.125
2417.16446	12815.625
2419.955	12785.025
2422.74378	12795.325
2425.5308	12795.225
2428.31606	12752.125
2431.09956	12773.025
2433.88131	12731.325
2436.6613	12803.825
2439.43954	12775.825
2442.21603	12776.625
2444.99077	12765.525
2447.76377	12749.725
2450.53501	12761.125
2453.30451	12766.225
2456.07226	12748.225
2458.83827	12746.025
2461.60254	12764.425
2464.36507	12771.625
2467.12586	12763.125
2469.88492	12767.025
2472.64224	12834.625
2475.39782	12820.425
2478.15167	12802.025
2480.90379	12831.725
2483.65417	12827.625
2486.40283	12841.025
2489.14976	12846.325
2491.89497	12837.225
2494.63845	12848.525
2497.3802	12848.525
2500.12024	12847.925
2502.85855	12852.325
2505.59514	12808.125
2508.33002	12859.425
2511.06318	12821.925
2513.79462	12816.725
2516.52435	12770.425
2519.25237	12788.825
2521.97867	12805.125
2524.70327	12803.525
2527.42616	12797.325
2530.14734	12782.225
2532.86681	12799.925
2535.58458	12770.025
2538.30065	12756.825
2541.01501	12792.125
2543.72768	12760.325
2546.43864	12786.425
2549.14791	12779.225
2551.85548	12738.825
2554.56136	12770.325
2557.26554	12750.325
2559.96803	12752.225
2562.66883	12760.525
2565.36794	12789.025
2568.06536	12753.725
2570.7611	12723.825
2573.45514	12705.225
2576.14751	12724.125
2578.83819	12718.425
2581.52719	12719.025
2584.21451	12751.825
2586.90015	12718.425
2589.58411	12712.225
2592.2664	12725.125
2594.94701	12657.225
2597.62594	12692.425
2600.30321	12693.525
2602.9788	12694.025
2605.65273	12679.525
2608.32498	12647.425
2610.99557	12668.625
2613.66449	12674.525
2616.33175	12667.825
2618.99734	12679.725
2621.66128	12664.625
2624.32355	12632.325
2626.98416	12662.625
2629.64311	12667.125
2632.30041	12624.425
2634.95605	12626.825
2637.61004	12614.425
2640.26238	12575.325
2642.91306	12621.825
2645.56209	12585.825
2648.20948	12608.825
2650.85521	12582.225
2653.4993	12619.425
2656.14175	12602.425
2658.78255	12621.525
2661.42171	12622.725
2664.05923	12638.825
2666.6951	12644.625
2669.32934	12656.925
2671.96194	12638.825
2674.59291	12676.025
2677.22224	12657.525
2679.84993	12656.625
2682.476	12620.725
2685.10043	12627.125
2687.72324	12594.025
2690.34441	12591.825
2692.96396	12594.425
2695.58188	12592.125
2698.19818	12577.725
2700.81285	12575.325
2703.4259	12601.925
2706.03733	12580.025
2708.64714	12594.425
2711.25533	12604.025
2713.86191	12622.025
2716.46687	12664.825
2719.07021	12644.425
2721.67194	12656.225
2724.27206	12653.325
2726.87057	12693.325
2729.46747	12700.325
2732.06276	12693.525
2734.65644	12682.225
2737.24852	12699.125
2739.83899	12695.125
2742.42786	12664.025
2745.01513	12652.025
2747.60079	12666.525
2750.18486	12659.525
2752.76733	12652.525
2755.3482	12659.925
2757.92747	12676.525
2760.50515	12650.525
2763.08123	12652.825
2765.65573	12675.825
2768.22863	12623.725
2770.79994	12639.725
2773.36967	12638.925
2775.9378	12633.225
2778.50435	12671.025
2781.06932	12638.325
2783.6327	12638.025
2786.1945	12646.725
2788.75471	12633.325
2791.31335	12599.725
2793.87041	12600.325
2796.42589	12580.325
2798.97979	12560.125
2801.53212	12542.325
2804.08288	12527.725
2806.63206	12485.825
2809.17967	12473.925
2811.72571	12438.525
2814.27018	12438.525
2816.81308	12428.525
2819.35442	12416.625
2821.89419	12390.225
2824.43239	12417.325
2826.96904	12384.225
2829.50412	12399.625
2832.03763	12359.025
2834.56959	12398.325
2837.1	12406.425
2839.62884	12397.625
2842.15613	12371.225
2844.68186	12428.525
2847.20604	12400.825
2849.72867	12410.125
2852.24974	12428.325
2854.76927	12408.525
2857.28724	12422.725
2859.80367	12400.625
2862.31855	12389.625
2864.83189	12366.325
2867.34368	12376.425
2869.85393	12362.125
2872.36264	12349.125
2874.8698	12374.825
2877.37543	12344.525
2879.87952	12367.625
2882.38207	12346.625
2884.88308	12381.025
2887.38256	12386.625
2889.88051	12400.425
2892.37692	12409.425
2894.8718	12383.125
2897.36515	12407.225
2899.85698	12437.125
2902.34727	12457.725
2904.83604	12476.925
2907.32328	12494.625
2909.809	12498.525
2912.29319	12503.025
2914.77587	12491.225
2917.25702	12470.625
2919.73665	12485.925
2922.21476	12463.425
2924.69136	12466.625
2927.16644	12468.225
2929.64	12434.125
2932.11205	12445.225
2934.58258	12420.225
2937.05161	12416.125
2939.51912	12396.125
2941.98513	12396.825
2944.44962	12361.925
2946.91261	12307.125
2949.37409	12327.125
2951.83407	12326.225
2954.29254	12357.425
2956.74951	12312.925
2959.20498	12315.425
2961.65895	12306.725
2964.11142	12309.525
2966.56239	12286.325
2969.01186	12295.625
2971.45984	12260.225
2973.90632	12233.825
2976.35131	12236.825
2978.7948	12193.425
2981.23681	12171.625
2983.67732	12155.825
2986.11635	12128.925
2988.55388	12086.125
2990.98993	12080.225
2993.4245	12058.025
2995.85758	12053.325
2998.28917	12003.425
3000.71928	12003.425
3003.14791	11975.425
3005.57506	11964.925
3008.00073	11951.225
3010.42493	11967.725
3012.84764	11946.825
3015.26888	11945.325
3017.68865	11932.825
3020.10694	11920.825
3022.52376	11900.025
3024.9391	11874.025
3027.35298	11878.325
3029.76539	11878.425
3032.17632	11861.825
3034.5858	11836.325
3036.9938	11844.925
3039.40034	11844.225
3041.80542	11843.025
3044.20903	11808.825
3046.61118	11826.425
3049.01187	11790.625
3051.4111	11783.825
3053.80888	11790.125
3056.20519	11780.925
3058.60005	11755.725
3060.99345	11715.725
3063.3854	11669.825
3065.7759	11670.525
3068.16494	11645.525
3070.55254	11641.725
3072.93868	11653.525
3075.32338	11587.025
3077.70662	11589.325
3080.08842	11578.125
3082.46878	11551.525
3084.84769	11560.625
3087.22515	11550.825
3089.60118	11549.225
3091.97576	11545.625
3094.3489	11559.425
3096.72061	11566.225
3099.09087	11561.525
3101.4597	11543.125
3103.82709	11563.525
3106.19305	11508.425
3108.55757	11542.925
3110.92066	11533.225
3113.28232	11527.125
3115.64255	11492.625
3118.00134	11463.625
3120.35871	11469.325
3122.71466	11442.925
3125.06917	11435.325
3127.42226	11419.525
3129.77393	11403.425
