Data from AgNPs_FTO_APTES_UA_1uM_CRN_2uM_R6G_10uM_NaF_0.1M_Addition_RamanShift__10__13-06-59-541.txt Node

Date: Thu Jan 27 13:06:59 GMT 2022
User: TCL
Spectrometer: QEP01345
Trigger mode: 4
Integration Time (sec): 7.000000E0
Scans to average: 10
Electric dark correction enabled: true
Nonlinearity correction enabled: false
Boxcar width: 0
XAxis mode: Raman Shifts
Number of Pixels in Spectrum: 1044
>>>>>Begin Spectral Data<<<<<
46.04893	1.225
50.45542	0.725
54.85868	-0.575
59.25871	-1.775
63.6555	61.625
68.04907	62.225
72.43941	66.825
76.82654	68.825
81.21044	68.925
85.59113	70.425
89.96862	78.125
94.34289	77.525
98.71396	80.425
103.08183	82.625
107.4465	86.725
111.80798	89.825
116.16626	91.325
120.52136	96.925
124.87327	98.425
129.222	99.525
133.56755	108.625
137.90993	115.425
142.24913	123.025
146.58517	137.025
150.91804	160.525
155.24774	185.725
159.57429	231.525
163.89768	293.725
168.21792	385.725
172.53501	529.425
176.84895	732.325
181.15975	1027.325
185.46741	1438.225
189.77193	1978.325
194.07331	2658.125
198.37157	3427.125
202.6667	4254.025
206.9587	5054.525
211.24758	5847.425
215.53334	6640.425
219.81599	7481.925
224.09553	8370.225
228.37195	9358.625
232.64527	10452.625
236.91549	11618.025
241.18261	12812.825
245.44663	13955.125
249.70755	15025.025
253.96539	15936.125
258.22014	16705.325
262.4718	17309.725
266.72039	17745.225
270.96589	17976.725
275.20832	17999.425
279.44768	17842.825
283.68397	17672.325
287.91719	17498.725
292.14735	17323.725
296.37445	17258.925
300.59849	17209.225
304.81948	17256.225
309.03742	17266.925
313.25231	17180.325
317.46415	16971.925
321.67296	16763.025
325.87872	16543.725
330.08145	16438.925
334.28114	16456.225
338.47781	16563.225
342.67145	16744.425
346.86207	16994.225
351.04966	17272.925
355.23424	17557.325
359.4158	17813.125
363.59435	18015.825
367.76989	18159.725
371.94243	18255.025
376.11196	18336.625
380.27849	18386.825
384.44203	18466.925
388.60257	18599.425
392.76012	18793.125
396.91468	19057.025
401.06626	19279.125
405.21485	19495.725
409.36047	19445.925
413.50311	19309.325
417.64277	19289.925
421.77947	19340.625
425.9132	19463.825
430.04396	19601.825
434.17176	19654.225
438.2966	19730.525
442.41849	19869.125
446.53742	20219.425
450.6534	20566.325
454.76644	20882.825
458.87653	20953.125
462.98368	20871.325
467.08789	20768.025
471.18916	20524.625
475.2875	20252.425
479.38291	20059.425
483.4754	19935.825
487.56496	19752.925
491.6516	19596.325
495.73531	19442.925
499.81612	19427.625
503.89401	19557.825
507.96899	19678.525
512.04106	19706.425
516.11023	19679.425
520.1765	19503.325
524.23987	19319.825
528.30034	19176.325
532.35792	19025.425
536.41261	18866.925
540.46441	18734.325
544.51333	18692.325
548.55936	18840.025
552.60252	19080.425
556.64279	19374.925
560.6802	19603.025
564.71473	19732.225
568.7464	19903.125
572.7752	20292.225
576.80114	20816.225
580.82422	21513.325
584.84444	22300.725
588.86181	23390.325
592.87633	24303.525
596.888	24190.325
600.89682	23146.025
604.9028	22606.125
608.90594	23260.125
612.90624	24287.325
616.90371	23253.425
620.89834	20689.325
624.89015	19458.625
628.87913	19353.525
632.86528	19457.425
636.84862	19515.325
640.82913	19222.325
644.80683	18877.025
648.78172	18681.425
652.75379	18681.525
656.72306	18883.425
660.68952	19084.525
664.65319	19007.325
668.61405	18799.125
672.57211	18738.525
676.52738	18830.425
680.47986	18799.025
684.42955	18680.425
688.37646	18628.125
692.32058	18667.125
696.26192	18890.425
700.20048	19102.825
704.13626	19241.625
708.06928	19256.725
711.99952	19229.725
715.927	19232.425
719.85171	19244.125
723.77365	19190.225
727.69284	18962.725
731.60928	18725.325
735.52295	18606.525
739.43388	18649.525
743.34206	18674.625
747.24749	18742.225
751.15017	18909.125
755.05012	19175.725
758.94733	19527.225
762.8418	20148.325
766.73354	21069.325
770.62254	21975.825
774.50882	22114.425
778.39237	21489.025
782.27321	20550.225
786.15132	19717.625
790.02671	19184.025
793.89938	18880.225
797.76935	18726.725
801.6366	18673.925
805.50115	18629.125
809.36299	18554.225
813.22213	18466.125
817.07857	18370.325
820.93231	18338.225
824.78336	18266.725
828.63172	18243.325
832.47738	18182.425
836.32036	18194.825
840.16066	18195.925
843.99827	18190.725
847.8332	18164.125
851.66546	18165.425
855.49504	18189.125
859.32195	18218.525
863.1462	18182.125
866.96777	18184.225
870.78668	18169.225
874.60293	18196.125
878.41652	18196.525
882.22745	18254.125
886.03573	18325.225
889.84136	18309.725
893.64433	18251.525
897.44466	18162.825
901.24235	18148.825
905.0374	18109.525
908.8298	18081.025
912.61957	18115.025
916.40671	18192.525
920.19121	18375.125
923.97308	18529.925
927.75233	18561.925
931.52895	18421.625
935.30295	18216.025
939.07433	17983.425
942.84309	17774.325
946.60924	17714.325
950.37278	17696.625
954.13371	17687.325
957.89203	17639.825
961.64774	17618.825
965.40086	17610.625
969.15137	17596.525
972.89929	17535.425
976.64461	17460.525
980.38733	17446.825
984.12747	17495.725
987.86502	17510.325
991.59999	17578.825
995.33237	17709.725
999.06217	17907.725
1002.78939	18179.425
1006.51404	18506.825
1010.23611	18784.225
1013.95561	18941.125
1017.67255	18982.625
1021.38692	18837.225
1025.09872	18593.225
1028.80796	18331.725
1032.51465	18276.825
1036.21877	18364.525
1039.92035	18404.425
1043.61937	18454.225
1047.31584	18434.025
1051.00976	18425.925
1054.70114	18422.825
1058.38998	18520.625
1062.07627	18643.525
1065.76003	18807.925
1069.44126	19035.725
1073.11995	19308.325
1076.79611	19593.025
1080.46974	19679.425
1084.14085	19799.225
1087.80943	19897.325
1091.47549	20033.325
1095.13903	20093.925
1098.80005	19930.525
1102.45857	19604.825
1106.11456	19272.425
1109.76805	19091.625
1113.41903	18976.925
1117.06751	18997.125
1120.71348	19111.025
1124.35696	19199.025
1127.99793	19400.925
1131.63641	19515.725
1135.2724	19487.825
1138.90589	19400.625
1142.5369	19436.525
1146.16542	19515.725
1149.79145	19636.725
1153.415	19716.925
1157.03607	19826.025
1160.65467	20158.725
1164.27079	20810.225
1167.88443	21606.225
1171.49561	22465.425
1175.10432	23395.825
1178.71056	24591.825
1182.31434	25792.025
1185.91565	26482.125
1189.51451	26441.125
1193.11091	26073.725
1196.70485	25500.125
1200.29634	24852.425
1203.88538	24371.125
1207.47197	24169.625
1211.05612	23996.025
1214.63782	23683.925
1218.21708	23146.025
1221.79391	22580.725
1225.36829	22105.325
1228.94024	21900.625
1232.50976	21722.625
1236.07685	21555.425
1239.6415	21363.625
1243.20374	21393.925
1246.76355	21480.525
1250.32093	21700.225
1253.8759	22094.025
1257.42845	22468.525
1260.97859	23014.525
1264.52631	23564.225
1268.07163	24069.325
1271.61453	24582.225
1275.15503	25065.725
1278.69312	25619.925
1282.22882	26197.925
1285.76211	26820.225
1289.29301	27623.525
1292.82151	28589.125
1296.34761	29747.025
1299.87133	31136.225
1303.39266	32494.325
1306.9116	33765.325
1310.42815	34693.425
1313.94233	35017.525
1317.45412	34717.525
1320.96354	34113.725
1324.47058	33709.725
1327.97525	33403.925
1331.47754	33246.525
1334.97747	33137.625
1338.47502	32905.425
1341.97022	32657.825
1345.46305	32449.425
1348.95352	32157.625
1352.44163	32201.325
1355.92738	32629.025
1359.41078	33549.825
1362.89183	34426.525
1366.37053	34175.125
1369.84688	32230.525
1373.32088	29314.025
1376.79254	27128.525
1380.26186	26222.325
1383.72883	26126.525
1387.19347	26181.925
1390.65578	25894.725
1394.11575	25696.025
1397.57339	25784.525
1401.0287	26161.525
1404.48168	26439.425
1407.93234	26507.825
1411.38068	26178.425
1414.82669	25595.025
1418.27039	24775.325
1421.71177	23998.925
1425.15083	23412.825
1428.58758	23141.225
1432.02203	23330.525
1435.45416	23788.725
1438.88399	24389.725
1442.31151	24820.825
1445.73673	24957.225
1449.15965	25017.825
1452.58027	24962.925
1455.9986	24862.825
1459.41463	24935.125
1462.82837	25282.325
1466.23982	25726.625
1469.64898	26112.625
1473.05586	26361.725
1476.46045	26437.225
1479.86276	26290.925
1483.26279	26072.025
1486.66054	25963.625
1490.05602	26024.525
1493.44922	26309.125
1496.84016	26666.625
1500.22882	27041.625
1503.61521	27612.825
1506.99934	28204.625
1510.38121	28596.725
1513.76081	28669.125
1517.13816	28254.825
1520.51324	27701.325
1523.88607	27266.725
1527.25665	27082.325
1530.62498	27039.925
1533.99105	26871.925
1537.35488	26532.825
1540.71647	26015.125
1544.07581	25394.925
1547.4329	24789.525
1550.78776	24365.725
1554.14038	24035.425
1557.49077	23813.525
1560.83892	23711.925
1564.18484	23612.225
1567.52853	23640.025
1570.86999	23786.325
1574.20922	24129.225
1577.54624	24436.925
1580.88103	24568.225
1584.2136	24752.225
1587.54395	25412.725
1590.87208	26482.025
1594.19801	27862.725
1597.52172	29166.625
1600.84321	29558.225
1604.16251	28455.325
1607.47959	26528.425
1610.79447	24498.125
1614.10715	22713.725
1617.41763	21289.225
1620.7259	20318.525
1624.03199	19815.825
1627.33587	19792.425
1630.63757	20203.925
1633.93707	21224.525
1637.23439	22963.025
1640.52951	25498.925
1643.82246	28619.725
1647.11321	31073.025
1650.40179	31479.525
1653.68819	29381.425
1656.97241	25792.925
1660.25446	22508.225
1663.53433	20120.525
1666.81203	18659.225
1670.08756	17768.225
1673.36092	17194.725
1676.63211	16865.225
1679.90115	16582.225
1683.16801	16349.125
1686.43272	16185.525
1689.69527	16064.225
1692.95567	15964.525
1696.2139	15880.225
1699.46999	15819.525
1702.72392	15758.525
1705.97571	15754.725
1709.22535	15758.425
1712.47284	15748.725
1715.71819	15738.125
1718.96139	15738.125
1722.20246	15682.025
1725.44139	15615.225
1728.67818	15572.625
1731.91284	15472.325
1735.14537	15382.025
1738.37576	15361.225
1741.60403	15263.225
1744.83017	15223.325
1748.05418	15161.625
1751.27607	15135.125
1754.49584	15118.525
1757.71349	15073.925
1760.92903	15066.425
1764.14244	15041.725
1767.35375	15024.325
1770.56294	15010.525
1773.77002	14985.725
1776.97499	14996.425
1780.17785	14965.025
1783.37861	14990.625
1786.57727	14988.225
1789.77382	14935.625
1792.96828	14919.125
1796.16064	14869.025
1799.3509	14840.225
1802.53907	14822.125
1805.72514	14764.125
1808.90913	14717.625
1812.09102	14730.725
1815.27083	14704.025
1818.44856	14676.525
1821.6242	14667.125
1824.79776	14613.125
1827.96924	14613.225
1831.13864	14607.925
1834.30597	14652.825
1837.47122	14594.525
1840.6344	14620.225
1843.7955	14593.025
1846.95454	14586.325
1850.11151	14561.725
1853.26642	14542.825
1856.41926	14573.525
1859.57004	14577.125
1862.71876	14529.225
1865.86542	14496.425
1869.01003	14495.225
1872.15258	14447.125
1875.29308	14449.425
1878.43152	14405.125
1881.56792	14397.625
1884.70227	14370.425
1887.83457	14361.825
1890.96482	14312.925
1894.09304	14306.125
1897.21921	14272.725
1900.34335	14281.625
1903.46544	14274.825
1906.58551	14236.225
1909.70353	14223.225
1912.81953	14201.725
1915.93349	14205.925
1919.04543	14148.125
1922.15534	14081.025
1925.26322	14070.525
1928.36908	14043.225
1931.47292	14029.825
1934.57473	13961.125
1937.67453	13953.125
1940.77232	13914.925
1943.86808	13850.525
1946.96184	13836.325
1950.05358	13783.225
1953.14331	13734.225
1956.23103	13728.325
1959.31675	13684.625
1962.40046	13680.625
1965.48217	13588.725
1968.56188	13566.925
1971.63959	13545.925
1974.7153	13472.425
1977.78901	13436.225
1980.86073	13379.025
1983.93046	13358.725
1986.99819	13302.225
1990.06394	13246.125
1993.1277	13232.725
1996.18947	13167.625
1999.24925	13145.125
2002.30706	13106.625
2005.36288	13064.825
2008.41672	13029.825
2011.46859	12975.825
2014.51848	12921.825
2017.56639	12897.525
2020.61233	12878.125
2023.6563	12867.625
2026.6983	12832.425
2029.73833	12788.925
2032.7764	12761.325
2035.8125	12739.325
2038.84664	12690.225
2041.87881	12686.525
2044.90903	12665.725
2047.93729	12617.125
2050.96359	12604.625
2053.98794	12562.325
2057.01034	12567.725
2060.03078	12589.925
2063.04927	12580.625
2066.06582	12586.925
2069.08042	12526.525
2072.09307	12546.225
2075.10378	12534.125
2078.11255	12529.025
2081.11938	12521.425
2084.12426	12518.525
2087.12722	12496.625
2090.12824	12514.225
2093.12732	12478.525
2096.12447	12485.025
2099.11969	12479.725
2102.11299	12498.825
2105.10435	12528.925
2108.09379	12501.025
2111.08131	12538.925
2114.0669	12518.025
2117.05057	12538.625
2120.03233	12535.325
2123.01216	12547.025
2125.99008	12522.425
2128.96609	12550.525
2131.94018	12547.525
2134.91236	12548.925
2137.88263	12542.025
2140.851	12560.625
2143.81746	12572.225
2146.78201	12579.625
2149.74466	12572.425
2152.7054	12562.125
2155.66425	12550.125
2158.6212	12540.025
2161.57625	12547.225
2164.52941	12576.625
2167.48067	12548.125
2170.43004	12548.125
2173.37752	12549.425
2176.32311	12503.125
2179.26681	12531.325
2182.20863	12500.625
2185.14856	12501.725
2188.08661	12508.725
2191.02278	12508.825
2193.95707	12509.625
2196.88948	12481.025
2199.82001	12485.525
2202.74867	12458.525
2205.67545	12452.525
2208.60037	12427.425
2211.52341	12412.725
2214.44458	12363.125
2217.36388	12346.425
2220.28132	12334.625
2223.1969	12293.225
2226.11061	12292.625
2229.02246	12278.625
2231.93245	12234.325
2234.84058	12268.225
2237.74686	12196.225
2240.65128	12211.025
2243.55385	12164.325
2246.45456	12179.425
2249.35343	12145.625
2252.25044	12102.525
2255.14561	12082.425
2258.03893	12077.225
2260.93041	12051.225
2263.82004	11995.325
2266.70783	11994.725
2269.59378	11975.825
2272.4779	11924.925
2275.36017	11932.325
2278.24061	11883.125
2281.11922	11861.225
2283.996	11856.125
2286.87094	11855.025
2289.74405	11800.425
2292.61534	11781.925
2295.4848	11778.125
2298.35243	11786.625
2301.21824	11777.325
2304.08223	11768.725
2306.94439	11753.125
2309.80474	11733.925
2312.66327	11745.125
2315.51999	11720.225
2318.37489	11727.225
2321.22797	11696.825
2324.07925	11651.325
2326.92871	11629.525
2329.77637	11617.825
2332.62222	11610.525
2335.46626	11601.325
2338.3085	11572.025
2341.14893	11556.625
2343.98756	11564.025
2346.8244	11570.325
2349.65943	11555.025
2352.49267	11544.625
2355.32411	11506.225
2358.15376	11523.325
2360.98161	11507.125
2363.80768	11502.525
2366.63195	11516.725
2369.45444	11489.625
2372.27514	11467.525
2375.09405	11442.325
2377.91118	11452.125
2380.72652	11429.625
2383.54009	11393.625
2386.35187	11388.225
2389.16188	11336.825
2391.97011	11325.925
2394.77657	11289.125
2397.58125	11287.725
2400.38416	11274.925
2403.18529	11251.725
2405.98466	11242.425
2408.78226	11226.025
2411.57809	11201.425
2414.37216	11172.125
2417.16446	11174.425
2419.955	11163.125
2422.74378	11166.125
2425.5308	11156.625
2428.31606	11138.225
2431.09956	11139.025
2433.88131	11105.725
2436.6613	11117.625
2439.43954	11092.125
2442.21603	11104.025
2444.99077	11077.825
2447.76377	11087.125
2450.53501	11095.825
2453.30451	11069.625
2456.07226	11050.125
2458.83827	11023.925
2461.60254	11045.225
2464.36507	10991.225
2467.12586	11013.325
2469.88492	11027.725
2472.64224	11016.125
2475.39782	11024.025
2478.15167	10994.525
2480.90379	10962.625
2483.65417	10985.325
2486.40283	10983.625
2489.14976	10977.025
2491.89497	10977.625
2494.63845	10971.825
2497.3802	10934.825
2500.12024	10927.725
2502.85855	10940.525
2505.59514	10904.325
2508.33002	10912.425
2511.06318	10895.225
2513.79462	10876.925
2516.52435	10837.725
2519.25237	10858.325
2521.97867	10852.325
2524.70327	10880.025
2527.42616	10813.725
2530.14734	10801.625
2532.86681	10826.825
2535.58458	10792.325
2538.30065	10775.225
2541.01501	10780.425
2543.72768	10752.725
2546.43864	10750.925
2549.14791	10745.225
2551.85548	10729.225
2554.56136	10716.125
2557.26554	10689.825
2559.96803	10670.925
2562.66883	10655.125
2565.36794	10665.625
2568.06536	10664.825
2570.7611	10628.825
2573.45514	10573.225
2576.14751	10582.225
2578.83819	10556.625
2581.52719	10547.025
2584.21451	10559.525
2586.90015	10541.025
2589.58411	10493.925
2592.2664	10477.025
2594.94701	10472.725
2597.62594	10472.425
2600.30321	10445.625
2602.9788	10449.525
2605.65273	10408.425
2608.32498	10418.925
2610.99557	10423.725
2613.66449	10428.025
2616.33175	10417.525
2618.99734	10384.025
2621.66128	10387.225
2624.32355	10347.425
2626.98416	10355.325
2629.64311	10313.425
2632.30041	10329.825
2634.95605	10307.125
2637.61004	10264.425
2640.26238	10284.125
2642.91306	10287.525
2645.56209	10274.525
2648.20948	10298.025
2650.85521	10286.025
2653.4993	10291.825
2656.14175	10262.425
2658.78255	10299.225
2661.42171	10278.925
2664.05923	10265.925
2666.6951	10269.525
2669.32934	10302.725
2671.96194	10272.825
2674.59291	10301.225
2677.22224	10282.325
2679.84993	10279.325
2682.476	10249.925
2685.10043	10287.325
2687.72324	10265.125
2690.34441	10244.825
2692.96396	10247.425
2695.58188	10246.525
2698.19818	10252.225
2700.81285	10227.325
2703.4259	10221.025
2706.03733	10238.925
2708.64714	10194.925
2711.25533	10240.825
2713.86191	10251.325
2716.46687	10253.425
2719.07021	10249.225
2721.67194	10261.025
2724.27206	10249.425
2726.87057	10271.525
2729.46747	10274.425
2732.06276	10282.925
2734.65644	10262.725
2737.24852	10266.025
2739.83899	10266.625
2742.42786	10257.325
2745.01513	10208.425
2747.60079	10204.025
2750.18486	10200.325
2752.76733	10192.625
2755.3482	10181.925
2757.92747	10195.825
2760.50515	10142.125
2763.08123	10119.125
2765.65573	10145.425
2768.22863	10120.025
2770.79994	10100.625
2773.36967	10101.025
2775.9378	10140.925
2778.50435	10090.725
2781.06932	10079.325
2783.6327	10072.125
2786.1945	10042.525
2788.75471	10043.125
2791.31335	10007.425
2793.87041	9993.325
2796.42589	9968.725
2798.97979	9971.525
2801.53212	9961.025
2804.08288	9961.425
2806.63206	9937.625
2809.17967	9901.325
2811.72571	9875.825
2814.27018	9839.025
2816.81308	9841.725
2819.35442	9826.125
2821.89419	9814.225
2824.43239	9793.925
2826.96904	9804.125
2829.50412	9787.225
2832.03763	9750.725
2834.56959	9766.825
2837.1	9738.025
2839.62884	9745.225
2842.15613	9739.725
2844.68186	9769.025
2847.20604	9753.525
2849.72867	9756.125
2852.24974	9756.025
2854.76927	9734.125
2857.28724	9725.125
2859.80367	9724.225
2862.31855	9668.025
2864.83189	9659.225
2867.34368	9676.625
2869.85393	9666.725
2872.36264	9638.525
2874.8698	9647.025
2877.37543	9609.225
2879.87952	9602.625
2882.38207	9593.425
2884.88308	9590.025
2887.38256	9631.925
2889.88051	9586.225
2892.37692	9576.425
2894.8718	9594.825
2897.36515	9599.725
2899.85698	9602.825
2902.34727	9621.925
2904.83604	9616.525
2907.32328	9633.125
2909.809	9628.825
2912.29319	9634.325
2914.77587	9640.225
2917.25702	9604.525
2919.73665	9609.425
2922.21476	9615.325
2924.69136	9584.025
2927.16644	9582.325
2929.64	9586.625
2932.11205	9585.825
2934.58258	9536.025
2937.05161	9554.225
2939.51912	9560.025
2941.98513	9526.225
2944.44962	9498.025
2946.91261	9475.525
2949.37409	9475.825
2951.83407	9487.725
2954.29254	9459.525
2956.74951	9456.825
2959.20498	9441.525
2961.65895	9441.425
2964.11142	9434.425
2966.56239	9404.525
2969.01186	9404.225
2971.45984	9386.225
2973.90632	9385.725
2976.35131	9350.325
2978.7948	9318.325
2981.23681	9302.425
2983.67732	9307.825
2986.11635	9242.725
2988.55388	9225.825
2990.98993	9202.625
2993.4245	9187.225
2995.85758	9172.725
2998.28917	9141.325
3000.71928	9132.625
3003.14791	9137.225
3005.57506	9116.525
3008.00073	9071.925
3010.42493	9078.525
3012.84764	9064.125
3015.26888	9066.425
3017.68865	9038.425
3020.10694	9017.125
3022.52376	8990.025
3024.9391	8985.825
3027.35298	8983.525
3029.76539	8975.825
3032.17632	8970.825
3034.5858	8927.425
3036.9938	8943.725
3039.40034	8934.525
3041.80542	8935.925
3044.20903	8907.625
3046.61118	8912.425
3049.01187	8871.025
3051.4111	8856.125
3053.80888	8855.925
3056.20519	8846.325
3058.60005	8816.525
3060.99345	8784.125
3063.3854	8775.025
3065.7759	8751.825
3068.16494	8735.125
3070.55254	8717.525
3072.93868	8700.925
3075.32338	8670.925
3077.70662	8677.525
3080.08842	8635.825
3082.46878	8635.025
3084.84769	8651.425
3087.22515	8590.925
3089.60118	8602.825
3091.97576	8603.525
3094.3489	8598.725
3096.72061	8592.025
3099.09087	8614.225
3101.4597	8575.025
3103.82709	8566.025
3106.19305	8555.425
3108.55757	8579.125
3110.92066	8545.025
3113.28232	8516.825
3115.64255	8473.625
3118.00134	8494.425
3120.35871	8494.325
3122.71466	8444.425
3125.06917	8423.525
3127.42226	8409.725
3129.77393	8414.425
3132.12417	8401.825
3134.47299	8389.525
3136.82039	8399.125
3139.16636	8401.025
3141.51092	8392.525
3143.85406	8385.425
3146.19579	8398.325
