Data from AgNPs_FTO_APTES_UA_1uM_CRN_200uM_R6G_10uM_NaF_0.1M_Addition_RamanShift__8__17-14-19-823.txt Node

Date: Thu Jan 27 17:14:19 GMT 2022
User: TCL
Spectrometer: QEP01345
Trigger mode: 4
Integration Time (sec): 7.000000E0
Scans to average: 10
Electric dark correction enabled: true
Nonlinearity correction enabled: false
Boxcar width: 0
XAxis mode: Raman Shifts
Number of Pixels in Spectrum: 1044
>>>>>Begin Spectral Data<<<<<
46.04893	1.1375
50.45542	-0.5625
54.85868	-1.6625
59.25871	-1.3625
63.6555	40.3375
68.04907	44.4375
72.43941	45.7375
76.82654	48.5375
81.21044	51.9375
85.59113	50.7375
89.96862	54.9375
94.34289	56.7375
98.71396	59.8375
103.08183	60.0375
107.4465	64.0375
111.80798	62.4375
116.16626	62.3375
120.52136	69.4375
124.87327	65.4375
129.222	68.6375
133.56755	69.5375
137.90993	76.8375
142.24913	77.7375
146.58517	86.1375
150.91804	97.5375
155.24774	115.9375
159.57429	133.6375
163.89768	169.0375
168.21792	217.7375
172.53501	290.6375
176.84895	400.2375
181.15975	556.6375
185.46741	779.1375
189.77193	1073.2375
194.07331	1446.9375
198.37157	1881.7375
202.6667	2334.1375
206.9587	2781.5375
211.24758	3212.6375
215.53334	3655.3375
219.81599	4110.8375
224.09553	4593.5375
228.37195	5158.4375
232.64527	5745.8375
236.91549	6366.8375
241.18261	7031.6375
245.44663	7646.9375
249.70755	8244.9375
253.96539	8738.2375
258.22014	9122.7375
262.4718	9452.1375
266.72039	9679.5375
270.96589	9754.1375
275.20832	9740.7375
279.44768	9653.3375
283.68397	9533.8375
287.91719	9417.8375
292.14735	9293.6375
296.37445	9250.7375
300.59849	9228.7375
304.81948	9241.5375
309.03742	9265.6375
313.25231	9203.1375
317.46415	9067.7375
321.67296	8898.4375
325.87872	8751.5375
330.08145	8684.4375
334.28114	8679.8375
338.47781	8728.1375
342.67145	8817.9375
346.86207	8955.5375
351.04966	9114.7375
355.23424	9278.7375
359.4158	9386.8375
363.59435	9491.2375
367.76989	9521.1375
371.94243	9611.1375
376.11196	9655.4375
380.27849	9721.8375
384.44203	9762.4375
388.60257	9800.2375
392.76012	9888.7375
396.91468	9976.2375
401.06626	10133.8375
405.21485	10230.1375
409.36047	10237.3375
413.50311	10126.1375
417.64277	10052.8375
421.77947	10060.9375
425.9132	10074.6375
430.04396	10105.5375
434.17176	10149.6375
438.2966	10183.1375
442.41849	10256.1375
446.53742	10419.0375
450.6534	10574.5375
454.76644	10663.7375
458.87653	10700.6375
462.98368	10643.5375
467.08789	10595.6375
471.18916	10513.9375
475.2875	10413.3375
479.38291	10320.4375
483.4754	10234.9375
487.56496	10181.6375
491.6516	10104.7375
495.73531	10076.0375
499.81612	10069.8375
503.89401	10139.1375
507.96899	10192.5375
512.04106	10185.3375
516.11023	10205.5375
520.1765	10151.6375
524.23987	10119.3375
528.30034	10038.1375
532.35792	10003.1375
536.41261	9940.3375
540.46441	9858.3375
544.51333	9815.8375
548.55936	9861.3375
552.60252	10021.2375
556.64279	10143.9375
560.6802	10236.9375
564.71473	10259.9375
568.7464	10300.2375
572.7752	10411.8375
576.80114	10583.1375
580.82422	10807.7375
584.84444	11183.7375
588.86181	11577.0375
592.87633	11915.2375
596.888	11869.7375
600.89682	11499.8375
604.9028	11381.6375
608.90594	11896.6375
612.90624	12755.5375
616.90371	12347.4375
620.89834	10856.1375
624.89015	10102.4375
628.87913	9997.0375
632.86528	10052.2375
636.84862	10109.0375
640.82913	10081.1375
644.80683	9932.4375
648.78172	9815.2375
652.75379	9829.4375
656.72306	9913.4375
660.68952	9971.6375
664.65319	9954.0375
668.61405	9866.7375
672.57211	9841.1375
676.52738	9893.1375
680.47986	9921.7375
684.42955	9905.8375
688.37646	9834.6375
692.32058	9783.5375
696.26192	9856.6375
700.20048	9922.0375
704.13626	9988.2375
708.06928	9984.8375
711.99952	9963.5375
715.927	9959.1375
719.85171	9973.8375
723.77365	9947.5375
727.69284	9865.9375
731.60928	9808.4375
735.52295	9790.0375
739.43388	9781.9375
743.34206	9814.4375
747.24749	9838.2375
751.15017	9892.8375
755.05012	9966.3375
758.94733	10137.2375
762.8418	10437.4375
766.73354	10979.1375
770.62254	11581.9375
774.50882	11881.8375
778.39237	11586.7375
782.27321	10961.4375
786.15132	10388.0375
790.02671	10031.1375
793.89938	9867.3375
797.76935	9791.5375
801.6366	9745.7375
805.50115	9722.0375
809.36299	9708.9375
813.22213	9639.2375
817.07857	9611.1375
820.93231	9579.4375
824.78336	9579.7375
828.63172	9556.9375
832.47738	9569.4375
836.32036	9570.9375
840.16066	9553.7375
843.99827	9552.5375
847.8332	9547.6375
851.66546	9548.1375
855.49504	9554.5375
859.32195	9561.3375
863.1462	9529.1375
866.96777	9544.2375
870.78668	9546.7375
874.60293	9552.0375
878.41652	9535.8375
882.22745	9582.9375
886.03573	9610.6375
889.84136	9625.6375
893.64433	9612.3375
897.44466	9550.3375
901.24235	9546.9375
905.0374	9504.7375
908.8298	9465.6375
912.61957	9488.6375
916.40671	9516.5375
920.19121	9563.5375
923.97308	9633.8375
927.75233	9673.6375
931.52895	9675.0375
935.30295	9569.4375
939.07433	9445.5375
942.84309	9343.6375
946.60924	9274.6375
950.37278	9226.8375
954.13371	9216.4375
957.89203	9174.0375
961.64774	9179.6375
965.40086	9149.2375
969.15137	9151.5375
972.89929	9103.6375
976.64461	9064.5375
980.38733	9086.0375
984.12747	9078.0375
987.86502	9090.4375
991.59999	9098.1375
995.33237	9131.8375
999.06217	9205.2375
1002.78939	9304.3375
1006.51404	9404.2375
1010.23611	9508.5375
1013.95561	9578.4375
1017.67255	9621.8375
1021.38692	9603.7375
1025.09872	9499.7375
1028.80796	9411.0375
1032.51465	9364.8375
1036.21877	9338.1375
1039.92035	9400.7375
1043.61937	9430.6375
1047.31584	9479.7375
1051.00976	9492.5375
1054.70114	9525.3375
1058.38998	9551.5375
1062.07627	9610.3375
1065.76003	9694.0375
1069.44126	9762.4375
1073.11995	9918.4375
1076.79611	10019.0375
1080.46974	10053.9375
1084.14085	10008.4375
1087.80943	9989.5375
1091.47549	10034.2375
1095.13903	10078.9375
1098.80005	10001.2375
1102.45857	9864.7375
1106.11456	9699.9375
1109.76805	9617.7375
1113.41903	9631.1375
1117.06751	9652.2375
1120.71348	9771.5375
1124.35696	9885.2375
1127.99793	10034.9375
1131.63641	10132.4375
1135.2724	10038.6375
1138.90589	9886.0375
1142.5369	9825.9375
1146.16542	9833.8375
1149.79145	9827.4375
1153.415	9837.3375
1157.03607	9845.4375
1160.65467	9985.3375
1164.27079	10269.3375
1167.88443	10610.2375
1171.49561	11020.7375
1175.10432	11515.7375
1178.71056	12203.0375
1182.31434	12835.1375
1185.91565	13199.9375
1189.51451	13095.8375
1193.11091	12798.3375
1196.70485	12425.5375
1200.29634	11970.3375
1203.88538	11651.2375
1207.47197	11373.4375
1211.05612	11174.0375
1214.63782	10960.6375
1218.21708	10792.3375
1221.79391	10637.0375
1225.36829	10549.1375
1228.94024	10559.8375
1232.50976	10505.6375
1236.07685	10434.8375
1239.6415	10362.9375
1243.20374	10371.0375
1246.76355	10382.3375
1250.32093	10431.2375
1253.8759	10527.1375
1257.42845	10714.7375
1260.97859	10933.4375
1264.52631	11089.9375
1268.07163	11293.0375
1271.61453	11480.2375
1275.15503	11643.7375
1278.69312	11863.4375
1282.22882	12043.9375
1285.76211	12346.5375
1289.29301	12657.1375
1292.82151	13078.8375
1296.34761	13535.4375
1299.87133	14125.0375
1303.39266	14691.8375
1306.9116	15332.5375
1310.42815	15888.8375
1313.94233	16220.9375
1317.45412	16075.5375
1320.96354	15681.8375
1324.47058	15220.5375
1327.97525	14874.2375
1331.47754	14636.6375
1334.97747	14449.1375
1338.47502	14338.5375
1341.97022	14251.4375
1345.46305	14229.7375
1348.95352	14383.4375
1352.44163	14747.8375
1355.92738	15357.6375
1359.41078	16181.1375
1362.89183	16842.6375
1366.37053	16791.0375
1369.84688	15657.6375
1373.32088	14073.0375
1376.79254	12870.8375
1380.26186	12293.1375
1383.72883	12056.3375
1387.19347	11869.5375
1390.65578	11641.9375
1394.11575	11535.6375
1397.57339	11538.5375
1401.0287	11648.8375
1404.48168	11753.2375
1407.93234	11744.7375
1411.38068	11642.3375
1414.82669	11468.0375
1418.27039	11220.2375
1421.71177	11017.4375
1425.15083	10802.4375
1428.58758	10657.0375
1432.02203	10658.4375
1435.45416	10805.8375
1438.88399	10967.3375
1442.31151	11030.7375
1445.73673	11077.3375
1449.15965	11108.4375
1452.58027	11110.5375
1455.9986	11080.7375
1459.41463	11095.1375
1462.82837	11214.8375
1466.23982	11395.2375
1469.64898	11591.7375
1473.05586	11741.2375
1476.46045	11820.8375
1479.86276	11887.0375
1483.26279	11858.1375
1486.66054	11947.0375
1490.05602	12094.6375
1493.44922	12344.6375
1496.84016	12655.8375
1500.22882	13095.4375
1503.61521	13667.4375
1506.99934	14299.9375
1510.38121	14762.3375
1513.76081	14784.9375
1517.13816	14338.5375
1520.51324	13617.8375
1523.88607	13036.7375
1527.25665	12648.6375
1530.62498	12424.6375
1533.99105	12305.8375
1537.35488	12121.0375
1540.71647	11892.8375
1544.07581	11727.5375
1547.4329	11544.3375
1550.78776	11373.9375
1554.14038	11249.7375
1557.49077	11120.8375
1560.83892	11105.1375
1564.18484	11168.8375
1567.52853	11223.8375
1570.86999	11388.6375
1574.20922	11553.1375
1577.54624	11634.0375
1580.88103	11591.3375
1584.2136	11420.1375
1587.54395	11398.2375
1590.87208	11627.8375
1594.19801	12066.0375
1597.52172	12611.3375
1600.84321	12922.1375
1604.16251	12712.5375
1607.47959	12071.9375
1610.79447	11403.6375
1614.10715	10717.4375
1617.41763	10178.5375
1620.7259	9754.9375
1624.03199	9525.0375
1627.33587	9473.4375
1630.63757	9547.5375
1633.93707	9866.7375
1637.23439	10424.4375
1640.52951	11315.6375
1643.82246	12506.2375
1647.11321	13671.4375
1650.40179	14161.4375
1653.68819	13576.8375
1656.97241	12230.9375
1660.25446	10858.8375
1663.53433	9818.8375
1666.81203	9213.7375
1670.08756	8838.0375
1673.36092	8612.4375
1676.63211	8464.1375
1679.90115	8365.5375
1683.16801	8283.5375
1686.43272	8223.2375
1689.69527	8162.6375
1692.95567	8129.4375
1696.2139	8067.0375
1699.46999	8001.0375
1702.72392	7948.7375
1705.97571	7990.4375
1709.22535	7981.0375
1712.47284	8006.0375
1715.71819	8013.6375
1718.96139	8004.0375
1722.20246	8031.2375
1725.44139	7983.6375
1728.67818	7956.8375
1731.91284	7901.6375
1735.14537	7887.3375
1738.37576	7858.1375
1741.60403	7861.3375
1744.83017	7836.4375
1748.05418	7802.3375
1751.27607	7807.6375
1754.49584	7802.9375
1757.71349	7791.7375
1760.92903	7768.4375
1764.14244	7755.7375
1767.35375	7749.0375
1770.56294	7707.9375
1773.77002	7700.5375
1776.97499	7669.8375
1780.17785	7675.6375
1783.37861	7664.4375
1786.57727	7656.4375
1789.77382	7668.6375
1792.96828	7660.1375
1796.16064	7625.7375
1799.3509	7619.5375
1802.53907	7607.1375
1805.72514	7588.6375
1808.90913	7571.3375
1812.09102	7532.4375
1815.27083	7524.2375
1818.44856	7532.7375
1821.6242	7524.0375
1824.79776	7497.1375
1827.96924	7492.1375
1831.13864	7478.2375
1834.30597	7501.3375
1837.47122	7466.6375
1840.6344	7486.2375
1843.7955	7472.8375
1846.95454	7457.2375
1850.11151	7462.5375
1853.26642	7470.6375
1856.41926	7456.6375
1859.57004	7460.0375
1862.71876	7436.1375
1865.86542	7424.0375
1869.01003	7429.5375
1872.15258	7410.4375
1875.29308	7425.5375
1878.43152	7404.6375
1881.56792	7385.5375
1884.70227	7378.7375
1887.83457	7361.2375
1890.96482	7365.2375
1894.09304	7351.5375
1897.21921	7316.7375
1900.34335	7312.7375
1903.46544	7335.1375
1906.58551	7304.8375
1909.70353	7317.9375
1912.81953	7296.7375
1915.93349	7270.1375
1919.04543	7258.7375
1922.15534	7244.7375
1925.26322	7249.0375
1928.36908	7214.7375
1931.47292	7205.1375
1934.57473	7193.0375
1937.67453	7189.3375
1940.77232	7146.2375
1943.86808	7135.2375
1946.96184	7125.7375
1950.05358	7082.8375
1953.14331	7074.4375
1956.23103	7060.7375
1959.31675	7030.0375
1962.40046	7028.0375
1965.48217	6994.5375
1968.56188	6963.3375
1971.63959	6966.9375
1974.7153	6958.8375
1977.78901	6926.9375
1980.86073	6898.8375
1983.93046	6883.8375
1986.99819	6849.6375
1990.06394	6849.5375
1993.1277	6822.9375
1996.18947	6806.1375
1999.24925	6784.6375
2002.30706	6743.4375
2005.36288	6745.0375
2008.41672	6736.0375
2011.46859	6705.7375
2014.51848	6690.6375
2017.56639	6675.0375
2020.61233	6664.6375
2023.6563	6635.9375
2026.6983	6622.2375
2029.73833	6610.1375
2032.7764	6597.5375
2035.8125	6582.6375
2038.84664	6561.2375
2041.87881	6536.5375
2044.90903	6528.3375
2047.93729	6529.2375
2050.96359	6507.8375
2053.98794	6494.5375
2057.01034	6497.5375
2060.03078	6498.4375
2063.04927	6487.2375
2066.06582	6492.5375
2069.08042	6481.9375
2072.09307	6494.6375
2075.10378	6479.6375
2078.11255	6468.4375
2081.11938	6464.7375
2084.12426	6453.1375
2087.12722	6460.0375
2090.12824	6449.1375
2093.12732	6463.4375
2096.12447	6455.8375
2099.11969	6452.7375
2102.11299	6445.4375
2105.10435	6466.1375
2108.09379	6463.0375
2111.08131	6487.4375
2114.0669	6477.6375
2117.05057	6489.4375
2120.03233	6471.7375
2123.01216	6468.0375
2125.99008	6487.4375
2128.96609	6503.1375
2131.94018	6506.5375
2134.91236	6507.8375
2137.88263	6507.4375
2140.851	6518.4375
2143.81746	6530.2375
2146.78201	6506.3375
2149.74466	6510.1375
2152.7054	6499.4375
2155.66425	6503.2375
2158.6212	6506.4375
2161.57625	6492.9375
2164.52941	6501.9375
2167.48067	6492.7375
2170.43004	6503.1375
2173.37752	6503.0375
2176.32311	6515.5375
2179.26681	6498.8375
2182.20863	6492.9375
2185.14856	6480.2375
2188.08661	6504.2375
2191.02278	6476.9375
2193.95707	6495.7375
2196.88948	6491.9375
2199.82001	6463.8375
2202.74867	6453.1375
2205.67545	6449.4375
2208.60037	6445.4375
2211.52341	6433.2375
2214.44458	6421.7375
2217.36388	6402.4375
2220.28132	6397.2375
2223.1969	6384.6375
2226.11061	6355.7375
2229.02246	6362.6375
2231.93245	6366.6375
2234.84058	6363.3375
2237.74686	6331.6375
2240.65128	6331.6375
2243.55385	6326.4375
2246.45456	6310.4375
2249.35343	6300.0375
2252.25044	6272.2375
2255.14561	6273.1375
2258.03893	6271.8375
2260.93041	6246.4375
2263.82004	6258.8375
2266.70783	6240.4375
2269.59378	6220.2375
2272.4779	6204.4375
2275.36017	6192.9375
2278.24061	6189.1375
2281.11922	6174.8375
2283.996	6157.4375
2286.87094	6173.8375
2289.74405	6126.4375
2292.61534	6132.8375
2295.4848	6123.2375
2298.35243	6141.0375
2301.21824	6110.9375
2304.08223	6110.0375
2306.94439	6113.1375
2309.80474	6104.8375
2312.66327	6105.5375
2315.51999	6088.2375
2318.37489	6092.4375
2321.22797	6074.4375
2324.07925	6074.6375
2326.92871	6059.9375
2329.77637	6057.3375
2332.62222	6051.9375
2335.46626	6048.4375
2338.3085	6020.9375
2341.14893	5999.9375
2343.98756	6021.8375
2346.8244	5991.1375
2349.65943	5988.5375
2352.49267	5969.2375
2355.32411	6003.3375
2358.15376	5993.3375
2360.98161	5987.9375
2363.80768	5975.6375
2366.63195	5978.4375
2369.45444	5993.8375
2372.27514	5970.4375
2375.09405	5975.5375
2377.91118	5959.6375
2380.72652	5951.6375
2383.54009	5911.1375
2386.35187	5903.4375
2389.16188	5910.9375
2391.97011	5875.9375
2394.77657	5863.7375
2397.58125	5858.6375
2400.38416	5855.6375
2403.18529	5835.5375
2405.98466	5848.4375
2408.78226	5824.8375
2411.57809	5827.8375
2414.37216	5821.8375
2417.16446	5817.1375
2419.955	5811.3375
2422.74378	5815.9375
2425.5308	5810.9375
2428.31606	5814.3375
2431.09956	5799.6375
2433.88131	5787.3375
2436.6613	5777.3375
2439.43954	5789.2375
2442.21603	5763.1375
2444.99077	5769.9375
2447.76377	5772.0375
2450.53501	5767.3375
2453.30451	5767.6375
2456.07226	5731.3375
2458.83827	5738.3375
2461.60254	5734.0375
2464.36507	5728.5375
2467.12586	5733.5375
2469.88492	5708.4375
2472.64224	5709.6375
2475.39782	5717.5375
2478.15167	5708.6375
2480.90379	5698.5375
2483.65417	5709.2375
2486.40283	5700.2375
2489.14976	5700.3375
2491.89497	5698.5375
2494.63845	5688.9375
2497.3802	5680.5375
2500.12024	5686.8375
2502.85855	5687.3375
2505.59514	5664.8375
2508.33002	5678.6375
2511.06318	5661.7375
2513.79462	5669.4375
2516.52435	5639.1375
2519.25237	5637.7375
2521.97867	5621.2375
2524.70327	5623.5375
2527.42616	5612.4375
2530.14734	5600.9375
2532.86681	5570.5375
2535.58458	5591.0375
2538.30065	5587.5375
2541.01501	5570.4375
2543.72768	5575.2375
2546.43864	5563.6375
2549.14791	5549.7375
2551.85548	5548.8375
2554.56136	5520.5375
2557.26554	5516.9375
2559.96803	5521.6375
2562.66883	5505.4375
2565.36794	5504.5375
2568.06536	5500.4375
2570.7611	5491.8375
2573.45514	5478.0375
2576.14751	5470.4375
2578.83819	5446.3375
2581.52719	5465.2375
2584.21451	5446.8375
2586.90015	5421.0375
2589.58411	5422.1375
2592.2664	5414.2375
2594.94701	5414.3375
2597.62594	5406.1375
2600.30321	5372.8375
2602.9788	5397.6375
2605.65273	5364.3375
2608.32498	5381.1375
2610.99557	5358.6375
2613.66449	5356.0375
2616.33175	5354.7375
2618.99734	5340.7375
2621.66128	5343.0375
2624.32355	5327.7375
2626.98416	5327.0375
2629.64311	5324.4375
2632.30041	5290.5375
2634.95605	5289.3375
2637.61004	5291.9375
2640.26238	5287.4375
2642.91306	5290.2375
2645.56209	5282.1375
2648.20948	5289.1375
2650.85521	5276.3375
2653.4993	5284.2375
2656.14175	5288.3375
2658.78255	5274.4375
2661.42171	5270.8375
2664.05923	5292.4375
2666.6951	5279.1375
2669.32934	5296.0375
2671.96194	5264.2375
2674.59291	5260.1375
2677.22224	5271.0375
2679.84993	5261.2375
2682.476	5253.4375
2685.10043	5251.2375
2687.72324	5265.6375
2690.34441	5261.8375
2692.96396	5274.9375
2695.58188	5274.8375
2698.19818	5272.6375
2700.81285	5265.9375
2703.4259	5244.8375
2706.03733	5260.1375
2708.64714	5240.2375
2711.25533	5265.4375
2713.86191	5276.2375
2716.46687	5277.2375
2719.07021	5263.5375
2721.67194	5266.2375
2724.27206	5269.9375
2726.87057	5287.3375
2729.46747	5281.1375
2732.06276	5255.5375
2734.65644	5272.4375
2737.24852	5261.0375
2739.83899	5253.4375
2742.42786	5258.1375
2745.01513	5240.0375
2747.60079	5223.8375
2750.18486	5238.5375
2752.76733	5230.9375
2755.3482	5220.3375
2757.92747	5220.8375
2760.50515	5209.6375
2763.08123	5201.3375
2765.65573	5210.1375
2768.22863	5207.6375
2770.79994	5188.9375
2773.36967	5182.5375
2775.9378	5177.9375
2778.50435	5167.9375
2781.06932	5163.2375
2783.6327	5176.1375
2786.1945	5157.2375
2788.75471	5154.9375
2791.31335	5133.5375
2793.87041	5127.3375
2796.42589	5107.4375
2798.97979	5112.4375
2801.53212	5106.2375
2804.08288	5090.8375
2806.63206	5101.3375
2809.17967	5071.7375
2811.72571	5062.1375
2814.27018	5063.2375
2816.81308	5065.5375
2819.35442	5035.2375
2821.89419	5031.7375
2824.43239	5037.7375
2826.96904	5030.2375
2829.50412	5052.3375
2832.03763	5031.4375
2834.56959	5035.7375
2837.1	5039.0375
2839.62884	5054.1375
2842.15613	5052.7375
2844.68186	5094.3375
2847.20604	5110.3375
2849.72867	5117.9375
2852.24974	5094.9375
2854.76927	5088.3375
2857.28724	5076.8375
2859.80367	5088.9375
2862.31855	5076.3375
2864.83189	5073.8375
2867.34368	5075.7375
2869.85393	5081.5375
2872.36264	5086.7375
2874.8698	5068.9375
2877.37543	5054.4375
2879.87952	5051.0375
2882.38207	5064.4375
2884.88308	5040.4375
2887.38256	5055.9375
2889.88051	5036.3375
2892.37692	5051.4375
2894.8718	5063.0375
2897.36515	5062.4375
2899.85698	5062.6375
2902.34727	5056.6375
2904.83604	5070.1375
2907.32328	5073.5375
2909.809	5077.8375
2912.29319	5078.1375
2914.77587	5075.8375
2917.25702	5085.6375
2919.73665	5077.1375
2922.21476	5084.2375
2924.69136	5078.8375
2927.16644	5076.0375
2929.64	5090.8375
2932.11205	5075.7375
2934.58258	5059.7375
2937.05161	5050.1375
2939.51912	5069.7375
2941.98513	5059.7375
2944.44962	5027.1375
2946.91261	4998.0375
2949.37409	4991.4375
2951.83407	4993.3375
2954.29254	4975.9375
2956.74951	4970.6375
2959.20498	4983.0375
2961.65895	4974.1375
2964.11142	4972.3375
2966.56239	4935.7375
2969.01186	4949.2375
2971.45984	4938.2375
2973.90632	4917.9375
2976.35131	4930.5375
2978.7948	4903.5375
2981.23681	4895.3375
2983.67732	4884.2375
2986.11635	4866.0375
2988.55388	4860.4375
2990.98993	4854.8375
2993.4245	4857.0375
2995.85758	4823.8375
2998.28917	4828.2375
3000.71928	4811.3375
3003.14791	4798.0375
3005.57506	4787.1375
3008.00073	4786.3375
3010.42493	4773.2375
3012.84764	4785.7375
3015.26888	4767.9375
3017.68865	4762.0375
3020.10694	4755.2375
3022.52376	4730.7375
3024.9391	4749.3375
3027.35298	4739.3375
3029.76539	4737.0375
3032.17632	4718.4375
3034.5858	4733.1375
3036.9938	4717.6375
3039.40034	4728.9375
3041.80542	4718.9375
3044.20903	4700.0375
3046.61118	4697.3375
3049.01187	4696.0375
3051.4111	4689.1375
3053.80888	4685.2375
3056.20519	4671.1375
3058.60005	4659.6375
3060.99345	4672.8375
3063.3854	4647.6375
3065.7759	4630.7375
3068.16494	4636.9375
3070.55254	4628.1375
3072.93868	4630.0375
3075.32338	4627.9375
3077.70662	4623.8375
3080.08842	4595.3375
3082.46878	4608.1375
3084.84769	4613.5375
3087.22515	4604.2375
3089.60118	4611.8375
3091.97576	4605.2375
3094.3489	4613.7375
3096.72061	4626.2375
3099.09087	4629.6375
3101.4597	4614.9375
