Data from AgNPs_FTO_APTES_UA_1uM_CRN_500uM_R6G_10uM_NaF_0.1M_Addition_RamanShift__29__18-18-29-896.txt Node

Date: Thu Jan 27 18:18:29 GMT 2022
User: TCL
Spectrometer: QEP01345
Trigger mode: 4
Integration Time (sec): 7.000000E0
Scans to average: 10
Electric dark correction enabled: true
Nonlinearity correction enabled: false
Boxcar width: 0
XAxis mode: Raman Shifts
Number of Pixels in Spectrum: 1044
>>>>>Begin Spectral Data<<<<<
46.04893	0.575
50.45542	1.375
54.85868	0.275
59.25871	-0.325
63.6555	37.475
68.04907	38.075
72.43941	41.175
76.82654	44.375
81.21044	44.575
85.59113	44.275
89.96862	47.775
94.34289	53.475
98.71396	55.575
103.08183	52.275
107.4465	57.175
111.80798	59.275
116.16626	54.575
120.52136	58.875
124.87327	55.675
129.222	54.875
133.56755	58.875
137.90993	62.675
142.24913	66.475
146.58517	70.075
150.91804	80.075
155.24774	89.875
159.57429	102.275
163.89768	121.675
168.21792	161.675
172.53501	209.475
176.84895	280.575
181.15975	387.875
185.46741	538.675
189.77193	735.275
194.07331	986.275
198.37157	1270.175
202.6667	1573.775
206.9587	1867.675
211.24758	2177.275
215.53334	2476.575
219.81599	2799.075
224.09553	3154.975
228.37195	3572.075
232.64527	4002.875
236.91549	4448.375
241.18261	4875.075
245.44663	5274.875
249.70755	5583.175
253.96539	5872.575
258.22014	6094.175
262.4718	6311.775
266.72039	6449.375
270.96589	6535.475
275.20832	6522.975
279.44768	6475.775
283.68397	6396.275
287.91719	6317.575
292.14735	6295.675
296.37445	6341.275
300.59849	6502.775
304.81948	6688.575
309.03742	6839.875
313.25231	6833.075
317.46415	6569.075
321.67296	6185.075
325.87872	5862.075
330.08145	5712.175
334.28114	5693.575
338.47781	5757.475
342.67145	5906.075
346.86207	6111.175
351.04966	6406.575
355.23424	6721.575
359.4158	6936.675
363.59435	7097.175
367.76989	7140.975
371.94243	7140.675
376.11196	7137.475
380.27849	7119.375
384.44203	7059.575
388.60257	7008.975
392.76012	6976.875
396.91468	7047.475
401.06626	7242.775
405.21485	7395.575
409.36047	7319.675
413.50311	7073.275
417.64277	6802.375
421.77947	6642.475
425.9132	6582.075
430.04396	6573.375
434.17176	6625.675
438.2966	6723.975
442.41849	6831.375
446.53742	7006.375
450.6534	7195.275
454.76644	7324.575
458.87653	7332.575
462.98368	7306.775
467.08789	7213.975
471.18916	7107.975
475.2875	6979.475
479.38291	6884.475
483.4754	6796.075
487.56496	6745.975
491.6516	6665.975
495.73531	6649.275
499.81612	6647.775
503.89401	6708.175
507.96899	6774.275
512.04106	6826.275
516.11023	6898.675
520.1765	6951.075
524.23987	6945.775
528.30034	6834.275
532.35792	6725.775
536.41261	6604.875
540.46441	6479.075
544.51333	6434.075
548.55936	6469.375
552.60252	6568.675
556.64279	6705.975
560.6802	6791.375
564.71473	6859.675
568.7464	7086.375
572.7752	7242.775
576.80114	7156.075
580.82422	6987.375
584.84444	6944.275
588.86181	6940.675
592.87633	6963.275
596.888	7031.075
600.89682	7165.075
604.9028	7669.875
608.90594	9094.675
612.90624	11062.475
616.90371	10893.275
620.89834	8303.575
624.89015	7014.875
628.87913	6756.775
632.86528	6742.775
636.84862	6788.575
640.82913	6720.075
644.80683	6541.875
648.78172	6439.075
652.75379	6442.475
656.72306	6610.375
660.68952	6879.375
664.65319	6838.375
668.61405	6640.075
672.57211	6521.275
676.52738	6552.875
680.47986	6559.375
684.42955	6531.275
688.37646	6512.175
692.32058	6548.775
696.26192	6560.475
700.20048	6622.075
704.13626	6687.075
708.06928	6632.875
711.99952	6570.475
715.927	6513.775
719.85171	6533.875
723.77365	6538.275
727.69284	6503.475
731.60928	6441.575
735.52295	6444.875
739.43388	6467.975
743.34206	6498.175
747.24749	6512.575
751.15017	6556.275
755.05012	6669.875
758.94733	6883.975
762.8418	7326.275
766.73354	8158.775
770.62254	9035.675
774.50882	9551.275
778.39237	9262.975
782.27321	8334.375
786.15132	7406.175
790.02671	6833.875
793.89938	6623.975
797.76935	6521.875
801.6366	6465.375
805.50115	6442.075
809.36299	6423.575
813.22213	6414.375
817.07857	6410.975
820.93231	6395.675
824.78336	6405.775
828.63172	6431.675
832.47738	6458.775
836.32036	6446.375
840.16066	6457.375
843.99827	6421.275
847.8332	6407.675
851.66546	6396.175
855.49504	6393.375
859.32195	6390.475
863.1462	6383.775
866.96777	6368.275
870.78668	6360.075
874.60293	6353.575
878.41652	6343.975
882.22745	6376.175
886.03573	6408.475
889.84136	6403.375
893.64433	6380.875
897.44466	6361.975
901.24235	6324.575
905.0374	6323.075
908.8298	6301.875
912.61957	6324.975
916.40671	6308.975
920.19121	6373.975
923.97308	6433.475
927.75233	6492.875
931.52895	6542.075
935.30295	6481.575
939.07433	6358.075
942.84309	6236.475
946.60924	6116.575
950.37278	6084.675
954.13371	6065.275
957.89203	6025.975
961.64774	6000.675
965.40086	5978.375
969.15137	5962.075
972.89929	5935.375
976.64461	5936.375
980.38733	5935.675
984.12747	5940.575
987.86502	5981.775
991.59999	6008.875
995.33237	6080.575
999.06217	6163.075
1002.78939	6281.875
1006.51404	6376.075
1010.23611	6453.775
1013.95561	6508.275
1017.67255	6494.975
1021.38692	6440.375
1025.09872	6382.475
1028.80796	6339.775
1032.51465	6377.375
1036.21877	6444.875
1039.92035	6494.975
1043.61937	6509.975
1047.31584	6485.275
1051.00976	6458.575
1054.70114	6434.175
1058.38998	6433.775
1062.07627	6448.575
1065.76003	6493.075
1069.44126	6528.975
1073.11995	6563.775
1076.79611	6646.075
1080.46974	6704.475
1084.14085	6771.675
1087.80943	6868.475
1091.47549	6900.475
1095.13903	6842.475
1098.80005	6643.775
1102.45857	6506.075
1106.11456	6449.675
1109.76805	6451.175
1113.41903	6536.975
1117.06751	6667.275
1120.71348	6855.275
1124.35696	7089.775
1127.99793	7284.575
1131.63641	7291.575
1135.2724	7035.975
1138.90589	6796.475
1142.5369	6638.875
1146.16542	6515.375
1149.79145	6498.275
1153.415	6509.375
1157.03607	6532.875
1160.65467	6634.475
1164.27079	6775.575
1167.88443	7058.075
1171.49561	7460.175
1175.10432	8149.975
1178.71056	9022.075
1182.31434	9622.975
1185.91565	9755.475
1189.51451	9539.975
1193.11091	9144.175
1196.70485	8591.475
1200.29634	8171.875
1203.88538	7870.875
1207.47197	7539.675
1211.05612	7253.775
1214.63782	7102.975
1218.21708	7063.775
1221.79391	7086.775
1225.36829	7106.375
1228.94024	7156.275
1232.50976	7179.475
1236.07685	7189.675
1239.6415	7171.975
1243.20374	7181.975
1246.76355	7179.275
1250.32093	7232.475
1253.8759	7348.175
1257.42845	7491.875
1260.97859	7654.375
1264.52631	7801.075
1268.07163	7951.875
1271.61453	8132.575
1275.15503	8243.975
1278.69312	8341.275
1282.22882	8379.475
1285.76211	8504.275
1289.29301	8724.975
1292.82151	8960.475
1296.34761	9195.075
1299.87133	9558.975
1303.39266	10109.975
1306.9116	10942.575
1310.42815	11933.575
1313.94233	12524.475
1317.45412	12408.775
1320.96354	11846.175
1324.47058	11121.775
1327.97525	10546.575
1331.47754	10166.375
1334.97747	10026.175
1338.47502	10061.975
1341.97022	10214.775
1345.46305	10377.775
1348.95352	10673.275
1352.44163	11136.375
1355.92738	11911.675
1359.41078	13129.475
1362.89183	14316.775
1366.37053	14077.875
1369.84688	12379.075
1373.32088	10666.475
1376.79254	9529.275
1380.26186	8948.175
1383.72883	8618.275
1387.19347	8400.575
1390.65578	8154.175
1394.11575	7974.575
1397.57339	7927.575
1401.0287	8001.875
1404.48168	8111.175
1407.93234	8201.475
1411.38068	8279.875
1414.82669	8280.875
1418.27039	8135.475
1421.71177	7964.475
1425.15083	7807.275
1428.58758	7739.275
1432.02203	7742.175
1435.45416	7784.575
1438.88399	7820.675
1442.31151	7819.175
1445.73673	7836.475
1449.15965	7839.275
1452.58027	7845.875
1455.9986	7817.375
1459.41463	7795.875
1462.82837	7820.975
1466.23982	7957.975
1469.64898	8108.475
1473.05586	8198.075
1476.46045	8249.475
1479.86276	8332.275
1483.26279	8445.375
1486.66054	8582.075
1490.05602	8775.275
1493.44922	9027.075
1496.84016	9435.675
1500.22882	10001.175
1503.61521	10814.975
1506.99934	11707.275
1510.38121	12573.075
1513.76081	13014.775
1517.13816	12556.175
1520.51324	11384.975
1523.88607	10162.575
1527.25665	9317.575
1530.62498	8862.675
1533.99105	8617.075
1537.35488	8445.775
1540.71647	8373.275
1544.07581	8358.275
1547.4329	8297.375
1550.78776	8276.175
1554.14038	8232.175
1557.49077	8275.175
1560.83892	8364.775
1564.18484	8474.675
1567.52853	8663.375
1570.86999	8782.675
1574.20922	8878.675
1577.54624	8851.875
1580.88103	8605.775
1584.2136	8232.175
1587.54395	8047.775
1590.87208	8188.475
1594.19801	8511.875
1597.52172	9004.075
1600.84321	9258.575
1604.16251	9063.675
1607.47959	8592.375
1610.79447	8032.975
1614.10715	7514.175
1617.41763	7106.575
1620.7259	6838.375
1624.03199	6725.375
1627.33587	6705.975
1630.63757	6827.275
1633.93707	7066.175
1637.23439	7406.275
1640.52951	7953.475
1643.82246	8639.775
1647.11321	9385.375
1650.40179	9897.175
1653.68819	9644.575
1656.97241	8655.475
1660.25446	7550.675
1663.53433	6753.675
1666.81203	6302.375
1670.08756	6041.475
1673.36092	5877.375
1676.63211	5778.675
1679.90115	5724.975
1683.16801	5661.175
1686.43272	5576.275
1689.69527	5553.175
1692.95567	5488.675
1696.2139	5445.575
1699.46999	5398.275
1702.72392	5374.675
1705.97571	5388.175
1709.22535	5420.175
1712.47284	5451.075
1715.71819	5451.875
1718.96139	5498.475
1722.20246	5475.075
1725.44139	5470.875
1728.67818	5448.675
1731.91284	5409.975
1735.14537	5382.075
1738.37576	5349.775
1741.60403	5327.875
1744.83017	5320.675
1748.05418	5301.075
1751.27607	5297.475
1754.49584	5271.675
1757.71349	5241.675
1760.92903	5194.575
1764.14244	5185.075
1767.35375	5190.375
1770.56294	5173.575
1773.77002	5161.275
1776.97499	5156.175
1780.17785	5174.375
1783.37861	5177.675
1786.57727	5164.575
1789.77382	5175.975
1792.96828	5162.875
1796.16064	5148.575
1799.3509	5132.375
1802.53907	5144.175
1805.72514	5120.375
1808.90913	5118.275
1812.09102	5108.675
1815.27083	5094.175
1818.44856	5083.775
1821.6242	5073.475
1824.79776	5068.475
1827.96924	5065.075
1831.13864	5051.675
1834.30597	5052.775
1837.47122	5046.175
1840.6344	5055.875
1843.7955	5043.475
1846.95454	5040.275
1850.11151	5030.675
1853.26642	5054.175
1856.41926	5040.575
1859.57004	5040.175
1862.71876	5047.475
1865.86542	5040.675
1869.01003	5032.875
1872.15258	5041.375
1875.29308	5048.275
1878.43152	5036.175
1881.56792	5029.775
1884.70227	5006.575
1887.83457	5025.175
1890.96482	5004.075
1894.09304	5014.375
1897.21921	5020.075
1900.34335	5015.575
1903.46544	5022.375
1906.58551	5020.075
1909.70353	5006.275
1912.81953	5018.075
1915.93349	5013.375
1919.04543	4995.075
1922.15534	4997.975
1925.26322	5005.375
1928.36908	4984.975
1931.47292	4961.275
1934.57473	4936.275
1937.67453	4951.575
1940.77232	4907.875
1943.86808	4894.075
1946.96184	4879.475
1950.05358	4851.075
1953.14331	4836.175
1956.23103	4827.975
1959.31675	4824.875
1962.40046	4792.975
1965.48217	4776.575
1968.56188	4760.575
1971.63959	4750.175
1974.7153	4730.375
1977.78901	4719.675
1980.86073	4703.875
1983.93046	4699.475
1986.99819	4675.275
1990.06394	4669.375
1993.1277	4646.975
1996.18947	4647.275
1999.24925	4631.275
2002.30706	4601.175
2005.36288	4591.575
2008.41672	4586.375
2011.46859	4573.175
2014.51848	4554.375
2017.56639	4551.675
2020.61233	4528.175
2023.6563	4536.875
2026.6983	4509.575
2029.73833	4513.275
2032.7764	4490.375
2035.8125	4484.175
2038.84664	4472.475
2041.87881	4461.875
2044.90903	4444.375
2047.93729	4449.775
2050.96359	4452.675
2053.98794	4438.175
2057.01034	4437.175
2060.03078	4432.175
2063.04927	4431.575
2066.06582	4427.075
2069.08042	4419.875
2072.09307	4414.375
2075.10378	4409.475
2078.11255	4406.275
2081.11938	4406.575
2084.12426	4400.675
2087.12722	4405.475
2090.12824	4396.275
2093.12732	4381.175
2096.12447	4387.975
2099.11969	4399.075
2102.11299	4397.275
2105.10435	4396.375
2108.09379	4406.375
2111.08131	4388.475
2114.0669	4392.775
2117.05057	4408.075
2120.03233	4409.775
2123.01216	4394.975
2125.99008	4417.075
2128.96609	4418.675
2131.94018	4426.775
2134.91236	4435.175
2137.88263	4439.475
2140.851	4429.275
2143.81746	4429.775
2146.78201	4418.875
2149.74466	4424.975
2152.7054	4415.775
2155.66425	4405.275
2158.6212	4426.275
2161.57625	4410.475
2164.52941	4420.875
2167.48067	4401.275
2170.43004	4405.775
2173.37752	4407.675
2176.32311	4421.075
2179.26681	4401.675
2182.20863	4398.075
2185.14856	4407.475
2188.08661	4415.675
2191.02278	4414.275
2193.95707	4403.475
2196.88948	4402.175
2199.82001	4394.875
2202.74867	4378.675
2205.67545	4384.575
2208.60037	4383.875
2211.52341	4377.075
2214.44458	4358.875
2217.36388	4355.975
2220.28132	4346.275
2223.1969	4334.075
2226.11061	4337.175
2229.02246	4323.275
2231.93245	4327.775
2234.84058	4300.275
2237.74686	4292.775
2240.65128	4288.575
2243.55385	4270.875
2246.45456	4281.975
2249.35343	4261.775
2252.25044	4277.075
2255.14561	4266.875
2258.03893	4257.075
2260.93041	4255.775
2263.82004	4250.475
2266.70783	4256.275
2269.59378	4233.675
2272.4779	4225.175
2275.36017	4212.375
2278.24061	4213.375
2281.11922	4195.275
2283.996	4196.575
2286.87094	4171.675
2289.74405	4167.975
2292.61534	4167.775
2295.4848	4160.875
2298.35243	4161.475
2301.21824	4145.075
2304.08223	4148.275
2306.94439	4163.175
2309.80474	4147.875
2312.66327	4138.775
2315.51999	4131.675
2318.37489	4145.875
2321.22797	4131.975
2324.07925	4127.675
2326.92871	4125.575
2329.77637	4117.375
2332.62222	4103.575
2335.46626	4092.275
2338.3085	4092.175
2341.14893	4103.275
2343.98756	4084.375
2346.8244	4094.875
2349.65943	4084.675
2352.49267	4090.675
2355.32411	4100.475
2358.15376	4079.775
2360.98161	4081.875
2363.80768	4104.975
2366.63195	4104.075
2369.45444	4104.275
2372.27514	4089.275
2375.09405	4078.875
2377.91118	4075.375
2380.72652	4063.375
2383.54009	4044.975
2386.35187	4034.575
2389.16188	4013.875
2391.97011	4018.775
2394.77657	4003.875
2397.58125	3983.375
2400.38416	3993.075
2403.18529	3990.575
2405.98466	3977.875
2408.78226	3971.975
2411.57809	3952.575
2414.37216	3950.675
2417.16446	3948.175
2419.955	3936.275
2422.74378	3945.975
2425.5308	3951.475
2428.31606	3946.675
2431.09956	3938.775
2433.88131	3920.175
2436.6613	3928.375
2439.43954	3920.675
2442.21603	3921.075
2444.99077	3918.075
2447.76377	3927.275
2450.53501	3915.375
2453.30451	3918.475
2456.07226	3913.375
2458.83827	3909.975
2461.60254	3902.975
2464.36507	3908.475
2467.12586	3898.775
2469.88492	3877.675
2472.64224	3902.775
2475.39782	3886.275
2478.15167	3887.975
2480.90379	3888.075
2483.65417	3896.375
2486.40283	3905.675
2489.14976	3907.875
2491.89497	3901.475
2494.63845	3899.175
2497.3802	3893.075
2500.12024	3883.175
2502.85855	3884.875
2505.59514	3890.975
2508.33002	3890.475
2511.06318	3871.775
2513.79462	3852.175
2516.52435	3851.975
2519.25237	3838.975
2521.97867	3843.775
2524.70327	3831.275
2527.42616	3819.775
2530.14734	3814.875
2532.86681	3816.975
2535.58458	3809.275
2538.30065	3805.875
2541.01501	3797.275
2543.72768	3796.975
2546.43864	3786.875
2549.14791	3792.375
2551.85548	3780.475
2554.56136	3796.875
2557.26554	3769.575
2559.96803	3769.475
2562.66883	3769.275
2565.36794	3772.175
2568.06536	3771.475
2570.7611	3751.075
2573.45514	3739.075
2576.14751	3734.275
2578.83819	3728.375
2581.52719	3726.575
2584.21451	3722.675
2586.90015	3710.875
2589.58411	3713.175
2592.2664	3707.575
2594.94701	3693.175
2597.62594	3700.075
2600.30321	3687.875
2602.9788	3684.675
2605.65273	3691.175
2608.32498	3678.975
2610.99557	3691.275
2613.66449	3669.275
2616.33175	3663.475
2618.99734	3674.075
2621.66128	3674.675
2624.32355	3670.775
2626.98416	3666.075
2629.64311	3665.575
2632.30041	3649.875
2634.95605	3647.775
2637.61004	3640.075
2640.26238	3618.775
2642.91306	3622.775
2645.56209	3620.575
2648.20948	3622.175
2650.85521	3615.675
2653.4993	3609.075
2656.14175	3629.375
2658.78255	3630.775
2661.42171	3627.475
2664.05923	3633.175
2666.6951	3638.475
2669.32934	3635.975
2671.96194	3632.475
2674.59291	3636.675
2677.22224	3626.875
2679.84993	3632.475
2682.476	3631.975
2685.10043	3632.875
2687.72324	3630.075
2690.34441	3631.075
2692.96396	3614.575
2695.58188	3638.675
2698.19818	3634.675
2700.81285	3629.775
2703.4259	3640.175
2706.03733	3623.075
2708.64714	3610.775
2711.25533	3630.075
2713.86191	3635.575
2716.46687	3646.675
2719.07021	3649.375
2721.67194	3652.675
2724.27206	3643.775
2726.87057	3652.675
2729.46747	3650.575
2732.06276	3647.775
2734.65644	3639.475
2737.24852	3637.675
2739.83899	3627.175
2742.42786	3629.775
2745.01513	3601.975
2747.60079	3622.775
2750.18486	3617.575
2752.76733	3613.475
2755.3482	3599.575
2757.92747	3593.575
2760.50515	3599.675
2763.08123	3584.375
2765.65573	3591.775
2768.22863	3580.975
2770.79994	3585.875
2773.36967	3577.475
2775.9378	3579.175
2778.50435	3577.575
2781.06932	3574.675
2783.6327	3574.575
2786.1945	3576.775
2788.75471	3560.675
2791.31335	3558.875
2793.87041	3556.675
2796.42589	3562.575
2798.97979	3562.975
2801.53212	3562.975
2804.08288	3563.275
2806.63206	3557.475
2809.17967	3547.375
2811.72571	3549.075
2814.27018	3555.075
2816.81308	3546.375
2819.35442	3559.175
2821.89419	3544.775
2824.43239	3548.475
2826.96904	3552.675
2829.50412	3558.075
2832.03763	3557.875
2834.56959	3571.075
2837.1	3591.575
2839.62884	3606.575
2842.15613	3621.275
2844.68186	3693.975
2847.20604	3739.975
2849.72867	3789.275
2852.24974	3808.275
2854.76927	3796.775
2857.28724	3772.275
2859.80367	3771.075
2862.31855	3750.675
2864.83189	3740.075
2867.34368	3720.075
2869.85393	3726.875
2872.36264	3717.075
2874.8698	3723.375
2877.37543	3709.475
2879.87952	3730.375
2882.38207	3721.675
2884.88308	3712.075
2887.38256	3720.275
2889.88051	3709.675
2892.37692	3719.175
2894.8718	3726.075
2897.36515	3737.275
2899.85698	3730.675
2902.34727	3741.675
2904.83604	3749.375
2907.32328	3752.675
2909.809	3733.875
2912.29319	3752.175
2914.77587	3729.775
2917.25702	3744.075
2919.73665	3745.575
2922.21476	3732.975
2924.69136	3727.675
2927.16644	3723.675
2929.64	3722.275
2932.11205	3715.975
2934.58258	3708.275
2937.05161	3693.175
2939.51912	3693.175
2941.98513	3656.775
2944.44962	3620.975
2946.91261	3580.275
2949.37409	3562.275
2951.83407	3556.975
2954.29254	3534.475
2956.74951	3519.675
2959.20498	3520.875
2961.65895	3494.675
2964.11142	3497.175
2966.56239	3478.475
2969.01186	3466.375
2971.45984	3455.775
2973.90632	3440.375
2976.35131	3431.075
2978.7948	3416.075
2981.23681	3416.075
2983.67732	3402.575
2986.11635	3387.375
2988.55388	3384.575
2990.98993	3366.675
2993.4245	3351.675
2995.85758	3343.675
2998.28917	3352.175
3000.71928	3339.775
3003.14791	3339.375
3005.57506	3327.575
3008.00073	3351.375
3010.42493	3309.075
3012.84764	3313.975
3015.26888	3311.075
3017.68865	3315.875
3020.10694	3307.275
3022.52376	3300.675
3024.9391	3298.075
3027.35298	3294.275
3029.76539	3294.675
3032.17632	3282.775
3034.5858	3283.675
3036.9938	3284.875
3039.40034	3268.375
3041.80542	3288.975
3044.20903	3269.075
3046.61118	3271.375
3049.01187	3265.475
3051.4111	3271.375
3053.80888	3261.475
3056.20519	3263.975
3058.60005	3263.975
3060.99345	3249.675
3063.3854	3262.475
3065.7759	3233.275
3068.16494	3227.675
3070.55254	3232.175
3072.93868	3219.475
3075.32338	3216.775
3077.70662	3215.275
3080.08842	3213.175
3082.46878	3210.275
3084.84769	3207.275
3087.22515	3219.275
3089.60118	3212.175
3091.97576	3205.375
3094.3489	3190.875
3096.72061	3218.975
3099.09087	3226.475
3101.4597	3217.875
3103.82709	3214.075
3106.19305	3213.975
3108.55757	3218.375
3110.92066	3221.475
3113.28232	3206.875
3115.64255	3205.475
3118.00134	3213.675
3120.35871	3220.975
3122.71466	3208.075
3125.06917	3205.475
3127.42226	3183.275
3129.77393	3208.675
3132.12417	3210.575
3134.47299	3206.375
3136.82039	3212.375
3139.16636	3223.875
3141.51092	3223.875
3143.85406	3247.475
3146.19579	3235.775
3148.53609	3258.575
3150.87499	3264.375
3153.21246	3267.175
3155.54853	3273.175
3157.88318	3283.575
3160.21642	3272.175
3162.54826	3288.375
3164.87868	3285.775
3167.2077	3297.175
3169.5353	3309.975
3171.86151	3295.675
3174.18631	3296.475
3176.5097	3309.775
3178.83169	3301.275
3181.15228	3302.775
3183.47147	3305.775
3185.78926	3315.475
3188.10565	3309.675
3190.42065	3323.675
3192.73424	3314.375
3195.04645	3308.275
3197.35725	3315.975
3199.66667	3332.475
3201.97469	3312.475
3204.28132	3340.875
3206.58656	3333.475
3208.8904	3356.975
3211.19287	3349.775
3213.49394	3346.675
3215.79363	3355.875
3218.09193	3366.575
3220.38884	3364.675
3222.68438	3352.175
3224.97853	3358.675
3227.2713	3360.875
3229.56269	3365.575
3231.8527	3354.475
