Data from AgNPs_FTO_APTES_UA_1uM_CRN_10uM_R6G_20uM_NaF_0.1M_Addition_RamanShift__3__15-01-19-672.txt Node

Date: Thu Jan 27 15:01:19 GMT 2022
User: TCL
Spectrometer: QEP01345
Trigger mode: 4
Integration Time (sec): 7.000000E0
Scans to average: 10
Electric dark correction enabled: true
Nonlinearity correction enabled: false
Boxcar width: 0
XAxis mode: Raman Shifts
Number of Pixels in Spectrum: 1044
>>>>>Begin Spectral Data<<<<<
46.04893	1.1125
50.45542	0.4125
54.85868	-0.8875
59.25871	-1.3875
63.6555	48.8125
68.04907	51.5125
72.43941	53.5125
76.82654	56.5125
81.21044	59.7125
85.59113	62.8125
89.96862	60.8125
94.34289	62.3125
98.71396	67.8125
103.08183	65.2125
107.4465	69.0125
111.80798	73.5125
116.16626	71.5125
120.52136	81.0125
124.87327	78.4125
129.222	78.0125
133.56755	82.4125
137.90993	87.1125
142.24913	92.9125
146.58517	102.9125
150.91804	123.0125
155.24774	141.6125
159.57429	170.9125
163.89768	213.8125
168.21792	281.7125
172.53501	379.0125
176.84895	524.6125
181.15975	732.9125
185.46741	1024.2125
189.77193	1412.2125
194.07331	1891.5125
198.37157	2432.4125
202.6667	2998.5125
206.9587	3573.1125
211.24758	4125.8125
215.53334	4669.8125
219.81599	5264.4125
224.09553	5913.1125
228.37195	6627.3125
232.64527	7412.4125
236.91549	8259.6125
241.18261	9068.1125
245.44663	9856.0125
249.70755	10571.8125
253.96539	11198.1125
258.22014	11695.9125
262.4718	12136.5125
266.72039	12457.1125
270.96589	12597.0125
275.20832	12616.1125
279.44768	12520.5125
283.68397	12394.9125
287.91719	12300.8125
292.14735	12220.4125
296.37445	12184.2125
300.59849	12238.1125
304.81948	12296.3125
309.03742	12322.1125
313.25231	12248.1125
317.46415	12051.0125
321.67296	11825.3125
325.87872	11624.8125
330.08145	11509.7125
334.28114	11497.9125
338.47781	11549.6125
342.67145	11719.9125
346.86207	11871.1125
351.04966	12101.4125
355.23424	12363.0125
359.4158	12532.0125
363.59435	12695.1125
367.76989	12800.6125
371.94243	12890.8125
376.11196	12944.7125
380.27849	13016.4125
384.44203	13083.3125
388.60257	13187.1125
392.76012	13292.9125
396.91468	13460.6125
401.06626	13651.2125
405.21485	13804.2125
409.36047	13767.4125
413.50311	13647.7125
417.64277	13591.9125
421.77947	13634.5125
425.9132	13643.4125
430.04396	13727.9125
434.17176	13784.3125
438.2966	13867.6125
442.41849	14028.3125
446.53742	14393.8125
450.6534	14812.7125
454.76644	15089.4125
458.87653	15178.9125
462.98368	15084.8125
467.08789	14875.3125
471.18916	14620.2125
475.2875	14370.2125
479.38291	14199.8125
483.4754	14106.9125
487.56496	14001.6125
491.6516	13826.2125
495.73531	13724.9125
499.81612	13677.8125
503.89401	13795.8125
507.96899	13823.6125
512.04106	13780.9125
516.11023	13705.0125
520.1765	13593.2125
524.23987	13515.4125
528.30034	13456.7125
532.35792	13332.2125
536.41261	13195.2125
540.46441	13037.9125
544.51333	12989.7125
548.55936	13119.5125
552.60252	13377.6125
556.64279	13647.1125
560.6802	13873.0125
564.71473	13917.7125
568.7464	14046.7125
572.7752	14339.3125
576.80114	14647.9125
580.82422	15052.7125
584.84444	15546.8125
588.86181	16199.4125
592.87633	16723.8125
596.888	16660.9125
600.89682	16120.7125
604.9028	15984.9125
608.90594	16896.0125
612.90624	17950.2125
616.90371	17091.9125
620.89834	14780.3125
624.89015	13722.1125
628.87913	13582.4125
632.86528	13581.3125
636.84862	13484.1125
640.82913	13275.2125
644.80683	13039.0125
648.78172	12868.5125
652.75379	12859.2125
656.72306	12988.2125
660.68952	13166.2125
664.65319	13105.9125
668.61405	12918.7125
672.57211	12883.5125
676.52738	12958.6125
680.47986	12935.2125
684.42955	12847.0125
688.37646	12811.5125
692.32058	12879.3125
696.26192	13037.7125
700.20048	13245.0125
704.13626	13317.6125
708.06928	13260.0125
711.99952	13169.1125
715.927	13178.4125
719.85171	13256.6125
723.77365	13241.2125
727.69284	13073.4125
731.60928	12853.5125
735.52295	12823.3125
739.43388	12842.0125
743.34206	12880.2125
747.24749	12948.4125
751.15017	13068.7125
755.05012	13248.5125
758.94733	13567.3125
762.8418	14108.8125
766.73354	14893.8125
770.62254	15677.4125
774.50882	15831.0125
778.39237	15292.2125
782.27321	14448.7125
786.15132	13722.9125
790.02671	13260.0125
793.89938	13090.4125
797.76935	12984.1125
801.6366	12967.7125
805.50115	12920.4125
809.36299	12866.2125
813.22213	12759.5125
817.07857	12714.8125
820.93231	12654.6125
824.78336	12607.4125
828.63172	12577.1125
832.47738	12632.0125
836.32036	12639.2125
840.16066	12705.5125
843.99827	12786.6125
847.8332	12717.1125
851.66546	12647.8125
855.49504	12657.7125
859.32195	12634.7125
863.1462	12577.7125
866.96777	12556.0125
870.78668	12509.3125
874.60293	12522.7125
878.41652	12539.8125
882.22745	12565.8125
886.03573	12646.0125
889.84136	12599.7125
893.64433	12556.9125
897.44466	12505.8125
901.24235	12460.1125
905.0374	12427.7125
908.8298	12412.8125
912.61957	12401.1125
916.40671	12524.9125
920.19121	12695.5125
923.97308	12861.3125
927.75233	12931.8125
931.52895	12876.0125
935.30295	12741.5125
939.07433	12540.8125
942.84309	12371.8125
946.60924	12312.3125
950.37278	12308.4125
954.13371	12308.6125
957.89203	12234.6125
961.64774	12186.9125
965.40086	12175.0125
969.15137	12151.0125
972.89929	12125.5125
976.64461	12082.9125
980.38733	12149.0125
984.12747	12197.3125
987.86502	12288.2125
991.59999	12449.4125
995.33237	12668.5125
999.06217	13003.9125
1002.78939	13401.5125
1006.51404	13651.5125
1010.23611	13793.2125
1013.95561	13881.4125
1017.67255	13862.1125
1021.38692	13756.1125
1025.09872	13602.4125
1028.80796	13696.0125
1032.51465	14113.5125
1036.21877	14565.2125
1039.92035	14645.0125
1043.61937	14513.9125
1047.31584	14143.0125
1051.00976	13728.4125
1054.70114	13477.0125
1058.38998	13403.8125
1062.07627	13415.7125
1065.76003	13435.0125
1069.44126	13529.3125
1073.11995	13698.2125
1076.79611	13887.7125
1080.46974	14009.2125
1084.14085	14079.5125
1087.80943	14216.7125
1091.47549	14276.7125
1095.13903	14220.4125
1098.80005	14079.9125
1102.45857	13785.9125
1106.11456	13631.8125
1109.76805	13537.5125
1113.41903	13544.0125
1117.06751	13595.3125
1120.71348	13679.9125
1124.35696	13789.2125
1127.99793	13931.9125
1131.63641	14005.2125
1135.2724	13930.8125
1138.90589	13864.4125
1142.5369	13887.2125
1146.16542	13935.4125
1149.79145	13980.2125
1153.415	14074.2125
1157.03607	14205.0125
1160.65467	14557.2125
1164.27079	15143.5125
1167.88443	15895.2125
1171.49561	16703.6125
1175.10432	17667.6125
1178.71056	18914.4125
1182.31434	20167.0125
1185.91565	20836.9125
1189.51451	20736.5125
1193.11091	20191.6125
1196.70485	19469.7125
1200.29634	18824.1125
1203.88538	18363.5125
1207.47197	18080.0125
1211.05612	17846.6125
1214.63782	17480.9125
1218.21708	17153.6125
1221.79391	16817.2125
1225.36829	16613.0125
1228.94024	16406.4125
1232.50976	16125.4125
1236.07685	15860.1125
1239.6415	15688.2125
1243.20374	15711.4125
1246.76355	15876.0125
1250.32093	16122.4125
1253.8759	16454.9125
1257.42845	16894.8125
1260.97859	17314.5125
1264.52631	17737.3125
1268.07163	18310.9125
1271.61453	18856.1125
1275.15503	19403.1125
1278.69312	19963.3125
1282.22882	20428.0125
1285.76211	20915.3125
1289.29301	21538.4125
1292.82151	22301.2125
1296.34761	23352.8125
1299.87133	24766.9125
1303.39266	26291.7125
1306.9116	27818.8125
1310.42815	28918.9125
1313.94233	29312.0125
1317.45412	28910.9125
1320.96354	28063.6125
1324.47058	27340.8125
1327.97525	26755.5125
1331.47754	26405.6125
1334.97747	26184.2125
1338.47502	25934.9125
1341.97022	25552.4125
1345.46305	25060.2125
1348.95352	24813.2125
1352.44163	24971.3125
1355.92738	25724.5125
1359.41078	26996.1125
1362.89183	27925.8125
1366.37053	27537.4125
1369.84688	25507.8125
1373.32088	22904.3125
1376.79254	20993.1125
1380.26186	20253.5125
1383.72883	20234.0125
1387.19347	20210.6125
1390.65578	19992.0125
1394.11575	19812.0125
1397.57339	19915.8125
1401.0287	20230.5125
1404.48168	20535.2125
1407.93234	20603.2125
1411.38068	20375.7125
1414.82669	19930.7125
1418.27039	19297.1125
1421.71177	18600.5125
1425.15083	18008.4125
1428.58758	17721.2125
1432.02203	17837.4125
1435.45416	18313.2125
1438.88399	18844.8125
1442.31151	19213.9125
1445.73673	19441.5125
1449.15965	19535.9125
1452.58027	19486.3125
1455.9986	19395.3125
1459.41463	19367.1125
1462.82837	19590.8125
1466.23982	19959.9125
1469.64898	20367.7125
1473.05586	20682.8125
1476.46045	20824.4125
1479.86276	20759.5125
1483.26279	20570.3125
1486.66054	20421.0125
1490.05602	20454.4125
1493.44922	20635.6125
1496.84016	20785.9125
1500.22882	20957.3125
1503.61521	21339.2125
1506.99934	21850.9125
1510.38121	22334.8125
1513.76081	22381.7125
1517.13816	21999.9125
1520.51324	21313.7125
1523.88607	20774.8125
1527.25665	20545.3125
1530.62498	20525.3125
1533.99105	20518.4125
1537.35488	20314.5125
1540.71647	20034.9125
1544.07581	19639.8125
1547.4329	19196.4125
1550.78776	18837.3125
1554.14038	18524.2125
1557.49077	18345.0125
1560.83892	18225.2125
1564.18484	18127.6125
1567.52853	18145.1125
1570.86999	18262.6125
1574.20922	18579.2125
1577.54624	18840.2125
1580.88103	18951.6125
1584.2136	19187.3125
1587.54395	19812.0125
1590.87208	20877.2125
1594.19801	22229.3125
1597.52172	23499.7125
1600.84321	23879.6125
1604.16251	22880.5125
1607.47959	21068.7125
1610.79447	19160.7125
1614.10715	17502.3125
1617.41763	16244.6125
1620.7259	15428.5125
1624.03199	15071.0125
1627.33587	15133.8125
1630.63757	15551.0125
1633.93707	16399.7125
1637.23439	17782.7125
1640.52951	19794.1125
1643.82246	22180.2125
1647.11321	24071.7125
1650.40179	24404.4125
1653.68819	22650.4125
1656.97241	19756.3125
1660.25446	17035.5125
1663.53433	15099.3125
1666.81203	13880.4125
1670.08756	13144.0125
1673.36092	12699.5125
1676.63211	12391.1125
1679.90115	12199.5125
1683.16801	12021.2125
1686.43272	11942.6125
1689.69527	11816.3125
1692.95567	11720.6125
1696.2139	11643.7125
1699.46999	11578.9125
1702.72392	11541.3125
1705.97571	11540.8125
1709.22535	11601.6125
1712.47284	11595.0125
1715.71819	11566.2125
1718.96139	11567.2125
1722.20246	11535.4125
1725.44139	11504.4125
1728.67818	11461.6125
1731.91284	11399.8125
1735.14537	11356.1125
1738.37576	11298.3125
1741.60403	11237.8125
1744.83017	11214.1125
1748.05418	11169.8125
1751.27607	11163.6125
1754.49584	11129.6125
1757.71349	11092.9125
1760.92903	11071.5125
1764.14244	11051.6125
1767.35375	11060.8125
1770.56294	11075.4125
1773.77002	11042.8125
1776.97499	11051.1125
1780.17785	11077.2125
1783.37861	11071.9125
1786.57727	11051.1125
1789.77382	11056.8125
1792.96828	11049.9125
1796.16064	11023.3125
1799.3509	11012.6125
1802.53907	10997.0125
1805.72514	10958.9125
1808.90913	10923.3125
1812.09102	10904.0125
1815.27083	10916.6125
1818.44856	10900.7125
1821.6242	10871.7125
1824.79776	10863.5125
1827.96924	10866.4125
1831.13864	10820.9125
1834.30597	10838.5125
1837.47122	10823.2125
1840.6344	10831.7125
1843.7955	10834.4125
1846.95454	10833.9125
1850.11151	10858.1125
1853.26642	10838.2125
1856.41926	10842.1125
1859.57004	10859.2125
1862.71876	10813.6125
1865.86542	10826.3125
1869.01003	10803.0125
1872.15258	10805.9125
1875.29308	10787.7125
1878.43152	10787.5125
1881.56792	10769.7125
1884.70227	10752.2125
1887.83457	10757.2125
1890.96482	10752.2125
1894.09304	10749.8125
1897.21921	10729.0125
1900.34335	10715.6125
1903.46544	10727.4125
1906.58551	10683.0125
1909.70353	10683.9125
1912.81953	10677.2125
1915.93349	10672.5125
1919.04543	10633.8125
1922.15534	10635.4125
1925.26322	10597.4125
1928.36908	10597.8125
1931.47292	10559.1125
1934.57473	10549.2125
1937.67453	10519.6125
1940.77232	10496.8125
1943.86808	10466.6125
1946.96184	10433.8125
1950.05358	10446.6125
1953.14331	10393.1125
1956.23103	10362.5125
1959.31675	10325.7125
1962.40046	10317.4125
1965.48217	10312.9125
1968.56188	10259.8125
1971.63959	10244.9125
1974.7153	10235.1125
1977.78901	10176.6125
1980.86073	10159.6125
1983.93046	10138.4125
1986.99819	10114.3125
1990.06394	10075.0125
1993.1277	10032.6125
1996.18947	9999.8125
1999.24925	9986.7125
2002.30706	9974.5125
2005.36288	9925.7125
2008.41672	9927.6125
2011.46859	9902.0125
2014.51848	9877.7125
2017.56639	9862.8125
2020.61233	9811.1125
2023.6563	9822.7125
2026.6983	9814.4125
2029.73833	9780.2125
2032.7764	9762.2125
2035.8125	9774.0125
2038.84664	9751.2125
2041.87881	9727.3125
2044.90903	9711.3125
2047.93729	9698.2125
2050.96359	9695.6125
2053.98794	9699.5125
2057.01034	9660.1125
2060.03078	9681.5125
2063.04927	9672.0125
2066.06582	9678.0125
2069.08042	9664.6125
2072.09307	9664.4125
2075.10378	9654.7125
2078.11255	9652.6125
2081.11938	9664.4125
2084.12426	9631.9125
2087.12722	9650.2125
2090.12824	9647.1125
2093.12732	9614.7125
2096.12447	9628.2125
2099.11969	9644.8125
2102.11299	9658.3125
2105.10435	9652.9125
2108.09379	9645.1125
2111.08131	9676.1125
2114.0669	9660.5125
2117.05057	9690.6125
2120.03233	9663.5125
2123.01216	9694.6125
2125.99008	9695.0125
2128.96609	9721.6125
2131.94018	9741.4125
2134.91236	9725.1125
2137.88263	9748.6125
2140.851	9744.9125
2143.81746	9748.2125
2146.78201	9784.0125
2149.74466	9784.7125
2152.7054	9789.2125
2155.66425	9775.7125
2158.6212	9780.5125
2161.57625	9749.1125
2164.52941	9759.1125
2167.48067	9765.2125
2170.43004	9776.0125
2173.37752	9763.4125
2176.32311	9766.7125
2179.26681	9784.6125
2182.20863	9780.9125
2185.14856	9786.0125
2188.08661	9805.4125
2191.02278	9800.1125
2193.95707	9802.7125
2196.88948	9802.4125
2199.82001	9775.3125
2202.74867	9777.7125
2205.67545	9802.0125
2208.60037	9782.4125
2211.52341	9778.5125
2214.44458	9770.1125
2217.36388	9731.5125
2220.28132	9744.7125
2223.1969	9712.7125
2226.11061	9710.6125
2229.02246	9703.1125
2231.93245	9699.6125
2234.84058	9680.2125
2237.74686	9667.7125
2240.65128	9665.6125
2243.55385	9655.9125
2246.45456	9636.5125
2249.35343	9614.0125
2252.25044	9609.6125
2255.14561	9611.9125
2258.03893	9591.3125
2260.93041	9548.2125
2263.82004	9526.8125
2266.70783	9522.4125
2269.59378	9524.1125
2272.4779	9489.2125
2275.36017	9471.5125
2278.24061	9444.1125
2281.11922	9428.6125
2283.996	9435.9125
2286.87094	9453.5125
2289.74405	9423.3125
2292.61534	9425.9125
2295.4848	9413.7125
2298.35243	9430.6125
2301.21824	9420.2125
2304.08223	9445.5125
2306.94439	9445.4125
2309.80474	9460.9125
2312.66327	9442.7125
2315.51999	9448.9125
2318.37489	9456.4125
2321.22797	9447.8125
2324.07925	9435.9125
2326.92871	9424.1125
2329.77637	9417.0125
2332.62222	9443.8125
2335.46626	9409.5125
2338.3085	9379.7125
2341.14893	9382.9125
2343.98756	9393.2125
2346.8244	9397.9125
2349.65943	9379.0125
2352.49267	9388.1125
2355.32411	9383.9125
2358.15376	9357.7125
2360.98161	9369.0125
2363.80768	9367.3125
2366.63195	9334.3125
2369.45444	9342.8125
2372.27514	9341.1125
2375.09405	9314.4125
2377.91118	9325.2125
2380.72652	9305.5125
2383.54009	9276.3125
2386.35187	9277.7125
2389.16188	9259.1125
2391.97011	9253.8125
2394.77657	9235.1125
2397.58125	9214.8125
2400.38416	9228.0125
2403.18529	9211.0125
2405.98466	9194.5125
2408.78226	9180.9125
2411.57809	9165.6125
2414.37216	9125.5125
2417.16446	9136.2125
2419.955	9130.2125
2422.74378	9152.9125
2425.5308	9130.9125
2428.31606	9117.5125
2431.09956	9107.0125
2433.88131	9114.5125
2436.6613	9141.3125
2439.43954	9115.4125
2442.21603	9115.6125
2444.99077	9098.7125
2447.76377	9117.3125
2450.53501	9113.4125
2453.30451	9128.0125
2456.07226	9091.8125
2458.83827	9101.7125
2461.60254	9108.9125
2464.36507	9098.2125
2467.12586	9093.1125
2469.88492	9083.1125
2472.64224	9125.2125
2475.39782	9104.3125
2478.15167	9115.1125
2480.90379	9102.2125
2483.65417	9140.9125
2486.40283	9147.6125
2489.14976	9154.5125
2491.89497	9155.4125
2494.63845	9148.4125
2497.3802	9127.6125
2500.12024	9115.0125
2502.85855	9129.5125
2505.59514	9130.0125
2508.33002	9110.9125
2511.06318	9119.3125
2513.79462	9111.4125
2516.52435	9102.8125
2519.25237	9096.3125
2521.97867	9102.8125
2524.70327	9097.2125
2527.42616	9077.4125
2530.14734	9081.4125
2532.86681	9096.1125
2535.58458	9080.0125
2538.30065	9060.9125
2541.01501	9045.6125
2543.72768	9079.2125
2546.43864	9074.6125
2549.14791	9042.3125
2551.85548	9066.9125
2554.56136	9040.6125
2557.26554	9039.0125
2559.96803	9036.5125
2562.66883	9036.3125
2565.36794	9028.4125
2568.06536	9028.1125
2570.7611	9033.9125
2573.45514	9003.7125
2576.14751	9013.6125
2578.83819	8998.7125
2581.52719	9007.7125
2584.21451	9018.5125
2586.90015	8990.6125
2589.58411	8984.9125
2592.2664	8992.0125
2594.94701	8968.7125
2597.62594	8997.0125
2600.30321	8977.2125
2602.9788	8962.3125
2605.65273	8949.8125
2608.32498	8965.7125
2610.99557	8980.7125
2613.66449	8968.2125
2616.33175	8947.0125
2618.99734	8973.7125
2621.66128	8968.7125
2624.32355	8949.5125
2626.98416	8976.6125
2629.64311	8967.5125
2632.30041	8965.3125
2634.95605	8961.2125
2637.61004	8934.3125
2640.26238	8917.0125
2642.91306	8921.1125
2645.56209	8929.2125
2648.20948	8906.5125
2650.85521	8905.9125
2653.4993	8932.1125
2656.14175	8918.1125
2658.78255	8955.1125
2661.42171	8941.5125
2664.05923	8946.6125
2666.6951	8959.9125
2669.32934	8966.3125
2671.96194	8985.4125
2674.59291	8973.3125
2677.22224	8950.4125
2679.84993	8946.3125
2682.476	8952.8125
2685.10043	8937.1125
2687.72324	8962.9125
2690.34441	8946.8125
2692.96396	8938.8125
2695.58188	8941.7125
2698.19818	8949.8125
2700.81285	8941.9125
2703.4259	8945.8125
2706.03733	8928.5125
2708.64714	8910.9125
2711.25533	8953.2125
2713.86191	8976.5125
2716.46687	8965.3125
2719.07021	8997.0125
2721.67194	9003.3125
2724.27206	8995.5125
2726.87057	9023.6125
2729.46747	9028.0125
2732.06276	9032.0125
2734.65644	9010.7125
2737.24852	9030.2125
2739.83899	9011.8125
2742.42786	9006.1125
2745.01513	9005.1125
2747.60079	9008.3125
2750.18486	9029.1125
2752.76733	9023.8125
2755.3482	8985.8125
2757.92747	9036.2125
2760.50515	8999.7125
2763.08123	8987.4125
2765.65573	8983.3125
2768.22863	8997.8125
2770.79994	8994.4125
2773.36967	8999.9125
2775.9378	8993.2125
2778.50435	9004.6125
2781.06932	8994.1125
2783.6327	8992.1125
2786.1945	8989.6125
2788.75471	8962.5125
2791.31335	8963.5125
2793.87041	8952.5125
2796.42589	8926.0125
2798.97979	8935.3125
2801.53212	8925.8125
2804.08288	8933.3125
2806.63206	8886.0125
2809.17967	8864.3125
2811.72571	8855.7125
2814.27018	8842.3125
2816.81308	8849.0125
2819.35442	8839.0125
2821.89419	8857.5125
2824.43239	8841.3125
2826.96904	8820.8125
2829.50412	8836.5125
2832.03763	8813.8125
2834.56959	8814.6125
2837.1	8797.4125
2839.62884	8819.3125
2842.15613	8807.8125
2844.68186	8821.3125
2847.20604	8830.6125
2849.72867	8840.2125
2852.24974	8825.6125
2854.76927	8810.9125
2857.28724	8805.2125
2859.80367	8814.7125
2862.31855	8797.6125
2864.83189	8793.9125
2867.34368	8772.2125
2869.85393	8780.3125
2872.36264	8788.1125
2874.8698	8779.2125
2877.37543	8746.9125
2879.87952	8766.3125
2882.38207	8786.4125
2884.88308	8789.3125
2887.38256	8805.6125
2889.88051	8787.5125
2892.37692	8803.8125
2894.8718	8816.7125
2897.36515	8827.6125
2899.85698	8854.6125
2902.34727	8848.4125
2904.83604	8818.2125
2907.32328	8847.3125
2909.809	8851.3125
2912.29319	8859.1125
2914.77587	8864.0125
2917.25702	8863.4125
2919.73665	8843.7125
2922.21476	8879.0125
2924.69136	8859.3125
2927.16644	8864.3125
2929.64	8844.4125
2932.11205	8854.1125
2934.58258	8840.4125
2937.05161	8841.4125
2939.51912	8837.4125
2941.98513	8848.4125
2944.44962	8792.9125
2946.91261	8784.3125
2949.37409	8797.5125
2951.83407	8797.5125
2954.29254	8794.7125
2956.74951	8773.4125
2959.20498	8790.3125
2961.65895	8777.3125
2964.11142	8776.4125
2966.56239	8768.7125
2969.01186	8779.2125
2971.45984	8750.6125
2973.90632	8736.7125
2976.35131	8744.9125
2978.7948	8721.6125
2981.23681	8698.0125
2983.67732	8727.1125
2986.11635	8676.2125
2988.55388	8643.6125
2990.98993	8637.3125
2993.4245	8635.5125
2995.85758	8640.4125
2998.28917	8629.9125
3000.71928	8598.4125
3003.14791	8580.9125
3005.57506	8584.1125
3008.00073	8581.2125
3010.42493	8555.8125
3012.84764	8574.7125
3015.26888	8569.0125
3017.68865	8538.2125
3020.10694	8522.1125
3022.52376	8502.3125
3024.9391	8497.7125
3027.35298	8504.0125
3029.76539	8516.6125
3032.17632	8493.4125
3034.5858	8498.3125
3036.9938	8487.0125
3039.40034	8482.0125
3041.80542	8510.7125
3044.20903	8454.7125
3046.61118	8483.8125
3049.01187	8466.1125
3051.4111	8468.3125
3053.80888	8447.9125
3056.20519	8450.7125
3058.60005	8401.3125
3060.99345	8402.6125
3063.3854	8382.3125
3065.7759	8373.9125
3068.16494	8386.4125
3070.55254	8347.2125
