Data from AgNPs_FTO_APTES_UA_1uM_CRN_200uM_R6G_10uM_NaF_0.1M_Addition_RamanShift__5__17-10-49-819.txt Node

Date: Thu Jan 27 17:10:49 GMT 2022
User: TCL
Spectrometer: QEP01345
Trigger mode: 4
Integration Time (sec): 7.000000E0
Scans to average: 10
Electric dark correction enabled: true
Nonlinearity correction enabled: false
Boxcar width: 0
XAxis mode: Raman Shifts
Number of Pixels in Spectrum: 1044
>>>>>Begin Spectral Data<<<<<
46.04893	0.4875
50.45542	1.4875
54.85868	-2.9125
59.25871	-1.1125
63.6555	42.6875
68.04907	41.1875
72.43941	46.4875
76.82654	51.6875
81.21044	49.8875
85.59113	50.6875
89.96862	54.2875
94.34289	52.7875
98.71396	58.8875
103.08183	57.3875
107.4465	64.9875
111.80798	65.1875
116.16626	63.3875
120.52136	66.1875
124.87327	70.5875
129.222	69.2875
133.56755	72.1875
137.90993	74.5875
142.24913	80.1875
146.58517	85.6875
150.91804	100.1875
155.24774	117.1875
159.57429	136.5875
163.89768	166.6875
168.21792	221.4875
172.53501	293.0875
176.84895	404.7875
181.15975	554.7875
185.46741	776.5875
189.77193	1071.5875
194.07331	1438.5875
198.37157	1852.2875
202.6667	2287.7875
206.9587	2740.9875
211.24758	3151.0875
215.53334	3583.2875
219.81599	4054.8875
224.09553	4552.7875
228.37195	5098.1875
232.64527	5678.2875
236.91549	6328.5875
241.18261	6955.8875
245.44663	7579.8875
249.70755	8132.7875
253.96539	8588.2875
258.22014	8993.5875
262.4718	9285.3875
266.72039	9488.7875
270.96589	9582.7875
275.20832	9546.2875
279.44768	9451.5875
283.68397	9322.7875
287.91719	9191.7875
292.14735	9073.8875
296.37445	9018.2875
300.59849	9032.7875
304.81948	9093.7875
309.03742	9110.2875
313.25231	9050.8875
317.46415	8917.7875
321.67296	8741.3875
325.87872	8580.1875
330.08145	8513.6875
334.28114	8523.3875
338.47781	8583.3875
342.67145	8667.1875
346.86207	8808.1875
351.04966	8974.3875
355.23424	9111.9875
359.4158	9221.5875
363.59435	9305.7875
367.76989	9409.8875
371.94243	9463.1875
376.11196	9517.8875
380.27849	9576.1875
384.44203	9635.0875
388.60257	9681.2875
392.76012	9773.2875
396.91468	9866.2875
401.06626	10005.8875
405.21485	10112.8875
409.36047	10101.2875
413.50311	9979.7875
417.64277	9907.6875
421.77947	9867.2875
425.9132	9872.2875
430.04396	9897.5875
434.17176	9921.8875
438.2966	9982.4875
442.41849	10096.0875
446.53742	10290.4875
450.6534	10492.9875
454.76644	10627.4875
458.87653	10624.2875
462.98368	10554.9875
467.08789	10429.3875
471.18916	10292.6875
475.2875	10173.4875
479.38291	10064.6875
483.4754	9982.0875
487.56496	9910.1875
491.6516	9863.0875
495.73531	9842.9875
499.81612	9853.9875
503.89401	9904.9875
507.96899	9941.8875
512.04106	9909.3875
516.11023	9888.6875
520.1765	9885.5875
524.23987	9860.6875
528.30034	9810.5875
532.35792	9791.7875
536.41261	9655.8875
540.46441	9576.2875
544.51333	9521.5875
548.55936	9592.9875
552.60252	9739.6875
556.64279	9886.8875
560.6802	10008.7875
564.71473	10034.4875
568.7464	10048.2875
572.7752	10178.7875
576.80114	10310.8875
580.82422	10515.6875
584.84444	10910.1875
588.86181	11355.6875
592.87633	11781.2875
596.888	11793.6875
600.89682	11387.7875
604.9028	11262.7875
608.90594	11888.4875
612.90624	12860.4875
616.90371	12412.7875
620.89834	10727.8875
624.89015	9915.6875
628.87913	9780.2875
632.86528	9848.1875
636.84862	9890.6875
640.82913	9802.0875
644.80683	9630.3875
648.78172	9528.0875
652.75379	9512.1875
656.72306	9590.3875
660.68952	9703.5875
664.65319	9674.3875
668.61405	9548.5875
672.57211	9500.9875
676.52738	9570.8875
680.47986	9601.0875
684.42955	9571.5875
688.37646	9504.1875
692.32058	9487.5875
696.26192	9569.4875
700.20048	9662.5875
704.13626	9675.3875
708.06928	9679.4875
711.99952	9650.0875
715.927	9666.7875
719.85171	9678.5875
723.77365	9678.4875
727.69284	9594.3875
731.60928	9511.5875
735.52295	9487.2875
739.43388	9502.9875
743.34206	9505.0875
747.24749	9559.1875
751.15017	9592.6875
755.05012	9686.7875
758.94733	9883.4875
762.8418	10195.8875
766.73354	10808.0875
770.62254	11475.9875
774.50882	11779.9875
778.39237	11475.3875
782.27321	10821.2875
786.15132	10188.1875
790.02671	9784.9875
793.89938	9616.3875
797.76935	9545.4875
801.6366	9489.0875
805.50115	9449.2875
809.36299	9421.7875
813.22213	9377.4875
817.07857	9327.0875
820.93231	9296.8875
824.78336	9279.5875
828.63172	9294.0875
832.47738	9288.8875
836.32036	9315.6875
840.16066	9338.7875
843.99827	9350.3875
847.8332	9347.1875
851.66546	9280.4875
855.49504	9312.4875
859.32195	9269.3875
863.1462	9275.6875
866.96777	9289.3875
870.78668	9264.4875
874.60293	9255.2875
878.41652	9250.1875
882.22745	9321.2875
886.03573	9328.6875
889.84136	9349.1875
893.64433	9312.7875
897.44466	9280.2875
901.24235	9260.1875
905.0374	9219.6875
908.8298	9188.5875
912.61957	9176.5875
916.40671	9224.4875
920.19121	9315.3875
923.97308	9382.6875
927.75233	9459.1875
931.52895	9480.0875
935.30295	9366.8875
939.07433	9217.7875
942.84309	9108.4875
946.60924	9053.9875
950.37278	9046.4875
954.13371	9014.1875
957.89203	8972.0875
961.64774	8925.9875
965.40086	8919.7875
969.15137	8900.5875
972.89929	8845.1875
976.64461	8829.7875
980.38733	8843.7875
984.12747	8839.6875
987.86502	8866.9875
991.59999	8923.3875
995.33237	9022.8875
999.06217	9166.8875
1002.78939	9331.0875
1006.51404	9430.7875
1010.23611	9497.2875
1013.95561	9568.5875
1017.67255	9588.7875
1021.38692	9552.6875
1025.09872	9454.5875
1028.80796	9428.9875
1032.51465	9522.2875
1036.21877	9653.4875
1039.92035	9708.6875
1043.61937	9692.2875
1047.31584	9619.7875
1051.00976	9529.1875
1054.70114	9460.8875
1058.38998	9441.0875
1062.07627	9479.1875
1065.76003	9568.6875
1069.44126	9602.1875
1073.11995	9718.5875
1076.79611	9861.8875
1080.46974	9894.8875
1084.14085	9888.2875
1087.80943	9888.9875
1091.47549	9911.6875
1095.13903	9928.9875
1098.80005	9847.8875
1102.45857	9673.4875
1106.11456	9525.5875
1109.76805	9476.6875
1113.41903	9468.1875
1117.06751	9536.9875
1120.71348	9624.2875
1124.35696	9759.9875
1127.99793	9929.8875
1131.63641	10030.0875
1135.2724	9925.7875
1138.90589	9783.8875
1142.5369	9719.5875
1146.16542	9658.6875
1149.79145	9653.5875
1153.415	9689.1875
1157.03607	9720.0875
1160.65467	9867.3875
1164.27079	10182.6875
1167.88443	10608.1875
1171.49561	11035.0875
1175.10432	11646.0875
1178.71056	12482.1875
1182.31434	13231.1875
1185.91565	13600.5875
1189.51451	13452.0875
1193.11091	13021.8875
1196.70485	12495.7875
1200.29634	12030.0875
1203.88538	11652.2875
1207.47197	11367.0875
1211.05612	11132.1875
1214.63782	10929.3875
1218.21708	10751.8875
1221.79391	10661.0875
1225.36829	10628.7875
1228.94024	10622.6875
1232.50976	10516.8875
1236.07685	10398.0875
1239.6415	10267.5875
1243.20374	10272.3875
1246.76355	10289.1875
1250.32093	10382.8875
1253.8759	10543.8875
1257.42845	10719.7875
1260.97859	10949.4875
1264.52631	11171.6875
1268.07163	11407.6875
1271.61453	11665.0875
1275.15503	11894.3875
1278.69312	12146.5875
1282.22882	12394.0875
1285.76211	12697.2875
1289.29301	13050.1875
1292.82151	13508.0875
1296.34761	14059.5875
1299.87133	14756.9875
1303.39266	15547.1875
1306.9116	16400.2875
1310.42815	17145.6875
1313.94233	17543.9875
1317.45412	17332.9875
1320.96354	16735.0875
1324.47058	16031.6875
1327.97525	15470.4875
1331.47754	15049.4875
1334.97747	14792.4875
1338.47502	14577.2875
1341.97022	14383.4875
1345.46305	14310.8875
1348.95352	14496.9875
1352.44163	14988.5875
1355.92738	15822.5875
1359.41078	16933.3875
1362.89183	17806.7875
1366.37053	17780.9875
1369.84688	16458.4875
1373.32088	14603.2875
1376.79254	13224.3875
1380.26186	12570.0875
1383.72883	12324.0875
1387.19347	12119.0875
1390.65578	11851.0875
1394.11575	11703.4875
1397.57339	11737.5875
1401.0287	11907.8875
1404.48168	12044.6875
1407.93234	12045.2875
1411.38068	11932.5875
1414.82669	11759.3875
1418.27039	11541.3875
1421.71177	11268.7875
1425.15083	11025.8875
1428.58758	10885.2875
1432.02203	10905.8875
1435.45416	11074.7875
1438.88399	11277.9875
1442.31151	11404.3875
1445.73673	11405.1875
1449.15965	11443.4875
1452.58027	11400.5875
1455.9986	11306.6875
1459.41463	11293.3875
1462.82837	11407.8875
1466.23982	11637.6875
1469.64898	11830.3875
1473.05586	12025.1875
1476.46045	12155.8875
1479.86276	12219.1875
1483.26279	12236.6875
1486.66054	12321.5875
1490.05602	12479.2875
1493.44922	12705.9875
1496.84016	13015.3875
1500.22882	13384.3875
1503.61521	13977.3875
1506.99934	14648.3875
1510.38121	15177.0875
1513.76081	15252.1875
1517.13816	14696.2875
1520.51324	13893.3875
1523.88607	13198.0875
1527.25665	12811.0875
1530.62498	12572.1875
1533.99105	12420.1875
1537.35488	12257.8875
1540.71647	12047.7875
1544.07581	11884.2875
1547.4329	11686.0875
1550.78776	11475.6875
1554.14038	11328.3875
1557.49077	11290.6875
1560.83892	11226.6875
1564.18484	11263.0875
1567.52853	11344.5875
1570.86999	11501.7875
1574.20922	11703.4875
1577.54624	11830.7875
1580.88103	11731.0875
1584.2136	11594.6875
1587.54395	11647.2875
1590.87208	11971.7875
1594.19801	12571.7875
1597.52172	13233.2875
1600.84321	13555.5875
1604.16251	13312.7875
1607.47959	12555.5875
1610.79447	11673.1875
1614.10715	10824.2875
1617.41763	10175.1875
1620.7259	9762.1875
1624.03199	9543.8875
1627.33587	9526.8875
1630.63757	9675.8875
1633.93707	10020.0875
1637.23439	10663.3875
1640.52951	11665.5875
1643.82246	13018.5875
1647.11321	14338.7875
1650.40179	14858.5875
1653.68819	14136.8875
1656.97241	12540.9875
1660.25446	10986.9875
1663.53433	9890.4875
1666.81203	9221.6875
1670.08756	8814.7875
1673.36092	8604.4875
1676.63211	8445.5875
1679.90115	8332.6875
1683.16801	8244.4875
1686.43272	8169.3875
1689.69527	8132.5875
1692.95567	8065.8875
1696.2139	8025.4875
1699.46999	7947.8875
1702.72392	7932.6875
1705.97571	7934.7875
1709.22535	7952.7875
1712.47284	7982.9875
1715.71819	7986.1875
1718.96139	7975.2875
1722.20246	7961.4875
1725.44139	7956.9875
1728.67818	7929.3875
1731.91284	7879.2875
1735.14537	7862.4875
1738.37576	7850.1875
1741.60403	7813.1875
1744.83017	7798.7875
1748.05418	7773.9875
1751.27607	7767.9875
1754.49584	7737.5875
1757.71349	7774.1875
1760.92903	7722.9875
1764.14244	7723.5875
1767.35375	7714.9875
1770.56294	7678.7875
1773.77002	7653.9875
1776.97499	7665.2875
1780.17785	7668.2875
1783.37861	7664.7875
1786.57727	7659.3875
1789.77382	7646.7875
1792.96828	7649.6875
1796.16064	7605.9875
1799.3509	7602.1875
1802.53907	7587.8875
1805.72514	7582.3875
1808.90913	7552.5875
1812.09102	7526.0875
1815.27083	7522.1875
1818.44856	7528.7875
1821.6242	7501.5875
1824.79776	7506.6875
1827.96924	7506.4875
1831.13864	7494.6875
1834.30597	7482.1875
1837.47122	7492.0875
1840.6344	7481.4875
1843.7955	7448.6875
1846.95454	7458.9875
1850.11151	7455.5875
1853.26642	7457.1875
1856.41926	7444.5875
1859.57004	7454.9875
1862.71876	7450.5875
1865.86542	7439.4875
1869.01003	7429.1875
1872.15258	7434.3875
1875.29308	7426.7875
1878.43152	7401.9875
1881.56792	7422.3875
1884.70227	7403.3875
1887.83457	7378.7875
1890.96482	7388.1875
1894.09304	7371.6875
1897.21921	7367.2875
1900.34335	7361.4875
1903.46544	7355.8875
1906.58551	7358.2875
1909.70353	7326.8875
1912.81953	7341.1875
1915.93349	7319.4875
1919.04543	7297.3875
1922.15534	7286.6875
1925.26322	7280.5875
1928.36908	7273.8875
1931.47292	7247.9875
1934.57473	7242.9875
1937.67453	7211.2875
1940.77232	7193.8875
1943.86808	7188.1875
1946.96184	7160.3875
1950.05358	7140.0875
1953.14331	7129.0875
1956.23103	7098.7875
1959.31675	7091.8875
1962.40046	7075.1875
1965.48217	7068.8875
1968.56188	7048.2875
1971.63959	7002.8875
1974.7153	7011.2875
1977.78901	6983.3875
1980.86073	6978.5875
1983.93046	6938.2875
1986.99819	6925.1875
1990.06394	6911.6875
1993.1277	6897.7875
1996.18947	6851.1875
1999.24925	6855.9875
2002.30706	6816.4875
2005.36288	6797.3875
2008.41672	6775.3875
2011.46859	6796.7875
2014.51848	6765.6875
2017.56639	6742.1875
2020.61233	6730.3875
2023.6563	6713.8875
2026.6983	6697.5875
2029.73833	6705.8875
2032.7764	6681.8875
2035.8125	6667.0875
2038.84664	6628.0875
2041.87881	6654.8875
2044.90903	6615.8875
2047.93729	6607.3875
2050.96359	6621.3875
2053.98794	6581.2875
2057.01034	6608.7875
2060.03078	6596.5875
2063.04927	6575.3875
2066.06582	6582.9875
2069.08042	6580.6875
2072.09307	6570.4875
2075.10378	6576.4875
2078.11255	6574.3875
2081.11938	6573.0875
2084.12426	6554.7875
2087.12722	6561.4875
2090.12824	6549.1875
2093.12732	6548.4875
2096.12447	6554.7875
2099.11969	6558.0875
2102.11299	6554.4875
2105.10435	6564.0875
2108.09379	6555.8875
2111.08131	6577.8875
2114.0669	6580.5875
2117.05057	6573.2875
2120.03233	6584.8875
2123.01216	6592.8875
2125.99008	6610.6875
2128.96609	6622.4875
2131.94018	6615.7875
2134.91236	6610.4875
2137.88263	6638.7875
2140.851	6648.5875
2143.81746	6634.3875
2146.78201	6640.7875
2149.74466	6650.2875
2152.7054	6634.0875
2155.66425	6632.3875
2158.6212	6638.1875
2161.57625	6627.0875
2164.52941	6619.2875
2167.48067	6614.5875
2170.43004	6629.5875
2173.37752	6632.2875
2176.32311	6625.6875
2179.26681	6630.6875
2182.20863	6636.7875
2185.14856	6646.1875
2188.08661	6629.3875
2191.02278	6635.1875
2193.95707	6638.2875
2196.88948	6617.5875
2199.82001	6625.0875
2202.74867	6614.6875
2205.67545	6612.0875
2208.60037	6598.7875
2211.52341	6580.7875
2214.44458	6587.0875
2217.36388	6577.9875
2220.28132	6577.1875
2223.1969	6551.6875
2226.11061	6556.3875
2229.02246	6536.2875
2231.93245	6514.6875
2234.84058	6516.5875
2237.74686	6506.8875
2240.65128	6486.8875
2243.55385	6489.4875
2246.45456	6485.5875
2249.35343	6480.9875
2252.25044	6468.8875
2255.14561	6457.7875
2258.03893	6455.1875
2260.93041	6435.0875
2263.82004	6423.9875
2266.70783	6427.0875
2269.59378	6417.1875
2272.4779	6380.1875
2275.36017	6371.9875
2278.24061	6371.9875
2281.11922	6363.1875
2283.996	6350.7875
2286.87094	6339.3875
2289.74405	6327.1875
2292.61534	6331.5875
2295.4848	6337.5875
2298.35243	6311.9875
2301.21824	6328.9875
2304.08223	6347.4875
2306.94439	6322.6875
2309.80474	6331.8875
2312.66327	6314.5875
2315.51999	6297.3875
2318.37489	6306.9875
2321.22797	6281.2875
2324.07925	6300.8875
2326.92871	6287.5875
2329.77637	6292.0875
2332.62222	6281.6875
2335.46626	6253.8875
2338.3085	6253.8875
2341.14893	6252.5875
2343.98756	6262.0875
2346.8244	6253.0875
2349.65943	6250.5875
2352.49267	6240.4875
2355.32411	6247.1875
2358.15376	6235.8875
2360.98161	6228.3875
2363.80768	6228.9875
2366.63195	6228.0875
2369.45444	6227.2875
2372.27514	6208.3875
2375.09405	6193.7875
2377.91118	6218.7875
2380.72652	6185.9875
2383.54009	6172.2875
2386.35187	6160.1875
2389.16188	6144.2875
2391.97011	6125.2875
2394.77657	6098.5875
2397.58125	6100.3875
2400.38416	6113.5875
2403.18529	6091.0875
2405.98466	6098.7875
2408.78226	6069.4875
2411.57809	6082.8875
2414.37216	6075.9875
2417.16446	6073.6875
2419.955	6067.7875
2422.74378	6077.9875
2425.5308	6068.7875
2428.31606	6056.9875
2431.09956	6047.0875
2433.88131	6032.2875
2436.6613	6034.2875
2439.43954	6030.3875
2442.21603	6039.7875
2444.99077	6030.6875
2447.76377	6040.0875
2450.53501	6039.4875
2453.30451	6029.9875
2456.07226	6010.5875
2458.83827	6020.4875
2461.60254	6006.6875
2464.36507	6026.4875
2467.12586	6024.1875
2469.88492	6007.2875
2472.64224	6011.1875
2475.39782	5998.7875
2478.15167	5991.4875
2480.90379	5985.0875
2483.65417	5995.0875
2486.40283	5995.6875
2489.14976	6006.3875
2491.89497	5981.8875
2494.63845	5984.5875
2497.3802	5979.3875
2500.12024	5975.8875
2502.85855	5983.7875
2505.59514	5979.0875
2508.33002	5980.8875
2511.06318	5955.2875
2513.79462	5964.7875
2516.52435	5962.8875
2519.25237	5937.1875
2521.97867	5925.7875
2524.70327	5944.1875
2527.42616	5930.6875
2530.14734	5917.9875
2532.86681	5921.8875
2535.58458	5911.7875
2538.30065	5884.7875
2541.01501	5913.2875
2543.72768	5891.2875
2546.43864	5892.2875
2549.14791	5869.7875
2551.85548	5868.7875
2554.56136	5866.8875
2557.26554	5853.5875
2559.96803	5865.2875
2562.66883	5857.5875
2565.36794	5850.9875
2568.06536	5838.7875
2570.7611	5837.2875
2573.45514	5826.1875
2576.14751	5814.3875
2578.83819	5822.9875
2581.52719	5790.3875
2584.21451	5805.8875
2586.90015	5802.9875
2589.58411	5783.2875
2592.2664	5774.6875
2594.94701	5776.0875
2597.62594	5765.0875
2600.30321	5749.4875
2602.9788	5735.1875
2605.65273	5754.9875
2608.32498	5739.7875
2610.99557	5737.8875
2613.66449	5727.9875
2616.33175	5740.6875
2618.99734	5718.4875
2621.66128	5744.7875
2624.32355	5719.6875
2626.98416	5701.3875
2629.64311	5723.2875
2632.30041	5683.7875
2634.95605	5672.1875
2637.61004	5670.9875
2640.26238	5667.9875
2642.91306	5671.7875
2645.56209	5671.5875
2648.20948	5652.6875
2650.85521	5662.3875
2653.4993	5661.3875
2656.14175	5670.0875
2658.78255	5676.1875
2661.42171	5673.0875
2664.05923	5685.0875
2666.6951	5681.5875
2669.32934	5690.3875
2671.96194	5668.7875
2674.59291	5694.3875
2677.22224	5656.3875
2679.84993	5667.2875
2682.476	5650.9875
2685.10043	5652.5875
2687.72324	5658.3875
2690.34441	5659.5875
2692.96396	5660.6875
2695.58188	5671.0875
2698.19818	5658.4875
2700.81285	5675.5875
2703.4259	5666.3875
2706.03733	5647.2875
2708.64714	5629.8875
2711.25533	5680.5875
2713.86191	5665.0875
2716.46687	5673.8875
2719.07021	5683.8875
2721.67194	5690.6875
2724.27206	5690.6875
2726.87057	5695.5875
2729.46747	5708.6875
2732.06276	5701.3875
2734.65644	5693.3875
2737.24852	5685.5875
2739.83899	5680.6875
2742.42786	5672.0875
2745.01513	5665.2875
2747.60079	5664.1875
2750.18486	5657.7875
2752.76733	5647.0875
2755.3482	5642.7875
2757.92747	5645.3875
2760.50515	5647.6875
2763.08123	5647.5875
2765.65573	5652.3875
2768.22863	5638.3875
2770.79994	5637.1875
2773.36967	5627.2875
2775.9378	5627.4875
2778.50435	5625.0875
2781.06932	5608.6875
2783.6327	5608.5875
2786.1945	5617.5875
2788.75471	5596.2875
2791.31335	5591.5875
2793.87041	5598.9875
2796.42589	5565.6875
2798.97979	5580.6875
2801.53212	5567.5875
2804.08288	5544.6875
2806.63206	5567.8875
2809.17967	5547.9875
2811.72571	5537.4875
2814.27018	5523.0875
2816.81308	5510.5875
2819.35442	5525.9875
2821.89419	5512.2875
2824.43239	5515.5875
2826.96904	5511.1875
2829.50412	5508.8875
2832.03763	5503.2875
2834.56959	5507.6875
2837.1	5495.3875
2839.62884	5532.3875
2842.15613	5529.6875
2844.68186	5547.1875
2847.20604	5586.7875
2849.72867	5598.7875
2852.24974	5590.2875
2854.76927	5600.9875
2857.28724	5584.8875
2859.80367	5563.8875
2862.31855	5562.5875
2864.83189	5578.0875
2867.34368	5571.3875
2869.85393	5564.3875
2872.36264	5560.2875
2874.8698	5556.4875
2877.37543	5571.5875
2879.87952	5565.7875
2882.38207	5554.3875
2884.88308	5554.0875
2887.38256	5554.9875
2889.88051	5536.5875
2892.37692	5547.3875
2894.8718	5564.9875
2897.36515	5576.1875
2899.85698	5582.9875
2902.34727	5603.2875
2904.83604	5592.0875
2907.32328	5613.3875
2909.809	5598.7875
2912.29319	5609.5875
2914.77587	5605.3875
2917.25702	5613.1875
2919.73665	5592.2875
2922.21476	5617.0875
2924.69136	5610.4875
2927.16644	5622.0875
2929.64	5611.7875
2932.11205	5596.8875
2934.58258	5599.4875
2937.05161	5598.1875
2939.51912	5591.6875
2941.98513	5587.5875
2944.44962	5560.2875
2946.91261	5551.6875
2949.37409	5547.5875
2951.83407	5540.3875
2954.29254	5537.0875
2956.74951	5501.9875
2959.20498	5534.2875
2961.65895	5513.5875
2964.11142	5496.2875
2966.56239	5486.7875
2969.01186	5470.0875
2971.45984	5469.4875
2973.90632	5477.6875
2976.35131	5449.8875
2978.7948	5440.3875
2981.23681	5433.8875
2983.67732	5422.2875
2986.11635	5423.6875
2988.55388	5396.7875
2990.98993	5379.1875
2993.4245	5382.5875
2995.85758	5374.1875
2998.28917	5344.4875
3000.71928	5349.4875
3003.14791	5342.0875
3005.57506	5344.9875
3008.00073	5326.0875
3010.42493	5318.6875
3012.84764	5329.6875
3015.26888	5331.5875
3017.68865	5314.3875
3020.10694	5304.1875
3022.52376	5285.0875
3024.9391	5290.7875
3027.35298	5288.7875
3029.76539	5283.4875
3032.17632	5280.3875
3034.5858	5258.2875
3036.9938	5269.1875
3039.40034	5264.7875
3041.80542	5255.2875
3044.20903	5252.4875
3046.61118	5254.7875
3049.01187	5261.6875
3051.4111	5246.8875
3053.80888	5248.0875
3056.20519	5226.4875
3058.60005	5234.0875
3060.99345	5210.1875
3063.3854	5213.2875
3065.7759	5201.4875
3068.16494	5189.4875
3070.55254	5169.6875
3072.93868	5184.3875
3075.32338	5166.5875
3077.70662	5174.2875
3080.08842	5164.7875
3082.46878	5167.6875
3084.84769	5169.8875
3087.22515	5165.4875
3089.60118	5177.2875
3091.97576	5170.5875
3094.3489	5169.8875
3096.72061	5173.3875
3099.09087	5193.8875
3101.4597	5179.7875
3103.82709	5182.7875
