Data from AgNPs_FTO_APTES_UA_1uM_CRN_100uM_R6G_10uM_NaF_0.1M_Addition_RamanShift__12__16-34-39-778.txt Node

Date: Thu Jan 27 16:34:39 GMT 2022
User: TCL
Spectrometer: QEP01345
Trigger mode: 4
Integration Time (sec): 7.000000E0
Scans to average: 10
Electric dark correction enabled: true
Nonlinearity correction enabled: false
Boxcar width: 0
XAxis mode: Raman Shifts
Number of Pixels in Spectrum: 1044
>>>>>Begin Spectral Data<<<<<
46.04893	1.375
50.45542	0.775
54.85868	-0.725
59.25871	-0.825
63.6555	41.675
68.04907	46.875
72.43941	49.275
76.82654	50.375
81.21044	51.775
85.59113	52.975
89.96862	53.475
94.34289	57.175
98.71396	58.775
103.08183	61.775
107.4465	63.775
111.80798	65.475
116.16626	64.575
120.52136	72.175
124.87327	68.875
129.222	70.375
133.56755	73.275
137.90993	77.875
142.24913	83.975
146.58517	92.975
150.91804	105.475
155.24774	119.875
159.57429	148.575
163.89768	182.775
168.21792	240.175
172.53501	324.875
176.84895	447.975
181.15975	616.175
185.46741	868.675
189.77193	1190.575
194.07331	1607.375
198.37157	2077.175
202.6667	2574.075
206.9587	3064.275
211.24758	3537.075
215.53334	4013.675
219.81599	4501.475
224.09553	5028.575
228.37195	5629.075
232.64527	6279.875
236.91549	6968.175
241.18261	7667.175
245.44663	8339.575
249.70755	9020.975
253.96539	9606.575
258.22014	10061.575
262.4718	10459.475
266.72039	10723.075
270.96589	10879.675
275.20832	10923.775
279.44768	10881.275
283.68397	10809.475
287.91719	10754.375
292.14735	10641.075
296.37445	10624.775
300.59849	10624.875
304.81948	10636.375
309.03742	10600.075
313.25231	10470.375
317.46415	10340.375
321.67296	10136.475
325.87872	9976.775
330.08145	9914.775
334.28114	9900.775
338.47781	9976.775
342.67145	10082.275
346.86207	10195.875
351.04966	10308.275
355.23424	10456.675
359.4158	10566.475
363.59435	10674.975
367.76989	10750.075
371.94243	10814.275
376.11196	10861.375
380.27849	10949.975
384.44203	10974.875
388.60257	11034.275
392.76012	11138.475
396.91468	11268.375
401.06626	11420.375
405.21485	11500.575
409.36047	11516.675
413.50311	11441.575
417.64277	11349.775
421.77947	11369.275
425.9132	11421.475
430.04396	11440.175
434.17176	11524.975
438.2966	11588.475
442.41849	11674.375
446.53742	11819.975
450.6534	12007.975
454.76644	12145.975
458.87653	12243.575
462.98368	12277.975
467.08789	12271.975
471.18916	12229.175
475.2875	12172.475
479.38291	12133.575
483.4754	12112.075
487.56496	12014.575
491.6516	11918.075
495.73531	11808.575
499.81612	11724.475
503.89401	11765.375
507.96899	11820.475
512.04106	11838.675
516.11023	11806.975
520.1765	11755.575
524.23987	11662.775
528.30034	11583.875
532.35792	11507.775
536.41261	11461.875
540.46441	11368.575
544.51333	11408.275
548.55936	11506.375
552.60252	11647.875
556.64279	11809.175
560.6802	11941.875
564.71473	12020.375
568.7464	12134.975
572.7752	12364.275
576.80114	12656.975
580.82422	12968.075
584.84444	13150.175
588.86181	13292.675
592.87633	13423.775
596.888	13350.775
600.89682	13126.175
604.9028	13108.975
608.90594	13484.075
612.90624	13968.375
616.90371	13441.675
620.89834	12204.275
624.89015	11638.275
628.87913	11603.875
632.86528	11719.775
636.84862	11737.175
640.82913	11693.175
644.80683	11522.375
648.78172	11418.575
652.75379	11361.775
656.72306	11432.875
660.68952	11518.375
664.65319	11547.775
668.61405	11440.175
672.57211	11445.075
676.52738	11464.075
680.47986	11454.975
684.42955	11411.375
688.37646	11403.475
692.32058	11422.375
696.26192	11496.175
700.20048	11560.975
704.13626	11634.675
708.06928	11655.675
711.99952	11674.075
715.927	11640.675
719.85171	11599.975
723.77365	11556.375
727.69284	11473.075
731.60928	11394.875
735.52295	11305.975
739.43388	11320.975
743.34206	11327.875
747.24749	11363.975
751.15017	11432.675
755.05012	11538.675
758.94733	11749.175
762.8418	12091.775
766.73354	12601.775
770.62254	13065.175
774.50882	13176.175
778.39237	12809.675
782.27321	12282.875
786.15132	11839.875
790.02671	11534.375
793.89938	11382.875
797.76935	11322.175
801.6366	11254.275
805.50115	11231.875
809.36299	11196.775
813.22213	11138.875
817.07857	11143.675
820.93231	11147.275
824.78336	11140.475
828.63172	11102.775
832.47738	11092.975
836.32036	11061.075
840.16066	11056.175
843.99827	11048.575
847.8332	11053.175
851.66546	11047.675
855.49504	11043.475
859.32195	11053.075
863.1462	11051.075
866.96777	11069.475
870.78668	11009.075
874.60293	11044.475
878.41652	11037.075
882.22745	11071.175
886.03573	11097.975
889.84136	11097.475
893.64433	11075.175
897.44466	11034.175
901.24235	11034.075
905.0374	11010.775
908.8298	10995.075
912.61957	11034.075
916.40671	11084.375
920.19121	11176.375
923.97308	11244.175
927.75233	11181.475
931.52895	11140.475
935.30295	11011.275
939.07433	10900.575
942.84309	10792.775
946.60924	10730.975
950.37278	10680.675
954.13371	10668.075
957.89203	10642.275
961.64774	10628.675
965.40086	10642.575
969.15137	10620.175
972.89929	10573.175
976.64461	10531.275
980.38733	10500.175
984.12747	10489.075
987.86502	10521.575
991.59999	10533.975
995.33237	10569.775
999.06217	10632.175
1002.78939	10725.475
1006.51404	10790.275
1010.23611	10891.175
1013.95561	10968.175
1017.67255	10995.575
1021.38692	10938.275
1025.09872	10881.675
1028.80796	10801.475
1032.51465	10769.875
1036.21877	10760.475
1039.92035	10816.575
1043.61937	10823.375
1047.31584	10854.175
1051.00976	10898.975
1054.70114	10972.775
1058.38998	11030.675
1062.07627	11126.775
1065.76003	11237.175
1069.44126	11344.175
1073.11995	11470.875
1076.79611	11563.075
1080.46974	11564.875
1084.14085	11563.875
1087.80943	11611.875
1091.47549	11665.775
1095.13903	11699.975
1098.80005	11667.975
1102.45857	11508.675
1106.11456	11337.475
1109.76805	11188.275
1113.41903	11163.175
1117.06751	11169.175
1120.71348	11230.775
1124.35696	11297.175
1127.99793	11431.675
1131.63641	11474.775
1135.2724	11430.175
1138.90589	11366.575
1142.5369	11376.675
1146.16542	11418.175
1149.79145	11483.975
1153.415	11535.075
1157.03607	11611.575
1160.65467	11769.475
1164.27079	12036.975
1167.88443	12401.275
1171.49561	12805.775
1175.10432	13261.575
1178.71056	13802.975
1182.31434	14328.675
1185.91565	14660.175
1189.51451	14787.975
1193.11091	14703.575
1196.70485	14485.975
1200.29634	14155.075
1203.88538	13858.775
1207.47197	13670.575
1211.05612	13526.975
1214.63782	13350.075
1218.21708	13090.975
1221.79391	12771.875
1225.36829	12513.875
1228.94024	12340.175
1232.50976	12266.475
1236.07685	12248.475
1239.6415	12219.775
1243.20374	12253.675
1246.76355	12297.575
1250.32093	12412.575
1253.8759	12558.175
1257.42845	12731.475
1260.97859	12936.875
1264.52631	13167.975
1268.07163	13360.075
1271.61453	13561.275
1275.15503	13764.775
1278.69312	13982.575
1282.22882	14277.675
1285.76211	14560.575
1289.29301	14879.675
1292.82151	15317.475
1296.34761	15788.775
1299.87133	16332.075
1303.39266	16839.575
1306.9116	17321.275
1310.42815	17648.275
1313.94233	17800.675
1317.45412	17791.275
1320.96354	17678.175
1324.47058	17631.575
1327.97525	17626.675
1331.47754	17648.775
1334.97747	17691.975
1338.47502	17727.775
1341.97022	17822.175
1345.46305	17948.775
1348.95352	17927.975
1352.44163	17830.775
1355.92738	17761.875
1359.41078	17844.575
1362.89183	17885.275
1366.37053	17617.275
1369.84688	16740.475
1373.32088	15651.375
1376.79254	14819.675
1380.26186	14428.675
1383.72883	14347.275
1387.19347	14376.675
1390.65578	14273.875
1394.11575	14181.475
1397.57339	14155.375
1401.0287	14191.375
1404.48168	14210.775
1407.93234	14132.475
1411.38068	13910.475
1414.82669	13568.275
1418.27039	13162.575
1421.71177	12798.575
1425.15083	12502.275
1428.58758	12346.775
1432.02203	12346.075
1435.45416	12470.675
1438.88399	12653.375
1442.31151	12840.675
1445.73673	12933.175
1449.15965	13069.175
1452.58027	13210.475
1455.9986	13284.975
1459.41463	13369.575
1462.82837	13498.075
1466.23982	13655.675
1469.64898	13835.475
1473.05586	13922.075
1476.46045	13964.275
1479.86276	13931.675
1483.26279	13880.775
1486.66054	13870.475
1490.05602	13932.475
1493.44922	14092.175
1496.84016	14349.475
1500.22882	14671.175
1503.61521	15088.775
1506.99934	15537.475
1510.38121	15917.475
1513.76081	15953.675
1517.13816	15800.075
1520.51324	15496.875
1523.88607	15267.175
1527.25665	15121.475
1530.62498	15035.175
1533.99105	14922.175
1537.35488	14717.175
1540.71647	14393.375
1544.07581	14111.975
1547.4329	13806.475
1550.78776	13540.975
1554.14038	13377.375
1557.49077	13313.175
1560.83892	13268.275
1564.18484	13272.175
1567.52853	13335.275
1570.86999	13433.375
1574.20922	13621.875
1577.54624	13767.675
1580.88103	13763.375
1584.2136	13750.375
1587.54395	13837.675
1590.87208	14074.975
1594.19801	14398.275
1597.52172	14785.975
1600.84321	14861.675
1604.16251	14463.575
1607.47959	13872.275
1610.79447	13251.475
1614.10715	12583.275
1617.41763	12029.075
1620.7259	11573.175
1624.03199	11309.575
1627.33587	11188.575
1630.63757	11297.275
1633.93707	11628.175
1637.23439	12247.375
1640.52951	13110.575
1643.82246	14291.175
1647.11321	15341.175
1650.40179	15801.375
1653.68819	15356.975
1656.97241	14193.975
1660.25446	12836.475
1663.53433	11703.575
1666.81203	10860.875
1670.08756	10342.775
1673.36092	9999.075
1676.63211	9789.475
1679.90115	9645.375
1683.16801	9512.775
1686.43272	9423.675
1689.69527	9359.575
1692.95567	9270.575
1696.2139	9220.175
1699.46999	9150.475
1702.72392	9116.375
1705.97571	9097.575
1709.22535	9114.175
1712.47284	9137.975
1715.71819	9133.175
1718.96139	9134.875
1722.20246	9106.575
1725.44139	9079.575
1728.67818	9071.375
1731.91284	8998.875
1735.14537	8960.075
1738.37576	8924.275
1741.60403	8883.175
1744.83017	8861.275
1748.05418	8825.775
1751.27607	8825.675
1754.49584	8780.475
1757.71349	8763.275
1760.92903	8747.575
1764.14244	8737.375
1767.35375	8739.175
1770.56294	8719.875
1773.77002	8704.175
1776.97499	8691.075
1780.17785	8715.675
1783.37861	8708.375
1786.57727	8698.275
1789.77382	8682.775
1792.96828	8690.075
1796.16064	8615.575
1799.3509	8624.575
1802.53907	8619.375
1805.72514	8594.375
1808.90913	8564.275
1812.09102	8559.975
1815.27083	8519.775
1818.44856	8526.375
1821.6242	8497.875
1824.79776	8482.575
1827.96924	8490.775
1831.13864	8471.975
1834.30597	8482.375
1837.47122	8458.375
1840.6344	8440.775
1843.7955	8439.875
1846.95454	8436.575
1850.11151	8418.475
1853.26642	8410.675
1856.41926	8398.175
1859.57004	8401.875
1862.71876	8378.275
1865.86542	8378.875
1869.01003	8367.075
1872.15258	8359.475
1875.29308	8333.975
1878.43152	8333.375
1881.56792	8313.575
1884.70227	8295.375
1887.83457	8283.775
1890.96482	8268.875
1894.09304	8239.175
1897.21921	8237.975
1900.34335	8221.675
1903.46544	8205.275
1906.58551	8206.375
1909.70353	8190.375
1912.81953	8189.775
1915.93349	8139.875
1919.04543	8150.475
1922.15534	8107.875
1925.26322	8119.075
1928.36908	8101.975
1931.47292	8081.575
1934.57473	8059.475
1937.67453	8047.475
1940.77232	8026.875
1943.86808	7973.075
1946.96184	7961.775
1950.05358	7953.975
1953.14331	7902.675
1956.23103	7906.475
1959.31675	7866.575
1962.40046	7854.175
1965.48217	7840.775
1968.56188	7805.775
1971.63959	7786.875
1974.7153	7753.375
1977.78901	7726.775
1980.86073	7710.075
1983.93046	7674.475
1986.99819	7670.275
1990.06394	7642.175
1993.1277	7636.275
1996.18947	7581.575
1999.24925	7546.475
2002.30706	7553.175
2005.36288	7504.275
2008.41672	7500.975
2011.46859	7469.175
2014.51848	7466.075
2017.56639	7419.375
2020.61233	7402.475
2023.6563	7401.175
2026.6983	7348.375
2029.73833	7352.875
2032.7764	7325.875
2035.8125	7303.075
2038.84664	7276.475
2041.87881	7269.475
2044.90903	7257.475
2047.93729	7249.775
2050.96359	7247.275
2053.98794	7228.975
2057.01034	7214.875
2060.03078	7204.675
2063.04927	7226.375
2066.06582	7194.875
2069.08042	7187.075
2072.09307	7169.875
2075.10378	7187.175
2078.11255	7171.475
2081.11938	7164.375
2084.12426	7162.375
2087.12722	7151.875
2090.12824	7159.675
2093.12732	7143.675
2096.12447	7133.675
2099.11969	7120.675
2102.11299	7135.475
2105.10435	7138.875
2108.09379	7131.075
2111.08131	7161.775
2114.0669	7142.075
2117.05057	7166.375
2120.03233	7147.075
2123.01216	7169.875
2125.99008	7150.975
2128.96609	7158.175
2131.94018	7169.675
2134.91236	7162.975
2137.88263	7182.475
2140.851	7151.475
2143.81746	7173.175
2146.78201	7176.675
2149.74466	7167.875
2152.7054	7177.175
2155.66425	7176.175
2158.6212	7155.775
2161.57625	7154.075
2164.52941	7129.975
2167.48067	7134.975
2170.43004	7152.075
2173.37752	7130.475
2176.32311	7138.075
2179.26681	7146.575
2182.20863	7135.275
2185.14856	7133.575
2188.08661	7118.975
2191.02278	7139.775
2193.95707	7108.975
2196.88948	7099.875
2199.82001	7107.875
2202.74867	7077.475
2205.67545	7076.975
2208.60037	7056.875
2211.52341	7040.775
2214.44458	7020.275
2217.36388	7011.375
2220.28132	7012.275
2223.1969	6998.975
2226.11061	6984.675
2229.02246	6961.975
2231.93245	6954.875
2234.84058	6937.875
2237.74686	6921.175
2240.65128	6918.475
2243.55385	6912.175
2246.45456	6902.275
2249.35343	6879.175
2252.25044	6865.175
2255.14561	6849.375
2258.03893	6837.075
2260.93041	6823.075
2263.82004	6817.675
2266.70783	6811.475
2269.59378	6763.975
2272.4779	6760.675
2275.36017	6745.175
2278.24061	6732.375
2281.11922	6716.775
2283.996	6698.675
2286.87094	6680.875
2289.74405	6651.575
2292.61534	6640.575
2295.4848	6643.675
2298.35243	6659.275
2301.21824	6634.975
2304.08223	6635.275
2306.94439	6640.575
2309.80474	6619.575
2312.66327	6613.475
2315.51999	6586.875
2318.37489	6583.675
2321.22797	6581.575
2324.07925	6551.775
2326.92871	6551.675
2329.77637	6559.075
2332.62222	6546.075
2335.46626	6511.675
2338.3085	6487.775
2341.14893	6502.775
2343.98756	6478.475
2346.8244	6469.875
2349.65943	6481.675
2352.49267	6473.875
2355.32411	6467.775
2358.15376	6455.475
2360.98161	6440.775
2363.80768	6460.775
2366.63195	6455.675
2369.45444	6441.975
2372.27514	6447.375
2375.09405	6429.575
2377.91118	6418.675
2380.72652	6416.675
2383.54009	6386.475
2386.35187	6362.075
2389.16188	6354.875
2391.97011	6337.975
2394.77657	6301.375
2397.58125	6315.675
2400.38416	6302.875
2403.18529	6288.675
2405.98466	6290.675
2408.78226	6272.775
2411.57809	6283.375
2414.37216	6241.975
2417.16446	6244.975
2419.955	6227.775
2422.74378	6229.675
2425.5308	6220.375
2428.31606	6211.775
2431.09956	6222.275
2433.88131	6196.775
2436.6613	6192.275
2439.43954	6191.375
2442.21603	6188.775
2444.99077	6167.975
2447.76377	6179.275
2450.53501	6169.475
2453.30451	6163.775
2456.07226	6149.875
2458.83827	6125.675
2461.60254	6137.975
2464.36507	6133.875
2467.12586	6126.375
2469.88492	6099.475
2472.64224	6096.475
2475.39782	6108.775
2478.15167	6073.275
2480.90379	6084.475
2483.65417	6084.475
2486.40283	6070.075
2489.14976	6080.975
2491.89497	6067.375
2494.63845	6057.975
2497.3802	6055.175
2500.12024	6035.975
2502.85855	6057.875
2505.59514	6043.575
2508.33002	6032.675
2511.06318	6027.775
2513.79462	6025.675
2516.52435	6015.475
2519.25237	6006.775
2521.97867	5997.575
2524.70327	6004.975
2527.42616	5981.975
2530.14734	5969.875
2532.86681	5974.075
2535.58458	5952.075
2538.30065	5941.575
2541.01501	5925.675
2543.72768	5929.075
2546.43864	5916.175
2549.14791	5889.875
2551.85548	5883.075
2554.56136	5882.575
2557.26554	5864.975
2559.96803	5860.875
2562.66883	5857.075
2565.36794	5854.075
2568.06536	5833.575
2570.7611	5835.675
2573.45514	5801.375
2576.14751	5790.975
2578.83819	5788.375
2581.52719	5797.475
2584.21451	5769.475
2586.90015	5761.275
2589.58411	5763.675
2592.2664	5750.075
2594.94701	5732.675
2597.62594	5708.575
2600.30321	5707.275
2602.9788	5706.475
2605.65273	5691.975
2608.32498	5695.875
2610.99557	5656.775
2613.66449	5668.575
2616.33175	5667.375
2618.99734	5657.675
2621.66128	5662.575
2624.32355	5643.975
2626.98416	5624.375
2629.64311	5629.275
2632.30041	5607.575
2634.95605	5615.775
2637.61004	5581.275
2640.26238	5592.575
2642.91306	5582.875
2645.56209	5589.075
2648.20948	5586.475
2650.85521	5588.175
2653.4993	5578.475
2656.14175	5573.775
2658.78255	5586.175
2661.42171	5569.875
2664.05923	5583.575
2666.6951	5580.275
2669.32934	5570.375
2671.96194	5563.875
2674.59291	5566.975
2677.22224	5569.475
2679.84993	5552.575
2682.476	5540.675
2685.10043	5538.375
2687.72324	5535.175
2690.34441	5549.275
2692.96396	5553.475
2695.58188	5543.175
2698.19818	5544.775
2700.81285	5531.975
2703.4259	5532.975
2706.03733	5528.175
2708.64714	5519.475
2711.25533	5523.875
2713.86191	5522.075
2716.46687	5525.475
2719.07021	5531.275
2721.67194	5543.575
2724.27206	5530.975
2726.87057	5544.775
2729.46747	5530.975
2732.06276	5535.375
2734.65644	5512.875
2737.24852	5519.175
2739.83899	5513.175
2742.42786	5511.875
2745.01513	5481.075
2747.60079	5492.575
2750.18486	5486.475
2752.76733	5480.375
2755.3482	5475.175
2757.92747	5472.475
2760.50515	5450.375
2763.08123	5458.175
2765.65573	5448.975
2768.22863	5445.975
2770.79994	5446.375
2773.36967	5435.575
2775.9378	5410.475
2778.50435	5429.675
2781.06932	5411.375
2783.6327	5398.575
2786.1945	5405.375
2788.75471	5384.575
2791.31335	5372.275
2793.87041	5368.875
2796.42589	5350.475
2798.97979	5345.875
2801.53212	5337.075
2804.08288	5325.375
2806.63206	5303.475
2809.17967	5299.675
2811.72571	5275.375
2814.27018	5251.875
2816.81308	5256.375
2819.35442	5244.775
2821.89419	5256.475
2824.43239	5241.975
2826.96904	5233.475
2829.50412	5235.575
2832.03763	5227.075
2834.56959	5212.075
2837.1	5227.175
2839.62884	5200.675
2842.15613	5226.075
2844.68186	5237.275
2847.20604	5226.775
2849.72867	5237.075
2852.24974	5236.075
2854.76927	5229.275
2857.28724	5192.675
2859.80367	5194.475
2862.31855	5189.875
2864.83189	5196.875
2867.34368	5176.775
2869.85393	5170.675
2872.36264	5166.675
2874.8698	5162.475
2877.37543	5146.575
2879.87952	5148.975
2882.38207	5138.975
2884.88308	5141.075
2887.38256	5131.275
2889.88051	5131.475
2892.37692	5121.275
2894.8718	5121.775
2897.36515	5138.275
2899.85698	5136.275
2902.34727	5139.175
2904.83604	5147.375
2907.32328	5135.475
2909.809	5129.075
2912.29319	5134.375
2914.77587	5149.375
2917.25702	5124.475
2919.73665	5129.575
2922.21476	5121.775
2924.69136	5131.075
2927.16644	5131.375
2929.64	5116.975
2932.11205	5117.075
2934.58258	5107.675
2937.05161	5112.975
2939.51912	5097.675
2941.98513	5087.075
2944.44962	5077.875
2946.91261	5053.675
2949.37409	5069.975
2951.83407	5060.675
2954.29254	5036.975
2956.74951	5059.175
2959.20498	5048.375
2961.65895	5045.975
2964.11142	5051.475
2966.56239	5027.575
2969.01186	5004.975
2971.45984	5007.975
2973.90632	5012.275
2976.35131	4974.075
2978.7948	4989.375
2981.23681	4993.575
2983.67732	4993.275
2986.11635	4952.675
2988.55388	4963.375
2990.98993	4950.475
2993.4245	4935.475
2995.85758	4947.175
2998.28917	4920.575
3000.71928	4904.075
3003.14791	4902.875
3005.57506	4888.675
3008.00073	4875.175
3010.42493	4875.075
3012.84764	4878.675
3015.26888	4865.675
3017.68865	4862.475
3020.10694	4843.575
3022.52376	4834.675
3024.9391	4801.375
3027.35298	4806.575
3029.76539	4811.575
3032.17632	4797.775
3034.5858	4811.975
3036.9938	4792.475
3039.40034	4805.575
3041.80542	4788.975
3044.20903	4777.475
3046.61118	4773.875
3049.01187	4763.375
3051.4111	4767.875
3053.80888	4759.475
3056.20519	4747.375
3058.60005	4736.775
3060.99345	4731.675
3063.3854	4716.275
3065.7759	4717.775
3068.16494	4700.575
3070.55254	4694.975
3072.93868	4690.775
3075.32338	4677.575
3077.70662	4673.775
3080.08842	4643.375
3082.46878	4667.575
3084.84769	4664.875
3087.22515	4654.875
3089.60118	4650.275
3091.97576	4637.375
3094.3489	4647.775
3096.72061	4645.875
3099.09087	4646.475
3101.4597	4638.575
3103.82709	4648.075
3106.19305	4641.975
3108.55757	4638.075
3110.92066	4622.775
3113.28232	4617.575
3115.64255	4611.875
3118.00134	4619.875
3120.35871	4597.675
3122.71466	4597.675
3125.06917	4593.375
3127.42226	4569.675
3129.77393	4575.675
3132.12417	4569.275
3134.47299	4572.275
3136.82039	4571.275
3139.16636	4580.275
3141.51092	4587.575
3143.85406	4593.575
3146.19579	4579.575
3148.53609	4601.575
3150.87499	4597.275
3153.21246	4610.175
3155.54853	4601.475
3157.88318	4623.875
3160.21642	4616.675
3162.54826	4632.075
3164.87868	4622.975
3167.2077	4617.875
3169.5353	4632.875
3171.86151	4623.275
3174.18631	4615.775
3176.5097	4614.475
3178.83169	4617.475
3181.15228	4610.475
3183.47147	4606.875
3185.78926	4595.675
3188.10565	4600.075
3190.42065	4599.275
3192.73424	4599.775
