Data from AgNPs_FTO_APTES_UA_1uM_CRN_2uM_R6G_10uM_NaF_0.1M_Addition_RamanShift__22__13-20-59-557.txt Node

Date: Thu Jan 27 13:20:59 GMT 2022
User: TCL
Spectrometer: QEP01345
Trigger mode: 4
Integration Time (sec): 7.000000E0
Scans to average: 10
Electric dark correction enabled: true
Nonlinearity correction enabled: false
Boxcar width: 0
XAxis mode: Raman Shifts
Number of Pixels in Spectrum: 1044
>>>>>Begin Spectral Data<<<<<
46.04893	-0.2875
50.45542	-0.7875
54.85868	-0.8875
59.25871	-0.9875
63.6555	58.1125
68.04907	62.9125
72.43941	62.4125
76.82654	68.1125
81.21044	74.0125
85.59113	71.6125
89.96862	77.6125
94.34289	78.4125
98.71396	81.3125
103.08183	81.7125
107.4465	87.1125
111.80798	87.7125
116.16626	88.8125
120.52136	93.7125
124.87327	97.4125
129.222	94.9125
133.56755	106.4125
137.90993	112.6125
142.24913	119.3125
146.58517	135.7125
150.91804	155.9125
155.24774	178.6125
159.57429	221.3125
163.89768	282.0125
168.21792	374.8125
172.53501	495.5125
176.84895	697.3125
181.15975	970.5125
185.46741	1347.7125
189.77193	1865.8125
194.07331	2518.4125
198.37157	3242.3125
202.6667	4005.5125
206.9587	4752.6125
211.24758	5508.6125
215.53334	6261.6125
219.81599	7068.2125
224.09553	7968.7125
228.37195	9000.9125
232.64527	10069.3125
236.91549	11271.7125
241.18261	12410.3125
245.44663	13437.2125
249.70755	14349.8125
253.96539	15153.4125
258.22014	15861.0125
262.4718	16425.1125
266.72039	16890.4125
270.96589	17129.7125
275.20832	17192.2125
279.44768	17124.6125
283.68397	16945.4125
287.91719	16829.5125
292.14735	16775.4125
296.37445	16821.7125
300.59849	16975.9125
304.81948	17189.6125
309.03742	17303.3125
313.25231	17135.2125
317.46415	16629.3125
321.67296	15952.4125
325.87872	15409.6125
330.08145	15106.1125
334.28114	15109.2125
338.47781	15255.1125
342.67145	15552.2125
346.86207	15911.2125
351.04966	16429.7125
355.23424	16985.7125
359.4158	17455.4125
363.59435	17774.7125
367.76989	17963.2125
371.94243	18048.1125
376.11196	18125.5125
380.27849	18194.1125
384.44203	18202.3125
388.60257	18245.9125
392.76012	18330.8125
396.91468	18542.4125
401.06626	18915.8125
405.21485	19183.9125
409.36047	19111.9125
413.50311	18712.9125
417.64277	18331.1125
421.77947	18208.3125
425.9132	18224.0125
430.04396	18273.7125
434.17176	18389.2125
438.2966	18583.5125
442.41849	18872.6125
446.53742	19360.8125
450.6534	19957.9125
454.76644	20412.0125
458.87653	20632.0125
462.98368	20522.6125
467.08789	20266.5125
471.18916	19844.3125
475.2875	19452.5125
479.38291	19201.2125
483.4754	19008.9125
487.56496	18777.9125
491.6516	18536.8125
495.73531	18338.7125
499.81612	18265.9125
503.89401	18349.0125
507.96899	18437.3125
512.04106	18440.8125
516.11023	18495.7125
520.1765	18494.0125
524.23987	18398.4125
528.30034	18190.8125
532.35792	17945.3125
536.41261	17709.5125
540.46441	17481.1125
544.51333	17422.4125
548.55936	17585.8125
552.60252	17922.6125
556.64279	18271.9125
560.6802	18444.7125
564.71473	18563.7125
568.7464	18844.6125
572.7752	19224.1125
576.80114	19346.0125
580.82422	19442.9125
584.84444	19595.3125
588.86181	19793.7125
592.87633	20064.0125
596.888	20303.6125
600.89682	20625.2125
604.9028	21627.2125
608.90594	24373.9125
612.90624	27671.3125
616.90371	26619.3125
620.89834	21597.2125
624.89015	19273.7125
628.87913	18946.4125
632.86528	18875.7125
636.84862	18678.5125
640.82913	18305.8125
644.80683	17773.1125
648.78172	17343.3125
652.75379	17292.8125
656.72306	17592.1125
660.68952	18045.9125
664.65319	18051.8125
668.61405	17651.4125
672.57211	17416.4125
676.52738	17390.5125
680.47986	17397.5125
684.42955	17351.0125
688.37646	17340.3125
692.32058	17391.2125
696.26192	17525.5125
700.20048	17734.4125
704.13626	17813.4125
708.06928	17727.3125
711.99952	17540.8125
715.927	17487.9125
719.85171	17528.9125
723.77365	17453.8125
727.69284	17328.3125
731.60928	17152.9125
735.52295	17141.4125
739.43388	17202.0125
743.34206	17311.6125
747.24749	17394.0125
751.15017	17561.9125
755.05012	17871.1125
758.94733	18395.8125
762.8418	19420.3125
766.73354	21102.7125
770.62254	22870.7125
774.50882	23586.8125
778.39237	22593.8125
782.27321	20673.4125
786.15132	19002.6125
790.02671	18016.1125
793.89938	17624.8125
797.76935	17456.1125
801.6366	17428.1125
805.50115	17327.3125
809.36299	17226.3125
813.22213	17133.4125
817.07857	17115.6125
820.93231	17061.8125
824.78336	17094.8125
828.63172	17139.8125
832.47738	17196.3125
836.32036	17254.0125
840.16066	17333.4125
843.99827	17403.9125
847.8332	17372.7125
851.66546	17236.5125
855.49504	17137.9125
859.32195	17125.7125
863.1462	17042.7125
866.96777	16945.4125
870.78668	16876.8125
874.60293	16849.1125
878.41652	16913.3125
882.22745	16942.0125
886.03573	17012.4125
889.84136	16994.7125
893.64433	16892.0125
897.44466	16855.4125
901.24235	16785.7125
905.0374	16729.8125
908.8298	16711.0125
912.61957	16768.6125
916.40671	16935.9125
920.19121	17144.0125
923.97308	17383.7125
927.75233	17561.0125
931.52895	17622.7125
935.30295	17470.1125
939.07433	17149.2125
942.84309	16830.5125
946.60924	16711.4125
950.37278	16623.6125
954.13371	16510.4125
957.89203	16353.8125
961.64774	16268.0125
965.40086	16189.9125
969.15137	16124.0125
972.89929	16058.1125
976.64461	16014.1125
980.38733	16078.1125
984.12747	16146.9125
987.86502	16344.7125
991.59999	16684.9125
995.33237	17124.8125
999.06217	17860.3125
1002.78939	18675.9125
1006.51404	19146.8125
1010.23611	19381.8125
1013.95561	19506.7125
1017.67255	19498.1125
1021.38692	19271.7125
1025.09872	19176.8125
1028.80796	19517.0125
1032.51465	20497.4125
1036.21877	21385.3125
1039.92035	21434.7125
1043.61937	20911.3125
1047.31584	20015.5125
1051.00976	19048.1125
1054.70114	18496.4125
1058.38998	18310.3125
1062.07627	18293.0125
1065.76003	18272.0125
1069.44126	18304.5125
1073.11995	18460.8125
1076.79611	18653.6125
1080.46974	18748.0125
1084.14085	18951.1125
1087.80943	19155.5125
1091.47549	19285.6125
1095.13903	19102.8125
1098.80005	18767.5125
1102.45857	18405.2125
1106.11456	18156.5125
1109.76805	18183.4125
1113.41903	18337.5125
1117.06751	18569.4125
1120.71348	18838.7125
1124.35696	19080.3125
1127.99793	19382.6125
1131.63641	19495.9125
1135.2724	19223.0125
1138.90589	18878.7125
1142.5369	18646.0125
1146.16542	18467.9125
1149.79145	18406.6125
1153.415	18504.5125
1157.03607	18645.2125
1160.65467	18949.4125
1164.27079	19535.7125
1167.88443	20435.6125
1171.49561	21774.6125
1175.10432	23634.6125
1178.71056	26068.3125
1182.31434	28276.6125
1185.91565	29514.0125
1189.51451	29564.2125
1193.11091	28434.6125
1196.70485	26804.1125
1200.29634	25330.7125
1203.88538	24191.2125
1207.47197	23290.4125
1211.05612	22622.3125
1214.63782	22225.8125
1218.21708	22140.8125
1221.79391	22283.5125
1225.36829	22413.6125
1228.94024	22340.0125
1232.50976	22062.0125
1236.07685	21826.2125
1239.6415	21631.2125
1243.20374	21563.2125
1246.76355	21612.1125
1250.32093	21919.6125
1253.8759	22432.3125
1257.42845	23207.0125
1260.97859	23819.2125
1264.52631	24390.8125
1268.07163	24990.8125
1271.61453	25663.4125
1275.15503	26536.6125
1278.69312	27413.9125
1282.22882	28151.1125
1285.76211	28714.8125
1289.29301	29215.7125
1292.82151	29883.9125
1296.34761	30816.7125
1299.87133	32226.9125
1303.39266	34228.2125
1306.9116	36860.4125
1310.42815	39652.7125
1313.94233	41488.0125
1317.45412	41310.6125
1320.96354	39967.6125
1324.47058	38246.0125
1327.97525	36698.4125
1331.47754	35732.0125
1334.97747	35301.7125
1338.47502	35362.0125
1341.97022	35574.3125
1345.46305	35555.7125
1348.95352	35299.1125
1352.44163	35245.7125
1355.92738	36143.6125
1359.41078	38449.9125
1362.89183	41028.9125
1366.37053	40581.8125
1369.84688	36707.0125
1373.32088	32251.8125
1376.79254	29167.4125
1380.26186	27739.3125
1383.72883	27240.7125
1387.19347	26957.0125
1390.65578	26621.6125
1394.11575	26445.1125
1397.57339	26671.5125
1401.0287	27209.2125
1404.48168	27778.8125
1407.93234	28239.9125
1411.38068	28450.6125
1414.82669	28263.9125
1418.27039	27523.4125
1421.71177	26629.5125
1425.15083	25778.0125
1428.58758	25244.5125
1432.02203	25111.7125
1435.45416	25333.0125
1438.88399	25677.0125
1442.31151	25998.5125
1445.73673	26275.2125
1449.15965	26470.7125
1452.58027	26598.2125
1455.9986	26522.2125
1459.41463	26519.1125
1462.82837	26735.8125
1466.23982	27176.6125
1469.64898	27736.9125
1473.05586	28103.3125
1476.46045	28236.1125
1479.86276	28331.8125
1483.26279	28393.1125
1486.66054	28479.3125
1490.05602	28806.1125
1493.44922	29215.0125
1496.84016	29738.5125
1500.22882	30355.7125
1503.61521	31372.6125
1506.99934	32729.8125
1510.38121	34221.5125
1513.76081	35024.3125
1517.13816	34415.2125
1520.51324	32581.9125
1523.88607	30597.5125
1527.25665	29074.5125
1530.62498	28125.7125
1533.99105	27580.9125
1537.35488	27197.3125
1540.71647	26961.9125
1544.07581	26752.1125
1547.4329	26475.0125
1550.78776	26228.0125
1554.14038	26129.9125
1557.49077	26131.8125
1560.83892	26125.3125
1564.18484	26173.5125
1567.52853	26170.0125
1570.86999	26184.7125
1574.20922	26304.7125
1577.54624	26441.1125
1580.88103	26287.2125
1584.2136	26229.5125
1587.54395	26712.9125
1590.87208	27999.3125
1594.19801	29897.6125
1597.52172	31925.4125
1600.84321	32843.5125
1604.16251	31699.2125
1607.47959	29276.5125
1610.79447	26653.7125
1614.10715	24293.8125
1617.41763	22489.3125
1620.7259	21319.4125
1624.03199	20807.8125
1627.33587	20879.2125
1630.63757	21552.5125
1633.93707	22769.5125
1637.23439	24500.4125
1640.52951	26566.9125
1643.82246	28686.4125
1647.11321	30291.5125
1650.40179	30744.6125
1653.68819	29223.6125
1656.97241	26012.2125
1660.25446	22582.5125
1663.53433	20099.7125
1666.81203	18527.1125
1670.08756	17544.8125
1673.36092	16974.7125
1676.63211	16613.0125
1679.90115	16304.6125
1683.16801	16084.4125
1686.43272	15952.4125
1689.69527	15819.1125
1692.95567	15742.6125
1696.2139	15639.2125
1699.46999	15590.5125
1702.72392	15527.7125
1705.97571	15558.5125
1709.22535	15566.6125
1712.47284	15570.8125
1715.71819	15570.6125
1718.96139	15561.6125
1722.20246	15528.6125
1725.44139	15448.1125
1728.67818	15410.0125
1731.91284	15303.6125
1735.14537	15239.4125
1738.37576	15153.8125
1741.60403	15144.4125
1744.83017	15062.0125
1748.05418	15032.5125
1751.27607	14996.0125
1754.49584	14955.2125
1757.71349	14944.1125
1760.92903	14923.7125
1764.14244	14901.3125
1767.35375	14897.0125
1770.56294	14871.9125
1773.77002	14904.1125
1776.97499	14876.5125
1780.17785	14884.1125
1783.37861	14890.7125
1786.57727	14881.7125
1789.77382	14887.0125
1792.96828	14876.0125
1796.16064	14838.0125
1799.3509	14817.7125
1802.53907	14820.8125
1805.72514	14796.1125
1808.90913	14725.5125
1812.09102	14720.9125
1815.27083	14686.7125
1818.44856	14685.7125
1821.6242	14661.0125
1824.79776	14637.4125
1827.96924	14643.3125
1831.13864	14642.4125
1834.30597	14651.4125
1837.47122	14642.8125
1840.6344	14617.5125
1843.7955	14636.8125
1846.95454	14683.7125
1850.11151	14657.2125
1853.26642	14675.4125
1856.41926	14699.5125
1859.57004	14702.1125
1862.71876	14713.0125
1865.86542	14711.4125
1869.01003	14692.6125
1872.15258	14715.1125
1875.29308	14715.3125
1878.43152	14722.9125
1881.56792	14735.5125
1884.70227	14742.1125
1887.83457	14743.1125
1890.96482	14727.3125
1894.09304	14732.8125
1897.21921	14770.9125
1900.34335	14733.6125
1903.46544	14741.6125
1906.58551	14737.3125
1909.70353	14730.4125
1912.81953	14727.3125
1915.93349	14753.6125
1919.04543	14707.1125
1922.15534	14647.5125
1925.26322	14641.6125
1928.36908	14581.6125
1931.47292	14559.0125
1934.57473	14480.8125
1937.67453	14429.6125
1940.77232	14404.2125
1943.86808	14355.5125
1946.96184	14285.4125
1950.05358	14194.7125
1953.14331	14160.5125
1956.23103	14105.7125
1959.31675	14054.2125
1962.40046	14059.0125
1965.48217	14009.2125
1968.56188	13956.1125
1971.63959	13910.0125
1974.7153	13878.7125
1977.78901	13837.6125
1980.86073	13801.9125
1983.93046	13779.4125
1986.99819	13722.9125
1990.06394	13661.0125
1993.1277	13613.5125
1996.18947	13545.7125
1999.24925	13534.3125
2002.30706	13456.2125
2005.36288	13444.1125
2008.41672	13436.0125
2011.46859	13400.5125
2014.51848	13350.6125
2017.56639	13325.3125
2020.61233	13311.0125
2023.6563	13299.0125
2026.6983	13294.2125
2029.73833	13220.9125
2032.7764	13212.3125
2035.8125	13197.5125
2038.84664	13186.4125
2041.87881	13177.2125
2044.90903	13142.4125
2047.93729	13145.7125
2050.96359	13138.1125
2053.98794	13082.9125
2057.01034	13081.7125
2060.03078	13081.5125
2063.04927	13078.0125
2066.06582	13085.4125
2069.08042	13043.0125
2072.09307	13028.7125
2075.10378	13010.3125
2078.11255	13008.2125
2081.11938	12998.7125
2084.12426	12968.1125
2087.12722	12977.6125
2090.12824	12979.0125
2093.12732	12981.5125
2096.12447	12962.7125
2099.11969	12963.4125
2102.11299	13002.3125
2105.10435	12993.6125
2108.09379	12986.5125
2111.08131	12996.3125
2114.0669	12995.0125
2117.05057	13023.6125
2120.03233	13010.2125
2123.01216	13022.9125
2125.99008	13023.2125
2128.96609	13048.7125
2131.94018	13024.7125
2134.91236	13022.3125
2137.88263	13072.3125
2140.851	13076.8125
2143.81746	13079.0125
2146.78201	13071.3125
2149.74466	13092.0125
2152.7054	13082.3125
2155.66425	13103.4125
2158.6212	13098.8125
2161.57625	13067.7125
2164.52941	13105.7125
2167.48067	13083.9125
2170.43004	13063.3125
2173.37752	13066.8125
2176.32311	13054.3125
2179.26681	13110.2125
2182.20863	13036.2125
2185.14856	13058.5125
2188.08661	13096.2125
2191.02278	13105.0125
2193.95707	13068.9125
2196.88948	13088.8125
2199.82001	13103.7125
2202.74867	13095.8125
2205.67545	13116.7125
2208.60037	13087.9125
2211.52341	13077.5125
2214.44458	13069.6125
2217.36388	13061.2125
2220.28132	13048.8125
2223.1969	13040.0125
2226.11061	13026.8125
2229.02246	13005.7125
2231.93245	12961.9125
2234.84058	12964.1125
2237.74686	12936.9125
2240.65128	12909.8125
2243.55385	12880.8125
2246.45456	12849.7125
2249.35343	12860.6125
2252.25044	12816.1125
2255.14561	12819.7125
2258.03893	12767.4125
2260.93041	12779.8125
2263.82004	12741.4125
2266.70783	12747.7125
2269.59378	12699.6125
2272.4779	12684.7125
2275.36017	12640.0125
2278.24061	12638.6125
2281.11922	12601.5125
2283.996	12591.9125
2286.87094	12600.5125
2289.74405	12569.8125
2292.61534	12540.2125
2295.4848	12528.9125
2298.35243	12560.0125
2301.21824	12559.8125
2304.08223	12594.1125
2306.94439	12599.6125
2309.80474	12601.8125
2312.66327	12635.8125
2315.51999	12642.4125
2318.37489	12642.2125
2321.22797	12627.5125
2324.07925	12608.8125
2326.92871	12591.0125
2329.77637	12603.5125
2332.62222	12582.4125
2335.46626	12566.1125
2338.3085	12586.5125
2341.14893	12595.5125
2343.98756	12643.5125
2346.8244	12619.9125
2349.65943	12605.6125
2352.49267	12624.0125
2355.32411	12619.4125
2358.15376	12611.0125
2360.98161	12594.2125
2363.80768	12569.5125
2366.63195	12565.7125
2369.45444	12537.1125
2372.27514	12484.9125
2375.09405	12478.5125
2377.91118	12429.2125
2380.72652	12426.5125
2383.54009	12383.3125
2386.35187	12343.5125
2389.16188	12324.1125
2391.97011	12297.9125
2394.77657	12317.1125
2397.58125	12285.5125
2400.38416	12276.1125
2403.18529	12262.8125
2405.98466	12242.7125
2408.78226	12204.3125
2411.57809	12175.4125
2414.37216	12126.1125
2417.16446	12118.8125
2419.955	12111.2125
2422.74378	12103.0125
2425.5308	12110.3125
2428.31606	12083.5125
2431.09956	12076.3125
2433.88131	12063.5125
2436.6613	12066.6125
2439.43954	12073.8125
2442.21603	12068.1125
2444.99077	12051.9125
2447.76377	12077.4125
2450.53501	12022.7125
2453.30451	12045.9125
2456.07226	12044.6125
2458.83827	12031.3125
2461.60254	12013.8125
2464.36507	12027.7125
2467.12586	12026.9125
2469.88492	12027.4125
2472.64224	12033.6125
2475.39782	12060.3125
2478.15167	12050.9125
2480.90379	12058.2125
2483.65417	12088.9125
2486.40283	12073.2125
2489.14976	12105.1125
2491.89497	12111.1125
2494.63845	12098.5125
2497.3802	12108.2125
2500.12024	12133.1125
2502.85855	12110.3125
2505.59514	12111.7125
2508.33002	12071.0125
2511.06318	12077.5125
2513.79462	12046.7125
2516.52435	12008.0125
2519.25237	12008.8125
2521.97867	12007.3125
2524.70327	12016.7125
2527.42616	11977.8125
2530.14734	11988.0125
2532.86681	12000.4125
2535.58458	11969.6125
2538.30065	11937.9125
2541.01501	11983.4125
2543.72768	11961.7125
2546.43864	11956.3125
2549.14791	11958.8125
2551.85548	11939.2125
2554.56136	11916.2125
2557.26554	11921.1125
2559.96803	11898.9125
2562.66883	11912.7125
2565.36794	11926.9125
2568.06536	11910.3125
2570.7611	11854.4125
2573.45514	11858.9125
2576.14751	11849.3125
2578.83819	11865.6125
2581.52719	11879.4125
2584.21451	11871.4125
2586.90015	11881.0125
2589.58411	11858.7125
2592.2664	11873.8125
2594.94701	11850.4125
2597.62594	11872.4125
2600.30321	11855.4125
2602.9788	11869.4125
2605.65273	11848.4125
2608.32498	11827.2125
2610.99557	11829.0125
2613.66449	11858.0125
2616.33175	11838.6125
2618.99734	11859.5125
2621.66128	11839.8125
2624.32355	11862.7125
2626.98416	11862.2125
2629.64311	11878.1125
2632.30041	11869.0125
2634.95605	11846.5125
2637.61004	11827.0125
2640.26238	11818.8125
2642.91306	11825.1125
2645.56209	11784.8125
2648.20948	11780.7125
2650.85521	11757.8125
2653.4993	11754.0125
2656.14175	11757.0125
2658.78255	11755.0125
2661.42171	11760.4125
2664.05923	11776.2125
2666.6951	11805.7125
2669.32934	11803.7125
2671.96194	11814.2125
2674.59291	11829.5125
2677.22224	11821.2125
2679.84993	11812.6125
2682.476	11779.4125
2685.10043	11803.3125
2687.72324	11750.6125
2690.34441	11773.3125
2692.96396	11758.5125
2695.58188	11731.2125
2698.19818	11709.7125
2700.81285	11756.6125
2703.4259	11740.9125
2706.03733	11740.9125
2708.64714	11718.3125
2711.25533	11720.2125
2713.86191	11750.1125
2716.46687	11743.9125
2719.07021	11752.1125
2721.67194	11757.8125
2724.27206	11756.5125
2726.87057	11771.5125
2729.46747	11788.6125
2732.06276	11763.0125
2734.65644	11774.5125
2737.24852	11751.8125
2739.83899	11747.3125
2742.42786	11766.6125
2745.01513	11716.5125
2747.60079	11749.4125
2750.18486	11732.4125
2752.76733	11743.7125
2755.3482	11726.5125
2757.92747	11718.5125
2760.50515	11715.2125
2763.08123	11717.2125
2765.65573	11694.7125
2768.22863	11709.8125
2770.79994	11708.5125
2773.36967	11688.0125
2775.9378	11701.9125
2778.50435	11711.5125
2781.06932	11689.8125
2783.6327	11680.2125
2786.1945	11684.9125
2788.75471	11662.9125
2791.31335	11657.9125
2793.87041	11631.3125
2796.42589	11597.9125
2798.97979	11609.0125
2801.53212	11580.3125
2804.08288	11572.2125
2806.63206	11534.2125
2809.17967	11560.3125
2811.72571	11471.6125
2814.27018	11519.2125
2816.81308	11504.1125
2819.35442	11493.1125
2821.89419	11481.0125
2824.43239	11497.8125
2826.96904	11483.8125
2829.50412	11475.3125
2832.03763	11474.0125
2834.56959	11493.9125
2837.1	11455.8125
2839.62884	11455.6125
2842.15613	11466.1125
2844.68186	11499.5125
2847.20604	11474.3125
2849.72867	11520.5125
2852.24974	11483.9125
2854.76927	11484.3125
2857.28724	11451.7125
2859.80367	11452.2125
2862.31855	11434.1125
2864.83189	11402.2125
2867.34368	11404.7125
2869.85393	11409.7125
2872.36264	11374.2125
2874.8698	11392.1125
2877.37543	11418.7125
2879.87952	11379.9125
2882.38207	11397.1125
2884.88308	11396.8125
2887.38256	11398.0125
2889.88051	11374.6125
2892.37692	11388.5125
2894.8718	11401.6125
2897.36515	11426.8125
2899.85698	11415.7125
2902.34727	11447.7125
2904.83604	11475.2125
2907.32328	11466.7125
2909.809	11493.3125
2912.29319	11503.7125
2914.77587	11483.5125
2917.25702	11481.1125
2919.73665	11447.1125
2922.21476	11457.8125
2924.69136	11431.8125
2927.16644	11460.6125
2929.64	11415.6125
2932.11205	11408.2125
2934.58258	11351.1125
2937.05161	11385.6125
2939.51912	11399.6125
2941.98513	11367.3125
2944.44962	11309.9125
2946.91261	11279.3125
2949.37409	11296.9125
2951.83407	11294.6125
2954.29254	11309.3125
2956.74951	11275.2125
2959.20498	11274.2125
2961.65895	11270.6125
2964.11142	11231.8125
2966.56239	11237.1125
2969.01186	11241.9125
2971.45984	11173.8125
2973.90632	11192.2125
2976.35131	11131.6125
2978.7948	11101.3125
2981.23681	11081.3125
2983.67732	11089.1125
2986.11635	11035.6125
2988.55388	11009.1125
2990.98993	11001.7125
2993.4245	10985.3125
2995.85758	10985.8125
2998.28917	10938.4125
3000.71928	10924.5125
3003.14791	10902.1125
3005.57506	10868.0125
3008.00073	10849.6125
3010.42493	10872.8125
3012.84764	10849.8125
3015.26888	10841.8125
3017.68865	10821.1125
3020.10694	10799.8125
3022.52376	10775.1125
3024.9391	10774.4125
