Data from AgNPs_FTO_APTES_UA_1uM_CRN_10uM_R6G_10uM_NaF_0.1M_Addition_RamanShift__27__14-47-19-656.txt Node

Date: Thu Jan 27 14:47:19 GMT 2022
User: TCL
Spectrometer: QEP01345
Trigger mode: 4
Integration Time (sec): 7.000000E0
Scans to average: 10
Electric dark correction enabled: true
Nonlinearity correction enabled: false
Boxcar width: 0
XAxis mode: Raman Shifts
Number of Pixels in Spectrum: 1044
>>>>>Begin Spectral Data<<<<<
46.04893	1.4375
50.45542	0.9375
54.85868	-1.5625
59.25871	-2.4625
63.6555	40.2375
68.04907	43.3375
72.43941	46.3375
76.82654	49.7375
81.21044	51.8375
85.59113	52.3375
89.96862	54.6375
94.34289	52.6375
98.71396	62.8375
103.08183	58.3375
107.4465	65.2375
111.80798	64.9375
116.16626	63.4375
120.52136	71.7375
124.87327	69.4375
129.222	69.7375
133.56755	70.9375
137.90993	71.6375
142.24913	78.7375
146.58517	89.3375
150.91804	98.5375
155.24774	117.5375
159.57429	136.7375
163.89768	168.5375
168.21792	222.7375
172.53501	301.6375
176.84895	402.9375
181.15975	561.7375
185.46741	779.5375
189.77193	1077.1375
194.07331	1423.3375
198.37157	1849.4375
202.6667	2284.1375
206.9587	2716.8375
211.24758	3135.3375
215.53334	3586.6375
219.81599	4052.3375
224.09553	4609.1375
228.37195	5208.3375
232.64527	5851.8375
236.91549	6527.2375
241.18261	7179.9375
245.44663	7712.7375
249.70755	8183.9375
253.96539	8593.8375
258.22014	8949.6375
262.4718	9284.5375
266.72039	9546.8375
270.96589	9670.0375
275.20832	9729.1375
279.44768	9710.9375
283.68397	9631.9375
287.91719	9583.0375
292.14735	9584.2375
296.37445	9712.6375
300.59849	9930.0375
304.81948	10189.1375
309.03742	10328.9375
313.25231	10240.3375
317.46415	9827.2375
321.67296	9216.9375
325.87872	8731.6375
330.08145	8490.1375
334.28114	8464.1375
338.47781	8580.9375
342.67145	8784.7375
346.86207	9061.7375
351.04966	9464.3375
355.23424	9945.5375
359.4158	10332.1375
363.59435	10529.2375
367.76989	10584.9375
371.94243	10576.4375
376.11196	10580.4375
380.27849	10557.1375
384.44203	10497.4375
388.60257	10433.2375
392.76012	10399.3375
396.91468	10539.0375
401.06626	10759.9375
405.21485	10955.3375
409.36047	10837.8375
413.50311	10447.2375
417.64277	10072.7375
421.77947	9873.5375
425.9132	9831.5375
430.04396	9821.3375
434.17176	9883.6375
438.2966	9982.8375
442.41849	10196.3375
446.53742	10472.8375
450.6534	10728.2375
454.76644	10966.7375
458.87653	11056.0375
462.98368	11002.6375
467.08789	10877.4375
471.18916	10697.4375
475.2875	10469.3375
479.38291	10313.0375
483.4754	10153.5375
487.56496	10045.2375
491.6516	9926.5375
495.73531	9856.9375
499.81612	9847.6375
503.89401	9923.4375
507.96899	9981.7375
512.04106	10055.8375
516.11023	10149.3375
520.1765	10217.2375
524.23987	10137.1375
528.30034	9982.0375
532.35792	9825.1375
536.41261	9647.1375
540.46441	9521.2375
544.51333	9443.6375
548.55936	9557.6375
552.60252	9774.1375
556.64279	10016.1375
560.6802	10145.6375
564.71473	10261.8375
568.7464	10495.6375
572.7752	10790.0375
576.80114	10649.9375
580.82422	10524.0375
584.84444	10462.9375
588.86181	10437.0375
592.87633	10464.9375
596.888	10540.4375
600.89682	10838.7375
604.9028	11729.0375
608.90594	13978.5375
612.90624	16942.0375
616.90371	16388.2375
620.89834	12321.7375
624.89015	10393.2375
628.87913	10065.0375
632.86528	10073.1375
636.84862	10114.6375
640.82913	9968.3375
644.80683	9636.8375
648.78172	9385.4375
652.75379	9404.6375
656.72306	9674.3375
660.68952	10033.6375
664.65319	10010.3375
668.61405	9680.6375
672.57211	9508.9375
676.52738	9467.5375
680.47986	9476.5375
684.42955	9445.8375
688.37646	9417.2375
692.32058	9460.9375
696.26192	9530.8375
700.20048	9633.3375
704.13626	9726.6375
708.06928	9683.0375
711.99952	9604.1375
715.927	9558.2375
719.85171	9582.5375
723.77365	9587.7375
727.69284	9480.8375
731.60928	9381.3375
735.52295	9367.8375
739.43388	9412.0375
743.34206	9465.8375
747.24749	9505.6375
751.15017	9590.2375
755.05012	9791.2375
758.94733	10158.5375
762.8418	10969.3375
766.73354	12314.4375
770.62254	13776.3375
774.50882	14401.6375
778.39237	13734.9375
782.27321	12238.4375
786.15132	10866.6375
790.02671	10029.8375
793.89938	9690.9375
797.76935	9540.3375
801.6366	9460.7375
805.50115	9407.1375
809.36299	9362.0375
813.22213	9329.6375
817.07857	9307.5375
820.93231	9338.0375
824.78336	9309.7375
828.63172	9379.2375
832.47738	9410.2375
836.32036	9406.8375
840.16066	9402.2375
843.99827	9373.3375
847.8332	9344.9375
851.66546	9326.3375
855.49504	9305.0375
859.32195	9265.7375
863.1462	9246.1375
866.96777	9213.0375
870.78668	9204.1375
874.60293	9211.1375
878.41652	9218.8375
882.22745	9275.0375
886.03573	9301.7375
889.84136	9296.6375
893.64433	9251.8375
897.44466	9239.0375
901.24235	9195.2375
905.0374	9196.1375
908.8298	9188.7375
912.61957	9197.6375
916.40671	9268.9375
920.19121	9383.2375
923.97308	9459.1375
927.75233	9506.9375
931.52895	9576.2375
935.30295	9483.8375
939.07433	9290.5375
942.84309	9089.5375
946.60924	9012.0375
950.37278	8939.3375
954.13371	8894.3375
957.89203	8821.6375
961.64774	8801.4375
965.40086	8765.9375
969.15137	8743.0375
972.89929	8739.6375
976.64461	8728.4375
980.38733	8702.5375
984.12747	8722.5375
987.86502	8834.3375
991.59999	8916.5375
995.33237	9036.9375
999.06217	9279.1375
1002.78939	9570.8375
1006.51404	9823.3375
1010.23611	10024.2375
1013.95561	10127.6375
1017.67255	10138.8375
1021.38692	10045.7375
1025.09872	9954.7375
1028.80796	9953.1375
1032.51465	10126.7375
1036.21877	10289.6375
1039.92035	10331.9375
1043.61937	10221.4375
1047.31584	10048.5375
1051.00976	9853.2375
1054.70114	9736.7375
1058.38998	9716.2375
1062.07627	9753.8375
1065.76003	9795.8375
1069.44126	9888.7375
1073.11995	9969.7375
1076.79611	10045.5375
1080.46974	10111.1375
1084.14085	10267.8375
1087.80943	10445.0375
1091.47549	10522.5375
1095.13903	10439.9375
1098.80005	10184.7375
1102.45857	9929.9375
1106.11456	9802.3375
1109.76805	9791.5375
1113.41903	9924.3375
1117.06751	10110.0375
1120.71348	10353.5375
1124.35696	10644.3375
1127.99793	10911.7375
1131.63641	10938.4375
1135.2724	10645.6375
1138.90589	10334.2375
1142.5369	10150.3375
1146.16542	10012.6375
1149.79145	9985.8375
1153.415	9991.9375
1157.03607	10100.7375
1160.65467	10274.5375
1164.27079	10597.5375
1167.88443	11082.0375
1171.49561	11788.8375
1175.10432	12901.8375
1178.71056	14427.8375
1182.31434	15620.8375
1185.91565	16175.7375
1189.51451	16021.5375
1193.11091	15367.3375
1196.70485	14420.5375
1200.29634	13554.2375
1203.88538	12936.8375
1207.47197	12318.1375
1211.05612	11814.5375
1214.63782	11518.7375
1218.21708	11447.7375
1221.79391	11449.0375
1225.36829	11540.0375
1228.94024	11601.9375
1232.50976	11599.6375
1236.07685	11588.2375
1239.6415	11550.2375
1243.20374	11548.2375
1246.76355	11551.9375
1250.32093	11667.9375
1253.8759	11903.6375
1257.42845	12248.5375
1260.97859	12595.1375
1264.52631	12883.0375
1268.07163	13176.2375
1271.61453	13509.8375
1275.15503	13822.2375
1278.69312	14105.9375
1282.22882	14302.1375
1285.76211	14570.7375
1289.29301	14921.0375
1292.82151	15299.8375
1296.34761	15758.5375
1299.87133	16355.3375
1303.39266	17351.2375
1306.9116	18800.8375
1310.42815	20543.7375
1313.94233	21740.8375
1317.45412	21836.9375
1320.96354	21010.7375
1324.47058	19984.0375
1327.97525	19042.8375
1331.47754	18414.2375
1334.97747	18167.6375
1338.47502	18223.4375
1341.97022	18400.9375
1345.46305	18625.1375
1348.95352	18864.7375
1352.44163	19237.6375
1355.92738	20140.2375
1359.41078	21917.3375
1362.89183	24002.8375
1366.37053	23795.0375
1369.84688	21026.7375
1373.32088	18015.0375
1376.79254	16085.5375
1380.26186	15141.6375
1383.72883	14744.6375
1387.19347	14462.5375
1390.65578	14124.1375
1394.11575	13888.7375
1397.57339	13899.8375
1401.0287	14055.7375
1404.48168	14367.6375
1407.93234	14627.4375
1411.38068	14795.2375
1414.82669	14728.0375
1418.27039	14385.5375
1421.71177	13952.7375
1425.15083	13578.8375
1428.58758	13317.6375
1432.02203	13225.9375
1435.45416	13284.7375
1438.88399	13382.3375
1442.31151	13514.5375
1445.73673	13561.1375
1449.15965	13692.4375
1452.58027	13751.3375
1455.9986	13703.2375
1459.41463	13677.7375
1462.82837	13814.6375
1466.23982	14035.9375
1469.64898	14287.8375
1473.05586	14480.0375
1476.46045	14577.1375
1479.86276	14716.6375
1483.26279	14889.0375
1486.66054	15071.7375
1490.05602	15333.4375
1493.44922	15746.2375
1496.84016	16277.4375
1500.22882	17058.8375
1503.61521	18111.9375
1506.99934	19526.2375
1510.38121	21001.1375
1513.76081	21930.7375
1517.13816	21489.5375
1520.51324	19814.5375
1523.88607	17899.4375
1527.25665	16496.8375
1530.62498	15604.7375
1533.99105	15092.7375
1537.35488	14742.1375
1540.71647	14556.6375
1544.07581	14398.9375
1547.4329	14259.3375
1550.78776	14173.2375
1554.14038	14139.3375
1557.49077	14279.4375
1560.83892	14409.9375
1564.18484	14610.7375
1567.52853	14766.8375
1570.86999	14875.2375
1574.20922	14950.7375
1577.54624	14927.5375
1580.88103	14607.5375
1584.2136	14145.2375
1587.54395	14084.0375
1590.87208	14470.2375
1594.19801	15239.6375
1597.52172	16232.1375
1600.84321	16656.7375
1604.16251	16177.4375
1607.47959	15123.6375
1610.79447	14028.2375
1614.10715	12961.2375
1617.41763	12083.5375
1620.7259	11535.1375
1624.03199	11255.7375
1627.33587	11242.1375
1630.63757	11519.2375
1633.93707	12064.1375
1637.23439	12897.5375
1640.52951	13964.1375
1643.82246	15189.6375
1647.11321	16335.9375
1650.40179	17127.3375
1653.68819	16666.5375
1656.97241	14907.2375
1660.25446	12807.6375
1663.53433	11265.7375
1666.81203	10310.0375
1670.08756	9780.1375
1673.36092	9398.3375
1676.63211	9198.3375
1679.90115	9011.1375
1683.16801	8921.4375
1686.43272	8840.0375
1689.69527	8758.2375
1692.95567	8700.9375
1696.2139	8646.8375
1699.46999	8596.6375
1702.72392	8553.4375
1705.97571	8586.6375
1709.22535	8588.9375
1712.47284	8609.6375
1715.71819	8636.4375
1718.96139	8626.1375
1722.20246	8614.4375
1725.44139	8606.8375
1728.67818	8552.0375
1731.91284	8512.6375
1735.14537	8466.7375
1738.37576	8427.5375
1741.60403	8384.8375
1744.83017	8364.8375
1748.05418	8343.8375
1751.27607	8312.6375
1754.49584	8310.0375
1757.71349	8278.1375
1760.92903	8245.3375
1764.14244	8251.2375
1767.35375	8259.6375
1770.56294	8221.6375
1773.77002	8230.3375
1776.97499	8228.2375
1780.17785	8221.9375
1783.37861	8261.2375
1786.57727	8233.8375
1789.77382	8228.7375
1792.96828	8231.9375
1796.16064	8218.3375
1799.3509	8181.3375
1802.53907	8201.3375
1805.72514	8181.4375
1808.90913	8151.5375
1812.09102	8146.9375
1815.27083	8137.2375
1818.44856	8123.4375
1821.6242	8092.3375
1824.79776	8126.4375
1827.96924	8079.9375
1831.13864	8068.0375
1834.30597	8095.2375
1837.47122	8097.0375
1840.6344	8091.1375
1843.7955	8082.5375
1846.95454	8082.5375
1850.11151	8083.9375
1853.26642	8073.0375
1856.41926	8099.2375
1859.57004	8118.0375
1862.71876	8127.8375
1865.86542	8100.5375
1869.01003	8116.5375
1872.15258	8126.2375
1875.29308	8125.7375
1878.43152	8133.3375
1881.56792	8100.1375
1884.70227	8142.6375
1887.83457	8134.0375
1890.96482	8147.7375
1894.09304	8141.1375
1897.21921	8157.3375
1900.34335	8135.9375
1903.46544	8144.8375
1906.58551	8144.6375
1909.70353	8132.6375
1912.81953	8154.7375
1915.93349	8154.0375
1919.04543	8135.9375
1922.15534	8133.0375
1925.26322	8133.0375
1928.36908	8092.1375
1931.47292	8067.2375
1934.57473	8023.0375
1937.67453	7987.7375
1940.77232	7960.7375
1943.86808	7928.6375
1946.96184	7886.2375
1950.05358	7866.0375
1953.14331	7836.0375
1956.23103	7788.1375
1959.31675	7792.1375
1962.40046	7757.1375
1965.48217	7734.9375
1968.56188	7711.1375
1971.63959	7713.5375
1974.7153	7663.3375
1977.78901	7650.5375
1980.86073	7618.6375
1983.93046	7600.6375
1986.99819	7573.0375
1990.06394	7551.3375
1993.1277	7542.1375
1996.18947	7499.7375
1999.24925	7479.8375
2002.30706	7470.0375
2005.36288	7427.0375
2008.41672	7438.6375
2011.46859	7416.5375
2014.51848	7384.2375
2017.56639	7388.6375
2020.61233	7348.2375
2023.6563	7362.1375
2026.6983	7330.3375
2029.73833	7322.7375
2032.7764	7291.8375
2035.8125	7307.1375
2038.84664	7257.5375
2041.87881	7246.9375
2044.90903	7261.2375
2047.93729	7235.5375
2050.96359	7229.7375
2053.98794	7222.4375
2057.01034	7220.9375
2060.03078	7217.7375
2063.04927	7209.8375
2066.06582	7207.4375
2069.08042	7178.8375
2072.09307	7171.7375
2075.10378	7175.5375
2078.11255	7150.3375
2081.11938	7182.9375
2084.12426	7149.7375
2087.12722	7171.0375
2090.12824	7156.6375
2093.12732	7177.0375
2096.12447	7161.8375
2099.11969	7149.3375
2102.11299	7157.4375
2105.10435	7180.0375
2108.09379	7163.0375
2111.08131	7178.1375
2114.0669	7151.3375
2117.05057	7185.5375
2120.03233	7179.1375
2123.01216	7192.2375
2125.99008	7188.1375
2128.96609	7200.8375
2131.94018	7206.7375
2134.91236	7215.1375
2137.88263	7207.0375
2140.851	7211.0375
2143.81746	7212.7375
2146.78201	7234.1375
2149.74466	7229.9375
2152.7054	7250.6375
2155.66425	7238.2375
2158.6212	7245.3375
2161.57625	7210.3375
2164.52941	7229.0375
2167.48067	7207.2375
2170.43004	7226.6375
2173.37752	7216.2375
2176.32311	7188.3375
2179.26681	7211.1375
2182.20863	7202.8375
2185.14856	7216.3375
2188.08661	7229.8375
2191.02278	7234.8375
2193.95707	7203.2375
2196.88948	7212.6375
2199.82001	7215.7375
2202.74867	7222.0375
2205.67545	7214.5375
2208.60037	7195.5375
2211.52341	7182.6375
2214.44458	7158.9375
2217.36388	7163.1375
2220.28132	7160.5375
2223.1969	7142.4375
2226.11061	7137.3375
2229.02246	7121.7375
2231.93245	7113.8375
2234.84058	7086.8375
2237.74686	7086.0375
2240.65128	7093.9375
2243.55385	7071.5375
2246.45456	7070.8375
2249.35343	7060.4375
2252.25044	7057.1375
2255.14561	7060.7375
2258.03893	7045.0375
2260.93041	7035.3375
2263.82004	7021.5375
2266.70783	7024.6375
2269.59378	6987.0375
2272.4779	6952.5375
2275.36017	6949.7375
2278.24061	6933.1375
2281.11922	6932.0375
2283.996	6931.8375
2286.87094	6916.2375
2289.74405	6906.4375
2292.61534	6894.9375
2295.4848	6884.0375
2298.35243	6903.8375
2301.21824	6886.6375
2304.08223	6891.4375
2306.94439	6887.5375
2309.80474	6890.3375
2312.66327	6897.5375
2315.51999	6887.7375
2318.37489	6894.2375
2321.22797	6880.1375
2324.07925	6881.9375
2326.92871	6864.7375
2329.77637	6868.8375
2332.62222	6851.1375
2335.46626	6851.6375
2338.3085	6837.4375
2341.14893	6866.0375
2343.98756	6840.9375
2346.8244	6864.8375
2349.65943	6857.6375
2352.49267	6858.4375
2355.32411	6862.3375
2358.15376	6863.9375
2360.98161	6864.3375
2363.80768	6854.6375
2366.63195	6864.5375
2369.45444	6839.7375
2372.27514	6838.3375
2375.09405	6815.4375
2377.91118	6810.6375
2380.72652	6785.0375
2383.54009	6781.8375
2386.35187	6766.8375
2389.16188	6734.3375
2391.97011	6721.4375
2394.77657	6713.9375
2397.58125	6719.7375
2400.38416	6674.6375
2403.18529	6670.8375
2405.98466	6688.1375
2408.78226	6644.0375
2411.57809	6634.9375
2414.37216	6645.0375
2417.16446	6636.8375
2419.955	6610.3375
2422.74378	6630.9375
2425.5308	6613.3375
2428.31606	6605.4375
2431.09956	6599.1375
2433.88131	6601.1375
2436.6613	6610.3375
2439.43954	6586.4375
2442.21603	6600.8375
2444.99077	6589.2375
2447.76377	6597.3375
2450.53501	6603.8375
2453.30451	6578.2375
2456.07226	6577.5375
2458.83827	6580.6375
2461.60254	6562.6375
2464.36507	6563.7375
2467.12586	6564.5375
2469.88492	6563.8375
2472.64224	6570.1375
2475.39782	6588.4375
2478.15167	6569.2375
2480.90379	6586.2375
2483.65417	6608.5375
2486.40283	6605.6375
2489.14976	6597.6375
2491.89497	6604.1375
2494.63845	6616.5375
2497.3802	6621.7375
2500.12024	6609.2375
2502.85855	6596.2375
2505.59514	6596.4375
2508.33002	6581.3375
2511.06318	6569.9375
2513.79462	6574.5375
2516.52435	6542.0375
2519.25237	6556.9375
2521.97867	6509.5375
2524.70327	6533.0375
2527.42616	6512.1375
2530.14734	6495.8375
2532.86681	6493.7375
2535.58458	6497.7375
2538.30065	6491.3375
2541.01501	6496.5375
2543.72768	6477.3375
2546.43864	6485.8375
2549.14791	6476.4375
2551.85548	6465.6375
2554.56136	6463.3375
2557.26554	6456.0375
2559.96803	6453.9375
2562.66883	6452.5375
2565.36794	6447.1375
2568.06536	6435.7375
2570.7611	6429.2375
2573.45514	6425.8375
2576.14751	6429.1375
2578.83819	6409.3375
2581.52719	6422.8375
2584.21451	6406.5375
2586.90015	6407.7375
2589.58411	6400.3375
2592.2664	6392.1375
2594.94701	6390.1375
2597.62594	6410.1375
2600.30321	6376.9375
2602.9788	6377.7375
2605.65273	6380.6375
2608.32498	6375.0375
2610.99557	6380.5375
2613.66449	6377.1375
2616.33175	6383.2375
2618.99734	6371.2375
2621.66128	6372.6375
2624.32355	6371.2375
2626.98416	6379.1375
2629.64311	6368.9375
2632.30041	6369.0375
2634.95605	6352.6375
2637.61004	6359.7375
2640.26238	6343.0375
2642.91306	6339.4375
2645.56209	6325.0375
2648.20948	6329.8375
2650.85521	6316.4375
2653.4993	6328.8375
2656.14175	6321.5375
2658.78255	6345.1375
2661.42171	6319.4375
2664.05923	6348.3375
2666.6951	6332.2375
2669.32934	6364.5375
2671.96194	6340.0375
2674.59291	6365.8375
2677.22224	6353.6375
2679.84993	6371.2375
2682.476	6358.5375
2685.10043	6374.9375
2687.72324	6355.0375
2690.34441	6340.6375
2692.96396	6352.9375
2695.58188	6356.2375
2698.19818	6344.0375
2700.81285	6349.2375
2703.4259	6349.0375
2706.03733	6352.0375
2708.64714	6314.1375
2711.25533	6339.5375
2713.86191	6340.3375
2716.46687	6357.6375
2719.07021	6356.9375
2721.67194	6375.7375
2724.27206	6354.7375
2726.87057	6356.1375
2729.46747	6365.0375
2732.06276	6372.6375
2734.65644	6377.7375
2737.24852	6366.6375
2739.83899	6361.9375
2742.42786	6370.7375
2745.01513	6336.4375
2747.60079	6355.5375
2750.18486	6347.5375
2752.76733	6343.3375
2755.3482	6335.8375
2757.92747	6343.8375
2760.50515	6358.0375
2763.08123	6321.7375
2765.65573	6352.5375
2768.22863	6314.3375
2770.79994	6308.2375
2773.36967	6308.6375
2775.9378	6321.6375
2778.50435	6319.0375
2781.06932	6309.3375
2783.6327	6289.4375
2786.1945	6299.5375
2788.75471	6276.7375
2791.31335	6294.8375
2793.87041	6274.2375
2796.42589	6236.6375
2798.97979	6250.8375
2801.53212	6247.4375
2804.08288	6229.6375
2806.63206	6240.6375
2809.17967	6203.6375
2811.72571	6208.2375
2814.27018	6198.5375
2816.81308	6208.5375
2819.35442	6211.0375
2821.89419	6200.0375
2824.43239	6212.1375
2826.96904	6205.6375
2829.50412	6211.4375
2832.03763	6189.5375
2834.56959	6188.4375
2837.1	6179.4375
2839.62884	6196.0375
2842.15613	6208.3375
2844.68186	6220.5375
2847.20604	6225.7375
2849.72867	6247.6375
2852.24974	6267.0375
2854.76927	6242.9375
2857.28724	6228.5375
2859.80367	6228.4375
2862.31855	6224.0375
2864.83189	6216.1375
2867.34368	6190.0375
2869.85393	6205.9375
2872.36264	6189.0375
2874.8698	6200.7375
2877.37543	6204.0375
2879.87952	6174.7375
2882.38207	6177.6375
2884.88308	6162.5375
2887.38256	6180.4375
2889.88051	6175.7375
2892.37692	6182.3375
2894.8718	6170.7375
2897.36515	6187.5375
2899.85698	6170.0375
2902.34727	6190.9375
2904.83604	6189.4375
2907.32328	6200.3375
2909.809	6208.0375
2912.29319	6200.5375
2914.77587	6215.2375
2917.25702	6200.0375
2919.73665	6203.3375
2922.21476	6206.8375
2924.69136	6202.6375
2927.16644	6196.1375
2929.64	6188.2375
2932.11205	6185.5375
2934.58258	6167.6375
2937.05161	6168.0375
2939.51912	6174.0375
2941.98513	6140.8375
2944.44962	6129.4375
2946.91261	6094.8375
2949.37409	6111.4375
2951.83407	6083.9375
2954.29254	6095.4375
2956.74951	6086.3375
2959.20498	6093.7375
2961.65895	6069.0375
2964.11142	6067.1375
2966.56239	6042.3375
2969.01186	6041.8375
2971.45984	6044.4375
2973.90632	6022.3375
2976.35131	6016.5375
2978.7948	6003.2375
2981.23681	5997.5375
2983.67732	5984.3375
2986.11635	5978.9375
2988.55388	5964.2375
2990.98993	5945.4375
2993.4245	5918.7375
2995.85758	5943.0375
2998.28917	5914.5375
3000.71928	5921.5375
3003.14791	5889.9375
3005.57506	5887.9375
3008.00073	5864.1375
3010.42493	5881.4375
3012.84764	5863.5375
3015.26888	5868.6375
3017.68865	5860.7375
3020.10694	5853.6375
3022.52376	5826.2375
3024.9391	5825.1375
3027.35298	5808.2375
3029.76539	5801.2375
3032.17632	5809.5375
3034.5858	5796.4375
3036.9938	5812.5375
3039.40034	5804.6375
3041.80542	5804.9375
3044.20903	5763.6375
3046.61118	5779.1375
3049.01187	5767.2375
3051.4111	5759.9375
3053.80888	5766.1375
3056.20519	5753.1375
3058.60005	5730.9375
3060.99345	5722.3375
3063.3854	5689.1375
3065.7759	5688.1375
3068.16494	5689.3375
3070.55254	5651.4375
3072.93868	5655.9375
3075.32338	5647.2375
3077.70662	5641.1375
3080.08842	5609.5375
3082.46878	5619.2375
3084.84769	5597.2375
3087.22515	5602.7375
3089.60118	5608.7375
3091.97576	5600.7375
3094.3489	5611.7375
3096.72061	5607.1375
