Data from AgNPs_FTO_APTES_UA_1uM_CRN_10uM_R6G_50uM_NaF_0.1M_Addition_RamanShift__6__15-47-59-725.txt Node

Date: Thu Jan 27 15:47:59 GMT 2022
User: TCL
Spectrometer: QEP01345
Trigger mode: 4
Integration Time (sec): 7.000000E0
Scans to average: 10
Electric dark correction enabled: true
Nonlinearity correction enabled: false
Boxcar width: 0
XAxis mode: Raman Shifts
Number of Pixels in Spectrum: 1044
>>>>>Begin Spectral Data<<<<<
46.04893	1.0625
50.45542	1.1625
54.85868	-1.6375
59.25871	-1.5375
63.6555	44.1625
68.04907	49.7625
72.43941	51.0625
76.82654	57.3625
81.21044	55.1625
85.59113	55.1625
89.96862	59.6625
94.34289	60.7625
98.71396	64.0625
103.08183	65.4625
107.4465	69.8625
111.80798	72.6625
116.16626	70.2625
120.52136	78.6625
124.87327	75.7625
129.222	74.4625
133.56755	81.9625
137.90993	87.3625
142.24913	93.1625
146.58517	104.0625
150.91804	120.0625
155.24774	138.7625
159.57429	173.5625
163.89768	217.3625
168.21792	287.7625
172.53501	389.5625
176.84895	534.0625
181.15975	744.6625
185.46741	1042.9625
189.77193	1442.9625
194.07331	1935.3625
198.37157	2494.6625
202.6667	3067.5625
206.9587	3667.6625
211.24758	4233.9625
215.53334	4811.6625
219.81599	5398.6625
224.09553	6054.5625
228.37195	6767.4625
232.64527	7525.3625
236.91549	8372.5625
241.18261	9237.1625
245.44663	10033.5625
249.70755	10757.7625
253.96539	11427.8625
258.22014	11977.6625
262.4718	12452.6625
266.72039	12768.1625
270.96589	12907.3625
275.20832	12916.3625
279.44768	12878.7625
283.68397	12766.1625
287.91719	12674.0625
292.14735	12587.0625
296.37445	12555.4625
300.59849	12548.8625
304.81948	12577.8625
309.03742	12595.7625
313.25231	12488.1625
317.46415	12333.4625
321.67296	12119.9625
325.87872	11902.8625
330.08145	11840.6625
334.28114	11820.7625
338.47781	11883.5625
342.67145	12003.7625
346.86207	12180.3625
351.04966	12345.9625
355.23424	12524.2625
359.4158	12692.3625
363.59435	12832.4625
367.76989	12955.0625
371.94243	13018.7625
376.11196	13070.0625
380.27849	13122.4625
384.44203	13198.1625
388.60257	13265.9625
392.76012	13383.5625
396.91468	13575.7625
401.06626	13754.1625
405.21485	13858.2625
409.36047	13815.7625
413.50311	13741.0625
417.64277	13682.8625
421.77947	13747.1625
425.9132	13803.4625
430.04396	13902.4625
434.17176	13947.3625
438.2966	14045.5625
442.41849	14220.2625
446.53742	14461.0625
450.6534	14793.1625
454.76644	15034.7625
458.87653	15122.0625
462.98368	15069.5625
467.08789	14950.6625
471.18916	14802.3625
475.2875	14623.7625
479.38291	14544.2625
483.4754	14459.4625
487.56496	14351.9625
491.6516	14172.6625
495.73531	14011.7625
499.81612	13925.6625
503.89401	13998.4625
507.96899	14049.4625
512.04106	14042.3625
516.11023	13982.1625
520.1765	13844.1625
524.23987	13723.4625
528.30034	13639.9625
532.35792	13512.5625
536.41261	13397.4625
540.46441	13318.1625
544.51333	13287.4625
548.55936	13400.2625
552.60252	13639.0625
556.64279	13870.6625
560.6802	14077.5625
564.71473	14172.9625
568.7464	14349.0625
572.7752	14679.9625
576.80114	15084.4625
580.82422	15448.1625
584.84444	15973.3625
588.86181	16559.1625
592.87633	17024.0625
596.888	16926.8625
600.89682	16335.2625
604.9028	16024.1625
608.90594	16511.5625
612.90624	17164.1625
616.90371	16337.6625
620.89834	14490.9625
624.89015	13650.0625
628.87913	13585.2625
632.86528	13642.6625
636.84862	13650.0625
640.82913	13477.8625
644.80683	13280.6625
648.78172	13127.6625
652.75379	13112.6625
656.72306	13219.4625
660.68952	13300.8625
664.65319	13279.8625
668.61405	13107.0625
672.57211	13071.2625
676.52738	13152.3625
680.47986	13180.3625
684.42955	13105.9625
688.37646	13053.6625
692.32058	13082.4625
696.26192	13175.7625
700.20048	13374.8625
704.13626	13456.6625
708.06928	13486.3625
711.99952	13471.6625
715.927	13448.8625
719.85171	13474.4625
723.77365	13408.6625
727.69284	13286.9625
731.60928	13116.3625
735.52295	13035.9625
739.43388	13050.0625
743.34206	13091.3625
747.24749	13139.2625
751.15017	13249.2625
755.05012	13411.1625
758.94733	13724.8625
762.8418	14186.7625
766.73354	14880.7625
770.62254	15476.8625
774.50882	15570.8625
778.39237	15013.3625
782.27321	14283.4625
786.15132	13677.5625
790.02671	13302.8625
793.89938	13119.4625
797.76935	13020.9625
801.6366	13014.1625
805.50115	12996.6625
809.36299	12918.9625
813.22213	12852.7625
817.07857	12808.6625
820.93231	12757.3625
824.78336	12734.2625
828.63172	12686.8625
832.47738	12671.9625
836.32036	12644.9625
840.16066	12644.0625
843.99827	12669.2625
847.8332	12665.9625
851.66546	12646.3625
855.49504	12647.3625
859.32195	12626.7625
863.1462	12622.0625
866.96777	12617.5625
870.78668	12580.8625
874.60293	12596.0625
878.41652	12592.1625
882.22745	12631.9625
886.03573	12679.5625
889.84136	12675.3625
893.64433	12622.3625
897.44466	12569.3625
901.24235	12550.1625
905.0374	12530.1625
908.8298	12509.5625
912.61957	12483.2625
916.40671	12588.6625
920.19121	12732.5625
923.97308	12869.2625
927.75233	12846.3625
931.52895	12732.2625
935.30295	12575.4625
939.07433	12399.8625
942.84309	12252.9625
946.60924	12203.5625
950.37278	12161.9625
954.13371	12164.2625
957.89203	12133.3625
961.64774	12158.5625
965.40086	12156.4625
969.15137	12092.1625
972.89929	12075.2625
976.64461	12034.4625
980.38733	12013.1625
984.12747	11988.1625
987.86502	12044.9625
991.59999	12095.0625
995.33237	12177.0625
999.06217	12333.1625
1002.78939	12530.0625
1006.51404	12696.2625
1010.23611	12872.5625
1013.95561	12988.9625
1017.67255	13024.3625
1021.38692	12935.0625
1025.09872	12786.1625
1028.80796	12655.9625
1032.51465	12716.5625
1036.21877	12748.9625
1039.92035	12790.6625
1043.61937	12822.8625
1047.31584	12782.0625
1051.00976	12742.1625
1054.70114	12731.2625
1058.38998	12777.7625
1062.07627	12877.4625
1065.76003	13015.0625
1069.44126	13162.4625
1073.11995	13327.9625
1076.79611	13478.2625
1080.46974	13524.0625
1084.14085	13555.6625
1087.80943	13632.5625
1091.47549	13676.1625
1095.13903	13749.5625
1098.80005	13625.4625
1102.45857	13403.9625
1106.11456	13168.1625
1109.76805	13049.7625
1113.41903	13014.1625
1117.06751	13067.6625
1120.71348	13156.2625
1124.35696	13271.0625
1127.99793	13398.6625
1131.63641	13458.3625
1135.2724	13463.5625
1138.90589	13413.4625
1142.5369	13436.1625
1146.16542	13506.6625
1149.79145	13612.4625
1153.415	13719.7625
1157.03607	13845.8625
1160.65467	14167.6625
1164.27079	14710.0625
1167.88443	15343.8625
1171.49561	15996.4625
1175.10432	16715.2625
1178.71056	17595.1625
1182.31434	18508.4625
1185.91565	18946.8625
1189.51451	18947.3625
1193.11091	18627.6625
1196.70485	18216.2625
1200.29634	17711.1625
1203.88538	17334.8625
1207.47197	17200.8625
1211.05612	17000.5625
1214.63782	16771.9625
1218.21708	16359.4625
1221.79391	15886.0625
1225.36829	15602.0625
1228.94024	15391.5625
1232.50976	15191.6625
1236.07685	15055.6625
1239.6415	14985.6625
1243.20374	14968.6625
1246.76355	15054.2625
1250.32093	15213.8625
1253.8759	15455.4625
1257.42845	15771.6625
1260.97859	16135.2625
1264.52631	16468.3625
1268.07163	16842.1625
1271.61453	17163.9625
1275.15503	17556.7625
1278.69312	17994.7625
1282.22882	18436.9625
1285.76211	19014.5625
1289.29301	19634.5625
1292.82151	20506.8625
1296.34761	21438.9625
1299.87133	22563.2625
1303.39266	23667.3625
1306.9116	24544.5625
1310.42815	25200.8625
1313.94233	25461.2625
1317.45412	25374.4625
1320.96354	25048.6625
1324.47058	24761.9625
1327.97525	24604.3625
1331.47754	24428.7625
1334.97747	24371.6625
1338.47502	24155.5625
1341.97022	23942.8625
1345.46305	23670.4625
1348.95352	23438.0625
1352.44163	23303.4625
1355.92738	23543.1625
1359.41078	24203.4625
1362.89183	24684.9625
1366.37053	24337.7625
1369.84688	22907.7625
1373.32088	20905.4625
1376.79254	19372.9625
1380.26186	18846.1625
1383.72883	18888.5625
1387.19347	19014.6625
1390.65578	18831.8625
1394.11575	18766.8625
1397.57339	18850.1625
1401.0287	19161.1625
1404.48168	19383.8625
1407.93234	19348.6625
1411.38068	19038.4625
1414.82669	18480.5625
1418.27039	17778.2625
1421.71177	17110.9625
1425.15083	16569.6625
1428.58758	16301.9625
1432.02203	16378.5625
1435.45416	16719.8625
1438.88399	17204.2625
1442.31151	17555.7625
1445.73673	17785.9625
1449.15965	17904.6625
1452.58027	17969.3625
1455.9986	17916.8625
1459.41463	17965.8625
1462.82837	18140.5625
1466.23982	18383.5625
1469.64898	18655.2625
1473.05586	18885.5625
1476.46045	18940.7625
1479.86276	18850.8625
1483.26279	18669.5625
1486.66054	18578.4625
1490.05602	18606.5625
1493.44922	18782.8625
1496.84016	18983.7625
1500.22882	19170.8625
1503.61521	19519.4625
1506.99934	19973.8625
1510.38121	20278.8625
1513.76081	20331.1625
1517.13816	20059.0625
1520.51324	19705.3625
1523.88607	19425.9625
1527.25665	19407.6625
1530.62498	19416.7625
1533.99105	19386.7625
1537.35488	19182.0625
1540.71647	18793.7625
1544.07581	18332.1625
1547.4329	17860.7625
1550.78776	17439.1625
1554.14038	17156.7625
1557.49077	17003.0625
1560.83892	16890.9625
1564.18484	16865.7625
1567.52853	16837.1625
1570.86999	16988.2625
1574.20922	17299.2625
1577.54624	17553.0625
1580.88103	17726.0625
1584.2136	17932.1625
1587.54395	18386.5625
1590.87208	19151.0625
1594.19801	20098.8625
1597.52172	20968.1625
1600.84321	21181.3625
1604.16251	20326.3625
1607.47959	18979.1625
1610.79447	17531.0625
1614.10715	16202.8625
1617.41763	15190.3625
1620.7259	14474.7625
1624.03199	14077.3625
1627.33587	14037.4625
1630.63757	14372.9625
1633.93707	15081.2625
1637.23439	16352.4625
1640.52951	18210.5625
1643.82246	20438.7625
1647.11321	22272.8625
1650.40179	22653.9625
1653.68819	21247.0625
1656.97241	18730.3625
1660.25446	16253.6625
1663.53433	14402.6625
1666.81203	13240.3625
1670.08756	12505.0625
1673.36092	12069.8625
1676.63211	11765.9625
1679.90115	11586.0625
1683.16801	11416.6625
1686.43272	11259.3625
1689.69527	11152.6625
1692.95567	11081.1625
1696.2139	11002.1625
1699.46999	10963.2625
1702.72392	10907.0625
1705.97571	10887.3625
1709.22535	10925.6625
1712.47284	10906.3625
1715.71819	10929.9625
1718.96139	10888.3625
1722.20246	10858.1625
1725.44139	10823.3625
1728.67818	10774.4625
1731.91284	10728.4625
1735.14537	10665.4625
1738.37576	10624.6625
1741.60403	10558.9625
1744.83017	10529.3625
1748.05418	10534.8625
1751.27607	10506.3625
1754.49584	10450.9625
1757.71349	10439.8625
1760.92903	10405.1625
1764.14244	10421.8625
1767.35375	10395.0625
1770.56294	10389.6625
1773.77002	10384.3625
1776.97499	10355.0625
1780.17785	10380.4625
1783.37861	10370.6625
1786.57727	10362.8625
1789.77382	10342.0625
1792.96828	10319.2625
1796.16064	10299.2625
1799.3509	10267.1625
1802.53907	10253.7625
1805.72514	10255.7625
1808.90913	10235.4625
1812.09102	10180.2625
1815.27083	10176.9625
1818.44856	10183.6625
1821.6242	10110.9625
1824.79776	10126.1625
1827.96924	10120.8625
1831.13864	10118.6625
1834.30597	10094.2625
1837.47122	10106.0625
1840.6344	10091.1625
1843.7955	10108.3625
1846.95454	10055.1625
1850.11151	10091.7625
1853.26642	10066.4625
1856.41926	10053.1625
1859.57004	10076.4625
1862.71876	10079.8625
1865.86542	10035.3625
1869.01003	10013.1625
1872.15258	10024.5625
1875.29308	10024.9625
1878.43152	9996.7625
1881.56792	9970.9625
1884.70227	9949.7625
1887.83457	9959.8625
1890.96482	9943.8625
1894.09304	9943.6625
1897.21921	9895.6625
1900.34335	9901.3625
1903.46544	9882.3625
1906.58551	9901.2625
1909.70353	9869.3625
1912.81953	9838.7625
1915.93349	9826.0625
1919.04543	9794.4625
1922.15534	9794.4625
1925.26322	9776.8625
1928.36908	9747.3625
1931.47292	9746.4625
1934.57473	9706.5625
1937.67453	9694.6625
1940.77232	9668.6625
1943.86808	9642.9625
1946.96184	9619.2625
1950.05358	9568.0625
1953.14331	9570.7625
1956.23103	9543.8625
1959.31675	9494.5625
1962.40046	9484.8625
1965.48217	9466.1625
1968.56188	9436.9625
1971.63959	9397.7625
1974.7153	9358.6625
1977.78901	9358.8625
1980.86073	9308.0625
1983.93046	9287.0625
1986.99819	9280.2625
1990.06394	9247.0625
1993.1277	9211.0625
1996.18947	9197.6625
1999.24925	9149.9625
2002.30706	9120.8625
2005.36288	9076.0625
2008.41672	9095.0625
2011.46859	9073.3625
2014.51848	9021.7625
2017.56639	9006.2625
2020.61233	9005.7625
2023.6563	8991.0625
2026.6983	8930.7625
2029.73833	8919.6625
2032.7764	8909.9625
2035.8125	8899.4625
2038.84664	8878.3625
2041.87881	8843.8625
2044.90903	8838.6625
2047.93729	8829.7625
2050.96359	8799.1625
2053.98794	8778.9625
2057.01034	8801.0625
2060.03078	8802.6625
2063.04927	8775.1625
2066.06582	8781.2625
2069.08042	8784.7625
2072.09307	8773.1625
2075.10378	8746.7625
2078.11255	8754.0625
2081.11938	8767.2625
2084.12426	8752.6625
2087.12722	8733.8625
2090.12824	8726.9625
2093.12732	8751.8625
2096.12447	8709.6625
2099.11969	8709.0625
2102.11299	8727.0625
2105.10435	8713.2625
2108.09379	8744.1625
2111.08131	8742.7625
2114.0669	8747.6625
2117.05057	8757.5625
2120.03233	8762.4625
2123.01216	8765.2625
2125.99008	8770.3625
2128.96609	8787.8625
2131.94018	8804.5625
2134.91236	8790.5625
2137.88263	8780.1625
2140.851	8773.7625
2143.81746	8789.5625
2146.78201	8798.4625
2149.74466	8789.3625
2152.7054	8778.2625
2155.66425	8788.1625
2158.6212	8792.0625
2161.57625	8779.8625
2164.52941	8768.7625
2167.48067	8776.1625
2170.43004	8774.8625
2173.37752	8767.5625
2176.32311	8771.2625
2179.26681	8782.8625
2182.20863	8755.3625
2185.14856	8756.3625
2188.08661	8753.4625
2191.02278	8756.2625
2193.95707	8773.4625
2196.88948	8765.9625
2199.82001	8737.7625
2202.74867	8755.3625
2205.67545	8742.4625
2208.60037	8696.3625
2211.52341	8705.0625
2214.44458	8666.9625
2217.36388	8657.3625
2220.28132	8645.8625
2223.1969	8628.6625
2226.11061	8626.1625
2229.02246	8606.1625
2231.93245	8594.8625
2234.84058	8581.2625
2237.74686	8572.2625
2240.65128	8572.0625
2243.55385	8544.5625
2246.45456	8546.3625
2249.35343	8509.8625
2252.25044	8509.0625
2255.14561	8487.9625
2258.03893	8476.0625
2260.93041	8451.4625
2263.82004	8462.3625
2266.70783	8415.1625
2269.59378	8408.1625
2272.4779	8374.7625
2275.36017	8360.1625
2278.24061	8342.7625
2281.11922	8311.2625
2283.996	8331.4625
2286.87094	8314.1625
2289.74405	8291.5625
2292.61534	8286.3625
2295.4848	8300.8625
2298.35243	8285.3625
2301.21824	8254.2625
2304.08223	8253.8625
2306.94439	8252.8625
2309.80474	8252.4625
2312.66327	8253.0625
2315.51999	8256.5625
2318.37489	8244.2625
2321.22797	8223.5625
2324.07925	8211.0625
2326.92871	8181.6625
2329.77637	8169.4625
2332.62222	8168.7625
2335.46626	8164.9625
2338.3085	8136.4625
2341.14893	8157.3625
2343.98756	8154.9625
2346.8244	8124.9625
2349.65943	8150.0625
2352.49267	8122.7625
2355.32411	8120.6625
2358.15376	8142.4625
2360.98161	8138.5625
2363.80768	8115.8625
2366.63195	8114.8625
2369.45444	8103.9625
2372.27514	8086.8625
2375.09405	8085.6625
2377.91118	8056.3625
2380.72652	8030.1625
2383.54009	8017.6625
2386.35187	8014.6625
2389.16188	7996.7625
2391.97011	7975.5625
2394.77657	7961.2625
2397.58125	7946.7625
2400.38416	7949.1625
2403.18529	7943.7625
2405.98466	7934.3625
2408.78226	7910.9625
2411.57809	7908.9625
2414.37216	7900.0625
2417.16446	7880.0625
2419.955	7866.6625
2422.74378	7880.7625
2425.5308	7880.3625
2428.31606	7878.3625
2431.09956	7861.0625
2433.88131	7860.4625
2436.6613	7849.2625
2439.43954	7837.6625
2442.21603	7845.5625
2444.99077	7831.8625
2447.76377	7832.9625
2450.53501	7825.1625
2453.30451	7813.8625
2456.07226	7790.7625
2458.83827	7789.8625
2461.60254	7789.8625
2464.36507	7779.5625
2467.12586	7765.7625
2469.88492	7774.6625
2472.64224	7770.6625
2475.39782	7780.2625
2478.15167	7764.2625
2480.90379	7747.7625
2483.65417	7771.6625
2486.40283	7776.2625
2489.14976	7766.2625
2491.89497	7761.1625
2494.63845	7759.1625
2497.3802	7738.2625
2500.12024	7749.4625
2502.85855	7748.4625
2505.59514	7730.6625
2508.33002	7737.5625
2511.06318	7733.3625
2513.79462	7710.0625
2516.52435	7685.5625
2519.25237	7712.3625
2521.97867	7701.4625
2524.70327	7699.8625
2527.42616	7673.8625
2530.14734	7662.8625
2532.86681	7675.8625
2535.58458	7655.9625
2538.30065	7655.6625
2541.01501	7632.1625
2543.72768	7641.8625
2546.43864	7614.6625
2549.14791	7617.0625
2551.85548	7613.9625
2554.56136	7586.2625
2557.26554	7579.5625
2559.96803	7577.7625
2562.66883	7584.2625
2565.36794	7574.7625
2568.06536	7548.5625
2570.7611	7549.6625
2573.45514	7545.1625
2576.14751	7515.1625
2578.83819	7507.9625
2581.52719	7502.3625
2584.21451	7510.8625
2586.90015	7496.8625
2589.58411	7472.7625
2592.2664	7480.6625
2594.94701	7477.2625
2597.62594	7474.2625
2600.30321	7462.8625
2602.9788	7436.9625
2605.65273	7443.6625
2608.32498	7425.9625
2610.99557	7427.0625
2613.66449	7443.7625
2616.33175	7431.1625
2618.99734	7427.4625
2621.66128	7415.3625
2624.32355	7400.0625
2626.98416	7395.2625
2629.64311	7414.5625
2632.30041	7411.3625
2634.95605	7359.7625
2637.61004	7364.6625
2640.26238	7378.8625
2642.91306	7366.4625
2645.56209	7343.7625
2648.20948	7355.2625
2650.85521	7334.6625
2653.4993	7359.8625
2656.14175	7353.5625
2658.78255	7359.6625
2661.42171	7377.4625
2664.05923	7384.8625
2666.6951	7372.5625
2669.32934	7372.7625
2671.96194	7360.1625
2674.59291	7362.4625
2677.22224	7364.9625
2679.84993	7344.4625
2682.476	7346.1625
2685.10043	7356.9625
2687.72324	7340.1625
2690.34441	7351.8625
2692.96396	7337.3625
2695.58188	7358.7625
2698.19818	7362.5625
2700.81285	7364.7625
2703.4259	7326.8625
2706.03733	7355.1625
2708.64714	7341.4625
2711.25533	7317.4625
2713.86191	7349.2625
2716.46687	7352.7625
2719.07021	7349.9625
2721.67194	7370.1625
2724.27206	7366.8625
2726.87057	7373.9625
2729.46747	7380.3625
2732.06276	7363.6625
2734.65644	7358.8625
2737.24852	7355.8625
2739.83899	7343.0625
2742.42786	7349.7625
2745.01513	7341.8625
2747.60079	7340.1625
2750.18486	7334.7625
2752.76733	7336.1625
2755.3482	7348.5625
2757.92747	7333.0625
2760.50515	7333.0625
2763.08123	7312.7625
2765.65573	7309.1625
2768.22863	7308.7625
2770.79994	7315.7625
2773.36967	7289.8625
2775.9378	7315.2625
2778.50435	7287.1625
2781.06932	7266.8625
2783.6327	7272.1625
2786.1945	7270.3625
2788.75471	7260.6625
2791.31335	7244.7625
2793.87041	7238.1625
2796.42589	7232.6625
2798.97979	7224.6625
2801.53212	7193.3625
2804.08288	7201.0625
2806.63206	7184.1625
2809.17967	7166.5625
2811.72571	7141.0625
2814.27018	7127.4625
2816.81308	7129.9625
2819.35442	7129.2625
2821.89419	7111.0625
2824.43239	7092.5625
2826.96904	7097.7625
2829.50412	7118.9625
2832.03763	7093.3625
2834.56959	7093.3625
2837.1	7053.4625
2839.62884	7071.9625
2842.15613	7079.8625
2844.68186	7070.6625
2847.20604	7094.6625
2849.72867	7057.3625
2852.24974	7069.8625
2854.76927	7071.0625
2857.28724	7068.9625
2859.80367	7061.1625
2862.31855	7050.1625
2864.83189	7052.6625
2867.34368	7019.6625
2869.85393	7014.3625
2872.36264	7012.8625
2874.8698	7001.3625
2877.37543	7018.8625
2879.87952	6995.6625
2882.38207	7008.6625
2884.88308	6977.5625
2887.38256	7003.3625
2889.88051	6986.9625
2892.37692	7008.0625
2894.8718	6980.3625
2897.36515	6987.4625
2899.85698	6986.5625
2902.34727	7011.1625
2904.83604	7000.0625
2907.32328	7023.7625
2909.809	7002.5625
2912.29319	7014.8625
2914.77587	7026.6625
2917.25702	7012.2625
2919.73665	7003.9625
2922.21476	7007.5625
2924.69136	6995.1625
2927.16644	7001.7625
2929.64	7013.3625
2932.11205	7029.0625
2934.58258	6985.6625
2937.05161	6988.3625
2939.51912	6999.2625
2941.98513	6970.5625
2944.44962	6949.6625
2946.91261	6920.4625
2949.37409	6945.4625
2951.83407	6928.8625
2954.29254	6938.8625
2956.74951	6941.3625
2959.20498	6922.1625
2961.65895	6915.4625
2964.11142	6914.1625
2966.56239	6916.3625
2969.01186	6899.1625
2971.45984	6906.0625
2973.90632	6893.4625
2976.35131	6875.1625
2978.7948	6850.5625
2981.23681	6852.4625
2983.67732	6842.6625
2986.11635	6826.0625
2988.55388	6801.9625
2990.98993	6797.3625
2993.4245	6779.4625
2995.85758	6767.2625
2998.28917	6754.3625
3000.71928	6748.6625
3003.14791	6710.3625
3005.57506	6716.0625
3008.00073	6701.3625
3010.42493	6704.2625
3012.84764	6699.9625
3015.26888	6685.3625
3017.68865	6683.1625
3020.10694	6662.4625
3022.52376	6656.1625
3024.9391	6639.3625
3027.35298	6638.7625
3029.76539	6616.7625
3032.17632	6623.9625
3034.5858	6612.5625
3036.9938	6614.0625
3039.40034	6596.0625
3041.80542	6596.8625
3044.20903	6594.2625
3046.61118	6594.0625
3049.01187	6570.2625
3051.4111	6588.3625
3053.80888	6566.6625
3056.20519	6548.3625
3058.60005	6560.2625
3060.99345	6517.4625
3063.3854	6481.7625
3065.7759	6489.6625
3068.16494	6479.4625
3070.55254	6453.6625
3072.93868	6435.6625
