Data from AgNPs_FTO_APTES_UA_1uM_CRN_1uM_R6G_10uM_NaF_0.1M_Addition_RamanShift__24__12-40-09-510.txt Node

Date: Thu Jan 27 12:40:09 GMT 2022
User: TCL
Spectrometer: QEP01345
Trigger mode: 4
Integration Time (sec): 7.000000E0
Scans to average: 10
Electric dark correction enabled: true
Nonlinearity correction enabled: false
Boxcar width: 0
XAxis mode: Raman Shifts
Number of Pixels in Spectrum: 1044
>>>>>Begin Spectral Data<<<<<
46.04893	0.5125
50.45542	1.0125
54.85868	-1.9875
59.25871	-1.5875
63.6555	64.6125
68.04907	64.6125
72.43941	67.5125
76.82654	73.5125
81.21044	76.4125
85.59113	76.3125
89.96862	80.4125
94.34289	83.7125
98.71396	86.3125
103.08183	82.0125
107.4465	90.4125
111.80798	92.9125
116.16626	95.6125
120.52136	99.9125
124.87327	104.2125
129.222	101.7125
133.56755	108.7125
137.90993	118.4125
142.24913	127.3125
146.58517	142.6125
150.91804	163.0125
155.24774	189.2125
159.57429	230.0125
163.89768	293.9125
168.21792	386.8125
172.53501	523.6125
176.84895	721.9125
181.15975	1015.6125
185.46741	1416.8125
189.77193	1939.1125
194.07331	2601.9125
198.37157	3375.9125
202.6667	4159.6125
206.9587	4957.1125
211.24758	5748.7125
215.53334	6518.4125
219.81599	7385.7125
224.09553	8331.1125
228.37195	9395.2125
232.64527	10558.4125
236.91549	11755.4125
241.18261	12952.7125
245.44663	14026.5125
249.70755	14951.8125
253.96539	15802.7125
258.22014	16530.2125
262.4718	17118.6125
266.72039	17581.8125
270.96589	17856.3125
275.20832	17878.7125
279.44768	17757.6125
283.68397	17587.4125
287.91719	17406.8125
292.14735	17315.0125
296.37445	17391.0125
300.59849	17588.1125
304.81948	17848.4125
309.03742	18030.7125
313.25231	17930.6125
317.46415	17435.9125
321.67296	16721.2125
325.87872	16113.5125
330.08145	15878.5125
334.28114	15875.1125
338.47781	16073.4125
342.67145	16356.7125
346.86207	16806.2125
351.04966	17349.1125
355.23424	17980.7125
359.4158	18579.3125
363.59435	18900.2125
367.76989	19110.2125
371.94243	19248.7125
376.11196	19255.8125
380.27849	19302.4125
384.44203	19326.0125
388.60257	19369.9125
392.76012	19411.7125
396.91468	19678.4125
401.06626	20057.9125
405.21485	20383.5125
409.36047	20338.8125
413.50311	19864.5125
417.64277	19504.6125
421.77947	19314.9125
425.9132	19328.9125
430.04396	19400.9125
434.17176	19531.3125
438.2966	19808.2125
442.41849	20206.3125
446.53742	20849.1125
450.6534	21501.2125
454.76644	22028.1125
458.87653	22220.9125
462.98368	22078.1125
467.08789	21672.6125
471.18916	21161.8125
475.2875	20684.6125
479.38291	20315.3125
483.4754	20154.8125
487.56496	19926.0125
491.6516	19715.4125
495.73531	19509.6125
499.81612	19412.1125
503.89401	19503.4125
507.96899	19614.9125
512.04106	19683.9125
516.11023	19749.5125
520.1765	19805.9125
524.23987	19738.3125
528.30034	19547.5125
532.35792	19276.4125
536.41261	18990.2125
540.46441	18762.1125
544.51333	18688.6125
548.55936	18855.8125
552.60252	19191.7125
556.64279	19536.9125
560.6802	19638.9125
564.71473	19789.0125
568.7464	20102.6125
572.7752	20507.7125
576.80114	20620.7125
580.82422	20597.9125
584.84444	20818.0125
588.86181	21084.4125
592.87633	21472.6125
596.888	21847.7125
600.89682	22223.1125
604.9028	23313.2125
608.90594	26340.3125
612.90624	30093.3125
616.90371	29070.1125
620.89834	23580.7125
624.89015	21015.5125
628.87913	20614.5125
632.86528	20536.3125
636.84862	20223.4125
640.82913	19809.8125
644.80683	19255.7125
648.78172	18824.9125
652.75379	18799.7125
656.72306	19129.9125
660.68952	19704.9125
664.65319	19704.4125
668.61405	19265.5125
672.57211	18998.9125
676.52738	18973.2125
680.47986	18945.0125
684.42955	18885.1125
688.37646	18901.5125
692.32058	18947.2125
696.26192	19071.9125
700.20048	19280.7125
704.13626	19439.0125
708.06928	19299.0125
711.99952	19108.0125
715.927	19048.2125
719.85171	19068.3125
723.77365	19036.6125
727.69284	18825.8125
731.60928	18709.1125
735.52295	18721.3125
739.43388	18819.0125
743.34206	18959.3125
747.24749	19045.8125
751.15017	19222.3125
755.05012	19508.7125
758.94733	20116.0125
762.8418	21138.1125
766.73354	22918.9125
770.62254	24855.1125
774.50882	25721.0125
778.39237	24820.1125
782.27321	22797.0125
786.15132	20879.7125
790.02671	19798.8125
793.89938	19339.3125
797.76935	19225.6125
801.6366	19120.9125
805.50115	19031.7125
809.36299	18917.6125
813.22213	18826.2125
817.07857	18755.1125
820.93231	18764.4125
824.78336	18794.1125
828.63172	18869.0125
832.47738	18954.0125
836.32036	19043.4125
840.16066	19119.5125
843.99827	19198.0125
847.8332	19192.0125
851.66546	19035.8125
855.49504	18939.8125
859.32195	18928.4125
863.1462	18835.5125
866.96777	18695.9125
870.78668	18613.6125
874.60293	18642.2125
878.41652	18666.6125
882.22745	18784.1125
886.03573	18832.5125
889.84136	18790.9125
893.64433	18693.2125
897.44466	18649.6125
901.24235	18593.3125
905.0374	18558.1125
908.8298	18529.5125
912.61957	18539.0125
916.40671	18710.2125
920.19121	18937.0125
923.97308	19243.7125
927.75233	19492.2125
931.52895	19600.4125
935.30295	19469.8125
939.07433	19069.5125
942.84309	18742.8125
946.60924	18597.2125
950.37278	18483.5125
954.13371	18373.1125
957.89203	18180.0125
961.64774	18096.6125
965.40086	18022.0125
969.15137	17898.4125
972.89929	17873.1125
976.64461	17832.2125
980.38733	17895.4125
984.12747	18033.3125
987.86502	18274.7125
991.59999	18620.5125
995.33237	19093.3125
999.06217	19893.9125
1002.78939	20859.3125
1006.51404	21366.2125
1010.23611	21532.2125
1013.95561	21726.9125
1017.67255	21781.8125
1021.38692	21568.6125
1025.09872	21493.0125
1028.80796	21865.1125
1032.51465	22856.4125
1036.21877	23775.1125
1039.92035	23832.4125
1043.61937	23210.9125
1047.31584	22202.9125
1051.00976	21150.5125
1054.70114	20547.9125
1058.38998	20310.7125
1062.07627	20282.1125
1065.76003	20260.5125
1069.44126	20304.6125
1073.11995	20408.9125
1076.79611	20582.0125
1080.46974	20735.4125
1084.14085	20927.3125
1087.80943	21182.0125
1091.47549	21266.0125
1095.13903	21091.4125
1098.80005	20665.2125
1102.45857	20238.2125
1106.11456	20020.7125
1109.76805	20114.3125
1113.41903	20330.0125
1117.06751	20576.9125
1120.71348	20889.6125
1124.35696	21242.5125
1127.99793	21533.5125
1131.63641	21673.6125
1135.2724	21311.0125
1138.90589	20877.5125
1142.5369	20572.5125
1146.16542	20382.6125
1149.79145	20278.9125
1153.415	20320.5125
1157.03607	20465.6125
1160.65467	20813.6125
1164.27079	21373.8125
1167.88443	22263.6125
1171.49561	23660.5125
1175.10432	25716.7125
1178.71056	28328.2125
1182.31434	30817.8125
1185.91565	32219.0125
1189.51451	32256.5125
1193.11091	30945.6125
1196.70485	29024.9125
1200.29634	27328.6125
1203.88538	26102.6125
1207.47197	25054.3125
1211.05612	24311.6125
1214.63782	23970.6125
1218.21708	23884.0125
1221.79391	24176.7125
1225.36829	24474.6125
1228.94024	24550.8125
1232.50976	24276.0125
1236.07685	23976.4125
1239.6415	23762.6125
1243.20374	23628.2125
1246.76355	23638.6125
1250.32093	23960.8125
1253.8759	24543.6125
1257.42845	25308.1125
1260.97859	26062.2125
1264.52631	26578.6125
1268.07163	27248.1125
1271.61453	28012.1125
1275.15503	28900.4125
1278.69312	29802.5125
1282.22882	30574.5125
1285.76211	31218.2125
1289.29301	31736.3125
1292.82151	32411.3125
1296.34761	33256.5125
1299.87133	34645.1125
1303.39266	36710.4125
1306.9116	39592.7125
1310.42815	42798.6125
1313.94233	44924.5125
1317.45412	44879.8125
1320.96354	43262.4125
1324.47058	41158.5125
1327.97525	39325.0125
1331.47754	38133.1125
1334.97747	37588.2125
1338.47502	37648.9125
1341.97022	37951.2125
1345.46305	38033.3125
1348.95352	37967.2125
1352.44163	38166.4125
1355.92738	39337.0125
1359.41078	42038.6125
1362.89183	45027.0125
1366.37053	44630.8125
1369.84688	40368.3125
1373.32088	35338.0125
1376.79254	31895.7125
1380.26186	30239.0125
1383.72883	29576.7125
1387.19347	29196.3125
1390.65578	28678.4125
1394.11575	28431.9125
1397.57339	28662.2125
1401.0287	29167.9125
1404.48168	29805.6125
1407.93234	30359.4125
1411.38068	30728.9125
1414.82669	30607.3125
1418.27039	29962.9125
1421.71177	29047.6125
1425.15083	28244.6125
1428.58758	27808.5125
1432.02203	27764.1125
1435.45416	28047.9125
1438.88399	28309.2125
1442.31151	28515.8125
1445.73673	28715.6125
1449.15965	28825.0125
1452.58027	28848.1125
1455.9986	28684.3125
1459.41463	28636.2125
1462.82837	28847.5125
1466.23982	29301.6125
1469.64898	29821.5125
1473.05586	30225.6125
1476.46045	30368.7125
1479.86276	30573.1125
1483.26279	30750.4125
1486.66054	30994.6125
1490.05602	31393.3125
1493.44922	31936.1125
1496.84016	32594.2125
1500.22882	33303.4125
1503.61521	34311.5125
1506.99934	35775.9125
1510.38121	37435.2125
1513.76081	38406.1125
1517.13816	37672.2125
1520.51324	35614.6125
1523.88607	33258.4125
1527.25665	31589.9125
1530.62498	30539.1125
1533.99105	29804.8125
1537.35488	29419.2125
1540.71647	29206.8125
1544.07581	29036.7125
1547.4329	28788.8125
1550.78776	28547.2125
1554.14038	28319.0125
1557.49077	28355.8125
1560.83892	28405.4125
1564.18484	28441.2125
1567.52853	28431.6125
1570.86999	28392.8125
1574.20922	28512.9125
1577.54624	28545.5125
1580.88103	28339.2125
1584.2136	28098.1125
1587.54395	28552.2125
1590.87208	29972.2125
1594.19801	32139.9125
1597.52172	34523.3125
1600.84321	35792.3125
1604.16251	34734.8125
1607.47959	32082.3125
1610.79447	29141.0125
1614.10715	26581.0125
1617.41763	24643.7125
1620.7259	23440.8125
1624.03199	22914.0125
1627.33587	23079.2125
1630.63757	23741.2125
1633.93707	25124.7125
1637.23439	26926.1125
1640.52951	29117.6125
1643.82246	31416.2125
1647.11321	33012.3125
1650.40179	33375.8125
1653.68819	31726.7125
1656.97241	28275.6125
1660.25446	24776.1125
1663.53433	22153.3125
1666.81203	20504.7125
1670.08756	19566.7125
1673.36092	18952.5125
1676.63211	18612.8125
1679.90115	18320.6125
1683.16801	18098.7125
1686.43272	17936.4125
1689.69527	17856.2125
1692.95567	17732.3125
1696.2139	17652.0125
1699.46999	17582.7125
1702.72392	17546.2125
1705.97571	17564.0125
1709.22535	17592.8125
1712.47284	17640.5125
1715.71819	17673.9125
1718.96139	17620.0125
1722.20246	17608.1125
1725.44139	17533.1125
1728.67818	17457.1125
1731.91284	17349.0125
1735.14537	17274.1125
1738.37576	17239.3125
1741.60403	17182.3125
1744.83017	17119.4125
1748.05418	17063.5125
1751.27607	17045.4125
1754.49584	17023.3125
1757.71349	16945.7125
1760.92903	16954.9125
1764.14244	16964.2125
1767.35375	16968.0125
1770.56294	16970.0125
1773.77002	16948.7125
1776.97499	16942.9125
1780.17785	16906.1125
1783.37861	16947.3125
1786.57727	16979.3125
1789.77382	16929.5125
1792.96828	16937.2125
1796.16064	16894.5125
1799.3509	16890.3125
1802.53907	16891.6125
1805.72514	16820.7125
1808.90913	16836.0125
1812.09102	16805.6125
1815.27083	16764.0125
1818.44856	16763.6125
1821.6242	16734.1125
1824.79776	16728.2125
1827.96924	16717.5125
1831.13864	16688.6125
1834.30597	16670.7125
1837.47122	16693.0125
1840.6344	16708.1125
1843.7955	16724.2125
1846.95454	16726.9125
1850.11151	16764.2125
1853.26642	16721.8125
1856.41926	16745.8125
1859.57004	16750.3125
1862.71876	16772.5125
1865.86542	16775.9125
1869.01003	16793.5125
1872.15258	16793.4125
1875.29308	16792.1125
1878.43152	16762.1125
1881.56792	16812.3125
1884.70227	16815.3125
1887.83457	16842.2125
1890.96482	16805.0125
1894.09304	16783.1125
1897.21921	16792.1125
1900.34335	16825.4125
1903.46544	16818.2125
1906.58551	16867.5125
1909.70353	16790.3125
1912.81953	16830.4125
1915.93349	16804.0125
1919.04543	16804.6125
1922.15534	16749.2125
1925.26322	16724.1125
1928.36908	16654.9125
1931.47292	16616.2125
1934.57473	16563.1125
1937.67453	16537.2125
1940.77232	16476.9125
1943.86808	16393.7125
1946.96184	16354.5125
1950.05358	16275.0125
1953.14331	16194.8125
1956.23103	16162.6125
1959.31675	16126.1125
1962.40046	16044.0125
1965.48217	16012.2125
1968.56188	15969.7125
1971.63959	15948.4125
1974.7153	15898.8125
1977.78901	15812.3125
1980.86073	15775.0125
1983.93046	15745.4125
1986.99819	15688.0125
1990.06394	15649.7125
1993.1277	15619.5125
1996.18947	15542.0125
1999.24925	15535.3125
2002.30706	15470.5125
2005.36288	15427.2125
2008.41672	15400.9125
2011.46859	15363.6125
2014.51848	15307.7125
2017.56639	15282.7125
2020.61233	15245.8125
2023.6563	15219.9125
2026.6983	15194.2125
2029.73833	15168.6125
2032.7764	15152.0125
2035.8125	15150.7125
2038.84664	15072.7125
2041.87881	15107.9125
2044.90903	15058.6125
2047.93729	15038.6125
2050.96359	15026.8125
2053.98794	14998.5125
2057.01034	15005.2125
2060.03078	14970.2125
2063.04927	14958.4125
2066.06582	14991.2125
2069.08042	14959.3125
2072.09307	14936.4125
2075.10378	14922.8125
2078.11255	14940.2125
2081.11938	14916.7125
2084.12426	14902.7125
2087.12722	14894.4125
2090.12824	14884.3125
2093.12732	14880.1125
2096.12447	14841.4125
2099.11969	14851.9125
2102.11299	14876.9125
2105.10435	14882.6125
2108.09379	14869.2125
2111.08131	14888.5125
2114.0669	14890.1125
2117.05057	14925.1125
2120.03233	14908.0125
2123.01216	14919.5125
2125.99008	14924.0125
2128.96609	14940.1125
2131.94018	14937.1125
2134.91236	14943.1125
2137.88263	14945.1125
2140.851	14959.6125
2143.81746	14986.6125
2146.78201	15016.7125
2149.74466	15018.0125
2152.7054	15021.0125
2155.66425	15032.2125
2158.6212	15000.7125
2161.57625	15031.6125
2164.52941	14997.2125
2167.48067	14976.0125
2170.43004	15007.9125
2173.37752	14991.8125
2176.32311	15018.3125
2179.26681	14992.2125
2182.20863	14973.4125
2185.14856	14999.7125
2188.08661	15047.1125
2191.02278	15037.8125
2193.95707	15010.8125
2196.88948	15058.4125
2199.82001	15041.5125
2202.74867	15016.5125
2205.67545	15044.2125
2208.60037	15028.7125
2211.52341	15027.9125
2214.44458	15017.1125
2217.36388	14974.0125
2220.28132	14996.4125
2223.1969	14959.8125
2226.11061	14937.0125
2229.02246	14906.4125
2231.93245	14894.0125
2234.84058	14878.9125
2237.74686	14814.3125
2240.65128	14802.0125
2243.55385	14792.0125
2246.45456	14751.5125
2249.35343	14778.4125
2252.25044	14735.3125
2255.14561	14701.9125
2258.03893	14708.6125
2260.93041	14687.0125
2263.82004	14680.4125
2266.70783	14602.7125
2269.59378	14578.4125
2272.4779	14562.3125
2275.36017	14528.4125
2278.24061	14518.8125
2281.11922	14468.5125
2283.996	14457.9125
2286.87094	14431.0125
2289.74405	14414.6125
2292.61534	14413.8125
2295.4848	14422.5125
2298.35243	14420.5125
2301.21824	14454.5125
2304.08223	14449.4125
2306.94439	14482.5125
2309.80474	14462.0125
2312.66327	14463.3125
2315.51999	14493.5125
2318.37489	14541.7125
2321.22797	14495.0125
2324.07925	14496.0125
2326.92871	14469.5125
2329.77637	14472.2125
2332.62222	14478.8125
2335.46626	14443.9125
2338.3085	14461.3125
2341.14893	14495.9125
2343.98756	14493.1125
2346.8244	14528.4125
2349.65943	14517.6125
2352.49267	14479.9125
2355.32411	14505.7125
2358.15376	14477.7125
2360.98161	14448.4125
2363.80768	14437.6125
2366.63195	14426.0125
2369.45444	14368.7125
2372.27514	14356.7125
2375.09405	14335.3125
2377.91118	14268.2125
2380.72652	14235.6125
2383.54009	14215.9125
2386.35187	14196.0125
2389.16188	14160.8125
2391.97011	14125.0125
2394.77657	14113.2125
2397.58125	14114.6125
2400.38416	14071.4125
2403.18529	14036.5125
2405.98466	14019.2125
2408.78226	13986.5125
2411.57809	13964.0125
2414.37216	13932.0125
2417.16446	13928.3125
2419.955	13903.5125
2422.74378	13866.8125
2425.5308	13878.0125
2428.31606	13867.0125
2431.09956	13861.3125
2433.88131	13819.5125
2436.6613	13853.3125
2439.43954	13818.0125
2442.21603	13862.2125
2444.99077	13836.2125
2447.76377	13858.1125
2450.53501	13827.0125
2453.30451	13826.4125
2456.07226	13840.2125
2458.83827	13800.2125
2461.60254	13774.6125
2464.36507	13795.6125
2467.12586	13798.4125
2469.88492	13801.2125
2472.64224	13806.5125
2475.39782	13834.5125
2478.15167	13828.4125
2480.90379	13797.8125
2483.65417	13849.9125
2486.40283	13863.9125
2489.14976	13880.9125
2491.89497	13853.0125
2494.63845	13937.2125
2497.3802	13882.5125
2500.12024	13888.4125
2502.85855	13875.9125
2505.59514	13874.8125
2508.33002	13855.2125
2511.06318	13813.7125
2513.79462	13791.0125
2516.52435	13795.6125
2519.25237	13787.0125
2521.97867	13761.6125
2524.70327	13763.0125
2527.42616	13741.6125
2530.14734	13723.9125
2532.86681	13717.1125
2535.58458	13745.7125
2538.30065	13730.5125
2541.01501	13738.2125
2543.72768	13722.9125
2546.43864	13739.6125
2549.14791	13676.9125
2551.85548	13697.3125
2554.56136	13658.6125
2557.26554	13648.8125
2559.96803	13625.9125
2562.66883	13607.5125
2565.36794	13617.5125
2568.06536	13626.3125
2570.7611	13613.2125
2573.45514	13562.8125
2576.14751	13591.1125
2578.83819	13570.6125
2581.52719	13585.8125
2584.21451	13602.4125
2586.90015	13588.1125
2589.58411	13578.6125
2592.2664	13587.1125
2594.94701	13565.9125
2597.62594	13553.7125
2600.30321	13546.1125
2602.9788	13526.9125
2605.65273	13527.9125
2608.32498	13552.1125
2610.99557	13497.4125
2613.66449	13531.6125
2616.33175	13543.8125
2618.99734	13558.8125
2621.66128	13563.9125
2624.32355	13524.2125
2626.98416	13565.7125
2629.64311	13554.8125
2632.30041	13571.2125
2634.95605	13544.6125
2637.61004	13519.8125
2640.26238	13465.1125
2642.91306	13456.0125
2645.56209	13437.7125
2648.20948	13442.4125
2650.85521	13413.0125
2653.4993	13419.1125
2656.14175	13399.9125
2658.78255	13426.4125
2661.42171	13429.0125
2664.05923	13458.5125
2666.6951	13471.6125
2669.32934	13537.1125
2671.96194	13498.2125
2674.59291	13496.4125
2677.22224	13489.2125
2679.84993	13486.0125
2682.476	13456.0125
2685.10043	13465.4125
2687.72324	13446.9125
2690.34441	13449.3125
2692.96396	13425.1125
2695.58188	13423.0125
2698.19818	13400.2125
2700.81285	13423.6125
2703.4259	13410.1125
2706.03733	13382.6125
2708.64714	13372.5125
2711.25533	13390.6125
2713.86191	13409.9125
2716.46687	13425.1125
2719.07021	13387.5125
2721.67194	13407.2125
2724.27206	13421.8125
2726.87057	13468.0125
2729.46747	13444.0125
2732.06276	13434.6125
2734.65644	13410.9125
2737.24852	13437.5125
2739.83899	13413.3125
2742.42786	13426.2125
2745.01513	13399.0125
2747.60079	13422.0125
2750.18486	13404.4125
2752.76733	13406.9125
2755.3482	13365.4125
2757.92747	13390.1125
2760.50515	13392.7125
2763.08123	13378.5125
2765.65573	13387.8125
2768.22863	13389.3125
2770.79994	13367.4125
2773.36967	13361.9125
2775.9378	13378.2125
2778.50435	13369.5125
2781.06932	13354.8125
2783.6327	13341.8125
2786.1945	13352.2125
2788.75471	13339.2125
2791.31335	13289.7125
2793.87041	13293.9125
2796.42589	13250.9125
2798.97979	13254.3125
2801.53212	13246.1125
2804.08288	13233.6125
2806.63206	13180.3125
2809.17967	13140.1125
2811.72571	13160.8125
2814.27018	13120.3125
2816.81308	13112.2125
2819.35442	13089.8125
2821.89419	13094.0125
2824.43239	13099.4125
2826.96904	13099.3125
2829.50412	13100.1125
2832.03763	13089.0125
2834.56959	13090.6125
2837.1	13104.1125
2839.62884	13097.9125
2842.15613	13064.3125
2844.68186	13111.5125
2847.20604	13101.1125
2849.72867	13121.8125
2852.24974	13115.9125
2854.76927	13098.0125
2857.28724	13097.0125
2859.80367	13082.7125
2862.31855	13034.0125
2864.83189	13014.2125
2867.34368	12994.4125
2869.85393	13006.6125
2872.36264	12993.5125
2874.8698	12999.7125
2877.37543	13011.5125
2879.87952	13006.1125
2882.38207	12997.9125
2884.88308	13010.6125
2887.38256	12997.8125
2889.88051	13010.9125
2892.37692	13007.4125
2894.8718	13000.7125
2897.36515	13047.1125
2899.85698	13038.7125
2902.34727	13057.1125
2904.83604	13070.2125
2907.32328	13111.0125
2909.809	13109.5125
2912.29319	13088.8125
2914.77587	13077.4125
2917.25702	13090.3125
2919.73665	13046.3125
2922.21476	13042.4125
2924.69136	13051.8125
2927.16644	13012.9125
2929.64	13019.7125
2932.11205	12983.2125
2934.58258	12963.3125
2937.05161	12973.7125
2939.51912	12959.5125
2941.98513	12961.3125
2944.44962	12933.4125
2946.91261	12889.8125
2949.37409	12892.4125
2951.83407	12855.5125
2954.29254	12874.9125
2956.74951	12845.6125
2959.20498	12845.9125
2961.65895	12831.7125
2964.11142	12801.6125
2966.56239	12791.7125
2969.01186	12783.2125
2971.45984	12733.9125
2973.90632	12735.6125
2976.35131	12673.9125
2978.7948	12670.8125
2981.23681	12630.0125
2983.67732	12619.1125
2986.11635	12590.5125
2988.55388	12568.8125
2990.98993	12514.2125
2993.4245	12475.8125
2995.85758	12454.2125
2998.28917	12441.8125
3000.71928	12414.6125
3003.14791	12395.5125
3005.57506	12408.2125
3008.00073	12359.1125
3010.42493	12358.9125
3012.84764	12321.8125
3015.26888	12330.0125
3017.68865	12294.5125
3020.10694	12284.8125
3022.52376	12291.0125
3024.9391	12263.9125
