Data from AgNPs_FTO_APTES_UA_1uM_CRN_0uM_R6G_10uM_NaF_0.1M_Addition_RamanShift__19__11-27-49-427.txt Node

Date: Thu Jan 27 11:27:49 GMT 2022
User: TCL
Spectrometer: QEP01345
Trigger mode: 4
Integration Time (sec): 7.000000E0
Scans to average: 10
Electric dark correction enabled: true
Nonlinearity correction enabled: false
Boxcar width: 0
XAxis mode: Raman Shifts
Number of Pixels in Spectrum: 1044
>>>>>Begin Spectral Data<<<<<
46.04893	-0.3
50.45542	0.3
54.85868	-1.6
59.25871	0.1
63.6555	27.1
68.04907	25.5
72.43941	28.6
76.82654	32.3
81.21044	34.1
85.59113	34.6
89.96862	34.2
94.34289	38.5
98.71396	42.4
103.08183	36.1
107.4465	42.6
111.80798	41.2
116.16626	39.1
120.52136	42.7
124.87327	44.2
129.222	37
133.56755	37.7
137.90993	42
142.24913	43.4
146.58517	45.4
150.91804	44.7
155.24774	53.1
159.57429	57.5
163.89768	66.6
168.21792	78.7
172.53501	99.8
176.84895	130
181.15975	172.8
185.46741	230.2
189.77193	310.6
194.07331	410.5
198.37157	520.5
202.6667	639.1
206.9587	750.3
211.24758	859.9
215.53334	966.5
219.81599	1104.4
224.09553	1240.5
228.37195	1403.8
232.64527	1582.2
236.91549	1754
241.18261	1910.1
245.44663	2042.2
249.70755	2153
253.96539	2238.9
258.22014	2290.9
262.4718	2352.2
266.72039	2391.5
270.96589	2413.9
275.20832	2406.9
279.44768	2359.4
283.68397	2291.2
287.91719	2255.9
292.14735	2240.8
296.37445	2268
300.59849	2353.2
304.81948	2481.1
309.03742	2546.9
313.25231	2529.1
317.46415	2397.9
321.67296	2197.1
325.87872	2046.1
330.08145	1962.2
334.28114	1944.4
338.47781	1992.7
342.67145	2044
346.86207	2159.3
351.04966	2299.5
355.23424	2476.2
359.4158	2609.2
363.59435	2692.9
367.76989	2739.8
371.94243	2754.1
376.11196	2740
380.27849	2744.4
384.44203	2701.3
388.60257	2643.1
392.76012	2597
396.91468	2594.6
401.06626	2641.4
405.21485	2684
409.36047	2625.4
413.50311	2448.8
417.64277	2296.7
421.77947	2203.8
425.9132	2139.2
430.04396	2133.1
434.17176	2138.7
438.2966	2173.9
442.41849	2245.2
446.53742	2315.5
450.6534	2367.3
454.76644	2428.3
458.87653	2421.1
462.98368	2407
467.08789	2369
471.18916	2324.6
475.2875	2272.7
479.38291	2233.3
483.4754	2201.8
487.56496	2168.4
491.6516	2150.2
495.73531	2141
499.81612	2152.8
503.89401	2181.1
507.96899	2226.4
512.04106	2279.8
516.11023	2340.6
520.1765	2426
524.23987	2414.9
528.30034	2358.7
532.35792	2273.8
536.41261	2201
540.46441	2118.6
544.51333	2096.5
548.55936	2086.2
552.60252	2109.2
556.64279	2164.3
560.6802	2182.4
564.71473	2212.2
568.7464	2285
572.7752	2331.4
576.80114	2236
580.82422	2109.9
584.84444	2061.5
588.86181	2055.2
592.87633	2072.3
596.888	2092.8
600.89682	2170.1
604.9028	2435.3
608.90594	3208.1
612.90624	4358.5
616.90371	4421.9
620.89834	3078.9
624.89015	2343
628.87913	2163.5
632.86528	2152.3
636.84862	2186
640.82913	2189
644.80683	2100.5
648.78172	2039.5
652.75379	2051.4
656.72306	2167.8
660.68952	2309.7
664.65319	2266.1
668.61405	2089.4
672.57211	1981.2
676.52738	1975.4
680.47986	1980.3
684.42955	1987.4
688.37646	1970
692.32058	1974.6
696.26192	2003.3
700.20048	2023.2
704.13626	2049.6
708.06928	2030.6
711.99952	1997.2
715.927	1993.8
719.85171	2001.8
723.77365	2014.6
727.69284	2002.3
731.60928	1982.8
735.52295	1984
739.43388	1992
743.34206	2006.9
747.24749	1999.4
751.15017	2012.3
755.05012	2042.8
758.94733	2130.7
762.8418	2339.8
766.73354	2740.3
770.62254	3230.1
774.50882	3634.1
778.39237	3593.1
782.27321	3115.9
786.15132	2573
790.02671	2251
793.89938	2136.8
797.76935	2082.4
801.6366	2058.9
805.50115	2054.3
809.36299	2052.8
813.22213	2040.1
817.07857	2039.5
820.93231	2029.8
824.78336	2027.8
828.63172	2033.3
832.47738	2031.8
836.32036	2022.5
840.16066	2017.1
843.99827	1999.7
847.8332	1993.1
851.66546	1997.9
855.49504	2003.1
859.32195	1994.9
863.1462	1975.6
866.96777	1960.7
870.78668	1947.2
874.60293	1952.3
878.41652	1954.6
882.22745	1969.8
886.03573	1999.5
889.84136	1981
893.64433	1990.7
897.44466	1993.9
901.24235	1989
905.0374	1970.3
908.8298	1949.1
912.61957	1944
916.40671	1957.6
920.19121	1970.4
923.97308	1983.1
927.75233	2024.6
931.52895	2055.2
935.30295	2050.9
939.07433	2006.2
942.84309	1951.4
946.60924	1910.6
950.37278	1893.9
954.13371	1860.1
957.89203	1841.1
961.64774	1829.1
965.40086	1823.2
969.15137	1803.8
972.89929	1796.6
976.64461	1790
980.38733	1782.8
984.12747	1777.9
987.86502	1783.9
991.59999	1783.5
995.33237	1801.3
999.06217	1812.1
1002.78939	1831.8
1006.51404	1853.3
1010.23611	1889.2
1013.95561	1909.9
1017.67255	1908.7
1021.38692	1893.7
1025.09872	1873.4
1028.80796	1855.6
1032.51465	1861.3
1036.21877	1894.3
1039.92035	1963.1
1043.61937	1990
1047.31584	1973.2
1051.00976	1944.3
1054.70114	1911.3
1058.38998	1872.3
1062.07627	1858.2
1065.76003	1850.9
1069.44126	1853.9
1073.11995	1861.3
1076.79611	1895.9
1080.46974	1940.1
1084.14085	1992.2
1087.80943	2047.7
1091.47549	2054.6
1095.13903	2015.8
1098.80005	1899.5
1102.45857	1826.4
1106.11456	1817
1109.76805	1835.9
1113.41903	1907.4
1117.06751	1999.6
1120.71348	2095.8
1124.35696	2219.6
1127.99793	2337.9
1131.63641	2330.6
1135.2724	2190.5
1138.90589	2027.2
1142.5369	1930.1
1146.16542	1856.5
1149.79145	1799.3
1153.415	1775.7
1157.03607	1793
1160.65467	1831.4
1164.27079	1892.8
1167.88443	1995.2
1171.49561	2161.3
1175.10432	2453.8
1178.71056	2907.3
1182.31434	3275.2
1185.91565	3388.9
1189.51451	3294.9
1193.11091	3048.4
1196.70485	2771.6
1200.29634	2548.3
1203.88538	2383.3
1207.47197	2186.5
1211.05612	1996.5
1214.63782	1884.9
1218.21708	1840.9
1221.79391	1823.6
1225.36829	1818.2
1228.94024	1802.1
1232.50976	1802.1
1236.07685	1809.3
1239.6415	1818.9
1243.20374	1847.6
1246.76355	1855.3
1250.32093	1878.6
1253.8759	1911
1257.42845	1960.4
1260.97859	2037.5
1264.52631	2121.6
1268.07163	2206.3
1271.61453	2281.5
1275.15503	2316.3
1278.69312	2316.9
1282.22882	2279.4
1285.76211	2303.3
1289.29301	2384.3
1292.82151	2492.8
1296.34761	2598.8
1299.87133	2742.2
1303.39266	2991.7
1306.9116	3366.4
1310.42815	3807.7
1313.94233	4051.8
1317.45412	3922.8
1320.96354	3524.1
1324.47058	3112.6
1327.97525	2725
1331.47754	2491.5
1334.97747	2391.9
1338.47502	2418.3
1341.97022	2495.4
1345.46305	2671.2
1348.95352	2971.1
1352.44163	3441.4
1355.92738	4033.1
1359.41078	4841.4
1362.89183	5573.9
1366.37053	5548
1369.84688	4682.6
1373.32088	3711.4
1376.79254	3031.2
1380.26186	2643.8
1383.72883	2450.9
1387.19347	2280
1390.65578	2117.3
1394.11575	1983.6
1397.57339	1898.1
1401.0287	1848.9
1404.48168	1831.8
1407.93234	1822.6
1411.38068	1829.3
1414.82669	1848.1
1418.27039	1857.8
1421.71177	1875.2
1425.15083	1879.7
1428.58758	1887.8
1432.02203	1909.6
1435.45416	1941.3
1438.88399	1967.8
1442.31151	1957.1
1445.73673	1959.4
1449.15965	1941.4
1452.58027	1927.2
1455.9986	1874.5
1459.41463	1846.6
1462.82837	1850
1466.23982	1876.3
1469.64898	1907.8
1473.05586	1942.2
1476.46045	1974.2
1479.86276	2004.8
1483.26279	2055.5
1486.66054	2122.6
1490.05602	2196.9
1493.44922	2335.5
1496.84016	2570.8
1500.22882	2973.6
1503.61521	3537.5
1506.99934	4187.1
1510.38121	4776
1513.76081	5045.7
1517.13816	4700.6
1520.51324	3928.6
1523.88607	3146
1527.25665	2623.9
1530.62498	2338.4
1533.99105	2205.8
1537.35488	2110
1540.71647	2069.5
1544.07581	2061.3
1547.4329	2075.5
1550.78776	2103.9
1554.14038	2123.6
1557.49077	2156.5
1560.83892	2210.4
1564.18484	2265
1567.52853	2403.9
1570.86999	2542.1
1574.20922	2679.8
1577.54624	2697.2
1580.88103	2541.1
1584.2136	2234.4
1587.54395	2013
1590.87208	1948.2
1594.19801	2004.5
1597.52172	2150.1
1600.84321	2240.8
1604.16251	2175.6
1607.47959	2057.3
1610.79447	1925.7
1614.10715	1782.1
1617.41763	1665.4
1620.7259	1589.7
1624.03199	1567.6
1627.33587	1540.2
1630.63757	1557.4
1633.93707	1602.2
1637.23439	1680.4
1640.52951	1820.8
1643.82246	2063.7
1647.11321	2446.8
1650.40179	2809.5
1653.68819	2855.3
1656.97241	2477
1660.25446	2001.5
1663.53433	1650.3
1666.81203	1468.7
1670.08756	1360.4
1673.36092	1309.5
1676.63211	1281.2
1679.90115	1246.1
1683.16801	1225.4
1686.43272	1206
1689.69527	1180
1692.95567	1154.4
1696.2139	1098.6
1699.46999	1058.3
1702.72392	1018
1705.97571	1059.9
1709.22535	1098.6
1712.47284	1125.6
1715.71819	1141.6
1718.96139	1139.9
1722.20246	1149.3
1725.44139	1147.9
1728.67818	1126.2
1731.91284	1112.8
1735.14537	1087.1
1738.37576	1065
1741.60403	1050.8
1744.83017	1028.9
1748.05418	1012
1751.27607	1000.9
1754.49584	987.5
1757.71349	953
1760.92903	930.9
1764.14244	930.1
1767.35375	926.3
1770.56294	916.6
1773.77002	915.4
1776.97499	926.3
1780.17785	946.1
1783.37861	957.3
1786.57727	958.1
1789.77382	961.5
1792.96828	960
1796.16064	953.2
1799.3509	953.6
1802.53907	952.8
1805.72514	945.6
1808.90913	949.2
1812.09102	937.6
1815.27083	932.5
1818.44856	928.6
1821.6242	930.4
1824.79776	919.5
1827.96924	918.4
1831.13864	925
1834.30597	908.6
1837.47122	911.7
1840.6344	905.4
1843.7955	905.4
1846.95454	899
1850.11151	898.1
1853.26642	900.5
1856.41926	888
1859.57004	896.3
1862.71876	895.1
1865.86542	885.5
1869.01003	891.7
1872.15258	881.5
1875.29308	878.4
1878.43152	877.3
1881.56792	881.2
1884.70227	875.5
1887.83457	880
1890.96482	874.2
1894.09304	871
1897.21921	871.4
1900.34335	867.4
1903.46544	859.2
1906.58551	867.6
1909.70353	863.9
1912.81953	860.2
1915.93349	853.3
1919.04543	854.3
1922.15534	850.3
1925.26322	855
1928.36908	839.1
1931.47292	837.4
1934.57473	842.7
1937.67453	847.2
1940.77232	831
1943.86808	830
1946.96184	819.7
1950.05358	818.6
1953.14331	818.6
1956.23103	819.6
1959.31675	809.2
1962.40046	810.7
1965.48217	801.4
1968.56188	802.3
1971.63959	800.8
1974.7153	802.3
1977.78901	801.9
1980.86073	795.1
1983.93046	792.9
1986.99819	785
1990.06394	780.4
1993.1277	778.8
1996.18947	765
1999.24925	775.8
2002.30706	762.9
2005.36288	758.4
2008.41672	764.1
2011.46859	760.7
2014.51848	754.2
2017.56639	755.4
2020.61233	744.6
2023.6563	743
2026.6983	739.8
2029.73833	741
2032.7764	739.1
2035.8125	738.8
2038.84664	731
2041.87881	732.4
2044.90903	730.3
2047.93729	725.5
2050.96359	722.5
2053.98794	721.4
2057.01034	723.3
2060.03078	713.8
2063.04927	719.7
2066.06582	719.8
2069.08042	719
2072.09307	718.5
2075.10378	717
2078.11255	715.3
2081.11938	713.2
2084.12426	713.7
2087.12722	709.6
2090.12824	715
2093.12732	715.7
2096.12447	713.1
2099.11969	711.6
2102.11299	707.5
2105.10435	716.3
2108.09379	709.2
2111.08131	715.9
2114.0669	710.6
2117.05057	708
2120.03233	699.4
2123.01216	703.9
2125.99008	709
2128.96609	705.2
2131.94018	708.3
2134.91236	703.3
2137.88263	703.4
2140.851	701.2
2143.81746	706.9
2146.78201	699.2
2149.74466	698.5
2152.7054	701.1
2155.66425	695.7
2158.6212	693.8
2161.57625	691.7
2164.52941	689.9
2167.48067	688.3
2170.43004	684.2
2173.37752	685.1
2176.32311	687.1
2179.26681	683
2182.20863	692.5
2185.14856	684.4
2188.08661	687.8
2191.02278	685.3
2193.95707	678.6
2196.88948	676.7
2199.82001	680.7
2202.74867	674
2205.67545	669.9
2208.60037	675.9
2211.52341	675.2
2214.44458	666.1
2217.36388	662.4
2220.28132	664
2223.1969	660.7
2226.11061	653.9
2229.02246	659.1
2231.93245	651.6
2234.84058	647.2
2237.74686	646.4
2240.65128	645.2
2243.55385	650.5
2246.45456	644.7
2249.35343	650.6
2252.25044	642.9
2255.14561	642.6
2258.03893	640.4
2260.93041	627.7
2263.82004	635.5
2266.70783	641.5
2269.59378	639.8
2272.4779	636.9
2275.36017	636.5
2278.24061	627.9
2281.11922	631.4
2283.996	630.2
2286.87094	626.5
2289.74405	624.1
2292.61534	619.6
2295.4848	619.9
2298.35243	616.4
2301.21824	617.7
2304.08223	616.8
2306.94439	617.7
2309.80474	610
2312.66327	606.3
2315.51999	606.2
2318.37489	608.7
2321.22797	608.3
2324.07925	603.3
2326.92871	603.1
2329.77637	606.8
2332.62222	602.4
2335.46626	600.6
2338.3085	598.9
2341.14893	603.9
2343.98756	591.3
2346.8244	598.4
2349.65943	594.5
2352.49267	595
2355.32411	593.5
2358.15376	599.4
2360.98161	604.6
2363.80768	608.2
2366.63195	608.5
2369.45444	606.4
2372.27514	608.8
2375.09405	604.5
2377.91118	601.8
2380.72652	604.8
2383.54009	594.6
2386.35187	586.7
2389.16188	584.5
2391.97011	590
2394.77657	579.8
2397.58125	571.5
2400.38416	573.1
2403.18529	572.8
2405.98466	566.8
2408.78226	567.7
2411.57809	566.4
2414.37216	567
2417.16446	562.5
2419.955	556.8
2422.74378	559.9
2425.5308	562
2428.31606	558.2
2431.09956	563.1
2433.88131	558.5
2436.6613	566
2439.43954	566.2
2442.21603	555.1
2444.99077	565.2
2447.76377	562.5
2450.53501	561.7
2453.30451	565.6
2456.07226	557.7
2458.83827	555.5
2461.60254	560.3
2464.36507	562.9
2467.12586	557.1
2469.88492	557.8
2472.64224	554.8
2475.39782	554.5
2478.15167	547.7
2480.90379	558.9
2483.65417	559.7
2486.40283	563
2489.14976	565.5
2491.89497	560.8
2494.63845	561.8
2497.3802	554.6
2500.12024	563.9
2502.85855	562.1
2505.59514	560.8
2508.33002	549.5
2511.06318	552.6
2513.79462	547.8
2516.52435	545.6
2519.25237	540.6
2521.97867	536.5
2524.70327	535.7
2527.42616	532
2530.14734	528.7
2532.86681	532.2
2535.58458	524.7
2538.30065	529.1
2541.01501	534.9
2543.72768	534.3
2546.43864	526.2
2549.14791	533.3
2551.85548	536.5
2554.56136	531.1
2557.26554	534.9
2559.96803	532
2562.66883	528.5
2565.36794	530.2
2568.06536	532.2
2570.7611	528.8
2573.45514	525.8
2576.14751	527.1
2578.83819	529.3
2581.52719	525.5
2584.21451	525
2586.90015	524.4
2589.58411	520.9
2592.2664	519.4
2594.94701	519.7
2597.62594	519.7
2600.30321	514.9
2602.9788	518.1
2605.65273	516.6
2608.32498	512.2
2610.99557	514.7
2613.66449	516.1
2616.33175	516.2
2618.99734	520.9
2621.66128	516.5
2624.32355	511.9
2626.98416	514.7
2629.64311	515.7
2632.30041	515.6
2634.95605	510.9
2637.61004	505.4
2640.26238	504.7
2642.91306	502.4
2645.56209	507.7
2648.20948	505.1
2650.85521	509.6
2653.4993	506.3
2656.14175	513.5
2658.78255	520.5
2661.42171	518.2
2664.05923	521
2666.6951	528.9
2669.32934	525.1
2671.96194	525.3
2674.59291	528.6
2677.22224	529
2679.84993	531.1
2682.476	536.1
2685.10043	537.2
2687.72324	533.7
2690.34441	536.9
2692.96396	543.6
2695.58188	547.9
2698.19818	546.9
2700.81285	548.1
2703.4259	550
2706.03733	531.5
2708.64714	536.2
2711.25533	558.3
2713.86191	568.1
2716.46687	573.3
2719.07021	577.7
2721.67194	583.2
2724.27206	586.4
2726.87057	592.5
2729.46747	591.3
2732.06276	593.6
2734.65644	589
2737.24852	597.7
2739.83899	589.3
2742.42786	595.2
2745.01513	593.8
2747.60079	598.5
2750.18486	605.1
2752.76733	603.6
2755.3482	608.8
2757.92747	613.8
2760.50515	619.9
2763.08123	624.4
2765.65573	627.4
2768.22863	633.7
2770.79994	641.2
2773.36967	640.3
2775.9378	660.6
2778.50435	665.6
2781.06932	674
2783.6327	685
2786.1945	700.1
2788.75471	713.8
2791.31335	721.4
2793.87041	736.8
2796.42589	757.8
2798.97979	771.2
2801.53212	784.8
2804.08288	803.2
2806.63206	820.2
2809.17967	832.5
2811.72571	855
2814.27018	864.1
2816.81308	882.8
2819.35442	890.4
2821.89419	895.7
2824.43239	894.9
2826.96904	900.2
2829.50412	894.3
2832.03763	901.5
2834.56959	904.5
2837.1	909.7
2839.62884	923.3
2842.15613	941.1
2844.68186	986.4
2847.20604	1016.8
2849.72867	1061.4
2852.24974	1074.2
2854.76927	1067.5
2857.28724	1052.8
2859.80367	1040.2
2862.31855	1041.2
2864.83189	1025
2867.34368	1010.2
2869.85393	1013.9
2872.36264	1012.1
2874.8698	998.9
2877.37543	988.9
2879.87952	977.5
2882.38207	975.7
2884.88308	971.7
2887.38256	968.9
2889.88051	957.6
2892.37692	954
2894.8718	959
2897.36515	954.7
2899.85698	951.5
2902.34727	954.8
2904.83604	952.7
2907.32328	944.7
2909.809	942.6
2912.29319	938.9
2914.77587	933.7
2917.25702	932.3
2919.73665	931.3
2922.21476	923
2924.69136	923.8
2927.16644	920.9
2929.64	920
2932.11205	912.4
2934.58258	890.7
2937.05161	868.1
2939.51912	854.4
2941.98513	823.8
2944.44962	793.6
2946.91261	759.5
2949.37409	735.2
2951.83407	707.3
2954.29254	690.4
2956.74951	670.8
2959.20498	652.5
2961.65895	642.7
2964.11142	638.1
2966.56239	623.5
2969.01186	613
2971.45984	602.2
2973.90632	598.3
2976.35131	585.6
2978.7948	583.2
2981.23681	573.8
2983.67732	573.4
2986.11635	561.1
2988.55388	560.7
2990.98993	538
2993.4245	545.1
2995.85758	533.7
2998.28917	533
3000.71928	525.3
3003.14791	524.7
3005.57506	525.9
3008.00073	527.9
3010.42493	525.6
3012.84764	516.6
3015.26888	520.4
3017.68865	523.3
3020.10694	515.3
3022.52376	513
3024.9391	526.5
3027.35298	523.9
3029.76539	525.2
3032.17632	525.7
3034.5858	525.6
3036.9938	527.6
3039.40034	523.7
3041.80542	531.8
3044.20903	528
3046.61118	532.1
3049.01187	533.6
3051.4111	531.5
3053.80888	539.9
3056.20519	535.9
3058.60005	534.8
3060.99345	544.7
3063.3854	545.4
3065.7759	549.6
3068.16494	552.1
3070.55254	548.4
3072.93868	554
3075.32338	553.3
3077.70662	556.2
3080.08842	554.2
3082.46878	554.8
3084.84769	548.9
3087.22515	551.7
3089.60118	561.4
3091.97576	561.6
3094.3489	564.1
3096.72061	569.4
3099.09087	574.3
3101.4597	572.1
3103.82709	579.2
3106.19305	574.9
3108.55757	579.9
3110.92066	584.6
3113.28232	587.6
3115.64255	592.1
3118.00134	597.1
3120.35871	597.6
3122.71466	600.7
3125.06917	606.9
3127.42226	611.2
3129.77393	614.8
3132.12417	628.6
3134.47299	627.7
3136.82039	627.5
3139.16636	640.6
3141.51092	649
3143.85406	650.7
3146.19579	660
3148.53609	665.5
3150.87499	674
3153.21246	678.8
3155.54853	685.9
3157.88318	692.2
3160.21642	695.1
3162.54826	704.3
3164.87868	703.1
3167.2077	704.5
3169.5353	716
3171.86151	719.7
3174.18631	726
3176.5097	743.4
3178.83169	736.8
3181.15228	736.8
3183.47147	744.6
3185.78926	751.9
3188.10565	762.5
3190.42065	762.3
3192.73424	766.5
3195.04645	769.4
3197.35725	785
3199.66667	781.7
3201.97469	786.3
3204.28132	787.8
3206.58656	799.5
3208.8904	800
3211.19287	805.7
3213.49394	803.2
3215.79363	814.3
3218.09193	813.8
3220.38884	817
3222.68438	805.9
3224.97853	817.6
3227.2713	815.8
3229.56269	827.6
3231.8527	826.8
3234.14133	828.6
3236.42858	828.1
3238.71446	829.1
3240.99896	828.5
3243.28209	835.6
3245.56384	839.5
3247.84423	846.9
3250.12324	836
3252.40088	843.8
3254.67715	844.6
3256.95205	847.9
3259.22558	844.2
3261.49775	848.5
3263.76855	852.1
3266.03799	857.5
3268.30606	856.6
3270.57277	861.8
3272.83812	853.9
3275.10211	857
3277.36474	851.3
3279.62601	855.5
3281.88593	858.2
3284.14448	855.9
3286.40168	864.2
3288.65753	863.5
3290.91202	855.3
3293.16516	853.1
3295.41695	855
3297.66738	846.6
3299.91647	844.7
3302.16421	830.7
3304.4106	838
3306.65564	827.5
3308.89933	827.8
3311.14169	821.8
3313.38269	813.6
3315.62236	798.5
3317.86068	801.2
3320.09766	796.6
3322.3333	791.5
3324.5676	787.3
3326.80056	774.3
3329.03219	764.1
3331.26248	0.3
3333.49143	0.6
3335.71905	0.2
