Data from AgNPs_FTO_APTES_UA_1uM_CRN_1uM_R6G_10uM_NaF_0.1M_Addition_RamanShift__23__12-38-59-509.txt Node

Date: Thu Jan 27 12:38:59 GMT 2022
User: TCL
Spectrometer: QEP01345
Trigger mode: 4
Integration Time (sec): 7.000000E0
Scans to average: 10
Electric dark correction enabled: true
Nonlinearity correction enabled: false
Boxcar width: 0
XAxis mode: Raman Shifts
Number of Pixels in Spectrum: 1044
>>>>>Begin Spectral Data<<<<<
46.04893	1.3125
50.45542	0.4125
54.85868	-1.3875
59.25871	-0.7875
63.6555	60.3125
68.04907	64.6125
72.43941	67.7125
76.82654	70.1125
81.21044	73.1125
85.59113	73.7125
89.96862	76.8125
94.34289	76.9125
98.71396	84.9125
103.08183	79.9125
107.4465	87.4125
111.80798	90.7125
116.16626	90.1125
120.52136	99.5125
124.87327	99.0125
129.222	98.8125
133.56755	110.5125
137.90993	114.8125
142.24913	124.4125
146.58517	138.5125
150.91804	159.8125
155.24774	188.8125
159.57429	234.4125
163.89768	295.5125
168.21792	388.6125
172.53501	531.5125
176.84895	731.0125
181.15975	1033.3125
185.46741	1438.7125
189.77193	1986.3125
194.07331	2658.6125
198.37157	3432.1125
202.6667	4256.3125
206.9587	5043.4125
211.24758	5843.3125
215.53334	6654.8125
219.81599	7526.9125
224.09553	8493.8125
228.37195	9579.1125
232.64527	10741.3125
236.91549	11971.7125
241.18261	13212.7125
245.44663	14269.5125
249.70755	15251.7125
253.96539	16111.7125
258.22014	16805.6125
262.4718	17432.1125
266.72039	17890.6125
270.96589	18140.7125
275.20832	18207.3125
279.44768	18055.6125
283.68397	17897.1125
287.91719	17697.0125
292.14735	17596.1125
296.37445	17653.8125
300.59849	17848.8125
304.81948	18122.5125
309.03742	18255.0125
313.25231	18120.0125
317.46415	17679.2125
321.67296	16951.8125
325.87872	16346.1125
330.08145	16123.8125
334.28114	16108.8125
338.47781	16288.6125
342.67145	16577.7125
346.86207	16976.1125
351.04966	17539.5125
355.23424	18168.1125
359.4158	18725.3125
363.59435	19063.2125
367.76989	19263.3125
371.94243	19381.6125
376.11196	19415.5125
380.27849	19514.7125
384.44203	19550.7125
388.60257	19559.5125
392.76012	19668.6125
396.91468	19877.4125
401.06626	20269.3125
405.21485	20602.5125
409.36047	20481.4125
413.50311	20083.7125
417.64277	19682.5125
421.77947	19544.7125
425.9132	19567.8125
430.04396	19641.6125
434.17176	19760.5125
438.2966	20005.3125
442.41849	20393.7125
446.53742	20980.9125
450.6534	21705.0125
454.76644	22250.4125
458.87653	22424.7125
462.98368	22297.8125
467.08789	21882.6125
471.18916	21358.9125
475.2875	20871.8125
479.38291	20535.3125
483.4754	20346.1125
487.56496	20130.6125
491.6516	19887.6125
495.73531	19671.8125
499.81612	19570.1125
503.89401	19666.4125
507.96899	19757.7125
512.04106	19783.4125
516.11023	19833.9125
520.1765	19883.9125
524.23987	19814.4125
528.30034	19657.7125
532.35792	19379.3125
536.41261	19088.0125
540.46441	18827.3125
544.51333	18708.2125
548.55936	18919.8125
552.60252	19250.5125
556.64279	19613.3125
560.6802	19780.7125
564.71473	19882.1125
568.7464	20189.7125
572.7752	20610.0125
576.80114	20761.1125
580.82422	20794.9125
584.84444	21007.6125
588.86181	21297.0125
592.87633	21672.7125
596.888	22079.6125
600.89682	22409.0125
604.9028	23499.0125
608.90594	26442.6125
612.90624	30155.8125
616.90371	29042.9125
620.89834	23564.5125
624.89015	21008.1125
628.87913	20646.6125
632.86528	20479.2125
636.84862	20218.6125
640.82913	19838.2125
644.80683	19234.0125
648.78172	18775.6125
652.75379	18734.7125
656.72306	19088.6125
660.68952	19637.6125
664.65319	19628.5125
668.61405	19178.3125
672.57211	18943.5125
676.52738	18892.0125
680.47986	18861.6125
684.42955	18790.3125
688.37646	18779.9125
692.32058	18862.3125
696.26192	18987.8125
700.20048	19203.2125
704.13626	19311.6125
708.06928	19199.2125
711.99952	18986.4125
715.927	18926.9125
719.85171	18967.6125
723.77365	18915.4125
727.69284	18742.6125
731.60928	18561.7125
735.52295	18588.4125
739.43388	18638.7125
743.34206	18804.8125
747.24749	18894.3125
751.15017	19069.4125
755.05012	19367.7125
758.94733	19955.3125
762.8418	21012.9125
766.73354	22789.0125
770.62254	24738.2125
774.50882	25580.7125
778.39237	24633.7125
782.27321	22566.2125
786.15132	20719.5125
790.02671	19668.4125
793.89938	19172.0125
797.76935	19012.2125
801.6366	18953.6125
805.50115	18853.1125
809.36299	18739.8125
813.22213	18600.7125
817.07857	18574.0125
820.93231	18564.2125
824.78336	18598.5125
828.63172	18646.8125
832.47738	18720.7125
836.32036	18803.8125
840.16066	18871.0125
843.99827	19004.9125
847.8332	18966.5125
851.66546	18823.1125
855.49504	18738.2125
859.32195	18670.6125
863.1462	18596.7125
866.96777	18492.2125
870.78668	18397.9125
874.60293	18368.0125
878.41652	18390.6125
882.22745	18457.4125
886.03573	18566.6125
889.84136	18543.3125
893.64433	18426.8125
897.44466	18370.0125
901.24235	18333.3125
905.0374	18279.1125
908.8298	18233.4125
912.61957	18276.6125
916.40671	18396.6125
920.19121	18686.1125
923.97308	18991.8125
927.75233	19224.6125
931.52895	19318.0125
935.30295	19179.6125
939.07433	18788.3125
942.84309	18419.0125
946.60924	18267.2125
950.37278	18190.6125
954.13371	18031.1125
957.89203	17857.9125
961.64774	17808.4125
965.40086	17675.3125
969.15137	17614.2125
972.89929	17559.4125
976.64461	17525.2125
980.38733	17603.3125
984.12747	17712.3125
987.86502	17974.4125
991.59999	18290.2125
995.33237	18823.7125
999.06217	19659.0125
1002.78939	20694.4125
1006.51404	21227.7125
1010.23611	21405.1125
1013.95561	21552.3125
1017.67255	21540.8125
1021.38692	21338.0125
1025.09872	21191.3125
1028.80796	21664.0125
1032.51465	22772.0125
1036.21877	23744.1125
1039.92035	23802.1125
1043.61937	23205.3125
1047.31584	22110.9125
1051.00976	20976.2125
1054.70114	20303.2125
1058.38998	20029.7125
1062.07627	19984.5125
1065.76003	19964.2125
1069.44126	19966.8125
1073.11995	20134.8125
1076.79611	20324.6125
1080.46974	20489.9125
1084.14085	20691.0125
1087.80943	20921.2125
1091.47549	21026.0125
1095.13903	20853.8125
1098.80005	20478.2125
1102.45857	19995.4125
1106.11456	19780.7125
1109.76805	19830.4125
1113.41903	20043.8125
1117.06751	20296.8125
1120.71348	20568.5125
1124.35696	20888.4125
1127.99793	21184.6125
1131.63641	21311.6125
1135.2724	21011.8125
1138.90589	20614.3125
1142.5369	20313.1125
1146.16542	20121.9125
1149.79145	20010.7125
1153.415	20062.2125
1157.03607	20244.9125
1160.65467	20577.8125
1164.27079	21150.1125
1167.88443	22112.9125
1171.49561	23589.7125
1175.10432	25645.5125
1178.71056	28326.5125
1182.31434	30898.0125
1185.91565	32388.9125
1189.51451	32399.4125
1193.11091	31013.3125
1196.70485	29093.2125
1200.29634	27348.0125
1203.88538	26083.4125
1207.47197	25078.9125
1211.05612	24345.1125
1214.63782	23898.9125
1218.21708	23905.8125
1221.79391	24208.6125
1225.36829	24428.4125
1228.94024	24475.6125
1232.50976	24137.2125
1236.07685	23804.2125
1239.6415	23570.8125
1243.20374	23397.1125
1246.76355	23472.6125
1250.32093	23763.7125
1253.8759	24400.6125
1257.42845	25174.6125
1260.97859	25964.8125
1264.52631	26569.6125
1268.07163	27189.6125
1271.61453	28021.1125
1275.15503	28987.6125
1278.69312	29953.6125
1282.22882	30762.7125
1285.76211	31384.2125
1289.29301	31960.3125
1292.82151	32624.8125
1296.34761	33535.2125
1299.87133	35011.6125
1303.39266	37147.2125
1306.9116	40034.3125
1310.42815	43250.4125
1313.94233	45334.1125
1317.45412	45319.7125
1320.96354	43703.8125
1324.47058	41632.8125
1327.97525	39765.6125
1331.47754	38509.0125
1334.97747	37938.7125
1338.47502	38011.0125
1341.97022	38301.2125
1345.46305	38286.7125
1348.95352	38118.5125
1352.44163	38267.1125
1355.92738	39420.2125
1359.41078	42139.6125
1362.89183	45072.8125
1366.37053	44758.1125
1369.84688	40431.9125
1373.32088	35355.2125
1376.79254	31852.0125
1380.26186	30106.1125
1383.72883	29500.3125
1387.19347	29104.0125
1390.65578	28668.7125
1394.11575	28471.2125
1397.57339	28619.6125
1401.0287	29190.4125
1404.48168	29849.2125
1407.93234	30365.3125
1411.38068	30694.3125
1414.82669	30568.5125
1418.27039	29845.5125
1421.71177	28889.1125
1425.15083	28073.2125
1428.58758	27589.7125
1432.02203	27513.5125
1435.45416	27828.5125
1438.88399	28148.4125
1442.31151	28365.4125
1445.73673	28628.9125
1449.15965	28798.6125
1452.58027	28865.4125
1455.9986	28691.1125
1459.41463	28659.8125
1462.82837	28915.6125
1466.23982	29441.4125
1469.64898	30012.6125
1473.05586	30339.4125
1476.46045	30539.0125
1479.86276	30684.2125
1483.26279	30844.9125
1486.66054	31062.0125
1490.05602	31408.7125
1493.44922	31953.5125
1496.84016	32532.8125
1500.22882	33223.7125
1503.61521	34193.9125
1506.99934	35632.5125
1510.38121	37232.7125
1513.76081	38114.5125
1517.13816	37439.9125
1520.51324	35345.6125
1523.88607	33112.7125
1527.25665	31420.2125
1530.62498	30370.6125
1533.99105	29689.0125
1537.35488	29285.1125
1540.71647	29061.6125
1544.07581	28925.7125
1547.4329	28636.9125
1550.78776	28365.8125
1554.14038	28220.2125
1557.49077	28149.3125
1560.83892	28177.0125
1564.18484	28226.5125
1567.52853	28174.2125
1570.86999	28178.5125
1574.20922	28260.4125
1577.54624	28343.7125
1580.88103	28196.5125
1584.2136	28000.0125
1587.54395	28541.1125
1590.87208	29977.5125
1594.19801	32219.5125
1597.52172	34687.5125
1600.84321	35869.1125
1604.16251	34744.4125
1607.47959	31943.8125
1610.79447	28891.9125
1614.10715	26280.3125
1617.41763	24280.1125
1620.7259	23071.0125
1624.03199	22562.0125
1627.33587	22662.0125
1630.63757	23417.6125
1633.93707	24818.5125
1637.23439	26685.1125
1640.52951	28989.3125
1643.82246	31296.5125
1647.11321	33027.2125
1650.40179	33385.4125
1653.68819	31633.9125
1656.97241	28107.1125
1660.25446	24418.1125
1663.53433	21737.7125
1666.81203	20086.7125
1670.08756	19077.8125
1673.36092	18462.7125
1676.63211	18061.9125
1679.90115	17763.9125
1683.16801	17543.2125
1686.43272	17393.3125
1689.69527	17279.7125
1692.95567	17138.1125
1696.2139	17098.9125
1699.46999	17004.9125
1702.72392	16936.5125
1705.97571	16980.9125
1709.22535	17019.6125
1712.47284	17015.8125
1715.71819	17063.6125
1718.96139	16990.4125
1722.20246	16970.1125
1725.44139	16928.1125
1728.67818	16830.4125
1731.91284	16779.4125
1735.14537	16675.1125
1738.37576	16624.8125
1741.60403	16569.1125
1744.83017	16494.1125
1748.05418	16443.7125
1751.27607	16435.1125
1754.49584	16381.2125
1757.71349	16372.3125
1760.92903	16345.4125
1764.14244	16325.2125
1767.35375	16298.9125
1770.56294	16297.0125
1773.77002	16298.8125
1776.97499	16318.2125
1780.17785	16305.8125
1783.37861	16299.4125
1786.57727	16300.3125
1789.77382	16276.0125
1792.96828	16287.1125
1796.16064	16267.0125
1799.3509	16246.2125
1802.53907	16216.4125
1805.72514	16195.9125
1808.90913	16189.9125
1812.09102	16135.9125
1815.27083	16074.0125
1818.44856	16073.7125
1821.6242	16055.7125
1824.79776	16044.7125
1827.96924	16038.4125
1831.13864	16053.6125
1834.30597	16012.3125
1837.47122	16034.1125
1840.6344	16033.1125
1843.7955	16071.4125
1846.95454	16059.9125
1850.11151	16073.8125
1853.26642	16082.9125
1856.41926	16075.4125
1859.57004	16093.0125
1862.71876	16092.1125
1865.86542	16116.9125
1869.01003	16122.0125
1872.15258	16105.5125
1875.29308	16136.2125
1878.43152	16147.2125
1881.56792	16143.7125
1884.70227	16136.3125
1887.83457	16143.1125
1890.96482	16107.5125
1894.09304	16114.2125
1897.21921	16161.1125
1900.34335	16128.5125
1903.46544	16127.6125
1906.58551	16133.8125
1909.70353	16150.9125
1912.81953	16137.8125
1915.93349	16129.9125
1919.04543	16125.0125
1922.15534	16048.6125
1925.26322	16050.7125
1928.36908	15962.2125
1931.47292	15933.0125
1934.57473	15872.4125
1937.67453	15834.3125
1940.77232	15774.1125
1943.86808	15697.5125
1946.96184	15661.1125
1950.05358	15579.7125
1953.14331	15538.5125
1956.23103	15447.9125
1959.31675	15479.3125
1962.40046	15398.2125
1965.48217	15356.1125
1968.56188	15288.0125
1971.63959	15266.2125
1974.7153	15215.5125
1977.78901	15172.9125
1980.86073	15101.8125
1983.93046	15072.0125
1986.99819	15022.8125
1990.06394	14954.5125
1993.1277	14949.8125
1996.18947	14881.6125
1999.24925	14861.9125
2002.30706	14802.1125
2005.36288	14753.6125
2008.41672	14757.2125
2011.46859	14682.1125
2014.51848	14653.1125
2017.56639	14614.0125
2020.61233	14602.2125
2023.6563	14550.1125
2026.6983	14547.0125
2029.73833	14499.7125
2032.7764	14498.9125
2035.8125	14505.5125
2038.84664	14453.6125
2041.87881	14463.6125
2044.90903	14419.4125
2047.93729	14393.3125
2050.96359	14398.1125
2053.98794	14332.1125
2057.01034	14331.3125
2060.03078	14303.0125
2063.04927	14327.8125
2066.06582	14322.8125
2069.08042	14335.0125
2072.09307	14276.6125
2075.10378	14262.0125
2078.11255	14259.3125
2081.11938	14250.6125
2084.12426	14249.5125
2087.12722	14269.7125
2090.12824	14216.3125
2093.12732	14188.9125
2096.12447	14217.7125
2099.11969	14223.5125
2102.11299	14220.8125
2105.10435	14214.3125
2108.09379	14221.9125
2111.08131	14198.0125
2114.0669	14248.4125
2117.05057	14253.2125
2120.03233	14209.7125
2123.01216	14270.0125
2125.99008	14261.5125
2128.96609	14256.9125
2131.94018	14280.7125
2134.91236	14282.3125
2137.88263	14275.1125
2140.851	14302.4125
2143.81746	14319.0125
2146.78201	14319.1125
2149.74466	14347.1125
2152.7054	14323.6125
2155.66425	14316.2125
2158.6212	14340.3125
2161.57625	14342.2125
2164.52941	14340.7125
2167.48067	14326.9125
2170.43004	14318.4125
2173.37752	14300.5125
2176.32311	14337.1125
2179.26681	14305.7125
2182.20863	14343.7125
2185.14856	14327.8125
2188.08661	14372.9125
2191.02278	14352.4125
2193.95707	14354.3125
2196.88948	14365.6125
2199.82001	14374.2125
2202.74867	14353.8125
2205.67545	14387.5125
2208.60037	14365.4125
2211.52341	14350.1125
2214.44458	14377.8125
2217.36388	14342.9125
2220.28132	14316.3125
2223.1969	14292.8125
2226.11061	14276.2125
2229.02246	14256.9125
2231.93245	14233.3125
2234.84058	14204.3125
2237.74686	14185.0125
2240.65128	14144.5125
2243.55385	14132.2125
2246.45456	14102.6125
2249.35343	14090.0125
2252.25044	14079.5125
2255.14561	14036.1125
2258.03893	14029.5125
2260.93041	14041.5125
2263.82004	13984.3125
2266.70783	13950.4125
2269.59378	13913.2125
2272.4779	13886.3125
2275.36017	13853.3125
2278.24061	13869.9125
2281.11922	13812.9125
2283.996	13798.7125
2286.87094	13792.7125
2289.74405	13790.0125
2292.61534	13776.3125
2295.4848	13754.5125
2298.35243	13771.6125
2301.21824	13775.4125
2304.08223	13787.6125
2306.94439	13786.1125
2309.80474	13814.6125
2312.66327	13850.4125
2315.51999	13843.4125
2318.37489	13860.5125
2321.22797	13872.4125
2324.07925	13839.7125
2326.92871	13844.7125
2329.77637	13837.5125
2332.62222	13816.4125
2335.46626	13825.2125
2338.3085	13820.1125
2341.14893	13828.3125
2343.98756	13885.1125
2346.8244	13866.1125
2349.65943	13870.0125
2352.49267	13848.3125
2355.32411	13859.5125
2358.15376	13834.4125
2360.98161	13819.2125
2363.80768	13796.9125
2366.63195	13785.5125
2369.45444	13745.1125
2372.27514	13737.8125
2375.09405	13672.0125
2377.91118	13644.5125
2380.72652	13584.6125
2383.54009	13558.4125
2386.35187	13568.2125
2389.16188	13514.5125
2391.97011	13484.6125
2394.77657	13461.5125
2397.58125	13465.3125
2400.38416	13459.7125
2403.18529	13446.4125
2405.98466	13408.8125
2408.78226	13379.1125
2411.57809	13339.2125
2414.37216	13291.8125
2417.16446	13289.4125
2419.955	13280.5125
2422.74378	13251.8125
2425.5308	13221.0125
2428.31606	13236.4125
2431.09956	13211.8125
2433.88131	13197.0125
2436.6613	13222.4125
2439.43954	13228.1125
2442.21603	13220.1125
2444.99077	13210.4125
2447.76377	13207.2125
2450.53501	13192.9125
2453.30451	13201.7125
2456.07226	13172.2125
2458.83827	13165.1125
2461.60254	13165.2125
2464.36507	13155.8125
2467.12586	13144.4125
2469.88492	13172.1125
2472.64224	13190.9125
2475.39782	13214.1125
2478.15167	13219.9125
2480.90379	13215.6125
2483.65417	13223.1125
2486.40283	13245.7125
2489.14976	13257.7125
2491.89497	13273.4125
2494.63845	13269.8125
2497.3802	13252.2125
2500.12024	13251.9125
2502.85855	13256.0125
2505.59514	13246.6125
2508.33002	13230.3125
2511.06318	13212.3125
2513.79462	13172.5125
2516.52435	13178.6125
2519.25237	13170.5125
2521.97867	13131.2125
2524.70327	13151.7125
2527.42616	13105.1125
2530.14734	13123.0125
2532.86681	13113.6125
2535.58458	13112.7125
2538.30065	13080.9125
2541.01501	13125.4125
2543.72768	13121.0125
2546.43864	13107.1125
2549.14791	13078.7125
2551.85548	13071.2125
2554.56136	13048.4125
2557.26554	13038.8125
2559.96803	13029.3125
2562.66883	12992.2125
2565.36794	13022.2125
2568.06536	12999.3125
2570.7611	13018.2125
2573.45514	12991.4125
2576.14751	12991.3125
2578.83819	12974.3125
2581.52719	13001.1125
2584.21451	12999.9125
2586.90015	13008.9125
2589.58411	12997.7125
2592.2664	13008.6125
2594.94701	12982.6125
2597.62594	12982.8125
2600.30321	12981.5125
2602.9788	12973.5125
2605.65273	12938.7125
2608.32498	12938.2125
2610.99557	12947.3125
2613.66449	12982.3125
2616.33175	12985.8125
2618.99734	12961.3125
2621.66128	12977.2125
2624.32355	12972.4125
2626.98416	12969.2125
2629.64311	12987.3125
2632.30041	12987.3125
2634.95605	12985.3125
2637.61004	12956.4125
2640.26238	12932.6125
2642.91306	12904.5125
2645.56209	12888.2125
2648.20948	12870.3125
2650.85521	12857.2125
2653.4993	12858.6125
2656.14175	12850.9125
2658.78255	12867.6125
2661.42171	12865.9125
2664.05923	12895.6125
2666.6951	12916.8125
2669.32934	12948.7125
2671.96194	12907.5125
2674.59291	12923.5125
2677.22224	12911.2125
2679.84993	12928.0125
2682.476	12897.2125
2685.10043	12893.2125
2687.72324	12860.5125
2690.34441	12846.0125
2692.96396	12862.0125
2695.58188	12810.5125
2698.19818	12823.2125
2700.81285	12820.0125
2703.4259	12808.8125
2706.03733	12799.4125
2708.64714	12813.2125
2711.25533	12794.6125
2713.86191	12828.8125
2716.46687	12846.5125
2719.07021	12857.9125
2721.67194	12836.2125
2724.27206	12884.9125
2726.87057	12874.4125
2729.46747	12830.0125
2732.06276	12849.7125
2734.65644	12822.7125
2737.24852	12835.2125
2739.83899	12827.6125
2742.42786	12834.3125
2745.01513	12799.6125
2747.60079	12802.0125
2750.18486	12790.5125
2752.76733	12785.7125
2755.3482	12781.5125
2757.92747	12824.3125
2760.50515	12807.4125
2763.08123	12780.4125
2765.65573	12799.2125
2768.22863	12800.1125
2770.79994	12776.8125
2773.36967	12796.2125
2775.9378	12780.8125
2778.50435	12816.8125
2781.06932	12787.7125
2783.6327	12768.7125
2786.1945	12778.7125
2788.75471	12740.5125
2791.31335	12728.4125
2793.87041	12711.3125
2796.42589	12706.2125
2798.97979	12693.1125
2801.53212	12657.3125
2804.08288	12669.8125
2806.63206	12622.3125
2809.17967	12600.9125
2811.72571	12576.2125
2814.27018	12568.3125
2816.81308	12539.8125
2819.35442	12543.9125
2821.89419	12517.2125
2824.43239	12548.6125
2826.96904	12539.6125
2829.50412	12547.7125
2832.03763	12507.6125
2834.56959	12513.5125
2837.1	12515.7125
2839.62884	12538.2125
2842.15613	12521.3125
2844.68186	12560.7125
2847.20604	12544.7125
2849.72867	12571.3125
2852.24974	12550.6125
2854.76927	12538.5125
2857.28724	12504.6125
2859.80367	12489.2125
2862.31855	12490.8125
2864.83189	12482.2125
2867.34368	12469.4125
2869.85393	12468.2125
2872.36264	12443.8125
2874.8698	12460.5125
2877.37543	12428.4125
2879.87952	12443.2125
2882.38207	12442.5125
2884.88308	12447.4125
2887.38256	12485.9125
2889.88051	12445.3125
2892.37692	12450.6125
2894.8718	12467.0125
2897.36515	12476.5125
2899.85698	12476.1125
2902.34727	12510.6125
2904.83604	12528.7125
2907.32328	12606.8125
2909.809	12566.5125
2912.29319	12521.2125
2914.77587	12525.9125
2917.25702	12509.6125
2919.73665	12498.5125
2922.21476	12524.4125
2924.69136	12475.4125
2927.16644	12467.4125
2929.64	12453.5125
2932.11205	12425.6125
2934.58258	12390.9125
2937.05161	12412.4125
2939.51912	12436.9125
2941.98513	12391.7125
2944.44962	12364.1125
2946.91261	12329.6125
2949.37409	12336.8125
2951.83407	12331.8125
2954.29254	12311.7125
2956.74951	12305.3125
2959.20498	12330.8125
2961.65895	12282.7125
2964.11142	12279.7125
2966.56239	12245.9125
2969.01186	12218.0125
2971.45984	12199.1125
2973.90632	12164.3125
2976.35131	12149.4125
2978.7948	12101.0125
2981.23681	12080.6125
2983.67732	12089.4125
2986.11635	12047.7125
2988.55388	11989.3125
2990.98993	11972.6125
2993.4245	11905.2125
2995.85758	11893.8125
2998.28917	11893.0125
3000.71928	11848.8125
3003.14791	11828.6125
3005.57506	11827.9125
3008.00073	11798.5125
3010.42493	11791.3125
3012.84764	11792.0125
3015.26888	11785.3125
3017.68865	11767.1125
3020.10694	11738.9125
3022.52376	11712.9125
3024.9391	11729.1125
