Data from AgNPs_FTO_APTES_UA_1uM_CRN_10uM_R6G_50uM_NaF_0.1M_Addition_RamanShift__4__15-45-39-722.txt Node

Date: Thu Jan 27 15:45:39 GMT 2022
User: TCL
Spectrometer: QEP01345
Trigger mode: 4
Integration Time (sec): 7.000000E0
Scans to average: 10
Electric dark correction enabled: true
Nonlinearity correction enabled: false
Boxcar width: 0
XAxis mode: Raman Shifts
Number of Pixels in Spectrum: 1044
>>>>>Begin Spectral Data<<<<<
46.04893	2.6625
50.45542	0.4625
54.85868	-2.4375
59.25871	-0.6375
63.6555	46.5625
68.04907	48.7625
72.43941	48.8625
76.82654	51.3625
81.21044	53.5625
85.59113	56.2625
89.96862	58.9625
94.34289	61.9625
98.71396	65.3625
103.08183	64.4625
107.4465	66.7625
111.80798	67.5625
116.16626	67.3625
120.52136	75.9625
124.87327	74.8625
129.222	69.8625
133.56755	80.6625
137.90993	83.4625
142.24913	89.6625
146.58517	97.5625
150.91804	116.2625
155.24774	128.3625
159.57429	154.8625
163.89768	197.4625
168.21792	259.6625
172.53501	345.3625
176.84895	483.8625
181.15975	676.8625
185.46741	939.8625
189.77193	1296.5625
194.07331	1725.9625
198.37157	2220.5625
202.6667	2754.8625
206.9587	3280.6625
211.24758	3762.4625
215.53334	4284.4625
219.81599	4819.8625
224.09553	5391.2625
228.37195	6046.6625
232.64527	6736.7625
236.91549	7510.6625
241.18261	8265.9625
245.44663	8986.7625
249.70755	9618.7625
253.96539	10208.6625
258.22014	10657.0625
262.4718	11060.3625
266.72039	11345.8625
270.96589	11461.0625
275.20832	11519.3625
279.44768	11459.5625
283.68397	11372.5625
287.91719	11273.3625
292.14735	11199.5625
296.37445	11196.4625
300.59849	11221.1625
304.81948	11282.4625
309.03742	11275.0625
313.25231	11204.7625
317.46415	11043.4625
321.67296	10781.3625
325.87872	10580.0625
330.08145	10486.0625
334.28114	10451.6625
338.47781	10515.5625
342.67145	10637.7625
346.86207	10769.2625
351.04966	10973.4625
355.23424	11150.1625
359.4158	11309.8625
363.59435	11424.8625
367.76989	11553.1625
371.94243	11631.5625
376.11196	11665.6625
380.27849	11724.2625
384.44203	11791.9625
388.60257	11860.4625
392.76012	11982.0625
396.91468	12101.6625
401.06626	12300.3625
405.21485	12443.2625
409.36047	12375.4625
413.50311	12256.1625
417.64277	12171.6625
421.77947	12197.3625
425.9132	12272.4625
430.04396	12304.0625
434.17176	12376.5625
438.2966	12462.7625
442.41849	12608.9625
446.53742	12875.2625
450.6534	13194.8625
454.76644	13487.0625
458.87653	13558.1625
462.98368	13477.2625
467.08789	13342.0625
471.18916	13165.3625
475.2875	12986.1625
479.38291	12885.2625
483.4754	12786.1625
487.56496	12686.7625
491.6516	12569.3625
495.73531	12379.9625
499.81612	12337.9625
503.89401	12400.0625
507.96899	12439.1625
512.04106	12418.2625
516.11023	12335.7625
520.1765	12261.3625
524.23987	12152.5625
528.30034	12025.9625
532.35792	11940.0625
536.41261	11863.1625
540.46441	11692.5625
544.51333	11716.4625
548.55936	11799.7625
552.60252	12060.5625
556.64279	12281.2625
560.6802	12450.6625
564.71473	12534.5625
568.7464	12702.0625
572.7752	12935.1625
576.80114	13301.8625
580.82422	13631.2625
584.84444	14044.5625
588.86181	14522.0625
592.87633	14882.6625
596.888	14746.8625
600.89682	14316.3625
604.9028	14284.8625
608.90594	15003.5625
612.90624	15869.2625
616.90371	15057.3625
620.89834	13045.4625
624.89015	12183.0625
628.87913	12063.4625
632.86528	12113.4625
636.84862	12087.3625
640.82913	11908.4625
644.80683	11683.1625
648.78172	11530.1625
652.75379	11475.1625
656.72306	11602.5625
660.68952	11720.7625
664.65319	11647.9625
668.61405	11514.8625
672.57211	11474.3625
676.52738	11545.3625
680.47986	11538.5625
684.42955	11472.5625
688.37646	11401.8625
692.32058	11465.6625
696.26192	11578.8625
700.20048	11773.6625
704.13626	11813.1625
708.06928	11812.7625
711.99952	11760.0625
715.927	11754.4625
719.85171	11766.2625
723.77365	11764.2625
727.69284	11611.1625
731.60928	11483.9625
735.52295	11421.0625
739.43388	11412.9625
743.34206	11448.8625
747.24749	11503.7625
751.15017	11602.1625
755.05012	11801.0625
758.94733	12072.3625
762.8418	12565.9625
766.73354	13271.6625
770.62254	13957.6625
774.50882	14082.3625
778.39237	13551.6625
782.27321	12763.5625
786.15132	12115.6625
790.02671	11733.2625
793.89938	11552.2625
797.76935	11481.1625
801.6366	11475.0625
805.50115	11435.0625
809.36299	11358.8625
813.22213	11285.3625
817.07857	11236.8625
820.93231	11210.4625
824.78336	11143.3625
828.63172	11134.4625
832.47738	11131.5625
836.32036	11135.2625
840.16066	11181.4625
843.99827	11225.7625
847.8332	11197.3625
851.66546	11135.7625
855.49504	11146.4625
859.32195	11125.0625
863.1462	11111.2625
866.96777	11082.4625
870.78668	11030.7625
874.60293	11051.3625
878.41652	11038.5625
882.22745	11072.2625
886.03573	11122.2625
889.84136	11119.4625
893.64433	11087.4625
897.44466	11018.6625
901.24235	11010.4625
905.0374	10964.1625
908.8298	10926.2625
912.61957	10974.8625
916.40671	11032.0625
920.19121	11203.8625
923.97308	11327.0625
927.75233	11360.3625
931.52895	11277.0625
935.30295	11163.2625
939.07433	10965.7625
942.84309	10849.2625
946.60924	10799.7625
950.37278	10738.5625
954.13371	10703.8625
957.89203	10675.4625
961.64774	10672.2625
965.40086	10658.0625
969.15137	10640.5625
972.89929	10615.9625
976.64461	10556.1625
980.38733	10564.1625
984.12747	10600.2625
987.86502	10666.5625
991.59999	10771.9625
995.33237	10935.6625
999.06217	11204.4625
1002.78939	11481.2625
1006.51404	11652.0625
1010.23611	11771.9625
1013.95561	11837.3625
1017.67255	11893.9625
1021.38692	11755.4625
1025.09872	11634.2625
1028.80796	11655.9625
1032.51465	11921.5625
1036.21877	12256.5625
1039.92035	12332.8625
1043.61937	12238.0625
1047.31584	11972.8625
1051.00976	11745.8625
1054.70114	11588.5625
1058.38998	11573.8625
1062.07627	11606.2625
1065.76003	11657.9625
1069.44126	11759.8625
1073.11995	11891.2625
1076.79611	12025.0625
1080.46974	12126.9625
1084.14085	12191.8625
1087.80943	12274.6625
1091.47549	12334.8625
1095.13903	12342.1625
1098.80005	12214.7625
1102.45857	11988.3625
1106.11456	11779.5625
1109.76805	11680.1625
1113.41903	11736.1625
1117.06751	11765.4625
1120.71348	11850.9625
1124.35696	11926.7625
1127.99793	12070.5625
1131.63641	12152.0625
1135.2724	12099.3625
1138.90589	12032.3625
1142.5369	12039.3625
1146.16542	12083.1625
1149.79145	12160.2625
1153.415	12223.5625
1157.03607	12385.8625
1160.65467	12702.6625
1164.27079	13236.8625
1167.88443	13871.5625
1171.49561	14551.7625
1175.10432	15361.4625
1178.71056	16403.0625
1182.31434	17462.6625
1185.91565	17983.6625
1189.51451	17975.4625
1193.11091	17536.8625
1196.70485	16966.3625
1200.29634	16413.4625
1203.88538	15988.1625
1207.47197	15719.9625
1211.05612	15491.9625
1214.63782	15224.7625
1218.21708	14865.1625
1221.79391	14537.2625
1225.36829	14327.5625
1228.94024	14121.5625
1232.50976	13891.4625
1236.07685	13706.0625
1239.6415	13597.5625
1243.20374	13591.2625
1246.76355	13709.0625
1250.32093	13879.9625
1253.8759	14161.2625
1257.42845	14517.1625
1260.97859	14893.0625
1264.52631	15263.9625
1268.07163	15642.2625
1271.61453	16080.6625
1275.15503	16559.4625
1278.69312	17019.8625
1282.22882	17462.5625
1285.76211	17859.4625
1289.29301	18435.8625
1292.82151	19193.0625
1296.34761	20126.6625
1299.87133	21313.9625
1303.39266	22587.6625
1306.9116	23777.3625
1310.42815	24626.9625
1313.94233	24953.3625
1317.45412	24698.4625
1320.96354	24145.8625
1324.47058	23625.5625
1327.97525	23255.0625
1331.47754	23029.9625
1334.97747	22865.4625
1338.47502	22635.8625
1341.97022	22314.1625
1345.46305	22073.7625
1348.95352	21839.8625
1352.44163	21853.7625
1355.92738	22303.8625
1359.41078	23129.5625
1362.89183	23849.5625
1366.37053	23500.6625
1369.84688	21822.2625
1373.32088	19663.5625
1376.79254	18125.1625
1380.26186	17526.6625
1383.72883	17529.3625
1387.19347	17559.0625
1390.65578	17408.2625
1394.11575	17296.0625
1397.57339	17449.0625
1401.0287	17720.0625
1404.48168	17982.2625
1407.93234	17962.2625
1411.38068	17730.2625
1414.82669	17175.0625
1418.27039	16540.8625
1421.71177	15926.0625
1425.15083	15394.9625
1428.58758	15127.8625
1432.02203	15222.3625
1435.45416	15574.8625
1438.88399	16057.5625
1442.31151	16369.6625
1445.73673	16601.4625
1449.15965	16714.3625
1452.58027	16750.1625
1455.9986	16670.6625
1459.41463	16738.7625
1462.82837	16893.5625
1466.23982	17188.8625
1469.64898	17475.7625
1473.05586	17715.1625
1476.46045	17777.8625
1479.86276	17709.4625
1483.26279	17499.7625
1486.66054	17422.9625
1490.05602	17449.6625
1493.44922	17616.4625
1496.84016	17785.6625
1500.22882	18012.9625
1503.61521	18358.4625
1506.99934	18869.3625
1510.38121	19239.8625
1513.76081	19388.8625
1517.13816	19036.0625
1520.51324	18495.7625
1523.88607	18103.8625
1527.25665	17956.5625
1530.62498	17911.2625
1533.99105	17887.0625
1537.35488	17715.5625
1540.71647	17428.2625
1544.07581	17028.3625
1547.4329	16614.5625
1550.78776	16224.5625
1554.14038	16026.5625
1557.49077	15818.8625
1560.83892	15747.9625
1564.18484	15683.1625
1567.52853	15714.7625
1570.86999	15831.9625
1574.20922	16087.7625
1577.54624	16364.8625
1580.88103	16476.3625
1584.2136	16610.7625
1587.54395	17128.0625
1590.87208	17919.5625
1594.19801	18956.3625
1597.52172	19925.6625
1600.84321	20197.4625
1604.16251	19342.9625
1607.47959	17908.2625
1610.79447	16434.5625
1614.10715	15090.3625
1617.41763	14011.5625
1620.7259	13331.6625
1624.03199	12956.2625
1627.33587	12968.3625
1630.63757	13293.5625
1633.93707	14021.8625
1637.23439	15171.9625
1640.52951	16899.0625
1643.82246	18950.8625
1647.11321	20609.8625
1650.40179	20966.0625
1653.68819	19605.3625
1656.97241	17151.6625
1660.25446	14809.6625
1663.53433	13119.0625
1666.81203	12007.2625
1670.08756	11342.9625
1673.36092	10897.0625
1676.63211	10645.1625
1679.90115	10437.7625
1683.16801	10299.5625
1686.43272	10181.1625
1689.69527	10064.4625
1692.95567	9997.4625
1696.2139	9941.7625
1699.46999	9884.3625
1702.72392	9832.0625
1705.97571	9853.9625
1709.22535	9853.3625
1712.47284	9838.2625
1715.71819	9854.8625
1718.96139	9840.0625
1722.20246	9813.2625
1725.44139	9793.2625
1728.67818	9757.1625
1731.91284	9692.1625
1735.14537	9629.2625
1738.37576	9595.1625
1741.60403	9560.2625
1744.83017	9520.7625
1748.05418	9518.4625
1751.27607	9477.8625
1754.49584	9447.4625
1757.71349	9458.1625
1760.92903	9418.7625
1764.14244	9424.1625
1767.35375	9408.3625
1770.56294	9395.8625
1773.77002	9380.0625
1776.97499	9376.2625
1780.17785	9380.6625
1783.37861	9388.8625
1786.57727	9371.3625
1789.77382	9349.6625
1792.96828	9344.8625
1796.16064	9316.7625
1799.3509	9310.4625
1802.53907	9315.8625
1805.72514	9289.3625
1808.90913	9258.5625
1812.09102	9237.4625
1815.27083	9245.2625
1818.44856	9223.6625
1821.6242	9211.3625
1824.79776	9185.0625
1827.96924	9182.0625
1831.13864	9168.1625
1834.30597	9181.3625
1837.47122	9175.8625
1840.6344	9166.2625
1843.7955	9155.1625
1846.95454	9149.7625
1850.11151	9164.2625
1853.26642	9157.3625
1856.41926	9153.7625
1859.57004	9157.3625
1862.71876	9126.3625
1865.86542	9141.5625
1869.01003	9113.6625
1872.15258	9115.8625
1875.29308	9124.4625
1878.43152	9112.5625
1881.56792	9091.2625
1884.70227	9067.9625
1887.83457	9086.7625
1890.96482	9055.4625
1894.09304	9046.6625
1897.21921	9032.8625
1900.34335	9019.1625
1903.46544	9040.0625
1906.58551	9002.9625
1909.70353	9021.1625
1912.81953	8999.7625
1915.93349	8999.1625
1919.04543	8972.9625
1922.15534	8961.4625
1925.26322	8937.0625
1928.36908	8915.1625
1931.47292	8921.7625
1934.57473	8882.8625
1937.67453	8872.0625
1940.77232	8831.8625
1943.86808	8802.1625
1946.96184	8788.3625
1950.05358	8759.6625
1953.14331	8745.8625
1956.23103	8721.9625
1959.31675	8691.3625
1962.40046	8691.0625
1965.48217	8665.2625
1968.56188	8653.1625
1971.63959	8633.5625
1974.7153	8588.7625
1977.78901	8568.5625
1980.86073	8532.3625
1983.93046	8527.8625
1986.99819	8498.8625
1990.06394	8474.3625
1993.1277	8459.4625
1996.18947	8410.2625
1999.24925	8403.2625
2002.30706	8355.4625
2005.36288	8361.6625
2008.41672	8352.8625
2011.46859	8321.0625
2014.51848	8292.1625
2017.56639	8280.5625
2020.61233	8247.8625
2023.6563	8256.4625
2026.6983	8218.4625
2029.73833	8217.4625
2032.7764	8214.0625
2035.8125	8193.1625
2038.84664	8180.0625
2041.87881	8174.8625
2044.90903	8140.8625
2047.93729	8143.7625
2050.96359	8133.4625
2053.98794	8107.1625
2057.01034	8115.5625
2060.03078	8129.4625
2063.04927	8104.2625
2066.06582	8125.1625
2069.08042	8106.8625
2072.09307	8096.2625
2075.10378	8074.5625
2078.11255	8069.2625
2081.11938	8081.9625
2084.12426	8067.4625
2087.12722	8059.0625
2090.12824	8085.4625
2093.12732	8084.7625
2096.12447	8052.1625
2099.11969	8081.0625
2102.11299	8056.7625
2105.10435	8084.6625
2108.09379	8086.4625
2111.08131	8085.5625
2114.0669	8083.2625
2117.05057	8099.4625
2120.03233	8110.8625
2123.01216	8114.1625
2125.99008	8109.3625
2128.96609	8143.4625
2131.94018	8141.6625
2134.91236	8141.8625
2137.88263	8136.6625
2140.851	8146.6625
2143.81746	8160.4625
2146.78201	8153.0625
2149.74466	8148.5625
2152.7054	8170.2625
2155.66425	8152.6625
2158.6212	8149.6625
2161.57625	8141.2625
2164.52941	8151.2625
2167.48067	8177.0625
2170.43004	8182.2625
2173.37752	8162.5625
2176.32311	8145.3625
2179.26681	8163.5625
2182.20863	8149.6625
2185.14856	8189.4625
2188.08661	8166.1625
2191.02278	8156.1625
2193.95707	8171.0625
2196.88948	8161.3625
2199.82001	8163.2625
2202.74867	8143.3625
2205.67545	8179.9625
2208.60037	8141.8625
2211.52341	8119.6625
2214.44458	8116.8625
2217.36388	8101.0625
2220.28132	8083.0625
2223.1969	8083.5625
2226.11061	8073.1625
2229.02246	8072.6625
2231.93245	8059.5625
2234.84058	8039.1625
2237.74686	8018.2625
2240.65128	8014.0625
2243.55385	8015.4625
2246.45456	7990.9625
2249.35343	7981.3625
2252.25044	7977.8625
2255.14561	7975.5625
2258.03893	7974.5625
2260.93041	7922.2625
2263.82004	7912.1625
2266.70783	7893.8625
2269.59378	7867.0625
2272.4779	7875.0625
2275.36017	7849.6625
2278.24061	7845.9625
2281.11922	7837.1625
2283.996	7823.8625
2286.87094	7827.2625
2289.74405	7820.4625
2292.61534	7811.8625
2295.4848	7806.4625
2298.35243	7810.4625
2301.21824	7816.5625
2304.08223	7825.6625
2306.94439	7822.3625
2309.80474	7812.2625
2312.66327	7811.9625
2315.51999	7813.0625
2318.37489	7820.1625
2321.22797	7790.0625
2324.07925	7778.1625
2326.92871	7786.3625
2329.77637	7791.4625
2332.62222	7782.6625
2335.46626	7770.5625
2338.3085	7750.9625
2341.14893	7764.5625
2343.98756	7759.6625
2346.8244	7767.1625
2349.65943	7752.8625
2352.49267	7755.8625
2355.32411	7745.6625
2358.15376	7726.5625
2360.98161	7740.8625
2363.80768	7726.4625
2366.63195	7735.3625
2369.45444	7728.4625
2372.27514	7693.4625
2375.09405	7688.5625
2377.91118	7713.9625
2380.72652	7674.3625
2383.54009	7634.6625
2386.35187	7643.8625
2389.16188	7648.0625
2391.97011	7612.7625
2394.77657	7618.0625
2397.58125	7608.5625
2400.38416	7575.2625
2403.18529	7590.5625
2405.98466	7572.9625
2408.78226	7561.3625
2411.57809	7552.1625
2414.37216	7556.8625
2417.16446	7540.0625
2419.955	7522.0625
2422.74378	7510.4625
2425.5308	7527.5625
2428.31606	7512.4625
2431.09956	7510.5625
2433.88131	7517.1625
2436.6613	7511.3625
2439.43954	7501.0625
2442.21603	7505.3625
2444.99077	7498.0625
2447.76377	7501.3625
2450.53501	7511.1625
2453.30451	7515.9625
2456.07226	7486.6625
2458.83827	7489.1625
2461.60254	7477.5625
2464.36507	7476.4625
2467.12586	7472.4625
2469.88492	7474.0625
2472.64224	7494.3625
2475.39782	7495.7625
2478.15167	7501.0625
2480.90379	7474.8625
2483.65417	7509.0625
2486.40283	7510.4625
2489.14976	7494.2625
2491.89497	7507.1625
2494.63845	7502.5625
2497.3802	7488.8625
2500.12024	7503.0625
2502.85855	7486.6625
2505.59514	7479.6625
2508.33002	7468.5625
2511.06318	7487.2625
2513.79462	7461.4625
2516.52435	7472.8625
2519.25237	7463.9625
2521.97867	7455.8625
2524.70327	7469.8625
2527.42616	7450.7625
2530.14734	7459.6625
2532.86681	7431.0625
2535.58458	7450.1625
2538.30065	7441.2625
2541.01501	7418.7625
2543.72768	7443.4625
2546.43864	7404.1625
2549.14791	7409.7625
2551.85548	7403.0625
2554.56136	7399.4625
2557.26554	7386.2625
2559.96803	7404.6625
2562.66883	7394.9625
2565.36794	7400.8625
2568.06536	7357.4625
2570.7611	7381.2625
2573.45514	7356.5625
2576.14751	7365.5625
2578.83819	7360.6625
2581.52719	7362.0625
2584.21451	7339.2625
2586.90015	7338.2625
2589.58411	7324.4625
2592.2664	7354.7625
2594.94701	7343.7625
2597.62594	7329.5625
2600.30321	7299.2625
2602.9788	7297.9625
2605.65273	7310.7625
2608.32498	7308.4625
2610.99557	7321.6625
2613.66449	7310.7625
2616.33175	7309.1625
2618.99734	7313.9625
2621.66128	7321.0625
2624.32355	7301.4625
2626.98416	7310.4625
2629.64311	7291.4625
2632.30041	7286.4625
2634.95605	7254.3625
2637.61004	7286.3625
2640.26238	7271.8625
2642.91306	7271.5625
2645.56209	7246.0625
2648.20948	7269.7625
2650.85521	7262.8625
2653.4993	7248.7625
2656.14175	7267.4625
2658.78255	7285.2625
2661.42171	7269.3625
2664.05923	7282.0625
2666.6951	7290.9625
2669.32934	7274.3625
2671.96194	7288.4625
2674.59291	7292.8625
2677.22224	7270.6625
2679.84993	7279.6625
2682.476	7275.9625
2685.10043	7284.4625
2687.72324	7274.0625
2690.34441	7268.7625
2692.96396	7257.6625
2695.58188	7282.9625
2698.19818	7274.4625
2700.81285	7284.0625
2703.4259	7283.2625
2706.03733	7294.3625
2708.64714	7287.9625
2711.25533	7291.3625
2713.86191	7277.7625
2716.46687	7304.8625
2719.07021	7317.3625
2721.67194	7335.8625
2724.27206	7320.3625
2726.87057	7329.4625
2729.46747	7307.5625
2732.06276	7332.6625
2734.65644	7325.9625
2737.24852	7328.7625
2739.83899	7331.7625
2742.42786	7344.2625
2745.01513	7318.4625
2747.60079	7324.5625
2750.18486	7329.4625
2752.76733	7312.9625
2755.3482	7312.8625
2757.92747	7316.4625
2760.50515	7294.2625
2763.08123	7286.7625
2765.65573	7287.3625
2768.22863	7307.9625
2770.79994	7299.5625
2773.36967	7286.9625
2775.9378	7282.9625
2778.50435	7290.9625
2781.06932	7295.5625
2783.6327	7291.9625
2786.1945	7288.1625
2788.75471	7285.5625
2791.31335	7282.4625
2793.87041	7254.7625
2796.42589	7247.3625
2798.97979	7250.0625
2801.53212	7236.3625
2804.08288	7215.6625
2806.63206	7209.5625
2809.17967	7202.9625
2811.72571	7194.2625
2814.27018	7183.0625
2816.81308	7170.0625
2819.35442	7175.6625
2821.89419	7168.3625
2824.43239	7161.8625
2826.96904	7145.0625
2829.50412	7146.4625
2832.03763	7143.0625
2834.56959	7145.2625
2837.1	7122.6625
2839.62884	7145.9625
2842.15613	7130.7625
2844.68186	7151.7625
2847.20604	7162.6625
2849.72867	7151.3625
2852.24974	7149.8625
2854.76927	7153.0625
2857.28724	7154.2625
2859.80367	7127.9625
2862.31855	7129.0625
2864.83189	7130.2625
2867.34368	7104.8625
2869.85393	7117.8625
2872.36264	7126.1625
2874.8698	7109.9625
2877.37543	7096.7625
2879.87952	7125.3625
2882.38207	7099.8625
2884.88308	7101.8625
2887.38256	7120.6625
2889.88051	7100.0625
2892.37692	7116.1625
2894.8718	7101.8625
2897.36515	7129.8625
2899.85698	7134.2625
2902.34727	7153.3625
2904.83604	7139.0625
2907.32328	7155.0625
2909.809	7159.6625
2912.29319	7170.0625
2914.77587	7156.8625
2917.25702	7179.3625
2919.73665	7165.4625
2922.21476	7148.5625
2924.69136	7154.5625
2927.16644	7163.6625
2929.64	7151.8625
2932.11205	7146.2625
2934.58258	7135.3625
2937.05161	7142.5625
2939.51912	7140.5625
2941.98513	7138.6625
2944.44962	7117.0625
2946.91261	7095.2625
2949.37409	7101.9625
2951.83407	7100.8625
2954.29254	7112.4625
2956.74951	7109.0625
2959.20498	7103.5625
2961.65895	7061.6625
2964.11142	7092.2625
2966.56239	7067.8625
2969.01186	7056.0625
2971.45984	7071.7625
2973.90632	7044.9625
2976.35131	7055.0625
2978.7948	7045.4625
2981.23681	7028.2625
2983.67732	7041.2625
2986.11635	6992.9625
2988.55388	6985.1625
2990.98993	6979.7625
2993.4245	6972.7625
2995.85758	6957.1625
2998.28917	6959.3625
3000.71928	6934.5625
3003.14791	6919.9625
3005.57506	6929.0625
3008.00073	6905.4625
3010.42493	6905.6625
3012.84764	6900.5625
3015.26888	6911.3625
3017.68865	6879.2625
3020.10694	6878.4625
3022.52376	6846.0625
3024.9391	6848.9625
3027.35298	6843.1625
3029.76539	6836.5625
3032.17632	6830.7625
3034.5858	6838.9625
3036.9938	6827.2625
3039.40034	6833.6625
3041.80542	6846.8625
3044.20903	6833.5625
3046.61118	6823.2625
3049.01187	6819.8625
3051.4111	6821.7625
3053.80888	6804.2625
3056.20519	6801.4625
3058.60005	6771.7625
3060.99345	6754.5625
3063.3854	6745.6625
3065.7759	6718.6625
3068.16494	6737.9625
3070.55254	6714.1625
3072.93868	6723.8625
3075.32338	6691.7625
3077.70662	6704.0625
3080.08842	6688.2625
