Data from AgNPs_FTO_APTES_UA_1uM_CRN_5uM_R6G_10uM_NaF_0.1M_Addition_RamanShift__10__13-47-49-587.txt Node

Date: Thu Jan 27 13:47:49 GMT 2022
User: TCL
Spectrometer: QEP01345
Trigger mode: 4
Integration Time (sec): 7.000000E0
Scans to average: 10
Electric dark correction enabled: true
Nonlinearity correction enabled: false
Boxcar width: 0
XAxis mode: Raman Shifts
Number of Pixels in Spectrum: 1044
>>>>>Begin Spectral Data<<<<<
46.04893	1.575
50.45542	0.275
54.85868	-0.125
59.25871	-0.925
63.6555	55.175
68.04907	57.475
72.43941	61.475
76.82654	61.675
81.21044	65.975
85.59113	67.175
89.96862	73.275
94.34289	73.975
98.71396	77.375
103.08183	78.375
107.4465	81.175
111.80798	85.875
116.16626	80.875
120.52136	88.875
124.87327	91.475
129.222	91.475
133.56755	96.775
137.90993	104.075
142.24913	112.575
146.58517	123.175
150.91804	148.475
155.24774	166.275
159.57429	206.975
163.89768	260.075
168.21792	354.775
172.53501	466.275
176.84895	651.475
181.15975	903.475
185.46741	1266.275
189.77193	1760.975
194.07331	2363.875
198.37157	3045.675
202.6667	3757.475
206.9587	4476.175
211.24758	5192.375
215.53334	5882.475
219.81599	6607.375
224.09553	7385.175
228.37195	8265.675
232.64527	9216.675
236.91549	10271.075
241.18261	11315.675
245.44663	12322.175
249.70755	13291.775
253.96539	14106.775
258.22014	14784.175
262.4718	15337.375
266.72039	15706.975
270.96589	15914.075
275.20832	15938.375
279.44768	15888.475
283.68397	15694.475
287.91719	15562.075
292.14735	15426.475
296.37445	15369.575
300.59849	15349.075
304.81948	15337.875
309.03742	15370.675
313.25231	15268.375
317.46415	15097.475
321.67296	14872.275
325.87872	14666.775
330.08145	14590.275
334.28114	14576.175
338.47781	14674.075
342.67145	14827.775
346.86207	15025.275
351.04966	15249.375
355.23424	15499.675
359.4158	15708.175
363.59435	15865.775
367.76989	15985.975
371.94243	16088.075
376.11196	16179.875
380.27849	16226.975
384.44203	16275.475
388.60257	16366.975
392.76012	16545.175
396.91468	16769.575
401.06626	16974.375
405.21485	17150.675
409.36047	17124.475
413.50311	16986.575
417.64277	16918.975
421.77947	16975.075
425.9132	17101.175
430.04396	17170.875
434.17176	17238.275
438.2966	17316.375
442.41849	17459.775
446.53742	17688.675
450.6534	18010.675
454.76644	18184.875
458.87653	18311.675
462.98368	18302.775
467.08789	18191.475
471.18916	18072.275
475.2875	17880.875
479.38291	17741.975
483.4754	17665.375
487.56496	17522.975
491.6516	17456.575
495.73531	17256.175
499.81612	17210.275
503.89401	17292.375
507.96899	17428.075
512.04106	17438.075
516.11023	17379.775
520.1765	17245.275
524.23987	17102.875
528.30034	16985.475
532.35792	16869.175
536.41261	16763.075
540.46441	16630.675
544.51333	16612.075
548.55936	16715.575
552.60252	16955.275
556.64279	17206.875
560.6802	17397.875
564.71473	17494.675
568.7464	17677.575
572.7752	18014.375
576.80114	18439.975
580.82422	18961.975
584.84444	19517.375
588.86181	20223.575
592.87633	20862.175
596.888	20825.975
600.89682	20109.175
604.9028	19738.875
608.90594	20426.875
612.90624	21237.575
616.90371	20354.375
620.89834	18204.875
624.89015	17205.275
628.87913	17111.075
632.86528	17289.275
636.84862	17376.275
640.82913	17111.975
644.80683	16847.075
648.78172	16646.875
652.75379	16627.475
656.72306	16772.375
660.68952	16959.675
664.65319	16892.175
668.61405	16721.675
672.57211	16666.275
676.52738	16745.075
680.47986	16710.875
684.42955	16633.675
688.37646	16593.175
692.32058	16682.475
696.26192	16847.775
700.20048	16968.675
704.13626	17107.975
708.06928	17138.175
711.99952	17079.675
715.927	17053.475
719.85171	17062.675
723.77365	17012.375
727.69284	16840.475
731.60928	16635.975
735.52295	16575.175
739.43388	16574.675
743.34206	16592.075
747.24749	16659.575
751.15017	16788.775
755.05012	16998.875
758.94733	17287.575
762.8418	17856.275
766.73354	18674.475
770.62254	19441.775
774.50882	19568.575
778.39237	19018.075
782.27321	18207.675
786.15132	17497.975
790.02671	17025.475
793.89938	16798.175
797.76935	16616.975
801.6366	16549.075
805.50115	16523.575
809.36299	16458.475
813.22213	16396.275
817.07857	16356.375
820.93231	16298.275
824.78336	16271.875
828.63172	16237.275
832.47738	16215.575
836.32036	16189.875
840.16066	16175.275
843.99827	16204.675
847.8332	16171.275
851.66546	16167.175
855.49504	16164.475
859.32195	16227.675
863.1462	16219.075
866.96777	16168.675
870.78668	16171.875
874.60293	16199.975
878.41652	16232.675
882.22745	16214.675
886.03573	16284.475
889.84136	16297.175
893.64433	16234.075
897.44466	16219.375
901.24235	16168.675
905.0374	16151.675
908.8298	16095.475
912.61957	16093.075
916.40671	16193.875
920.19121	16369.375
923.97308	16478.675
927.75233	16518.875
931.52895	16399.475
935.30295	16197.975
939.07433	16011.375
942.84309	15843.275
946.60924	15752.975
950.37278	15710.775
954.13371	15693.175
957.89203	15677.575
961.64774	15661.075
965.40086	15633.975
969.15137	15639.175
972.89929	15571.475
976.64461	15509.975
980.38733	15472.175
984.12747	15495.975
987.86502	15518.775
991.59999	15583.875
995.33237	15622.075
999.06217	15781.175
1002.78939	15998.075
1006.51404	16207.175
1010.23611	16472.875
1013.95561	16598.375
1017.67255	16589.275
1021.38692	16525.175
1025.09872	16334.575
1028.80796	16122.875
1032.51465	16058.175
1036.21877	16084.775
1039.92035	16124.675
1043.61937	16173.175
1047.31584	16218.975
1051.00976	16229.475
1054.70114	16293.075
1058.38998	16367.775
1062.07627	16504.975
1065.76003	16624.075
1069.44126	16805.975
1073.11995	17064.075
1076.79611	17287.875
1080.46974	17368.075
1084.14085	17418.875
1087.80943	17484.775
1091.47549	17631.475
1095.13903	17713.075
1098.80005	17586.675
1102.45857	17283.075
1106.11456	17015.475
1109.76805	16831.375
1113.41903	16784.375
1117.06751	16799.075
1120.71348	16872.575
1124.35696	16987.175
1127.99793	17101.075
1131.63641	17247.375
1135.2724	17191.675
1138.90589	17104.775
1142.5369	17139.475
1146.16542	17213.275
1149.79145	17275.475
1153.415	17338.375
1157.03607	17441.975
1160.65467	17734.175
1164.27079	18217.975
1167.88443	18873.775
1171.49561	19565.975
1175.10432	20360.575
1178.71056	21318.875
1182.31434	22263.575
1185.91565	22837.975
1189.51451	22942.375
1193.11091	22694.375
1196.70485	22260.475
1200.29634	21725.275
1203.88538	21248.875
1207.47197	21011.275
1211.05612	20791.075
1214.63782	20553.875
1218.21708	20123.875
1221.79391	19628.275
1225.36829	19280.675
1228.94024	19064.175
1232.50976	18966.075
1236.07685	18840.875
1239.6415	18770.175
1243.20374	18766.575
1246.76355	18847.775
1250.32093	19017.475
1253.8759	19268.875
1257.42845	19602.275
1260.97859	20029.475
1264.52631	20459.175
1268.07163	20899.075
1271.61453	21247.675
1275.15503	21614.275
1278.69312	22031.175
1282.22882	22491.275
1285.76211	23058.275
1289.29301	23659.075
1292.82151	24432.475
1296.34761	25342.875
1299.87133	26356.775
1303.39266	27411.975
1306.9116	28270.375
1310.42815	28961.775
1313.94233	29188.175
1317.45412	29056.475
1320.96354	28715.875
1324.47058	28461.975
1327.97525	28276.975
1331.47754	28199.975
1334.97747	28123.275
1338.47502	28047.375
1341.97022	28035.875
1345.46305	28011.375
1348.95352	27949.775
1352.44163	27888.375
1355.92738	28082.975
1359.41078	28638.175
1362.89183	29145.375
1366.37053	28843.075
1369.84688	27268.875
1373.32088	25094.375
1376.79254	23362.475
1380.26186	22653.875
1383.72883	22547.375
1387.19347	22543.575
1390.65578	22314.475
1394.11575	22084.175
1397.57339	22101.475
1401.0287	22316.375
1404.48168	22494.075
1407.93234	22469.575
1411.38068	22184.075
1414.82669	21650.075
1418.27039	21058.275
1421.71177	20463.875
1425.15083	19972.675
1428.58758	19770.975
1432.02203	19855.275
1435.45416	20202.575
1438.88399	20623.675
1442.31151	20939.475
1445.73673	21073.775
1449.15965	21161.375
1452.58027	21147.475
1455.9986	21188.775
1459.41463	21263.775
1462.82837	21549.775
1466.23982	21853.675
1469.64898	22180.575
1473.05586	22369.975
1476.46045	22409.075
1479.86276	22319.475
1483.26279	22185.975
1486.66054	22145.075
1490.05602	22189.775
1493.44922	22490.175
1496.84016	22842.675
1500.22882	23323.275
1503.61521	23879.375
1506.99934	24523.275
1510.38121	24904.675
1513.76081	25002.075
1517.13816	24642.175
1520.51324	24182.275
1523.88607	23824.575
1527.25665	23634.375
1530.62498	23495.075
1533.99105	23305.975
1537.35488	22951.675
1540.71647	22502.875
1544.07581	22007.075
1547.4329	21515.975
1550.78776	21119.775
1554.14038	20822.775
1557.49077	20706.275
1560.83892	20625.775
1564.18484	20610.375
1567.52853	20626.775
1570.86999	20744.075
1574.20922	21018.075
1577.54624	21283.775
1580.88103	21364.975
1584.2136	21407.875
1587.54395	21806.575
1590.87208	22499.175
1594.19801	23434.375
1597.52172	24343.975
1600.84321	24579.275
1604.16251	23773.675
1607.47959	22410.575
1610.79447	21035.975
1614.10715	19708.975
1617.41763	18570.475
1620.7259	17757.375
1624.03199	17313.875
1627.33587	17265.075
1630.63757	17544.475
1633.93707	18301.475
1637.23439	19618.375
1640.52951	21599.575
1643.82246	23974.775
1647.11321	25904.175
1650.40179	26408.275
1653.68819	24886.575
1656.97241	22224.875
1660.25446	19589.375
1663.53433	17640.575
1666.81203	16392.675
1670.08756	15624.775
1673.36092	15124.475
1676.63211	14847.175
1679.90115	14606.975
1683.16801	14399.275
1686.43272	14299.775
1689.69527	14182.575
1692.95567	14068.975
1696.2139	14011.075
1699.46999	13944.075
1702.72392	13858.475
1705.97571	13872.275
1709.22535	13887.075
1712.47284	13891.375
1715.71819	13835.575
1718.96139	13867.375
1722.20246	13811.075
1725.44139	13764.175
1728.67818	13713.875
1731.91284	13629.475
1735.14537	13570.775
1738.37576	13501.375
1741.60403	13476.475
1744.83017	13429.275
1748.05418	13386.375
1751.27607	13374.575
1754.49584	13338.975
1757.71349	13320.075
1760.92903	13281.275
1764.14244	13243.575
1767.35375	13246.375
1770.56294	13238.175
1773.77002	13226.475
1776.97499	13198.075
1780.17785	13192.775
1783.37861	13216.075
1786.57727	13180.975
1789.77382	13168.275
1792.96828	13145.475
1796.16064	13116.475
1799.3509	13085.375
1802.53907	13068.275
1805.72514	13019.875
1808.90913	13003.775
1812.09102	12963.575
1815.27083	12958.375
1818.44856	12913.675
1821.6242	12909.775
1824.79776	12911.775
1827.96924	12888.875
1831.13864	12843.375
1834.30597	12856.075
1837.47122	12833.475
1840.6344	12853.975
1843.7955	12836.275
1846.95454	12824.375
1850.11151	12824.775
1853.26642	12809.575
1856.41926	12830.175
1859.57004	12849.875
1862.71876	12808.075
1865.86542	12754.075
1869.01003	12775.875
1872.15258	12727.075
1875.29308	12693.675
1878.43152	12661.075
1881.56792	12655.175
1884.70227	12639.975
1887.83457	12615.575
1890.96482	12583.375
1894.09304	12572.375
1897.21921	12569.275
1900.34335	12556.275
1903.46544	12533.975
1906.58551	12528.775
1909.70353	12484.175
1912.81953	12486.075
1915.93349	12441.975
1919.04543	12408.175
1922.15534	12402.675
1925.26322	12359.175
1928.36908	12325.475
1931.47292	12337.775
1934.57473	12247.875
1937.67453	12246.475
1940.77232	12237.075
1943.86808	12191.075
1946.96184	12158.875
1950.05358	12134.975
1953.14331	12058.375
1956.23103	12033.975
1959.31675	12005.375
1962.40046	12008.575
1965.48217	11946.675
1968.56188	11894.675
1971.63959	11878.475
1974.7153	11831.275
1977.78901	11789.375
1980.86073	11758.775
1983.93046	11721.075
1986.99819	11702.875
1990.06394	11643.775
1993.1277	11587.375
1996.18947	11590.575
1999.24925	11544.875
2002.30706	11496.875
2005.36288	11474.275
2008.41672	11436.075
2011.46859	11410.975
2014.51848	11376.275
2017.56639	11336.375
2020.61233	11338.075
2023.6563	11304.075
2026.6983	11276.475
2029.73833	11232.775
2032.7764	11188.175
2035.8125	11168.275
2038.84664	11135.475
2041.87881	11132.875
2044.90903	11116.175
2047.93729	11095.975
2050.96359	11063.175
2053.98794	11027.675
2057.01034	11022.475
2060.03078	11025.775
2063.04927	11032.475
2066.06582	11021.675
2069.08042	10999.475
2072.09307	10995.575
2075.10378	10982.175
2078.11255	10974.375
2081.11938	10938.975
2084.12426	10965.575
2087.12722	10978.175
2090.12824	10947.675
2093.12732	10974.175
2096.12447	10964.975
2099.11969	10962.975
2102.11299	10956.675
2105.10435	10953.475
2108.09379	10956.375
2111.08131	10979.375
2114.0669	10978.875
2117.05057	10987.775
2120.03233	10963.075
2123.01216	10991.675
2125.99008	11006.075
2128.96609	10995.575
2131.94018	11004.175
2134.91236	10996.575
2137.88263	10990.875
2140.851	11018.275
2143.81746	11023.075
2146.78201	10999.975
2149.74466	11009.775
2152.7054	10996.375
2155.66425	11010.575
2158.6212	11012.575
2161.57625	10961.675
2164.52941	10983.475
2167.48067	10971.075
2170.43004	10971.275
2173.37752	10971.675
2176.32311	10966.175
2179.26681	10957.575
2182.20863	10949.275
2185.14856	10938.675
2188.08661	10964.275
2191.02278	10954.875
2193.95707	10927.575
2196.88948	10918.075
2199.82001	10925.275
2202.74867	10904.375
2205.67545	10910.975
2208.60037	10863.175
2211.52341	10841.875
2214.44458	10829.675
2217.36388	10803.275
2220.28132	10782.075
2223.1969	10765.075
2226.11061	10765.975
2229.02246	10722.875
2231.93245	10713.575
2234.84058	10696.375
2237.74686	10669.075
2240.65128	10663.775
2243.55385	10657.475
2246.45456	10627.175
2249.35343	10626.075
2252.25044	10605.175
2255.14561	10574.375
2258.03893	10542.575
2260.93041	10524.175
2263.82004	10508.575
2266.70783	10496.975
2269.59378	10461.175
2272.4779	10452.475
2275.36017	10408.175
2278.24061	10408.075
2281.11922	10381.875
2283.996	10347.175
2286.87094	10336.175
2289.74405	10306.975
2292.61534	10276.675
2295.4848	10280.175
2298.35243	10306.075
2301.21824	10266.375
2304.08223	10263.375
2306.94439	10262.375
2309.80474	10234.875
2312.66327	10210.475
2315.51999	10216.975
2318.37489	10203.575
2321.22797	10176.375
2324.07925	10166.375
2326.92871	10136.375
2329.77637	10140.575
2332.62222	10125.275
2335.46626	10096.375
2338.3085	10089.075
2341.14893	10088.775
2343.98756	10056.475
2346.8244	10081.175
2349.65943	10073.575
2352.49267	10043.975
2355.32411	10045.775
2358.15376	10020.675
2360.98161	10037.875
2363.80768	10030.775
2366.63195	10008.875
2369.45444	10016.375
2372.27514	9996.775
2375.09405	9991.675
2377.91118	9949.975
2380.72652	9943.375
2383.54009	9915.075
2386.35187	9907.375
2389.16188	9889.375
2391.97011	9856.375
2394.77657	9830.675
2397.58125	9810.575
2400.38416	9794.775
2403.18529	9778.475
2405.98466	9776.375
2408.78226	9750.375
2411.57809	9740.275
2414.37216	9746.875
2417.16446	9739.875
2419.955	9717.675
2422.74378	9728.275
2425.5308	9707.575
2428.31606	9686.575
2431.09956	9676.075
2433.88131	9680.375
2436.6613	9672.075
2439.43954	9647.975
2442.21603	9647.475
2444.99077	9605.475
2447.76377	9618.575
2450.53501	9617.475
2453.30451	9614.475
2456.07226	9588.175
2458.83827	9561.375
2461.60254	9576.175
2464.36507	9569.675
2467.12586	9561.275
2469.88492	9543.075
2472.64224	9545.175
2475.39782	9544.475
2478.15167	9529.675
2480.90379	9513.675
2483.65417	9544.475
2486.40283	9515.775
2489.14976	9512.775
2491.89497	9515.375
2494.63845	9502.075
2497.3802	9515.575
2500.12024	9460.875
2502.85855	9502.875
2505.59514	9459.875
2508.33002	9446.875
2511.06318	9442.375
2513.79462	9437.475
2516.52435	9417.575
2519.25237	9416.075
2521.97867	9392.275
2524.70327	9403.075
2527.42616	9364.675
2530.14734	9357.975
2532.86681	9332.775
2535.58458	9349.375
2538.30065	9321.275
2541.01501	9354.175
2543.72768	9321.075
2546.43864	9296.575
2549.14791	9273.075
2551.85548	9275.975
2554.56136	9244.375
2557.26554	9219.375
2559.96803	9224.475
2562.66883	9228.375
2565.36794	9215.075
2568.06536	9197.475
2570.7611	9164.675
2573.45514	9145.875
2576.14751	9128.475
2578.83819	9126.375
2581.52719	9092.375
2584.21451	9101.375
2586.90015	9070.575
2589.58411	9079.375
2592.2664	9073.275
2594.94701	9039.075
2597.62594	9035.275
2600.30321	9017.175
2602.9788	9010.175
2605.65273	8995.975
2608.32498	8989.175
2610.99557	8956.375
2613.66449	8974.975
2616.33175	8976.875
2618.99734	8939.875
2621.66128	8957.375
2624.32355	8932.775
2626.98416	8917.375
2629.64311	8897.975
2632.30041	8895.475
2634.95605	8877.175
2637.61004	8850.575
2640.26238	8867.675
2642.91306	8852.775
2645.56209	8860.175
2648.20948	8856.075
2650.85521	8832.775
2653.4993	8842.475
2656.14175	8852.075
2658.78255	8855.975
2661.42171	8837.575
2664.05923	8837.575
2666.6951	8836.075
2669.32934	8847.875
2671.96194	8840.175
2674.59291	8846.375
2677.22224	8824.075
2679.84993	8831.875
2682.476	8813.575
2685.10043	8832.975
2687.72324	8803.175
2690.34441	8811.275
2692.96396	8808.275
2695.58188	8808.675
2698.19818	8790.375
2700.81285	8814.175
2703.4259	8810.175
2706.03733	8803.875
2708.64714	8791.875
2711.25533	8806.675
2713.86191	8800.775
2716.46687	8805.675
2719.07021	8805.775
2721.67194	8811.475
2724.27206	8808.175
2726.87057	8822.875
2729.46747	8809.675
2732.06276	8838.975
2734.65644	8795.175
2737.24852	8803.375
2739.83899	8780.375
2742.42786	8771.375
2745.01513	8746.175
2747.60079	8781.775
2750.18486	8739.975
2752.76733	8741.175
2755.3482	8715.175
2757.92747	8730.775
2760.50515	8700.175
2763.08123	8688.475
2765.65573	8696.875
2768.22863	8677.475
2770.79994	8675.875
2773.36967	8670.075
2775.9378	8659.275
2778.50435	8662.675
2781.06932	8640.075
2783.6327	8619.675
2786.1945	8597.675
2788.75471	8603.075
2791.31335	8580.475
2793.87041	8580.675
2796.42589	8548.075
2798.97979	8548.575
2801.53212	8529.575
2804.08288	8502.975
2806.63206	8474.975
2809.17967	8472.575
2811.72571	8430.975
2814.27018	8429.975
2816.81308	8420.575
2819.35442	8393.975
2821.89419	8396.375
2824.43239	8400.375
2826.96904	8389.775
2829.50412	8370.575
2832.03763	8361.175
2834.56959	8348.275
2837.1	8333.575
2839.62884	8351.175
2842.15613	8321.475
2844.68186	8342.575
2847.20604	8331.175
2849.72867	8346.375
2852.24974	8336.675
2854.76927	8331.075
2857.28724	8310.375
2859.80367	8315.375
2862.31855	8310.175
2864.83189	8284.675
2867.34368	8254.775
2869.85393	8247.375
2872.36264	8239.675
2874.8698	8226.875
2877.37543	8227.075
2879.87952	8208.575
2882.38207	8205.475
2884.88308	8195.975
2887.38256	8201.075
2889.88051	8183.875
2892.37692	8191.275
2894.8718	8205.775
2897.36515	8214.575
2899.85698	8174.275
2902.34727	8218.075
2904.83604	8194.875
2907.32328	8205.775
2909.809	8219.675
2912.29319	8216.175
2914.77587	8201.675
2917.25702	8190.375
2919.73665	8190.775
2922.21476	8199.375
2924.69136	8184.575
2927.16644	8191.175
2929.64	8188.375
2932.11205	8187.575
2934.58258	8148.975
2937.05161	8155.875
2939.51912	8143.875
2941.98513	8131.475
2944.44962	8090.875
2946.91261	8085.975
2949.37409	8084.375
2951.83407	8090.375
2954.29254	8061.575
2956.74951	8046.675
2959.20498	8039.275
2961.65895	8035.275
2964.11142	8052.775
2966.56239	8037.875
2969.01186	8027.075
2971.45984	7997.175
2973.90632	8001.675
2976.35131	7979.375
2978.7948	7979.475
2981.23681	7954.175
2983.67732	7928.175
2986.11635	7896.075
2988.55388	7904.675
2990.98993	7870.575
2993.4245	7864.975
2995.85758	7846.675
2998.28917	7837.475
3000.71928	7790.175
3003.14791	7793.975
3005.57506	7784.375
3008.00073	7758.375
3010.42493	7750.175
3012.84764	7742.575
3015.26888	7742.075
3017.68865	7720.775
3020.10694	7696.675
3022.52376	7692.575
3024.9391	7673.475
3027.35298	7660.175
3029.76539	7657.575
3032.17632	7662.075
3034.5858	7640.875
3036.9938	7645.475
3039.40034	7617.875
3041.80542	7628.975
3044.20903	7604.875
3046.61118	7586.675
3049.01187	7567.375
3051.4111	7567.875
3053.80888	7547.175
3056.20519	7540.975
3058.60005	7507.575
3060.99345	7487.575
3063.3854	7475.275
3065.7759	7463.375
3068.16494	7467.375
3070.55254	7422.275
3072.93868	7411.275
3075.32338	7413.875
3077.70662	7412.775
3080.08842	7382.775
3082.46878	7368.075
3084.84769	7362.875
3087.22515	7342.375
3089.60118	7340.775
3091.97576	7332.975
3094.3489	7333.475
3096.72061	7345.475
3099.09087	7352.875
3101.4597	7324.675
3103.82709	7317.475
3106.19305	7297.875
3108.55757	7346.375
3110.92066	7300.675
3113.28232	7281.875
3115.64255	7269.975
3118.00134	7246.275
3120.35871	7262.775
3122.71466	7243.875
3125.06917	7203.675
3127.42226	7185.275
3129.77393	7182.475
3132.12417	7169.875
3134.47299	7179.275
3136.82039	7171.575
3139.16636	7170.275
3141.51092	7180.075
3143.85406	7188.275
3146.19579	7193.275
3148.53609	7207.375
3150.87499	7176.075
3153.21246	7192.175
3155.54853	7191.875
3157.88318	7194.775
3160.21642	7182.175
3162.54826	7181.475
3164.87868	7171.975
