Data from AgNPs_FTO_APTES_UA_1uM_CRN_100uM_R6G_10uM_NaF_0.1M_Addition_RamanShift__0__16-20-39-762.txt Node

Date: Thu Jan 27 16:20:39 GMT 2022
User: TCL
Spectrometer: QEP01345
Trigger mode: 4
Integration Time (sec): 7.000000E0
Scans to average: 10
Electric dark correction enabled: true
Nonlinearity correction enabled: false
Boxcar width: 0
XAxis mode: Raman Shifts
Number of Pixels in Spectrum: 1044
>>>>>Begin Spectral Data<<<<<
46.04893	2.225
50.45542	-1.075
54.85868	-1.675
59.25871	-2.075
63.6555	48.225
68.04907	49.125
72.43941	49.525
76.82654	55.925
81.21044	57.125
85.59113	57.825
89.96862	57.025
94.34289	61.525
98.71396	63.625
103.08183	58.625
107.4465	67.525
111.80798	68.325
116.16626	68.725
120.52136	75.825
124.87327	77.425
129.222	77.125
133.56755	82.325
137.90993	82.625
142.24913	89.125
146.58517	99.625
150.91804	115.125
155.24774	131.925
159.57429	158.325
163.89768	198.925
168.21792	263.625
172.53501	348.725
176.84895	482.125
181.15975	677.725
185.46741	936.825
189.77193	1299.925
194.07331	1727.425
198.37157	2241.625
202.6667	2773.725
206.9587	3283.725
211.24758	3808.025
215.53334	4331.325
219.81599	4869.725
224.09553	5476.325
228.37195	6138.025
232.64527	6870.325
236.91549	7614.425
241.18261	8370.925
245.44663	9100.925
249.70755	9751.825
253.96539	10337.125
258.22014	10839.625
262.4718	11251.025
266.72039	11534.625
270.96589	11687.225
275.20832	11708.025
279.44768	11634.125
283.68397	11530.025
287.91719	11414.225
292.14735	11325.225
296.37445	11317.125
300.59849	11355.625
304.81948	11433.025
309.03742	11442.625
313.25231	11390.325
317.46415	11227.525
321.67296	10976.725
325.87872	10748.625
330.08145	10644.125
334.28114	10640.425
338.47781	10716.825
342.67145	10853.825
346.86207	11007.525
351.04966	11225.825
355.23424	11443.825
359.4158	11607.625
363.59435	11790.925
367.76989	11892.625
371.94243	11967.525
376.11196	12029.425
380.27849	12074.525
384.44203	12129.225
388.60257	12189.925
392.76012	12281.725
396.91468	12455.225
401.06626	12607.025
405.21485	12735.725
409.36047	12717.025
413.50311	12551.025
417.64277	12420.425
421.77947	12375.625
425.9132	12367.525
430.04396	12395.525
434.17176	12455.625
438.2966	12559.225
442.41849	12749.625
446.53742	13086.025
450.6534	13392.925
454.76644	13625.525
458.87653	13708.125
462.98368	13682.925
467.08789	13570.725
471.18916	13454.625
475.2875	13323.125
479.38291	13272.525
483.4754	13212.325
487.56496	13056.725
491.6516	12905.725
495.73531	12795.325
499.81612	12702.525
503.89401	12706.225
507.96899	12777.025
512.04106	12735.625
516.11023	12720.125
520.1765	12656.625
524.23987	12584.725
528.30034	12537.225
532.35792	12466.425
536.41261	12358.225
540.46441	12233.825
544.51333	12224.125
548.55936	12299.025
552.60252	12497.825
556.64279	12737.825
560.6802	12912.225
564.71473	13027.125
568.7464	13201.725
572.7752	13423.925
576.80114	13600.025
580.82422	13765.025
584.84444	14048.625
588.86181	14362.425
592.87633	14700.225
596.888	14715.925
600.89682	14431.925
604.9028	14478.625
608.90594	15387.225
612.90624	16514.125
616.90371	15912.025
620.89834	13776.825
624.89015	12792.825
628.87913	12639.525
632.86528	12721.425
636.84862	12720.825
640.82913	12596.825
644.80683	12354.925
648.78172	12219.225
652.75379	12213.525
656.72306	12344.225
660.68952	12518.325
664.65319	12463.525
668.61405	12291.025
672.57211	12259.925
676.52738	12283.325
680.47986	12319.325
684.42955	12250.825
688.37646	12227.725
692.32058	12252.925
696.26192	12377.125
700.20048	12497.725
704.13626	12581.325
708.06928	12582.825
711.99952	12534.425
715.927	12515.825
719.85171	12581.325
723.77365	12542.725
727.69284	12430.425
731.60928	12311.025
735.52295	12288.125
739.43388	12286.525
743.34206	12307.925
747.24749	12354.925
751.15017	12441.725
755.05012	12578.425
758.94733	12842.625
762.8418	13328.725
766.73354	14009.525
770.62254	14765.825
774.50882	14973.325
778.39237	14581.125
782.27321	13798.325
786.15132	13122.725
790.02671	12676.725
793.89938	12437.925
797.76935	12384.825
801.6366	12305.725
805.50115	12270.925
809.36299	12245.125
813.22213	12189.325
817.07857	12179.225
820.93231	12195.225
824.78336	12163.525
828.63172	12131.125
832.47738	12130.625
836.32036	12156.325
840.16066	12188.225
843.99827	12219.025
847.8332	12204.725
851.66546	12153.525
855.49504	12145.325
859.32195	12142.225
863.1462	12153.925
866.96777	12156.225
870.78668	12104.725
874.60293	12116.125
878.41652	12106.225
882.22745	12148.125
886.03573	12168.425
889.84136	12172.225
893.64433	12146.425
897.44466	12109.025
901.24235	12048.525
905.0374	12032.225
908.8298	12011.325
912.61957	12030.625
916.40671	12099.825
920.19121	12246.025
923.97308	12327.025
927.75233	12323.325
931.52895	12299.025
935.30295	12210.025
939.07433	12043.825
942.84309	11941.025
946.60924	11882.425
950.37278	11806.225
954.13371	11788.225
957.89203	11773.225
961.64774	11762.925
965.40086	11753.925
969.15137	11739.525
972.89929	11707.725
976.64461	11698.125
980.38733	11729.525
984.12747	11760.525
987.86502	11809.425
991.59999	11894.725
995.33237	12019.925
999.06217	12197.925
1002.78939	12411.725
1006.51404	12543.325
1010.23611	12617.625
1013.95561	12728.125
1017.67255	12721.225
1021.38692	12668.525
1025.09872	12543.625
1028.80796	12512.325
1032.51465	12683.525
1036.21877	12857.025
1039.92035	12919.525
1043.61937	12891.225
1047.31584	12763.225
1051.00976	12663.125
1054.70114	12568.825
1058.38998	12571.025
1062.07627	12616.625
1065.76003	12683.025
1069.44126	12803.625
1073.11995	12952.225
1076.79611	13061.625
1080.46974	13159.925
1084.14085	13188.425
1087.80943	13259.925
1091.47549	13333.025
1095.13903	13364.625
1098.80005	13260.625
1102.45857	13070.525
1106.11456	12899.325
1109.76805	12794.825
1113.41903	12788.225
1117.06751	12834.025
1120.71348	12941.125
1124.35696	13080.325
1127.99793	13239.925
1131.63641	13314.525
1135.2724	13181.525
1138.90589	13065.325
1142.5369	13062.125
1146.16542	13094.625
1149.79145	13120.225
1153.415	13203.325
1157.03607	13296.125
1160.65467	13549.225
1164.27079	13934.625
1167.88443	14407.725
1171.49561	15053.225
1175.10432	15765.325
1178.71056	16730.425
1182.31434	17587.725
1185.91565	17922.325
1189.51451	17861.425
1193.11091	17444.325
1196.70485	16993.125
1200.29634	16548.825
1203.88538	16277.725
1207.47197	15980.125
1211.05612	15761.425
1214.63782	15511.525
1218.21708	15235.325
1221.79391	14969.925
1225.36829	14797.625
1228.94024	14646.525
1232.50976	14500.525
1236.07685	14390.625
1239.6415	14283.925
1243.20374	14337.325
1246.76355	14420.025
1250.32093	14602.325
1253.8759	14790.425
1257.42845	15052.425
1260.97859	15367.125
1264.52631	15627.225
1268.07163	15917.425
1271.61453	16271.725
1275.15503	16576.525
1278.69312	16918.025
1282.22882	17263.425
1285.76211	17668.425
1289.29301	18173.025
1292.82151	18808.125
1296.34761	19627.625
1299.87133	20559.625
1303.39266	21501.625
1306.9116	22469.125
1310.42815	23262.625
1313.94233	23682.225
1317.45412	23496.525
1320.96354	23022.825
1324.47058	22538.325
1327.97525	22105.425
1331.47754	21771.225
1334.97747	21504.125
1338.47502	21344.925
1341.97022	21126.525
1345.46305	20936.225
1348.95352	20924.325
1352.44163	21073.125
1355.92738	21692.025
1359.41078	22589.925
1362.89183	23402.725
1366.37053	23222.425
1369.84688	21535.425
1373.32088	19490.925
1376.79254	18106.025
1380.26186	17564.025
1383.72883	17536.225
1387.19347	17518.925
1390.65578	17367.125
1394.11575	17236.025
1397.57339	17263.425
1401.0287	17461.425
1404.48168	17561.525
1407.93234	17507.325
1411.38068	17205.725
1414.82669	16843.225
1418.27039	16351.125
1421.71177	15865.925
1425.15083	15464.625
1428.58758	15225.425
1432.02203	15280.425
1435.45416	15564.725
1438.88399	15833.925
1442.31151	16085.625
1445.73673	16274.725
1449.15965	16379.525
1452.58027	16445.725
1455.9986	16404.925
1459.41463	16399.825
1462.82837	16510.325
1466.23982	16692.325
1469.64898	16971.525
1473.05586	17148.425
1476.46045	17251.325
1479.86276	17233.825
1483.26279	17172.625
1486.66054	17143.925
1490.05602	17187.625
1493.44922	17361.225
1496.84016	17639.625
1500.22882	17998.025
1503.61521	18518.925
1506.99934	19172.625
1510.38121	19806.425
1513.76081	20028.125
1517.13816	19695.725
1520.51324	19001.425
1523.88607	18325.025
1527.25665	17976.125
1530.62498	17804.425
1533.99105	17677.525
1537.35488	17485.625
1540.71647	17191.325
1544.07581	16861.225
1547.4329	16536.625
1550.78776	16249.325
1554.14038	16069.925
1557.49077	16046.225
1560.83892	16013.825
1564.18484	16032.125
1567.52853	16152.325
1570.86999	16321.025
1574.20922	16598.125
1577.54624	16775.125
1580.88103	16830.625
1584.2136	16837.225
1587.54395	17115.725
1590.87208	17632.625
1594.19801	18345.925
1597.52172	19044.525
1600.84321	19160.225
1604.16251	18483.825
1607.47959	17408.025
1610.79447	16272.125
1614.10715	15236.025
1617.41763	14440.025
1620.7259	13917.525
1624.03199	13649.025
1627.33587	13671.125
1630.63757	13919.225
1633.93707	14466.725
1637.23439	15326.625
1640.52951	16696.425
1643.82246	18402.825
1647.11321	19914.425
1650.40179	20360.825
1653.68819	19417.925
1656.97241	17433.425
1660.25446	15415.425
1663.53433	13915.125
1666.81203	12969.425
1670.08756	12413.325
1673.36092	12024.925
1676.63211	11808.325
1679.90115	11621.325
1683.16801	11503.525
1686.43272	11427.425
1689.69527	11341.025
1692.95567	11259.425
1696.2139	11217.925
1699.46999	11149.325
1702.72392	11103.725
1705.97571	11119.925
1709.22535	11135.825
1712.47284	11156.825
1715.71819	11173.325
1718.96139	11165.925
1722.20246	11166.225
1725.44139	11119.725
1728.67818	11060.925
1731.91284	11030.225
1735.14537	10987.925
1738.37576	10940.125
1741.60403	10903.925
1744.83017	10865.225
1748.05418	10860.625
1751.27607	10849.525
1754.49584	10799.425
1757.71349	10787.925
1760.92903	10745.325
1764.14244	10752.325
1767.35375	10740.925
1770.56294	10753.325
1773.77002	10725.925
1776.97499	10741.425
1780.17785	10737.525
1783.37861	10764.725
1786.57727	10747.525
1789.77382	10742.925
1792.96828	10690.325
1796.16064	10699.125
1799.3509	10681.825
1802.53907	10684.225
1805.72514	10658.325
1808.90913	10625.025
1812.09102	10603.625
1815.27083	10587.825
1818.44856	10592.025
1821.6242	10563.225
1824.79776	10542.925
1827.96924	10540.425
1831.13864	10520.725
1834.30597	10547.825
1837.47122	10535.425
1840.6344	10504.925
1843.7955	10509.225
1846.95454	10505.225
1850.11151	10485.425
1853.26642	10493.625
1856.41926	10484.125
1859.57004	10525.125
1862.71876	10492.725
1865.86542	10477.325
1869.01003	10464.425
1872.15258	10455.625
1875.29308	10450.825
1878.43152	10433.625
1881.56792	10463.925
1884.70227	10410.225
1887.83457	10393.725
1890.96482	10401.925
1894.09304	10409.025
1897.21921	10395.925
1900.34335	10373.925
1903.46544	10371.125
1906.58551	10380.625
1909.70353	10353.625
1912.81953	10340.625
1915.93349	10359.625
1919.04543	10310.325
1922.15534	10296.825
1925.26322	10287.425
1928.36908	10271.225
1931.47292	10264.125
1934.57473	10243.425
1937.67453	10214.925
1940.77232	10191.325
1943.86808	10119.925
1946.96184	10144.825
1950.05358	10105.925
1953.14331	10071.125
1956.23103	10062.925
1959.31675	10056.525
1962.40046	10008.725
1965.48217	9997.225
1968.56188	9976.625
1971.63959	9957.825
1974.7153	9908.025
1977.78901	9883.225
1980.86073	9886.025
1983.93046	9844.925
1986.99819	9806.125
1990.06394	9771.225
1993.1277	9759.725
1996.18947	9715.325
1999.24925	9694.925
2002.30706	9667.625
2005.36288	9648.725
2008.41672	9617.025
2011.46859	9595.125
2014.51848	9601.825
2017.56639	9564.425
2020.61233	9545.425
2023.6563	9559.325
2026.6983	9502.625
2029.73833	9474.125
2032.7764	9483.625
2035.8125	9422.225
2038.84664	9431.525
2041.87881	9430.825
2044.90903	9397.925
2047.93729	9399.525
2050.96359	9385.225
2053.98794	9363.925
2057.01034	9377.125
2060.03078	9373.825
2063.04927	9362.225
2066.06582	9352.725
2069.08042	9333.625
2072.09307	9347.725
2075.10378	9335.225
2078.11255	9343.725
2081.11938	9326.425
2084.12426	9322.925
2087.12722	9319.125
2090.12824	9325.525
2093.12732	9314.525
2096.12447	9321.925
2099.11969	9307.325
2102.11299	9341.625
2105.10435	9350.825
2108.09379	9332.125
2111.08131	9337.125
2114.0669	9393.625
2117.05057	9370.725
2120.03233	9391.025
2123.01216	9373.125
2125.99008	9391.325
2128.96609	9402.825
2131.94018	9426.025
2134.91236	9428.325
2137.88263	9430.125
2140.851	9438.725
2143.81746	9469.825
2146.78201	9431.325
2149.74466	9444.125
2152.7054	9465.625
2155.66425	9456.225
2158.6212	9463.725
2161.57625	9430.425
2164.52941	9450.225
2167.48067	9453.025
2170.43004	9443.825
2173.37752	9462.825
2176.32311	9457.125
2179.26681	9452.325
2182.20863	9454.925
2185.14856	9471.525
2188.08661	9463.225
2191.02278	9477.425
2193.95707	9470.125
2196.88948	9461.625
2199.82001	9442.025
2202.74867	9443.125
2205.67545	9435.925
2208.60037	9402.025
2211.52341	9430.325
2214.44458	9397.725
2217.36388	9373.225
2220.28132	9388.525
2223.1969	9362.125
2226.11061	9376.225
2229.02246	9321.125
2231.93245	9334.325
2234.84058	9308.025
2237.74686	9295.825
2240.65128	9296.225
2243.55385	9291.625
2246.45456	9275.025
2249.35343	9234.225
2252.25044	9265.725
2255.14561	9237.925
2258.03893	9249.725
2260.93041	9212.625
2263.82004	9190.125
2266.70783	9174.125
2269.59378	9149.325
2272.4779	9144.225
2275.36017	9156.025
2278.24061	9098.025
2281.11922	9103.725
2283.996	9113.125
2286.87094	9065.325
2289.74405	9048.225
2292.61534	9028.825
2295.4848	9044.125
2298.35243	9047.825
2301.21824	9063.225
2304.08223	9060.925
2306.94439	9080.625
2309.80474	9051.025
2312.66327	9048.925
2315.51999	9047.125
2318.37489	9037.825
2321.22797	9029.525
2324.07925	9010.725
2326.92871	8990.225
2329.77637	8998.525
2332.62222	8988.025
2335.46626	8954.425
2338.3085	8966.225
2341.14893	8961.925
2343.98756	8962.325
2346.8244	8949.725
2349.65943	8935.825
2352.49267	8948.625
2355.32411	8930.225
2358.15376	8930.025
2360.98161	8920.225
2363.80768	8922.925
2366.63195	8908.925
2369.45444	8915.525
2372.27514	8909.225
2375.09405	8900.125
2377.91118	8905.425
2380.72652	8869.925
2383.54009	8860.325
2386.35187	8846.825
2389.16188	8817.025
2391.97011	8808.525
2394.77657	8817.125
2397.58125	8770.425
2400.38416	8758.625
2403.18529	8765.525
2405.98466	8756.725
2408.78226	8755.225
2411.57809	8736.425
2414.37216	8718.225
2417.16446	8724.525
2419.955	8720.925
2422.74378	8716.225
2425.5308	8692.725
2428.31606	8694.125
2431.09956	8680.025
2433.88131	8664.225
2436.6613	8681.125
2439.43954	8687.825
2442.21603	8677.625
2444.99077	8672.225
2447.76377	8675.225
2450.53501	8660.425
2453.30451	8664.225
2456.07226	8673.125
2458.83827	8636.625
2461.60254	8628.825
2464.36507	8643.025
2467.12586	8627.625
2469.88492	8634.625
2472.64224	8615.925
2475.39782	8635.425
2478.15167	8611.525
2480.90379	8602.525
2483.65417	8639.625
2486.40283	8628.725
2489.14976	8635.525
2491.89497	8612.425
2494.63845	8637.725
2497.3802	8606.825
2500.12024	8600.325
2502.85855	8614.925
2505.59514	8595.325
2508.33002	8591.225
2511.06318	8563.225
2513.79462	8601.025
2516.52435	8564.425
2519.25237	8574.025
2521.97867	8565.325
2524.70327	8570.525
2527.42616	8539.525
2530.14734	8550.625
2532.86681	8527.625
2535.58458	8515.425
2538.30065	8525.625
2541.01501	8521.525
2543.72768	8503.225
2546.43864	8496.025
2549.14791	8470.625
2551.85548	8479.025
2554.56136	8467.925
2557.26554	8455.325
2559.96803	8443.125
2562.66883	8444.625
2565.36794	8436.125
2568.06536	8422.025
2570.7611	8439.825
2573.45514	8397.025
2576.14751	8398.925
2578.83819	8380.425
2581.52719	8378.025
2584.21451	8370.625
2586.90015	8368.225
2589.58411	8353.025
2592.2664	8360.325
2594.94701	8337.025
2597.62594	8339.625
2600.30321	8319.825
2602.9788	8321.525
2605.65273	8305.825
2608.32498	8306.225
2610.99557	8283.525
2613.66449	8302.525
2616.33175	8276.425
2618.99734	8298.425
2621.66128	8270.425
2624.32355	8262.825
2626.98416	8257.125
2629.64311	8260.725
2632.30041	8253.725
2634.95605	8239.425
2637.61004	8223.925
2640.26238	8227.225
2642.91306	8194.525
2645.56209	8209.325
2648.20948	8205.925
2650.85521	8180.225
2653.4993	8196.225
2656.14175	8209.225
2658.78255	8211.525
2661.42171	8222.025
2664.05923	8238.225
2666.6951	8232.925
2669.32934	8243.625
2671.96194	8205.325
2674.59291	8229.925
2677.22224	8202.725
2679.84993	8219.925
2682.476	8206.125
2685.10043	8223.125
2687.72324	8200.125
2690.34441	8213.325
2692.96396	8225.425
2695.58188	8199.625
2698.19818	8222.025
2700.81285	8222.625
2703.4259	8227.125
2706.03733	8203.625
2708.64714	8195.525
2711.25533	8217.325
2713.86191	8226.425
2716.46687	8227.025
2719.07021	8221.925
2721.67194	8246.125
2724.27206	8240.425
2726.87057	8265.725
2729.46747	8260.525
2732.06276	8267.725
2734.65644	8249.025
2737.24852	8258.725
2739.83899	8234.325
2742.42786	8256.025
2745.01513	8218.725
2747.60079	8250.425
2750.18486	8235.625
2752.76733	8225.725
2755.3482	8211.825
2757.92747	8222.925
2760.50515	8210.325
2763.08123	8190.325
2765.65573	8176.125
2768.22863	8204.725
2770.79994	8173.425
2773.36967	8176.825
2775.9378	8175.125
2778.50435	8171.525
2781.06932	8162.425
2783.6327	8149.225
2786.1945	8140.425
2788.75471	8133.025
2791.31335	8125.825
2793.87041	8108.725
2796.42589	8100.425
2798.97979	8106.525
2801.53212	8087.125
2804.08288	8068.825
2806.63206	8061.425
2809.17967	8044.325
2811.72571	8030.325
2814.27018	8039.825
2816.81308	7998.025
2819.35442	7985.625
2821.89419	7977.525
2824.43239	7973.025
2826.96904	7969.425
2829.50412	7982.925
2832.03763	7956.325
2834.56959	7950.725
2837.1	7947.725
2839.62884	7950.125
2842.15613	7964.725
2844.68186	7987.225
2847.20604	7980.825
2849.72867	7975.625
2852.24974	7974.425
2854.76927	7970.625
2857.28724	7948.025
2859.80367	7952.325
2862.31855	7937.625
2864.83189	7959.725
2867.34368	7914.525
2869.85393	7950.925
2872.36264	7909.125
2874.8698	7914.225
2877.37543	7896.225
2879.87952	7916.825
2882.38207	7923.425
2884.88308	7872.825
2887.38256	7901.825
2889.88051	7908.325
2892.37692	7913.425
2894.8718	7913.825
2897.36515	7941.825
2899.85698	7925.625
2902.34727	7931.325
2904.83604	7930.825
2907.32328	7959.325
2909.809	7939.425
2912.29319	7946.025
2914.77587	7949.925
2917.25702	7927.025
2919.73665	7930.525
2922.21476	7936.825
2924.69136	7945.825
2927.16644	7922.725
2929.64	7937.025
2932.11205	7927.525
2934.58258	7907.725
2937.05161	7891.525
2939.51912	7924.725
2941.98513	7905.725
2944.44962	7872.325
2946.91261	7863.125
2949.37409	7863.325
2951.83407	7871.425
2954.29254	7850.325
2956.74951	7862.825
2959.20498	7863.525
2961.65895	7851.425
2964.11142	7840.525
2966.56239	7837.325
2969.01186	7840.425
2971.45984	7829.525
2973.90632	7820.125
2976.35131	7783.225
2978.7948	7803.125
2981.23681	7790.025
2983.67732	7786.525
2986.11635	7780.225
2988.55388	7752.325
2990.98993	7743.725
2993.4245	7739.925
2995.85758	7718.825
2998.28917	7707.725
3000.71928	7696.825
3003.14791	7680.825
3005.57506	7679.925
3008.00073	7659.025
3010.42493	7663.425
3012.84764	7642.425
3015.26888	7648.825
3017.68865	7625.325
3020.10694	7629.725
3022.52376	7600.425
3024.9391	7591.025
3027.35298	7575.325
3029.76539	7604.525
3032.17632	7592.425
3034.5858	7557.325
3036.9938	7569.025
3039.40034	7564.825
3041.80542	7583.925
3044.20903	7568.625
3046.61118	7540.425
3049.01187	7542.725
3051.4111	7525.725
3053.80888	7530.825
3056.20519	7520.925
3058.60005	7509.225
3060.99345	7470.525
3063.3854	7456.925
3065.7759	7443.625
3068.16494	7438.325
3070.55254	7430.225
3072.93868	7436.025
3075.32338	7403.025
3077.70662	7384.125
3080.08842	7370.325
3082.46878	7373.525
3084.84769	7400.825
3087.22515	7381.925
3089.60118	7365.725
3091.97576	7373.025
3094.3489	7405.525
3096.72061	7377.925
3099.09087	7402.325
3101.4597	7373.125
3103.82709	7393.025
3106.19305	7370.225
3108.55757	7379.125
3110.92066	7366.725
3113.28232	7360.025
3115.64255	7335.125
3118.00134	7317.925
3120.35871	7342.125
3122.71466	7314.525
3125.06917	7303.025
3127.42226	7272.425
3129.77393	7307.625
3132.12417	7276.525
3134.47299	7288.725
3136.82039	7293.025
3139.16636	7305.725
3141.51092	7300.825
3143.85406	7306.025
3146.19579	7300.625
3148.53609	7320.325
3150.87499	7343.125
3153.21246	7337.825
3155.54853	7346.725
3157.88318	7337.125
3160.21642	7338.025
3162.54826	7367.125
3164.87868	7354.325
3167.2077	7338.725
3169.5353	7355.325
3171.86151	7351.225
3174.18631	7351.625
3176.5097	7348.225
3178.83169	7346.425
3181.15228	7346.525
