Data from AgNPs_FTO_APTES_UA_1uM_CRN_0uM_R6G_10uM_NaF_0.1M_Addition_RamanShift__25__11-34-49-436.txt Node

Date: Thu Jan 27 11:34:49 GMT 2022
User: TCL
Spectrometer: QEP01345
Trigger mode: 4
Integration Time (sec): 7.000000E0
Scans to average: 10
Electric dark correction enabled: true
Nonlinearity correction enabled: false
Boxcar width: 0
XAxis mode: Raman Shifts
Number of Pixels in Spectrum: 1044
>>>>>Begin Spectral Data<<<<<
46.04893	0.5875
50.45542	1.2875
54.85868	-2.1125
59.25871	-1.3125
63.6555	54.1875
68.04907	55.9875
72.43941	55.9875
76.82654	58.5875
81.21044	61.8875
85.59113	63.8875
89.96862	67.5875
94.34289	67.4875
98.71396	73.9875
103.08183	69.2875
107.4465	73.6875
111.80798	75.1875
116.16626	75.7875
120.52136	83.4875
124.87327	84.0875
129.222	83.7875
133.56755	88.5875
137.90993	93.1875
142.24913	104.4875
146.58517	110.5875
150.91804	130.1875
155.24774	148.0875
159.57429	175.5875
163.89768	223.0875
168.21792	290.8875
172.53501	397.1875
176.84895	541.6875
181.15975	752.7875
185.46741	1050.5875
189.77193	1448.5875
194.07331	1943.4875
198.37157	2499.2875
202.6667	3092.8875
206.9587	3690.4875
211.24758	4258.5875
215.53334	4853.2875
219.81599	5491.7875
224.09553	6172.7875
228.37195	6921.4875
232.64527	7775.3875
236.91549	8650.9875
241.18261	9525.2875
245.44663	10310.5875
249.70755	11029.1875
253.96539	11606.0875
258.22014	12098.9875
262.4718	12489.8875
266.72039	12763.7875
270.96589	12893.3875
275.20832	12858.7875
279.44768	12713.4875
283.68397	12539.3875
287.91719	12346.2875
292.14735	12240.5875
296.37445	12211.1875
300.59849	12246.0875
304.81948	12377.3875
309.03742	12467.0875
313.25231	12481.1875
317.46415	12431.2875
321.67296	12280.4875
325.87872	12150.5875
330.08145	12102.3875
334.28114	12123.1875
338.47781	12210.9875
342.67145	12351.8875
346.86207	12510.9875
351.04966	12791.9875
355.23424	13039.8875
359.4158	13259.2875
363.59435	13421.0875
367.76989	13498.7875
371.94243	13574.3875
376.11196	13621.5875
380.27849	13699.0875
384.44203	13801.6875
388.60257	13875.4875
392.76012	13933.4875
396.91468	14078.0875
401.06626	14249.7875
405.21485	14414.4875
409.36047	14431.9875
413.50311	14302.1875
417.64277	14246.8875
421.77947	14275.7875
425.9132	14352.1875
430.04396	14428.4875
434.17176	14503.7875
438.2966	14673.2875
442.41849	14954.0875
446.53742	15493.0875
450.6534	16046.0875
454.76644	16401.9875
458.87653	16421.8875
462.98368	16169.8875
467.08789	15849.0875
471.18916	15430.8875
475.2875	14971.6875
479.38291	14605.7875
483.4754	14435.0875
487.56496	14314.8875
491.6516	14286.4875
495.73531	14323.6875
499.81612	14489.3875
503.89401	14651.0875
507.96899	14676.4875
512.04106	14587.2875
516.11023	14496.5875
520.1765	14464.6875
524.23987	14501.3875
528.30034	14511.8875
532.35792	14445.2875
536.41261	14264.6875
540.46441	14016.8875
544.51333	13924.6875
548.55936	14010.1875
552.60252	14228.3875
556.64279	14524.6875
560.6802	14782.4875
564.71473	14736.2875
568.7464	14712.0875
572.7752	14843.3875
576.80114	15086.4875
580.82422	15442.1875
584.84444	16145.1875
588.86181	17173.0875
592.87633	18317.3875
596.888	18750.5875
600.89682	18028.6875
604.9028	17584.7875
608.90594	18653.9875
612.90624	20081.3875
616.90371	19305.0875
620.89834	16663.0875
624.89015	15373.3875
628.87913	15145.2875
632.86528	15059.1875
636.84862	14848.0875
640.82913	14498.2875
644.80683	14175.1875
648.78172	13971.6875
652.75379	13994.3875
656.72306	14229.3875
660.68952	14527.0875
664.65319	14471.4875
668.61405	14295.2875
672.57211	14288.2875
676.52738	14397.2875
680.47986	14374.9875
684.42955	14191.5875
688.37646	14133.9875
692.32058	14285.6875
696.26192	14568.7875
700.20048	14867.7875
704.13626	14893.2875
708.06928	14722.5875
711.99952	14546.2875
715.927	14594.9875
719.85171	14728.6875
723.77365	14697.6875
727.69284	14458.9875
731.60928	14229.6875
735.52295	14195.0875
739.43388	14204.8875
743.34206	14289.0875
747.24749	14401.6875
751.15017	14449.0875
755.05012	14646.5875
758.94733	14935.1875
762.8418	15476.7875
766.73354	16366.8875
770.62254	17312.0875
774.50882	17622.5875
778.39237	17197.3875
782.27321	16350.0875
786.15132	15508.3875
790.02671	14984.0875
793.89938	14760.0875
797.76935	14710.3875
801.6366	14637.9875
805.50115	14589.4875
809.36299	14511.2875
813.22213	14427.5875
817.07857	14323.6875
820.93231	14261.7875
824.78336	14232.2875
828.63172	14270.7875
832.47738	14298.0875
836.32036	14360.8875
840.16066	14507.3875
843.99827	14629.7875
847.8332	14572.4875
851.66546	14440.4875
855.49504	14414.7875
859.32195	14401.0875
863.1462	14343.5875
866.96777	14265.3875
870.78668	14231.6875
874.60293	14226.1875
878.41652	14239.4875
882.22745	14346.3875
886.03573	14436.2875
889.84136	14452.1875
893.64433	14393.2875
897.44466	14243.8875
901.24235	14210.1875
905.0374	14152.1875
908.8298	14121.2875
912.61957	14166.3875
916.40671	14273.0875
920.19121	14459.5875
923.97308	14754.6875
927.75233	14960.1875
931.52895	15015.8875
935.30295	14887.4875
939.07433	14625.9875
942.84309	14461.4875
946.60924	14396.9875
950.37278	14359.0875
954.13371	14314.9875
957.89203	14195.1875
961.64774	14093.1875
965.40086	14074.2875
969.15137	14060.0875
972.89929	14055.0875
976.64461	14110.9875
980.38733	14194.2875
984.12747	14304.2875
987.86502	14457.8875
991.59999	14686.7875
995.33237	15064.6875
999.06217	15693.6875
1002.78939	16377.8875
1006.51404	16824.3875
1010.23611	16963.7875
1013.95561	17044.6875
1017.67255	17019.1875
1021.38692	16831.2875
1025.09872	16713.4875
1028.80796	17065.3875
1032.51465	18003.9875
1036.21877	18888.3875
1039.92035	19120.0875
1043.61937	18704.2875
1047.31584	17919.8875
1051.00976	17021.3875
1054.70114	16458.1875
1058.38998	16177.8875
1062.07627	16043.2875
1065.76003	15965.8875
1069.44126	15988.1875
1073.11995	16137.2875
1076.79611	16427.6875
1080.46974	16677.4875
1084.14085	16833.8875
1087.80943	16955.8875
1091.47549	16938.5875
1095.13903	16804.2875
1098.80005	16502.0875
1102.45857	16164.9875
1106.11456	15985.3875
1109.76805	15951.4875
1113.41903	15983.1875
1117.06751	16019.2875
1120.71348	16087.5875
1124.35696	16160.1875
1127.99793	16285.7875
1131.63641	16399.5875
1135.2724	16347.9875
1138.90589	16243.0875
1142.5369	16182.8875
1146.16542	16173.4875
1149.79145	16179.1875
1153.415	16240.0875
1157.03607	16268.3875
1160.65467	16558.1875
1164.27079	17131.4875
1167.88443	17883.4875
1171.49561	18833.2875
1175.10432	20118.6875
1178.71056	21823.8875
1182.31434	23533.1875
1185.91565	24554.3875
1189.51451	24400.9875
1193.11091	23541.3875
1196.70485	22501.5875
1200.29634	21594.0875
1203.88538	20954.1875
1207.47197	20518.3875
1211.05612	20020.0875
1214.63782	19589.5875
1218.21708	19351.2875
1221.79391	19363.9875
1225.36829	19456.3875
1228.94024	19290.5875
1232.50976	18795.8875
1236.07685	18291.1875
1239.6415	17943.8875
1243.20374	17919.5875
1246.76355	18099.5875
1250.32093	18466.1875
1253.8759	18941.9875
1257.42845	19514.1875
1260.97859	20085.1875
1264.52631	20695.6875
1268.07163	21400.1875
1271.61453	22192.6875
1275.15503	23040.8875
1278.69312	23756.3875
1282.22882	24310.7875
1285.76211	24786.8875
1289.29301	25343.9875
1292.82151	26068.1875
1296.34761	27205.6875
1299.87133	28827.5875
1303.39266	30871.2875
1306.9116	33016.3875
1310.42815	34756.7875
1313.94233	35363.0875
1317.45412	34629.0875
1320.96354	32872.6875
1324.47058	31098.9875
1327.97525	29675.8875
1331.47754	28705.8875
1334.97747	28221.5875
1338.47502	27833.1875
1341.97022	27323.7875
1345.46305	26821.9875
1348.95352	26787.1875
1352.44163	27626.1875
1355.92738	29348.1875
1359.41078	31809.8875
1362.89183	33596.3875
1366.37053	33405.6875
1369.84688	30788.9875
1373.32088	27143.2875
1376.79254	24605.3875
1380.26186	23403.6875
1383.72883	23202.6875
1387.19347	23005.4875
1390.65578	22538.6875
1394.11575	22195.5875
1397.57339	22151.6875
1401.0287	22300.8875
1404.48168	22453.7875
1407.93234	22525.5875
1411.38068	22394.5875
1414.82669	22140.8875
1418.27039	21795.7875
1421.71177	21307.7875
1425.15083	20781.0875
1428.58758	20642.8875
1432.02203	20954.9875
1435.45416	21499.5875
1438.88399	22106.4875
1442.31151	22318.4875
1445.73673	22296.9875
1449.15965	22219.7875
1452.58027	22017.9875
1455.9986	21684.0875
1459.41463	21514.0875
1462.82837	21767.5875
1466.23982	22314.1875
1469.64898	22879.7875
1473.05586	23366.1875
1476.46045	23700.1875
1479.86276	23841.5875
1483.26279	23780.2875
1486.66054	23743.4875
1490.05602	23893.0875
1493.44922	24084.0875
1496.84016	24033.0875
1500.22882	24075.0875
1503.61521	24266.1875
1506.99934	24724.2875
1510.38121	25208.2875
1513.76081	25407.7875
1517.13816	24943.2875
1520.51324	24093.4875
1523.88607	23389.0875
1527.25665	23020.0875
1530.62498	23000.0875
1533.99105	22965.1875
1537.35488	22836.9875
1540.71647	22526.8875
1544.07581	22179.3875
1547.4329	21797.2875
1550.78776	21502.3875
1554.14038	21230.4875
1557.49077	21001.9875
1560.83892	20760.5875
1564.18484	20616.2875
1567.52853	20592.1875
1570.86999	20714.4875
1574.20922	20906.7875
1577.54624	21085.3875
1580.88103	21185.3875
1584.2136	21342.1875
1587.54395	22063.2875
1590.87208	23540.3875
1594.19801	25444.6875
1597.52172	27308.3875
1600.84321	28118.7875
1604.16251	27070.5875
1607.47959	24801.2875
1610.79447	22261.7875
1614.10715	20185.3875
1617.41763	18717.8875
1620.7259	17871.4875
1624.03199	17506.3875
1627.33587	17658.5875
1630.63757	18198.5875
1633.93707	19143.1875
1637.23439	20594.9875
1640.52951	22783.2875
1643.82246	25498.4875
1647.11321	27672.3875
1650.40179	27873.7875
1653.68819	25679.4875
1656.97241	22213.0875
1660.25446	19175.4875
1663.53433	17185.8875
1666.81203	16024.8875
1670.08756	15341.7875
1673.36092	14978.8875
1676.63211	14686.5875
1679.90115	14497.5875
1683.16801	14339.0875
1686.43272	14254.6875
1689.69527	14145.2875
1692.95567	14041.7875
1696.2139	13970.9875
1699.46999	13900.1875
1702.72392	13847.0875
1705.97571	13896.1875
1709.22535	13922.7875
1712.47284	13926.3875
1715.71819	13958.9875
1718.96139	13970.9875
1722.20246	13914.0875
1725.44139	13891.5875
1728.67818	13845.4875
1731.91284	13754.7875
1735.14537	13718.2875
1738.37576	13651.2875
1741.60403	13620.2875
1744.83017	13579.5875
1748.05418	13531.5875
1751.27607	13515.2875
1754.49584	13462.9875
1757.71349	13431.3875
1760.92903	13433.4875
1764.14244	13404.1875
1767.35375	13402.2875
1770.56294	13433.8875
1773.77002	13404.9875
1776.97499	13432.7875
1780.17785	13433.8875
1783.37861	13468.2875
1786.57727	13433.9875
1789.77382	13451.5875
1792.96828	13433.9875
1796.16064	13409.8875
1799.3509	13390.4875
1802.53907	13378.3875
1805.72514	13332.4875
1808.90913	13325.8875
1812.09102	13295.3875
1815.27083	13291.1875
1818.44856	13257.2875
1821.6242	13261.8875
1824.79776	13267.5875
1827.96924	13219.3875
1831.13864	13241.0875
1834.30597	13238.8875
1837.47122	13219.1875
1840.6344	13215.5875
1843.7955	13237.3875
1846.95454	13227.7875
1850.11151	13240.9875
1853.26642	13212.5875
1856.41926	13240.9875
1859.57004	13241.7875
1862.71876	13208.8875
1865.86542	13230.7875
1869.01003	13213.0875
1872.15258	13212.1875
1875.29308	13209.0875
1878.43152	13199.4875
1881.56792	13211.7875
1884.70227	13161.2875
1887.83457	13170.7875
1890.96482	13162.5875
1894.09304	13154.0875
1897.21921	13187.0875
1900.34335	13165.1875
1903.46544	13142.5875
1906.58551	13158.3875
1909.70353	13143.9875
1912.81953	13111.5875
1915.93349	13104.2875
1919.04543	13090.3875
1922.15534	13065.9875
1925.26322	13078.5875
1928.36908	13030.3875
1931.47292	13008.6875
1934.57473	13011.2875
1937.67453	12989.9875
1940.77232	12955.4875
1943.86808	12904.9875
1946.96184	12900.2875
1950.05358	12873.6875
1953.14331	12837.1875
1956.23103	12802.3875
1959.31675	12799.5875
1962.40046	12766.5875
1965.48217	12742.2875
1968.56188	12684.1875
1971.63959	12675.1875
1974.7153	12665.3875
1977.78901	12616.0875
1980.86073	12581.3875
1983.93046	12540.8875
1986.99819	12539.7875
1990.06394	12493.6875
1993.1277	12448.0875
1996.18947	12415.3875
1999.24925	12408.6875
2002.30706	12374.4875
2005.36288	12330.0875
2008.41672	12306.2875
2011.46859	12277.0875
2014.51848	12268.1875
2017.56639	12204.6875
2020.61233	12212.1875
2023.6563	12212.8875
2026.6983	12174.3875
2029.73833	12138.4875
2032.7764	12151.4875
2035.8125	12154.9875
2038.84664	12153.0875
2041.87881	12169.5875
2044.90903	12120.1875
2047.93729	12083.4875
2050.96359	12069.8875
2053.98794	12067.6875
2057.01034	12063.0875
2060.03078	12070.4875
2063.04927	12060.6875
2066.06582	12052.4875
2069.08042	12034.1875
2072.09307	12029.9875
2075.10378	12043.9875
2078.11255	12037.2875
2081.11938	12029.6875
2084.12426	12033.7875
2087.12722	12056.4875
2090.12824	12022.1875
2093.12732	12047.1875
2096.12447	12066.4875
2099.11969	12090.1875
2102.11299	12080.8875
2105.10435	12094.3875
2108.09379	12096.0875
2111.08131	12091.0875
2114.0669	12083.0875
2117.05057	12110.2875
2120.03233	12106.7875
2123.01216	12125.8875
2125.99008	12123.8875
2128.96609	12164.6875
2131.94018	12178.5875
2134.91236	12169.2875
2137.88263	12191.0875
2140.851	12214.7875
2143.81746	12232.9875
2146.78201	12223.2875
2149.74466	12251.8875
2152.7054	12285.0875
2155.66425	12260.0875
2158.6212	12239.2875
2161.57625	12263.8875
2164.52941	12253.7875
2167.48067	12229.1875
2170.43004	12236.4875
2173.37752	12258.6875
2176.32311	12263.0875
2179.26681	12254.1875
2182.20863	12292.3875
2185.14856	12316.0875
2188.08661	12334.2875
2191.02278	12320.4875
2193.95707	12298.1875
2196.88948	12339.0875
2199.82001	12324.6875
2202.74867	12338.0875
2205.67545	12320.7875
2208.60037	12328.5875
2211.52341	12340.4875
2214.44458	12353.6875
2217.36388	12302.9875
2220.28132	12302.9875
2223.1969	12269.1875
2226.11061	12262.5875
2229.02246	12244.0875
2231.93245	12238.0875
2234.84058	12228.8875
2237.74686	12234.0875
2240.65128	12235.9875
2243.55385	12176.0875
2246.45456	12185.0875
2249.35343	12175.1875
2252.25044	12154.8875
2255.14561	12131.5875
2258.03893	12103.6875
2260.93041	12096.8875
2263.82004	12062.8875
2266.70783	12026.1875
2269.59378	12052.0875
2272.4779	12036.0875
2275.36017	12007.4875
2278.24061	11988.9875
2281.11922	11994.7875
2283.996	11980.4875
2286.87094	11964.5875
2289.74405	11953.9875
2292.61534	11984.3875
2295.4848	11977.1875
2298.35243	11993.5875
2301.21824	11973.6875
2304.08223	12010.6875
2306.94439	12062.4875
2309.80474	12035.8875
2312.66327	12055.7875
2315.51999	12056.3875
2318.37489	12079.8875
2321.22797	12078.2875
2324.07925	12069.1875
2326.92871	12054.7875
2329.77637	12056.7875
2332.62222	12032.6875
2335.46626	12025.3875
2338.3085	12040.4875
2341.14893	12056.5875
2343.98756	12053.8875
2346.8244	12041.7875
2349.65943	12016.8875
2352.49267	12042.2875
2355.32411	12036.7875
2358.15376	11989.1875
2360.98161	12005.7875
2363.80768	11991.5875
2366.63195	11977.5875
2369.45444	11988.8875
2372.27514	11949.8875
2375.09405	11945.1875
2377.91118	11906.2875
2380.72652	11882.3875
2383.54009	11861.3875
2386.35187	11855.5875
2389.16188	11833.6875
2391.97011	11824.1875
2394.77657	11814.1875
2397.58125	11815.7875
2400.38416	11812.3875
2403.18529	11772.2875
2405.98466	11759.0875
2408.78226	11724.1875
2411.57809	11720.7875
2414.37216	11718.4875
2417.16446	11706.1875
2419.955	11696.9875
2422.74378	11704.5875
2425.5308	11686.2875
2428.31606	11672.6875
2431.09956	11675.2875
2433.88131	11657.1875
2436.6613	11647.9875
2439.43954	11665.3875
2442.21603	11670.8875
2444.99077	11666.7875
2447.76377	11683.4875
2450.53501	11662.9875
2453.30451	11688.3875
2456.07226	11667.3875
2458.83827	11652.5875
2461.60254	11639.0875
2464.36507	11654.6875
2467.12586	11685.8875
2469.88492	11689.0875
2472.64224	11689.6875
2475.39782	11696.6875
2478.15167	11709.6875
2480.90379	11721.8875
2483.65417	11739.9875
2486.40283	11731.5875
2489.14976	11767.6875
2491.89497	11765.4875
2494.63845	11749.2875
2497.3802	11749.5875
2500.12024	11793.2875
2502.85855	11760.2875
2505.59514	11753.0875
2508.33002	11725.0875
2511.06318	11710.9875
2513.79462	11712.0875
2516.52435	11701.8875
2519.25237	11706.3875
2521.97867	11687.5875
2524.70327	11695.3875
2527.42616	11670.6875
2530.14734	11669.6875
2532.86681	11675.2875
2535.58458	11672.6875
2538.30065	11683.6875
2541.01501	11704.3875
2543.72768	11676.5875
2546.43864	11671.9875
2549.14791	11670.9875
2551.85548	11655.0875
2554.56136	11641.7875
2557.26554	11639.3875
2559.96803	11653.3875
2562.66883	11643.9875
2565.36794	11649.0875
2568.06536	11648.1875
2570.7611	11639.3875
2573.45514	11646.2875
2576.14751	11629.7875
2578.83819	11656.3875
2581.52719	11644.3875
2584.21451	11662.8875
2586.90015	11651.8875
2589.58411	11627.2875
2592.2664	11602.5875
2594.94701	11611.7875
2597.62594	11639.1875
2600.30321	11608.6875
2602.9788	11591.2875
2605.65273	11598.5875
2608.32498	11607.4875
2610.99557	11593.2875
2613.66449	11613.1875
2616.33175	11592.9875
2618.99734	11598.4875
2621.66128	11596.8875
2624.32355	11554.3875
2626.98416	11553.7875
2629.64311	11552.5875
2632.30041	11583.8875
2634.95605	11556.3875
2637.61004	11556.2875
2640.26238	11499.0875
2642.91306	11539.7875
2645.56209	11491.1875
2648.20948	11480.8875
2650.85521	11479.6875
2653.4993	11524.3875
2656.14175	11500.9875
2658.78255	11518.2875
2661.42171	11532.1875
2664.05923	11559.6875
2666.6951	11565.5875
2669.32934	11584.4875
2671.96194	11565.2875
2674.59291	11573.6875
2677.22224	11559.6875
2679.84993	11560.1875
2682.476	11534.5875
2685.10043	11529.7875
2687.72324	11530.3875
2690.34441	11518.7875
2692.96396	11519.3875
2695.58188	11541.3875
2698.19818	11520.2875
2700.81285	11511.6875
2703.4259	11485.2875
2706.03733	11497.5875
2708.64714	11486.3875
2711.25533	11540.1875
2713.86191	11518.2875
2716.46687	11558.8875
2719.07021	11559.6875
2721.67194	11572.1875
2724.27206	11587.0875
2726.87057	11643.6875
2729.46747	11615.6875
2732.06276	11618.0875
2734.65644	11604.2875
2737.24852	11612.9875
2739.83899	11586.5875
2742.42786	11619.4875
2745.01513	11594.7875
2747.60079	11599.3875
2750.18486	11603.7875
2752.76733	11576.8875
2755.3482	11599.4875
2757.92747	11592.2875
2760.50515	11603.6875
2763.08123	11576.3875
2765.65573	11571.3875
2768.22863	11618.4875
2770.79994	11606.8875
2773.36967	11586.0875
2775.9378	11613.2875
2778.50435	11609.8875
2781.06932	11579.1875
2783.6327	11581.5875
2786.1945	11578.5875
2788.75471	11602.3875
2791.31335	11583.5875
2793.87041	11551.8875
2796.42589	11535.5875
2798.97979	11538.2875
2801.53212	11528.5875
2804.08288	11533.6875
2806.63206	11497.5875
2809.17967	11480.7875
2811.72571	11451.8875
2814.27018	11427.4875
2816.81308	11420.7875
2819.35442	11413.1875
2821.89419	11394.0875
2824.43239	11422.8875
2826.96904	11409.0875
2829.50412	11406.5875
2832.03763	11378.4875
2834.56959	11411.4875
2837.1	11416.3875
2839.62884	11403.2875
2842.15613	11407.5875
2844.68186	11422.1875
2847.20604	11410.9875
2849.72867	11454.5875
2852.24974	11452.7875
2854.76927	11448.7875
2857.28724	11434.2875
2859.80367	11434.2875
2862.31855	11420.0875
2864.83189	11414.1875
2867.34368	11412.5875
2869.85393	11430.7875
2872.36264	11406.9875
2874.8698	11431.5875
2877.37543	11449.1875
2879.87952	11442.6875
2882.38207	11471.6875
2884.88308	11479.1875
2887.38256	11497.4875
2889.88051	11498.1875
2892.37692	11518.6875
2894.8718	11526.7875
2897.36515	11555.5875
2899.85698	11560.9875
2902.34727	11585.2875
2904.83604	11600.2875
2907.32328	11613.3875
2909.809	11597.8875
2912.29319	11575.9875
2914.77587	11576.8875
2917.25702	11579.8875
2919.73665	11583.7875
2922.21476	11578.7875
2924.69136	11550.3875
2927.16644	11577.3875
2929.64	11551.4875
2932.11205	11559.6875
2934.58258	11514.9875
2937.05161	11531.9875
2939.51912	11524.1875
2941.98513	11514.9875
2944.44962	11473.7875
2946.91261	11457.2875
2949.37409	11494.2875
2951.83407	11448.6875
2954.29254	11440.4875
2956.74951	11428.1875
2959.20498	11412.8875
2961.65895	11377.1875
2964.11142	11391.0875
2966.56239	11366.7875
2969.01186	11360.5875
2971.45984	11360.5875
2973.90632	11349.0875
2976.35131	11287.2875
2978.7948	11258.5875
2981.23681	11234.4875
2983.67732	11254.4875
2986.11635	11210.6875
2988.55388	11180.1875
2990.98993	11151.2875
2993.4245	11121.6875
2995.85758	11113.1875
2998.28917	11103.9875
3000.71928	11090.5875
3003.14791	11048.2875
3005.57506	11038.9875
3008.00073	11029.4875
3010.42493	11027.4875
3012.84764	11030.9875
3015.26888	11036.1875
3017.68865	11001.6875
3020.10694	10994.3875
3022.52376	10984.9875
3024.9391	10952.4875
