Data from AgNPs_FTO_APTES_UA_1uM_CRN_10uM_R6G_20uM_NaF_0.1M_Addition_RamanShift__28__15-30-29-705.txt Node

Date: Thu Jan 27 15:30:29 GMT 2022
User: TCL
Spectrometer: QEP01345
Trigger mode: 4
Integration Time (sec): 7.000000E0
Scans to average: 10
Electric dark correction enabled: true
Nonlinearity correction enabled: false
Boxcar width: 0
XAxis mode: Raman Shifts
Number of Pixels in Spectrum: 1044
>>>>>Begin Spectral Data<<<<<
46.04893	1.825
50.45542	0.025
54.85868	-1.375
59.25871	-1.375
63.6555	38.025
68.04907	42.225
72.43941	44.925
76.82654	45.225
81.21044	47.525
85.59113	45.625
89.96862	49.025
94.34289	49.225
98.71396	55.125
103.08183	53.625
107.4465	57.225
111.80798	59.825
116.16626	58.725
120.52136	63.925
124.87327	62.925
129.222	61.625
133.56755	62.725
137.90993	63.025
142.24913	68.225
146.58517	74.825
150.91804	81.125
155.24774	94.225
159.57429	109.125
163.89768	136.825
168.21792	175.625
172.53501	231.025
176.84895	314.225
181.15975	436.725
185.46741	599.825
189.77193	810.925
194.07331	1102.825
198.37157	1414.325
202.6667	1753.425
206.9587	2082.125
211.24758	2408.625
215.53334	2742.025
219.81599	3108.025
224.09553	3508.625
228.37195	3959.825
232.64527	4456.025
236.91549	4963.425
241.18261	5445.825
245.44663	5888.325
249.70755	6240.525
253.96539	6560.725
258.22014	6852.625
262.4718	7103.025
266.72039	7296.125
270.96589	7413.225
275.20832	7460.525
279.44768	7445.825
283.68397	7403.325
287.91719	7397.125
292.14735	7419.925
296.37445	7489.225
300.59849	7613.225
304.81948	7768.925
309.03742	7882.125
313.25231	7831.925
317.46415	7530.725
321.67296	7112.225
325.87872	6764.025
330.08145	6594.525
334.28114	6600.425
338.47781	6657.025
342.67145	6802.425
346.86207	7006.725
351.04966	7322.925
355.23424	7686.025
359.4158	7909.725
363.59435	8043.525
367.76989	8095.925
371.94243	8119.425
376.11196	8105.025
380.27849	8089.525
384.44203	8022.125
388.60257	7979.925
392.76012	7980.125
396.91468	8076.125
401.06626	8285.525
405.21485	8441.825
409.36047	8337.225
413.50311	8083.525
417.64277	7812.425
421.77947	7710.525
425.9132	7668.125
430.04396	7676.825
434.17176	7706.525
438.2966	7812.225
442.41849	7935.525
446.53742	8130.825
450.6534	8354.925
454.76644	8486.825
458.87653	8545.725
462.98368	8520.125
467.08789	8424.125
471.18916	8299.725
475.2875	8139.925
479.38291	8031.025
483.4754	7952.625
487.56496	7857.025
491.6516	7787.625
495.73531	7735.425
499.81612	7762.125
503.89401	7817.225
507.96899	7877.225
512.04106	7914.725
516.11023	7955.125
520.1765	7974.625
524.23987	7953.025
528.30034	7849.525
532.35792	7736.125
536.41261	7592.825
540.46441	7487.725
544.51333	7462.225
548.55936	7540.425
552.60252	7680.225
556.64279	7870.025
560.6802	7959.325
564.71473	8049.125
568.7464	8232.525
572.7752	8411.125
576.80114	8355.725
580.82422	8259.125
584.84444	8243.225
588.86181	8219.625
592.87633	8222.725
596.888	8278.625
600.89682	8450.625
604.9028	9053.125
608.90594	10668.825
612.90624	12716.525
616.90371	12316.625
620.89834	9518.025
624.89015	8156.325
628.87913	7898.725
632.86528	7921.425
636.84862	7969.825
640.82913	7865.525
644.80683	7631.725
648.78172	7471.525
652.75379	7470.225
656.72306	7668.525
660.68952	7947.925
664.65319	7932.525
668.61405	7708.425
672.57211	7576.625
676.52738	7564.625
680.47986	7549.425
684.42955	7523.625
688.37646	7522.625
692.32058	7536.425
696.26192	7595.425
700.20048	7693.325
704.13626	7737.625
708.06928	7740.825
711.99952	7694.725
715.927	7648.725
719.85171	7650.925
723.77365	7640.125
727.69284	7556.925
731.60928	7515.325
735.52295	7477.625
739.43388	7514.225
743.34206	7554.625
747.24749	7611.025
751.15017	7653.125
755.05012	7806.825
758.94733	8106.825
762.8418	8674.125
766.73354	9656.525
770.62254	10695.425
774.50882	11073.925
778.39237	10608.525
782.27321	9545.325
786.15132	8561.325
790.02671	7952.825
793.89938	7691.725
797.76935	7602.125
801.6366	7541.225
805.50115	7521.525
809.36299	7490.425
813.22213	7452.125
817.07857	7454.525
820.93231	7460.125
824.78336	7493.725
828.63172	7492.225
832.47738	7513.825
836.32036	7484.925
840.16066	7492.725
843.99827	7463.125
847.8332	7432.725
851.66546	7419.125
855.49504	7415.425
859.32195	7414.225
863.1462	7376.925
866.96777	7370.925
870.78668	7342.025
874.60293	7357.525
878.41652	7388.625
882.22745	7403.425
886.03573	7452.425
889.84136	7436.425
893.64433	7393.625
897.44466	7378.325
901.24235	7365.525
905.0374	7362.125
908.8298	7344.225
912.61957	7344.625
916.40671	7403.925
920.19121	7478.725
923.97308	7539.325
927.75233	7562.125
931.52895	7603.825
935.30295	7522.125
939.07433	7367.525
942.84309	7228.425
946.60924	7177.925
950.37278	7132.025
954.13371	7102.025
957.89203	7075.625
961.64774	7073.525
965.40086	7046.825
969.15137	7024.325
972.89929	6998.825
976.64461	6970.825
980.38733	6976.425
984.12747	7010.725
987.86502	7042.125
991.59999	7073.925
995.33237	7168.425
999.06217	7305.625
1002.78939	7493.625
1006.51404	7623.525
1010.23611	7803.125
1013.95561	7879.725
1017.67255	7861.525
1021.38692	7812.825
1025.09872	7709.825
1028.80796	7668.525
1032.51465	7744.925
1036.21877	7843.825
1039.92035	7886.425
1043.61937	7853.025
1047.31584	7784.025
1051.00976	7708.925
1054.70114	7691.825
1058.38998	7674.325
1062.07627	7735.025
1065.76003	7789.525
1069.44126	7849.125
1073.11995	7915.125
1076.79611	7964.525
1080.46974	8018.325
1084.14085	8101.425
1087.80943	8242.425
1091.47549	8290.325
1095.13903	8215.825
1098.80005	8020.325
1102.45857	7840.125
1106.11456	7739.525
1109.76805	7726.525
1113.41903	7782.025
1117.06751	7940.125
1120.71348	8108.925
1124.35696	8305.225
1127.99793	8489.425
1131.63641	8526.225
1135.2724	8294.325
1138.90589	8081.125
1142.5369	7951.825
1146.16542	7842.325
1149.79145	7817.225
1153.415	7852.425
1157.03607	7916.925
1160.65467	8037.725
1164.27079	8255.125
1167.88443	8584.625
1171.49561	9104.725
1175.10432	9876.125
1178.71056	10909.225
1182.31434	11687.325
1185.91565	11972.325
1189.51451	11841.725
1193.11091	11395.625
1196.70485	10763.925
1200.29634	10217.325
1203.88538	9796.225
1207.47197	9382.725
1211.05612	9040.025
1214.63782	8806.925
1218.21708	8751.425
1221.79391	8770.525
1225.36829	8852.425
1228.94024	8892.425
1232.50976	8959.325
1236.07685	8938.325
1239.6415	8954.225
1243.20374	8934.025
1246.76355	8952.325
1250.32093	9018.825
1253.8759	9164.325
1257.42845	9399.225
1260.97859	9626.425
1264.52631	9819.725
1268.07163	10011.225
1271.61453	10207.425
1275.15503	10416.525
1278.69312	10570.125
1282.22882	10705.425
1285.76211	10905.725
1289.29301	11143.425
1292.82151	11428.425
1296.34761	11706.925
1299.87133	12144.725
1303.39266	12800.925
1306.9116	13782.725
1310.42815	14933.425
1313.94233	15725.425
1317.45412	15756.525
1320.96354	15233.425
1324.47058	14536.325
1327.97525	13907.525
1331.47754	13565.825
1334.97747	13395.725
1338.47502	13442.925
1341.97022	13637.525
1345.46305	13810.125
1348.95352	13942.225
1352.44163	14230.425
1355.92738	14859.725
1359.41078	16057.925
1362.89183	17405.425
1366.37053	17219.825
1369.84688	15321.425
1373.32088	13307.825
1376.79254	12025.525
1380.26186	11391.625
1383.72883	11091.125
1387.19347	10892.625
1390.65578	10656.325
1394.11575	10489.425
1397.57339	10452.325
1401.0287	10556.625
1404.48168	10710.925
1407.93234	10942.625
1411.38068	11041.225
1414.82669	10978.525
1418.27039	10717.725
1421.71177	10457.325
1425.15083	10168.625
1428.58758	10025.725
1432.02203	9978.825
1435.45416	9997.725
1438.88399	10043.525
1442.31151	10084.725
1445.73673	10152.825
1449.15965	10214.725
1452.58027	10243.125
1455.9986	10218.225
1459.41463	10220.425
1462.82837	10291.025
1466.23982	10429.925
1469.64898	10614.625
1473.05586	10719.325
1476.46045	10818.925
1479.86276	10921.525
1483.26279	11054.525
1486.66054	11207.225
1490.05602	11454.025
1493.44922	11782.925
1496.84016	12182.125
1500.22882	12792.225
1503.61521	13622.725
1506.99934	14614.225
1510.38121	15600.625
1513.76081	16208.925
1517.13816	15844.725
1520.51324	14668.525
1523.88607	13344.225
1527.25665	12392.025
1530.62498	11813.025
1533.99105	11455.125
1537.35488	11198.625
1540.71647	11062.325
1544.07581	10980.025
1547.4329	10862.925
1550.78776	10774.425
1554.14038	10726.625
1557.49077	10766.425
1560.83892	10907.425
1564.18484	11096.325
1567.52853	11199.825
1570.86999	11286.925
1574.20922	11327.625
1577.54624	11306.925
1580.88103	11021.225
1584.2136	10680.725
1587.54395	10605.125
1590.87208	10823.125
1594.19801	11359.925
1597.52172	12009.725
1600.84321	12304.425
1604.16251	11949.225
1607.47959	11263.125
1610.79447	10489.025
1614.10715	9816.525
1617.41763	9256.925
1620.7259	8879.225
1624.03199	8663.125
1627.33587	8663.225
1630.63757	8826.625
1633.93707	9192.125
1637.23439	9764.525
1640.52951	10491.025
1643.82246	11299.525
1647.11321	12124.125
1650.40179	12626.925
1653.68819	12306.425
1656.97241	11095.525
1660.25446	9718.925
1663.53433	8648.725
1666.81203	7999.425
1670.08756	7613.125
1673.36092	7371.025
1676.63211	7232.225
1679.90115	7128.225
1683.16801	7027.125
1686.43272	6970.725
1689.69527	6909.725
1692.95567	6859.825
1696.2139	6798.325
1699.46999	6755.225
1702.72392	6718.725
1705.97571	6734.025
1709.22535	6760.225
1712.47284	6809.225
1715.71819	6820.125
1718.96139	6816.325
1722.20246	6807.125
1725.44139	6811.325
1728.67818	6770.525
1731.91284	6709.425
1735.14537	6683.625
1738.37576	6663.125
1741.60403	6641.225
1744.83017	6607.825
1748.05418	6601.725
1751.27607	6555.225
1754.49584	6542.325
1757.71349	6531.325
1760.92903	6489.225
1764.14244	6489.025
1767.35375	6482.225
1770.56294	6488.825
1773.77002	6473.725
1776.97499	6480.425
1780.17785	6487.125
1783.37861	6491.525
1786.57727	6511.025
1789.77382	6490.725
1792.96828	6497.125
1796.16064	6479.425
1799.3509	6469.725
1802.53907	6481.025
1805.72514	6458.925
1808.90913	6452.225
1812.09102	6419.325
1815.27083	6435.525
1818.44856	6409.425
1821.6242	6406.425
1824.79776	6398.825
1827.96924	6404.325
1831.13864	6384.425
1834.30597	6396.725
1837.47122	6372.625
1840.6344	6381.325
1843.7955	6382.625
1846.95454	6372.625
1850.11151	6382.225
1853.26642	6389.225
1856.41926	6384.825
1859.57004	6429.725
1862.71876	6392.825
1865.86542	6391.025
1869.01003	6394.925
1872.15258	6390.625
1875.29308	6407.425
1878.43152	6397.325
1881.56792	6400.525
1884.70227	6392.525
1887.83457	6395.525
1890.96482	6401.725
1894.09304	6410.025
1897.21921	6406.525
1900.34335	6389.625
1903.46544	6416.825
1906.58551	6413.325
1909.70353	6392.225
1912.81953	6408.525
1915.93349	6413.925
1919.04543	6386.225
1922.15534	6373.625
1925.26322	6379.925
1928.36908	6377.925
1931.47292	6340.325
1934.57473	6321.225
1937.67453	6270.325
1940.77232	6258.825
1943.86808	6249.825
1946.96184	6188.325
1950.05358	6182.125
1953.14331	6144.225
1956.23103	6122.525
1959.31675	6114.225
1962.40046	6100.225
1965.48217	6086.425
1968.56188	6072.225
1971.63959	6053.225
1974.7153	6012.725
1977.78901	6013.025
1980.86073	5981.425
1983.93046	5964.625
1986.99819	5936.825
1990.06394	5923.625
1993.1277	5914.425
1996.18947	5880.225
1999.24925	5886.725
2002.30706	5858.025
2005.36288	5830.425
2008.41672	5828.425
2011.46859	5819.825
2014.51848	5791.625
2017.56639	5793.425
2020.61233	5765.325
2023.6563	5766.425
2026.6983	5735.225
2029.73833	5716.225
2032.7764	5718.825
2035.8125	5707.725
2038.84664	5683.725
2041.87881	5671.625
2044.90903	5684.825
2047.93729	5640.225
2050.96359	5663.925
2053.98794	5651.325
2057.01034	5634.325
2060.03078	5630.325
2063.04927	5640.625
2066.06582	5625.325
2069.08042	5622.625
2072.09307	5612.225
2075.10378	5596.225
2078.11255	5612.625
2081.11938	5617.625
2084.12426	5613.225
2087.12722	5610.325
2090.12824	5594.325
2093.12732	5593.925
2096.12447	5597.025
2099.11969	5601.825
2102.11299	5609.325
2105.10435	5615.725
2108.09379	5605.025
2111.08131	5615.825
2114.0669	5622.025
2117.05057	5613.925
2120.03233	5612.525
2123.01216	5612.625
2125.99008	5625.425
2128.96609	5628.925
2131.94018	5634.725
2134.91236	5632.625
2137.88263	5642.325
2140.851	5641.225
2143.81746	5634.525
2146.78201	5628.425
2149.74466	5644.325
2152.7054	5648.725
2155.66425	5633.725
2158.6212	5634.625
2161.57625	5624.625
2164.52941	5624.925
2167.48067	5648.325
2170.43004	5615.925
2173.37752	5621.525
2176.32311	5629.625
2179.26681	5641.225
2182.20863	5625.825
2185.14856	5617.325
2188.08661	5613.525
2191.02278	5629.325
2193.95707	5611.725
2196.88948	5618.325
2199.82001	5611.325
2202.74867	5614.025
2205.67545	5599.625
2208.60037	5599.925
2211.52341	5590.025
2214.44458	5576.725
2217.36388	5558.925
2220.28132	5558.225
2223.1969	5548.625
2226.11061	5533.225
2229.02246	5530.325
2231.93245	5521.025
2234.84058	5499.825
2237.74686	5503.525
2240.65128	5492.925
2243.55385	5491.425
2246.45456	5477.525
2249.35343	5476.925
2252.25044	5466.225
2255.14561	5464.625
2258.03893	5446.025
2260.93041	5431.825
2263.82004	5436.225
2266.70783	5418.425
2269.59378	5403.325
2272.4779	5401.325
2275.36017	5394.725
2278.24061	5379.125
2281.11922	5360.925
2283.996	5366.525
2286.87094	5357.225
2289.74405	5339.925
2292.61534	5339.725
2295.4848	5307.525
2298.35243	5311.525
2301.21824	5318.125
2304.08223	5327.025
2306.94439	5322.025
2309.80474	5302.925
2312.66327	5318.725
2315.51999	5321.125
2318.37489	5297.825
2321.22797	5295.825
2324.07925	5294.925
2326.92871	5301.125
2329.77637	5282.525
2332.62222	5274.125
2335.46626	5256.725
2338.3085	5269.725
2341.14893	5265.925
2343.98756	5257.625
2346.8244	5250.825
2349.65943	5257.025
2352.49267	5258.525
2355.32411	5245.325
2358.15376	5260.325
2360.98161	5275.225
2363.80768	5262.625
2366.63195	5241.125
2369.45444	5245.025
2372.27514	5248.125
2375.09405	5256.325
2377.91118	5213.225
2380.72652	5207.125
2383.54009	5186.725
2386.35187	5182.825
2389.16188	5171.125
2391.97011	5140.525
2394.77657	5144.725
2397.58125	5134.725
2400.38416	5116.425
2403.18529	5103.125
2405.98466	5098.225
2408.78226	5097.925
2411.57809	5079.425
2414.37216	5069.325
2417.16446	5076.025
2419.955	5059.425
2422.74378	5078.525
2425.5308	5078.225
2428.31606	5065.725
2431.09956	5064.225
2433.88131	5067.625
2436.6613	5048.625
2439.43954	5059.525
2442.21603	5032.725
2444.99077	5033.525
2447.76377	5032.625
2450.53501	5031.925
2453.30451	5047.825
2456.07226	5026.725
2458.83827	5024.625
2461.60254	5025.325
2464.36507	5023.025
2467.12586	5002.125
2469.88492	5009.725
2472.64224	5015.825
2475.39782	5008.225
2478.15167	5020.225
2480.90379	5012.525
2483.65417	5011.125
2486.40283	5007.225
2489.14976	5034.225
2491.89497	5037.625
2494.63845	5021.725
2497.3802	5013.425
2500.12024	5021.325
2502.85855	5019.525
2505.59514	5012.625
2508.33002	4996.625
2511.06318	4999.225
2513.79462	4984.625
2516.52435	4975.025
2519.25237	4954.125
2521.97867	4961.825
2524.70327	4941.425
2527.42616	4937.925
2530.14734	4940.725
2532.86681	4934.625
2535.58458	4921.625
2538.30065	4911.925
2541.01501	4922.925
2543.72768	4925.525
2546.43864	4908.025
2549.14791	4901.225
2551.85548	4914.125
2554.56136	4889.925
2557.26554	4887.925
2559.96803	4879.525
2562.66883	4875.225
2565.36794	4867.125
2568.06536	4877.625
2570.7611	4857.825
2573.45514	4862.725
2576.14751	4855.425
2578.83819	4853.725
2581.52719	4843.125
2584.21451	4821.425
2586.90015	4834.325
2589.58411	4830.325
2592.2664	4821.025
2594.94701	4827.025
2597.62594	4807.525
2600.30321	4808.725
2602.9788	4808.425
2605.65273	4802.825
2608.32498	4798.925
2610.99557	4801.725
2613.66449	4804.025
2616.33175	4793.825
2618.99734	4789.425
2621.66128	4787.125
2624.32355	4773.425
2626.98416	4778.025
2629.64311	4763.225
2632.30041	4782.425
2634.95605	4777.125
2637.61004	4761.125
2640.26238	4750.825
2642.91306	4748.525
2645.56209	4731.125
2648.20948	4735.425
2650.85521	4743.825
2653.4993	4737.525
2656.14175	4735.525
2658.78255	4727.325
2661.42171	4739.625
2664.05923	4755.525
2666.6951	4747.425
2669.32934	4756.225
2671.96194	4758.225
2674.59291	4764.725
2677.22224	4764.725
2679.84993	4760.525
2682.476	4762.825
2685.10043	4759.625
2687.72324	4748.625
2690.34441	4750.725
2692.96396	4731.325
2695.58188	4759.325
2698.19818	4740.325
2700.81285	4753.925
2703.4259	4742.825
2706.03733	4732.925
2708.64714	4720.825
2711.25533	4758.925
2713.86191	4755.325
2716.46687	4742.025
2719.07021	4761.125
2721.67194	4752.225
2724.27206	4763.925
2726.87057	4765.725
2729.46747	4768.625
2732.06276	4768.525
2734.65644	4759.525
2737.24852	4760.425
2739.83899	4739.225
2742.42786	4750.725
2745.01513	4721.625
2747.60079	4744.825
2750.18486	4742.025
2752.76733	4722.125
2755.3482	4714.025
2757.92747	4741.125
2760.50515	4724.525
2763.08123	4707.325
2765.65573	4699.125
2768.22863	4711.225
2770.79994	4686.325
2773.36967	4686.325
2775.9378	4696.325
2778.50435	4698.625
2781.06932	4678.425
2783.6327	4674.025
2786.1945	4688.925
2788.75471	4663.025
2791.31335	4650.025
2793.87041	4664.425
2796.42589	4657.025
2798.97979	4646.825
2801.53212	4644.625
2804.08288	4645.225
2806.63206	4637.925
2809.17967	4621.925
2811.72571	4599.925
2814.27018	4617.025
2816.81308	4603.325
2819.35442	4604.625
2821.89419	4606.125
2824.43239	4624.825
2826.96904	4591.525
2829.50412	4600.425
2832.03763	4597.525
2834.56959	4596.225
2837.1	4600.225
2839.62884	4583.625
2842.15613	4617.425
2844.68186	4626.225
2847.20604	4649.325
2849.72867	4667.525
2852.24974	4678.125
2854.76927	4660.525
2857.28724	4630.425
2859.80367	4638.125
2862.31855	4634.825
2864.83189	4627.425
2867.34368	4603.925
2869.85393	4622.625
2872.36264	4611.825
2874.8698	4599.325
2877.37543	4595.825
2879.87952	4593.325
2882.38207	4604.525
2884.88308	4594.225
2887.38256	4591.025
2889.88051	4600.725
2892.37692	4601.025
2894.8718	4593.925
2897.36515	4599.425
2899.85698	4594.225
2902.34727	4623.025
2904.83604	4621.925
2907.32328	4611.925
2909.809	4602.425
2912.29319	4629.025
2914.77587	4604.825
2917.25702	4612.825
2919.73665	4598.525
2922.21476	4610.425
2924.69136	4604.625
2927.16644	4595.625
2929.64	4589.625
2932.11205	4584.225
2934.58258	4567.925
2937.05161	4576.425
2939.51912	4554.725
2941.98513	4548.125
2944.44962	4530.125
2946.91261	4519.025
2949.37409	4517.925
2951.83407	4507.325
2954.29254	4489.225
2956.74951	4487.225
2959.20498	4509.325
2961.65895	4476.925
2964.11142	4473.425
2966.56239	4472.925
2969.01186	4462.225
2971.45984	4457.625
2973.90632	4432.825
2976.35131	4443.225
2978.7948	4430.525
2981.23681	4426.325
2983.67732	4420.725
2986.11635	4412.325
2988.55388	4392.125
2990.98993	4384.525
2993.4245	4376.625
2995.85758	4363.325
2998.28917	4358.725
3000.71928	4348.325
3003.14791	4348.125
3005.57506	4339.825
3008.00073	4323.125
3010.42493	4333.525
3012.84764	4326.725
3015.26888	4318.725
3017.68865	4312.625
3020.10694	4319.025
3022.52376	4308.925
3024.9391	4286.225
3027.35298	4294.525
3029.76539	4288.925
3032.17632	4276.125
3034.5858	4275.025
3036.9938	4272.925
3039.40034	4272.125
3041.80542	4271.925
3044.20903	4270.925
3046.61118	4267.025
3049.01187	4252.125
3051.4111	4239.525
3053.80888	4246.325
3056.20519	4224.825
3058.60005	4215.525
3060.99345	4216.125
3063.3854	4190.825
3065.7759	4198.225
3068.16494	4183.525
3070.55254	4171.825
3072.93868	4171.025
3075.32338	4161.625
3077.70662	4153.725
3080.08842	4148.025
3082.46878	4150.625
3084.84769	4145.425
3087.22515	4136.625
3089.60118	4132.625
3091.97576	4126.625
3094.3489	4130.025
3096.72061	4127.925
3099.09087	4143.225
3101.4597	4130.225
3103.82709	4135.325
3106.19305	4127.625
3108.55757	4141.525
3110.92066	4122.725
3113.28232	4129.225
3115.64255	4107.225
3118.00134	4121.725
3120.35871	4104.825
3122.71466	4105.625
3125.06917	4091.725
3127.42226	4092.425
3129.77393	4094.925
3132.12417	4085.125
3134.47299	4108.425
3136.82039	4114.125
3139.16636	4110.425
3141.51092	4091.525
3143.85406	4102.325
3146.19579	4103.625
3148.53609	4122.625
3150.87499	4120.525
3153.21246	4134.125
3155.54853	4139.025
3157.88318	4128.025
3160.21642	4130.025
3162.54826	4130.025
3164.87868	4133.325
3167.2077	4133.425
3169.5353	4133.725
3171.86151	4136.925
3174.18631	4150.025
3176.5097	4151.125
3178.83169	4140.125
3181.15228	4132.625
3183.47147	4139.025
3185.78926	4137.125
3188.10565	4132.825
3190.42065	4145.925
3192.73424	4130.325
3195.04645	4144.325
3197.35725	4134.325
3199.66667	4142.125
3201.97469	4148.525
3204.28132	4149.625
3206.58656	4160.125
3208.8904	4147.325
3211.19287	4170.725
3213.49394	4170.625
3215.79363	4168.925
3218.09193	4175.725
3220.38884	4168.425
3222.68438	4166.825
