Data from AgNPs_FTO_APTES_UA_1uM_CRN_500uM_R6G_10uM_NaF_0.1M_Addition_RamanShift__15__18-02-09-878.txt Node

Date: Thu Jan 27 18:02:09 GMT 2022
User: TCL
Spectrometer: QEP01345
Trigger mode: 4
Integration Time (sec): 7.000000E0
Scans to average: 10
Electric dark correction enabled: true
Nonlinearity correction enabled: false
Boxcar width: 0
XAxis mode: Raman Shifts
Number of Pixels in Spectrum: 1044
>>>>>Begin Spectral Data<<<<<
46.04893	0.0375
50.45542	0.3375
54.85868	-0.7625
59.25871	-1.0625
63.6555	40.8375
68.04907	46.3375
72.43941	44.9375
76.82654	52.0375
81.21044	56.4375
85.59113	53.6375
89.96862	58.2375
94.34289	58.0375
98.71396	59.0375
103.08183	59.4375
107.4465	66.1375
111.80798	69.8375
116.16626	65.4375
120.52136	72.7375
124.87327	70.2375
129.222	73.4375
133.56755	74.1375
137.90993	76.2375
142.24913	82.6375
146.58517	93.8375
150.91804	106.3375
155.24774	118.1375
159.57429	141.1375
163.89768	179.8375
168.21792	231.3375
172.53501	309.3375
176.84895	422.2375
181.15975	593.0375
185.46741	827.5375
189.77193	1143.8375
194.07331	1541.5375
198.37157	1993.7375
202.6667	2464.8375
206.9587	2949.1375
211.24758	3414.5375
215.53334	3897.9375
219.81599	4381.1375
224.09553	4902.0375
228.37195	5503.5375
232.64527	6114.6375
236.91549	6788.0375
241.18261	7464.1375
245.44663	8101.6375
249.70755	8725.7375
253.96539	9218.8375
258.22014	9634.6375
262.4718	9998.1375
266.72039	10250.3375
270.96589	10374.0375
275.20832	10361.0375
279.44768	10287.2375
283.68397	10169.6375
287.91719	10009.8375
292.14735	9910.2375
296.37445	9894.4375
300.59849	9915.4375
304.81948	9946.2375
309.03742	9960.0375
313.25231	9886.6375
317.46415	9705.8375
321.67296	9436.9375
325.87872	9239.3375
330.08145	9149.5375
334.28114	9132.8375
338.47781	9212.9375
342.67145	9326.0375
346.86207	9455.9375
351.04966	9646.8375
355.23424	9820.4375
359.4158	9984.3375
363.59435	10142.8375
367.76989	10229.4375
371.94243	10311.9375
376.11196	10354.5375
380.27849	10412.7375
384.44203	10461.6375
388.60257	10487.7375
392.76012	10544.2375
396.91468	10634.3375
401.06626	10775.7375
405.21485	10887.1375
409.36047	10874.5375
413.50311	10695.3375
417.64277	10555.7375
421.77947	10532.9375
425.9132	10524.4375
430.04396	10542.5375
434.17176	10575.5375
438.2966	10642.7375
442.41849	10711.5375
446.53742	10825.2375
450.6534	10970.2375
454.76644	11074.3375
458.87653	11125.3375
462.98368	11142.3375
467.08789	11132.2375
471.18916	11041.3375
475.2875	10966.0375
479.38291	10871.0375
483.4754	10830.7375
487.56496	10752.6375
491.6516	10731.9375
495.73531	10677.6375
499.81612	10678.8375
503.89401	10752.3375
507.96899	10822.3375
512.04106	10845.3375
516.11023	10884.2375
520.1765	10834.8375
524.23987	10778.0375
528.30034	10674.0375
532.35792	10607.9375
536.41261	10527.3375
540.46441	10437.7375
544.51333	10411.6375
548.55936	10492.8375
552.60252	10592.4375
556.64279	10748.4375
560.6802	10823.6375
564.71473	10845.2375
568.7464	10940.3375
572.7752	11086.7375
576.80114	11201.3375
580.82422	11325.3375
584.84444	11546.1375
588.86181	11703.5375
592.87633	11784.4375
596.888	11698.7375
600.89682	11559.4375
604.9028	11757.3375
608.90594	12629.7375
612.90624	13793.3375
616.90371	13471.9375
620.89834	11637.9375
624.89015	10738.1375
628.87913	10601.0375
632.86528	10651.1375
636.84862	10747.7375
640.82913	10705.5375
644.80683	10546.7375
648.78172	10440.4375
652.75379	10400.3375
656.72306	10502.6375
660.68952	10668.6375
664.65319	10648.0375
668.61405	10524.5375
672.57211	10525.3375
676.52738	10576.6375
680.47986	10640.2375
684.42955	10624.3375
688.37646	10540.9375
692.32058	10496.2375
696.26192	10513.0375
700.20048	10554.5375
704.13626	10579.1375
708.06928	10568.5375
711.99952	10547.0375
715.927	10523.6375
719.85171	10515.3375
723.77365	10490.6375
727.69284	10480.1375
731.60928	10378.1375
735.52295	10337.2375
739.43388	10309.2375
743.34206	10345.1375
747.24749	10405.8375
751.15017	10422.1375
755.05012	10496.9375
758.94733	10668.9375
762.8418	11034.8375
766.73354	11632.1375
770.62254	12389.4375
774.50882	12693.3375
778.39237	12450.8375
782.27321	11723.3375
786.15132	11071.2375
790.02671	10626.3375
793.89938	10412.8375
797.76935	10324.3375
801.6366	10273.5375
805.50115	10254.6375
809.36299	10189.5375
813.22213	10154.8375
817.07857	10123.9375
820.93231	10100.4375
824.78336	10096.1375
828.63172	10089.9375
832.47738	10092.6375
836.32036	10064.3375
840.16066	10077.4375
843.99827	10055.1375
847.8332	10038.0375
851.66546	10046.5375
855.49504	10046.5375
859.32195	10032.9375
863.1462	10060.8375
866.96777	10055.6375
870.78668	10041.3375
874.60293	10031.2375
878.41652	10035.4375
882.22745	10065.8375
886.03573	10109.8375
889.84136	10119.7375
893.64433	10108.1375
897.44466	10052.3375
901.24235	10044.7375
905.0374	9993.3375
908.8298	9982.2375
912.61957	9941.4375
916.40671	9964.4375
920.19121	10003.9375
923.97308	10095.8375
927.75233	10115.3375
931.52895	10126.0375
935.30295	10032.2375
939.07433	9905.9375
942.84309	9798.7375
946.60924	9730.3375
950.37278	9682.3375
954.13371	9641.2375
957.89203	9616.8375
961.64774	9609.2375
965.40086	9596.6375
969.15137	9559.2375
972.89929	9506.4375
976.64461	9507.2375
980.38733	9493.5375
984.12747	9497.9375
987.86502	9515.1375
991.59999	9524.8375
995.33237	9575.7375
999.06217	9664.7375
1002.78939	9715.8375
1006.51404	9799.5375
1010.23611	9892.0375
1013.95561	9962.0375
1017.67255	9981.9375
1021.38692	9939.8375
1025.09872	9868.8375
1028.80796	9819.9375
1032.51465	9816.7375
1036.21877	9864.5375
1039.92035	9891.9375
1043.61937	9902.7375
1047.31584	9934.1375
1051.00976	9929.1375
1054.70114	9941.6375
1058.38998	9971.5375
1062.07627	10011.8375
1065.76003	10078.5375
1069.44126	10173.9375
1073.11995	10257.3375
1076.79611	10399.4375
1080.46974	10441.7375
1084.14085	10430.3375
1087.80943	10422.7375
1091.47549	10467.8375
1095.13903	10475.1375
1098.80005	10389.7375
1102.45857	10249.6375
1106.11456	10144.7375
1109.76805	10033.2375
1113.41903	10046.1375
1117.06751	10064.2375
1120.71348	10190.3375
1124.35696	10325.5375
1127.99793	10474.0375
1131.63641	10538.3375
1135.2724	10431.9375
1138.90589	10275.0375
1142.5369	10205.3375
1146.16542	10173.7375
1149.79145	10134.8375
1153.415	10094.5375
1157.03607	10163.3375
1160.65467	10261.5375
1164.27079	10531.1375
1167.88443	10836.1375
1171.49561	11225.0375
1175.10432	11755.7375
1178.71056	12444.1375
1182.31434	13131.5375
1185.91565	13514.0375
1189.51451	13526.4375
1193.11091	13264.1375
1196.70485	12860.8375
1200.29634	12435.0375
1203.88538	12063.3375
1207.47197	11744.3375
1211.05612	11451.4375
1214.63782	11222.0375
1218.21708	11078.0375
1221.79391	10920.2375
1225.36829	10791.3375
1228.94024	10740.5375
1232.50976	10687.7375
1236.07685	10637.9375
1239.6415	10616.1375
1243.20374	10616.5375
1246.76355	10637.9375
1250.32093	10733.9375
1253.8759	10780.6375
1257.42845	10941.9375
1260.97859	11137.5375
1264.52631	11290.3375
1268.07163	11507.4375
1271.61453	11716.0375
1275.15503	11883.0375
1278.69312	12071.5375
1282.22882	12220.1375
1285.76211	12373.1375
1289.29301	12612.6375
1292.82151	12949.0375
1296.34761	13327.6375
1299.87133	13783.1375
1303.39266	14376.2375
1306.9116	15067.8375
1310.42815	15704.7375
1313.94233	16037.0375
1317.45412	15881.2375
1320.96354	15510.3375
1324.47058	15114.8375
1327.97525	14759.7375
1331.47754	14575.4375
1334.97747	14497.6375
1338.47502	14476.5375
1341.97022	14525.8375
1345.46305	14628.9375
1348.95352	14877.9375
1352.44163	15175.7375
1355.92738	15593.5375
1359.41078	16297.0375
1362.89183	16945.8375
1366.37053	16877.5375
1369.84688	15650.3375
1373.32088	14115.2375
1376.79254	12930.3375
1380.26186	12342.6375
1383.72883	12094.2375
1387.19347	11918.2375
1390.65578	11702.5375
1394.11575	11550.4375
1397.57339	11482.9375
1401.0287	11527.6375
1404.48168	11589.6375
1407.93234	11609.0375
1411.38068	11503.8375
1414.82669	11393.9375
1418.27039	11174.7375
1421.71177	10974.4375
1425.15083	10795.8375
1428.58758	10647.5375
1432.02203	10669.5375
1435.45416	10731.3375
1438.88399	10861.1375
1442.31151	10949.7375
1445.73673	10976.9375
1449.15965	11022.6375
1452.58027	11048.5375
1455.9986	11113.7375
1459.41463	11127.7375
1462.82837	11215.9375
1466.23982	11368.3375
1469.64898	11501.3375
1473.05586	11622.0375
1476.46045	11685.4375
1479.86276	11733.0375
1483.26279	11747.9375
1486.66054	11828.9375
1490.05602	11975.8375
1493.44922	12222.4375
1496.84016	12576.0375
1500.22882	13133.0375
1503.61521	13841.8375
1506.99934	14684.0375
1510.38121	15355.0375
1513.76081	15487.1375
1517.13816	14998.8375
1520.51324	14158.3375
1523.88607	13365.7375
1527.25665	12827.9375
1530.62498	12496.0375
1533.99105	12321.3375
1537.35488	12164.2375
1540.71647	11968.2375
1544.07581	11798.5375
1547.4329	11641.8375
1550.78776	11482.8375
1554.14038	11388.1375
1557.49077	11339.4375
1560.83892	11376.7375
1564.18484	11439.0375
1567.52853	11529.7375
1570.86999	11703.0375
1574.20922	11867.1375
1577.54624	11906.6375
1580.88103	11808.1375
1584.2136	11555.5375
1587.54395	11449.5375
1590.87208	11562.9375
1594.19801	11877.5375
1597.52172	12342.4375
1600.84321	12582.1375
1604.16251	12410.2375
1607.47959	11955.1375
1610.79447	11372.7375
1614.10715	10804.7375
1617.41763	10308.4375
1620.7259	9888.6375
1624.03199	9640.3375
1627.33587	9584.2375
1630.63757	9644.7375
1633.93707	9847.7375
1637.23439	10272.9375
1640.52951	10959.3375
1643.82246	11903.9375
1647.11321	12893.1375
1650.40179	13499.8375
1653.68819	13263.9375
1656.97241	12206.6375
1660.25446	10957.3375
1663.53433	9981.3375
1666.81203	9387.5375
1670.08756	8981.6375
1673.36092	8745.3375
1676.63211	8598.8375
1679.90115	8463.5375
1683.16801	8404.2375
1686.43272	8310.2375
1689.69527	8260.6375
1692.95567	8216.9375
1696.2139	8137.1375
1699.46999	8105.4375
1702.72392	8055.8375
1705.97571	8060.7375
1709.22535	8089.6375
1712.47284	8101.7375
1715.71819	8122.1375
1718.96139	8113.8375
1722.20246	8071.6375
1725.44139	8067.2375
1728.67818	8036.0375
1731.91284	8002.3375
1735.14537	7946.5375
1738.37576	7928.5375
1741.60403	7930.0375
1744.83017	7902.9375
1748.05418	7882.9375
1751.27607	7895.2375
1754.49584	7862.6375
1757.71349	7876.0375
1760.92903	7872.9375
1764.14244	7835.8375
1767.35375	7818.7375
1770.56294	7776.1375
1773.77002	7739.1375
1776.97499	7720.0375
1780.17785	7744.4375
1783.37861	7744.6375
1786.57727	7713.4375
1789.77382	7695.4375
1792.96828	7691.5375
1796.16064	7659.3375
1799.3509	7621.2375
1802.53907	7606.4375
1805.72514	7581.7375
1808.90913	7580.1375
1812.09102	7559.8375
1815.27083	7557.8375
1818.44856	7533.1375
1821.6242	7511.0375
1824.79776	7480.0375
1827.96924	7483.9375
1831.13864	7497.0375
1834.30597	7465.5375
1837.47122	7474.2375
1840.6344	7456.5375
1843.7955	7458.5375
1846.95454	7442.9375
1850.11151	7452.0375
1853.26642	7420.3375
1856.41926	7428.4375
1859.57004	7439.5375
1862.71876	7407.0375
1865.86542	7423.7375
1869.01003	7428.8375
1872.15258	7388.0375
1875.29308	7383.8375
1878.43152	7365.4375
1881.56792	7338.0375
1884.70227	7342.9375
1887.83457	7321.7375
1890.96482	7312.1375
1894.09304	7333.1375
1897.21921	7292.1375
1900.34335	7291.1375
1903.46544	7286.9375
1906.58551	7271.8375
1909.70353	7239.2375
1912.81953	7212.9375
1915.93349	7232.0375
1919.04543	7212.8375
1922.15534	7196.9375
1925.26322	7197.7375
1928.36908	7169.3375
1931.47292	7143.1375
1934.57473	7125.3375
1937.67453	7137.3375
1940.77232	7113.3375
1943.86808	7085.1375
1946.96184	7057.0375
1950.05358	7041.5375
1953.14331	7033.3375
1956.23103	7001.6375
1959.31675	6986.6375
1962.40046	6972.3375
1965.48217	6963.2375
1968.56188	6921.8375
1971.63959	6900.3375
1974.7153	6880.4375
1977.78901	6866.4375
1980.86073	6826.5375
1983.93046	6817.8375
1986.99819	6784.3375
1990.06394	6753.8375
1993.1277	6749.5375
1996.18947	6738.7375
1999.24925	6713.5375
2002.30706	6689.4375
2005.36288	6669.5375
2008.41672	6660.1375
2011.46859	6627.5375
2014.51848	6629.1375
2017.56639	6597.1375
2020.61233	6571.7375
2023.6563	6558.1375
2026.6983	6528.6375
2029.73833	6555.2375
2032.7764	6516.2375
2035.8125	6484.1375
2038.84664	6466.5375
2041.87881	6468.8375
2044.90903	6444.5375
2047.93729	6424.0375
2050.96359	6429.0375
2053.98794	6425.5375
2057.01034	6403.2375
2060.03078	6387.6375
2063.04927	6402.0375
2066.06582	6394.7375
2069.08042	6385.7375
2072.09307	6366.8375
2075.10378	6368.9375
2078.11255	6379.7375
2081.11938	6380.4375
2084.12426	6358.0375
2087.12722	6375.0375
2090.12824	6355.5375
2093.12732	6360.4375
2096.12447	6344.1375
2099.11969	6341.3375
2102.11299	6336.8375
2105.10435	6346.8375
2108.09379	6365.7375
2111.08131	6346.6375
2114.0669	6358.8375
2117.05057	6373.5375
2120.03233	6372.1375
2123.01216	6355.9375
2125.99008	6372.2375
2128.96609	6380.5375
2131.94018	6379.2375
2134.91236	6403.7375
2137.88263	6384.7375
2140.851	6380.9375
2143.81746	6407.2375
2146.78201	6385.4375
2149.74466	6379.8375
2152.7054	6363.1375
2155.66425	6379.5375
2158.6212	6371.5375
2161.57625	6388.7375
2164.52941	6372.4375
2167.48067	6372.4375
2170.43004	6366.1375
2173.37752	6362.5375
2176.32311	6365.2375
2179.26681	6357.1375
2182.20863	6328.8375
2185.14856	6355.1375
2188.08661	6357.0375
2191.02278	6359.8375
2193.95707	6337.8375
2196.88948	6324.9375
2199.82001	6329.2375
2202.74867	6305.7375
2205.67545	6313.5375
2208.60037	6277.5375
2211.52341	6290.5375
2214.44458	6243.9375
2217.36388	6266.0375
2220.28132	6242.0375
2223.1969	6231.4375
2226.11061	6235.1375
2229.02246	6196.7375
2231.93245	6204.7375
2234.84058	6185.4375
2237.74686	6175.4375
2240.65128	6164.4375
2243.55385	6155.2375
2246.45456	6144.2375
2249.35343	6134.9375
2252.25044	6119.6375
2255.14561	6115.2375
2258.03893	6106.3375
2260.93041	6101.0375
2263.82004	6082.9375
2266.70783	6061.1375
2269.59378	6050.9375
2272.4779	6018.5375
2275.36017	6031.0375
2278.24061	6017.9375
2281.11922	6004.2375
2283.996	5991.3375
2286.87094	5999.0375
2289.74405	5951.1375
2292.61534	5967.9375
2295.4848	5941.5375
2298.35243	5944.9375
2301.21824	5921.1375
2304.08223	5942.5375
2306.94439	5915.2375
2309.80474	5932.2375
2312.66327	5906.9375
2315.51999	5899.9375
2318.37489	5899.1375
2321.22797	5878.3375
2324.07925	5878.1375
2326.92871	5868.7375
2329.77637	5857.3375
2332.62222	5864.6375
2335.46626	5837.1375
2338.3085	5819.9375
2341.14893	5820.6375
2343.98756	5803.3375
2346.8244	5800.8375
2349.65943	5783.2375
2352.49267	5807.6375
2355.32411	5776.4375
2358.15376	5769.8375
2360.98161	5795.1375
2363.80768	5795.7375
2366.63195	5793.9375
2369.45444	5788.6375
2372.27514	5765.3375
2375.09405	5776.8375
2377.91118	5770.6375
2380.72652	5743.0375
2383.54009	5735.6375
2386.35187	5706.4375
2389.16188	5696.4375
2391.97011	5668.4375
2394.77657	5668.2375
2397.58125	5655.1375
2400.38416	5653.2375
2403.18529	5623.8375
2405.98466	5634.8375
2408.78226	5621.3375
2411.57809	5616.2375
2414.37216	5588.8375
2417.16446	5577.7375
2419.955	5579.5375
2422.74378	5582.3375
2425.5308	5588.6375
2428.31606	5584.2375
2431.09956	5574.2375
2433.88131	5560.4375
2436.6613	5568.7375
2439.43954	5551.8375
2442.21603	5541.4375
2444.99077	5537.3375
2447.76377	5526.4375
2450.53501	5541.1375
2453.30451	5527.5375
2456.07226	5516.3375
2458.83827	5516.6375
2461.60254	5511.6375
2464.36507	5509.7375
2467.12586	5503.0375
2469.88492	5473.4375
2472.64224	5491.1375
2475.39782	5492.8375
2478.15167	5465.5375
2480.90379	5478.4375
2483.65417	5462.6375
2486.40283	5460.8375
2489.14976	5465.2375
2491.89497	5442.3375
2494.63845	5456.6375
2497.3802	5431.2375
2500.12024	5421.7375
2502.85855	5418.5375
2505.59514	5432.1375
2508.33002	5432.5375
2511.06318	5407.9375
2513.79462	5402.1375
2516.52435	5384.6375
2519.25237	5374.5375
2521.97867	5371.7375
2524.70327	5371.0375
2527.42616	5361.0375
2530.14734	5350.5375
2532.86681	5330.7375
2535.58458	5332.6375
2538.30065	5327.4375
2541.01501	5348.5375
2543.72768	5308.3375
2546.43864	5305.9375
2549.14791	5291.7375
2551.85548	5288.7375
2554.56136	5264.6375
2557.26554	5277.4375
2559.96803	5269.3375
2562.66883	5241.5375
2565.36794	5247.5375
2568.06536	5228.5375
2570.7611	5231.9375
2573.45514	5210.7375
2576.14751	5207.1375
2578.83819	5197.0375
2581.52719	5180.7375
2584.21451	5165.1375
2586.90015	5162.7375
2589.58411	5152.9375
2592.2664	5149.7375
2594.94701	5139.8375
2597.62594	5133.7375
2600.30321	5117.5375
2602.9788	5096.6375
2605.65273	5086.0375
2608.32498	5087.9375
2610.99557	5079.9375
2613.66449	5063.2375
2616.33175	5070.5375
2618.99734	5076.2375
2621.66128	5057.9375
2624.32355	5057.5375
2626.98416	5049.8375
2629.64311	5036.6375
2632.30041	5021.2375
2634.95605	5001.3375
2637.61004	5004.1375
2640.26238	5004.9375
2642.91306	4995.9375
2645.56209	4994.5375
2648.20948	4976.1375
2650.85521	4983.8375
2653.4993	4987.9375
2656.14175	4991.1375
2658.78255	5004.8375
2661.42171	5001.3375
2664.05923	5000.9375
2666.6951	4989.1375
2669.32934	5000.9375
2671.96194	4988.4375
2674.59291	4986.9375
2677.22224	4985.8375
2679.84993	4982.7375
2682.476	4977.8375
2685.10043	4980.5375
2687.72324	4968.6375
2690.34441	4959.0375
2692.96396	4981.4375
2695.58188	4985.2375
2698.19818	4964.6375
2700.81285	4970.1375
2703.4259	4953.1375
2706.03733	4938.7375
2708.64714	4928.5375
2711.25533	4959.4375
2713.86191	4962.1375
2716.46687	4960.1375
2719.07021	4949.5375
2721.67194	4976.8375
2724.27206	4950.9375
2726.87057	4987.3375
2729.46747	4976.9375
2732.06276	4954.0375
2734.65644	4957.0375
2737.24852	4951.4375
2739.83899	4957.8375
2742.42786	4954.5375
2745.01513	4925.6375
2747.60079	4921.3375
2750.18486	4920.6375
2752.76733	4907.4375
2755.3482	4888.5375
2757.92747	4894.0375
2760.50515	4877.2375
2763.08123	4874.7375
2765.65573	4887.6375
2768.22863	4880.9375
2770.79994	4871.6375
2773.36967	4858.8375
2775.9378	4860.7375
2778.50435	4846.0375
2781.06932	4861.2375
2783.6327	4843.3375
2786.1945	4829.8375
2788.75471	4841.8375
2791.31335	4814.6375
2793.87041	4810.7375
2796.42589	4794.4375
2798.97979	4797.2375
2801.53212	4783.9375
2804.08288	4787.9375
2806.63206	4763.4375
2809.17967	4756.8375
2811.72571	4753.6375
2814.27018	4729.2375
2816.81308	4705.8375
2819.35442	4720.0375
2821.89419	4714.7375
2824.43239	4725.1375
2826.96904	4711.7375
2829.50412	4718.2375
2832.03763	4704.2375
2834.56959	4693.5375
2837.1	4724.6375
2839.62884	4707.5375
2842.15613	4713.9375
2844.68186	4762.5375
2847.20604	4754.6375
2849.72867	4771.9375
2852.24974	4776.0375
2854.76927	4768.7375
2857.28724	4755.4375
2859.80367	4742.5375
2862.31855	4749.4375
2864.83189	4739.0375
2867.34368	4733.8375
2869.85393	4734.6375
2872.36264	4730.4375
2874.8698	4722.2375
2877.37543	4720.3375
2879.87952	4710.8375
2882.38207	4711.9375
2884.88308	4700.8375
2887.38256	4717.7375
2889.88051	4694.1375
2892.37692	4704.4375
2894.8718	4709.2375
2897.36515	4728.2375
2899.85698	4721.6375
2902.34727	4729.0375
2904.83604	4721.4375
2907.32328	4742.2375
2909.809	4734.9375
2912.29319	4743.1375
2914.77587	4751.8375
2917.25702	4743.9375
2919.73665	4741.2375
2922.21476	4749.7375
2924.69136	4729.3375
2927.16644	4750.4375
2929.64	4759.6375
2932.11205	4735.6375
2934.58258	4728.8375
2937.05161	4738.9375
2939.51912	4736.6375
2941.98513	4725.4375
2944.44962	4700.8375
2946.91261	4674.7375
2949.37409	4687.6375
2951.83407	4677.6375
2954.29254	4660.0375
2956.74951	4640.7375
2959.20498	4650.1375
2961.65895	4642.9375
2964.11142	4643.6375
2966.56239	4632.7375
2969.01186	4607.2375
2971.45984	4614.2375
2973.90632	4610.6375
2976.35131	4589.1375
2978.7948	4562.6375
2981.23681	4551.8375
2983.67732	4562.2375
2986.11635	4544.5375
2988.55388	4534.9375
2990.98993	4515.2375
2993.4245	4510.6375
2995.85758	4502.3375
2998.28917	4485.1375
3000.71928	4500.5375
3003.14791	4461.7375
3005.57506	4475.9375
3008.00073	4459.8375
3010.42493	4440.3375
3012.84764	4456.3375
3015.26888	4442.3375
3017.68865	4447.6375
3020.10694	4441.2375
3022.52376	4422.8375
3024.9391	4428.9375
3027.35298	4412.1375
3029.76539	4412.9375
3032.17632	4399.7375
3034.5858	4399.5375
3036.9938	4408.6375
3039.40034	4389.2375
3041.80542	4397.4375
3044.20903	4379.1375
3046.61118	4380.3375
3049.01187	4377.1375
3051.4111	4368.9375
3053.80888	4358.7375
3056.20519	4365.0375
3058.60005	4336.0375
3060.99345	4343.3375
3063.3854	4318.5375
3065.7759	4319.3375
3068.16494	4304.8375
3070.55254	4311.8375
3072.93868	4298.6375
3075.32338	4296.1375
3077.70662	4277.7375
3080.08842	4276.8375
3082.46878	4296.0375
3084.84769	4287.9375
3087.22515	4282.8375
3089.60118	4286.5375
