Data from AgNPs_FTO_APTES_UA_1uM_CRN_500uM_R6G_10uM_NaF_0.1M_Addition_RamanShift__32__18-21-59-900.txt Node

Date: Thu Jan 27 18:21:59 GMT 2022
User: TCL
Spectrometer: QEP01345
Trigger mode: 4
Integration Time (sec): 7.000000E0
Scans to average: 10
Electric dark correction enabled: true
Nonlinearity correction enabled: false
Boxcar width: 0
XAxis mode: Raman Shifts
Number of Pixels in Spectrum: 1044
>>>>>Begin Spectral Data<<<<<
46.04893	-0.025
50.45542	0.875
54.85868	-0.925
59.25871	-1.325
63.6555	30.975
68.04907	32.875
72.43941	35.175
76.82654	35.675
81.21044	39.675
85.59113	40.975
89.96862	40.775
94.34289	45.675
98.71396	44.875
103.08183	45.575
107.4465	48.975
111.80798	50.875
116.16626	51.475
120.52136	50.875
124.87327	49.075
129.222	49.275
133.56755	44.875
137.90993	48.775
142.24913	50.675
146.58517	55.175
150.91804	62.675
155.24774	65.875
159.57429	72.575
163.89768	88.475
168.21792	108.675
172.53501	137.475
176.84895	184.475
181.15975	255.675
185.46741	353.175
189.77193	475.975
194.07331	635.875
198.37157	810.175
202.6667	1005.475
206.9587	1183.875
211.24758	1371.975
215.53334	1584.375
219.81599	1793.575
224.09553	2046.875
228.37195	2308.975
232.64527	2602.475
236.91549	2894.475
241.18261	3159.475
245.44663	3365.875
249.70755	3521.275
253.96539	3654.475
258.22014	3772.775
262.4718	3864.375
266.72039	3947.975
270.96589	3982.675
275.20832	3977.175
279.44768	3920.475
283.68397	3865.275
287.91719	3809.175
292.14735	3810.875
296.37445	3895.875
300.59849	4069.375
304.81948	4294.475
309.03742	4461.875
313.25231	4493.875
317.46415	4268.575
321.67296	3889.675
325.87872	3570.075
330.08145	3424.775
334.28114	3398.875
338.47781	3454.075
342.67145	3579.175
346.86207	3759.475
351.04966	4039.375
355.23424	4343.775
359.4158	4559.275
363.59435	4668.475
367.76989	4672.575
371.94243	4642.075
376.11196	4605.475
380.27849	4576.875
384.44203	4489.475
388.60257	4372.375
392.76012	4322.675
396.91468	4367.875
401.06626	4516.375
405.21485	4625.475
409.36047	4548.675
413.50311	4258.575
417.64277	3993.175
421.77947	3824.775
425.9132	3746.675
430.04396	3698.075
434.17176	3707.075
438.2966	3757.275
442.41849	3858.475
446.53742	3966.775
450.6534	4047.975
454.76644	4122.575
458.87653	4105.875
462.98368	4100.275
467.08789	4044.475
471.18916	3948.675
475.2875	3856.475
479.38291	3774.875
483.4754	3709.675
487.56496	3658.675
491.6516	3649.375
495.73531	3654.375
499.81612	3663.675
503.89401	3700.475
507.96899	3768.775
512.04106	3837.375
516.11023	3943.075
520.1765	4006.575
524.23987	3993.575
528.30034	3915.475
532.35792	3774.775
536.41261	3650.075
540.46441	3560.775
544.51333	3497.875
548.55936	3515.475
552.60252	3583.275
556.64279	3686.475
560.6802	3744.175
564.71473	3827.775
568.7464	4027.275
572.7752	4153.475
576.80114	4000.775
580.82422	3793.275
584.84444	3705.175
588.86181	3677.775
592.87633	3643.175
596.888	3687.675
600.89682	3845.175
604.9028	4345.475
608.90594	5728.275
612.90624	7693.975
616.90371	7649.775
620.89834	5185.975
624.89015	3935.675
628.87913	3672.975
632.86528	3656.975
636.84862	3718.775
640.82913	3700.075
644.80683	3542.675
648.78172	3428.275
652.75379	3451.775
656.72306	3636.775
660.68952	3875.075
664.65319	3841.575
668.61405	3609.675
672.57211	3492.475
676.52738	3496.775
680.47986	3511.575
684.42955	3501.275
688.37646	3475.975
692.32058	3472.275
696.26192	3513.475
700.20048	3536.875
704.13626	3563.275
708.06928	3559.575
711.99952	3493.875
715.927	3469.275
719.85171	3465.775
723.77365	3462.075
727.69284	3446.075
731.60928	3424.275
735.52295	3401.875
739.43388	3416.275
743.34206	3427.275
747.24749	3441.275
751.15017	3482.375
755.05012	3541.975
758.94733	3745.075
762.8418	4138.975
766.73354	4891.975
770.62254	5759.475
774.50882	6271.175
778.39237	6100.375
782.27321	5251.675
786.15132	4331.575
790.02671	3803.975
793.89938	3584.475
797.76935	3485.575
801.6366	3443.975
805.50115	3407.075
809.36299	3414.775
813.22213	3391.475
817.07857	3392.175
820.93231	3388.275
824.78336	3393.675
828.63172	3411.475
832.47738	3419.775
836.32036	3418.675
840.16066	3402.675
843.99827	3368.075
847.8332	3357.475
851.66546	3356.975
855.49504	3358.175
859.32195	3356.275
863.1462	3333.475
866.96777	3320.775
870.78668	3306.375
874.60293	3312.975
878.41652	3319.475
882.22745	3320.775
886.03573	3359.375
889.84136	3349.675
893.64433	3323.275
897.44466	3309.075
901.24235	3309.975
905.0374	3298.375
908.8298	3281.175
912.61957	3268.675
916.40671	3280.175
920.19121	3312.375
923.97308	3349.475
927.75233	3401.375
931.52895	3448.975
935.30295	3417.675
939.07433	3300.575
942.84309	3206.275
946.60924	3117.275
950.37278	3064.675
954.13371	3050.575
957.89203	3022.175
961.64774	3008.075
965.40086	2998.875
969.15137	2993.775
972.89929	2968.175
976.64461	2975.775
980.38733	2973.075
984.12747	2978.375
987.86502	2979.275
991.59999	2982.975
995.33237	3001.175
999.06217	3033.675
1002.78939	3092.975
1006.51404	3135.875
1010.23611	3214.975
1013.95561	3263.475
1017.67255	3255.775
1021.38692	3229.175
1025.09872	3171.775
1028.80796	3137.775
1032.51465	3131.375
1036.21877	3179.975
1039.92035	3239.775
1043.61937	3296.675
1047.31584	3278.975
1051.00976	3288.975
1054.70114	3275.675
1058.38998	3252.475
1062.07627	3266.475
1065.76003	3262.975
1069.44126	3290.775
1073.11995	3327.775
1076.79611	3401.375
1080.46974	3456.875
1084.14085	3544.375
1087.80943	3645.575
1091.47549	3680.775
1095.13903	3614.275
1098.80005	3438.275
1102.45857	3310.575
1106.11456	3261.275
1109.76805	3280.875
1113.41903	3371.675
1117.06751	3506.575
1120.71348	3687.675
1124.35696	3902.775
1127.99793	4109.375
1131.63641	4098.775
1135.2724	3841.175
1138.90589	3575.675
1142.5369	3428.575
1146.16542	3336.975
1149.79145	3283.775
1153.415	3275.875
1157.03607	3311.275
1160.65467	3379.275
1164.27079	3497.575
1167.88443	3690.075
1171.49561	4030.975
1175.10432	4617.275
1178.71056	5373.975
1182.31434	5821.575
1185.91565	5777.675
1189.51451	5555.775
1193.11091	5126.875
1196.70485	4677.275
1200.29634	4393.975
1203.88538	4173.675
1207.47197	3889.875
1211.05612	3660.675
1214.63782	3527.975
1218.21708	3484.575
1221.79391	3494.875
1225.36829	3527.875
1228.94024	3557.875
1232.50976	3585.575
1236.07685	3613.675
1239.6415	3611.575
1243.20374	3624.475
1246.76355	3626.375
1250.32093	3659.975
1253.8759	3722.775
1257.42845	3806.475
1260.97859	3911.775
1264.52631	4049.275
1268.07163	4192.975
1271.61453	4310.375
1275.15503	4383.875
1278.69312	4374.975
1282.22882	4376.475
1285.76211	4425.475
1289.29301	4569.175
1292.82151	4725.375
1296.34761	4879.575
1299.87133	5113.075
1303.39266	5506.575
1306.9116	6209.275
1310.42815	7034.975
1313.94233	7572.175
1317.45412	7451.075
1320.96354	6831.875
1324.47058	6107.275
1327.97525	5523.475
1331.47754	5163.175
1334.97747	5009.075
1338.47502	5020.475
1341.97022	5128.375
1345.46305	5400.275
1348.95352	5811.075
1352.44163	6458.175
1355.92738	7300.975
1359.41078	8551.375
1362.89183	9789.175
1366.37053	9600.775
1369.84688	8012.975
1373.32088	6406.575
1376.79254	5384.275
1380.26186	4830.575
1383.72883	4550.875
1387.19347	4332.875
1390.65578	4088.175
1394.11575	3877.375
1397.57339	3783.375
1401.0287	3744.375
1404.48168	3778.075
1407.93234	3789.375
1411.38068	3806.975
1414.82669	3827.875
1418.27039	3811.575
1421.71177	3794.375
1425.15083	3763.075
1428.58758	3729.475
1432.02203	3751.675
1435.45416	3787.975
1438.88399	3829.075
1442.31151	3794.875
1445.73673	3782.875
1449.15965	3767.875
1452.58027	3762.275
1455.9986	3728.475
1459.41463	3685.075
1462.82837	3713.475
1466.23982	3779.075
1469.64898	3861.175
1473.05586	3917.175
1476.46045	3961.175
1479.86276	4032.275
1483.26279	4163.075
1486.66054	4286.275
1490.05602	4459.075
1493.44922	4698.575
1496.84016	5141.075
1500.22882	5791.475
1503.61521	6667.075
1506.99934	7581.175
1510.38121	8539.075
1513.76081	9119.575
1517.13816	8731.875
1520.51324	7519.175
1523.88607	6203.075
1527.25665	5302.175
1530.62498	4797.075
1533.99105	4540.675
1537.35488	4352.775
1540.71647	4237.675
1544.07581	4194.475
1547.4329	4189.475
1550.78776	4180.775
1554.14038	4200.375
1557.49077	4275.275
1560.83892	4370.275
1564.18484	4546.775
1567.52853	4719.275
1570.86999	4895.875
1574.20922	5007.175
1577.54624	4998.475
1580.88103	4712.975
1584.2136	4276.175
1587.54395	3997.975
1590.87208	3950.675
1594.19801	4092.675
1597.52172	4361.675
1600.84321	4509.175
1604.16251	4373.475
1607.47959	4110.275
1610.79447	3838.475
1614.10715	3569.275
1617.41763	3368.975
1620.7259	3247.075
1624.03199	3167.075
1627.33587	3162.775
1630.63757	3216.475
1633.93707	3317.675
1637.23439	3507.275
1640.52951	3827.575
1643.82246	4315.375
1647.11321	4986.175
1650.40179	5562.975
1653.68819	5574.575
1656.97241	4882.775
1660.25446	4008.575
1663.53433	3375.175
1666.81203	3030.975
1670.08756	2829.175
1673.36092	2727.575
1676.63211	2671.475
1679.90115	2620.475
1683.16801	2582.475
1686.43272	2539.775
1689.69527	2509.775
1692.95567	2483.075
1696.2139	2432.775
1699.46999	2393.175
1702.72392	2363.875
1705.97571	2378.575
1709.22535	2407.475
1712.47284	2436.475
1715.71819	2460.875
1718.96139	2462.175
1722.20246	2478.075
1725.44139	2468.175
1728.67818	2450.175
1731.91284	2422.775
1735.14537	2395.575
1738.37576	2380.175
1741.60403	2351.575
1744.83017	2336.575
1748.05418	2330.175
1751.27607	2312.875
1754.49584	2281.275
1757.71349	2271.375
1760.92903	2248.175
1764.14244	2226.875
1767.35375	2217.975
1770.56294	2216.575
1773.77002	2210.675
1776.97499	2209.675
1780.17785	2218.075
1783.37861	2210.975
1786.57727	2218.575
1789.77382	2220.275
1792.96828	2222.175
1796.16064	2211.175
1799.3509	2195.575
1802.53907	2196.375
1805.72514	2188.275
1808.90913	2189.475
1812.09102	2177.075
1815.27083	2160.975
1818.44856	2164.375
1821.6242	2150.575
1824.79776	2139.975
1827.96924	2134.675
1831.13864	2150.575
1834.30597	2131.575
1837.47122	2134.075
1840.6344	2133.075
1843.7955	2114.975
1846.95454	2124.775
1850.11151	2114.575
1853.26642	2117.575
1856.41926	2108.175
1859.57004	2126.275
1862.71876	2109.975
1865.86542	2114.775
1869.01003	2112.675
1872.15258	2108.475
1875.29308	2105.075
1878.43152	2110.975
1881.56792	2101.075
1884.70227	2103.275
1887.83457	2105.275
1890.96482	2094.675
1894.09304	2079.975
1897.21921	2097.175
1900.34335	2101.875
1903.46544	2095.275
1906.58551	2086.075
1909.70353	2086.875
1912.81953	2084.175
1915.93349	2085.875
1919.04543	2091.075
1922.15534	2082.075
1925.26322	2082.275
1928.36908	2069.875
1931.47292	2062.475
1934.57473	2038.275
1937.67453	2042.775
1940.77232	2026.575
1943.86808	2017.675
1946.96184	2011.375
1950.05358	2009.375
1953.14331	1992.575
1956.23103	1989.575
1959.31675	1987.075
1962.40046	1967.075
1965.48217	1970.175
1968.56188	1964.375
1971.63959	1952.675
1974.7153	1961.775
1977.78901	1957.375
1980.86073	1924.275
1983.93046	1923.475
1986.99819	1926.775
1990.06394	1923.375
1993.1277	1907.475
1996.18947	1897.475
1999.24925	1903.375
2002.30706	1888.375
2005.36288	1885.175
2008.41672	1871.875
2011.46859	1866.775
2014.51848	1864.975
2017.56639	1856.275
2020.61233	1857.875
2023.6563	1851.275
2026.6983	1836.175
2029.73833	1838.875
2032.7764	1836.875
2035.8125	1821.575
2038.84664	1817.175
2041.87881	1808.175
2044.90903	1810.975
2047.93729	1809.675
2050.96359	1800.675
2053.98794	1799.375
2057.01034	1796.375
2060.03078	1790.775
2063.04927	1802.775
2066.06582	1790.375
2069.08042	1793.475
2072.09307	1778.775
2075.10378	1777.475
2078.11255	1770.675
2081.11938	1773.675
2084.12426	1779.675
2087.12722	1772.475
2090.12824	1775.175
2093.12732	1775.275
2096.12447	1775.875
2099.11969	1776.375
2102.11299	1773.875
2105.10435	1774.475
2108.09379	1779.675
2111.08131	1777.775
2114.0669	1766.275
2117.05057	1777.875
2120.03233	1774.375
2123.01216	1769.475
2125.99008	1783.775
2128.96609	1777.775
2131.94018	1796.575
2134.91236	1791.575
2137.88263	1778.275
2140.851	1768.375
2143.81746	1770.575
2146.78201	1775.375
2149.74466	1771.275
2152.7054	1774.275
2155.66425	1762.575
2158.6212	1765.275
2161.57625	1763.175
2164.52941	1757.875
2167.48067	1751.675
2170.43004	1761.475
2173.37752	1756.375
2176.32311	1754.375
2179.26681	1751.575
2182.20863	1750.975
2185.14856	1754.275
2188.08661	1759.375
2191.02278	1749.075
2193.95707	1749.875
2196.88948	1739.575
2199.82001	1731.475
2202.74867	1737.675
2205.67545	1729.175
2208.60037	1726.775
2211.52341	1723.275
2214.44458	1717.275
2217.36388	1718.575
2220.28132	1708.375
2223.1969	1707.975
2226.11061	1712.175
2229.02246	1699.475
2231.93245	1689.875
2234.84058	1690.075
2237.74686	1685.675
2240.65128	1689.475
2243.55385	1686.575
2246.45456	1672.275
2249.35343	1674.475
2252.25044	1677.875
2255.14561	1683.975
2258.03893	1676.275
2260.93041	1667.975
2263.82004	1670.475
2266.70783	1661.075
2269.59378	1657.275
2272.4779	1646.475
2275.36017	1654.775
2278.24061	1652.675
2281.11922	1646.575
2283.996	1641.675
2286.87094	1638.375
2289.74405	1633.475
2292.61534	1625.575
2295.4848	1623.575
2298.35243	1618.075
2301.21824	1614.675
2304.08223	1609.075
2306.94439	1611.975
2309.80474	1611.875
2312.66327	1615.675
2315.51999	1603.975
2318.37489	1611.075
2321.22797	1603.875
2324.07925	1599.375
2326.92871	1598.275
2329.77637	1601.975
2332.62222	1598.775
2335.46626	1583.875
2338.3085	1588.575
2341.14893	1589.775
2343.98756	1584.575
2346.8244	1578.975
2349.65943	1582.475
2352.49267	1584.475
2355.32411	1588.375
2358.15376	1591.575
2360.98161	1586.375
2363.80768	1591.975
2366.63195	1596.275
2369.45444	1603.175
2372.27514	1600.575
2375.09405	1596.975
2377.91118	1589.075
2380.72652	1583.675
2383.54009	1569.175
2386.35187	1567.775
2389.16188	1557.575
2391.97011	1542.975
2394.77657	1535.075
2397.58125	1543.475
2400.38416	1528.575
2403.18529	1530.875
2405.98466	1523.375
2408.78226	1519.275
2411.57809	1525.575
2414.37216	1518.775
2417.16446	1524.575
2419.955	1508.875
2422.74378	1506.375
2425.5308	1502.875
2428.31606	1504.875
2431.09956	1511.375
2433.88131	1506.375
2436.6613	1502.975
2439.43954	1494.875
2442.21603	1504.075
2444.99077	1504.975
2447.76377	1506.075
2450.53501	1506.675
2453.30451	1499.075
2456.07226	1499.075
2458.83827	1502.975
2461.60254	1503.875
2464.36507	1505.075
2467.12586	1495.375
2469.88492	1488.275
2472.64224	1496.975
2475.39782	1489.875
2478.15167	1493.975
2480.90379	1499.775
2483.65417	1502.575
2486.40283	1500.475
2489.14976	1499.875
2491.89497	1505.275
2494.63845	1501.675
2497.3802	1499.175
2500.12024	1510.775
2502.85855	1504.175
2505.59514	1507.075
2508.33002	1484.275
2511.06318	1482.075
2513.79462	1476.975
2516.52435	1470.375
2519.25237	1459.575
2521.97867	1456.275
2524.70327	1449.675
2527.42616	1436.375
2530.14734	1442.675
2532.86681	1448.075
2535.58458	1437.975
2538.30065	1441.775
2541.01501	1434.475
2543.72768	1432.175
2546.43864	1429.875
2549.14791	1434.775
2551.85548	1436.775
2554.56136	1435.175
2557.26554	1428.675
2559.96803	1427.275
2562.66883	1433.375
2565.36794	1432.275
2568.06536	1425.575
2570.7611	1427.375
2573.45514	1418.075
2576.14751	1413.875
2578.83819	1413.575
2581.52719	1404.575
2584.21451	1405.075
2586.90015	1402.775
2589.58411	1399.975
2592.2664	1399.375
2594.94701	1393.275
2597.62594	1395.375
2600.30321	1385.275
2602.9788	1387.175
2605.65273	1383.875
2608.32498	1390.775
2610.99557	1372.775
2613.66449	1389.275
2616.33175	1380.175
2618.99734	1379.975
2621.66128	1381.775
2624.32355	1374.475
2626.98416	1369.775
2629.64311	1371.975
2632.30041	1370.275
2634.95605	1364.175
2637.61004	1356.975
2640.26238	1359.575
2642.91306	1362.075
2645.56209	1352.575
2648.20948	1348.075
2650.85521	1352.375
2653.4993	1353.075
2656.14175	1352.175
2658.78255	1359.975
2661.42171	1357.675
2664.05923	1350.275
2666.6951	1353.675
2669.32934	1359.775
2671.96194	1362.475
2674.59291	1365.475
2677.22224	1362.075
2679.84993	1359.775
2682.476	1363.075
2685.10043	1362.075
2687.72324	1366.175
2690.34441	1358.775
2692.96396	1365.375
2695.58188	1368.675
2698.19818	1366.875
2700.81285	1377.975
2703.4259	1366.175
2706.03733	1352.075
2708.64714	1352.575
2711.25533	1367.875
2713.86191	1374.475
2716.46687	1383.575
2719.07021	1387.975
2721.67194	1386.075
2724.27206	1380.275
2726.87057	1392.975
2729.46747	1393.575
2732.06276	1389.075
2734.65644	1376.575
2737.24852	1375.375
2739.83899	1365.375
2742.42786	1370.475
2745.01513	1359.575
2747.60079	1356.375
2750.18486	1357.175
2752.76733	1353.375
2755.3482	1345.175
2757.92747	1345.575
2760.50515	1350.075
2763.08123	1341.675
2765.65573	1342.775
2768.22863	1345.575
2770.79994	1340.975
2773.36967	1330.175
2775.9378	1336.275
2778.50435	1338.875
2781.06932	1338.075
2783.6327	1332.375
2786.1945	1337.375
2788.75471	1341.475
2791.31335	1341.675
2793.87041	1345.575
2796.42589	1353.975
2798.97979	1344.475
2801.53212	1347.975
2804.08288	1349.975
2806.63206	1358.675
2809.17967	1362.675
2811.72571	1363.575
2814.27018	1354.475
2816.81308	1372.875
2819.35442	1379.675
2821.89419	1391.075
2824.43239	1383.175
2826.96904	1386.275
2829.50412	1406.675
2832.03763	1405.075
2834.56959	1420.575
2837.1	1420.675
2839.62884	1454.375
2842.15613	1493.675
2844.68186	1569.675
2847.20604	1624.675
2849.72867	1677.575
2852.24974	1702.975
2854.76927	1703.175
2857.28724	1692.175
2859.80367	1673.275
2862.31855	1663.875
2864.83189	1653.375
2867.34368	1641.775
2869.85393	1629.675
2872.36264	1635.075
2874.8698	1643.575
2877.37543	1631.575
2879.87952	1634.975
2882.38207	1624.775
2884.88308	1621.475
2887.38256	1624.875
2889.88051	1628.375
2892.37692	1628.475
2894.8718	1626.375
2897.36515	1638.775
2899.85698	1643.375
2902.34727	1646.275
2904.83604	1643.975
2907.32328	1648.275
2909.809	1640.975
2912.29319	1639.675
2914.77587	1637.975
2917.25702	1628.875
2919.73665	1629.875
2922.21476	1626.275
2924.69136	1626.575
2927.16644	1629.275
2929.64	1627.475
2932.11205	1619.075
2934.58258	1598.775
2937.05161	1595.575
2939.51912	1577.975
2941.98513	1555.075
2944.44962	1507.175
2946.91261	1482.575
2949.37409	1458.575
2951.83407	1446.075
2954.29254	1417.775
2956.74951	1399.975
2959.20498	1400.575
2961.65895	1382.575
2964.11142	1373.975
2966.56239	1359.975
2969.01186	1354.275
2971.45984	1348.475
2973.90632	1342.175
2976.35131	1335.175
2978.7948	1316.175
2981.23681	1320.275
2983.67732	1312.775
2986.11635	1305.675
2988.55388	1307.475
2990.98993	1294.275
2993.4245	1289.675
2995.85758	1281.975
2998.28917	1280.275
3000.71928	1278.975
3003.14791	1274.075
3005.57506	1276.875
3008.00073	1273.075
3010.42493	1261.775
3012.84764	1273.775
3015.26888	1270.475
3017.68865	1274.275
3020.10694	1269.575
3022.52376	1263.475
3024.9391	1274.875
3027.35298	1268.575
3029.76539	1271.875
3032.17632	1272.175
3034.5858	1271.775
3036.9938	1275.075
3039.40034	1269.375
3041.80542	1271.875
3044.20903	1267.875
3046.61118	1265.475
3049.01187	1270.175
3051.4111	1277.075
3053.80888	1272.475
3056.20519	1282.975
3058.60005	1282.775
3060.99345	1274.375
3063.3854	1277.975
3065.7759	1285.575
3068.16494	1284.275
3070.55254	1283.275
3072.93868	1284.175
3075.32338	1281.075
3077.70662	1283.375
3080.08842	1279.275
3082.46878	1270.475
3084.84769	1267.375
3087.22515	1267.375
3089.60118	1280.875
3091.97576	1274.675
3094.3489	1280.075
3096.72061	1277.875
3099.09087	1288.375
3101.4597	1277.875
3103.82709	1285.775
3106.19305	1289.575
3108.55757	1296.575
3110.92066	1295.775
3113.28232	1301.975
3115.64255	1303.175
3118.00134	1308.675
3120.35871	1299.275
3122.71466	1303.875
3125.06917	1310.175
3127.42226	1310.875
3129.77393	1317.075
3132.12417	1326.575
3134.47299	1326.275
3136.82039	1336.075
3139.16636	1345.975
3141.51092	1345.175
3143.85406	1352.175
3146.19579	1355.875
3148.53609	1373.275
3150.87499	1383.375
3153.21246	1382.975
3155.54853	1387.275
3157.88318	1398.875
3160.21642	1412.675
3162.54826	1410.875
3164.87868	1408.075
3167.2077	1422.875
3169.5353	1429.375
3171.86151	1422.075
3174.18631	1439.575
3176.5097	1438.775
3178.83169	1450.875
3181.15228	1441.875
3183.47147	1451.475
3185.78926	1455.175
3188.10565	1460.875
3190.42065	1472.875
3192.73424	1460.175
3195.04645	1470.875
3197.35725	1473.675
3199.66667	1479.975
3201.97469	1482.875
3204.28132	1495.875
3206.58656	1497.275
3208.8904	1504.375
3211.19287	1500.975
3213.49394	1518.575
3215.79363	1513.075
3218.09193	1521.475
3220.38884	1528.275
3222.68438	1527.675
3224.97853	1514.575
3227.2713	1523.475
3229.56269	1532.575
3231.8527	1533.875
3234.14133	1535.475
3236.42858	1529.875
