Data from AgNPs_FTO_APTES_UA_1uM_CRN_100uM_R6G_10uM_NaF_0.1M_Addition_RamanShift__9__16-31-09-774.txt Node

Date: Thu Jan 27 16:31:09 GMT 2022
User: TCL
Spectrometer: QEP01345
Trigger mode: 4
Integration Time (sec): 7.000000E0
Scans to average: 10
Electric dark correction enabled: true
Nonlinearity correction enabled: false
Boxcar width: 0
XAxis mode: Raman Shifts
Number of Pixels in Spectrum: 1044
>>>>>Begin Spectral Data<<<<<
46.04893	0.9125
50.45542	0.0125
54.85868	-1.1875
59.25871	-0.5875
63.6555	43.0125
68.04907	45.3125
72.43941	46.5125
76.82654	54.9125
81.21044	52.4125
85.59113	50.2125
89.96862	58.7125
94.34289	57.6125
98.71396	62.8125
103.08183	60.5125
107.4465	65.3125
111.80798	63.9125
116.16626	66.4125
120.52136	73.2125
124.87327	71.4125
129.222	70.5125
133.56755	72.9125
137.90993	81.7125
142.24913	85.7125
146.58517	95.2125
150.91804	106.8125
155.24774	126.3125
159.57429	151.1125
163.89768	188.8125
168.21792	249.0125
172.53501	332.8125
176.84895	460.7125
181.15975	639.2125
185.46741	888.0125
189.77193	1228.2125
194.07331	1648.4125
198.37157	2124.0125
202.6667	2629.0125
206.9587	3125.6125
211.24758	3606.6125
215.53334	4075.4125
219.81599	4594.6125
224.09553	5151.6125
228.37195	5746.9125
232.64527	6420.3125
236.91549	7122.6125
241.18261	7833.3125
245.44663	8532.7125
249.70755	9148.5125
253.96539	9732.8125
258.22014	10209.3125
262.4718	10602.4125
266.72039	10841.0125
270.96589	10993.6125
275.20832	11048.8125
279.44768	11012.1125
283.68397	10909.4125
287.91719	10836.4125
292.14735	10791.2125
296.37445	10774.4125
300.59849	10791.4125
304.81948	10839.9125
309.03742	10804.7125
313.25231	10680.8125
317.46415	10509.4125
321.67296	10303.6125
325.87872	10072.0125
330.08145	9984.3125
334.28114	9977.8125
338.47781	10042.1125
342.67145	10132.2125
346.86207	10257.8125
351.04966	10415.9125
355.23424	10551.3125
359.4158	10681.7125
363.59435	10807.4125
367.76989	10873.5125
371.94243	10937.3125
376.11196	10987.1125
380.27849	11029.6125
384.44203	11061.5125
388.60257	11143.9125
392.76012	11243.8125
396.91468	11399.1125
401.06626	11562.0125
405.21485	11678.0125
409.36047	11675.1125
413.50311	11533.6125
417.64277	11462.8125
421.77947	11455.3125
425.9132	11509.6125
430.04396	11547.5125
434.17176	11620.7125
438.2966	11664.0125
442.41849	11799.8125
446.53742	11997.6125
450.6534	12258.5125
454.76644	12423.7125
458.87653	12499.8125
462.98368	12525.9125
467.08789	12497.9125
471.18916	12423.1125
475.2875	12349.7125
479.38291	12319.6125
483.4754	12282.2125
487.56496	12139.0125
491.6516	11964.1125
495.73531	11815.0125
499.81612	11725.0125
503.89401	11746.6125
507.96899	11800.3125
512.04106	11830.0125
516.11023	11742.6125
520.1765	11658.7125
524.23987	11519.3125
528.30034	11425.9125
532.35792	11318.1125
536.41261	11260.1125
540.46441	11190.0125
544.51333	11177.8125
548.55936	11277.6125
552.60252	11493.2125
556.64279	11721.4125
560.6802	11866.5125
564.71473	11979.8125
568.7464	12134.7125
572.7752	12441.8125
576.80114	12764.1125
580.82422	13074.4125
584.84444	13357.4125
588.86181	13689.6125
592.87633	13933.2125
596.888	13779.4125
600.89682	13364.8125
604.9028	13271.5125
608.90594	13709.0125
612.90624	14311.1125
616.90371	13653.7125
620.89834	12106.3125
624.89015	11393.2125
628.87913	11322.9125
632.86528	11396.1125
636.84862	11445.1125
640.82913	11337.9125
644.80683	11171.2125
648.78172	11016.0125
652.75379	11011.3125
656.72306	11067.2125
660.68952	11169.3125
664.65319	11129.2125
668.61405	11010.1125
672.57211	10978.0125
676.52738	11009.8125
680.47986	11025.9125
684.42955	11030.4125
688.37646	10974.5125
692.32058	10960.6125
696.26192	11057.2125
700.20048	11168.1125
704.13626	11247.0125
708.06928	11252.4125
711.99952	11254.2125
715.927	11238.8125
719.85171	11246.0125
723.77365	11204.0125
727.69284	11105.3125
731.60928	10972.8125
735.52295	10921.4125
739.43388	10900.4125
743.34206	10913.6125
747.24749	10958.7125
751.15017	11077.1125
755.05012	11234.1125
758.94733	11472.8125
762.8418	11904.9125
766.73354	12483.1125
770.62254	13001.8125
774.50882	13092.4125
778.39237	12656.8125
782.27321	12004.9125
786.15132	11472.0125
790.02671	11099.1125
793.89938	10938.8125
797.76935	10885.2125
801.6366	10842.4125
805.50115	10791.1125
809.36299	10769.7125
813.22213	10716.7125
817.07857	10706.6125
820.93231	10669.4125
824.78336	10642.7125
828.63172	10581.7125
832.47738	10546.7125
836.32036	10545.8125
840.16066	10541.5125
843.99827	10539.1125
847.8332	10550.1125
851.66546	10537.6125
855.49504	10543.0125
859.32195	10528.4125
863.1462	10534.6125
866.96777	10486.5125
870.78668	10473.4125
874.60293	10492.3125
878.41652	10478.1125
882.22745	10496.7125
886.03573	10540.2125
889.84136	10538.2125
893.64433	10517.5125
897.44466	10486.1125
901.24235	10457.8125
905.0374	10449.9125
908.8298	10409.9125
912.61957	10433.6125
916.40671	10522.0125
920.19121	10647.7125
923.97308	10697.6125
927.75233	10667.7125
931.52895	10561.9125
935.30295	10439.0125
939.07433	10290.6125
942.84309	10170.5125
946.60924	10126.4125
950.37278	10101.2125
954.13371	10085.0125
957.89203	10054.9125
961.64774	10075.8125
965.40086	10082.9125
969.15137	10029.4125
972.89929	9974.6125
976.64461	9910.9125
980.38733	9886.0125
984.12747	9892.3125
987.86502	9930.5125
991.59999	9930.2125
995.33237	9985.8125
999.06217	10097.9125
1002.78939	10228.6125
1006.51404	10336.4125
1010.23611	10438.6125
1013.95561	10531.9125
1017.67255	10556.3125
1021.38692	10521.0125
1025.09872	10410.4125
1028.80796	10323.9125
1032.51465	10313.1125
1036.21877	10303.3125
1039.92035	10329.0125
1043.61937	10383.6125
1047.31584	10386.7125
1051.00976	10429.7125
1054.70114	10454.7125
1058.38998	10514.2125
1062.07627	10630.1125
1065.76003	10738.4125
1069.44126	10878.1125
1073.11995	11020.1125
1076.79611	11109.4125
1080.46974	11139.9125
1084.14085	11155.4125
1087.80943	11182.0125
1091.47549	11240.2125
1095.13903	11304.0125
1098.80005	11224.3125
1102.45857	11028.9125
1106.11456	10814.2125
1109.76805	10716.5125
1113.41903	10688.1125
1117.06751	10740.0125
1120.71348	10788.1125
1124.35696	10879.3125
1127.99793	11010.0125
1131.63641	11091.1125
1135.2724	11071.6125
1138.90589	11019.5125
1142.5369	11024.3125
1146.16542	11100.3125
1149.79145	11190.3125
1153.415	11261.9125
1157.03607	11430.9125
1160.65467	11655.0125
1164.27079	12081.5125
1167.88443	12572.6125
1171.49561	13119.6125
1175.10432	13706.3125
1178.71056	14466.6125
1182.31434	15158.1125
1185.91565	15565.2125
1189.51451	15557.6125
1193.11091	15301.6125
1196.70485	14968.3125
1200.29634	14544.3125
1203.88538	14235.3125
1207.47197	14097.5125
1211.05612	13937.8125
1214.63782	13725.8125
1218.21708	13379.1125
1221.79391	12947.5125
1225.36829	12657.8125
1228.94024	12488.4125
1232.50976	12375.3125
1236.07685	12273.5125
1239.6415	12236.5125
1243.20374	12243.7125
1246.76355	12312.5125
1250.32093	12421.2125
1253.8759	12600.5125
1257.42845	12842.9125
1260.97859	13150.9125
1264.52631	13394.8125
1268.07163	13678.4125
1271.61453	13946.7125
1275.15503	14234.9125
1278.69312	14573.8125
1282.22882	14976.2125
1285.76211	15407.2125
1289.29301	15953.0125
1292.82151	16615.1125
1296.34761	17420.4125
1299.87133	18298.8125
1303.39266	19084.1125
1306.9116	19745.6125
1310.42815	20159.5125
1313.94233	20426.5125
1317.45412	20330.1125
1320.96354	20153.0125
1324.47058	20018.8125
1327.97525	19944.4125
1331.47754	19909.0125
1334.97747	19839.6125
1338.47502	19763.6125
1341.97022	19638.0125
1345.46305	19460.7125
1348.95352	19298.3125
1352.44163	19157.9125
1355.92738	19263.1125
1359.41078	19619.9125
1362.89183	19917.7125
1366.37053	19631.7125
1369.84688	18478.3125
1373.32088	16891.0125
1376.79254	15811.9125
1380.26186	15381.9125
1383.72883	15409.2125
1387.19347	15500.0125
1390.65578	15398.5125
1394.11575	15324.9125
1397.57339	15364.1125
1401.0287	15531.4125
1404.48168	15643.3125
1407.93234	15563.2125
1411.38068	15197.1125
1414.82669	14697.7125
1418.27039	14108.7125
1421.71177	13554.6125
1425.15083	13147.1125
1428.58758	12932.4125
1432.02203	12986.9125
1435.45416	13230.5125
1438.88399	13585.0125
1442.31151	13859.0125
1445.73673	14029.0125
1449.15965	14196.2125
1452.58027	14293.1125
1455.9986	14340.1125
1459.41463	14402.5125
1462.82837	14527.1125
1466.23982	14712.7125
1469.64898	14864.2125
1473.05586	14991.3125
1476.46045	15009.1125
1479.86276	14925.9125
1483.26279	14815.4125
1486.66054	14757.1125
1490.05602	14798.6125
1493.44922	14935.0125
1496.84016	15164.5125
1500.22882	15443.4125
1503.61521	15888.8125
1506.99934	16372.5125
1510.38121	16739.0125
1513.76081	16876.0125
1517.13816	16670.1125
1520.51324	16330.4125
1523.88607	16076.7125
1527.25665	15988.1125
1530.62498	15960.0125
1533.99105	15888.9125
1537.35488	15668.2125
1540.71647	15303.6125
1544.07581	14877.3125
1547.4329	14460.8125
1550.78776	14113.0125
1554.14038	13902.4125
1557.49077	13777.3125
1560.83892	13704.5125
1564.18484	13703.7125
1567.52853	13744.2125
1570.86999	13878.7125
1574.20922	14169.6125
1577.54624	14435.4125
1580.88103	14535.7125
1584.2136	14645.3125
1587.54395	14922.7125
1590.87208	15361.1125
1594.19801	15947.2125
1597.52172	16492.5125
1600.84321	16552.7125
1604.16251	15932.3125
1607.47959	14947.8125
1610.79447	13943.2125
1614.10715	12979.2125
1617.41763	12204.9125
1620.7259	11647.9125
1624.03199	11319.9125
1627.33587	11265.7125
1630.63757	11506.8125
1633.93707	12033.0125
1637.23439	12981.1125
1640.52951	14351.0125
1643.82246	16037.6125
1647.11321	17452.6125
1650.40179	17847.4125
1653.68819	16875.9125
1656.97241	15011.7125
1660.25446	13107.5125
1663.53433	11636.6125
1666.81203	10680.8125
1670.08756	10053.7125
1673.36092	9675.5125
1676.63211	9456.1125
1679.90115	9252.8125
1683.16801	9113.5125
1686.43272	9010.7125
1689.69527	8927.8125
1692.95567	8832.7125
1696.2139	8787.1125
1699.46999	8691.3125
1702.72392	8679.4125
1705.97571	8670.9125
1709.22535	8673.9125
1712.47284	8690.1125
1715.71819	8671.9125
1718.96139	8681.7125
1722.20246	8679.3125
1725.44139	8614.5125
1728.67818	8597.9125
1731.91284	8544.8125
1735.14537	8485.3125
1738.37576	8483.9125
1741.60403	8428.8125
1744.83017	8388.5125
1748.05418	8399.5125
1751.27607	8352.2125
1754.49584	8327.1125
1757.71349	8304.5125
1760.92903	8258.8125
1764.14244	8267.5125
1767.35375	8260.8125
1770.56294	8245.2125
1773.77002	8235.4125
1776.97499	8214.7125
1780.17785	8233.4125
1783.37861	8231.3125
1786.57727	8216.1125
1789.77382	8205.8125
1792.96828	8187.9125
1796.16064	8171.2125
1799.3509	8140.7125
1802.53907	8145.9125
1805.72514	8110.6125
1808.90913	8098.6125
1812.09102	8085.7125
1815.27083	8069.5125
1818.44856	8043.1125
1821.6242	8053.8125
1824.79776	8014.8125
1827.96924	7996.1125
1831.13864	8006.5125
1834.30597	8007.7125
1837.47122	8002.0125
1840.6344	7991.5125
1843.7955	7967.4125
1846.95454	7981.6125
1850.11151	7974.3125
1853.26642	7967.6125
1856.41926	7961.6125
1859.57004	7949.8125
1862.71876	7943.0125
1865.86542	7931.3125
1869.01003	7927.8125
1872.15258	7909.1125
1875.29308	7891.4125
1878.43152	7899.2125
1881.56792	7884.2125
1884.70227	7869.7125
1887.83457	7844.4125
1890.96482	7845.3125
1894.09304	7818.4125
1897.21921	7819.5125
1900.34335	7780.5125
1903.46544	7785.8125
1906.58551	7772.3125
1909.70353	7753.6125
1912.81953	7747.5125
1915.93349	7738.1125
1919.04543	7733.7125
1922.15534	7706.7125
1925.26322	7695.5125
1928.36908	7663.8125
1931.47292	7665.7125
1934.57473	7627.2125
1937.67453	7615.0125
1940.77232	7598.3125
1943.86808	7584.3125
1946.96184	7553.8125
1950.05358	7518.1125
1953.14331	7504.7125
1956.23103	7498.2125
1959.31675	7492.8125
1962.40046	7448.5125
1965.48217	7438.9125
1968.56188	7400.7125
1971.63959	7367.9125
1974.7153	7360.9125
1977.78901	7346.5125
1980.86073	7306.5125
1983.93046	7294.2125
1986.99819	7256.1125
1990.06394	7242.0125
1993.1277	7212.9125
1996.18947	7173.7125
1999.24925	7194.5125
2002.30706	7149.0125
2005.36288	7125.7125
2008.41672	7124.0125
2011.46859	7087.8125
2014.51848	7086.5125
2017.56639	7042.5125
2020.61233	7024.3125
2023.6563	7027.4125
2026.6983	6987.7125
2029.73833	6973.1125
2032.7764	6969.4125
2035.8125	6957.1125
2038.84664	6920.5125
2041.87881	6907.6125
2044.90903	6910.5125
2047.93729	6883.2125
2050.96359	6888.3125
2053.98794	6873.3125
2057.01034	6870.0125
2060.03078	6856.0125
2063.04927	6848.9125
2066.06582	6856.0125
2069.08042	6837.7125
2072.09307	6832.5125
2075.10378	6837.7125
2078.11255	6830.5125
2081.11938	6838.8125
2084.12426	6838.2125
2087.12722	6799.5125
2090.12824	6801.5125
2093.12732	6806.6125
2096.12447	6806.5125
2099.11969	6799.8125
2102.11299	6804.1125
2105.10435	6795.8125
2108.09379	6816.4125
2111.08131	6810.6125
2114.0669	6797.9125
2117.05057	6831.5125
2120.03233	6830.1125
2123.01216	6802.9125
2125.99008	6837.8125
2128.96609	6822.0125
2131.94018	6840.9125
2134.91236	6828.1125
2137.88263	6856.3125
2140.851	6832.9125
2143.81746	6829.6125
2146.78201	6846.8125
2149.74466	6834.0125
2152.7054	6829.6125
2155.66425	6820.9125
2158.6212	6832.5125
2161.57625	6799.1125
2164.52941	6813.2125
2167.48067	6817.5125
2170.43004	6819.8125
2173.37752	6821.4125
2176.32311	6797.3125
2179.26681	6802.1125
2182.20863	6799.3125
2185.14856	6784.4125
2188.08661	6804.6125
2191.02278	6821.0125
2193.95707	6786.9125
2196.88948	6795.7125
2199.82001	6765.6125
2202.74867	6755.6125
2205.67545	6776.1125
2208.60037	6757.6125
2211.52341	6734.9125
2214.44458	6689.7125
2217.36388	6687.6125
2220.28132	6714.1125
2223.1969	6699.7125
2226.11061	6684.0125
2229.02246	6651.8125
2231.93245	6642.1125
2234.84058	6645.5125
2237.74686	6620.9125
2240.65128	6631.2125
2243.55385	6608.0125
2246.45456	6600.2125
2249.35343	6580.5125
2252.25044	6567.6125
2255.14561	6578.7125
2258.03893	6556.7125
2260.93041	6520.1125
2263.82004	6515.6125
2266.70783	6507.1125
2269.59378	6476.6125
2272.4779	6465.9125
2275.36017	6464.6125
2278.24061	6431.4125
2281.11922	6435.9125
2283.996	6434.3125
2286.87094	6416.2125
2289.74405	6384.0125
2292.61534	6373.2125
2295.4848	6375.1125
2298.35243	6395.0125
2301.21824	6374.9125
2304.08223	6378.4125
2306.94439	6345.6125
2309.80474	6384.7125
2312.66327	6337.1125
2315.51999	6341.9125
2318.37489	6329.8125
2321.22797	6335.5125
2324.07925	6322.0125
2326.92871	6303.1125
2329.77637	6301.5125
2332.62222	6273.1125
2335.46626	6260.2125
2338.3085	6262.8125
2341.14893	6242.6125
2343.98756	6264.1125
2346.8244	6249.4125
2349.65943	6252.2125
2352.49267	6240.4125
2355.32411	6243.3125
2358.15376	6237.8125
2360.98161	6231.1125
2363.80768	6222.7125
2366.63195	6232.6125
2369.45444	6238.0125
2372.27514	6222.5125
2375.09405	6220.5125
2377.91118	6210.1125
2380.72652	6189.3125
2383.54009	6161.6125
2386.35187	6163.0125
2389.16188	6143.5125
2391.97011	6121.6125
2394.77657	6103.5125
2397.58125	6095.0125
2400.38416	6096.5125
2403.18529	6071.0125
2405.98466	6071.1125
2408.78226	6065.0125
2411.57809	6048.0125
2414.37216	6065.9125
2417.16446	6054.7125
2419.955	6027.7125
2422.74378	6038.4125
2425.5308	6011.4125
2428.31606	6017.5125
2431.09956	6025.3125
2433.88131	6004.1125
2436.6613	6024.4125
2439.43954	6013.6125
2442.21603	5996.9125
2444.99077	5999.4125
2447.76377	5999.8125
2450.53501	5994.3125
2453.30451	5976.9125
2456.07226	5963.4125
2458.83827	5972.0125
2461.60254	5956.4125
2464.36507	5964.1125
2467.12586	5947.7125
2469.88492	5937.6125
2472.64224	5932.7125
2475.39782	5934.6125
2478.15167	5903.8125
2480.90379	5937.5125
2483.65417	5941.8125
2486.40283	5939.1125
2489.14976	5930.2125
2491.89497	5905.3125
2494.63845	5920.8125
2497.3802	5906.9125
2500.12024	5903.1125
2502.85855	5897.1125
2505.59514	5892.8125
2508.33002	5893.3125
2511.06318	5890.5125
2513.79462	5889.1125
2516.52435	5877.0125
2519.25237	5870.1125
2521.97867	5865.8125
2524.70327	5862.2125
2527.42616	5843.0125
2530.14734	5844.3125
2532.86681	5846.8125
2535.58458	5831.7125
2538.30065	5815.5125
2541.01501	5837.6125
2543.72768	5818.8125
2546.43864	5789.9125
2549.14791	5794.9125
2551.85548	5779.5125
2554.56136	5756.1125
2557.26554	5777.0125
2559.96803	5754.9125
2562.66883	5764.1125
2565.36794	5741.0125
2568.06536	5751.5125
2570.7611	5732.7125
2573.45514	5714.0125
2576.14751	5706.6125
2578.83819	5707.5125
2581.52719	5694.9125
2584.21451	5675.1125
2586.90015	5679.5125
2589.58411	5664.6125
2592.2664	5666.6125
2594.94701	5653.6125
2597.62594	5639.9125
2600.30321	5627.6125
2602.9788	5643.6125
2605.65273	5622.1125
2608.32498	5630.2125
2610.99557	5620.7125
2613.66449	5614.1125
2616.33175	5622.1125
2618.99734	5608.1125
2621.66128	5588.5125
2624.32355	5596.4125
2626.98416	5601.1125
2629.64311	5581.5125
2632.30041	5583.4125
2634.95605	5577.6125
2637.61004	5561.7125
2640.26238	5557.4125
2642.91306	5561.4125
2645.56209	5552.2125
2648.20948	5544.0125
2650.85521	5525.0125
2653.4993	5549.0125
2656.14175	5537.8125
2658.78255	5553.6125
2661.42171	5551.4125
2664.05923	5539.7125
2666.6951	5561.0125
2669.32934	5557.3125
2671.96194	5544.0125
2674.59291	5565.2125
2677.22224	5533.5125
2679.84993	5549.9125
2682.476	5518.8125
2685.10043	5544.1125
2687.72324	5538.3125
2690.34441	5531.6125
2692.96396	5549.0125
2695.58188	5533.9125
2698.19818	5534.1125
2700.81285	5521.8125
2703.4259	5530.8125
2706.03733	5501.7125
2708.64714	5496.2125
2711.25533	5527.2125
2713.86191	5520.7125
2716.46687	5529.5125
2719.07021	5533.5125
2721.67194	5540.8125
2724.27206	5550.4125
2726.87057	5553.4125
2729.46747	5532.7125
2732.06276	5538.6125
2734.65644	5544.4125
2737.24852	5543.1125
2739.83899	5524.0125
2742.42786	5536.8125
2745.01513	5513.7125
2747.60079	5520.2125
2750.18486	5507.3125
2752.76733	5496.2125
2755.3482	5497.6125
2757.92747	5500.3125
2760.50515	5495.7125
2763.08123	5487.5125
2765.65573	5485.5125
2768.22863	5476.9125
2770.79994	5469.1125
2773.36967	5474.3125
2775.9378	5463.2125
2778.50435	5446.0125
2781.06932	5444.6125
2783.6327	5449.1125
2786.1945	5437.2125
2788.75471	5442.6125
2791.31335	5417.9125
2793.87041	5439.2125
2796.42589	5400.8125
2798.97979	5404.9125
2801.53212	5397.1125
2804.08288	5372.9125
2806.63206	5358.2125
2809.17967	5376.6125
2811.72571	5352.7125
2814.27018	5331.9125
2816.81308	5334.6125
2819.35442	5320.9125
2821.89419	5315.8125
2824.43239	5319.1125
2826.96904	5302.2125
2829.50412	5308.8125
2832.03763	5297.1125
2834.56959	5291.8125
2837.1	5277.6125
2839.62884	5291.2125
2842.15613	5284.1125
2844.68186	5312.9125
2847.20604	5312.5125
2849.72867	5309.8125
2852.24974	5300.1125
2854.76927	5300.3125
2857.28724	5305.7125
2859.80367	5295.1125
2862.31855	5277.8125
2864.83189	5286.1125
2867.34368	5260.5125
2869.85393	5249.3125
2872.36264	5248.2125
2874.8698	5237.5125
2877.37543	5238.1125
2879.87952	5232.7125
2882.38207	5235.9125
2884.88308	5228.0125
2887.38256	5223.2125
2889.88051	5225.5125
2892.37692	5232.3125
2894.8718	5244.1125
2897.36515	5240.1125
2899.85698	5237.2125
2902.34727	5263.5125
2904.83604	5233.7125
2907.32328	5252.3125
2909.809	5244.6125
2912.29319	5243.3125
2914.77587	5259.0125
2917.25702	5256.3125
2919.73665	5240.5125
2922.21476	5251.0125
2924.69136	5242.2125
2927.16644	5238.3125
2929.64	5234.5125
2932.11205	5230.1125
2934.58258	5212.3125
2937.05161	5215.0125
2939.51912	5222.2125
2941.98513	5211.7125
2944.44962	5200.5125
2946.91261	5172.3125
2949.37409	5171.8125
2951.83407	5183.0125
2954.29254	5156.0125
2956.74951	5157.7125
2959.20498	5155.0125
2961.65895	5146.6125
2964.11142	5146.1125
2966.56239	5137.1125
2969.01186	5129.8125
2971.45984	5131.4125
2973.90632	5126.8125
2976.35131	5099.5125
2978.7948	5113.1125
2981.23681	5101.2125
2983.67732	5101.0125
2986.11635	5072.9125
2988.55388	5057.3125
2990.98993	5056.8125
2993.4245	5037.7125
2995.85758	5040.0125
2998.28917	5019.8125
3000.71928	5021.7125
3003.14791	4989.5125
3005.57506	4994.1125
3008.00073	4984.8125
3010.42493	4973.3125
3012.84764	4971.9125
3015.26888	4968.3125
3017.68865	4970.1125
3020.10694	4962.3125
3022.52376	4936.9125
3024.9391	4936.7125
3027.35298	4921.4125
3029.76539	4909.9125
3032.17632	4912.1125
3034.5858	4914.9125
3036.9938	4910.5125
3039.40034	4914.8125
3041.80542	4908.5125
3044.20903	4895.5125
3046.61118	4883.0125
3049.01187	4888.1125
3051.4111	4888.3125
3053.80888	4871.3125
3056.20519	4875.3125
3058.60005	4857.9125
3060.99345	4844.5125
3063.3854	4836.5125
3065.7759	4809.7125
3068.16494	4817.0125
3070.55254	4812.6125
3072.93868	4781.2125
3075.32338	4776.9125
3077.70662	4780.8125
3080.08842	4765.8125
3082.46878	4761.9125
