Data from AgNPs_FTO_APTES_UA_1uM_CRN_500uM_R6G_10uM_NaF_0.1M_Addition_RamanShift__13__17-59-49-875.txt Node

Date: Thu Jan 27 17:59:49 GMT 2022
User: TCL
Spectrometer: QEP01345
Trigger mode: 4
Integration Time (sec): 7.000000E0
Scans to average: 10
Electric dark correction enabled: true
Nonlinearity correction enabled: false
Boxcar width: 0
XAxis mode: Raman Shifts
Number of Pixels in Spectrum: 1044
>>>>>Begin Spectral Data<<<<<
46.04893	0.7
50.45542	0.9
54.85868	-0.9
59.25871	-0.6
63.6555	37.1
68.04907	42.7
72.43941	44.5
76.82654	50.6
81.21044	49.9
85.59113	50.4
89.96862	51.1
94.34289	57.5
98.71396	61.2
103.08183	56.9
107.4465	64.3
111.80798	64.1
116.16626	60.4
120.52136	67.4
124.87327	66.9
129.222	67.8
133.56755	70
137.90993	71.3
142.24913	80.1
146.58517	85.6
150.91804	95.8
155.24774	108.9
159.57429	131
163.89768	160.9
168.21792	211.2
172.53501	274.7
176.84895	372.6
181.15975	526.9
185.46741	735.3
189.77193	1006.8
194.07331	1352.5
198.37157	1741.4
202.6667	2158.5
206.9587	2586.8
211.24758	2988.2
215.53334	3387.1
219.81599	3806.1
224.09553	4261.2
228.37195	4768
232.64527	5313
236.91549	5893.9
241.18261	6511.1
245.44663	7098.4
249.70755	7627.2
253.96539	8089.6
258.22014	8463.5
262.4718	8788.6
266.72039	8984.4
270.96589	9106.5
275.20832	9086.7
279.44768	9027.4
283.68397	8916.8
287.91719	8804.9
292.14735	8712.6
296.37445	8673.8
300.59849	8621
304.81948	8598.5
309.03742	8584
313.25231	8513.6
317.46415	8410.5
321.67296	8270
325.87872	8122.2
330.08145	8061.9
334.28114	8078.1
338.47781	8141.5
342.67145	8211.1
346.86207	8322.4
351.04966	8448.6
355.23424	8596.4
359.4158	8706.7
363.59435	8799.7
367.76989	8897.5
371.94243	8942.7
376.11196	8989.6
380.27849	9040.4
384.44203	9071
388.60257	9116.6
392.76012	9185.9
396.91468	9278.1
401.06626	9376.3
405.21485	9485.1
409.36047	9466.9
413.50311	9371.3
417.64277	9308.7
421.77947	9317.8
425.9132	9383.8
430.04396	9413.5
434.17176	9482.2
438.2966	9495.7
442.41849	9551.7
446.53742	9664
450.6534	9760.3
454.76644	9845.6
458.87653	9885.2
462.98368	9883.9
467.08789	9865.4
471.18916	9789.7
475.2875	9710
479.38291	9648.9
483.4754	9570.3
487.56496	9531.7
491.6516	9505.5
495.73531	9480.9
499.81612	9475.9
503.89401	9519.4
507.96899	9596.2
512.04106	9596.4
516.11023	9591.9
520.1765	9548
524.23987	9455.8
528.30034	9402.8
532.35792	9340.7
536.41261	9322.6
540.46441	9236
544.51333	9197.6
548.55936	9269.2
552.60252	9391
556.64279	9508.1
560.6802	9568.1
564.71473	9590.6
568.7464	9632
572.7752	9759.6
576.80114	9919.3
580.82422	10152.7
584.84444	10440.3
588.86181	10774.8
592.87633	11064.4
596.888	11008.6
600.89682	10705.8
604.9028	10569.1
608.90594	10963.7
612.90624	11649.8
616.90371	11273.6
620.89834	10046.7
624.89015	9465.3
628.87913	9370.5
632.86528	9456
636.84862	9489.3
640.82913	9439.8
644.80683	9335.3
648.78172	9226.4
652.75379	9230.1
656.72306	9284.1
660.68952	9374
664.65319	9372.4
668.61405	9252.3
672.57211	9250.6
676.52738	9295.7
680.47986	9327.9
684.42955	9331
688.37646	9289.4
692.32058	9259.7
696.26192	9292.9
700.20048	9325.2
704.13626	9394.2
708.06928	9376.6
711.99952	9350.9
715.927	9333.2
719.85171	9330.2
723.77365	9312.6
727.69284	9231.7
731.60928	9191.1
735.52295	9158
739.43388	9139.5
743.34206	9147.9
747.24749	9186.2
751.15017	9211.9
755.05012	9312.9
758.94733	9459.5
762.8418	9721.3
766.73354	10153.2
770.62254	10659.4
774.50882	10850.2
778.39237	10625.9
782.27321	10110.3
786.15132	9654
790.02671	9356
793.89938	9200.5
797.76935	9148
801.6366	9110.8
805.50115	9060.4
809.36299	9012.8
813.22213	8976.2
817.07857	8954.5
820.93231	8956.7
824.78336	8949
828.63172	8916.5
832.47738	8907.4
836.32036	8912.8
840.16066	8898.6
843.99827	8898.7
847.8332	8879.5
851.66546	8890.6
855.49504	8870.7
859.32195	8879.7
863.1462	8881.7
866.96777	8874
870.78668	8880
874.60293	8885.4
878.41652	8902.8
882.22745	8872.6
886.03573	8909
889.84136	8948.9
893.64433	8933.8
897.44466	8911
901.24235	8870.2
905.0374	8854
908.8298	8826.2
912.61957	8826.1
916.40671	8859.9
920.19121	8920.7
923.97308	8968.9
927.75233	8976.3
931.52895	8984.4
935.30295	8877.1
939.07433	8775.1
942.84309	8653.4
946.60924	8609.1
950.37278	8549.5
954.13371	8523.2
957.89203	8516.6
961.64774	8493.8
965.40086	8483
969.15137	8465.7
972.89929	8440
976.64461	8403.1
980.38733	8395.9
984.12747	8349.6
987.86502	8367.4
991.59999	8386.1
995.33237	8422.9
999.06217	8465.4
1002.78939	8528
1006.51404	8602.1
1010.23611	8696
1013.95561	8768.9
1017.67255	8795.2
1021.38692	8738.8
1025.09872	8727.2
1028.80796	8630.7
1032.51465	8564.5
1036.21877	8560.1
1039.92035	8593
1043.61937	8621.5
1047.31584	8668.8
1051.00976	8701.7
1054.70114	8728.9
1058.38998	8734.3
1062.07627	8791.8
1065.76003	8874.9
1069.44126	8930.4
1073.11995	9040.4
1076.79611	9141.8
1080.46974	9199.1
1084.14085	9151.6
1087.80943	9167.7
1091.47549	9194.8
1095.13903	9212.9
1098.80005	9171.5
1102.45857	9046.5
1106.11456	8912.9
1109.76805	8837.8
1113.41903	8792.7
1117.06751	8828.6
1120.71348	8899.1
1124.35696	9018.6
1127.99793	9115.1
1131.63641	9229.5
1135.2724	9118.9
1138.90589	9013.2
1142.5369	8955.6
1146.16542	8961.9
1149.79145	8953.4
1153.415	8975
1157.03607	8987.1
1160.65467	9125.3
1164.27079	9327.2
1167.88443	9628.1
1171.49561	9941.2
1175.10432	10349.6
1178.71056	10862.7
1182.31434	11383
1185.91565	11660
1189.51451	11669.4
1193.11091	11534
1196.70485	11248.6
1200.29634	10897.2
1203.88538	10614.2
1207.47197	10408.7
1211.05612	10245.5
1214.63782	10067.8
1218.21708	9889.5
1221.79391	9732.8
1225.36829	9592.6
1228.94024	9535
1232.50976	9455.6
1236.07685	9438.5
1239.6415	9394.4
1243.20374	9371.8
1246.76355	9399.2
1250.32093	9466.9
1253.8759	9523.5
1257.42845	9660.3
1260.97859	9840.6
1264.52631	9994.2
1268.07163	10169.7
1271.61453	10332.1
1275.15503	10455.4
1278.69312	10655.7
1282.22882	10825
1285.76211	11037
1289.29301	11288
1292.82151	11567.2
1296.34761	11940.6
1299.87133	12433
1303.39266	12928.7
1306.9116	13394.5
1310.42815	13826.9
1313.94233	14049.4
1317.45412	13917.5
1320.96354	13636.6
1324.47058	13317.8
1327.97525	13130.1
1331.47754	13013.2
1334.97747	12956.1
1338.47502	12959.4
1341.97022	12983.7
1345.46305	13032.4
1348.95352	13135.2
1352.44163	13354.6
1355.92738	13677.7
1359.41078	14179
1362.89183	14592.7
1366.37053	14527.8
1369.84688	13613.9
1373.32088	12405.7
1376.79254	11417.5
1380.26186	10927.2
1383.72883	10767.3
1387.19347	10599.2
1390.65578	10421.4
1394.11575	10285.7
1397.57339	10308.9
1401.0287	10388.2
1404.48168	10488.8
1407.93234	10510.8
1411.38068	10422.9
1414.82669	10227
1418.27039	9993.1
1421.71177	9763.6
1425.15083	9555.8
1428.58758	9438.7
1432.02203	9454.5
1435.45416	9538.2
1438.88399	9668.3
1442.31151	9710.6
1445.73673	9757.1
1449.15965	9791.3
1452.58027	9810.4
1455.9986	9862.9
1459.41463	9906.1
1462.82837	9987.1
1466.23982	10138.9
1469.64898	10302.6
1473.05586	10432.7
1476.46045	10495.8
1479.86276	10502.9
1483.26279	10525.1
1486.66054	10591.6
1490.05602	10712
1493.44922	10904.3
1496.84016	11157.3
1500.22882	11563
1503.61521	12026.1
1506.99934	12540.9
1510.38121	12896.5
1513.76081	12927.7
1517.13816	12580.8
1520.51324	12060
1523.88607	11633.4
1527.25665	11330.9
1530.62498	11171.7
1533.99105	11059.5
1537.35488	10897.9
1540.71647	10716.7
1544.07581	10538.3
1547.4329	10350.2
1550.78776	10171.3
1554.14038	10058.5
1557.49077	9962.3
1560.83892	9920.7
1564.18484	9922.4
1567.52853	9992.6
1570.86999	10119.2
1574.20922	10235.2
1577.54624	10305.7
1580.88103	10256.2
1584.2136	10088.5
1587.54395	10080.5
1590.87208	10293.8
1594.19801	10649.7
1597.52172	11116.5
1600.84321	11345.4
1604.16251	11151.6
1607.47959	10666.9
1610.79447	10088
1614.10715	9514.7
1617.41763	9062.4
1620.7259	8682
1624.03199	8463.7
1627.33587	8395.6
1630.63757	8448.5
1633.93707	8650.6
1637.23439	9066.4
1640.52951	9762.9
1643.82246	10731.6
1647.11321	11730.2
1650.40179	12270.7
1653.68819	11898.4
1656.97241	10853.9
1660.25446	9689.7
1663.53433	8799.6
1666.81203	8198.5
1670.08756	7841
1673.36092	7615.7
1676.63211	7462.7
1679.90115	7387.7
1683.16801	7277.4
1686.43272	7225.5
1689.69527	7164.8
1692.95567	7119.6
1696.2139	7052.2
1699.46999	7001.3
1702.72392	6979.3
1705.97571	6980.4
1709.22535	7001.9
1712.47284	7023.4
1715.71819	7028.1
1718.96139	7008.6
1722.20246	6995.5
1725.44139	6987.7
1728.67818	6944.8
1731.91284	6920.8
1735.14537	6885.4
1738.37576	6859.1
1741.60403	6844.7
1744.83017	6806.4
1748.05418	6814.1
1751.27607	6776.8
1754.49584	6763.3
1757.71349	6768.5
1760.92903	6733.4
1764.14244	6741.2
1767.35375	6739.9
1770.56294	6700.1
1773.77002	6667
1776.97499	6677.6
1780.17785	6677.6
1783.37861	6675.1
1786.57727	6670.5
1789.77382	6631.2
1792.96828	6630
1796.16064	6615.8
1799.3509	6588.1
1802.53907	6578.3
1805.72514	6550.5
1808.90913	6543.3
1812.09102	6538.2
1815.27083	6509.4
1818.44856	6507.3
1821.6242	6493.5
1824.79776	6492.8
1827.96924	6476.7
1831.13864	6462.2
1834.30597	6448.8
1837.47122	6448.8
1840.6344	6444.4
1843.7955	6453.8
1846.95454	6426.3
1850.11151	6406.3
1853.26642	6429.6
1856.41926	6417.1
1859.57004	6406.3
1862.71876	6400.2
1865.86542	6390.5
1869.01003	6375.6
1872.15258	6375.4
1875.29308	6358.6
1878.43152	6352.6
1881.56792	6330.8
1884.70227	6308.6
1887.83457	6306.5
1890.96482	6304.1
1894.09304	6290
1897.21921	6265.4
1900.34335	6262.1
1903.46544	6250.9
1906.58551	6249.3
1909.70353	6228.4
1912.81953	6211.7
1915.93349	6209.3
1919.04543	6208.8
1922.15534	6179.3
1925.26322	6186.7
1928.36908	6162.1
1931.47292	6132.4
1934.57473	6112.7
1937.67453	6126.9
1940.77232	6095.5
1943.86808	6062.1
1946.96184	6085.7
1950.05358	6048.6
1953.14331	6023.8
1956.23103	6019.6
1959.31675	5990.8
1962.40046	5970.9
1965.48217	5961.8
1968.56188	5934.6
1971.63959	5915.6
1974.7153	5900.5
1977.78901	5866.7
1980.86073	5857.9
1983.93046	5847.5
1986.99819	5798.3
1990.06394	5783.3
1993.1277	5784.9
1996.18947	5749.5
1999.24925	5742.1
2002.30706	5735
2005.36288	5712.6
2008.41672	5680.3
2011.46859	5693.6
2014.51848	5643.9
2017.56639	5643
2020.61233	5634.1
2023.6563	5600.7
2026.6983	5573.6
2029.73833	5570.2
2032.7764	5542.7
2035.8125	5528.3
2038.84664	5519
2041.87881	5508.5
2044.90903	5496.2
2047.93729	5480.1
2050.96359	5471.8
2053.98794	5465.6
2057.01034	5440.7
2060.03078	5443.2
2063.04927	5453.1
2066.06582	5434.5
2069.08042	5439.4
2072.09307	5446.8
2075.10378	5425
2078.11255	5424
2081.11938	5427.9
2084.12426	5408.8
2087.12722	5429.2
2090.12824	5404.3
2093.12732	5411
2096.12447	5397.9
2099.11969	5391
2102.11299	5395.7
2105.10435	5388.1
2108.09379	5412.5
2111.08131	5411.6
2114.0669	5402.1
2117.05057	5403.8
2120.03233	5416.3
2123.01216	5411.5
2125.99008	5413.6
2128.96609	5430
2131.94018	5428.4
2134.91236	5424.1
2137.88263	5417
2140.851	5431.3
2143.81746	5412.6
2146.78201	5429.2
2149.74466	5401.1
2152.7054	5409.5
2155.66425	5405
2158.6212	5407.1
2161.57625	5383.8
2164.52941	5397
2167.48067	5375.7
2170.43004	5388.3
2173.37752	5383.5
2176.32311	5376.3
2179.26681	5377.6
2182.20863	5380
2185.14856	5377
2188.08661	5365.8
2191.02278	5370.1
2193.95707	5359.1
2196.88948	5353.5
2199.82001	5344.5
2202.74867	5331.3
2205.67545	5325.7
2208.60037	5303.8
2211.52341	5308.2
2214.44458	5289.9
2217.36388	5278.6
2220.28132	5274.9
2223.1969	5257.9
2226.11061	5255
2229.02246	5233.2
2231.93245	5245.1
2234.84058	5235.9
2237.74686	5209.2
2240.65128	5197.4
2243.55385	5183.8
2246.45456	5175.3
2249.35343	5170.8
2252.25044	5150.6
2255.14561	5161.9
2258.03893	5150.5
2260.93041	5132.4
2263.82004	5098.6
2266.70783	5106.6
2269.59378	5076.4
2272.4779	5060
2275.36017	5072.3
2278.24061	5052.7
2281.11922	5064.7
2283.996	5040.5
2286.87094	5025.2
2289.74405	5017.6
2292.61534	5003.4
2295.4848	5003.5
2298.35243	4994.6
2301.21824	4974.9
2304.08223	4981.4
2306.94439	4962.9
2309.80474	4968.2
2312.66327	4962.6
2315.51999	4943.7
2318.37489	4935.5
2321.22797	4940.3
2324.07925	4927.4
2326.92871	4919.4
2329.77637	4907.9
2332.62222	4917.1
2335.46626	4891.3
2338.3085	4890.9
2341.14893	4881.4
2343.98756	4870.1
2346.8244	4862.3
2349.65943	4852.4
2352.49267	4847.8
2355.32411	4832.5
2358.15376	4827.5
2360.98161	4837.3
2363.80768	4842.7
2366.63195	4821.6
2369.45444	4841.1
2372.27514	4828.7
2375.09405	4815.7
2377.91118	4813.9
2380.72652	4803.9
2383.54009	4774.3
2386.35187	4776.6
2389.16188	4750.5
2391.97011	4738.8
2394.77657	4741.5
2397.58125	4717.8
2400.38416	4722.8
2403.18529	4690.6
2405.98466	4702
2408.78226	4694.4
2411.57809	4691.6
2414.37216	4668.7
2417.16446	4677.8
2419.955	4651.9
2422.74378	4666.2
2425.5308	4661
2428.31606	4654.3
2431.09956	4643.5
2433.88131	4644.7
2436.6613	4631.4
2439.43954	4646.2
2442.21603	4620.8
2444.99077	4606.5
2447.76377	4625.4
2450.53501	4607.9
2453.30451	4613.1
2456.07226	4584.1
2458.83827	4574
2461.60254	4590.2
2464.36507	4567.4
2467.12586	4558.8
2469.88492	4570.4
2472.64224	4556.2
2475.39782	4566
2478.15167	4552.9
2480.90379	4541.2
2483.65417	4544.1
2486.40283	4538.7
2489.14976	4537.9
2491.89497	4518.9
2494.63845	4514.4
2497.3802	4504.7
2500.12024	4512
2502.85855	4505.7
2505.59514	4514.2
2508.33002	4508.7
2511.06318	4493.1
2513.79462	4482.9
2516.52435	4479.1
2519.25237	4466.4
2521.97867	4456.2
2524.70327	4469.2
2527.42616	4459.1
2530.14734	4458.4
2532.86681	4443.3
2535.58458	4417
2538.30065	4406
2541.01501	4423.3
2543.72768	4404
2546.43864	4394.7
2549.14791	4385.3
2551.85548	4377
2554.56136	4386.7
2557.26554	4371.6
2559.96803	4367.3
2562.66883	4352.8
2565.36794	4337.7
2568.06536	4340.5
2570.7611	4332.2
2573.45514	4329.9
2576.14751	4308
2578.83819	4283.9
2581.52719	4298.4
2584.21451	4285.6
2586.90015	4275.7
2589.58411	4260.1
2592.2664	4264.1
2594.94701	4238.8
2597.62594	4234.2
2600.30321	4223.8
2602.9788	4230.2
2605.65273	4217.4
2608.32498	4204.7
2610.99557	4201.9
2613.66449	4208.6
2616.33175	4196.8
2618.99734	4191.4
2621.66128	4187.6
2624.32355	4173
2626.98416	4165.8
2629.64311	4154.6
2632.30041	4158
2634.95605	4131.6
2637.61004	4131.3
2640.26238	4138.6
2642.91306	4118.7
2645.56209	4125.1
2648.20948	4120.8
2650.85521	4118.7
2653.4993	4116.1
2656.14175	4134.4
2658.78255	4128.5
2661.42171	4133.8
2664.05923	4120.3
2666.6951	4123.4
2669.32934	4127.4
2671.96194	4103.5
2674.59291	4112.6
2677.22224	4115.5
2679.84993	4115.1
2682.476	4109.1
2685.10043	4099.7
2687.72324	4106.6
2690.34441	4102.4
2692.96396	4105.1
2695.58188	4109.7
2698.19818	4103.7
2700.81285	4110.2
2703.4259	4097
2706.03733	4071.5
2708.64714	4075.9
2711.25533	4090
2713.86191	4082
2716.46687	4090
2719.07021	4069.4
2721.67194	4075.3
2724.27206	4091.5
2726.87057	4088.9
2729.46747	4095.3
2732.06276	4095.6
2734.65644	4072.7
2737.24852	4079.4
2739.83899	4079.6
2742.42786	4087.3
2745.01513	4052.8
2747.60079	4047.2
2750.18486	4048.3
2752.76733	4047
2755.3482	4028.7
2757.92747	4026.6
2760.50515	4029.3
2763.08123	4033
2765.65573	4028.7
2768.22863	4022.6
2770.79994	4002
2773.36967	4022.8
2775.9378	3989.8
2778.50435	3988.9
2781.06932	3990.7
2783.6327	3994.6
2786.1945	3969.5
2788.75471	3974.9
2791.31335	3972.6
2793.87041	3946.9
2796.42589	3946.8
2798.97979	3935.5
2801.53212	3943.1
2804.08288	3920.8
2806.63206	3922
2809.17967	3900.2
2811.72571	3893.2
2814.27018	3885.7
2816.81308	3875.6
2819.35442	3872.4
2821.89419	3869.4
2824.43239	3862.2
2826.96904	3867.3
2829.50412	3878.5
2832.03763	3846.8
2834.56959	3867.9
2837.1	3852.8
2839.62884	3880.9
2842.15613	3872.7
2844.68186	3912.2
2847.20604	3915.1
2849.72867	3955
2852.24974	3945.1
2854.76927	3927.7
2857.28724	3916.1
2859.80367	3909.4
2862.31855	3913.6
2864.83189	3889.9
2867.34368	3884
2869.85393	3883.2
2872.36264	3889.1
2874.8698	3880.2
2877.37543	3892.1
2879.87952	3874.3
2882.38207	3865.4
2884.88308	3867.4
2887.38256	3867.7
2889.88051	3847.6
2892.37692	3844.8
2894.8718	3872
2897.36515	3867
2899.85698	3873.6
2902.34727	3879.5
2904.83604	3875.8
2907.32328	3874.7
2909.809	3884.8
2912.29319	3881.6
2914.77587	3865
2917.25702	3868
2919.73665	3876.1
2922.21476	3870.1
2924.69136	3870
2927.16644	3877.5
2929.64	3864.7
2932.11205	3864.7
2934.58258	3865.4
2937.05161	3868.8
2939.51912	3871.7
2941.98513	3855.2
2944.44962	3834.9
2946.91261	3816.1
2949.37409	3824.4
2951.83407	3816.1
2954.29254	3799.9
2956.74951	3794.1
2959.20498	3798.8
2961.65895	3787.7
2964.11142	3791.2
2966.56239	3767.9
2969.01186	3760.5
2971.45984	3738.5
2973.90632	3740.6
2976.35131	3733.6
2978.7948	3735.3
2981.23681	3718.6
2983.67732	3713.1
2986.11635	3694.2
2988.55388	3680.1
2990.98993	3663.2
2993.4245	3668.9
2995.85758	3654.2
2998.28917	3641.5
3000.71928	3647
3003.14791	3635.3
3005.57506	3623.6
3008.00073	3629.6
3010.42493	3613.8
3012.84764	3622.9
3015.26888	3616.7
3017.68865	3627.8
3020.10694	3612.6
3022.52376	3585.2
3024.9391	3580.4
3027.35298	3595.1
3029.76539	3581.5
3032.17632	3565.8
3034.5858	3571.5
3036.9938	3569.6
3039.40034	3570
3041.80542	3565.4
3044.20903	3562.4
3046.61118	3556
3049.01187	3559.1
3051.4111	3559.5
3053.80888	3544.5
3056.20519	3540.3
3058.60005	3532.5
3060.99345	3537.2
3063.3854	3526.4
3065.7759	3511.9
3068.16494	3512.8
3070.55254	3516.2
3072.93868	3502.7
3075.32338	3492.3
3077.70662	3487.7
3080.08842	3479.2
3082.46878	3487.7
3084.84769	3481.4
3087.22515	3471.6
3089.60118	3491.5
3091.97576	3494.3
3094.3489	3505
3096.72061	3502.6
3099.09087	3511
3101.4597	3488.7
3103.82709	3493.3
3106.19305	3491.6
3108.55757	3499.8
3110.92066	3485.4
3113.28232	3488.4
3115.64255	3482.7
3118.00134	3489.9
3120.35871	3493.5
3122.71466	3483.9
3125.06917	3476.9
3127.42226	3467.8
3129.77393	3472.8
3132.12417	3484.6
3134.47299	3462.9
3136.82039	3502.7
3139.16636	3493.1
3141.51092	3488.4
3143.85406	3511.8
3146.19579	3504
3148.53609	3507
3150.87499	3531.8
3153.21246	3518.2
3155.54853	3515.3
3157.88318	3542.4
3160.21642	3540.3
3162.54826	3548.1
3164.87868	3545.5
3167.2077	3553.9
3169.5353	3548.1
3171.86151	3563.5
3174.18631	3552.4
3176.5097	3560.1
3178.83169	3552.1
3181.15228	3556.8
3183.47147	3541.9
3185.78926	3559.4
3188.10565	3545.6
3190.42065	3559.5
3192.73424	3543.6
3195.04645	3549.7
3197.35725	3557.6
3199.66667	3551.9
3201.97469	3555.9
3204.28132	3553.2
3206.58656	3568.7
3208.8904	3566.9
3211.19287	3579.2
3213.49394	3582.5
3215.79363	3587.5
3218.09193	3588.8
3220.38884	3572.2
3222.68438	3581.3
3224.97853	3585.8
3227.2713	3574
3229.56269	3568.2
3231.8527	3584
3234.14133	3570.4
3236.42858	3568.4
3238.71446	3563.2
3240.99896	3556.1
3243.28209	3557.1
3245.56384	3549.4
3247.84423	3551.6
3250.12324	3548.5
3252.40088	3550.9
3254.67715	3547.5
3256.95205	3561.4
3259.22558	3545.5
3261.49775	3535.4
3263.76855	3538.1
3266.03799	3529.6
3268.30606	3513.7
3270.57277	3512.9
3272.83812	3502.8
3275.10211	3494.6
3277.36474	3492.4
3279.62601	3498.3
3281.88593	3492.9
3284.14448	3486.8
3286.40168	3479.3
3288.65753	3484.5
3290.91202	3483
3293.16516	3457.4
3295.41695	3461
3297.66738	3441.1
3299.91647	3432.9
3302.16421	3411.9
3304.4106	3394.9
3306.65564	3374.7
3308.89933	3362.7
3311.14169	3334.5
3313.38269	3315
3315.62236	3300.1
3317.86068	3271.9
3320.09766	3238.2
3322.3333	3228.2
3324.5676	3202.6
3326.80056	3154.6
3329.03219	3144.2
3331.26248	-0.3
3333.49143	0.6
3335.71905	-0.5
