Data from AgNPs_FTO_APTES_UA_1uM_CRN_0uM_R6G_10uM_NaF_0.1M_Addition_RamanShift__21__11-30-09-430.txt Node

Date: Thu Jan 27 11:30:09 GMT 2022
User: TCL
Spectrometer: QEP01345
Trigger mode: 4
Integration Time (sec): 7.000000E0
Scans to average: 10
Electric dark correction enabled: true
Nonlinearity correction enabled: false
Boxcar width: 0
XAxis mode: Raman Shifts
Number of Pixels in Spectrum: 1044
>>>>>Begin Spectral Data<<<<<
46.04893	-0.925
50.45542	0.675
54.85868	-0.225
59.25871	-0.925
63.6555	43.275
68.04907	46.075
72.43941	44.775
76.82654	49.475
81.21044	52.275
85.59113	50.175
89.96862	56.275
94.34289	56.875
98.71396	58.275
103.08183	59.775
107.4465	61.775
111.80798	60.475
116.16626	64.075
120.52136	67.575
124.87327	65.375
129.222	65.775
133.56755	65.675
137.90993	73.075
142.24913	78.475
146.58517	83.375
150.91804	94.475
155.24774	108.975
159.57429	126.375
163.89768	164.175
168.21792	210.675
172.53501	279.775
176.84895	371.875
181.15975	521.875
185.46741	723.375
189.77193	986.375
194.07331	1336.875
198.37157	1727.975
202.6667	2143.075
206.9587	2556.675
211.24758	2955.375
215.53334	3354.275
219.81599	3786.575
224.09553	4217.475
228.37195	4733.875
232.64527	5294.775
236.91549	5895.575
241.18261	6482.975
245.44663	7046.675
249.70755	7573.475
253.96539	8000.075
258.22014	8397.175
262.4718	8708.575
266.72039	8926.475
270.96589	9022.475
275.20832	8997.375
279.44768	8888.675
283.68397	8730.375
287.91719	8605.275
292.14735	8493.975
296.37445	8451.175
300.59849	8449.675
304.81948	8516.775
309.03742	8538.775
313.25231	8546.175
317.46415	8476.275
321.67296	8330.775
325.87872	8278.075
330.08145	8253.175
334.28114	8308.875
338.47781	8364.675
342.67145	8457.675
346.86207	8569.775
351.04966	8694.075
355.23424	8874.275
359.4158	9023.775
363.59435	9166.375
367.76989	9272.075
371.94243	9353.475
376.11196	9424.275
380.27849	9464.075
384.44203	9490.575
388.60257	9543.875
392.76012	9578.375
396.91468	9616.075
401.06626	9753.275
405.21485	9857.775
409.36047	9867.775
413.50311	9776.975
417.64277	9678.275
421.77947	9627.775
425.9132	9631.075
430.04396	9684.775
434.17176	9736.675
438.2966	9890.475
442.41849	10118.475
446.53742	10453.375
450.6534	10763.675
454.76644	11042.575
458.87653	11120.575
462.98368	10985.475
467.08789	10723.575
471.18916	10509.375
475.2875	10329.275
479.38291	10167.175
483.4754	10103.975
487.56496	10073.275
491.6516	10022.075
495.73531	10070.275
499.81612	10105.575
503.89401	10182.775
507.96899	10175.675
512.04106	10113.175
516.11023	10115.075
520.1765	10154.475
524.23987	10197.575
528.30034	10226.475
532.35792	10177.275
536.41261	10064.075
540.46441	9956.175
544.51333	9907.075
548.55936	9961.275
552.60252	10050.875
556.64279	10218.975
560.6802	10264.575
564.71473	10192.675
568.7464	10148.775
572.7752	10163.575
576.80114	10138.875
580.82422	10131.275
584.84444	10290.675
588.86181	10577.275
592.87633	11049.475
596.888	11451.675
600.89682	11496.575
604.9028	11722.575
608.90594	12587.975
612.90624	13643.075
616.90371	13264.775
620.89834	11660.275
624.89015	10988.475
628.87913	10948.275
632.86528	10880.175
636.84862	10569.875
640.82913	10334.175
644.80683	10120.075
648.78172	9998.475
652.75379	10053.475
656.72306	10203.875
660.68952	10422.775
664.65319	10415.175
668.61405	10339.775
672.57211	10314.075
676.52738	10363.875
680.47986	10288.075
684.42955	10212.175
688.37646	10191.475
692.32058	10288.775
696.26192	10471.275
700.20048	10588.775
704.13626	10605.275
708.06928	10460.675
711.99952	10348.075
715.927	10366.575
719.85171	10464.175
723.77365	10470.975
727.69284	10365.475
731.60928	10236.175
735.52295	10227.175
739.43388	10236.975
743.34206	10288.375
747.24749	10314.275
751.15017	10321.075
755.05012	10422.575
758.94733	10547.575
762.8418	10827.575
766.73354	11297.475
770.62254	11832.875
774.50882	12205.575
778.39237	12090.275
782.27321	11619.575
786.15132	11064.075
790.02671	10716.875
793.89938	10547.875
797.76935	10531.675
801.6366	10496.875
805.50115	10466.275
809.36299	10465.075
813.22213	10402.675
817.07857	10374.575
820.93231	10356.875
824.78336	10369.975
828.63172	10374.675
832.47738	10394.875
836.32036	10462.675
840.16066	10570.875
843.99827	10636.075
847.8332	10600.975
851.66546	10495.875
855.49504	10463.775
859.32195	10451.775
863.1462	10422.675
866.96777	10369.575
870.78668	10306.775
874.60293	10326.475
878.41652	10340.975
882.22745	10396.475
886.03573	10471.175
889.84136	10483.575
893.64433	10421.275
897.44466	10358.775
901.24235	10320.475
905.0374	10281.475
908.8298	10280.875
912.61957	10284.775
916.40671	10365.775
920.19121	10465.275
923.97308	10604.675
927.75233	10743.375
931.52895	10832.475
935.30295	10809.875
939.07433	10658.575
942.84309	10501.875
946.60924	10444.775
950.37278	10466.375
954.13371	10393.475
957.89203	10295.875
961.64774	10225.575
965.40086	10171.875
969.15137	10132.675
972.89929	10150.975
976.64461	10176.975
980.38733	10214.475
984.12747	10288.275
987.86502	10399.875
991.59999	10544.675
995.33237	10781.775
999.06217	11159.575
1002.78939	11537.775
1006.51404	11658.975
1010.23611	11614.075
1013.95561	11638.675
1017.67255	11659.475
1021.38692	11629.375
1025.09872	11657.975
1028.80796	11949.475
1032.51465	12536.875
1036.21877	13097.575
1039.92035	13131.575
1043.61937	12787.875
1047.31584	12293.975
1051.00976	11768.675
1054.70114	11460.475
1058.38998	11366.475
1062.07627	11317.775
1065.76003	11198.075
1069.44126	11104.975
1073.11995	11131.375
1076.79611	11243.675
1080.46974	11366.275
1084.14085	11509.475
1087.80943	11600.575
1091.47549	11582.775
1095.13903	11437.675
1098.80005	11249.675
1102.45857	11091.175
1106.11456	11054.575
1109.76805	11121.775
1113.41903	11192.475
1117.06751	11236.275
1120.71348	11304.075
1124.35696	11332.875
1127.99793	11397.975
1131.63641	11453.175
1135.2724	11325.875
1138.90589	11206.175
1142.5369	11082.875
1146.16542	10987.175
1149.79145	10941.375
1153.415	10953.475
1157.03607	10917.775
1160.65467	10979.875
1164.27079	11142.575
1167.88443	11447.475
1171.49561	11933.675
1175.10432	12643.575
1178.71056	13575.975
1182.31434	14585.675
1185.91565	15199.075
1189.51451	15242.375
1193.11091	14679.675
1196.70485	13956.575
1200.29634	13289.975
1203.88538	12826.875
1207.47197	12413.875
1211.05612	12124.275
1214.63782	11959.275
1218.21708	12045.075
1221.79391	12246.775
1225.36829	12453.175
1228.94024	12372.775
1232.50976	12085.775
1236.07685	11759.575
1239.6415	11594.075
1243.20374	11592.875
1246.76355	11670.475
1250.32093	11842.475
1253.8759	12072.275
1257.42845	12370.775
1260.97859	12627.075
1264.52631	12913.975
1268.07163	13161.775
1271.61453	13478.975
1275.15503	13876.475
1278.69312	14241.375
1282.22882	14536.575
1285.76211	14694.075
1289.29301	14740.175
1292.82151	14879.375
1296.34761	15228.475
1299.87133	15777.975
1303.39266	16714.375
1306.9116	17919.675
1310.42815	19217.175
1313.94233	19990.575
1317.45412	19728.275
1320.96354	18690.775
1324.47058	17390.375
1327.97525	16319.775
1331.47754	15652.975
1334.97747	15410.975
1338.47502	15354.975
1341.97022	15392.375
1345.46305	15385.075
1348.95352	15590.175
1352.44163	16119.275
1355.92738	17040.575
1359.41078	18360.475
1362.89183	19481.275
1366.37053	19339.375
1369.84688	17811.375
1373.32088	15943.575
1376.79254	14597.775
1380.26186	13953.575
1383.72883	13704.675
1387.19347	13542.875
1390.65578	13235.575
1394.11575	12917.975
1397.57339	12784.575
1401.0287	12761.575
1404.48168	12812.875
1407.93234	12822.575
1411.38068	12817.175
1414.82669	12826.775
1418.27039	12773.475
1421.71177	12635.775
1425.15083	12523.475
1428.58758	12462.275
1432.02203	12557.575
1435.45416	12746.175
1438.88399	12872.475
1442.31151	12862.575
1445.73673	12825.675
1449.15965	12777.775
1452.58027	12670.875
1455.9986	12519.375
1459.41463	12396.675
1462.82837	12472.675
1466.23982	12685.575
1469.64898	12936.875
1473.05586	13175.075
1476.46045	13415.975
1479.86276	13580.175
1483.26279	13686.675
1486.66054	13734.175
1490.05602	13839.975
1493.44922	13975.975
1496.84016	14043.075
1500.22882	14115.875
1503.61521	14398.575
1506.99934	14805.975
1510.38121	15219.175
1513.76081	15408.375
1517.13816	15153.275
1520.51324	14600.775
1523.88607	13991.975
1527.25665	13580.275
1530.62498	13372.975
1533.99105	13281.475
1537.35488	13195.775
1540.71647	13125.075
1544.07581	13115.875
1547.4329	12999.375
1550.78776	12915.075
1554.14038	12830.075
1557.49077	12724.475
1560.83892	12639.575
1564.18484	12582.075
1567.52853	12613.275
1570.86999	12693.175
1574.20922	12793.175
1577.54624	12852.675
1580.88103	12782.575
1584.2136	12648.675
1587.54395	12761.075
1590.87208	13271.675
1594.19801	14056.175
1597.52172	15110.875
1600.84321	15747.075
1604.16251	15504.475
1607.47959	14579.575
1610.79447	13494.075
1614.10715	12509.975
1617.41763	11813.575
1620.7259	11427.175
1624.03199	11242.775
1627.33587	11300.375
1630.63757	11483.875
1633.93707	11852.475
1637.23439	12377.275
1640.52951	13094.975
1643.82246	13976.775
1647.11321	14748.275
1650.40179	14978.775
1653.68819	14245.275
1656.97241	12935.375
1660.25446	11760.375
1663.53433	10960.975
1666.81203	10532.375
1670.08756	10251.875
1673.36092	10080.475
1676.63211	9972.475
1679.90115	9898.475
1683.16801	9826.775
1686.43272	9768.475
1689.69527	9716.975
1692.95567	9666.075
1696.2139	9616.175
1699.46999	9549.475
1702.72392	9534.975
1705.97571	9578.275
1709.22535	9621.275
1712.47284	9639.775
1715.71819	9674.575
1718.96139	9642.475
1722.20246	9640.975
1725.44139	9627.075
1728.67818	9601.175
1731.91284	9570.475
1735.14537	9533.475
1738.37576	9512.075
1741.60403	9470.175
1744.83017	9456.275
1748.05418	9451.275
1751.27607	9412.375
1754.49584	9385.775
1757.71349	9378.675
1760.92903	9349.975
1764.14244	9340.475
1767.35375	9342.075
1770.56294	9326.075
1773.77002	9340.375
1776.97499	9346.675
1780.17785	9372.775
1783.37861	9373.175
1786.57727	9378.475
1789.77382	9390.475
1792.96828	9391.075
1796.16064	9363.975
1799.3509	9356.975
1802.53907	9365.675
1805.72514	9324.975
1808.90913	9309.075
1812.09102	9316.875
1815.27083	9280.575
1818.44856	9276.575
1821.6242	9269.575
1824.79776	9244.075
1827.96924	9207.275
1831.13864	9223.975
1834.30597	9222.975
1837.47122	9244.975
1840.6344	9189.675
1843.7955	9226.775
1846.95454	9238.775
1850.11151	9224.375
1853.26642	9187.375
1856.41926	9201.375
1859.57004	9228.575
1862.71876	9208.475
1865.86542	9210.775
1869.01003	9218.475
1872.15258	9223.575
1875.29308	9215.275
1878.43152	9199.475
1881.56792	9170.475
1884.70227	9178.275
1887.83457	9176.975
1890.96482	9174.675
1894.09304	9172.875
1897.21921	9165.975
1900.34335	9158.075
1903.46544	9152.075
1906.58551	9147.875
1909.70353	9146.175
1912.81953	9152.875
1915.93349	9151.875
1919.04543	9138.175
1922.15534	9105.775
1925.26322	9098.975
1928.36908	9099.975
1931.47292	9089.575
1934.57473	9084.775
1937.67453	9065.175
1940.77232	9052.475
1943.86808	8993.875
1946.96184	8992.075
1950.05358	8987.075
1953.14331	8986.275
1956.23103	8940.275
1959.31675	8918.575
1962.40046	8890.675
1965.48217	8877.875
1968.56188	8854.975
1971.63959	8839.775
1974.7153	8826.475
1977.78901	8803.775
1980.86073	8780.675
1983.93046	8756.475
1986.99819	8729.275
1990.06394	8724.775
1993.1277	8696.275
1996.18947	8670.575
1999.24925	8646.975
2002.30706	8609.775
2005.36288	8600.175
2008.41672	8572.175
2011.46859	8538.675
2014.51848	8537.375
2017.56639	8531.775
2020.61233	8516.475
2023.6563	8506.875
2026.6983	8473.575
2029.73833	8481.675
2032.7764	8429.575
2035.8125	8479.075
2038.84664	8457.775
2041.87881	8428.275
2044.90903	8427.875
2047.93729	8402.675
2050.96359	8430.275
2053.98794	8394.375
2057.01034	8393.975
2060.03078	8395.575
2063.04927	8393.175
2066.06582	8402.975
2069.08042	8373.575
2072.09307	8373.075
2075.10378	8373.775
2078.11255	8389.475
2081.11938	8395.775
2084.12426	8379.975
2087.12722	8375.875
2090.12824	8364.975
2093.12732	8389.075
2096.12447	8378.675
2099.11969	8381.775
2102.11299	8402.575
2105.10435	8397.475
2108.09379	8421.575
2111.08131	8402.075
2114.0669	8422.975
2117.05057	8405.075
2120.03233	8440.675
2123.01216	8443.775
2125.99008	8463.175
2128.96609	8465.875
2131.94018	8467.575
2134.91236	8470.575
2137.88263	8474.375
2140.851	8501.975
2143.81746	8514.375
2146.78201	8500.475
2149.74466	8532.575
2152.7054	8534.975
2155.66425	8526.375
2158.6212	8517.875
2161.57625	8541.575
2164.52941	8536.575
2167.48067	8498.875
2170.43004	8529.175
2173.37752	8530.975
2176.32311	8533.775
2179.26681	8543.575
2182.20863	8537.975
2185.14856	8524.075
2188.08661	8556.575
2191.02278	8563.475
2193.95707	8556.175
2196.88948	8559.275
2199.82001	8556.775
2202.74867	8567.975
2205.67545	8561.275
2208.60037	8570.275
2211.52341	8569.975
2214.44458	8536.775
2217.36388	8557.475
2220.28132	8524.875
2223.1969	8527.175
2226.11061	8506.775
2229.02246	8494.375
2231.93245	8497.875
2234.84058	8473.275
2237.74686	8448.075
2240.65128	8465.775
2243.55385	8452.375
2246.45456	8415.475
2249.35343	8423.675
2252.25044	8411.375
2255.14561	8410.675
2258.03893	8398.175
2260.93041	8387.675
2263.82004	8351.675
2266.70783	8349.675
2269.59378	8350.375
2272.4779	8323.875
2275.36017	8319.275
2278.24061	8311.475
2281.11922	8308.675
2283.996	8274.975
2286.87094	8276.975
2289.74405	8265.375
2292.61534	8254.675
2295.4848	8248.675
2298.35243	8288.275
2301.21824	8282.575
2304.08223	8286.775
2306.94439	8285.475
2309.80474	8281.175
2312.66327	8304.975
2315.51999	8316.775
2318.37489	8336.775
2321.22797	8321.675
2324.07925	8325.175
2326.92871	8299.375
2329.77637	8294.775
2332.62222	8296.875
2335.46626	8282.275
2338.3085	8261.975
2341.14893	8294.275
2343.98756	8312.475
2346.8244	8284.375
2349.65943	8283.575
2352.49267	8281.175
2355.32411	8273.175
2358.15376	8256.375
2360.98161	8265.175
2363.80768	8234.275
2366.63195	8249.275
2369.45444	8246.975
2372.27514	8227.975
2375.09405	8201.875
2377.91118	8179.575
2380.72652	8172.575
2383.54009	8159.175
2386.35187	8170.675
2389.16188	8137.675
2391.97011	8126.275
2394.77657	8105.475
2397.58125	8111.875
2400.38416	8100.575
2403.18529	8091.375
2405.98466	8064.875
2408.78226	8048.475
2411.57809	8039.475
2414.37216	8028.275
2417.16446	8001.075
2419.955	7990.575
2422.74378	8015.075
2425.5308	7999.175
2428.31606	8017.075
2431.09956	8001.575
2433.88131	7987.875
2436.6613	7979.175
2439.43954	7990.175
2442.21603	7997.975
2444.99077	8011.875
2447.76377	7983.075
2450.53501	7987.875
2453.30451	8008.875
2456.07226	7975.375
2458.83827	7975.875
2461.60254	7980.175
2464.36507	7971.175
2467.12586	7960.175
2469.88492	7968.275
2472.64224	7981.975
2475.39782	7968.675
2478.15167	7983.575
2480.90379	7983.475
2483.65417	7989.375
2486.40283	8010.975
2489.14976	8002.175
2491.89497	7992.275
2494.63845	7998.675
2497.3802	7991.475
2500.12024	7981.675
2502.85855	7992.575
2505.59514	7963.575
2508.33002	7980.375
2511.06318	7962.075
2513.79462	7949.475
2516.52435	7932.975
2519.25237	7918.375
2521.97867	7929.875
2524.70327	7942.775
2527.42616	7920.275
2530.14734	7907.775
2532.86681	7931.375
2535.58458	7915.275
2538.30065	7903.175
2541.01501	7913.575
2543.72768	7909.275
2546.43864	7890.975
2549.14791	7899.675
2551.85548	7870.875
2554.56136	7835.275
2557.26554	7858.875
2559.96803	7858.675
2562.66883	7862.775
2565.36794	7849.675
2568.06536	7851.675
2570.7611	7835.375
2573.45514	7834.675
2576.14751	7827.075
2578.83819	7820.875
2581.52719	7815.275
2584.21451	7827.575
2586.90015	7834.075
2589.58411	7823.675
2592.2664	7800.575
2594.94701	7803.475
2597.62594	7803.675
2600.30321	7790.275
2602.9788	7785.375
2605.65273	7760.075
2608.32498	7753.875
2610.99557	7747.775
2613.66449	7769.575
2616.33175	7777.375
2618.99734	7780.975
2621.66128	7743.975
2624.32355	7751.575
2626.98416	7734.675
2629.64311	7752.975
2632.30041	7749.475
2634.95605	7738.275
2637.61004	7732.075
2640.26238	7714.175
2642.91306	7715.075
2645.56209	7680.175
2648.20948	7690.875
2650.85521	7702.875
2653.4993	7681.775
2656.14175	7681.275
2658.78255	7696.275
2661.42171	7695.075
2664.05923	7712.675
2666.6951	7716.875
2669.32934	7722.675
2671.96194	7723.175
2674.59291	7716.875
2677.22224	7715.275
2679.84993	7712.175
2682.476	7697.475
2685.10043	7693.175
2687.72324	7683.975
2690.34441	7689.375
2692.96396	7695.975
2695.58188	7705.575
2698.19818	7677.475
2700.81285	7683.975
2703.4259	7655.375
2706.03733	7667.075
2708.64714	7667.275
2711.25533	7701.975
2713.86191	7682.075
2716.46687	7700.275
2719.07021	7716.575
2721.67194	7730.375
2724.27206	7739.975
2726.87057	7746.575
2729.46747	7755.675
2732.06276	7745.875
2734.65644	7743.475
2737.24852	7754.975
2739.83899	7734.575
2742.42786	7739.675
2745.01513	7727.475
2747.60079	7730.375
2750.18486	7745.475
2752.76733	7715.275
2755.3482	7711.775
2757.92747	7743.875
2760.50515	7723.675
2763.08123	7733.375
2765.65573	7715.575
2768.22863	7731.475
2770.79994	7710.275
2773.36967	7718.875
2775.9378	7709.875
2778.50435	7714.075
2781.06932	7706.275
2783.6327	7697.675
2786.1945	7722.875
2788.75471	7727.575
2791.31335	7689.775
2793.87041	7701.875
2796.42589	7700.775
2798.97979	7690.275
2801.53212	7661.475
2804.08288	7660.375
2806.63206	7648.275
2809.17967	7638.575
2811.72571	7619.175
2814.27018	7607.975
2816.81308	7591.675
2819.35442	7611.075
2821.89419	7612.875
2824.43239	7594.975
2826.96904	7603.375
2829.50412	7608.575
2832.03763	7606.775
2834.56959	7627.475
2837.1	7602.075
2839.62884	7635.175
2842.15613	7626.675
2844.68186	7694.375
2847.20604	7692.175
2849.72867	7731.475
2852.24974	7711.475
2854.76927	7710.675
2857.28724	7721.275
2859.80367	7710.475
2862.31855	7707.875
2864.83189	7703.475
2867.34368	7702.275
2869.85393	7694.575
2872.36264	7706.375
2874.8698	7720.075
2877.37543	7712.275
2879.87952	7723.975
2882.38207	7737.075
2884.88308	7735.575
2887.38256	7751.375
2889.88051	7751.275
2892.37692	7743.075
2894.8718	7749.275
2897.36515	7755.875
2899.85698	7804.175
2902.34727	7792.275
2904.83604	7812.875
2907.32328	7800.975
2909.809	7803.275
2912.29319	7802.275
2914.77587	7811.975
2917.25702	7811.275
2919.73665	7810.375
2922.21476	7814.475
2924.69136	7798.575
2927.16644	7797.075
2929.64	7776.075
2932.11205	7766.675
2934.58258	7756.875
2937.05161	7755.475
2939.51912	7751.075
2941.98513	7737.075
2944.44962	7699.075
2946.91261	7661.675
2949.37409	7676.375
2951.83407	7620.875
2954.29254	7612.775
2956.74951	7596.575
2959.20498	7595.475
2961.65895	7566.275
2964.11142	7583.775
2966.56239	7573.475
2969.01186	7549.475
2971.45984	7516.075
2973.90632	7506.475
2976.35131	7487.875
2978.7948	7475.675
2981.23681	7440.475
2983.67732	7438.775
2986.11635	7434.075
2988.55388	7403.675
2990.98993	7388.075
2993.4245	7375.275
2995.85758	7358.575
2998.28917	7343.175
3000.71928	7364.575
3003.14791	7325.775
3005.57506	7331.875
3008.00073	7310.675
3010.42493	7313.975
3012.84764	7306.675
3015.26888	7311.975
3017.68865	7307.875
3020.10694	7301.875
3022.52376	7276.275
3024.9391	7298.775
3027.35298	7263.075
3029.76539	7268.375
3032.17632	7296.875
3034.5858	7252.475
3036.9938	7258.175
3039.40034	7275.575
3041.80542	7278.275
3044.20903	7266.675
3046.61118	7257.975
3049.01187	7230.475
3051.4111	7236.075
3053.80888	7227.175
3056.20519	7251.475
3058.60005	7220.975
3060.99345	7205.175
3063.3854	7228.375
3065.7759	7184.075
3068.16494	7194.575
3070.55254	7170.475
3072.93868	7188.875
3075.32338	7172.775
3077.70662	7157.975
3080.08842	7156.975
3082.46878	7160.075
3084.84769	7147.875
3087.22515	7153.275
3089.60118	7161.075
3091.97576	7160.175
3094.3489	7169.775
3096.72061	7168.075
3099.09087	7168.775
3101.4597	7168.975
3103.82709	7184.875
3106.19305	7151.075
3108.55757	7188.375
3110.92066	7157.575
3113.28232	7174.475
3115.64255	7126.775
3118.00134	7140.375
3120.35871	7136.175
3122.71466	7135.975
3125.06917	7139.875
3127.42226	7142.575
3129.77393	7112.275
3132.12417	7131.875
3134.47299	7138.375
3136.82039	7143.975
3139.16636	7158.575
3141.51092	7167.375
3143.85406	7165.775
3146.19579	7176.175
3148.53609	7191.975
3150.87499	7206.475
3153.21246	7194.975
3155.54853	7234.475
3157.88318	7229.375
3160.21642	7246.775
3162.54826	7233.075
3164.87868	7215.575
3167.2077	7218.775
3169.5353	7232.075
3171.86151	7241.875
3174.18631	7247.775
3176.5097	7248.475
3178.83169	7238.675
3181.15228	7226.275
3183.47147	7242.875
3185.78926	7254.875
3188.10565	7245.975
3190.42065	7234.175
3192.73424	7234.375
3195.04645	7242.875
3197.35725	7263.175
