Data from AgNPs_FTO_APTES_UA_1uM_CRN_200uM_R6G_10uM_NaF_0.1M_Addition_RamanShift__19__17-27-09-837.txt Node

Date: Thu Jan 27 17:27:09 GMT 2022
User: TCL
Spectrometer: QEP01345
Trigger mode: 4
Integration Time (sec): 7.000000E0
Scans to average: 10
Electric dark correction enabled: true
Nonlinearity correction enabled: false
Boxcar width: 0
XAxis mode: Raman Shifts
Number of Pixels in Spectrum: 1044
>>>>>Begin Spectral Data<<<<<
46.04893	0.575
50.45542	0.875
54.85868	-0.625
59.25871	-0.525
63.6555	40.575
68.04907	44.775
72.43941	47.975
76.82654	49.175
81.21044	50.175
85.59113	49.075
89.96862	54.875
94.34289	57.375
98.71396	61.475
103.08183	60.075
107.4465	65.875
111.80798	64.175
116.16626	64.275
120.52136	70.975
124.87327	72.075
129.222	68.475
133.56755	72.475
137.90993	75.375
142.24913	84.775
146.58517	89.575
150.91804	97.775
155.24774	117.975
159.57429	134.275
163.89768	171.275
168.21792	223.175
172.53501	299.875
176.84895	400.075
181.15975	563.075
185.46741	780.375
189.77193	1080.575
194.07331	1442.775
198.37157	1862.875
202.6667	2300.275
206.9587	2736.575
211.24758	3178.975
215.53334	3600.175
219.81599	4060.175
224.09553	4552.975
228.37195	5091.875
232.64527	5669.875
236.91549	6307.075
241.18261	6963.275
245.44663	7557.875
249.70755	8119.275
253.96539	8565.875
258.22014	8968.475
262.4718	9279.775
266.72039	9486.075
270.96589	9573.675
275.20832	9586.375
279.44768	9502.875
283.68397	9393.975
287.91719	9261.975
292.14735	9208.975
296.37445	9170.175
300.59849	9217.175
304.81948	9253.575
309.03742	9236.275
313.25231	9142.475
317.46415	8958.875
321.67296	8704.475
325.87872	8520.475
330.08145	8421.975
334.28114	8429.275
338.47781	8475.175
342.67145	8581.275
346.86207	8699.675
351.04966	8876.675
355.23424	9025.475
359.4158	9169.175
363.59435	9289.175
367.76989	9394.875
371.94243	9488.275
376.11196	9549.375
380.27849	9585.475
384.44203	9676.275
388.60257	9740.875
392.76012	9800.175
396.91468	9871.475
401.06626	10007.075
405.21485	10126.575
409.36047	10090.475
413.50311	9972.475
417.64277	9865.075
421.77947	9837.175
425.9132	9867.275
430.04396	9912.875
434.17176	9935.275
438.2966	10030.375
442.41849	10145.975
446.53742	10340.975
450.6534	10594.875
454.76644	10774.475
458.87653	10864.375
462.98368	10797.575
467.08789	10713.075
471.18916	10556.275
475.2875	10484.075
479.38291	10401.575
483.4754	10334.275
487.56496	10247.475
491.6516	10135.975
495.73531	10053.975
499.81612	10024.175
503.89401	10079.875
507.96899	10119.575
512.04106	10117.175
516.11023	10107.575
520.1765	10061.375
524.23987	10013.375
528.30034	9907.075
532.35792	9865.775
536.41261	9771.375
540.46441	9688.975
544.51333	9672.275
548.55936	9722.175
552.60252	9895.175
556.64279	10061.875
560.6802	10157.575
564.71473	10210.475
568.7464	10323.675
572.7752	10458.775
576.80114	10595.575
580.82422	10739.975
584.84444	10911.975
588.86181	11138.675
592.87633	11343.075
596.888	11405.575
600.89682	11341.275
604.9028	11564.275
608.90594	12322.375
612.90624	13241.275
616.90371	12695.975
620.89834	10946.175
624.89015	10135.275
628.87913	10101.375
632.86528	10115.975
636.84862	10103.575
640.82913	10004.175
644.80683	9836.875
648.78172	9658.575
652.75379	9628.075
656.72306	9678.875
660.68952	9791.775
664.65319	9790.775
668.61405	9689.575
672.57211	9701.675
676.52738	9755.075
680.47986	9794.575
684.42955	9808.975
688.37646	9728.475
692.32058	9669.975
696.26192	9690.175
700.20048	9735.475
704.13626	9786.775
708.06928	9756.175
711.99952	9693.875
715.927	9671.975
719.85171	9673.075
723.77365	9691.975
727.69284	9621.175
731.60928	9578.075
735.52295	9536.875
739.43388	9547.475
743.34206	9553.375
747.24749	9590.175
751.15017	9679.575
755.05012	9764.275
758.94733	9939.675
762.8418	10331.275
766.73354	10960.675
770.62254	11678.975
774.50882	11961.275
778.39237	11592.375
782.27321	10815.575
786.15132	10147.675
790.02671	9738.675
793.89938	9576.175
797.76935	9526.275
801.6366	9512.675
805.50115	9478.675
809.36299	9449.275
813.22213	9375.575
817.07857	9331.875
820.93231	9301.375
824.78336	9287.275
828.63172	9272.275
832.47738	9292.775
836.32036	9304.075
840.16066	9347.475
843.99827	9367.875
847.8332	9343.975
851.66546	9303.875
855.49504	9269.575
859.32195	9286.675
863.1462	9292.775
866.96777	9308.175
870.78668	9273.475
874.60293	9247.375
878.41652	9244.275
882.22745	9264.975
886.03573	9312.575
889.84136	9316.775
893.64433	9292.675
897.44466	9232.975
901.24235	9193.175
905.0374	9147.775
908.8298	9128.275
912.61957	9122.875
916.40671	9173.475
920.19121	9273.775
923.97308	9387.775
927.75233	9453.775
931.52895	9447.875
935.30295	9360.275
939.07433	9210.875
942.84309	9074.475
946.60924	9004.775
950.37278	8950.475
954.13371	8906.975
957.89203	8854.775
961.64774	8850.775
965.40086	8813.575
969.15137	8774.175
972.89929	8729.675
976.64461	8717.075
980.38733	8736.575
984.12747	8736.375
987.86502	8786.575
991.59999	8862.375
995.33237	9007.375
999.06217	9226.675
1002.78939	9448.475
1006.51404	9559.875
1010.23611	9584.675
1013.95561	9629.075
1017.67255	9652.575
1021.38692	9602.075
1025.09872	9556.375
1028.80796	9589.675
1032.51465	9810.275
1036.21877	10039.275
1039.92035	10072.975
1043.61937	9970.175
1047.31584	9792.275
1051.00976	9608.775
1054.70114	9529.775
1058.38998	9488.375
1062.07627	9515.875
1065.76003	9561.275
1069.44126	9598.375
1073.11995	9659.875
1076.79611	9769.075
1080.46974	9801.775
1084.14085	9825.575
1087.80943	9825.075
1091.47549	9868.475
1095.13903	9823.675
1098.80005	9764.675
1102.45857	9597.475
1106.11456	9497.875
1109.76805	9461.075
1113.41903	9498.175
1117.06751	9586.775
1120.71348	9694.775
1124.35696	9822.475
1127.99793	9955.675
1131.63641	10033.675
1135.2724	9967.675
1138.90589	9822.875
1142.5369	9728.875
1146.16542	9678.975
1149.79145	9703.075
1153.415	9696.575
1157.03607	9798.775
1160.65467	9996.975
1164.27079	10310.975
1167.88443	10735.075
1171.49561	11304.975
1175.10432	12012.875
1178.71056	12914.875
1182.31434	13798.075
1185.91565	14249.275
1189.51451	14137.875
1193.11091	13676.075
1196.70485	13088.175
1200.29634	12520.675
1203.88538	12118.975
1207.47197	11789.075
1211.05612	11533.975
1214.63782	11344.975
1218.21708	11194.375
1221.79391	11152.175
1225.36829	11166.175
1228.94024	11104.875
1232.50976	10909.275
1236.07685	10753.875
1239.6415	10615.475
1243.20374	10614.875
1246.76355	10631.475
1250.32093	10774.675
1253.8759	10924.175
1257.42845	11177.175
1260.97859	11379.875
1264.52631	11613.175
1268.07163	11898.075
1271.61453	12222.475
1275.15503	12523.875
1278.69312	12898.375
1282.22882	13203.675
1285.76211	13453.675
1289.29301	13739.275
1292.82151	14173.475
1296.34761	14698.675
1299.87133	15473.475
1303.39266	16352.675
1306.9116	17387.275
1310.42815	18389.775
1313.94233	18992.675
1317.45412	18932.075
1320.96354	18363.975
1324.47058	17756.175
1327.97525	17171.975
1331.47754	16758.475
1334.97747	16499.475
1338.47502	16419.175
1341.97022	16321.775
1345.46305	16241.975
1348.95352	16251.975
1352.44163	16437.675
1355.92738	17007.975
1359.41078	17889.375
1362.89183	18702.875
1366.37053	18585.875
1369.84688	17181.675
1373.32088	15336.975
1376.79254	13958.275
1380.26186	13311.275
1383.72883	13088.775
1387.19347	12995.875
1390.65578	12830.175
1394.11575	12728.375
1397.57339	12858.775
1401.0287	13110.275
1404.48168	13356.775
1407.93234	13426.975
1411.38068	13320.975
1414.82669	13034.675
1418.27039	12674.575
1421.71177	12270.475
1425.15083	11900.075
1428.58758	11685.375
1432.02203	11706.375
1435.45416	11880.375
1438.88399	12129.375
1442.31151	12319.175
1445.73673	12462.675
1449.15965	12624.475
1452.58027	12709.975
1455.9986	12678.975
1459.41463	12688.175
1462.82837	12829.475
1466.23982	13044.275
1469.64898	13272.575
1473.05586	13443.975
1476.46045	13533.375
1479.86276	13537.775
1483.26279	13475.675
1486.66054	13398.175
1490.05602	13428.975
1493.44922	13506.875
1496.84016	13636.275
1500.22882	13882.675
1503.61521	14313.775
1506.99934	14914.975
1510.38121	15474.675
1513.76081	15628.975
1517.13816	15287.875
1520.51324	14591.875
1523.88607	13917.675
1527.25665	13465.875
1530.62498	13259.575
1533.99105	13163.175
1537.35488	13053.175
1540.71647	12934.875
1544.07581	12753.775
1547.4329	12573.975
1550.78776	12431.875
1554.14038	12307.775
1557.49077	12221.675
1560.83892	12195.075
1564.18484	12188.075
1567.52853	12250.375
1570.86999	12348.175
1574.20922	12532.875
1577.54624	12660.275
1580.88103	12646.475
1584.2136	12556.575
1587.54395	12701.075
1590.87208	13115.275
1594.19801	13819.075
1597.52172	14655.875
1600.84321	15110.975
1604.16251	14721.475
1607.47959	13787.775
1610.79447	12729.575
1614.10715	11747.875
1617.41763	10944.775
1620.7259	10378.475
1624.03199	10135.275
1627.33587	10065.675
1630.63757	10262.375
1633.93707	10705.175
1637.23439	11470.275
1640.52951	12557.175
1643.82246	13911.575
1647.11321	15079.975
1650.40179	15446.175
1653.68819	14670.675
1656.97241	13067.875
1660.25446	11459.075
1663.53433	10236.375
1666.81203	9524.075
1670.08756	9064.675
1673.36092	8786.875
1676.63211	8596.075
1679.90115	8485.675
1683.16801	8359.975
1686.43272	8275.075
1689.69527	8211.475
1692.95567	8152.975
1696.2139	8100.175
1699.46999	8009.175
1702.72392	7989.275
1705.97571	7985.175
1709.22535	7991.475
1712.47284	8020.275
1715.71819	8041.975
1718.96139	7988.675
1722.20246	8003.775
1725.44139	7986.775
1728.67818	7975.775
1731.91284	7922.375
1735.14537	7894.775
1738.37576	7870.775
1741.60403	7845.175
1744.83017	7830.475
1748.05418	7838.275
1751.27607	7837.375
1754.49584	7804.575
1757.71349	7812.375
1760.92903	7775.875
1764.14244	7719.975
1767.35375	7716.975
1770.56294	7673.675
1773.77002	7661.675
1776.97499	7646.775
1780.17785	7648.375
1783.37861	7646.175
1786.57727	7663.375
1789.77382	7623.175
1792.96828	7613.875
1796.16064	7590.875
1799.3509	7585.775
1802.53907	7587.375
1805.72514	7545.875
1808.90913	7532.875
1812.09102	7502.775
1815.27083	7499.575
1818.44856	7495.475
1821.6242	7478.375
1824.79776	7463.475
1827.96924	7473.175
1831.13864	7460.875
1834.30597	7481.975
1837.47122	7453.375
1840.6344	7462.875
1843.7955	7453.775
1846.95454	7445.975
1850.11151	7425.675
1853.26642	7444.775
1856.41926	7442.775
1859.57004	7447.975
1862.71876	7428.675
1865.86542	7430.375
1869.01003	7443.375
1872.15258	7416.675
1875.29308	7427.375
1878.43152	7389.675
1881.56792	7414.975
1884.70227	7400.975
1887.83457	7402.575
1890.96482	7412.675
1894.09304	7377.375
1897.21921	7371.675
1900.34335	7359.675
1903.46544	7378.475
1906.58551	7374.575
1909.70353	7348.775
1912.81953	7330.375
1915.93349	7353.875
1919.04543	7329.975
1922.15534	7308.775
1925.26322	7310.575
1928.36908	7307.575
1931.47292	7260.875
1934.57473	7260.275
1937.67453	7255.275
1940.77232	7217.575
1943.86808	7216.275
1946.96184	7182.575
1950.05358	7170.675
1953.14331	7128.375
1956.23103	7110.275
1959.31675	7111.075
1962.40046	7085.575
1965.48217	7088.275
1968.56188	7052.775
1971.63959	7013.575
1974.7153	7011.175
1977.78901	6992.275
1980.86073	6966.175
1983.93046	6978.175
1986.99819	6943.275
1990.06394	6917.375
1993.1277	6906.275
1996.18947	6886.475
1999.24925	6866.075
2002.30706	6848.875
2005.36288	6826.575
2008.41672	6816.275
2011.46859	6791.675
2014.51848	6782.775
2017.56639	6752.375
2020.61233	6745.375
2023.6563	6720.875
2026.6983	6732.875
2029.73833	6713.275
2032.7764	6703.775
2035.8125	6683.575
2038.84664	6672.375
2041.87881	6656.675
2044.90903	6659.275
2047.93729	6637.775
2050.96359	6638.675
2053.98794	6624.575
2057.01034	6627.675
2060.03078	6647.375
2063.04927	6625.575
2066.06582	6624.475
2069.08042	6618.975
2072.09307	6619.675
2075.10378	6609.075
2078.11255	6611.875
2081.11938	6597.375
2084.12426	6595.275
2087.12722	6593.475
2090.12824	6596.175
2093.12732	6602.075
2096.12447	6585.075
2099.11969	6584.675
2102.11299	6585.275
2105.10435	6598.475
2108.09379	6616.775
2111.08131	6610.575
2114.0669	6622.475
2117.05057	6632.175
2120.03233	6634.975
2123.01216	6629.875
2125.99008	6646.375
2128.96609	6643.975
2131.94018	6653.175
2134.91236	6656.875
2137.88263	6673.975
2140.851	6654.275
2143.81746	6676.475
2146.78201	6665.875
2149.74466	6680.775
2152.7054	6680.775
2155.66425	6684.275
2158.6212	6681.875
2161.57625	6650.975
2164.52941	6660.775
2167.48067	6664.675
2170.43004	6672.875
2173.37752	6664.475
2176.32311	6669.275
2179.26681	6678.475
2182.20863	6664.475
2185.14856	6681.875
2188.08661	6675.275
2191.02278	6703.275
2193.95707	6670.775
2196.88948	6675.175
2199.82001	6667.575
2202.74867	6657.575
2205.67545	6660.375
2208.60037	6651.775
2211.52341	6648.775
2214.44458	6623.375
2217.36388	6628.975
2220.28132	6638.175
2223.1969	6612.475
2226.11061	6620.275
2229.02246	6599.975
2231.93245	6599.275
2234.84058	6590.375
2237.74686	6574.775
2240.65128	6550.475
2243.55385	6550.375
2246.45456	6537.575
2249.35343	6524.575
2252.25044	6542.375
2255.14561	6510.675
2258.03893	6516.975
2260.93041	6499.275
2263.82004	6470.875
2266.70783	6457.675
2269.59378	6446.675
2272.4779	6445.675
2275.36017	6434.175
2278.24061	6417.875
2281.11922	6429.975
2283.996	6410.275
2286.87094	6413.775
2289.74405	6380.375
2292.61534	6361.275
2295.4848	6365.275
2298.35243	6374.175
2301.21824	6381.975
2304.08223	6377.075
2306.94439	6397.175
2309.80474	6410.375
2312.66327	6399.375
2315.51999	6394.575
2318.37489	6385.475
2321.22797	6385.775
2324.07925	6367.575
2326.92871	6361.775
2329.77637	6359.175
2332.62222	6362.975
2335.46626	6340.975
2338.3085	6341.075
2341.14893	6355.375
2343.98756	6345.975
2346.8244	6352.175
2349.65943	6335.675
2352.49267	6348.475
2355.32411	6352.475
2358.15376	6342.775
2360.98161	6351.475
2363.80768	6341.275
2366.63195	6316.975
2369.45444	6320.375
2372.27514	6299.975
2375.09405	6301.475
2377.91118	6307.375
2380.72652	6284.175
2383.54009	6230.675
2386.35187	6247.975
2389.16188	6248.475
2391.97011	6237.975
2394.77657	6205.975
2397.58125	6211.775
2400.38416	6206.275
2403.18529	6192.875
2405.98466	6188.075
2408.78226	6167.275
2411.57809	6175.775
2414.37216	6159.575
2417.16446	6144.675
2419.955	6141.175
2422.74378	6153.975
2425.5308	6151.975
2428.31606	6155.075
2431.09956	6142.575
2433.88131	6123.375
2436.6613	6122.175
2439.43954	6108.375
2442.21603	6125.175
2444.99077	6117.475
2447.76377	6123.975
2450.53501	6126.775
2453.30451	6118.275
2456.07226	6101.875
2458.83827	6102.775
2461.60254	6101.975
2464.36507	6099.975
2467.12586	6100.275
2469.88492	6100.175
2472.64224	6112.375
2475.39782	6080.275
2478.15167	6104.375
2480.90379	6096.475
2483.65417	6110.375
2486.40283	6104.675
2489.14976	6109.975
2491.89497	6098.375
2494.63845	6110.375
2497.3802	6104.375
2500.12024	6092.375
2502.85855	6114.275
2505.59514	6107.475
2508.33002	6097.575
2511.06318	6076.575
2513.79462	6087.275
2516.52435	6060.375
2519.25237	6072.075
2521.97867	6053.175
2524.70327	6070.575
2527.42616	6056.275
2530.14734	6046.675
2532.86681	6042.075
2535.58458	6034.575
2538.30065	6038.675
2541.01501	6028.875
2543.72768	6020.575
2546.43864	6019.775
2549.14791	6018.475
2551.85548	6002.575
2554.56136	6001.175
2557.26554	5973.575
2559.96803	5999.075
2562.66883	5992.775
2565.36794	6000.975
2568.06536	5986.575
2570.7611	5972.775
2573.45514	5962.775
2576.14751	5980.975
2578.83819	5959.975
2581.52719	5964.075
2584.21451	5948.775
2586.90015	5963.875
2589.58411	5941.775
2592.2664	5956.675
2594.94701	5935.475
2597.62594	5924.275
2600.30321	5924.075
2602.9788	5927.675
2605.65273	5907.975
2608.32498	5919.275
2610.99557	5906.275
2613.66449	5904.175
2616.33175	5898.475
2618.99734	5908.875
2621.66128	5929.475
2624.32355	5903.375
2626.98416	5892.275
2629.64311	5919.075
2632.30041	5916.275
2634.95605	5886.175
2637.61004	5878.875
2640.26238	5884.175
2642.91306	5846.575
2645.56209	5862.175
2648.20948	5863.975
2650.85521	5855.875
2653.4993	5861.275
2656.14175	5869.875
2658.78255	5880.075
2661.42171	5870.275
2664.05923	5882.875
2666.6951	5875.675
2669.32934	5890.175
2671.96194	5873.975
2674.59291	5880.975
2677.22224	5868.775
2679.84993	5890.575
2682.476	5873.275
2685.10043	5866.975
2687.72324	5854.075
2690.34441	5850.775
2692.96396	5857.175
2695.58188	5853.375
2698.19818	5867.175
2700.81285	5859.275
2703.4259	5847.875
2706.03733	5837.075
2708.64714	5846.375
2711.25533	5856.575
2713.86191	5860.375
2716.46687	5877.975
2719.07021	5881.075
2721.67194	5880.975
2724.27206	5888.875
2726.87057	5890.675
2729.46747	5904.275
2732.06276	5892.375
2734.65644	5886.075
2737.24852	5886.775
2739.83899	5889.475
2742.42786	5909.175
2745.01513	5867.175
2747.60079	5879.875
2750.18486	5870.175
2752.76733	5886.575
2755.3482	5851.575
2757.92747	5870.875
2760.50515	5858.475
2763.08123	5845.075
2765.65573	5882.175
2768.22863	5871.675
2770.79994	5867.075
2773.36967	5857.575
2775.9378	5851.075
2778.50435	5847.175
2781.06932	5841.575
2783.6327	5845.275
2786.1945	5848.175
2788.75471	5845.075
2791.31335	5828.375
2793.87041	5827.575
2796.42589	5796.475
2798.97979	5834.575
2801.53212	5794.675
2804.08288	5797.575
2806.63206	5788.675
2809.17967	5760.875
2811.72571	5775.475
2814.27018	5768.875
2816.81308	5768.475
2819.35442	5744.375
2821.89419	5755.575
2824.43239	5750.975
2826.96904	5751.375
2829.50412	5759.475
2832.03763	5742.075
2834.56959	5749.975
2837.1	5751.675
2839.62884	5764.975
2842.15613	5763.375
2844.68186	5809.075
2847.20604	5803.275
2849.72867	5804.875
2852.24974	5791.275
2854.76927	5823.875
2857.28724	5814.175
2859.80367	5807.975
2862.31855	5796.075
2864.83189	5787.775
2867.34368	5798.375
2869.85393	5787.875
2872.36264	5804.275
2874.8698	5798.975
2877.37543	5803.175
2879.87952	5808.675
2882.38207	5810.175
2884.88308	5792.075
2887.38256	5812.675
2889.88051	5794.575
2892.37692	5810.275
2894.8718	5805.675
2897.36515	5829.475
2899.85698	5847.175
2902.34727	5857.375
2904.83604	5865.875
2907.32328	5869.775
2909.809	5873.775
2912.29319	5899.875
2914.77587	5893.875
2917.25702	5894.975
2919.73665	5883.675
2922.21476	5903.475
2924.69136	5890.375
2927.16644	5888.375
2929.64	5902.175
2932.11205	5889.575
2934.58258	5881.275
2937.05161	5894.375
2939.51912	5891.975
2941.98513	5867.675
2944.44962	5861.375
2946.91261	5830.775
2949.37409	5850.875
2951.83407	5833.475
2954.29254	5834.575
2956.74951	5820.475
2959.20498	5803.875
2961.65895	5812.875
2964.11142	5797.375
2966.56239	5792.475
2969.01186	5795.275
2971.45984	5758.975
2973.90632	5755.875
2976.35131	5730.875
2978.7948	5716.575
2981.23681	5709.075
2983.67732	5706.875
2986.11635	5677.375
2988.55388	5688.775
2990.98993	5688.875
2993.4245	5662.375
2995.85758	5681.675
2998.28917	5639.075
3000.71928	5643.575
3003.14791	5602.575
3005.57506	5612.475
3008.00073	5616.975
3010.42493	5599.375
3012.84764	5610.975
3015.26888	5632.975
3017.68865	5593.975
3020.10694	5595.075
3022.52376	5576.175
3024.9391	5577.175
3027.35298	5586.375
3029.76539	5567.075
3032.17632	5562.275
3034.5858	5534.575
3036.9938	5548.675
3039.40034	5546.675
3041.80542	5563.675
3044.20903	5534.175
3046.61118	5542.975
3049.01187	5554.075
3051.4111	5547.975
3053.80888	5542.075
3056.20519	5501.075
3058.60005	5512.675
3060.99345	5510.975
3063.3854	5494.575
3065.7759	5483.775
3068.16494	5483.275
3070.55254	5473.075
3072.93868	5471.775
3075.32338	5460.275
3077.70662	5463.175
3080.08842	5439.875
3082.46878	5443.375
3084.84769	5459.875
3087.22515	5447.175
3089.60118	5463.275
3091.97576	5447.075
3094.3489	5474.575
3096.72061	5480.275
3099.09087	5491.175
3101.4597	5479.475
3103.82709	5475.575
3106.19305	5481.775
3108.55757	5491.875
3110.92066	5474.275
3113.28232	5472.275
3115.64255	5460.875
3118.00134	5464.875
3120.35871	5458.575
3122.71466	5461.275
3125.06917	5446.875
3127.42226	5450.575
3129.77393	5448.475
3132.12417	5447.675
3134.47299	5459.375
3136.82039	5462.875
3139.16636	5470.075
3141.51092	5476.275
3143.85406	5498.475
3146.19579	5479.475
3148.53609	5503.175
3150.87499	5505.975
3153.21246	5512.575
3155.54853	5528.375
3157.88318	5533.575
3160.21642	5541.375
3162.54826	5552.875
3164.87868	5549.975
3167.2077	5551.175
3169.5353	5561.575
3171.86151	5569.475
3174.18631	5562.975
3176.5097	5582.275
3178.83169	5569.975
3181.15228	5561.575
3183.47147	5576.775
3185.78926	5581.375
3188.10565	5571.875
3190.42065	5570.475
3192.73424	5576.775
3195.04645	5578.875
3197.35725	5597.475
3199.66667	5590.175
3201.97469	5585.075
3204.28132	5601.975
3206.58656	5602.475
3208.8904	5619.575
3211.19287	5616.575
