Data from AgNPs_FTO_APTES_UA_1uM_CRN_5uM_R6G_10uM_NaF_0.1M_Addition_RamanShift__9__13-46-39-586.txt Node

Date: Thu Jan 27 13:46:39 GMT 2022
User: TCL
Spectrometer: QEP01345
Trigger mode: 4
Integration Time (sec): 7.000000E0
Scans to average: 10
Electric dark correction enabled: true
Nonlinearity correction enabled: false
Boxcar width: 0
XAxis mode: Raman Shifts
Number of Pixels in Spectrum: 1044
>>>>>Begin Spectral Data<<<<<
46.04893	0.475
50.45542	1.275
54.85868	-1.725
59.25871	-1.325
63.6555	55.275
68.04907	54.875
72.43941	56.875
76.82654	64.675
81.21044	64.575
85.59113	63.575
89.96862	70.275
94.34289	72.475
98.71396	79.775
103.08183	76.675
107.4465	79.775
111.80798	83.075
116.16626	81.275
120.52136	90.375
124.87327	88.875
129.222	89.775
133.56755	96.375
137.90993	101.375
142.24913	109.675
146.58517	118.075
150.91804	139.275
155.24774	164.275
159.57429	199.275
163.89768	256.675
168.21792	344.575
172.53501	454.775
176.84895	630.375
181.15975	882.075
185.46741	1236.275
189.77193	1708.175
194.07331	2279.275
198.37157	2937.875
202.6667	3631.475
206.9587	4321.775
211.24758	5002.975
215.53334	5679.075
219.81599	6373.375
224.09553	7160.275
228.37195	8026.875
232.64527	8928.175
236.91549	9969.075
241.18261	10981.575
245.44663	11923.975
249.70755	12805.675
253.96539	13582.975
258.22014	14260.975
262.4718	14764.375
266.72039	15156.675
270.96589	15329.775
275.20832	15327.075
279.44768	15273.375
283.68397	15129.875
287.91719	14972.775
292.14735	14852.375
296.37445	14791.575
300.59849	14799.375
304.81948	14821.075
309.03742	14859.475
313.25231	14812.575
317.46415	14598.575
321.67296	14332.675
325.87872	14107.775
330.08145	13972.675
334.28114	13951.675
338.47781	14064.675
342.67145	14219.975
346.86207	14430.675
351.04966	14676.075
355.23424	14917.075
359.4158	15157.175
363.59435	15318.575
367.76989	15457.975
371.94243	15547.775
376.11196	15599.775
380.27849	15649.575
384.44203	15742.775
388.60257	15833.075
392.76012	15990.675
396.91468	16161.675
401.06626	16395.775
405.21485	16581.775
409.36047	16564.875
413.50311	16386.475
417.64277	16259.975
421.77947	16324.375
425.9132	16418.875
430.04396	16514.075
434.17176	16566.675
438.2966	16635.175
442.41849	16763.375
446.53742	17026.875
450.6534	17393.975
454.76644	17610.175
458.87653	17710.875
462.98368	17684.775
467.08789	17555.275
471.18916	17382.475
475.2875	17136.275
479.38291	16958.775
483.4754	16858.575
487.56496	16776.975
491.6516	16601.275
495.73531	16462.575
499.81612	16409.775
503.89401	16495.975
507.96899	16619.775
512.04106	16636.175
516.11023	16553.975
520.1765	16458.075
524.23987	16285.975
528.30034	16189.775
532.35792	16033.975
536.41261	15894.875
540.46441	15760.675
544.51333	15754.375
548.55936	15884.275
552.60252	16136.575
556.64279	16369.375
560.6802	16629.675
564.71473	16676.575
568.7464	16826.575
572.7752	17161.475
576.80114	17590.775
580.82422	18093.875
584.84444	18695.775
588.86181	19443.775
592.87633	20090.175
596.888	19968.975
600.89682	19234.875
604.9028	18889.775
608.90594	19715.275
612.90624	20807.175
616.90371	19885.575
620.89834	17440.175
624.89015	16333.775
628.87913	16150.475
632.86528	16289.775
636.84862	16321.475
640.82913	16163.075
644.80683	15815.475
648.78172	15625.975
652.75379	15639.375
656.72306	15795.275
660.68952	16004.475
664.65319	15890.475
668.61405	15697.075
672.57211	15687.075
676.52738	15729.775
680.47986	15700.075
684.42955	15638.075
688.37646	15565.875
692.32058	15613.075
696.26192	15803.475
700.20048	15985.875
704.13626	16094.175
708.06928	16118.075
711.99952	16078.575
715.927	16051.975
719.85171	16061.575
723.77365	15999.975
727.69284	15835.175
731.60928	15617.575
735.52295	15546.475
739.43388	15577.075
743.34206	15574.775
747.24749	15672.475
751.15017	15780.475
755.05012	15986.775
758.94733	16316.175
762.8418	16909.175
766.73354	17773.475
770.62254	18655.875
774.50882	18798.575
778.39237	18181.275
782.27321	17306.975
786.15132	16505.175
790.02671	16021.475
793.89938	15749.675
797.76935	15614.075
801.6366	15571.775
805.50115	15509.975
809.36299	15443.575
813.22213	15368.275
817.07857	15291.875
820.93231	15239.175
824.78336	15190.275
828.63172	15185.475
832.47738	15180.975
836.32036	15138.275
840.16066	15170.775
843.99827	15127.175
847.8332	15128.875
851.66546	15090.575
855.49504	15088.075
859.32195	15124.075
863.1462	15116.075
866.96777	15078.975
870.78668	15068.275
874.60293	15087.975
878.41652	15107.675
882.22745	15135.875
886.03573	15189.175
889.84136	15202.175
893.64433	15159.075
897.44466	15114.975
901.24235	15063.075
905.0374	15024.375
908.8298	14972.175
912.61957	14963.775
916.40671	15081.575
920.19121	15232.075
923.97308	15391.475
927.75233	15371.575
931.52895	15303.075
935.30295	15114.675
939.07433	14891.575
942.84309	14724.175
946.60924	14658.175
950.37278	14600.075
954.13371	14614.475
957.89203	14602.275
961.64774	14557.375
965.40086	14560.675
969.15137	14503.275
972.89929	14476.475
976.64461	14438.675
980.38733	14438.875
984.12747	14445.975
987.86502	14509.475
991.59999	14540.675
995.33237	14661.275
999.06217	14847.975
1002.78939	15069.575
1006.51404	15298.275
1010.23611	15541.775
1013.95561	15668.875
1017.67255	15679.375
1021.38692	15604.275
1025.09872	15399.375
1028.80796	15219.075
1032.51465	15203.575
1036.21877	15284.675
1039.92035	15358.775
1043.61937	15356.675
1047.31584	15320.575
1051.00976	15319.875
1054.70114	15313.375
1058.38998	15383.975
1062.07627	15496.575
1065.76003	15598.375
1069.44126	15767.975
1073.11995	16021.675
1076.79611	16254.775
1080.46974	16363.775
1084.14085	16412.675
1087.80943	16504.775
1091.47549	16625.575
1095.13903	16678.375
1098.80005	16519.275
1102.45857	16224.875
1106.11456	15918.375
1109.76805	15773.775
1113.41903	15696.975
1117.06751	15749.175
1120.71348	15886.375
1124.35696	16003.075
1127.99793	16143.575
1131.63641	16256.675
1135.2724	16206.175
1138.90589	16133.275
1142.5369	16091.875
1146.16542	16188.075
1149.79145	16261.975
1153.415	16352.475
1157.03607	16409.475
1160.65467	16765.975
1164.27079	17355.375
1167.88443	18051.075
1171.49561	18810.475
1175.10432	19694.875
1178.71056	20805.275
1182.31434	21885.175
1185.91565	22520.675
1189.51451	22556.675
1193.11091	22219.575
1196.70485	21670.875
1200.29634	21008.875
1203.88538	20536.175
1207.47197	20256.475
1211.05612	20041.275
1214.63782	19719.275
1218.21708	19272.875
1221.79391	18749.575
1225.36829	18449.275
1228.94024	18246.575
1232.50976	18108.275
1236.07685	17973.375
1239.6415	17841.775
1243.20374	17860.475
1246.76355	17954.875
1250.32093	18106.375
1253.8759	18419.875
1257.42845	18833.675
1260.97859	19228.575
1264.52631	19729.875
1268.07163	20181.675
1271.61453	20598.575
1275.15503	21006.175
1278.69312	21455.575
1282.22882	21911.675
1285.76211	22484.775
1289.29301	23151.775
1292.82151	23985.175
1296.34761	25020.975
1299.87133	26245.375
1303.39266	27461.175
1306.9116	28545.775
1310.42815	29439.575
1313.94233	29760.375
1317.45412	29519.475
1320.96354	28997.675
1324.47058	28665.675
1327.97525	28456.475
1331.47754	28317.275
1334.97747	28184.475
1338.47502	28029.775
1341.97022	27840.475
1345.46305	27614.875
1348.95352	27477.275
1352.44163	27476.775
1355.92738	27894.775
1359.41078	28717.275
1362.89183	29527.675
1366.37053	29280.975
1369.84688	27455.175
1373.32088	24887.375
1376.79254	22962.675
1380.26186	22164.175
1383.72883	22098.875
1387.19347	22115.675
1390.65578	21847.075
1394.11575	21657.575
1397.57339	21697.775
1401.0287	21957.175
1404.48168	22212.375
1407.93234	22236.275
1411.38068	21940.975
1414.82669	21418.175
1418.27039	20766.275
1421.71177	20111.975
1425.15083	19548.275
1428.58758	19351.575
1432.02203	19447.775
1435.45416	19858.075
1438.88399	20375.375
1442.31151	20714.775
1445.73673	20860.475
1449.15965	20952.675
1452.58027	20935.175
1455.9986	20839.575
1459.41463	20930.175
1462.82837	21181.275
1466.23982	21485.975
1469.64898	21867.575
1473.05586	22114.375
1476.46045	22157.275
1479.86276	22044.875
1483.26279	21922.375
1486.66054	21797.875
1490.05602	21868.175
1493.44922	22139.875
1496.84016	22479.375
1500.22882	22913.775
1503.61521	23502.475
1506.99934	24184.075
1510.38121	24745.375
1513.76081	24804.875
1517.13816	24357.675
1520.51324	23726.675
1523.88607	23237.475
1527.25665	22978.275
1530.62498	22915.475
1533.99105	22754.675
1537.35488	22406.775
1540.71647	21967.775
1544.07581	21459.575
1547.4329	20906.675
1550.78776	20558.175
1554.14038	20253.975
1557.49077	20108.075
1560.83892	19995.975
1564.18484	19963.975
1567.52853	19992.375
1570.86999	20161.275
1574.20922	20450.575
1577.54624	20698.675
1580.88103	20803.575
1584.2136	20902.075
1587.54395	21365.375
1590.87208	22212.975
1594.19801	23328.975
1597.52172	24388.275
1600.84321	24689.775
1604.16251	23771.675
1607.47959	22185.075
1610.79447	20548.175
1614.10715	19064.675
1617.41763	17844.075
1620.7259	17003.575
1624.03199	16545.275
1627.33587	16491.075
1630.63757	16855.175
1633.93707	17721.175
1637.23439	19160.875
1640.52951	21323.975
1643.82246	23857.775
1647.11321	25971.175
1650.40179	26450.075
1653.68819	24767.075
1656.97241	21728.375
1660.25446	18898.575
1663.53433	16825.275
1666.81203	15547.775
1670.08756	14738.375
1673.36092	14228.575
1676.63211	13919.475
1679.90115	13649.375
1683.16801	13489.075
1686.43272	13341.075
1689.69527	13242.475
1692.95567	13140.675
1696.2139	13052.675
1699.46999	12982.175
1702.72392	12939.675
1705.97571	12931.475
1709.22535	12953.275
1712.47284	12931.575
1715.71819	12947.775
1718.96139	12925.675
1722.20246	12869.175
1725.44139	12848.075
1728.67818	12776.275
1731.91284	12700.975
1735.14537	12622.775
1738.37576	12564.975
1741.60403	12523.475
1744.83017	12496.175
1748.05418	12446.975
1751.27607	12441.275
1754.49584	12368.975
1757.71349	12376.175
1760.92903	12373.475
1764.14244	12323.775
1767.35375	12314.975
1770.56294	12325.075
1773.77002	12304.675
1776.97499	12271.775
1780.17785	12287.375
1783.37861	12267.875
1786.57727	12273.775
1789.77382	12238.675
1792.96828	12220.675
1796.16064	12188.075
1799.3509	12169.075
1802.53907	12137.975
1805.72514	12143.775
1808.90913	12096.075
1812.09102	12083.775
1815.27083	12036.275
1818.44856	12031.075
1821.6242	12010.575
1824.79776	11992.375
1827.96924	11982.575
1831.13864	11974.975
1834.30597	11971.175
1837.47122	11980.075
1840.6344	11971.975
1843.7955	11963.775
1846.95454	11943.775
1850.11151	11948.675
1853.26642	11953.275
1856.41926	11961.375
1859.57004	11957.275
1862.71876	11937.175
1865.86542	11892.375
1869.01003	11883.275
1872.15258	11862.575
1875.29308	11822.675
1878.43152	11824.775
1881.56792	11788.975
1884.70227	11784.875
1887.83457	11755.575
1890.96482	11723.975
1894.09304	11711.375
1897.21921	11727.475
1900.34335	11732.075
1903.46544	11691.975
1906.58551	11693.575
1909.70353	11634.775
1912.81953	11632.575
1915.93349	11612.175
1919.04543	11569.775
1922.15534	11558.575
1925.26322	11554.375
1928.36908	11513.675
1931.47292	11493.375
1934.57473	11465.475
1937.67453	11446.575
1940.77232	11397.775
1943.86808	11363.975
1946.96184	11326.975
1950.05358	11308.375
1953.14331	11283.675
1956.23103	11230.075
1959.31675	11206.875
1962.40046	11207.875
1965.48217	11158.175
1968.56188	11124.675
1971.63959	11075.475
1974.7153	11047.675
1977.78901	11007.575
1980.86073	10967.775
1983.93046	10961.975
1986.99819	10903.075
1990.06394	10879.375
1993.1277	10851.375
1996.18947	10818.375
1999.24925	10791.275
2002.30706	10738.675
2005.36288	10708.175
2008.41672	10694.075
2011.46859	10656.075
2014.51848	10632.475
2017.56639	10609.475
2020.61233	10573.575
2023.6563	10550.675
2026.6983	10534.975
2029.73833	10492.675
2032.7764	10487.775
2035.8125	10468.475
2038.84664	10426.375
2041.87881	10423.675
2044.90903	10392.075
2047.93729	10358.475
2050.96359	10374.775
2053.98794	10335.775
2057.01034	10323.775
2060.03078	10326.475
2063.04927	10317.475
2066.06582	10333.775
2069.08042	10292.475
2072.09307	10295.775
2075.10378	10287.575
2078.11255	10266.775
2081.11938	10295.675
2084.12426	10259.275
2087.12722	10262.175
2090.12824	10263.275
2093.12732	10275.275
2096.12447	10241.775
2099.11969	10248.375
2102.11299	10256.975
2105.10435	10283.075
2108.09379	10286.075
2111.08131	10281.175
2114.0669	10276.375
2117.05057	10298.675
2120.03233	10295.375
2123.01216	10272.375
2125.99008	10293.575
2128.96609	10299.575
2131.94018	10322.075
2134.91236	10325.475
2137.88263	10340.175
2140.851	10337.975
2143.81746	10331.875
2146.78201	10305.575
2149.74466	10325.475
2152.7054	10344.475
2155.66425	10327.175
2158.6212	10342.375
2161.57625	10292.675
2164.52941	10290.475
2167.48067	10322.175
2170.43004	10294.175
2173.37752	10284.175
2176.32311	10294.475
2179.26681	10274.375
2182.20863	10296.075
2185.14856	10309.375
2188.08661	10291.675
2191.02278	10285.575
2193.95707	10289.875
2196.88948	10259.875
2199.82001	10249.175
2202.74867	10236.375
2205.67545	10257.475
2208.60037	10220.075
2211.52341	10186.675
2214.44458	10198.875
2217.36388	10162.275
2220.28132	10123.375
2223.1969	10121.375
2226.11061	10111.975
2229.02246	10118.575
2231.93245	10094.875
2234.84058	10065.875
2237.74686	10034.275
2240.65128	10041.375
2243.55385	10008.375
2246.45456	9997.575
2249.35343	9979.575
2252.25044	9979.475
2255.14561	9958.175
2258.03893	9940.375
2260.93041	9912.275
2263.82004	9895.375
2266.70783	9876.975
2269.59378	9838.975
2272.4779	9824.675
2275.36017	9817.675
2278.24061	9794.575
2281.11922	9774.275
2283.996	9766.675
2286.87094	9760.275
2289.74405	9714.875
2292.61534	9701.275
2295.4848	9681.575
2298.35243	9697.675
2301.21824	9701.475
2304.08223	9689.075
2306.94439	9680.575
2309.80474	9664.175
2312.66327	9657.175
2315.51999	9654.275
2318.37489	9648.775
2321.22797	9631.675
2324.07925	9624.675
2326.92871	9613.475
2329.77637	9582.075
2332.62222	9572.775
2335.46626	9548.975
2338.3085	9526.475
2341.14893	9530.475
2343.98756	9544.775
2346.8244	9509.275
2349.65943	9523.575
2352.49267	9503.975
2355.32411	9521.975
2358.15376	9505.575
2360.98161	9484.075
2363.80768	9493.475
2366.63195	9500.875
2369.45444	9494.275
2372.27514	9459.875
2375.09405	9454.175
2377.91118	9429.275
2380.72652	9422.375
2383.54009	9411.975
2386.35187	9414.875
2389.16188	9360.975
2391.97011	9336.775
2394.77657	9308.975
2397.58125	9310.775
2400.38416	9294.375
2403.18529	9292.175
2405.98466	9268.775
2408.78226	9286.375
2411.57809	9246.675
2414.37216	9214.275
2417.16446	9221.775
2419.955	9223.075
2422.74378	9218.675
2425.5308	9217.075
2428.31606	9192.375
2431.09956	9186.675
2433.88131	9198.075
2436.6613	9178.375
2439.43954	9172.275
2442.21603	9156.075
2444.99077	9124.775
2447.76377	9182.075
2450.53501	9163.175
2453.30451	9142.875
2456.07226	9112.175
2458.83827	9113.375
2461.60254	9102.275
2464.36507	9124.075
2467.12586	9098.775
2469.88492	9079.675
2472.64224	9086.375
2475.39782	9108.775
2478.15167	9087.975
2480.90379	9058.875
2483.65417	9080.075
2486.40283	9079.875
2489.14976	9075.475
2491.89497	9073.075
2494.63845	9079.875
2497.3802	9024.275
2500.12024	9049.675
2502.85855	9058.975
2505.59514	9029.875
2508.33002	9017.575
2511.06318	8996.775
2513.79462	9024.875
2516.52435	8996.675
2519.25237	8991.975
2521.97867	8971.675
2524.70327	8975.875
2527.42616	8948.175
2530.14734	8932.375
2532.86681	8928.875
2535.58458	8926.675
2538.30065	8920.675
2541.01501	8907.975
2543.72768	8919.375
2546.43864	8885.575
2549.14791	8898.975
2551.85548	8847.075
2554.56136	8853.175
2557.26554	8851.475
2559.96803	8830.675
2562.66883	8827.975
2565.36794	8821.875
2568.06536	8813.375
2570.7611	8773.575
2573.45514	8766.475
2576.14751	8776.475
2578.83819	8758.475
2581.52719	8731.175
2584.21451	8747.475
2586.90015	8711.475
2589.58411	8690.575
2592.2664	8709.675
2594.94701	8694.075
2597.62594	8686.475
2600.30321	8654.075
2602.9788	8665.275
2605.65273	8676.575
2608.32498	8630.375
2610.99557	8632.275
2613.66449	8638.975
2616.33175	8633.075
2618.99734	8635.175
2621.66128	8609.175
2624.32355	8595.875
2626.98416	8604.975
2629.64311	8586.475
2632.30041	8574.575
2634.95605	8567.575
2637.61004	8542.675
2640.26238	8529.475
2642.91306	8531.175
2645.56209	8553.375
2648.20948	8536.875
2650.85521	8532.575
2653.4993	8530.875
2656.14175	8522.475
2658.78255	8528.375
2661.42171	8546.175
2664.05923	8532.275
2666.6951	8539.975
2669.32934	8559.075
2671.96194	8527.575
2674.59291	8561.375
2677.22224	8549.675
2679.84993	8545.775
2682.476	8540.575
2685.10043	8529.975
2687.72324	8505.375
2690.34441	8522.175
2692.96396	8528.575
2695.58188	8502.975
2698.19818	8513.075
2700.81285	8528.975
2703.4259	8520.875
2706.03733	8501.075
2708.64714	8506.875
2711.25533	8516.975
2713.86191	8509.375
2716.46687	8509.375
2719.07021	8522.475
2721.67194	8527.975
2724.27206	8521.275
2726.87057	8548.375
2729.46747	8564.375
2732.06276	8550.475
2734.65644	8535.175
2737.24852	8528.675
2739.83899	8536.275
2742.42786	8522.975
2745.01513	8501.775
2747.60079	8490.775
2750.18486	8474.875
2752.76733	8467.775
2755.3482	8474.975
2757.92747	8469.775
2760.50515	8448.675
2763.08123	8451.275
2765.65573	8441.975
2768.22863	8467.475
2770.79994	8444.975
2773.36967	8433.275
2775.9378	8404.675
2778.50435	8415.475
2781.06932	8393.475
2783.6327	8402.775
2786.1945	8387.975
2788.75471	8359.275
2791.31335	8347.575
2793.87041	8336.575
2796.42589	8329.275
2798.97979	8315.675
2801.53212	8299.375
2804.08288	8301.375
2806.63206	8255.475
2809.17967	8258.675
2811.72571	8235.875
2814.27018	8218.475
2816.81308	8208.175
2819.35442	8199.375
2821.89419	8198.175
2824.43239	8190.675
2826.96904	8174.575
2829.50412	8172.675
2832.03763	8168.575
2834.56959	8151.975
2837.1	8132.675
2839.62884	8118.675
2842.15613	8134.075
2844.68186	8150.975
2847.20604	8152.475
2849.72867	8182.175
2852.24974	8157.575
2854.76927	8162.675
2857.28724	8108.275
2859.80367	8114.675
2862.31855	8128.875
2864.83189	8108.575
2867.34368	8078.775
2869.85393	8085.175
2872.36264	8061.675
2874.8698	8085.475
2877.37543	8064.775
2879.87952	8063.575
2882.38207	8050.775
2884.88308	8034.275
2887.38256	8059.375
2889.88051	8052.675
2892.37692	8026.675
2894.8718	8026.275
2897.36515	8050.075
2899.85698	8032.975
2902.34727	8054.975
2904.83604	8047.675
2907.32328	8060.475
2909.809	8067.275
2912.29319	8058.875
2914.77587	8070.175
2917.25702	8041.875
2919.73665	8047.475
2922.21476	8057.775
2924.69136	8044.275
2927.16644	8054.875
2929.64	8047.175
2932.11205	8037.975
2934.58258	7990.775
2937.05161	8018.475
2939.51912	8025.375
2941.98513	7981.975
2944.44962	7976.075
2946.91261	7928.875
2949.37409	7942.675
2951.83407	7920.675
2954.29254	7933.675
2956.74951	7898.675
2959.20498	7910.775
2961.65895	7913.875
2964.11142	7907.975
2966.56239	7887.275
2969.01186	7900.275
2971.45984	7853.575
2973.90632	7868.475
2976.35131	7853.975
2978.7948	7820.975
2981.23681	7815.475
2983.67732	7788.175
2986.11635	7786.475
2988.55388	7755.675
2990.98993	7744.075
2993.4245	7733.175
2995.85758	7731.575
2998.28917	7702.475
3000.71928	7682.275
3003.14791	7659.675
3005.57506	7655.875
3008.00073	7646.375
3010.42493	7638.575
3012.84764	7622.375
3015.26888	7607.375
3017.68865	7586.875
3020.10694	7596.475
3022.52376	7572.375
3024.9391	7556.275
3027.35298	7566.175
3029.76539	7563.275
3032.17632	7532.475
3034.5858	7536.275
3036.9938	7521.675
3039.40034	7506.275
3041.80542	7510.475
3044.20903	7508.675
3046.61118	7493.475
3049.01187	7488.775
3051.4111	7465.475
3053.80888	7484.875
3056.20519	7463.875
3058.60005	7413.775
3060.99345	7432.175
3063.3854	7380.175
3065.7759	7364.475
3068.16494	7365.475
3070.55254	7325.975
3072.93868	7334.775
3075.32338	7319.275
3077.70662	7314.075
3080.08842	7290.875
3082.46878	7274.375
3084.84769	7270.275
3087.22515	7257.275
3089.60118	7270.775
3091.97576	7230.575
3094.3489	7265.975
3096.72061	7258.375
3099.09087	7240.775
3101.4597	7237.175
3103.82709	7240.175
3106.19305	7230.375
3108.55757	7223.475
3110.92066	7200.975
3113.28232	7179.775
3115.64255	7169.275
3118.00134	7187.775
3120.35871	7166.575
3122.71466	7152.575
3125.06917	7149.175
3127.42226	7121.575
3129.77393	7115.575
3132.12417	7110.975
3134.47299	7108.075
3136.82039	7118.975
3139.16636	7114.075
3141.51092	7106.075
3143.85406	7124.575
3146.19579	7122.375
3148.53609	7111.375
3150.87499	7128.475
3153.21246	7116.875
3155.54853	7145.475
3157.88318	7109.175
3160.21642	7119.475
3162.54826	7109.475
3164.87868	7118.275
3167.2077	7123.975
3169.5353	7117.975
