Data from AgNPs_FTO_APTES_UA_1uM_CRN_2uM_R6G_10uM_NaF_0.1M_Addition_RamanShift__0__12-55-19-527.txt Node

Date: Thu Jan 27 12:55:19 GMT 2022
User: TCL
Spectrometer: QEP01345
Trigger mode: 4
Integration Time (sec): 7.000000E0
Scans to average: 10
Electric dark correction enabled: true
Nonlinearity correction enabled: false
Boxcar width: 0
XAxis mode: Raman Shifts
Number of Pixels in Spectrum: 1044
>>>>>Begin Spectral Data<<<<<
46.04893	0.575
50.45542	0.475
54.85868	-0.525
59.25871	-0.925
63.6555	21.875
68.04907	20.875
72.43941	22.675
76.82654	23.975
81.21044	25.675
85.59113	23.975
89.96862	25.175
94.34289	26.175
98.71396	27.175
103.08183	26.275
107.4465	31.975
111.80798	31.575
116.16626	32.475
120.52136	33.975
124.87327	33.275
129.222	30.975
133.56755	34.575
137.90993	36.875
142.24913	38.975
146.58517	48.975
150.91804	53.375
155.24774	63.275
159.57429	77.975
163.89768	94.875
168.21792	127.775
172.53501	173.975
176.84895	241.875
181.15975	335.275
185.46741	466.375
189.77193	646.075
194.07331	871.275
198.37157	1128.375
202.6667	1399.675
206.9587	1670.175
211.24758	1920.875
215.53334	2177.275
219.81599	2470.075
224.09553	2761.875
228.37195	3095.875
232.64527	3474.475
236.91549	3846.075
241.18261	4252.875
245.44663	4619.875
249.70755	4972.875
253.96539	5280.175
258.22014	5525.675
262.4718	5756.975
266.72039	5882.175
270.96589	5966.475
275.20832	5950.775
279.44768	5919.575
283.68397	5835.575
287.91719	5766.875
292.14735	5674.375
296.37445	5653.175
300.59849	5664.875
304.81948	5709.775
309.03742	5729.875
313.25231	5708.375
317.46415	5651.475
321.67296	5581.975
325.87872	5510.075
330.08145	5506.375
334.28114	5512.275
338.47781	5548.575
342.67145	5612.775
346.86207	5696.875
351.04966	5800.175
355.23424	5927.675
359.4158	6031.175
363.59435	6117.075
367.76989	6159.975
371.94243	6205.175
376.11196	6255.375
380.27849	6312.375
384.44203	6379.275
388.60257	6413.975
392.76012	6469.375
396.91468	6555.675
401.06626	6660.575
405.21485	6776.375
409.36047	6847.275
413.50311	6937.475
417.64277	7053.775
421.77947	7350.375
425.9132	7695.775
430.04396	8008.975
434.17176	8023.675
438.2966	7848.275
442.41849	7646.675
446.53742	7602.975
450.6534	7675.575
454.76644	7768.475
458.87653	7722.275
462.98368	7563.075
467.08789	7395.675
471.18916	7265.575
475.2875	7137.575
479.38291	7074.775
483.4754	7087.975
487.56496	7147.175
491.6516	7168.175
495.73531	7166.875
499.81612	7115.275
503.89401	7069.475
507.96899	6996.575
512.04106	6915.575
516.11023	6860.475
520.1765	6863.575
524.23987	6846.775
528.30034	6855.575
532.35792	6815.775
536.41261	6744.975
540.46441	6639.575
544.51333	6609.975
548.55936	6626.675
552.60252	6682.275
556.64279	6787.975
560.6802	6840.675
564.71473	6850.375
568.7464	6848.775
572.7752	6956.575
576.80114	7013.875
580.82422	7123.675
584.84444	7304.875
588.86181	7590.875
592.87633	7920.675
596.888	8079.275
600.89682	8014.475
604.9028	8056.875
608.90594	8516.975
612.90624	9030.575
616.90371	8661.675
620.89834	7637.575
624.89015	7109.075
628.87913	7024.675
632.86528	6941.475
636.84862	6876.475
640.82913	6750.475
644.80683	6626.575
648.78172	6540.775
652.75379	6537.475
656.72306	6615.275
660.68952	6708.375
664.65319	6722.475
668.61405	6627.075
672.57211	6638.775
676.52738	6670.675
680.47986	6684.275
684.42955	6676.175
688.37646	6726.875
692.32058	6910.975
696.26192	7200.275
700.20048	7566.875
704.13626	7853.575
708.06928	7929.175
711.99952	7765.275
715.927	7527.375
719.85171	7329.675
723.77365	7158.075
727.69284	6972.975
731.60928	6860.575
735.52295	6811.075
739.43388	6823.875
743.34206	6789.275
747.24749	6765.375
751.15017	6778.575
755.05012	6826.575
758.94733	6942.775
762.8418	7102.375
766.73354	7393.175
770.62254	7752.575
774.50882	7873.075
778.39237	7722.775
782.27321	7395.375
786.15132	7094.975
790.02671	6891.975
793.89938	6827.575
797.76935	6802.775
801.6366	6812.775
805.50115	6778.775
809.36299	6758.575
813.22213	6740.975
817.07857	6696.675
820.93231	6686.475
824.78336	6709.275
828.63172	6747.775
832.47738	6744.475
836.32036	6774.975
840.16066	6849.175
843.99827	6885.275
847.8332	6850.375
851.66546	6774.975
855.49504	6756.875
859.32195	6765.675
863.1462	6731.375
866.96777	6692.475
870.78668	6667.875
874.60293	6654.075
878.41652	6656.675
882.22745	6698.875
886.03573	6717.975
889.84136	6735.175
893.64433	6676.875
897.44466	6656.775
901.24235	6626.975
905.0374	6624.675
908.8298	6614.375
912.61957	6629.975
916.40671	6686.975
920.19121	6725.975
923.97308	6835.575
927.75233	6911.675
931.52895	6907.375
935.30295	6881.175
939.07433	6813.375
942.84309	6724.375
946.60924	6695.675
950.37278	6695.375
954.13371	6671.575
957.89203	6592.075
961.64774	6563.675
965.40086	6549.975
969.15137	6540.475
972.89929	6568.675
976.64461	6593.275
980.38733	6653.175
984.12747	6687.775
987.86502	6786.775
991.59999	6852.775
995.33237	7011.575
999.06217	7247.775
1002.78939	7493.875
1006.51404	7610.875
1010.23611	7675.775
1013.95561	7689.075
1017.67255	7631.775
1021.38692	7547.175
1025.09872	7505.775
1028.80796	7696.675
1032.51465	8112.775
1036.21877	8499.875
1039.92035	8597.375
1043.61937	8399.675
1047.31584	8064.875
1051.00976	7722.575
1054.70114	7505.075
1058.38998	7421.375
1062.07627	7362.875
1065.76003	7331.175
1069.44126	7347.175
1073.11995	7431.775
1076.79611	7533.775
1080.46974	7624.475
1084.14085	7660.175
1087.80943	7725.775
1091.47549	7707.875
1095.13903	7708.875
1098.80005	7617.475
1102.45857	7496.175
1106.11456	7457.875
1109.76805	7456.275
1113.41903	7459.375
1117.06751	7462.175
1120.71348	7485.575
1124.35696	7471.575
1127.99793	7533.975
1131.63641	7546.275
1135.2724	7500.875
1138.90589	7456.575
1142.5369	7409.175
1146.16542	7380.575
1149.79145	7377.475
1153.415	7374.375
1157.03607	7399.775
1160.65467	7472.575
1164.27079	7666.075
1167.88443	7883.575
1171.49561	8248.475
1175.10432	8662.775
1178.71056	9214.375
1182.31434	9798.175
1185.91565	10140.275
1189.51451	10129.575
1193.11091	9873.475
1196.70485	9557.375
1200.29634	9270.675
1203.88538	9101.475
1207.47197	8961.375
1211.05612	8832.075
1214.63782	8683.975
1218.21708	8651.575
1221.79391	8629.975
1225.36829	8650.475
1228.94024	8580.175
1232.50976	8467.075
1236.07685	8341.075
1239.6415	8350.875
1243.20374	8469.675
1246.76355	8690.275
1250.32093	8994.175
1253.8759	9321.475
1257.42845	9616.575
1260.97859	9906.775
1264.52631	10116.975
1268.07163	10326.275
1271.61453	10509.275
1275.15503	10634.875
1278.69312	10768.175
1282.22882	10753.375
1285.76211	10731.575
1289.29301	10802.075
1292.82151	10921.275
1296.34761	11210.375
1299.87133	11730.375
1303.39266	12397.675
1306.9116	13180.475
1310.42815	13691.075
1313.94233	13789.475
1317.45412	13467.275
1320.96354	12956.875
1324.47058	12582.075
1327.97525	12356.775
1331.47754	11676.275
1334.97747	11364.775
1338.47502	11197.875
1341.97022	11020.775
1345.46305	10884.475
1348.95352	10852.575
1352.44163	11046.375
1355.92738	11623.575
1359.41078	12399.275
1362.89183	13005.075
1366.37053	12905.675
1369.84688	12007.975
1373.32088	10943.575
1376.79254	10263.675
1380.26186	10155.575
1383.72883	10412.475
1387.19347	10715.875
1390.65578	10614.675
1394.11575	10131.175
1397.57339	9683.675
1401.0287	9444.375
1404.48168	9325.575
1407.93234	9260.475
1411.38068	9167.175
1414.82669	9037.975
1418.27039	8878.375
1421.71177	8713.475
1425.15083	8553.875
1428.58758	8481.975
1432.02203	8580.575
1435.45416	8759.075
1438.88399	8903.275
1442.31151	9021.075
1445.73673	9254.975
1449.15965	9355.475
1452.58027	9034.675
1455.9986	8882.775
1459.41463	8841.775
1462.82837	8924.475
1466.23982	9104.775
1469.64898	9272.375
1473.05586	9430.975
1476.46045	9556.275
1479.86276	9577.475
1483.26279	9546.075
1486.66054	9503.275
1490.05602	9541.275
1493.44922	9595.275
1496.84016	9645.775
1500.22882	9723.075
1503.61521	9880.275
1506.99934	10074.875
1510.38121	10274.975
1513.76081	10350.175
1517.13816	10192.275
1520.51324	9846.075
1523.88607	9573.575
1527.25665	9385.675
1530.62498	9327.675
1533.99105	9311.675
1537.35488	9264.975
1540.71647	9209.175
1544.07581	9096.775
1547.4329	9015.175
1550.78776	8933.275
1554.14038	8893.975
1557.49077	8864.075
1560.83892	8793.575
1564.18484	8756.675
1567.52853	8759.875
1570.86999	8810.775
1574.20922	8890.575
1577.54624	8950.675
1580.88103	8970.375
1584.2136	9067.675
1587.54395	9349.675
1590.87208	9880.075
1594.19801	10547.775
1597.52172	11221.275
1600.84321	11468.375
1604.16251	11052.675
1607.47959	10246.775
1610.79447	9428.275
1614.10715	8742.275
1617.41763	8336.575
1620.7259	8136.375
1624.03199	8119.475
1627.33587	8308.875
1630.63757	8673.775
1633.93707	9170.175
1637.23439	9825.275
1640.52951	10706.675
1643.82246	11727.575
1647.11321	12668.275
1650.40179	13159.075
1653.68819	13081.475
1656.97241	12252.475
1660.25446	11290.975
1663.53433	10600.375
1666.81203	9966.975
1670.08756	9357.975
1673.36092	8694.175
1676.63211	8174.975
1679.90115	7813.175
1683.16801	7675.575
1686.43272	7715.575
1689.69527	8006.375
1692.95567	8790.675
1696.2139	10179.675
1699.46999	11521.175
1702.72392	11723.875
1705.97571	10533.875
1709.22535	8992.475
1712.47284	7940.775
1715.71819	7354.175
1718.96139	7048.675
1722.20246	6856.775
1725.44139	6742.175
1728.67818	6679.775
1731.91284	6630.475
1735.14537	6646.475
1738.37576	6711.075
1741.60403	6806.175
1744.83017	6940.775
1748.05418	7161.075
1751.27607	7561.075
1754.49584	8268.775
1757.71349	9165.675
1760.92903	9629.475
1764.14244	9564.075
1767.35375	9458.475
1770.56294	9483.475
1773.77002	9105.275
1776.97499	8243.875
1780.17785	7447.975
1783.37861	6941.575
1786.57727	6642.175
1789.77382	6460.975
1792.96828	6347.175
1796.16064	6271.975
1799.3509	6195.175
1802.53907	6153.375
1805.72514	6101.475
1808.90913	6073.975
1812.09102	6062.575
1815.27083	6031.775
1818.44856	5993.575
1821.6242	5980.875
1824.79776	5961.575
1827.96924	5956.375
1831.13864	5953.175
1834.30597	5932.575
1837.47122	5933.875
1840.6344	5921.775
1843.7955	5916.775
1846.95454	5912.975
1850.11151	5904.975
1853.26642	5906.075
1856.41926	5926.675
1859.57004	5921.075
1862.71876	5897.275
1865.86542	5887.075
1869.01003	5899.275
1872.15258	5891.275
1875.29308	5877.975
1878.43152	5876.975
1881.56792	5883.675
1884.70227	5854.075
1887.83457	5874.775
1890.96482	5844.275
1894.09304	5871.075
1897.21921	5860.075
1900.34335	5852.075
1903.46544	5849.575
1906.58551	5829.575
1909.70353	5840.375
1912.81953	5838.975
1915.93349	5844.375
1919.04543	5821.775
1922.15534	5819.675
1925.26322	5823.875
1928.36908	5793.675
1931.47292	5810.975
1934.57473	5780.475
1937.67453	5787.775
1940.77232	5785.475
1943.86808	5764.575
1946.96184	5728.475
1950.05358	5722.375
1953.14331	5715.675
1956.23103	5702.375
1959.31675	5690.775
1962.40046	5665.075
1965.48217	5656.075
1968.56188	5651.675
1971.63959	5618.375
1974.7153	5628.975
1977.78901	5598.475
1980.86073	5590.275
1983.93046	5567.875
1986.99819	5554.975
1990.06394	5533.075
1993.1277	5525.875
1996.18947	5509.975
1999.24925	5499.175
2002.30706	5486.275
2005.36288	5485.175
2008.41672	5469.075
2011.46859	5450.475
2014.51848	5447.275
2017.56639	5436.875
2020.61233	5416.075
2023.6563	5406.875
2026.6983	5406.875
2029.73833	5385.975
2032.7764	5388.775
2035.8125	5394.475
2038.84664	5377.175
2041.87881	5385.575
2044.90903	5371.375
2047.93729	5364.175
2050.96359	5388.375
2053.98794	5421.675
2057.01034	5404.875
2060.03078	5378.675
2063.04927	5346.475
2066.06582	5355.275
2069.08042	5345.075
2072.09307	5351.575
2075.10378	5328.775
2078.11255	5349.075
2081.11938	5322.675
2084.12426	5330.175
2087.12722	5315.575
2090.12824	5323.475
2093.12732	5329.675
2096.12447	5327.075
2099.11969	5330.075
2102.11299	5352.075
2105.10435	5346.475
2108.09379	5344.975
2111.08131	5353.175
2114.0669	5370.575
2117.05057	5358.975
2120.03233	5362.475
2123.01216	5359.475
2125.99008	5377.775
2128.96609	5371.375
2131.94018	5392.675
2134.91236	5400.075
2137.88263	5393.475
2140.851	5401.475
2143.81746	5405.575
2146.78201	5398.475
2149.74466	5418.975
2152.7054	5427.675
2155.66425	5416.075
2158.6212	5413.575
2161.57625	5424.275
2164.52941	5439.875
2167.48067	5416.175
2170.43004	5414.575
2173.37752	5409.575
2176.32311	5414.175
2179.26681	5427.275
2182.20863	5404.875
2185.14856	5414.975
2188.08661	5432.875
2191.02278	5429.975
2193.95707	5425.875
2196.88948	5450.875
2199.82001	5433.275
2202.74867	5444.875
2205.67545	5458.375
2208.60037	5437.075
2211.52341	5455.275
2214.44458	5435.275
2217.36388	5415.575
2220.28132	5419.275
2223.1969	5411.675
2226.11061	5406.675
2229.02246	5407.275
2231.93245	5407.275
2234.84058	5387.275
2237.74686	5362.275
2240.65128	5380.175
2243.55385	5375.075
2246.45456	5362.675
2249.35343	5357.875
2252.25044	5353.875
2255.14561	5358.175
2258.03893	5543.975
2260.93041	5868.475
2263.82004	5607.675
2266.70783	5471.975
2269.59378	5395.375
2272.4779	5334.175
2275.36017	5313.575
2278.24061	5305.875
2281.11922	5273.775
2283.996	5274.575
2286.87094	5290.575
2289.74405	5283.875
2292.61534	5269.575
2295.4848	5278.275
2298.35243	5296.175
2301.21824	5288.475
2304.08223	5302.275
2306.94439	5316.075
2309.80474	5318.375
2312.66327	5350.775
2315.51999	5335.575
2318.37489	5345.675
2321.22797	5347.575
2324.07925	5357.075
2326.92871	5379.175
2329.77637	5376.575
2332.62222	5376.975
2335.46626	5390.075
2338.3085	5409.475
2341.14893	5410.475
2343.98756	5397.175
2346.8244	5376.475
2349.65943	5372.075
2352.49267	5346.175
2355.32411	5320.975
2358.15376	5312.275
2360.98161	5288.875
2363.80768	5265.375
2366.63195	5248.275
2369.45444	5266.775
2372.27514	5237.275
2375.09405	5229.975
2377.91118	5225.075
2380.72652	5216.375
2383.54009	5206.375
2386.35187	5195.875
2389.16188	5199.475
2391.97011	5194.275
2394.77657	5192.075
2397.58125	5196.175
2400.38416	5197.075
2403.18529	5191.575
2405.98466	5198.975
2408.78226	5204.875
2411.57809	5200.075
2414.37216	5198.875
2417.16446	5180.375
2419.955	5171.975
2422.74378	5169.275
2425.5308	5153.975
2428.31606	5143.075
2431.09956	5127.975
2433.88131	5105.275
2436.6613	5125.975
2439.43954	5119.375
2442.21603	5120.375
2444.99077	5118.575
2447.76377	5116.575
2450.53501	5116.275
2453.30451	5099.275
2456.07226	5111.575
2458.83827	5084.275
2461.60254	5103.475
2464.36507	5104.875
2467.12586	5103.375
2469.88492	5118.075
2472.64224	5172.575
2475.39782	5407.675
2478.15167	5541.375
2480.90379	5293.175
2483.65417	5246.975
2486.40283	5211.975
2489.14976	5171.975
2491.89497	5191.775
2494.63845	5510.175
2497.3802	5599.375
2500.12024	5336.975
2502.85855	5230.475
2505.59514	5195.575
2508.33002	5170.275
2511.06318	5126.275
2513.79462	5138.475
2516.52435	5121.975
2519.25237	5123.475
2521.97867	5112.775
2524.70327	5131.875
2527.42616	5108.375
2530.14734	5104.275
2532.86681	5110.875
2535.58458	5090.475
2538.30065	5094.575
2541.01501	5087.775
2543.72768	5090.875
2546.43864	5092.375
2549.14791	5072.275
2551.85548	5075.175
2554.56136	5094.975
2557.26554	5074.975
2559.96803	5074.075
2562.66883	5085.975
2565.36794	5067.575
2568.06536	5064.275
2570.7611	5082.775
2573.45514	5051.075
2576.14751	5051.275
2578.83819	5049.575
2581.52719	5047.075
2584.21451	5054.175
2586.90015	5057.675
2589.58411	5030.075
2592.2664	5048.775
2594.94701	5039.275
2597.62594	5049.975
2600.30321	5053.575
2602.9788	5023.975
2605.65273	5030.675
2608.32498	5017.475
2610.99557	5017.175
2613.66449	5024.975
2616.33175	5022.975
2618.99734	5007.275
2621.66128	5036.775
2624.32355	5034.275
2626.98416	5030.375
2629.64311	5024.575
2632.30041	5013.475
2634.95605	4986.475
2637.61004	4964.175
2640.26238	4973.775
2642.91306	4969.175
2645.56209	4979.875
2648.20948	5052.675
2650.85521	4991.175
2653.4993	4975.775
2656.14175	4972.975
2658.78255	4975.275
2661.42171	4962.675
2664.05923	4978.375
2666.6951	4991.775
2669.32934	4984.575
2671.96194	4986.075
2674.59291	4995.475
2677.22224	4989.475
2679.84993	4998.675
2682.476	4969.375
2685.10043	4974.375
2687.72324	4973.775
2690.34441	4963.775
2692.96396	4983.375
2695.58188	5013.975
2698.19818	5036.475
2700.81285	5065.975
2703.4259	5650.475
2706.03733	7080.575
2708.64714	6219.175
2711.25533	5608.275
2713.86191	5402.175
2716.46687	5318.475
2719.07021	5189.075
2721.67194	5085.075
2724.27206	5037.375
2726.87057	5036.075
2729.46747	5007.675
2732.06276	5014.775
2734.65644	5023.075
2737.24852	5018.175
2739.83899	5002.075
2742.42786	5010.775
2745.01513	4998.075
2747.60079	4999.975
2750.18486	4993.875
2752.76733	4995.175
2755.3482	4991.775
2757.92747	5005.875
2760.50515	5009.675
2763.08123	4985.275
2765.65573	5003.275
2768.22863	4979.175
2770.79994	4999.475
2773.36967	4992.875
2775.9378	4998.575
2778.50435	4978.275
2781.06932	4982.075
2783.6327	4998.075
2786.1945	4981.875
2788.75471	4978.575
2791.31335	4972.575
2793.87041	4973.775
2796.42589	4957.075
2798.97979	4955.875
2801.53212	4958.975
2804.08288	4944.775
2806.63206	4929.775
2809.17967	4918.375
2811.72571	4919.875
2814.27018	4907.075
2816.81308	4890.275
2819.35442	4899.075
2821.89419	4896.275
2824.43239	4897.175
2826.96904	4902.475
2829.50412	4886.375
2832.03763	4900.775
2834.56959	4895.375
2837.1	4884.175
2839.62884	4902.175
2842.15613	4891.075
2844.68186	4884.075
2847.20604	4896.475
2849.72867	4910.775
2852.24974	4951.075
2854.76927	5194.775
2857.28724	5567.875
2859.80367	5252.075
2862.31855	5097.475
2864.83189	5062.375
2867.34368	5015.075
2869.85393	4968.375
2872.36264	4933.475
2874.8698	4902.975
2877.37543	4879.575
2879.87952	4862.875
2882.38207	4878.375
2884.88308	4888.975
2887.38256	4887.475
2889.88051	4877.475
2892.37692	4877.475
2894.8718	4887.175
2897.36515	4905.075
2899.85698	4890.275
2902.34727	4889.775
2904.83604	4918.075
2907.32328	4911.475
2909.809	4911.375
2912.29319	4913.075
2914.77587	4926.175
2917.25702	4904.375
2919.73665	4887.775
2922.21476	4900.475
2924.69136	4903.475
2927.16644	4891.875
2929.64	4899.675
2932.11205	4894.875
2934.58258	4871.475
2937.05161	4887.075
2939.51912	4890.975
2941.98513	4874.775
2944.44962	4869.675
2946.91261	4839.075
2949.37409	4855.075
2951.83407	4851.675
2954.29254	4847.575
2956.74951	4860.575
2959.20498	4851.375
2961.65895	4846.075
2964.11142	4847.075
2966.56239	4831.175
2969.01186	4838.475
2971.45984	4841.675
2973.90632	4842.275
2976.35131	4830.775
2978.7948	4825.975
2981.23681	4823.675
2983.67732	4822.875
2986.11635	4788.175
2988.55388	4793.375
2990.98993	4766.275
2993.4245	4777.475
2995.85758	4764.775
2998.28917	4742.775
3000.71928	4736.175
3003.14791	4746.575
3005.57506	4734.375
3008.00073	4731.475
3010.42493	4733.775
3012.84764	4746.375
3015.26888	4736.075
3017.68865	4720.075
3020.10694	4726.775
3022.52376	4703.575
3024.9391	4701.975
3027.35298	4708.575
3029.76539	4708.575
3032.17632	4689.675
3034.5858	4698.575
3036.9938	4697.475
3039.40034	4685.675
3041.80542	4693.375
3044.20903	4669.675
3046.61118	4681.975
3049.01187	4675.875
3051.4111	4665.375
3053.80888	4659.375
3056.20519	4659.175
3058.60005	4656.675
3060.99345	4651.275
3063.3854	4625.775
3065.7759	4620.875
3068.16494	4605.475
3070.55254	4620.375
3072.93868	4616.275
3075.32338	4593.775
3077.70662	4609.275
3080.08842	4575.375
3082.46878	4579.175
3084.84769	4577.875
3087.22515	4581.475
3089.60118	4577.175
3091.97576	4574.175
3094.3489	4575.275
3096.72061	4585.775
3099.09087	4584.875
3101.4597	4559.675
3103.82709	4576.575
3106.19305	4570.475
3108.55757	4581.675
3110.92066	4564.975
3113.28232	4566.275
3115.64255	4558.775
3118.00134	4553.875
3120.35871	4547.275
3122.71466	4548.775
3125.06917	4528.375
3127.42226	4527.775
3129.77393	4529.475
3132.12417	4519.375
3134.47299	4522.775
3136.82039	4520.475
3139.16636	4527.175
3141.51092	4534.975
3143.85406	4527.075
3146.19579	4545.475
3148.53609	4538.175
3150.87499	4550.175
3153.21246	4541.975
3155.54853	4552.775
3157.88318	4543.875
3160.21642	4545.775
3162.54826	4539.775
3164.87868	4545.475
3167.2077	4532.075
3169.5353	4546.275
3171.86151	4552.475
3174.18631	4544.975
3176.5097	4562.775
3178.83169	4536.175
3181.15228	4512.375
3183.47147	4545.075
3185.78926	4534.975
3188.10565	4525.175
3190.42065	4527.275
3192.73424	4514.875
3195.04645	4510.875
3197.35725	4535.575
3199.66667	4512.175
3201.97469	4523.475
3204.28132	4503.475
3206.58656	4531.875
3208.8904	4538.275
3211.19287	4537.875
3213.49394	4545.175
3215.79363	4551.075
3218.09193	4558.875
3220.38884	4853.675
3222.68438	5157.375
3224.97853	4861.875
3227.2713	4713.975
3229.56269	4659.275
