Data from AgNPs_FTO_APTES_UA_1uM_CRN_1000uM_R6G_10uM_NaF_0.1M_Addition_RamanShift__13__18-48-49-931.txt Node

Date: Thu Jan 27 18:48:49 GMT 2022
User: TCL
Spectrometer: QEP01345
Trigger mode: 4
Integration Time (sec): 7.000000E0
Scans to average: 10
Electric dark correction enabled: true
Nonlinearity correction enabled: false
Boxcar width: 0
XAxis mode: Raman Shifts
Number of Pixels in Spectrum: 1044
>>>>>Begin Spectral Data<<<<<
46.04893	0.725
50.45542	1.225
54.85868	-0.375
59.25871	-1.475
63.6555	40.025
68.04907	41.425
72.43941	42.825
76.82654	48.225
81.21044	49.025
85.59113	50.325
89.96862	53.425
94.34289	56.025
98.71396	57.425
103.08183	56.525
107.4465	58.925
111.80798	60.125
116.16626	61.625
120.52136	67.025
124.87327	67.425
129.222	67.725
133.56755	68.125
137.90993	71.625
142.24913	78.925
146.58517	87.925
150.91804	97.825
155.24774	114.325
159.57429	133.125
163.89768	173.925
168.21792	229.225
172.53501	302.825
176.84895	410.925
181.15975	581.425
185.46741	814.725
189.77193	1126.025
194.07331	1516.425
198.37157	1961.525
202.6667	2448.225
206.9587	2935.125
211.24758	3389.225
215.53334	3844.825
219.81599	4336.725
224.09553	4862.725
228.37195	5454.625
232.64527	6055.425
236.91549	6720.725
241.18261	7387.525
245.44663	8038.225
249.70755	8601.625
253.96539	9136.525
258.22014	9574.625
262.4718	9901.225
266.72039	10112.425
270.96589	10229.025
275.20832	10233.825
279.44768	10137.725
283.68397	10007.825
287.91719	9861.925
292.14735	9769.425
296.37445	9671.325
300.59849	9631.325
304.81948	9634.125
309.03742	9582.625
313.25231	9527.925
317.46415	9381.525
321.67296	9187.725
325.87872	9039.225
330.08145	8972.725
334.28114	8961.625
338.47781	9046.025
342.67145	9156.025
346.86207	9284.825
351.04966	9439.825
355.23424	9604.225
359.4158	9752.125
363.59435	9876.225
367.76989	9950.225
371.94243	10063.225
376.11196	10129.625
380.27849	10171.625
384.44203	10208.325
388.60257	10268.625
392.76012	10313.725
396.91468	10394.925
401.06626	10512.725
405.21485	10632.125
409.36047	10630.025
413.50311	10495.925
417.64277	10386.825
421.77947	10346.225
425.9132	10380.125
430.04396	10386.125
434.17176	10471.825
438.2966	10521.225
442.41849	10584.025
446.53742	10709.725
450.6534	10839.425
454.76644	10926.925
458.87653	10998.225
462.98368	11018.025
467.08789	11004.325
471.18916	10942.025
475.2875	10844.425
479.38291	10792.425
483.4754	10723.125
487.56496	10655.925
491.6516	10612.425
495.73531	10614.725
499.81612	10608.725
503.89401	10667.425
507.96899	10684.425
512.04106	10737.325
516.11023	10751.025
520.1765	10744.925
524.23987	10656.425
528.30034	10624.825
532.35792	10545.525
536.41261	10495.025
540.46441	10435.825
544.51333	10400.625
548.55936	10451.625
552.60252	10550.525
556.64279	10677.425
560.6802	10754.625
564.71473	10797.725
568.7464	10868.525
572.7752	10985.925
576.80114	11133.725
580.82422	11271.925
584.84444	11489.825
588.86181	11717.325
592.87633	11855.525
596.888	11820.125
600.89682	11699.225
604.9028	11739.325
608.90594	12371.525
612.90624	13278.425
616.90371	12978.225
620.89834	11487.925
624.89015	10748.725
628.87913	10614.925
632.86528	10683.925
636.84862	10781.625
640.82913	10710.025
644.80683	10581.525
648.78172	10485.825
652.75379	10489.725
656.72306	10567.625
660.68952	10712.925
664.65319	10688.725
668.61405	10624.025
672.57211	10619.725
676.52738	10723.725
680.47986	10807.425
684.42955	10796.025
688.37646	10742.825
692.32058	10665.625
696.26192	10677.925
700.20048	10672.025
704.13626	10690.525
708.06928	10698.725
711.99952	10669.725
715.927	10645.825
719.85171	10622.025
723.77365	10613.425
727.69284	10560.425
731.60928	10498.625
735.52295	10427.225
739.43388	10418.925
743.34206	10453.825
747.24749	10468.725
751.15017	10518.825
755.05012	10604.725
758.94733	10746.625
762.8418	11040.225
766.73354	11582.425
770.62254	12173.125
774.50882	12455.925
778.39237	12203.325
782.27321	11653.525
786.15132	11050.925
790.02671	10667.925
793.89938	10501.625
797.76935	10422.625
801.6366	10349.625
805.50115	10350.625
809.36299	10277.425
813.22213	10246.325
817.07857	10228.125
820.93231	10195.425
824.78336	10203.125
828.63172	10186.725
832.47738	10197.925
836.32036	10183.225
840.16066	10161.325
843.99827	10165.525
847.8332	10130.925
851.66546	10158.625
855.49504	10156.325
859.32195	10154.825
863.1462	10146.225
866.96777	10171.925
870.78668	10129.925
874.60293	10162.225
878.41652	10158.725
882.22745	10156.325
886.03573	10206.925
889.84136	10236.425
893.64433	10210.825
897.44466	10185.125
901.24235	10169.825
905.0374	10147.925
908.8298	10108.725
912.61957	10105.125
916.40671	10144.025
920.19121	10193.825
923.97308	10221.425
927.75233	10237.125
931.52895	10242.325
935.30295	10168.225
939.07433	10039.425
942.84309	9925.625
946.60924	9886.325
950.37278	9820.525
954.13371	9769.025
957.89203	9737.225
961.64774	9752.825
965.40086	9726.225
969.15137	9704.625
972.89929	9677.925
976.64461	9650.125
980.38733	9641.325
984.12747	9588.125
987.86502	9621.525
991.59999	9600.525
995.33237	9645.225
999.06217	9694.825
1002.78939	9732.425
1006.51404	9793.525
1010.23611	9879.625
1013.95561	9958.025
1017.67255	10016.525
1021.38692	9996.425
1025.09872	9924.925
1028.80796	9859.725
1032.51465	9825.225
1036.21877	9808.625
1039.92035	9829.125
1043.61937	9876.625
1047.31584	9897.325
1051.00976	9966.825
1054.70114	9994.425
1058.38998	10003.425
1062.07627	10064.325
1065.76003	10117.425
1069.44126	10214.025
1073.11995	10295.625
1076.79611	10379.125
1080.46974	10464.625
1084.14085	10414.125
1087.80943	10423.325
1091.47549	10475.725
1095.13903	10476.225
1098.80005	10407.425
1102.45857	10279.425
1106.11456	10143.425
1109.76805	10073.225
1113.41903	10070.625
1117.06751	10112.725
1120.71348	10174.925
1124.35696	10292.625
1127.99793	10426.525
1131.63641	10544.425
1135.2724	10423.825
1138.90589	10278.425
1142.5369	10202.825
1146.16542	10173.325
1149.79145	10165.525
1153.415	10152.525
1157.03607	10179.925
1160.65467	10309.725
1164.27079	10512.625
1167.88443	10757.425
1171.49561	11129.225
1175.10432	11533.725
1178.71056	12112.925
1182.31434	12673.225
1185.91565	13023.825
1189.51451	13048.125
1193.11091	12864.325
1196.70485	12580.325
1200.29634	12220.125
1203.88538	11876.125
1207.47197	11603.525
1211.05612	11371.425
1214.63782	11174.125
1218.21708	11007.125
1221.79391	10847.325
1225.36829	10733.825
1228.94024	10681.025
1232.50976	10645.425
1236.07685	10629.025
1239.6415	10597.925
1243.20374	10610.425
1246.76355	10609.025
1250.32093	10653.325
1253.8759	10737.125
1257.42845	10849.425
1260.97859	11008.525
1264.52631	11185.725
1268.07163	11345.425
1271.61453	11532.125
1275.15503	11637.625
1278.69312	11790.925
1282.22882	11947.525
1285.76211	12108.725
1289.29301	12324.525
1292.82151	12622.725
1296.34761	12957.025
1299.87133	13396.325
1303.39266	13865.325
1306.9116	14383.325
1310.42815	14857.325
1313.94233	15150.825
1317.45412	15039.825
1320.96354	14678.925
1324.47058	14410.525
1327.97525	14099.325
1331.47754	13959.625
1334.97747	13899.025
1338.47502	13929.725
1341.97022	14012.425
1345.46305	14145.325
1348.95352	14360.225
1352.44163	14623.525
1355.92738	14988.425
1359.41078	15499.125
1362.89183	15996.525
1366.37053	15916.025
1369.84688	14905.525
1373.32088	13584.625
1376.79254	12617.625
1380.26186	12064.625
1383.72883	11829.125
1387.19347	11644.125
1390.65578	11449.325
1394.11575	11338.325
1397.57339	11274.725
1401.0287	11302.325
1404.48168	11339.825
1407.93234	11323.725
1411.38068	11248.325
1414.82669	11104.225
1418.27039	10926.925
1421.71177	10729.125
1425.15083	10552.425
1428.58758	10442.125
1432.02203	10425.625
1435.45416	10460.225
1438.88399	10553.525
1442.31151	10627.725
1445.73673	10638.125
1449.15965	10686.825
1452.58027	10763.425
1455.9986	10780.025
1459.41463	10819.625
1462.82837	10897.825
1466.23982	11067.525
1469.64898	11162.325
1473.05586	11275.025
1476.46045	11314.325
1479.86276	11357.025
1483.26279	11410.925
1486.66054	11510.725
1490.05602	11638.525
1493.44922	11886.425
1496.84016	12202.325
1500.22882	12718.125
1503.61521	13387.425
1506.99934	14077.525
1510.38121	14568.525
1513.76081	14608.825
1517.13816	14143.225
1520.51324	13434.425
1523.88607	12810.625
1527.25665	12396.525
1530.62498	12140.825
1533.99105	11962.925
1537.35488	11830.525
1540.71647	11641.825
1544.07581	11496.925
1547.4329	11350.225
1550.78776	11215.225
1554.14038	11092.925
1557.49077	11025.025
1560.83892	11050.325
1564.18484	11089.725
1567.52853	11157.725
1570.86999	11323.925
1574.20922	11457.525
1577.54624	11525.025
1580.88103	11414.125
1584.2136	11179.025
1587.54395	11075.625
1590.87208	11161.325
1594.19801	11442.725
1597.52172	11835.525
1600.84321	12039.825
1604.16251	11900.825
1607.47959	11499.225
1610.79447	11046.725
1614.10715	10567.925
1617.41763	10086.025
1620.7259	9717.925
1624.03199	9473.825
1627.33587	9397.825
1630.63757	9412.425
1633.93707	9586.525
1637.23439	9942.025
1640.52951	10545.925
1643.82246	11389.325
1647.11321	12258.325
1650.40179	12868.725
1653.68819	12680.625
1656.97241	11781.725
1660.25446	10658.925
1663.53433	9808.525
1666.81203	9194.325
1670.08756	8858.825
1673.36092	8594.625
1676.63211	8468.125
1679.90115	8365.125
1683.16801	8266.225
1686.43272	8205.225
1689.69527	8133.525
1692.95567	8097.425
1696.2139	8043.625
1699.46999	7965.325
1702.72392	7955.325
1705.97571	7954.025
1709.22535	7970.525
1712.47284	7985.325
1715.71819	7995.325
1718.96139	7979.225
1722.20246	7977.825
1725.44139	7928.125
1728.67818	7903.325
1731.91284	7868.225
1735.14537	7852.225
1738.37576	7840.525
1741.60403	7806.725
1744.83017	7765.825
1748.05418	7746.125
1751.27607	7763.325
1754.49584	7744.025
1757.71349	7770.025
1760.92903	7757.125
1764.14244	7732.825
1767.35375	7720.125
1770.56294	7682.025
1773.77002	7628.625
1776.97499	7643.725
1780.17785	7614.625
1783.37861	7601.625
1786.57727	7571.325
1789.77382	7565.125
1792.96828	7536.725
1796.16064	7516.525
1799.3509	7477.525
1802.53907	7458.325
1805.72514	7423.825
1808.90913	7416.725
1812.09102	7387.225
1815.27083	7374.625
1818.44856	7370.025
1821.6242	7332.325
1824.79776	7313.125
1827.96924	7305.525
1831.13864	7304.525
1834.30597	7291.525
1837.47122	7279.625
1840.6344	7256.625
1843.7955	7264.225
1846.95454	7243.825
1850.11151	7249.325
1853.26642	7253.325
1856.41926	7231.825
1859.57004	7224.325
1862.71876	7218.625
1865.86542	7214.025
1869.01003	7205.525
1872.15258	7175.825
1875.29308	7196.925
1878.43152	7156.825
1881.56792	7154.125
1884.70227	7127.625
1887.83457	7114.125
1890.96482	7108.325
1894.09304	7085.325
1897.21921	7086.225
1900.34335	7059.725
1903.46544	7068.225
1906.58551	7034.125
1909.70353	7042.925
1912.81953	7019.925
1915.93349	7008.225
1919.04543	6992.425
1922.15534	6975.525
1925.26322	6979.525
1928.36908	6949.125
1931.47292	6925.825
1934.57473	6905.025
1937.67453	6923.025
1940.77232	6884.925
1943.86808	6848.525
1946.96184	6835.825
1950.05358	6824.725
1953.14331	6800.325
1956.23103	6777.225
1959.31675	6752.325
1962.40046	6721.025
1965.48217	6695.425
1968.56188	6668.225
1971.63959	6647.225
1974.7153	6642.825
1977.78901	6625.225
1980.86073	6596.025
1983.93046	6595.725
1986.99819	6556.725
1990.06394	6535.325
1993.1277	6497.525
1996.18947	6496.225
1999.24925	6481.725
2002.30706	6453.125
2005.36288	6404.225
2008.41672	6414.925
2011.46859	6389.425
2014.51848	6373.625
2017.56639	6357.825
2020.61233	6345.625
2023.6563	6308.125
2026.6983	6286.125
2029.73833	6264.125
2032.7764	6250.425
2035.8125	6245.525
2038.84664	6206.825
2041.87881	6199.125
2044.90903	6187.525
2047.93729	6166.025
2050.96359	6171.925
2053.98794	6148.325
2057.01034	6127.625
2060.03078	6139.125
2063.04927	6139.725
2066.06582	6133.025
2069.08042	6127.825
2072.09307	6114.725
2075.10378	6103.925
2078.11255	6088.625
2081.11938	6118.025
2084.12426	6093.325
2087.12722	6080.825
2090.12824	6078.525
2093.12732	6069.925
2096.12447	6075.825
2099.11969	6072.225
2102.11299	6077.925
2105.10435	6074.425
2108.09379	6073.625
2111.08131	6075.625
2114.0669	6071.025
2117.05057	6066.325
2120.03233	6087.525
2123.01216	6081.525
2125.99008	6085.825
2128.96609	6087.825
2131.94018	6092.025
2134.91236	6094.125
2137.88263	6085.925
2140.851	6084.025
2143.81746	6090.025
2146.78201	6091.825
2149.74466	6070.425
2152.7054	6090.525
2155.66425	6065.125
2158.6212	6066.725
2161.57625	6050.325
2164.52941	6050.825
2167.48067	6052.625
2170.43004	6057.925
2173.37752	6037.825
2176.32311	6034.025
2179.26681	6043.325
2182.20863	6021.625
2185.14856	6018.225
2188.08661	6031.125
2191.02278	6046.925
2193.95707	6016.625
2196.88948	5993.725
2199.82001	6002.325
2202.74867	5982.425
2205.67545	5965.725
2208.60037	5975.525
2211.52341	5951.825
2214.44458	5950.725
2217.36388	5936.725
2220.28132	5917.925
2223.1969	5899.525
2226.11061	5915.825
2229.02246	5883.225
2231.93245	5874.125
2234.84058	5854.625
2237.74686	5842.825
2240.65128	5838.925
2243.55385	5815.925
2246.45456	5808.525
2249.35343	5786.325
2252.25044	5784.025
2255.14561	5766.725
2258.03893	5750.825
2260.93041	5739.725
2263.82004	5728.625
2266.70783	5730.325
2269.59378	5698.125
2272.4779	5693.725
2275.36017	5678.825
2278.24061	5660.825
2281.11922	5662.625
2283.996	5645.425
2286.87094	5633.325
2289.74405	5620.925
2292.61534	5596.725
2295.4848	5585.825
2298.35243	5599.325
2301.21824	5584.925
2304.08223	5584.025
2306.94439	5573.525
2309.80474	5572.725
2312.66327	5567.725
2315.51999	5543.025
2318.37489	5539.225
2321.22797	5547.425
2324.07925	5538.525
2326.92871	5504.725
2329.77637	5505.625
2332.62222	5493.025
2335.46626	5480.125
2338.3085	5453.325
2341.14893	5466.125
2343.98756	5449.225
2346.8244	5426.425
2349.65943	5440.325
2352.49267	5419.125
2355.32411	5414.825
2358.15376	5419.525
2360.98161	5408.625
2363.80768	5405.425
2366.63195	5417.025
2369.45444	5407.025
2372.27514	5397.625
2375.09405	5393.025
2377.91118	5389.525
2380.72652	5368.825
2383.54009	5333.625
2386.35187	5322.225
2389.16188	5323.225
2391.97011	5312.425
2394.77657	5296.925
2397.58125	5266.125
2400.38416	5276.825
2403.18529	5267.025
2405.98466	5254.525
2408.78226	5227.625
2411.57809	5221.825
2414.37216	5223.325
2417.16446	5199.125
2419.955	5206.225
2422.74378	5195.325
2425.5308	5197.925
2428.31606	5212.025
2431.09956	5194.025
2433.88131	5164.625
2436.6613	5163.125
2439.43954	5161.325
2442.21603	5140.325
2444.99077	5153.625
2447.76377	5140.825
2450.53501	5148.925
2453.30451	5129.125
2456.07226	5121.525
2458.83827	5088.025
2461.60254	5110.625
2464.36507	5103.325
2467.12586	5096.825
2469.88492	5075.725
2472.64224	5074.725
2475.39782	5079.225
2478.15167	5061.625
2480.90379	5069.525
2483.65417	5060.625
2486.40283	5045.625
2489.14976	5039.425
2491.89497	5028.425
2494.63845	5033.825
2497.3802	5010.125
2500.12024	5040.925
2502.85855	5005.525
2505.59514	5032.225
2508.33002	5001.925
2511.06318	4987.325
2513.79462	4996.925
2516.52435	4978.025
2519.25237	4971.625
2521.97867	4948.725
2524.70327	4949.525
2527.42616	4938.825
2530.14734	4917.225
2532.86681	4914.525
2535.58458	4895.325
2538.30065	4890.825
2541.01501	4897.225
2543.72768	4891.725
2546.43864	4883.625
2549.14791	4859.625
2551.85548	4853.825
2554.56136	4839.325
2557.26554	4846.925
2559.96803	4832.625
2562.66883	4825.025
2565.36794	4804.125
2568.06536	4797.325
2570.7611	4787.525
2573.45514	4783.525
2576.14751	4761.925
2578.83819	4763.125
2581.52719	4755.125
2584.21451	4728.225
2586.90015	4738.125
2589.58411	4717.525
2592.2664	4712.025
2594.94701	4699.425
2597.62594	4688.125
2600.30321	4656.925
2602.9788	4668.825
2605.65273	4658.725
2608.32498	4649.325
2610.99557	4645.425
2613.66449	4641.725
2616.33175	4618.325
2618.99734	4633.925
2621.66128	4621.525
2624.32355	4610.825
2626.98416	4609.925
2629.64311	4585.825
2632.30041	4587.325
2634.95605	4559.925
2637.61004	4560.725
2640.26238	4550.325
2642.91306	4540.825
2645.56209	4531.925
2648.20948	4537.525
2650.85521	4534.625
2653.4993	4521.425
2656.14175	4537.825
2658.78255	4540.025
2661.42171	4539.725
2664.05923	4538.625
2666.6951	4545.625
2669.32934	4540.125
2671.96194	4530.925
2674.59291	4524.325
2677.22224	4507.125
2679.84993	4520.925
2682.476	4499.425
2685.10043	4498.325
2687.72324	4502.525
2690.34441	4507.925
2692.96396	4493.525
2695.58188	4514.925
2698.19818	4500.225
2700.81285	4503.025
2703.4259	4487.925
2706.03733	4475.625
2708.64714	4468.125
2711.25533	4485.525
2713.86191	4474.025
2716.46687	4478.725
2719.07021	4477.125
2721.67194	4502.425
2724.27206	4482.225
2726.87057	4484.525
2729.46747	4501.125
2732.06276	4479.825
2734.65644	4470.425
2737.24852	4481.425
2739.83899	4469.925
2742.42786	4476.425
2745.01513	4432.925
2747.60079	4428.225
2750.18486	4441.525
2752.76733	4437.425
2755.3482	4427.025
2757.92747	4409.125
2760.50515	4415.725
2763.08123	4392.825
2765.65573	4401.925
2768.22863	4379.325
2770.79994	4381.825
2773.36967	4363.925
2775.9378	4367.925
2778.50435	4370.525
2781.06932	4353.425
2783.6327	4348.425
2786.1945	4342.725
2788.75471	4335.925
2791.31335	4313.125
2793.87041	4302.125
2796.42589	4294.225
2798.97979	4298.725
2801.53212	4301.125
2804.08288	4278.025
2806.63206	4267.325
2809.17967	4258.825
2811.72571	4270.225
2814.27018	4240.325
2816.81308	4228.625
2819.35442	4227.325
2821.89419	4215.525
2824.43239	4211.925
2826.96904	4222.125
2829.50412	4210.925
2832.03763	4212.425
2834.56959	4209.525
2837.1	4218.925
2839.62884	4238.325
2842.15613	4248.225
2844.68186	4271.425
2847.20604	4297.025
2849.72867	4305.525
2852.24974	4317.225
2854.76927	4308.925
2857.28724	4274.125
2859.80367	4289.425
2862.31855	4273.325
2864.83189	4251.625
2867.34368	4257.125
2869.85393	4259.525
2872.36264	4252.625
2874.8698	4238.325
2877.37543	4247.425
2879.87952	4229.725
2882.38207	4227.225
2884.88308	4234.325
2887.38256	4219.625
2889.88051	4221.125
2892.37692	4218.725
2894.8718	4226.525
2897.36515	4229.925
2899.85698	4232.525
2902.34727	4246.525
2904.83604	4249.125
2907.32328	4236.525
2909.809	4244.625
2912.29319	4256.125
2914.77587	4250.225
2917.25702	4249.525
2919.73665	4246.825
2922.21476	4243.225
2924.69136	4250.325
2927.16644	4252.425
2929.64	4247.525
2932.11205	4245.925
2934.58258	4228.525
2937.05161	4249.825
2939.51912	4245.025
2941.98513	4221.425
2944.44962	4209.525
2946.91261	4178.925
2949.37409	4195.125
2951.83407	4184.525
2954.29254	4167.625
2956.74951	4149.725
2959.20498	4161.225
2961.65895	4135.825
2964.11142	4148.825
2966.56239	4116.225
2969.01186	4107.025
2971.45984	4094.025
2973.90632	4087.625
2976.35131	4069.725
2978.7948	4059.725
2981.23681	4035.325
2983.67732	4030.225
2986.11635	4020.125
2988.55388	3999.725
2990.98993	3996.225
2993.4245	3984.125
2995.85758	3978.225
2998.28917	3963.225
3000.71928	3954.525
3003.14791	3963.925
3005.57506	3949.225
3008.00073	3944.825
3010.42493	3930.025
3012.84764	3923.825
3015.26888	3935.525
3017.68865	3932.025
3020.10694	3919.925
3022.52376	3898.325
3024.9391	3901.325
3027.35298	3901.225
3029.76539	3893.025
3032.17632	3884.125
3034.5858	3863.225
3036.9938	3870.425
3039.40034	3857.525
3041.80542	3845.625
3044.20903	3853.525
3046.61118	3831.725
3049.01187	3839.525
3051.4111	3848.725
3053.80888	3830.325
3056.20519	3833.225
3058.60005	3806.825
3060.99345	3815.325
3063.3854	3788.225
3065.7759	3797.625
3068.16494	3786.125
3070.55254	3772.725
3072.93868	3784.125
3075.32338	3769.025
3077.70662	3769.125
3080.08842	3765.425
3082.46878	3767.625
3084.84769	3761.225
3087.22515	3754.925
3089.60118	3761.425
3091.97576	3752.725
3094.3489	3762.025
3096.72061	3763.525
3099.09087	3762.525
3101.4597	3759.925
3103.82709	3760.525
3106.19305	3765.225
3108.55757	3781.125
3110.92066	3767.725
3113.28232	3763.625
3115.64255	3735.125
3118.00134	3752.125
3120.35871	3761.725
3122.71466	3753.725
3125.06917	3751.225
3127.42226	3732.425
3129.77393	3747.525
3132.12417	3750.625
3134.47299	3746.225
3136.82039	3755.925
3139.16636	3763.325
3141.51092	3747.525
3143.85406	3755.625
3146.19579	3769.625
3148.53609	3770.325
3150.87499	3780.825
3153.21246	3792.225
3155.54853	3809.625
3157.88318	3799.725
3160.21642	3802.525
3162.54826	3818.925
3164.87868	3811.125
3167.2077	3809.225
3169.5353	3822.025
3171.86151	3817.225
3174.18631	3820.325
3176.5097	3814.125
3178.83169	3813.725
3181.15228	3805.225
3183.47147	3824.125
3185.78926	3811.625
3188.10565	3805.825
3190.42065	3817.925
3192.73424	3799.525
3195.04645	3808.225
3197.35725	3795.325
3199.66667	3816.825
