Data from AgNPs_FTO_APTES_UA_1uM_CRN_0uM_R6G_10uM_NaF_0.1M_Addition_RamanShift__8__11-14-59-412.txt Node

Date: Thu Jan 27 11:14:59 GMT 2022
User: TCL
Spectrometer: QEP01345
Trigger mode: 4
Integration Time (sec): 7.000000E0
Scans to average: 10
Electric dark correction enabled: true
Nonlinearity correction enabled: false
Boxcar width: 0
XAxis mode: Raman Shifts
Number of Pixels in Spectrum: 1044
>>>>>Begin Spectral Data<<<<<
46.04893	-0.5375
50.45542	1.0625
54.85868	0.3625
59.25871	-0.0375
63.6555	28.3625
68.04907	33.3625
72.43941	31.5625
76.82654	35.8625
81.21044	32.9625
85.59113	37.2625
89.96862	38.5625
94.34289	39.9625
98.71396	42.1625
103.08183	43.3625
107.4465	46.5625
111.80798	45.7625
116.16626	44.2625
120.52136	48.1625
124.87327	46.8625
129.222	46.3625
133.56755	49.1625
137.90993	50.4625
142.24913	54.4625
146.58517	57.5625
150.91804	68.9625
155.24774	78.5625
159.57429	88.4625
163.89768	109.1625
168.21792	142.2625
172.53501	189.0625
176.84895	247.3625
181.15975	344.8625
185.46741	479.0625
189.77193	655.5625
194.07331	884.6625
198.37157	1131.3625
202.6667	1408.2625
206.9587	1679.9625
211.24758	1948.6625
215.53334	2199.1625
219.81599	2465.9625
224.09553	2756.1625
228.37195	3062.5625
232.64527	3396.5625
236.91549	3757.0625
241.18261	4123.4625
245.44663	4468.3625
249.70755	4769.7625
253.96539	5036.2625
258.22014	5280.3625
262.4718	5440.2625
266.72039	5562.5625
270.96589	5602.7625
275.20832	5575.4625
279.44768	5509.8625
283.68397	5401.5625
287.91719	5281.6625
292.14735	5202.7625
296.37445	5161.9625
300.59849	5173.5625
304.81948	5213.4625
309.03742	5261.2625
313.25231	5251.7625
317.46415	5132.3625
321.67296	5007.2625
325.87872	4886.9625
330.08145	4832.2625
334.28114	4834.6625
338.47781	4863.3625
342.67145	4916.0625
346.86207	4983.2625
351.04966	5097.4625
355.23424	5242.8625
359.4158	5363.8625
363.59435	5460.6625
367.76989	5529.8625
371.94243	5526.5625
376.11196	5553.5625
380.27849	5560.9625
384.44203	5544.5625
388.60257	5543.4625
392.76012	5529.5625
396.91468	5541.7625
401.06626	5579.2625
405.21485	5644.5625
409.36047	5629.5625
413.50311	5502.6625
417.64277	5404.3625
421.77947	5324.7625
425.9132	5278.7625
430.04396	5295.0625
434.17176	5310.9625
438.2966	5378.6625
442.41849	5427.8625
446.53742	5500.3625
450.6534	5569.6625
454.76644	5629.4625
458.87653	5631.8625
462.98368	5617.5625
467.08789	5599.3625
471.18916	5570.7625
475.2875	5531.1625
479.38291	5486.6625
483.4754	5464.7625
487.56496	5458.1625
491.6516	5444.0625
495.73531	5433.1625
499.81612	5448.4625
503.89401	5462.0625
507.96899	5526.6625
512.04106	5561.5625
516.11023	5601.6625
520.1765	5644.3625
524.23987	5639.5625
528.30034	5606.1625
532.35792	5558.4625
536.41261	5518.8625
540.46441	5484.8625
544.51333	5471.0625
548.55936	5454.7625
552.60252	5478.3625
556.64279	5523.4625
560.6802	5535.5625
564.71473	5540.2625
568.7464	5575.8625
572.7752	5608.4625
576.80114	5548.0625
580.82422	5448.3625
584.84444	5409.0625
588.86181	5418.9625
592.87633	5450.0625
596.888	5505.0625
600.89682	5576.1625
604.9028	5753.8625
608.90594	6377.4625
612.90624	7293.8625
616.90371	7372.0625
620.89834	6257.7625
624.89015	5602.0625
628.87913	5465.9625
632.86528	5458.1625
636.84862	5506.0625
640.82913	5504.2625
644.80683	5450.7625
648.78172	5377.8625
652.75379	5357.6625
656.72306	5426.0625
660.68952	5548.2625
664.65319	5543.8625
668.61405	5444.6625
672.57211	5388.9625
676.52738	5409.7625
680.47986	5425.3625
684.42955	5397.9625
688.37646	5381.2625
692.32058	5356.7625
696.26192	5335.9625
700.20048	5325.9625
704.13626	5332.5625
708.06928	5317.6625
711.99952	5308.8625
715.927	5337.0625
719.85171	5347.7625
723.77365	5369.1625
727.69284	5373.3625
731.60928	5352.6625
735.52295	5355.1625
739.43388	5351.2625
743.34206	5342.5625
747.24749	5361.2625
751.15017	5353.2625
755.05012	5370.6625
758.94733	5430.2625
762.8418	5548.4625
766.73354	5873.1625
770.62254	6282.9625
774.50882	6559.9625
778.39237	6480.7625
782.27321	6074.1625
786.15132	5653.4625
790.02671	5409.5625
793.89938	5298.9625
797.76935	5251.1625
801.6366	5236.4625
805.50115	5229.3625
809.36299	5206.0625
813.22213	5149.7625
817.07857	5124.7625
820.93231	5095.8625
824.78336	5078.4625
828.63172	5097.1625
832.47738	5092.3625
836.32036	5109.2625
840.16066	5087.1625
843.99827	5081.3625
847.8332	5062.1625
851.66546	5062.1625
855.49504	5008.7625
859.32195	5000.0625
863.1462	4984.9625
866.96777	4984.7625
870.78668	4948.0625
874.60293	4969.1625
878.41652	4948.8625
882.22745	4945.4625
886.03573	4947.3625
889.84136	4948.8625
893.64433	4944.4625
897.44466	4947.8625
901.24235	4950.6625
905.0374	4955.5625
908.8298	4948.2625
912.61957	4994.1625
916.40671	5029.7625
920.19121	5055.9625
923.97308	5119.7625
927.75233	5131.7625
931.52895	5176.1625
935.30295	5155.4625
939.07433	5093.1625
942.84309	5034.9625
946.60924	4970.9625
950.37278	4960.4625
954.13371	4913.9625
957.89203	4863.0625
961.64774	4801.4625
965.40086	4775.9625
969.15137	4737.7625
972.89929	4709.4625
976.64461	4696.8625
980.38733	4668.9625
984.12747	4685.7625
987.86502	4669.8625
991.59999	4685.0625
995.33237	4709.3625
999.06217	4743.8625
1002.78939	4777.2625
1006.51404	4842.5625
1010.23611	4860.9625
1013.95561	4882.8625
1017.67255	4863.0625
1021.38692	4848.9625
1025.09872	4813.8625
1028.80796	4785.6625
1032.51465	4764.3625
1036.21877	4738.1625
1039.92035	4744.0625
1043.61937	4752.4625
1047.31584	4748.2625
1051.00976	4770.3625
1054.70114	4764.9625
1058.38998	4760.7625
1062.07627	4756.6625
1065.76003	4736.1625
1069.44126	4690.1625
1073.11995	4684.6625
1076.79611	4691.9625
1080.46974	4692.5625
1084.14085	4728.4625
1087.80943	4757.8625
1091.47549	4747.6625
1095.13903	4696.3625
1098.80005	4600.1625
1102.45857	4532.1625
1106.11456	4477.2625
1109.76805	4462.8625
1113.41903	4508.5625
1117.06751	4544.2625
1120.71348	4620.8625
1124.35696	4694.1625
1127.99793	4776.2625
1131.63641	4823.0625
1135.2724	4709.6625
1138.90589	4562.3625
1142.5369	4461.1625
1146.16542	4384.0625
1149.79145	4337.1625
1153.415	4296.9625
1157.03607	4290.2625
1160.65467	4314.0625
1164.27079	4352.3625
1167.88443	4454.1625
1171.49561	4654.5625
1175.10432	4936.7625
1178.71056	5325.3625
1182.31434	5689.8625
1185.91565	5840.7625
1189.51451	5739.5625
1193.11091	5533.3625
1196.70485	5253.0625
1200.29634	5027.4625
1203.88538	4844.9625
1207.47197	4640.4625
1211.05612	4449.0625
1214.63782	4367.7625
1218.21708	4322.9625
1221.79391	4331.6625
1225.36829	4366.5625
1228.94024	4410.9625
1232.50976	4412.8625
1236.07685	4382.9625
1239.6415	4361.5625
1243.20374	4326.1625
1246.76355	4322.2625
1250.32093	4321.5625
1253.8759	4344.6625
1257.42845	4370.0625
1260.97859	4421.1625
1264.52631	4463.0625
1268.07163	4546.5625
1271.61453	4624.2625
1275.15503	4671.1625
1278.69312	4668.9625
1282.22882	4697.0625
1285.76211	4760.1625
1289.29301	4847.7625
1292.82151	4951.5625
1296.34761	5042.0625
1299.87133	5158.8625
1303.39266	5343.0625
1306.9116	5645.4625
1310.42815	6022.4625
1313.94233	6257.1625
1317.45412	6162.9625
1320.96354	5829.7625
1324.47058	5431.5625
1327.97525	5123.9625
1331.47754	4920.1625
1334.97747	4888.2625
1338.47502	4921.4625
1341.97022	4973.7625
1345.46305	5112.1625
1348.95352	5331.3625
1352.44163	5698.0625
1355.92738	6181.3625
1359.41078	6822.5625
1362.89183	7554.6625
1366.37053	7700.8625
1369.84688	6964.6625
1373.32088	6031.6625
1376.79254	5377.1625
1380.26186	5060.7625
1383.72883	4905.0625
1387.19347	4808.5625
1390.65578	4685.6625
1394.11575	4586.5625
1397.57339	4511.0625
1401.0287	4456.3625
1404.48168	4413.4625
1407.93234	4390.2625
1411.38068	4388.2625
1414.82669	4353.1625
1418.27039	4358.9625
1421.71177	4346.8625
1425.15083	4310.2625
1428.58758	4284.1625
1432.02203	4266.3625
1435.45416	4288.8625
1438.88399	4309.2625
1442.31151	4290.2625
1445.73673	4274.9625
1449.15965	4246.7625
1452.58027	4227.8625
1455.9986	4196.3625
1459.41463	4139.8625
1462.82837	4139.9625
1466.23982	4164.1625
1469.64898	4203.2625
1473.05586	4233.4625
1476.46045	4243.3625
1479.86276	4268.5625
1483.26279	4318.7625
1486.66054	4357.2625
1490.05602	4403.2625
1493.44922	4501.8625
1496.84016	4664.6625
1500.22882	4954.4625
1503.61521	5394.0625
1506.99934	5924.4625
1510.38121	6448.9625
1513.76081	6713.2625
1517.13816	6480.1625
1520.51324	5842.8625
1523.88607	5190.4625
1527.25665	4740.9625
1530.62498	4496.6625
1533.99105	4364.4625
1537.35488	4268.7625
1540.71647	4221.6625
1544.07581	4184.4625
1547.4329	4164.7625
1550.78776	4172.9625
1554.14038	4198.9625
1557.49077	4238.3625
1560.83892	4266.7625
1564.18484	4324.7625
1567.52853	4385.9625
1570.86999	4499.1625
1574.20922	4608.9625
1577.54624	4635.1625
1580.88103	4512.6625
1584.2136	4283.0625
1587.54395	4073.0625
1590.87208	3994.5625
1594.19801	4026.7625
1597.52172	4126.0625
1600.84321	4202.8625
1604.16251	4146.5625
1607.47959	4031.2625
1610.79447	3908.5625
1614.10715	3782.2625
1617.41763	3673.5625
1620.7259	3599.2625
1624.03199	3552.5625
1627.33587	3552.4625
1630.63757	3546.6625
1633.93707	3590.0625
1637.23439	3657.0625
1640.52951	3778.1625
1643.82246	4023.7625
1647.11321	4337.3625
1650.40179	4597.9625
1653.68819	4597.7625
1656.97241	4245.5625
1660.25446	3783.3625
1663.53433	3441.8625
1666.81203	3250.5625
1670.08756	3126.1625
1673.36092	3054.8625
1676.63211	3013.0625
1679.90115	2966.6625
1683.16801	2937.0625
1686.43272	2900.4625
1689.69527	2854.2625
1692.95567	2808.0625
1696.2139	2744.8625
1699.46999	2672.1625
1702.72392	2645.7625
1705.97571	2668.8625
1709.22535	2717.3625
1712.47284	2739.2625
1715.71819	2753.0625
1718.96139	2750.4625
1722.20246	2755.3625
1725.44139	2731.4625
1728.67818	2714.6625
1731.91284	2705.4625
1735.14537	2693.8625
1738.37576	2668.1625
1741.60403	2651.0625
1744.83017	2618.1625
1748.05418	2599.3625
1751.27607	2591.5625
1754.49584	2563.7625
1757.71349	2524.3625
1760.92903	2489.2625
1764.14244	2462.8625
1767.35375	2469.0625
1770.56294	2455.9625
1773.77002	2452.0625
1776.97499	2463.4625
1780.17785	2486.4625
1783.37861	2509.7625
1786.57727	2492.5625
1789.77382	2499.1625
1792.96828	2501.0625
1796.16064	2484.9625
1799.3509	2470.5625
1802.53907	2459.3625
1805.72514	2449.9625
1808.90913	2439.7625
1812.09102	2429.5625
1815.27083	2418.6625
1818.44856	2428.3625
1821.6242	2413.2625
1824.79776	2403.2625
1827.96924	2401.2625
1831.13864	2393.1625
1834.30597	2369.5625
1837.47122	2378.6625
1840.6344	2376.5625
1843.7955	2373.2625
1846.95454	2368.6625
1850.11151	2365.1625
1853.26642	2354.7625
1856.41926	2353.5625
1859.57004	2354.2625
1862.71876	2345.4625
1865.86542	2343.9625
1869.01003	2333.0625
1872.15258	2317.1625
1875.29308	2322.8625
1878.43152	2307.0625
1881.56792	2311.5625
1884.70227	2294.3625
1887.83457	2290.3625
1890.96482	2292.1625
1894.09304	2280.4625
1897.21921	2264.4625
1900.34335	2269.1625
1903.46544	2266.0625
1906.58551	2274.8625
1909.70353	2258.1625
1912.81953	2255.3625
1915.93349	2254.5625
1919.04543	2247.2625
1922.15534	2229.8625
1925.26322	2234.3625
1928.36908	2225.7625
1931.47292	2213.3625
1934.57473	2204.7625
1937.67453	2200.0625
1940.77232	2186.1625
1943.86808	2176.6625
1946.96184	2172.3625
1950.05358	2156.3625
1953.14331	2159.8625
1956.23103	2142.1625
1959.31675	2137.1625
1962.40046	2119.1625
1965.48217	2114.1625
1968.56188	2105.9625
1971.63959	2093.3625
1974.7153	2100.0625
1977.78901	2091.1625
1980.86073	2077.6625
1983.93046	2072.2625
1986.99819	2053.8625
1990.06394	2049.1625
1993.1277	2040.3625
1996.18947	2037.4625
1999.24925	2027.6625
2002.30706	2006.3625
2005.36288	2009.8625
2008.41672	1996.4625
2011.46859	1988.5625
2014.51848	1973.1625
2017.56639	1979.5625
2020.61233	1957.5625
2023.6563	1961.6625
2026.6983	1944.5625
2029.73833	1939.1625
2032.7764	1943.2625
2035.8125	1924.8625
2038.84664	1924.1625
2041.87881	1925.1625
2044.90903	1909.8625
2047.93729	1912.2625
2050.96359	1906.4625
2053.98794	1892.9625
2057.01034	1886.3625
2060.03078	1879.6625
2063.04927	1880.9625
2066.06582	1885.3625
2069.08042	1871.1625
2072.09307	1869.4625
2075.10378	1871.4625
2078.11255	1875.7625
2081.11938	1873.7625
2084.12426	1861.4625
2087.12722	1863.9625
2090.12824	1855.0625
2093.12732	1862.9625
2096.12447	1850.6625
2099.11969	1859.6625
2102.11299	1849.0625
2105.10435	1848.5625
2108.09379	1843.8625
2111.08131	1839.6625
2114.0669	1837.7625
2117.05057	1848.2625
2120.03233	1836.8625
2123.01216	1840.5625
2125.99008	1845.5625
2128.96609	1827.8625
2131.94018	1831.9625
2134.91236	1828.8625
2137.88263	1838.7625
2140.851	1822.9625
2143.81746	1840.4625
2146.78201	1829.6625
2149.74466	1822.4625
2152.7054	1822.3625
2155.66425	1821.4625
2158.6212	1811.7625
2161.57625	1806.1625
2164.52941	1808.2625
2167.48067	1803.4625
2170.43004	1802.3625
2173.37752	1799.4625
2176.32311	1798.8625
2179.26681	1798.2625
2182.20863	1783.7625
2185.14856	1787.1625
2188.08661	1798.4625
2191.02278	1787.8625
2193.95707	1785.3625
2196.88948	1780.7625
2199.82001	1771.1625
2202.74867	1772.5625
2205.67545	1773.0625
2208.60037	1765.0625
2211.52341	1756.9625
2214.44458	1759.3625
2217.36388	1743.7625
2220.28132	1733.2625
2223.1969	1731.2625
2226.11061	1717.3625
2229.02246	1712.6625
2231.93245	1708.7625
2234.84058	1709.1625
2237.74686	1700.1625
2240.65128	1698.9625
2243.55385	1694.7625
2246.45456	1691.4625
2249.35343	1687.9625
2252.25044	1681.5625
2255.14561	1685.1625
2258.03893	1670.7625
2260.93041	1653.8625
2263.82004	1657.2625
2266.70783	1656.0625
2269.59378	1651.3625
2272.4779	1660.2625
2275.36017	1647.6625
2278.24061	1643.2625
2281.11922	1627.1625
2283.996	1627.2625
2286.87094	1625.5625
2289.74405	1618.8625
2292.61534	1608.8625
2295.4848	1608.1625
2298.35243	1606.9625
2301.21824	1597.6625
2304.08223	1587.3625
2306.94439	1589.9625
2309.80474	1581.8625
2312.66327	1580.5625
2315.51999	1584.7625
2318.37489	1574.9625
2321.22797	1577.0625
2324.07925	1582.0625
2326.92871	1560.8625
2329.77637	1562.2625
2332.62222	1564.1625
2335.46626	1548.4625
2338.3085	1550.2625
2341.14893	1538.2625
2343.98756	1541.1625
2346.8244	1534.9625
2349.65943	1534.8625
2352.49267	1536.1625
2355.32411	1536.1625
2358.15376	1526.4625
2360.98161	1522.8625
2363.80768	1532.1625
2366.63195	1530.7625
2369.45444	1534.5625
2372.27514	1520.5625
2375.09405	1524.6625
2377.91118	1515.9625
2380.72652	1510.1625
2383.54009	1496.2625
2386.35187	1502.8625
2389.16188	1486.5625
2391.97011	1476.2625
2394.77657	1463.2625
2397.58125	1466.8625
2400.38416	1476.4625
2403.18529	1457.6625
2405.98466	1448.3625
2408.78226	1458.8625
2411.57809	1457.5625
2414.37216	1452.2625
2417.16446	1435.5625
2419.955	1430.0625
2422.74378	1440.2625
2425.5308	1438.3625
2428.31606	1426.7625
2431.09956	1428.5625
2433.88131	1428.3625
2436.6613	1422.1625
2439.43954	1416.3625
2442.21603	1410.6625
2444.99077	1420.9625
2447.76377	1416.1625
2450.53501	1413.2625
2453.30451	1404.9625
2456.07226	1396.9625
2458.83827	1395.6625
2461.60254	1396.0625
2464.36507	1404.7625
2467.12586	1393.4625
2469.88492	1383.1625
2472.64224	1388.6625
2475.39782	1381.0625
2478.15167	1367.8625
2480.90379	1369.8625
2483.65417	1373.1625
2486.40283	1377.3625
2489.14976	1379.0625
2491.89497	1375.8625
2494.63845	1365.0625
2497.3802	1350.0625
2500.12024	1368.9625
2502.85855	1357.2625
2505.59514	1353.4625
2508.33002	1351.3625
2511.06318	1355.1625
2513.79462	1348.7625
2516.52435	1337.4625
2519.25237	1344.5625
2521.97867	1330.6625
2524.70327	1329.5625
2527.42616	1319.3625
2530.14734	1314.4625
2532.86681	1311.9625
2535.58458	1307.6625
2538.30065	1307.9625
2541.01501	1313.8625
2543.72768	1306.9625
2546.43864	1297.7625
2549.14791	1301.8625
2551.85548	1294.8625
2554.56136	1291.7625
2557.26554	1295.3625
2559.96803	1286.3625
2562.66883	1285.2625
2565.36794	1289.3625
2568.06536	1279.7625
2570.7611	1280.0625
2573.45514	1271.6625
2576.14751	1272.3625
2578.83819	1265.7625
2581.52719	1269.0625
2584.21451	1266.0625
2586.90015	1258.8625
2589.58411	1248.4625
2592.2664	1250.2625
2594.94701	1244.9625
2597.62594	1241.4625
2600.30321	1243.2625
2602.9788	1231.9625
2605.65273	1233.1625
2608.32498	1232.6625
2610.99557	1220.8625
2613.66449	1232.2625
2616.33175	1220.2625
2618.99734	1223.7625
2621.66128	1219.9625
2624.32355	1221.5625
2626.98416	1215.0625
2629.64311	1217.9625
2632.30041	1220.6625
2634.95605	1211.7625
2637.61004	1203.6625
2640.26238	1208.3625
2642.91306	1208.2625
2645.56209	1201.5625
2648.20948	1191.7625
2650.85521	1195.9625
2653.4993	1211.2625
2656.14175	1204.5625
2658.78255	1201.6625
2661.42171	1208.5625
2664.05923	1205.4625
2666.6951	1209.6625
2669.32934	1210.7625
2671.96194	1207.6625
2674.59291	1207.7625
2677.22224	1201.3625
2679.84993	1198.6625
2682.476	1199.1625
2685.10043	1203.8625
2687.72324	1209.2625
2690.34441	1196.2625
2692.96396	1211.0625
2695.58188	1208.4625
2698.19818	1204.2625
2700.81285	1198.2625
2703.4259	1186.0625
2706.03733	1147.9625
2708.64714	1172.8625
2711.25533	1191.3625
2713.86191	1203.1625
2716.46687	1212.8625
2719.07021	1205.1625
2721.67194	1227.9625
2724.27206	1230.8625
2726.87057	1243.6625
2729.46747	1247.8625
2732.06276	1247.2625
2734.65644	1246.4625
2737.24852	1259.9625
2739.83899	1263.4625
2742.42786	1265.7625
2745.01513	1261.8625
2747.60079	1268.3625
2750.18486	1273.4625
2752.76733	1263.2625
2755.3482	1266.5625
2757.92747	1286.3625
2760.50515	1277.9625
2763.08123	1278.3625
2765.65573	1269.2625
2768.22863	1280.3625
2770.79994	1276.5625
2773.36967	1273.3625
2775.9378	1270.5625
2778.50435	1275.9625
2781.06932	1276.0625
2783.6327	1270.9625
2786.1945	1272.3625
2788.75471	1276.2625
2791.31335	1269.4625
2793.87041	1282.4625
2796.42589	1274.2625
2798.97979	1277.7625
2801.53212	1280.1625
2804.08288	1283.0625
2806.63206	1280.9625
2809.17967	1272.1625
2811.72571	1275.0625
2814.27018	1271.6625
2816.81308	1276.4625
2819.35442	1270.1625
2821.89419	1277.7625
2824.43239	1264.6625
2826.96904	1274.2625
2829.50412	1277.6625
2832.03763	1269.1625
2834.56959	1268.9625
2837.1	1282.1625
2839.62884	1281.4625
2842.15613	1294.5625
2844.68186	1303.3625
2847.20604	1318.9625
2849.72867	1345.0625
2852.24974	1355.3625
2854.76927	1350.7625
2857.28724	1339.8625
2859.80367	1361.4625
2862.31855	1371.5625
2864.83189	1387.3625
2867.34368	1390.4625
2869.85393	1392.5625
2872.36264	1414.6625
2874.8698	1408.2625
2877.37543	1411.2625
2879.87952	1410.8625
2882.38207	1430.1625
2884.88308	1426.1625
2887.38256	1418.7625
2889.88051	1430.4625
2892.37692	1428.5625
2894.8718	1419.7625
2897.36515	1425.4625
2899.85698	1418.8625
2902.34727	1417.8625
2904.83604	1425.4625
2907.32328	1436.1625
2909.809	1424.3625
2912.29319	1430.8625
2914.77587	1432.1625
2917.25702	1433.9625
2919.73665	1435.8625
2922.21476	1445.1625
2924.69136	1438.3625
2927.16644	1452.8625
2929.64	1440.9625
2932.11205	1441.5625
2934.58258	1427.6625
2937.05161	1407.9625
2939.51912	1406.0625
2941.98513	1374.5625
2944.44962	1367.0625
2946.91261	1338.2625
2949.37409	1326.1625
2951.83407	1292.8625
2954.29254	1279.0625
2956.74951	1257.8625
2959.20498	1237.8625
2961.65895	1219.4625
2964.11142	1212.1625
2966.56239	1191.2625
2969.01186	1172.5625
2971.45984	1162.9625
2973.90632	1154.9625
2976.35131	1139.8625
2978.7948	1124.9625
2981.23681	1117.2625
2983.67732	1110.1625
2986.11635	1095.0625
2988.55388	1090.3625
2990.98993	1076.9625
2993.4245	1076.7625
2995.85758	1064.5625
2998.28917	1063.0625
3000.71928	1052.9625
3003.14791	1048.2625
3005.57506	1043.9625
3008.00073	1049.8625
3010.42493	1034.3625
3012.84764	1041.0625
3015.26888	1032.3625
3017.68865	1043.4625
3020.10694	1036.9625
3022.52376	1027.1625
3024.9391	1030.8625
3027.35298	1025.2625
3029.76539	1024.2625
3032.17632	1021.6625
3034.5858	1022.5625
3036.9938	1028.3625
3039.40034	1019.1625
3041.80542	1025.1625
3044.20903	1020.7625
3046.61118	1014.5625
3049.01187	1016.7625
3051.4111	1024.2625
3053.80888	1014.8625
3056.20519	1023.5625
3058.60005	1019.4625
3060.99345	1017.7625
3063.3854	1014.5625
3065.7759	1019.8625
3068.16494	1025.7625
3070.55254	1017.4625
3072.93868	1027.3625
3075.32338	1018.8625
3077.70662	1025.7625
3080.08842	1010.5625
3082.46878	1024.2625
3084.84769	1023.7625
3087.22515	1020.6625
3089.60118	1032.3625
3091.97576	1024.1625
3094.3489	1039.5625
3096.72061	1037.2625
3099.09087	1044.1625
3101.4597	1043.7625
3103.82709	1041.9625
3106.19305	1053.9625
3108.55757	1058.5625
3110.92066	1059.7625
3113.28232	1062.6625
3115.64255	1062.3625
3118.00134	1063.7625
3120.35871	1067.3625
3122.71466	1063.6625
3125.06917	1073.5625
