Data from AgNPs_FTO_APTES_UA_1uM_CRN_0uM_R6G_10uM_NaF_0.1M_Addition_RamanShift__5__11-11-29-408.txt Node

Date: Thu Jan 27 11:11:29 GMT 2022
User: TCL
Spectrometer: QEP01345
Trigger mode: 4
Integration Time (sec): 7.000000E0
Scans to average: 10
Electric dark correction enabled: true
Nonlinearity correction enabled: false
Boxcar width: 0
XAxis mode: Raman Shifts
Number of Pixels in Spectrum: 1044
>>>>>Begin Spectral Data<<<<<
46.04893	0.4875
50.45542	0.3875
54.85868	-0.5125
59.25871	-0.1125
63.6555	28.3875
68.04907	27.4875
72.43941	26.6875
76.82654	31.3875
81.21044	30.8875
85.59113	32.2875
89.96862	32.6875
94.34289	33.9875
98.71396	37.0875
103.08183	31.9875
107.4465	41.2875
111.80798	40.4875
116.16626	37.3875
120.52136	45.2875
124.87327	41.1875
129.222	38.7875
133.56755	40.5875
137.90993	44.7875
142.24913	48.1875
146.58517	51.4875
150.91804	62.2875
155.24774	65.5875
159.57429	82.1875
163.89768	101.9875
168.21792	132.1875
172.53501	175.4875
176.84895	233.5875
181.15975	320.0875
185.46741	446.7875
189.77193	613.3875
194.07331	829.8875
198.37157	1086.7875
202.6667	1347.3875
206.9587	1616.4875
211.24758	1869.3875
215.53334	2122.3875
219.81599	2390.9875
224.09553	2673.0875
228.37195	2974.0875
232.64527	3296.5875
236.91549	3635.3875
241.18261	3982.8875
245.44663	4304.4875
249.70755	4582.5875
253.96539	4810.2875
258.22014	5011.7875
262.4718	5156.6875
266.72039	5252.8875
270.96589	5269.2875
275.20832	5243.6875
279.44768	5169.5875
283.68397	5039.8875
287.91719	4933.5875
292.14735	4848.0875
296.37445	4799.8875
300.59849	4783.2875
304.81948	4779.1875
309.03742	4804.8875
313.25231	4781.2875
317.46415	4713.5875
321.67296	4614.2875
325.87872	4530.3875
330.08145	4489.1875
334.28114	4465.7875
338.47781	4489.9875
342.67145	4536.3875
346.86207	4560.3875
351.04966	4627.0875
355.23424	4708.5875
359.4158	4787.4875
363.59435	4828.6875
367.76989	4850.0875
371.94243	4877.2875
376.11196	4874.3875
380.27849	4889.4875
384.44203	4885.7875
388.60257	4863.6875
392.76012	4865.1875
396.91468	4872.3875
401.06626	4908.7875
405.21485	4931.4875
409.36047	4917.5875
413.50311	4843.5875
417.64277	4747.6875
421.77947	4701.0875
425.9132	4691.0875
430.04396	4686.4875
434.17176	4699.2875
438.2966	4745.4875
442.41849	4815.5875
446.53742	4873.3875
450.6534	4943.1875
454.76644	4995.1875
458.87653	4992.3875
462.98368	4977.7875
467.08789	4973.5875
471.18916	4949.8875
475.2875	4909.4875
479.38291	4885.1875
483.4754	4848.0875
487.56496	4828.7875
491.6516	4834.1875
495.73531	4850.3875
499.81612	4855.0875
503.89401	4884.2875
507.96899	4919.2875
512.04106	4945.1875
516.11023	4978.8875
520.1765	5007.2875
524.23987	5015.6875
528.30034	4987.6875
532.35792	4942.3875
536.41261	4931.8875
540.46441	4864.1875
544.51333	4859.0875
548.55936	4866.6875
552.60252	4884.1875
556.64279	4940.8875
560.6802	4959.7875
564.71473	4945.4875
568.7464	4971.0875
572.7752	4985.5875
576.80114	4939.5875
580.82422	4877.9875
584.84444	4849.7875
588.86181	4872.7875
592.87633	4939.8875
596.888	5013.8875
600.89682	5035.5875
604.9028	5141.6875
608.90594	5550.7875
612.90624	6245.8875
616.90371	6296.1875
620.89834	5485.0875
624.89015	4994.9875
628.87913	4875.4875
632.86528	4856.8875
636.84862	4875.7875
640.82913	4903.7875
644.80683	4858.7875
648.78172	4825.5875
652.75379	4807.3875
656.72306	4872.1875
660.68952	4965.5875
664.65319	4976.0875
668.61405	4909.3875
672.57211	4876.7875
676.52738	4919.5875
680.47986	4964.4875
684.42955	4959.5875
688.37646	4932.6875
692.32058	4888.8875
696.26192	4850.3875
700.20048	4833.5875
704.13626	4836.6875
708.06928	4805.5875
711.99952	4823.7875
715.927	4836.2875
719.85171	4868.7875
723.77365	4880.7875
727.69284	4916.9875
731.60928	4933.6875
735.52295	4933.4875
739.43388	4937.3875
743.34206	4919.4875
747.24749	4896.8875
751.15017	4906.7875
755.05012	4904.0875
758.94733	4943.5875
762.8418	5051.2875
766.73354	5303.8875
770.62254	5599.6875
774.50882	5820.8875
778.39237	5744.6875
782.27321	5443.7875
786.15132	5126.5875
790.02671	4968.0875
793.89938	4874.2875
797.76935	4883.2875
801.6366	4871.3875
805.50115	4853.1875
809.36299	4813.6875
813.22213	4761.0875
817.07857	4720.8875
820.93231	4683.1875
824.78336	4671.6875
828.63172	4667.5875
832.47738	4661.4875
836.32036	4670.5875
840.16066	4673.6875
843.99827	4657.6875
847.8332	4648.9875
851.66546	4623.9875
855.49504	4596.0875
859.32195	4588.1875
863.1462	4579.8875
866.96777	4573.9875
870.78668	4560.9875
874.60293	4545.4875
878.41652	4564.4875
882.22745	4552.8875
886.03573	4570.0875
889.84136	4555.6875
893.64433	4596.3875
897.44466	4600.8875
901.24235	4611.6875
905.0374	4621.2875
908.8298	4652.2875
912.61957	4685.1875
916.40671	4758.7875
920.19121	4832.7875
923.97308	4914.5875
927.75233	4977.7875
931.52895	4998.7875
935.30295	4993.8875
939.07433	4928.5875
942.84309	4838.8875
946.60924	4775.2875
950.37278	4730.8875
954.13371	4665.5875
957.89203	4614.7875
961.64774	4566.8875
965.40086	4511.3875
969.15137	4460.8875
972.89929	4410.1875
976.64461	4398.2875
980.38733	4382.0875
984.12747	4364.8875
987.86502	4366.0875
991.59999	4384.8875
995.33237	4421.9875
999.06217	4474.0875
1002.78939	4521.8875
1006.51404	4576.1875
1010.23611	4617.5875
1013.95561	4647.9875
1017.67255	4642.1875
1021.38692	4615.7875
1025.09872	4593.1875
1028.80796	4545.7875
1032.51465	4487.0875
1036.21877	4469.0875
1039.92035	4443.7875
1043.61937	4448.8875
1047.31584	4464.1875
1051.00976	4481.6875
1054.70114	4494.8875
1058.38998	4496.9875
1062.07627	4499.4875
1065.76003	4492.8875
1069.44126	4459.9875
1073.11995	4443.5875
1076.79611	4428.1875
1080.46974	4435.4875
1084.14085	4440.9875
1087.80943	4470.5875
1091.47549	4436.1875
1095.13903	4399.2875
1098.80005	4345.0875
1102.45857	4268.5875
1106.11456	4238.4875
1109.76805	4242.7875
1113.41903	4256.3875
1117.06751	4294.2875
1120.71348	4329.2875
1124.35696	4403.8875
1127.99793	4453.2875
1131.63641	4486.0875
1135.2724	4413.3875
1138.90589	4307.6875
1142.5369	4235.4875
1146.16542	4174.8875
1149.79145	4138.8875
1153.415	4103.6875
1157.03607	4097.2875
1160.65467	4123.3875
1164.27079	4159.6875
1167.88443	4227.7875
1171.49561	4401.0875
1175.10432	4643.1875
1178.71056	4990.0875
1182.31434	5320.2875
1185.91565	5476.7875
1189.51451	5412.3875
1193.11091	5243.8875
1196.70485	5024.7875
1200.29634	4817.1875
1203.88538	4658.4875
1207.47197	4461.4875
1211.05612	4306.8875
1214.63782	4215.5875
1218.21708	4191.9875
1221.79391	4218.7875
1225.36829	4278.1875
1228.94024	4316.4875
1232.50976	4327.5875
1236.07685	4304.6875
1239.6415	4273.8875
1243.20374	4239.5875
1246.76355	4231.4875
1250.32093	4229.1875
1253.8759	4240.0875
1257.42845	4284.3875
1260.97859	4338.6875
1264.52631	4399.5875
1268.07163	4462.2875
1271.61453	4556.7875
1275.15503	4625.8875
1278.69312	4684.5875
1282.22882	4714.9875
1285.76211	4816.4875
1289.29301	4920.3875
1292.82151	5051.5875
1296.34761	5146.5875
1299.87133	5259.7875
1303.39266	5419.9875
1306.9116	5640.5875
1310.42815	5896.8875
1313.94233	6068.4875
1317.45412	5984.3875
1320.96354	5699.0875
1324.47058	5379.9875
1327.97525	5096.6875
1331.47754	4930.7875
1334.97747	4898.0875
1338.47502	4925.6875
1341.97022	4986.7875
1345.46305	5096.7875
1348.95352	5326.7875
1352.44163	5644.9875
1355.92738	6041.2875
1359.41078	6560.4875
1362.89183	7148.4875
1366.37053	7254.4875
1369.84688	6680.9875
1373.32088	5938.6875
1376.79254	5397.5875
1380.26186	5125.2875
1383.72883	5028.6875
1387.19347	4919.8875
1390.65578	4863.9875
1394.11575	4812.5875
1397.57339	4770.6875
1401.0287	4752.4875
1404.48168	4698.1875
1407.93234	4655.9875
1411.38068	4603.2875
1414.82669	4588.7875
1418.27039	4559.2875
1421.71177	4526.7875
1425.15083	4483.8875
1428.58758	4440.4875
1432.02203	4412.5875
1435.45416	4408.6875
1438.88399	4413.2875
1442.31151	4426.0875
1445.73673	4387.7875
1449.15965	4373.4875
1452.58027	4344.1875
1455.9986	4306.3875
1459.41463	4292.5875
1462.82837	4301.9875
1466.23982	4322.3875
1469.64898	4368.6875
1473.05586	4407.4875
1476.46045	4444.3875
1479.86276	4488.3875
1483.26279	4521.2875
1486.66054	4559.6875
1490.05602	4606.8875
1493.44922	4687.2875
1496.84016	4764.0875
1500.22882	4974.4875
1503.61521	5278.9875
1506.99934	5653.5875
1510.38121	6004.4875
1513.76081	6170.1875
1517.13816	5985.1875
1520.51324	5518.9875
1523.88607	5009.3875
1527.25665	4688.5875
1530.62498	4513.3875
1533.99105	4405.0875
1537.35488	4332.7875
1540.71647	4276.2875
1544.07581	4225.5875
1547.4329	4211.6875
1550.78776	4189.6875
1554.14038	4187.3875
1557.49077	4196.2875
1560.83892	4209.3875
1564.18484	4245.9875
1567.52853	4278.9875
1570.86999	4357.1875
1574.20922	4426.7875
1577.54624	4440.6875
1580.88103	4359.4875
1584.2136	4174.3875
1587.54395	4023.5875
1590.87208	3955.8875
1594.19801	3957.4875
1597.52172	4054.9875
1600.84321	4098.6875
1604.16251	4051.3875
1607.47959	3951.5875
1610.79447	3823.3875
1614.10715	3720.7875
1617.41763	3608.3875
1620.7259	3539.5875
1624.03199	3501.4875
1627.33587	3476.8875
1630.63757	3492.9875
1633.93707	3519.0875
1637.23439	3558.5875
1640.52951	3658.5875
1643.82246	3859.5875
1647.11321	4096.7875
1650.40179	4304.4875
1653.68819	4240.7875
1656.97241	3910.8875
1660.25446	3531.5875
1663.53433	3247.3875
1666.81203	3075.4875
1670.08756	2987.5875
1673.36092	2919.3875
1676.63211	2873.6875
1679.90115	2838.1875
1683.16801	2789.4875
1686.43272	2767.5875
1689.69527	2718.1875
1692.95567	2652.7875
1696.2139	2583.3875
1699.46999	2509.9875
1702.72392	2465.2875
1705.97571	2510.9875
1709.22535	2562.2875
1712.47284	2582.3875
1715.71819	2597.2875
1718.96139	2597.8875
1722.20246	2595.5875
1725.44139	2583.7875
1728.67818	2565.3875
1731.91284	2552.3875
1735.14537	2525.5875
1738.37576	2506.1875
1741.60403	2492.4875
1744.83017	2470.9875
1748.05418	2462.6875
1751.27607	2443.4875
1754.49584	2402.7875
1757.71349	2366.5875
1760.92903	2338.6875
1764.14244	2302.7875
1767.35375	2313.3875
1770.56294	2289.7875
1773.77002	2293.8875
1776.97499	2298.2875
1780.17785	2332.0875
1783.37861	2339.9875
1786.57727	2353.1875
1789.77382	2347.9875
1792.96828	2338.8875
1796.16064	2324.1875
1799.3509	2326.9875
1802.53907	2317.4875
1805.72514	2306.4875
1808.90913	2296.4875
1812.09102	2284.0875
1815.27083	2297.5875
1818.44856	2273.7875
1821.6242	2272.2875
1824.79776	2261.2875
1827.96924	2246.8875
1831.13864	2257.2875
1834.30597	2242.0875
1837.47122	2241.3875
1840.6344	2242.0875
1843.7955	2241.2875
1846.95454	2229.4875
1850.11151	2229.1875
1853.26642	2216.0875
1856.41926	2214.9875
1859.57004	2211.1875
1862.71876	2202.8875
1865.86542	2200.1875
1869.01003	2200.2875
1872.15258	2186.7875
1875.29308	2188.9875
1878.43152	2174.8875
1881.56792	2183.2875
1884.70227	2170.4875
1887.83457	2162.0875
1890.96482	2157.5875
1894.09304	2150.9875
1897.21921	2149.0875
1900.34335	2146.0875
1903.46544	2137.5875
1906.58551	2136.9875
1909.70353	2137.0875
1912.81953	2126.2875
1915.93349	2119.5875
1919.04543	2108.8875
1922.15534	2109.5875
1925.26322	2114.4875
1928.36908	2101.9875
1931.47292	2079.8875
1934.57473	2082.6875
1937.67453	2079.6875
1940.77232	2055.2875
1943.86808	2050.4875
1946.96184	2044.5875
1950.05358	2051.3875
1953.14331	2037.0875
1956.23103	2026.7875
1959.31675	2016.1875
1962.40046	2017.6875
1965.48217	2002.6875
1968.56188	1986.7875
1971.63959	1995.9875
1974.7153	1994.2875
1977.78901	1974.7875
1980.86073	1973.9875
1983.93046	1966.5875
1986.99819	1953.6875
1990.06394	1943.9875
1993.1277	1933.5875
1996.18947	1932.2875
1999.24925	1921.3875
2002.30706	1906.0875
2005.36288	1914.7875
2008.41672	1896.8875
2011.46859	1889.5875
2014.51848	1879.5875
2017.56639	1876.7875
2020.61233	1877.6875
2023.6563	1862.5875
2026.6983	1856.4875
2029.73833	1849.5875
2032.7764	1849.6875
2035.8125	1836.5875
2038.84664	1834.1875
2041.87881	1822.3875
2044.90903	1819.3875
2047.93729	1810.0875
2050.96359	1817.1875
2053.98794	1803.4875
2057.01034	1796.5875
2060.03078	1791.3875
2063.04927	1786.3875
2066.06582	1791.1875
2069.08042	1798.6875
2072.09307	1792.4875
2075.10378	1774.3875
2078.11255	1789.0875
2081.11938	1786.2875
2084.12426	1775.1875
2087.12722	1780.9875
2090.12824	1772.3875
2093.12732	1777.6875
2096.12447	1768.0875
2099.11969	1773.5875
2102.11299	1756.3875
2105.10435	1768.2875
2108.09379	1767.6875
2111.08131	1764.7875
2114.0669	1757.9875
2117.05057	1750.9875
2120.03233	1759.9875
2123.01216	1756.0875
2125.99008	1752.9875
2128.96609	1757.4875
2131.94018	1752.9875
2134.91236	1751.1875
2137.88263	1736.1875
2140.851	1746.2875
2143.81746	1745.2875
2146.78201	1739.9875
2149.74466	1746.2875
2152.7054	1737.5875
2155.66425	1733.2875
2158.6212	1737.4875
2161.57625	1728.9875
2164.52941	1729.3875
2167.48067	1725.3875
2170.43004	1728.6875
2173.37752	1714.6875
2176.32311	1722.6875
2179.26681	1718.1875
2182.20863	1723.2875
2185.14856	1715.2875
2188.08661	1716.9875
2191.02278	1717.3875
2193.95707	1708.3875
2196.88948	1701.1875
2199.82001	1702.9875
2202.74867	1701.1875
2205.67545	1699.1875
2208.60037	1692.5875
2211.52341	1685.0875
2214.44458	1692.1875
2217.36388	1676.7875
2220.28132	1669.3875
2223.1969	1661.8875
2226.11061	1659.4875
2229.02246	1659.1875
2231.93245	1642.9875
2234.84058	1631.5875
2237.74686	1637.9875
2240.65128	1631.9875
2243.55385	1627.3875
2246.45456	1618.5875
2249.35343	1622.6875
2252.25044	1622.5875
2255.14561	1610.8875
2258.03893	1603.6875
2260.93041	1585.5875
2263.82004	1585.1875
2266.70783	1582.8875
2269.59378	1591.7875
2272.4779	1591.1875
2275.36017	1583.1875
2278.24061	1571.4875
2281.11922	1569.8875
2283.996	1562.7875
2286.87094	1557.6875
2289.74405	1559.7875
2292.61534	1552.3875
2295.4848	1539.8875
2298.35243	1548.3875
2301.21824	1535.4875
2304.08223	1544.2875
2306.94439	1534.1875
2309.80474	1531.7875
2312.66327	1524.3875
2315.51999	1521.1875
2318.37489	1516.8875
2321.22797	1521.8875
2324.07925	1511.0875
2326.92871	1513.6875
2329.77637	1515.2875
2332.62222	1509.7875
2335.46626	1504.1875
2338.3085	1497.2875
2341.14893	1495.4875
2343.98756	1485.5875
2346.8244	1482.0875
2349.65943	1477.2875
2352.49267	1478.6875
2355.32411	1476.4875
2358.15376	1469.4875
2360.98161	1480.1875
2363.80768	1478.8875
2366.63195	1475.3875
2369.45444	1461.3875
2372.27514	1463.5875
2375.09405	1467.8875
2377.91118	1464.6875
2380.72652	1450.5875
2383.54009	1451.1875
2386.35187	1450.5875
2389.16188	1441.1875
2391.97011	1424.6875
2394.77657	1429.9875
2397.58125	1417.8875
2400.38416	1418.0875
2403.18529	1411.2875
2405.98466	1409.7875
2408.78226	1405.3875
2411.57809	1407.4875
2414.37216	1399.9875
2417.16446	1393.0875
2419.955	1396.6875
2422.74378	1394.1875
2425.5308	1387.5875
2428.31606	1390.4875
2431.09956	1385.1875
2433.88131	1382.4875
2436.6613	1385.7875
2439.43954	1377.1875
2442.21603	1381.5875
2444.99077	1370.5875
2447.76377	1377.0875
2450.53501	1363.2875
2453.30451	1365.5875
2456.07226	1362.2875
2458.83827	1355.8875
2461.60254	1358.4875
2464.36507	1361.1875
2467.12586	1353.7875
2469.88492	1350.2875
2472.64224	1338.5875
2475.39782	1333.4875
2478.15167	1324.0875
2480.90379	1333.6875
2483.65417	1332.6875
2486.40283	1334.3875
2489.14976	1333.8875
2491.89497	1333.1875
2494.63845	1322.3875
2497.3802	1307.3875
2500.12024	1321.1875
2502.85855	1317.4875
2505.59514	1321.8875
2508.33002	1317.8875
2511.06318	1309.6875
2513.79462	1307.3875
2516.52435	1300.0875
2519.25237	1300.5875
2521.97867	1289.6875
2524.70327	1286.4875
2527.42616	1281.2875
2530.14734	1278.5875
2532.86681	1279.8875
2535.58458	1277.0875
2538.30065	1271.1875
2541.01501	1272.8875
2543.72768	1277.1875
2546.43864	1266.2875
2549.14791	1278.9875
2551.85548	1268.2875
2554.56136	1256.4875
2557.26554	1263.0875
2559.96803	1265.5875
2562.66883	1249.8875
2565.36794	1256.3875
2568.06536	1246.1875
2570.7611	1247.8875
2573.45514	1241.0875
2576.14751	1230.6875
2578.83819	1236.0875
2581.52719	1233.8875
2584.21451	1224.1875
2586.90015	1224.1875
2589.58411	1218.5875
2592.2664	1219.8875
2594.94701	1218.7875
2597.62594	1214.1875
2600.30321	1210.0875
2602.9788	1208.1875
2605.65273	1205.1875
2608.32498	1201.8875
2610.99557	1205.2875
2613.66449	1203.1875
2616.33175	1194.5875
2618.99734	1187.6875
2621.66128	1200.4875
2624.32355	1173.6875
2626.98416	1181.0875
2629.64311	1188.8875
2632.30041	1183.3875
2634.95605	1187.4875
2637.61004	1182.6875
2640.26238	1179.7875
2642.91306	1173.8875
2645.56209	1172.6875
2648.20948	1165.8875
2650.85521	1173.1875
2653.4993	1171.3875
2656.14175	1179.7875
2658.78255	1176.5875
2661.42171	1179.8875
2664.05923	1167.5875
2666.6951	1174.8875
2669.32934	1172.6875
2671.96194	1178.2875
2674.59291	1180.0875
2677.22224	1172.6875
2679.84993	1178.9875
2682.476	1173.3875
2685.10043	1176.2875
2687.72324	1170.7875
2690.34441	1177.9875
2692.96396	1171.8875
2695.58188	1174.7875
2698.19818	1184.2875
2700.81285	1179.2875
2703.4259	1158.0875
2706.03733	1089.8875
2708.64714	1127.7875
2711.25533	1156.6875
2713.86191	1167.8875
2716.46687	1177.8875
2719.07021	1177.4875
2721.67194	1192.3875
2724.27206	1193.2875
2726.87057	1198.7875
2729.46747	1194.4875
2732.06276	1197.9875
2734.65644	1206.1875
2737.24852	1207.2875
2739.83899	1205.9875
2742.42786	1206.3875
2745.01513	1207.6875
2747.60079	1211.5875
2750.18486	1210.4875
2752.76733	1204.0875
2755.3482	1215.4875
2757.92747	1218.4875
2760.50515	1211.0875
2763.08123	1213.9875
2765.65573	1217.2875
2768.22863	1218.2875
2770.79994	1217.5875
2773.36967	1214.5875
2775.9378	1216.2875
2778.50435	1213.0875
2781.06932	1209.6875
2783.6327	1207.3875
2786.1945	1215.8875
2788.75471	1203.2875
2791.31335	1205.1875
2793.87041	1213.8875
2796.42589	1209.3875
2798.97979	1217.1875
2801.53212	1208.0875
2804.08288	1208.9875
2806.63206	1201.6875
2809.17967	1199.7875
2811.72571	1203.2875
2814.27018	1197.2875
2816.81308	1189.3875
2819.35442	1192.0875
2821.89419	1187.4875
2824.43239	1183.1875
2826.96904	1184.4875
2829.50412	1183.9875
2832.03763	1191.7875
2834.56959	1190.2875
2837.1	1192.1875
2839.62884	1189.2875
2842.15613	1200.4875
2844.68186	1219.7875
2847.20604	1228.1875
2849.72867	1247.3875
2852.24974	1251.3875
2854.76927	1247.2875
2857.28724	1240.7875
2859.80367	1259.3875
2862.31855	1281.6875
2864.83189	1294.9875
2867.34368	1302.2875
2869.85393	1313.7875
2872.36264	1331.9875
2874.8698	1338.3875
2877.37543	1340.8875
2879.87952	1351.6875
2882.38207	1360.4875
2884.88308	1371.4875
2887.38256	1382.0875
2889.88051	1375.7875
2892.37692	1378.7875
2894.8718	1389.9875
2897.36515	1385.2875
2899.85698	1381.8875
2902.34727	1390.0875
2904.83604	1400.5875
2907.32328	1394.6875
2909.809	1400.6875
2912.29319	1405.1875
2914.77587	1415.4875
2917.25702	1420.3875
2919.73665	1424.9875
2922.21476	1425.1875
2924.69136	1427.9875
2927.16644	1427.7875
2929.64	1433.3875
2932.11205	1424.6875
2934.58258	1415.4875
2937.05161	1413.0875
2939.51912	1416.1875
2941.98513	1392.5875
2944.44962	1382.7875
2946.91261	1344.2875
2949.37409	1333.1875
2951.83407	1316.6875
2954.29254	1298.6875
2956.74951	1278.3875
2959.20498	1255.3875
2961.65895	1239.0875
2964.11142	1220.7875
2966.56239	1207.7875
2969.01186	1187.1875
2971.45984	1167.2875
2973.90632	1160.5875
2976.35131	1141.7875
2978.7948	1128.7875
2981.23681	1118.7875
2983.67732	1109.6875
2986.11635	1100.8875
2988.55388	1084.3875
2990.98993	1080.1875
2993.4245	1072.4875
2995.85758	1063.5875
2998.28917	1056.2875
3000.71928	1053.4875
3003.14791	1048.0875
3005.57506	1043.7875
3008.00073	1044.6875
3010.42493	1031.9875
3012.84764	1033.9875
3015.26888	1037.0875
3017.68865	1030.6875
3020.10694	1028.8875
3022.52376	1019.5875
3024.9391	1018.8875
3027.35298	1018.1875
3029.76539	1023.1875
3032.17632	1019.4875
3034.5858	1016.4875
3036.9938	1013.5875
3039.40034	1013.8875
3041.80542	1019.8875
3044.20903	1012.4875
3046.61118	1013.4875
3049.01187	1010.5875
3051.4111	1013.2875
3053.80888	1010.5875
3056.20519	1008.2875
3058.60005	1012.1875
3060.99345	1007.7875
3063.3854	1002.6875
3065.7759	1003.0875
3068.16494	998.7875
3070.55254	1009.1875
3072.93868	1009.5875
3075.32338	1002.7875
3077.70662	1009.9875
3080.08842	1003.2875
3082.46878	1014.6875
3084.84769	1014.7875
3087.22515	1013.8875
3089.60118	1012.5875
3091.97576	1018.8875
3094.3489	1019.1875
3096.72061	1019.8875
3099.09087	1033.9875
3101.4597	1030.1875
3103.82709	1030.9875
3106.19305	1034.5875
3108.55757	1039.9875
3110.92066	1042.8875
3113.28232	1042.5875
3115.64255	1044.2875
3118.00134	1039.8875
3120.35871	1045.1875
3122.71466	1053.1875
3125.06917	1055.2875
