Data from AgNPs_FTO_APTES_UA_1uM_CRN_200uM_R6G_10uM_NaF_0.1M_Addition_RamanShift__26__17-35-19-847.txt Node

Date: Thu Jan 27 17:35:19 GMT 2022
User: TCL
Spectrometer: QEP01345
Trigger mode: 4
Integration Time (sec): 7.000000E0
Scans to average: 10
Electric dark correction enabled: true
Nonlinearity correction enabled: false
Boxcar width: 0
XAxis mode: Raman Shifts
Number of Pixels in Spectrum: 1044
>>>>>Begin Spectral Data<<<<<
46.04893	0.5625
50.45542	1.0625
54.85868	-2.3375
59.25871	-1.5375
63.6555	47.4625
68.04907	51.5625
72.43941	53.8625
76.82654	58.4625
81.21044	62.0625
85.59113	61.9625
89.96862	62.2625
94.34289	66.6625
98.71396	64.9625
103.08183	68.5625
107.4465	71.5625
111.80798	72.7625
116.16626	76.4625
120.52136	79.5625
124.87327	80.4625
129.222	81.1625
133.56755	84.9625
137.90993	86.6625
142.24913	96.1625
146.58517	104.3625
150.91804	121.4625
155.24774	133.9625
159.57429	166.2625
163.89768	207.9625
168.21792	275.1625
172.53501	371.3625
176.84895	507.0625
181.15975	703.4625
185.46741	980.0625
189.77193	1354.1625
194.07331	1816.6625
198.37157	2347.5625
202.6667	2917.6625
206.9587	3461.0625
211.24758	4019.1625
215.53334	4578.8625
219.81599	5201.0625
224.09553	5890.4625
228.37195	6650.9625
232.64527	7457.3625
236.91549	8343.2625
241.18261	9154.2625
245.44663	9868.4625
249.70755	10496.0625
253.96539	10996.6625
258.22014	11453.5625
262.4718	11818.6625
266.72039	12140.0625
270.96589	12279.0625
275.20832	12279.1625
279.44768	12172.9625
283.68397	11993.6625
287.91719	11823.1625
292.14735	11745.6625
296.37445	11898.1625
300.59849	12173.1625
304.81948	12560.0625
309.03742	12791.8625
313.25231	12721.5625
317.46415	12239.3625
321.67296	11517.4625
325.87872	10935.6625
330.08145	10626.3625
334.28114	10620.4625
338.47781	10773.5625
342.67145	10983.5625
346.86207	11345.8625
351.04966	11866.3625
355.23424	12450.2625
359.4158	12921.0625
363.59435	13208.8625
367.76989	13321.2625
371.94243	13389.6625
376.11196	13403.4625
380.27849	13402.3625
384.44203	13346.0625
388.60257	13237.7625
392.76012	13177.5625
396.91468	13240.1625
401.06626	13520.2625
405.21485	13740.9625
409.36047	13582.2625
413.50311	13053.9625
417.64277	12529.5625
421.77947	12275.3625
425.9132	12134.0625
430.04396	12143.2625
434.17176	12198.8625
438.2966	12319.9625
442.41849	12603.7625
446.53742	12975.6625
450.6534	13265.0625
454.76644	13551.5625
458.87653	13598.3625
462.98368	13494.6625
467.08789	13322.8625
471.18916	13105.8625
475.2875	12894.5625
479.38291	12702.5625
483.4754	12506.8625
487.56496	12347.1625
491.6516	12241.6625
495.73531	12125.3625
499.81612	12119.5625
503.89401	12222.2625
507.96899	12339.2625
512.04106	12456.3625
516.11023	12644.5625
520.1765	12779.8625
524.23987	12728.4625
528.30034	12579.8625
532.35792	12368.8625
536.41261	12192.5625
540.46441	11965.8625
544.51333	11870.2625
548.55936	11915.1625
552.60252	12094.6625
556.64279	12329.6625
560.6802	12490.2625
564.71473	12580.2625
568.7464	12952.5625
572.7752	13214.2625
576.80114	13018.5625
580.82422	12676.9625
584.84444	12572.5625
588.86181	12632.1625
592.87633	12821.2625
596.888	12999.3625
600.89682	13233.4625
604.9028	14139.2625
608.90594	16864.8625
612.90624	20691.4625
616.90371	20363.6625
620.89834	15344.7625
624.89015	12848.3625
628.87913	12386.1625
632.86528	12387.8625
636.84862	12434.9625
640.82913	12339.8625
644.80683	11985.0625
648.78172	11668.2625
652.75379	11680.1625
656.72306	11971.7625
660.68952	12406.1625
664.65319	12380.3625
668.61405	11987.2625
672.57211	11790.9625
676.52738	11777.0625
680.47986	11803.7625
684.42955	11743.6625
688.37646	11689.5625
692.32058	11672.1625
696.26192	11746.9625
700.20048	11845.4625
704.13626	11929.6625
708.06928	11872.0625
711.99952	11740.1625
715.927	11722.6625
719.85171	11723.4625
723.77365	11763.7625
727.69284	11694.2625
731.60928	11629.4625
735.52295	11642.4625
739.43388	11696.8625
743.34206	11732.8625
747.24749	11741.1625
751.15017	11804.3625
755.05012	11946.9625
758.94733	12315.7625
762.8418	13104.4625
766.73354	14625.1625
770.62254	16404.0625
774.50882	17510.0625
778.39237	16986.9625
782.27321	15152.7625
786.15132	13369.7625
790.02671	12339.5625
793.89938	11896.3625
797.76935	11709.7625
801.6366	11610.6625
805.50115	11574.7625
809.36299	11508.1625
813.22213	11471.3625
817.07857	11466.6625
820.93231	11462.2625
824.78336	11490.2625
828.63172	11520.4625
832.47738	11559.8625
836.32036	11570.5625
840.16066	11528.1625
843.99827	11536.1625
847.8332	11503.2625
851.66546	11462.9625
855.49504	11487.4625
859.32195	11479.0625
863.1462	11455.8625
866.96777	11430.8625
870.78668	11400.7625
874.60293	11371.7625
878.41652	11398.2625
882.22745	11428.7625
886.03573	11497.2625
889.84136	11470.7625
893.64433	11407.3625
897.44466	11364.1625
901.24235	11330.6625
905.0374	11306.9625
908.8298	11272.6625
912.61957	11263.8625
916.40671	11309.5625
920.19121	11397.1625
923.97308	11505.0625
927.75233	11601.5625
931.52895	11722.5625
935.30295	11665.0625
939.07433	11436.7625
942.84309	11201.3625
946.60924	11046.6625
950.37278	10949.3625
954.13371	10918.9625
957.89203	10830.5625
961.64774	10785.5625
965.40086	10754.2625
969.15137	10682.9625
972.89929	10680.3625
976.64461	10646.2625
980.38733	10666.6625
984.12747	10690.0625
987.86502	10771.2625
991.59999	10890.8625
995.33237	11015.8625
999.06217	11270.6625
1002.78939	11517.4625
1006.51404	11676.8625
1010.23611	11806.4625
1013.95561	11904.0625
1017.67255	11919.2625
1021.38692	11792.8625
1025.09872	11683.8625
1028.80796	11690.8625
1032.51465	11864.1625
1036.21877	12071.3625
1039.92035	12108.6625
1043.61937	12066.7625
1047.31584	11878.7625
1051.00976	11714.4625
1054.70114	11581.9625
1058.38998	11524.3625
1062.07627	11578.9625
1065.76003	11585.1625
1069.44126	11612.6625
1073.11995	11702.5625
1076.79611	11814.6625
1080.46974	11933.2625
1084.14085	12092.8625
1087.80943	12285.1625
1091.47549	12383.5625
1095.13903	12256.5625
1098.80005	11994.5625
1102.45857	11719.4625
1106.11456	11634.4625
1109.76805	11701.0625
1113.41903	11870.9625
1117.06751	12173.3625
1120.71348	12502.3625
1124.35696	12861.2625
1127.99793	13219.7625
1131.63641	13267.5625
1135.2724	12821.8625
1138.90589	12299.3625
1142.5369	12034.9625
1146.16542	11823.0625
1149.79145	11699.0625
1153.415	11663.9625
1157.03607	11724.9625
1160.65467	11892.7625
1164.27079	12183.6625
1167.88443	12716.8625
1171.49561	13527.0625
1175.10432	14800.7625
1178.71056	16537.7625
1182.31434	17917.2625
1185.91565	18330.9625
1189.51451	17991.8625
1193.11091	16982.1625
1196.70485	15824.2625
1200.29634	14904.1625
1203.88538	14341.2625
1207.47197	13701.2625
1211.05612	13141.1625
1214.63782	12864.1625
1218.21708	12789.8625
1221.79391	12800.5625
1225.36829	12864.0625
1228.94024	12845.6625
1232.50976	12752.6625
1236.07685	12675.2625
1239.6415	12632.1625
1243.20374	12679.5625
1246.76355	12713.1625
1250.32093	12833.2625
1253.8759	13094.0625
1257.42845	13414.0625
1260.97859	13717.5625
1264.52631	14048.9625
1268.07163	14387.5625
1271.61453	14709.9625
1275.15503	15026.0625
1278.69312	15254.1625
1282.22882	15383.0625
1285.76211	15591.8625
1289.29301	15935.9625
1292.82151	16376.8625
1296.34761	16920.2625
1299.87133	17694.5625
1303.39266	18853.3625
1306.9116	20587.4625
1310.42815	22628.7625
1313.94233	23905.0625
1317.45412	23656.9625
1320.96354	22288.9625
1324.47058	20788.5625
1327.97525	19402.7625
1331.47754	18493.1625
1334.97747	18123.4625
1338.47502	18147.3625
1341.97022	18396.9625
1345.46305	18765.7625
1348.95352	19345.0625
1352.44163	20313.8625
1355.92738	21880.5625
1359.41078	24470.7625
1362.89183	27138.3625
1366.37053	26957.7625
1369.84688	23444.9625
1373.32088	19640.8625
1376.79254	17151.4625
1380.26186	16001.4625
1383.72883	15488.2625
1387.19347	15144.9625
1390.65578	14753.9625
1394.11575	14492.3625
1397.57339	14410.7625
1401.0287	14540.4625
1404.48168	14781.3625
1407.93234	14904.4625
1411.38068	15033.3625
1414.82669	15000.0625
1418.27039	14725.9625
1421.71177	14426.4625
1425.15083	14118.3625
1428.58758	13943.1625
1432.02203	13949.4625
1435.45416	14074.4625
1438.88399	14231.3625
1442.31151	14265.4625
1445.73673	14301.5625
1449.15965	14419.1625
1452.58027	14417.8625
1455.9986	14357.1625
1459.41463	14301.8625
1462.82837	14406.3625
1466.23982	14671.9625
1469.64898	14971.1625
1473.05586	15155.7625
1476.46045	15256.5625
1479.86276	15383.6625
1483.26279	15577.6625
1486.66054	15747.5625
1490.05602	16064.8625
1493.44922	16483.0625
1496.84016	17087.4625
1500.22882	18038.0625
1503.61521	19515.0625
1506.99934	21415.0625
1510.38121	23386.1625
1513.76081	24430.8625
1517.13816	23581.7625
1520.51324	21227.7625
1523.88607	18770.2625
1527.25665	16994.8625
1530.62498	16035.2625
1533.99105	15482.3625
1537.35488	15165.3625
1540.71647	15016.0625
1544.07581	14922.2625
1547.4329	14873.9625
1550.78776	14838.2625
1554.14038	14836.1625
1557.49077	14931.6625
1560.83892	15092.4625
1564.18484	15341.6625
1567.52853	15597.8625
1570.86999	15821.9625
1574.20922	16053.1625
1577.54624	16042.4625
1580.88103	15640.3625
1584.2136	14980.5625
1587.54395	14673.5625
1590.87208	14865.8625
1594.19801	15601.3625
1597.52172	16635.2625
1600.84321	17266.9625
1604.16251	16890.0625
1607.47959	15882.2625
1610.79447	14705.9625
1614.10715	13664.5625
1617.41763	12776.4625
1620.7259	12237.0625
1624.03199	11995.2625
1627.33587	12010.4625
1630.63757	12238.2625
1633.93707	12732.8625
1637.23439	13492.3625
1640.52951	14559.7625
1643.82246	15988.0625
1647.11321	17563.0625
1650.40179	18681.2625
1653.68819	18285.7625
1656.97241	16289.4625
1660.25446	13977.8625
1663.53433	12368.0625
1666.81203	11438.1625
1670.08756	10889.4625
1673.36092	10552.2625
1676.63211	10360.4625
1679.90115	10204.1625
1683.16801	10101.2625
1686.43272	10007.7625
1689.69527	9929.2625
1692.95567	9853.1625
1696.2139	9791.0625
1699.46999	9764.0625
1702.72392	9743.8625
1705.97571	9720.3625
1709.22535	9752.1625
1712.47284	9783.9625
1715.71819	9803.5625
1718.96139	9809.5625
1722.20246	9805.6625
1725.44139	9769.0625
1728.67818	9744.3625
1731.91284	9704.2625
1735.14537	9665.6625
1738.37576	9613.6625
1741.60403	9573.9625
1744.83017	9541.3625
1748.05418	9490.9625
1751.27607	9504.7625
1754.49584	9473.3625
1757.71349	9445.2625
1760.92903	9423.9625
1764.14244	9395.5625
1767.35375	9394.5625
1770.56294	9360.4625
1773.77002	9336.6625
1776.97499	9349.6625
1780.17785	9345.8625
1783.37861	9339.3625
1786.57727	9338.6625
1789.77382	9340.8625
1792.96828	9346.6625
1796.16064	9304.5625
1799.3509	9295.2625
1802.53907	9297.3625
1805.72514	9265.4625
1808.90913	9253.4625
1812.09102	9228.6625
1815.27083	9207.7625
1818.44856	9193.9625
1821.6242	9166.6625
1824.79776	9163.4625
1827.96924	9143.6625
1831.13864	9140.8625
1834.30597	9140.4625
1837.47122	9126.7625
1840.6344	9124.7625
1843.7955	9114.2625
1846.95454	9131.3625
1850.11151	9103.5625
1853.26642	9096.3625
1856.41926	9114.3625
1859.57004	9121.9625
1862.71876	9116.4625
1865.86542	9116.2625
1869.01003	9126.9625
1872.15258	9106.0625
1875.29308	9102.3625
1878.43152	9106.5625
1881.56792	9108.8625
1884.70227	9092.1625
1887.83457	9104.8625
1890.96482	9062.9625
1894.09304	9081.1625
1897.21921	9044.8625
1900.34335	9060.4625
1903.46544	9065.1625
1906.58551	9083.2625
1909.70353	9077.6625
1912.81953	9036.6625
1915.93349	9047.1625
1919.04543	9034.3625
1922.15534	9042.2625
1925.26322	9004.6625
1928.36908	9014.5625
1931.47292	8976.4625
1934.57473	8946.6625
1937.67453	8947.2625
1940.77232	8881.4625
1943.86808	8861.8625
1946.96184	8838.3625
1950.05358	8804.2625
1953.14331	8782.2625
1956.23103	8758.9625
1959.31675	8732.3625
1962.40046	8732.0625
1965.48217	8694.1625
1968.56188	8654.3625
1971.63959	8635.5625
1974.7153	8627.3625
1977.78901	8591.7625
1980.86073	8579.1625
1983.93046	8548.2625
1986.99819	8520.8625
1990.06394	8494.3625
1993.1277	8460.3625
1996.18947	8444.3625
1999.24925	8438.0625
2002.30706	8395.3625
2005.36288	8378.0625
2008.41672	8356.7625
2011.46859	8330.9625
2014.51848	8326.9625
2017.56639	8284.0625
2020.61233	8251.8625
2023.6563	8238.9625
2026.6983	8230.9625
2029.73833	8218.9625
2032.7764	8214.6625
2035.8125	8178.4625
2038.84664	8171.2625
2041.87881	8162.0625
2044.90903	8153.7625
2047.93729	8155.4625
2050.96359	8126.7625
2053.98794	8109.8625
2057.01034	8112.0625
2060.03078	8111.5625
2063.04927	8117.7625
2066.06582	8097.3625
2069.08042	8094.9625
2072.09307	8096.9625
2075.10378	8068.3625
2078.11255	8076.6625
2081.11938	8048.5625
2084.12426	8063.1625
2087.12722	8054.6625
2090.12824	8037.4625
2093.12732	8051.9625
2096.12447	8055.6625
2099.11969	8048.4625
2102.11299	8071.0625
2105.10435	8072.8625
2108.09379	8065.5625
2111.08131	8083.0625
2114.0669	8074.8625
2117.05057	8079.6625
2120.03233	8081.8625
2123.01216	8094.1625
2125.99008	8109.9625
2128.96609	8113.2625
2131.94018	8121.8625
2134.91236	8116.8625
2137.88263	8117.7625
2140.851	8154.8625
2143.81746	8169.2625
2146.78201	8139.9625
2149.74466	8131.0625
2152.7054	8140.0625
2155.66425	8144.8625
2158.6212	8142.7625
2161.57625	8138.2625
2164.52941	8135.9625
2167.48067	8114.2625
2170.43004	8137.4625
2173.37752	8124.4625
2176.32311	8141.2625
2179.26681	8125.8625
2182.20863	8135.8625
2185.14856	8116.2625
2188.08661	8143.2625
2191.02278	8135.1625
2193.95707	8132.1625
2196.88948	8122.7625
2199.82001	8114.8625
2202.74867	8109.7625
2205.67545	8127.1625
2208.60037	8108.5625
2211.52341	8076.3625
2214.44458	8071.7625
2217.36388	8054.9625
2220.28132	8080.4625
2223.1969	8040.0625
2226.11061	8053.2625
2229.02246	8014.4625
2231.93245	8007.0625
2234.84058	8001.2625
2237.74686	7995.1625
2240.65128	7961.1625
2243.55385	7960.0625
2246.45456	7944.5625
2249.35343	7939.5625
2252.25044	7938.0625
2255.14561	7925.2625
2258.03893	7925.0625
2260.93041	7898.4625
2263.82004	7891.0625
2266.70783	7887.0625
2269.59378	7855.7625
2272.4779	7851.4625
2275.36017	7816.3625
2278.24061	7820.6625
2281.11922	7798.7625
2283.996	7795.7625
2286.87094	7797.5625
2289.74405	7772.0625
2292.61534	7738.5625
2295.4848	7756.6625
2298.35243	7774.2625
2301.21824	7753.6625
2304.08223	7755.0625
2306.94439	7758.0625
2309.80474	7751.4625
2312.66327	7745.5625
2315.51999	7751.0625
2318.37489	7732.4625
2321.22797	7727.3625
2324.07925	7735.2625
2326.92871	7719.3625
2329.77637	7718.8625
2332.62222	7708.7625
2335.46626	7699.4625
2338.3085	7690.9625
2341.14893	7691.0625
2343.98756	7715.3625
2346.8244	7693.5625
2349.65943	7706.0625
2352.49267	7690.9625
2355.32411	7700.0625
2358.15376	7695.1625
2360.98161	7695.2625
2363.80768	7692.2625
2366.63195	7720.1625
2369.45444	7684.2625
2372.27514	7691.1625
2375.09405	7660.6625
2377.91118	7659.7625
2380.72652	7632.2625
2383.54009	7596.1625
2386.35187	7562.4625
2389.16188	7540.8625
2391.97011	7528.0625
2394.77657	7517.6625
2397.58125	7529.1625
2400.38416	7500.3625
2403.18529	7490.5625
2405.98466	7462.7625
2408.78226	7467.2625
2411.57809	7447.5625
2414.37216	7417.5625
2417.16446	7443.5625
2419.955	7415.5625
2422.74378	7426.6625
2425.5308	7421.5625
2428.31606	7430.0625
2431.09956	7407.2625
2433.88131	7400.2625
2436.6613	7407.8625
2439.43954	7410.0625
2442.21603	7392.0625
2444.99077	7404.5625
2447.76377	7412.1625
2450.53501	7396.1625
2453.30451	7378.0625
2456.07226	7392.5625
2458.83827	7401.3625
2461.60254	7355.2625
2464.36507	7377.3625
2467.12586	7378.6625
2469.88492	7347.3625
2472.64224	7369.6625
2475.39782	7364.5625
2478.15167	7361.5625
2480.90379	7367.2625
2483.65417	7386.4625
2486.40283	7392.2625
2489.14976	7383.3625
2491.89497	7387.8625
2494.63845	7393.8625
2497.3802	7379.1625
2500.12024	7389.3625
2502.85855	7377.6625
2505.59514	7362.4625
2508.33002	7338.8625
2511.06318	7320.0625
2513.79462	7328.6625
2516.52435	7300.7625
2519.25237	7271.4625
2521.97867	7281.7625
2524.70327	7274.8625
2527.42616	7230.7625
2530.14734	7273.9625
2532.86681	7249.5625
2535.58458	7243.6625
2538.30065	7239.3625
2541.01501	7239.7625
2543.72768	7203.0625
2546.43864	7218.5625
2549.14791	7202.0625
2551.85548	7212.7625
2554.56136	7197.1625
2557.26554	7179.6625
2559.96803	7191.5625
2562.66883	7177.0625
2565.36794	7158.0625
2568.06536	7156.2625
2570.7611	7131.7625
2573.45514	7140.7625
2576.14751	7142.7625
2578.83819	7115.6625
2581.52719	7122.5625
2584.21451	7096.6625
2586.90015	7110.3625
2589.58411	7103.9625
2592.2664	7079.5625
2594.94701	7084.9625
2597.62594	7072.3625
2600.30321	7053.9625
2602.9788	7045.7625
2605.65273	7034.0625
2608.32498	7054.0625
2610.99557	7054.3625
2613.66449	7056.2625
2616.33175	7020.0625
2618.99734	7029.8625
2621.66128	7046.8625
2624.32355	7038.6625
2626.98416	7025.2625
2629.64311	7027.0625
2632.30041	7032.6625
2634.95605	6994.5625
2637.61004	6997.6625
2640.26238	6973.0625
2642.91306	6982.5625
2645.56209	6948.4625
2648.20948	6951.2625
2650.85521	6950.1625
2653.4993	6952.4625
2656.14175	6956.9625
2658.78255	6977.1625
2661.42171	6959.7625
2664.05923	6974.5625
2666.6951	6993.2625
2669.32934	6972.0625
2671.96194	6956.3625
2674.59291	6974.8625
2677.22224	6984.6625
2679.84993	6988.3625
2682.476	6972.6625
2685.10043	6964.2625
2687.72324	6936.7625
2690.34441	6958.7625
2692.96396	6952.5625
2695.58188	6979.3625
2698.19818	6953.3625
2700.81285	6957.1625
2703.4259	6963.7625
2706.03733	6950.3625
2708.64714	6955.2625
2711.25533	6960.4625
2713.86191	6945.5625
2716.46687	6971.6625
2719.07021	6971.8625
2721.67194	6981.4625
2724.27206	6983.4625
2726.87057	7001.1625
2729.46747	6976.9625
2732.06276	6970.5625
2734.65644	6957.8625
2737.24852	6982.3625
2739.83899	6962.8625
2742.42786	6959.6625
2745.01513	6934.7625
2747.60079	6942.4625
2750.18486	6935.5625
2752.76733	6955.2625
2755.3482	6928.3625
2757.92747	6919.9625
2760.50515	6932.0625
2763.08123	6917.2625
2765.65573	6917.5625
2768.22863	6923.2625
2770.79994	6907.3625
2773.36967	6882.9625
2775.9378	6893.7625
2778.50435	6873.5625
2781.06932	6880.4625
2783.6327	6871.2625
2786.1945	6881.5625
2788.75471	6866.3625
2791.31335	6860.5625
2793.87041	6868.6625
2796.42589	6844.8625
2798.97979	6831.1625
2801.53212	6832.3625
2804.08288	6820.5625
2806.63206	6823.2625
2809.17967	6800.9625
2811.72571	6791.6625
2814.27018	6784.4625
2816.81308	6789.1625
2819.35442	6774.3625
2821.89419	6781.6625
2824.43239	6790.9625
2826.96904	6791.0625
2829.50412	6788.7625
2832.03763	6778.6625
2834.56959	6779.4625
2837.1	6786.4625
2839.62884	6808.2625
2842.15613	6822.2625
2844.68186	6872.9625
2847.20604	6905.6625
2849.72867	6922.0625
2852.24974	6907.6625
2854.76927	6909.7625
2857.28724	6900.3625
2859.80367	6884.3625
2862.31855	6877.9625
2864.83189	6892.2625
2867.34368	6868.6625
2869.85393	6877.5625
2872.36264	6873.7625
2874.8698	6875.5625
2877.37543	6864.8625
2879.87952	6876.5625
2882.38207	6850.2625
2884.88308	6871.0625
2887.38256	6866.4625
2889.88051	6862.4625
2892.37692	6870.4625
2894.8718	6867.7625
2897.36515	6866.4625
2899.85698	6872.8625
2902.34727	6891.3625
2904.83604	6915.2625
2907.32328	6919.9625
2909.809	6910.2625
2912.29319	6915.1625
2914.77587	6925.5625
2917.25702	6920.5625
2919.73665	6895.1625
2922.21476	6931.9625
2924.69136	6929.9625
2927.16644	6918.2625
2929.64	6908.6625
2932.11205	6896.5625
2934.58258	6851.7625
2937.05161	6866.2625
2939.51912	6865.5625
2941.98513	6832.8625
2944.44962	6808.8625
2946.91261	6766.2625
2949.37409	6777.8625
2951.83407	6744.9625
2954.29254	6741.9625
2956.74951	6730.5625
2959.20498	6718.8625
2961.65895	6710.4625
2964.11142	6714.8625
2966.56239	6699.0625
2969.01186	6677.9625
2971.45984	6663.2625
2973.90632	6644.8625
2976.35131	6615.5625
2978.7948	6607.1625
2981.23681	6592.9625
2983.67732	6597.4625
2986.11635	6562.6625
2988.55388	6562.3625
2990.98993	6554.7625
2993.4245	6539.8625
2995.85758	6530.0625
2998.28917	6529.0625
3000.71928	6521.0625
3003.14791	6483.3625
3005.57506	6485.2625
3008.00073	6476.1625
3010.42493	6472.8625
3012.84764	6473.1625
3015.26888	6462.5625
3017.68865	6426.7625
3020.10694	6447.4625
3022.52376	6419.7625
3024.9391	6416.1625
3027.35298	6423.9625
3029.76539	6404.7625
3032.17632	6411.6625
3034.5858	6377.4625
3036.9938	6406.7625
3039.40034	6381.2625
3041.80542	6375.3625
3044.20903	6373.4625
3046.61118	6367.6625
3049.01187	6343.1625
3051.4111	6375.2625
3053.80888	6336.1625
3056.20519	6333.4625
3058.60005	6308.2625
3060.99345	6307.9625
3063.3854	6294.0625
3065.7759	6273.3625
3068.16494	6294.7625
3070.55254	6256.7625
3072.93868	6266.5625
3075.32338	6248.9625
3077.70662	6248.0625
3080.08842	6229.4625
