Data from AgNPs_FTO_APTES_UA_1uM_CRN_100uM_R6G_10uM_NaF_0.1M_Addition_RamanShift__11__16-33-29-777.txt Node

Date: Thu Jan 27 16:33:29 GMT 2022
User: TCL
Spectrometer: QEP01345
Trigger mode: 4
Integration Time (sec): 7.000000E0
Scans to average: 10
Electric dark correction enabled: true
Nonlinearity correction enabled: false
Boxcar width: 0
XAxis mode: Raman Shifts
Number of Pixels in Spectrum: 1044
>>>>>Begin Spectral Data<<<<<
46.04893	0.9125
50.45542	0.5125
54.85868	-1.9875
59.25871	-0.8875
63.6555	43.0125
68.04907	44.7125
72.43941	49.2125
76.82654	50.4125
81.21044	53.5125
85.59113	53.1125
89.96862	57.1125
94.34289	58.6125
98.71396	64.0125
103.08183	62.5125
107.4465	62.0125
111.80798	65.3125
116.16626	62.3125
120.52136	71.9125
124.87327	68.8125
129.222	68.9125
133.56755	75.8125
137.90993	80.6125
142.24913	83.7125
146.58517	92.2125
150.91804	108.4125
155.24774	124.9125
159.57429	145.9125
163.89768	184.8125
168.21792	243.6125
172.53501	330.4125
176.84895	451.6125
181.15975	631.6125
185.46741	875.2125
189.77193	1209.6125
194.07331	1633.1125
198.37157	2114.4125
202.6667	2604.3125
206.9587	3099.2125
211.24758	3588.8125
215.53334	4060.0125
219.81599	4553.3125
224.09553	5093.9125
228.37195	5692.3125
232.64527	6366.2125
236.91549	7042.0125
241.18261	7772.1125
245.44663	8452.1125
249.70755	9111.2125
253.96539	9666.4125
258.22014	10170.3125
262.4718	10558.1125
266.72039	10806.9125
270.96589	10981.8125
275.20832	11030.9125
279.44768	11003.5125
283.68397	10924.8125
287.91719	10814.4125
292.14735	10774.5125
296.37445	10747.5125
300.59849	10720.0125
304.81948	10746.2125
309.03742	10718.3125
313.25231	10621.9125
317.46415	10482.2125
321.67296	10280.6125
325.87872	10097.0125
330.08145	10016.3125
334.28114	10003.0125
338.47781	10093.1125
342.67145	10173.2125
346.86207	10281.2125
351.04966	10428.6125
355.23424	10527.7125
359.4158	10667.6125
363.59435	10757.4125
367.76989	10869.2125
371.94243	10927.9125
376.11196	10969.9125
380.27849	11014.6125
384.44203	11054.4125
388.60257	11076.2125
392.76012	11201.8125
396.91468	11358.7125
401.06626	11525.4125
405.21485	11588.9125
409.36047	11606.3125
413.50311	11506.0125
417.64277	11447.2125
421.77947	11451.4125
425.9132	11506.3125
430.04396	11559.6125
434.17176	11633.5125
438.2966	11663.7125
442.41849	11776.9125
446.53742	11974.8125
450.6534	12164.1125
454.76644	12343.2125
458.87653	12379.8125
462.98368	12439.0125
467.08789	12411.8125
471.18916	12367.3125
475.2875	12290.1125
479.38291	12286.3125
483.4754	12235.3125
487.56496	12150.7125
491.6516	11986.0125
495.73531	11870.1125
499.81612	11788.7125
503.89401	11815.6125
507.96899	11891.9125
512.04106	11905.7125
516.11023	11893.0125
520.1765	11789.2125
524.23987	11697.6125
528.30034	11583.7125
532.35792	11514.4125
536.41261	11414.9125
540.46441	11370.3125
544.51333	11377.5125
548.55936	11488.8125
552.60252	11676.5125
556.64279	11865.4125
560.6802	11974.2125
564.71473	12091.6125
568.7464	12210.9125
572.7752	12522.0125
576.80114	12820.7125
580.82422	13100.4125
584.84444	13360.3125
588.86181	13628.6125
592.87633	13822.6125
596.888	13747.2125
600.89682	13455.7125
604.9028	13318.3125
608.90594	13661.0125
612.90624	14147.2125
616.90371	13549.2125
620.89834	12201.3125
624.89015	11619.8125
628.87913	11594.9125
632.86528	11707.2125
636.84862	11745.5125
640.82913	11628.3125
644.80683	11467.9125
648.78172	11356.0125
652.75379	11330.5125
656.72306	11395.1125
660.68952	11478.9125
664.65319	11482.6125
668.61405	11376.2125
672.57211	11361.4125
676.52738	11383.9125
680.47986	11385.9125
684.42955	11372.6125
688.37646	11337.6125
692.32058	11337.9125
696.26192	11429.8125
700.20048	11501.3125
704.13626	11585.7125
708.06928	11596.4125
711.99952	11611.6125
715.927	11588.7125
719.85171	11576.8125
723.77365	11534.1125
727.69284	11424.2125
731.60928	11338.5125
735.52295	11265.3125
739.43388	11247.9125
743.34206	11273.8125
747.24749	11312.5125
751.15017	11383.9125
755.05012	11513.2125
758.94733	11759.3125
762.8418	12106.2125
766.73354	12665.7125
770.62254	13136.0125
774.50882	13212.6125
778.39237	12814.4125
782.27321	12240.3125
786.15132	11803.6125
790.02671	11481.7125
793.89938	11329.0125
797.76935	11218.2125
801.6366	11188.9125
805.50115	11174.6125
809.36299	11121.1125
813.22213	11102.0125
817.07857	11072.2125
820.93231	11072.5125
824.78336	11053.4125
828.63172	11016.1125
832.47738	10971.8125
836.32036	10962.1125
840.16066	10949.4125
843.99827	10952.0125
847.8332	10952.5125
851.66546	10950.3125
855.49504	10953.1125
859.32195	10959.4125
863.1462	10941.7125
866.96777	10944.3125
870.78668	10928.7125
874.60293	10934.7125
878.41652	10946.1125
882.22745	10952.1125
886.03573	10963.0125
889.84136	10980.3125
893.64433	10947.3125
897.44466	10932.4125
901.24235	10934.6125
905.0374	10913.0125
908.8298	10870.4125
912.61957	10911.2125
916.40671	10970.8125
920.19121	11133.2125
923.97308	11158.2125
927.75233	11124.6125
931.52895	11013.9125
935.30295	10898.5125
939.07433	10767.2125
942.84309	10648.6125
946.60924	10608.4125
950.37278	10567.5125
954.13371	10543.8125
957.89203	10557.0125
961.64774	10547.2125
965.40086	10497.7125
969.15137	10489.8125
972.89929	10432.4125
976.64461	10387.3125
980.38733	10373.5125
984.12747	10370.6125
987.86502	10372.3125
991.59999	10401.8125
995.33237	10434.0125
999.06217	10504.8125
1002.78939	10617.6125
1006.51404	10699.3125
1010.23611	10811.2125
1013.95561	10884.1125
1017.67255	10924.9125
1021.38692	10870.1125
1025.09872	10805.4125
1028.80796	10709.1125
1032.51465	10667.9125
1036.21877	10678.8125
1039.92035	10679.0125
1043.61937	10733.9125
1047.31584	10770.3125
1051.00976	10830.4125
1054.70114	10869.4125
1058.38998	10945.2125
1062.07627	11046.1125
1065.76003	11169.2125
1069.44126	11288.8125
1073.11995	11404.9125
1076.79611	11492.0125
1080.46974	11546.8125
1084.14085	11546.8125
1087.80943	11569.7125
1091.47549	11641.4125
1095.13903	11683.3125
1098.80005	11611.7125
1102.45857	11457.9125
1106.11456	11266.4125
1109.76805	11131.7125
1113.41903	11086.6125
1117.06751	11077.0125
1120.71348	11129.0125
1124.35696	11254.4125
1127.99793	11356.7125
1131.63641	11445.3125
1135.2724	11402.2125
1138.90589	11335.7125
1142.5369	11354.6125
1146.16542	11392.6125
1149.79145	11473.2125
1153.415	11562.6125
1157.03607	11650.1125
1160.65467	11855.7125
1164.27079	12206.7125
1167.88443	12585.4125
1171.49561	13065.5125
1175.10432	13535.8125
1178.71056	14144.3125
1182.31434	14707.7125
1185.91565	15080.5125
1189.51451	15154.1125
1193.11091	15028.8125
1196.70485	14746.6125
1200.29634	14412.0125
1203.88538	14147.1125
1207.47197	13970.7125
1211.05612	13847.5125
1214.63782	13648.4125
1218.21708	13373.1125
1221.79391	12998.0125
1225.36829	12710.2125
1228.94024	12524.3125
1232.50976	12443.2125
1236.07685	12391.1125
1239.6415	12339.6125
1243.20374	12384.4125
1246.76355	12439.7125
1250.32093	12546.9125
1253.8759	12677.0125
1257.42845	12908.3125
1260.97859	13143.0125
1264.52631	13397.0125
1268.07163	13619.0125
1271.61453	13860.3125
1275.15503	14105.3125
1278.69312	14433.4125
1282.22882	14769.6125
1285.76211	15117.0125
1289.29301	15550.1125
1292.82151	16019.4125
1296.34761	16658.5125
1299.87133	17360.4125
1303.39266	17925.7125
1306.9116	18434.3125
1310.42815	18783.0125
1313.94233	18917.6125
1317.45412	18895.6125
1320.96354	18781.2125
1324.47058	18698.4125
1327.97525	18671.4125
1331.47754	18672.9125
1334.97747	18663.9125
1338.47502	18677.6125
1341.97022	18678.7125
1345.46305	18668.7125
1348.95352	18598.1125
1352.44163	18511.9125
1355.92738	18438.9125
1359.41078	18566.7125
1362.89183	18706.9125
1366.37053	18468.7125
1369.84688	17512.7125
1373.32088	16298.2125
1376.79254	15327.8125
1380.26186	14958.1125
1383.72883	14927.0125
1387.19347	14981.0125
1390.65578	14886.1125
1394.11575	14784.1125
1397.57339	14771.2125
1401.0287	14817.6125
1404.48168	14919.7125
1407.93234	14803.8125
1411.38068	14515.0125
1414.82669	14118.6125
1418.27039	13639.6125
1421.71177	13191.0125
1425.15083	12840.8125
1428.58758	12702.1125
1432.02203	12713.8125
1435.45416	12886.8125
1438.88399	13123.9125
1442.31151	13329.3125
1445.73673	13478.7125
1449.15965	13641.5125
1452.58027	13743.0125
1455.9986	13826.4125
1459.41463	13896.5125
1462.82837	14036.7125
1466.23982	14219.1125
1469.64898	14387.1125
1473.05586	14500.6125
1476.46045	14483.1125
1479.86276	14457.3125
1483.26279	14346.8125
1486.66054	14332.7125
1490.05602	14373.7125
1493.44922	14553.9125
1496.84016	14777.4125
1500.22882	15116.0125
1503.61521	15493.1125
1506.99934	15959.1125
1510.38121	16291.7125
1513.76081	16415.9125
1517.13816	16219.4125
1520.51324	16000.0125
1523.88607	15792.8125
1527.25665	15679.6125
1530.62498	15604.5125
1533.99105	15482.5125
1537.35488	15274.2125
1540.71647	14954.9125
1544.07581	14557.4125
1547.4329	14235.8125
1550.78776	13938.9125
1554.14038	13725.8125
1557.49077	13631.3125
1560.83892	13608.1125
1564.18484	13572.3125
1567.52853	13628.0125
1570.86999	13720.7125
1574.20922	13984.7125
1577.54624	14172.3125
1580.88103	14217.7125
1584.2136	14238.6125
1587.54395	14397.0125
1590.87208	14692.4125
1594.19801	15144.0125
1597.52172	15592.8125
1600.84321	15637.7125
1604.16251	15173.5125
1607.47959	14420.5125
1610.79447	13628.8125
1614.10715	12899.9125
1617.41763	12240.9125
1620.7259	11719.8125
1624.03199	11421.0125
1627.33587	11348.9125
1630.63757	11511.2125
1633.93707	11934.0125
1637.23439	12685.1125
1640.52951	13781.8125
1643.82246	15170.7125
1647.11321	16380.3125
1650.40179	16809.1125
1653.68819	16134.9125
1656.97241	14663.6125
1660.25446	13095.4125
1663.53433	11800.1125
1666.81203	10940.4125
1670.08756	10361.8125
1673.36092	9980.5125
1676.63211	9748.4125
1679.90115	9603.7125
1683.16801	9477.3125
1686.43272	9368.1125
1689.69527	9277.3125
1692.95567	9206.0125
1696.2139	9135.8125
1699.46999	9096.2125
1702.72392	9010.2125
1705.97571	9016.8125
1709.22535	9056.3125
1712.47284	9064.4125
1715.71819	9054.2125
1718.96139	9052.4125
1722.20246	9040.9125
1725.44139	8997.3125
1728.67818	8968.7125
1731.91284	8905.9125
1735.14537	8873.3125
1738.37576	8835.4125
1741.60403	8802.4125
1744.83017	8754.3125
1748.05418	8731.5125
1751.27607	8694.9125
1754.49584	8692.3125
1757.71349	8683.2125
1760.92903	8662.8125
1764.14244	8632.2125
1767.35375	8656.6125
1770.56294	8620.2125
1773.77002	8614.0125
1776.97499	8588.4125
1780.17785	8597.7125
1783.37861	8633.4125
1786.57727	8593.2125
1789.77382	8563.5125
1792.96828	8569.6125
1796.16064	8543.3125
1799.3509	8534.6125
1802.53907	8514.7125
1805.72514	8504.0125
1808.90913	8457.9125
1812.09102	8428.9125
1815.27083	8429.2125
1818.44856	8403.3125
1821.6242	8415.8125
1824.79776	8364.5125
1827.96924	8387.0125
1831.13864	8367.3125
1834.30597	8356.0125
1837.47122	8346.3125
1840.6344	8351.9125
1843.7955	8337.2125
1846.95454	8329.3125
1850.11151	8341.6125
1853.26642	8311.3125
1856.41926	8312.9125
1859.57004	8339.4125
1862.71876	8281.8125
1865.86542	8288.7125
1869.01003	8263.4125
1872.15258	8267.5125
1875.29308	8236.0125
1878.43152	8223.6125
1881.56792	8220.8125
1884.70227	8183.3125
1887.83457	8170.5125
1890.96482	8166.3125
1894.09304	8155.3125
1897.21921	8144.9125
1900.34335	8116.6125
1903.46544	8128.5125
1906.58551	8122.9125
1909.70353	8094.1125
1912.81953	8072.8125
1915.93349	8074.1125
1919.04543	8063.3125
1922.15534	8040.5125
1925.26322	8018.6125
1928.36908	8016.8125
1931.47292	7980.3125
1934.57473	7953.8125
1937.67453	7966.0125
1940.77232	7926.3125
1943.86808	7897.7125
1946.96184	7870.8125
1950.05358	7841.2125
1953.14331	7823.5125
1956.23103	7792.9125
1959.31675	7788.4125
1962.40046	7751.4125
1965.48217	7733.0125
1968.56188	7708.6125
1971.63959	7695.9125
1974.7153	7673.4125
1977.78901	7633.8125
1980.86073	7648.9125
1983.93046	7607.7125
1986.99819	7578.3125
1990.06394	7546.4125
1993.1277	7516.2125
1996.18947	7500.7125
1999.24925	7483.4125
2002.30706	7455.0125
2005.36288	7430.1125
2008.41672	7403.4125
2011.46859	7391.2125
2014.51848	7347.4125
2017.56639	7318.9125
2020.61233	7332.5125
2023.6563	7307.2125
2026.6983	7289.4125
2029.73833	7265.3125
2032.7764	7229.1125
2035.8125	7225.6125
2038.84664	7190.4125
2041.87881	7181.3125
2044.90903	7167.7125
2047.93729	7157.7125
2050.96359	7150.9125
2053.98794	7146.2125
2057.01034	7106.7125
2060.03078	7126.8125
2063.04927	7123.4125
2066.06582	7100.6125
2069.08042	7101.3125
2072.09307	7082.4125
2075.10378	7101.2125
2078.11255	7076.4125
2081.11938	7073.5125
2084.12426	7090.9125
2087.12722	7075.4125
2090.12824	7073.9125
2093.12732	7072.3125
2096.12447	7071.0125
2099.11969	7052.9125
2102.11299	7049.2125
2105.10435	7049.8125
2108.09379	7041.1125
2111.08131	7063.9125
2114.0669	7051.3125
2117.05057	7092.5125
2120.03233	7060.2125
2123.01216	7083.8125
2125.99008	7106.3125
2128.96609	7078.6125
2131.94018	7091.4125
2134.91236	7099.3125
2137.88263	7101.0125
2140.851	7079.7125
2143.81746	7105.8125
2146.78201	7101.0125
2149.74466	7094.3125
2152.7054	7075.0125
2155.66425	7075.6125
2158.6212	7085.1125
2161.57625	7058.8125
2164.52941	7050.6125
2167.48067	7067.9125
2170.43004	7068.8125
2173.37752	7050.4125
2176.32311	7039.9125
2179.26681	7066.8125
2182.20863	7053.3125
2185.14856	7029.9125
2188.08661	7021.9125
2191.02278	7057.2125
2193.95707	7031.2125
2196.88948	7014.4125
2199.82001	7001.1125
2202.74867	6999.4125
2205.67545	7003.9125
2208.60037	6968.1125
2211.52341	6956.1125
2214.44458	6943.5125
2217.36388	6938.2125
2220.28132	6945.8125
2223.1969	6932.0125
2226.11061	6915.8125
2229.02246	6889.3125
2231.93245	6879.4125
2234.84058	6868.5125
2237.74686	6847.4125
2240.65128	6846.6125
2243.55385	6841.7125
2246.45456	6814.5125
2249.35343	6816.5125
2252.25044	6792.0125
2255.14561	6756.9125
2258.03893	6770.5125
2260.93041	6730.4125
2263.82004	6733.3125
2266.70783	6706.4125
2269.59378	6685.5125
2272.4779	6673.3125
2275.36017	6656.4125
2278.24061	6652.5125
2281.11922	6662.3125
2283.996	6648.4125
2286.87094	6618.9125
2289.74405	6593.9125
2292.61534	6581.9125
2295.4848	6573.7125
2298.35243	6579.4125
2301.21824	6563.5125
2304.08223	6573.2125
2306.94439	6559.4125
2309.80474	6546.1125
2312.66327	6537.0125
2315.51999	6528.0125
2318.37489	6530.4125
2321.22797	6511.7125
2324.07925	6492.8125
2326.92871	6481.2125
2329.77637	6472.6125
2332.62222	6467.6125
2335.46626	6454.1125
2338.3085	6450.4125
2341.14893	6429.5125
2343.98756	6424.3125
2346.8244	6410.4125
2349.65943	6401.5125
2352.49267	6411.6125
2355.32411	6406.1125
2358.15376	6409.2125
2360.98161	6421.5125
2363.80768	6397.3125
2366.63195	6379.1125
2369.45444	6399.4125
2372.27514	6373.2125
2375.09405	6369.4125
2377.91118	6363.2125
2380.72652	6343.1125
2383.54009	6305.5125
2386.35187	6314.5125
2389.16188	6291.6125
2391.97011	6281.6125
2394.77657	6260.5125
2397.58125	6252.5125
2400.38416	6248.9125
2403.18529	6218.4125
2405.98466	6219.5125
2408.78226	6203.6125
2411.57809	6211.3125
2414.37216	6184.5125
2417.16446	6183.1125
2419.955	6167.6125
2422.74378	6177.0125
2425.5308	6172.2125
2428.31606	6174.5125
2431.09956	6160.1125
2433.88131	6154.6125
2436.6613	6136.5125
2439.43954	6144.1125
2442.21603	6130.9125
2444.99077	6120.1125
2447.76377	6121.5125
2450.53501	6127.3125
2453.30451	6096.5125
2456.07226	6097.6125
2458.83827	6095.3125
2461.60254	6090.7125
2464.36507	6065.6125
2467.12586	6061.2125
2469.88492	6047.9125
2472.64224	6036.7125
2475.39782	6047.2125
2478.15167	6040.8125
2480.90379	6044.2125
2483.65417	6049.6125
2486.40283	6036.9125
2489.14976	6047.1125
2491.89497	6019.9125
2494.63845	6035.1125
2497.3802	6002.6125
2500.12024	6007.6125
2502.85855	5996.2125
2505.59514	6008.0125
2508.33002	6003.8125
2511.06318	5978.4125
2513.79462	5974.6125
2516.52435	5961.9125
2519.25237	5962.6125
2521.97867	5973.3125
2524.70327	5942.0125
2527.42616	5951.4125
2530.14734	5941.4125
2532.86681	5926.1125
2535.58458	5920.0125
2538.30065	5896.7125
2541.01501	5911.3125
2543.72768	5898.7125
2546.43864	5852.0125
2549.14791	5864.0125
2551.85548	5872.1125
2554.56136	5845.4125
2557.26554	5843.0125
2559.96803	5814.3125
2562.66883	5832.2125
2565.36794	5810.4125
2568.06536	5809.6125
2570.7611	5798.6125
2573.45514	5772.2125
2576.14751	5788.9125
2578.83819	5743.0125
2581.52719	5756.1125
2584.21451	5746.1125
2586.90015	5746.2125
2589.58411	5724.0125
2592.2664	5731.0125
2594.94701	5704.5125
2597.62594	5695.8125
2600.30321	5681.7125
2602.9788	5677.0125
2605.65273	5671.5125
2608.32498	5656.5125
2610.99557	5679.0125
2613.66449	5660.6125
2616.33175	5661.3125
2618.99734	5640.6125
2621.66128	5623.8125
2624.32355	5619.6125
2626.98416	5618.1125
2629.64311	5606.9125
2632.30041	5616.4125
2634.95605	5607.0125
2637.61004	5584.6125
2640.26238	5576.1125
2642.91306	5563.2125
2645.56209	5568.9125
2648.20948	5586.9125
2650.85521	5579.0125
2653.4993	5577.7125
2656.14175	5571.4125
2658.78255	5575.6125
2661.42171	5585.2125
2664.05923	5583.4125
2666.6951	5587.3125
2669.32934	5575.5125
2671.96194	5546.8125
2674.59291	5559.5125
2677.22224	5550.9125
2679.84993	5541.2125
2682.476	5545.2125
2685.10043	5534.8125
2687.72324	5526.9125
2690.34441	5535.1125
2692.96396	5541.9125
2695.58188	5549.5125
2698.19818	5533.4125
2700.81285	5539.9125
2703.4259	5527.1125
2706.03733	5512.2125
2708.64714	5526.8125
2711.25533	5530.7125
2713.86191	5517.3125
2716.46687	5543.1125
2719.07021	5533.2125
2721.67194	5529.4125
2724.27206	5535.1125
2726.87057	5542.4125
2729.46747	5526.2125
2732.06276	5525.4125
2734.65644	5532.3125
2737.24852	5534.9125
2739.83899	5519.9125
2742.42786	5525.8125
2745.01513	5518.1125
2747.60079	5497.0125
2750.18486	5496.8125
2752.76733	5494.1125
2755.3482	5483.2125
2757.92747	5485.7125
2760.50515	5474.1125
2763.08123	5462.0125
2765.65573	5454.2125
2768.22863	5453.7125
2770.79994	5445.9125
2773.36967	5439.7125
2775.9378	5430.7125
2778.50435	5422.2125
2781.06932	5423.3125
2783.6327	5411.1125
2786.1945	5420.7125
2788.75471	5400.8125
2791.31335	5383.2125
2793.87041	5363.5125
2796.42589	5354.6125
2798.97979	5367.2125
2801.53212	5359.0125
2804.08288	5347.9125
2806.63206	5325.8125
2809.17967	5300.8125
2811.72571	5285.4125
2814.27018	5306.5125
2816.81308	5273.3125
2819.35442	5266.3125
2821.89419	5274.1125
2824.43239	5249.3125
2826.96904	5255.9125
2829.50412	5261.1125
2832.03763	5245.2125
2834.56959	5238.7125
2837.1	5257.6125
2839.62884	5237.7125
2842.15613	5217.2125
2844.68186	5250.0125
2847.20604	5240.5125
2849.72867	5256.5125
2852.24974	5260.4125
2854.76927	5237.9125
2857.28724	5218.3125
2859.80367	5221.8125
2862.31855	5211.2125
2864.83189	5207.8125
2867.34368	5196.5125
2869.85393	5194.0125
2872.36264	5188.9125
2874.8698	5182.9125
2877.37543	5174.0125
2879.87952	5171.5125
2882.38207	5167.2125
2884.88308	5160.7125
2887.38256	5170.8125
2889.88051	5133.9125
2892.37692	5145.7125
2894.8718	5152.6125
2897.36515	5155.1125
2899.85698	5156.4125
2902.34727	5154.7125
2904.83604	5161.1125
2907.32328	5170.7125
2909.809	5171.6125
2912.29319	5161.1125
2914.77587	5172.5125
2917.25702	5154.6125
2919.73665	5152.1125
2922.21476	5143.3125
2924.69136	5148.8125
2927.16644	5147.5125
2929.64	5142.7125
2932.11205	5157.6125
2934.58258	5110.1125
2937.05161	5137.7125
2939.51912	5136.3125
2941.98513	5107.2125
2944.44962	5109.2125
2946.91261	5092.9125
2949.37409	5098.7125
2951.83407	5087.2125
2954.29254	5086.1125
2956.74951	5064.9125
2959.20498	5072.6125
2961.65895	5053.1125
2964.11142	5060.4125
2966.56239	5036.4125
2969.01186	5037.8125
2971.45984	5025.8125
2973.90632	5031.4125
2976.35131	5022.1125
2978.7948	5014.8125
2981.23681	4994.0125
2983.67732	4997.4125
2986.11635	4989.8125
2988.55388	4971.2125
2990.98993	4976.9125
2993.4245	4956.2125
2995.85758	4944.6125
2998.28917	4945.8125
3000.71928	4922.8125
3003.14791	4908.5125
3005.57506	4908.0125
3008.00073	4889.4125
3010.42493	4890.2125
3012.84764	4894.9125
3015.26888	4878.7125
3017.68865	4857.8125
3020.10694	4866.6125
3022.52376	4859.0125
3024.9391	4835.7125
3027.35298	4837.6125
3029.76539	4828.4125
3032.17632	4830.5125
3034.5858	4819.4125
3036.9938	4828.8125
3039.40034	4808.9125
3041.80542	4806.1125
3044.20903	4807.6125
3046.61118	4802.5125
3049.01187	4794.0125
3051.4111	4778.0125
3053.80888	4777.3125
3056.20519	4780.2125
3058.60005	4752.1125
3060.99345	4755.1125
3063.3854	4715.4125
3065.7759	4714.9125
3068.16494	4701.0125
3070.55254	4719.0125
3072.93868	4687.9125
3075.32338	4681.9125
3077.70662	4682.1125
3080.08842	4668.4125
3082.46878	4671.7125
