Data from AgNPs_FTO_APTES_UA_1uM_CRN_10uM_R6G_50uM_NaF_0.1M_Addition_RamanShift__12__15-54-59-733.txt Node

Date: Thu Jan 27 15:54:59 GMT 2022
User: TCL
Spectrometer: QEP01345
Trigger mode: 4
Integration Time (sec): 7.000000E0
Scans to average: 10
Electric dark correction enabled: true
Nonlinearity correction enabled: false
Boxcar width: 0
XAxis mode: Raman Shifts
Number of Pixels in Spectrum: 1044
>>>>>Begin Spectral Data<<<<<
46.04893	1.1625
50.45542	0.8625
54.85868	-0.8375
59.25871	-0.8375
63.6555	45.9625
68.04907	45.4625
72.43941	51.6625
76.82654	52.4625
81.21044	53.3625
85.59113	55.3625
89.96862	58.2625
94.34289	58.6625
98.71396	63.5625
103.08183	61.1625
107.4465	68.6625
111.80798	70.0625
116.16626	68.7625
120.52136	75.3625
124.87327	77.0625
129.222	73.8625
133.56755	77.9625
137.90993	87.0625
142.24913	93.1625
146.58517	99.1625
150.91804	117.0625
155.24774	135.5625
159.57429	164.0625
163.89768	208.7625
168.21792	275.6625
172.53501	360.8625
176.84895	506.1625
181.15975	714.5625
185.46741	1000.5625
189.77193	1376.1625
194.07331	1855.0625
198.37157	2386.7625
202.6667	2968.6625
206.9587	3540.7625
211.24758	4069.5625
215.53334	4630.9625
219.81599	5188.6625
224.09553	5810.9625
228.37195	6484.6625
232.64527	7226.5625
236.91549	8020.4625
241.18261	8846.3625
245.44663	9658.9625
249.70755	10397.3625
253.96539	11070.4625
258.22014	11621.0625
262.4718	12061.4625
266.72039	12370.0625
270.96589	12526.1625
275.20832	12581.7625
279.44768	12522.9625
283.68397	12448.5625
287.91719	12342.6625
292.14735	12246.2625
296.37445	12207.8625
300.59849	12194.1625
304.81948	12192.9625
309.03742	12164.3625
313.25231	12053.2625
317.46415	11904.7625
321.67296	11703.9625
325.87872	11526.3625
330.08145	11472.1625
334.28114	11502.0625
338.47781	11555.6625
342.67145	11688.5625
346.86207	11820.0625
351.04966	11987.6625
355.23424	12100.2625
359.4158	12231.8625
363.59435	12367.9625
367.76989	12464.5625
371.94243	12555.5625
376.11196	12596.8625
380.27849	12668.9625
384.44203	12690.9625
388.60257	12780.5625
392.76012	12893.8625
396.91468	13028.3625
401.06626	13217.1625
405.21485	13317.6625
409.36047	13332.3625
413.50311	13222.2625
417.64277	13126.9625
421.77947	13146.5625
425.9132	13229.4625
430.04396	13251.0625
434.17176	13323.0625
438.2966	13412.8625
442.41849	13540.2625
446.53742	13716.0625
450.6534	13894.5625
454.76644	14057.2625
458.87653	14135.8625
462.98368	14173.9625
467.08789	14202.1625
471.18916	14123.9625
475.2875	14064.2625
479.38291	14015.0625
483.4754	13974.8625
487.56496	13901.4625
491.6516	13766.4625
495.73531	13678.4625
499.81612	13634.3625
503.89401	13640.8625
507.96899	13713.9625
512.04106	13710.3625
516.11023	13706.8625
520.1765	13630.3625
524.23987	13538.2625
528.30034	13456.6625
532.35792	13347.1625
536.41261	13292.0625
540.46441	13239.5625
544.51333	13237.6625
548.55936	13333.2625
552.60252	13529.1625
556.64279	13691.4625
560.6802	13790.6625
564.71473	13884.4625
568.7464	14033.2625
572.7752	14279.2625
576.80114	14560.9625
580.82422	14880.1625
584.84444	15070.6625
588.86181	15225.3625
592.87633	15292.4625
596.888	15287.2625
600.89682	15162.8625
604.9028	15126.2625
608.90594	15602.0625
612.90624	16124.2625
616.90371	15538.5625
620.89834	14192.6625
624.89015	13550.2625
628.87913	13501.3625
632.86528	13631.9625
636.84862	13692.0625
640.82913	13589.0625
644.80683	13419.6625
648.78172	13279.7625
652.75379	13219.7625
656.72306	13297.1625
660.68952	13417.5625
664.65319	13425.7625
668.61405	13339.5625
672.57211	13319.8625
676.52738	13336.2625
680.47986	13337.7625
684.42955	13310.8625
688.37646	13293.8625
692.32058	13290.0625
696.26192	13403.3625
700.20048	13480.5625
704.13626	13538.5625
708.06928	13612.1625
711.99952	13591.7625
715.927	13575.0625
719.85171	13519.7625
723.77365	13452.9625
727.69284	13364.8625
731.60928	13274.3625
735.52295	13212.5625
739.43388	13202.7625
743.34206	13211.5625
747.24749	13242.2625
751.15017	13322.0625
755.05012	13465.0625
758.94733	13694.0625
762.8418	14041.6625
766.73354	14587.1625
770.62254	15131.1625
774.50882	15202.3625
778.39237	14832.9625
782.27321	14257.9625
786.15132	13776.3625
790.02671	13462.5625
793.89938	13304.9625
797.76935	13206.8625
801.6366	13154.4625
805.50115	13099.2625
809.36299	13042.4625
813.22213	13013.4625
817.07857	13006.5625
820.93231	13016.3625
824.78336	12972.3625
828.63172	12964.3625
832.47738	12941.7625
836.32036	12909.0625
840.16066	12900.2625
843.99827	12907.2625
847.8332	12918.8625
851.66546	12926.5625
855.49504	12930.9625
859.32195	12935.3625
863.1462	12929.7625
866.96777	12910.0625
870.78668	12904.0625
874.60293	12914.9625
878.41652	12910.0625
882.22745	12943.9625
886.03573	12975.2625
889.84136	12983.0625
893.64433	12940.4625
897.44466	12918.2625
901.24235	12902.5625
905.0374	12896.0625
908.8298	12853.9625
912.61957	12854.6625
916.40671	12952.6625
920.19121	13043.3625
923.97308	13096.4625
927.75233	13072.0625
931.52895	12969.5625
935.30295	12876.6625
939.07433	12738.8625
942.84309	12638.5625
946.60924	12570.8625
950.37278	12544.6625
954.13371	12519.0625
957.89203	12464.4625
961.64774	12491.8625
965.40086	12483.9625
969.15137	12446.1625
972.89929	12397.4625
976.64461	12355.3625
980.38733	12328.0625
984.12747	12298.7625
987.86502	12344.9625
991.59999	12359.9625
995.33237	12424.7625
999.06217	12494.5625
1002.78939	12579.5625
1006.51404	12688.0625
1010.23611	12793.0625
1013.95561	12875.4625
1017.67255	12882.1625
1021.38692	12859.1625
1025.09872	12773.3625
1028.80796	12689.0625
1032.51465	12651.6625
1036.21877	12647.9625
1039.92035	12673.5625
1043.61937	12717.3625
1047.31584	12744.9625
1051.00976	12792.5625
1054.70114	12840.2625
1058.38998	12942.4625
1062.07627	13042.2625
1065.76003	13152.7625
1069.44126	13258.7625
1073.11995	13398.5625
1076.79611	13519.8625
1080.46974	13527.3625
1084.14085	13535.4625
1087.80943	13577.1625
1091.47549	13617.9625
1095.13903	13668.7625
1098.80005	13608.9625
1102.45857	13480.9625
1106.11456	13265.8625
1109.76805	13105.3625
1113.41903	13079.2625
1117.06751	13085.5625
1120.71348	13150.6625
1124.35696	13218.4625
1127.99793	13326.6625
1131.63641	13374.6625
1135.2724	13355.0625
1138.90589	13314.3625
1142.5369	13288.1625
1146.16542	13309.8625
1149.79145	13361.2625
1153.415	13434.2625
1157.03607	13510.4625
1160.65467	13680.2625
1164.27079	13943.6625
1167.88443	14309.1625
1171.49561	14748.3625
1175.10432	15236.6625
1178.71056	15861.5625
1182.31434	16456.6625
1185.91565	16816.6625
1189.51451	16997.6625
1193.11091	16889.1625
1196.70485	16664.2625
1200.29634	16312.7625
1203.88538	15929.1625
1207.47197	15692.6625
1211.05612	15519.3625
1214.63782	15327.6625
1218.21708	15066.1625
1221.79391	14759.4625
1225.36829	14472.5625
1228.94024	14332.6625
1232.50976	14281.8625
1236.07685	14257.9625
1239.6415	14238.5625
1243.20374	14245.8625
1246.76355	14318.4625
1250.32093	14391.7625
1253.8759	14520.8625
1257.42845	14739.3625
1260.97859	14978.4625
1264.52631	15246.1625
1268.07163	15473.5625
1271.61453	15677.4625
1275.15503	15877.4625
1278.69312	16154.6625
1282.22882	16376.2625
1285.76211	16676.3625
1289.29301	17022.2625
1292.82151	17429.7625
1296.34761	17898.6625
1299.87133	18463.5625
1303.39266	18987.0625
1306.9116	19474.9625
1310.42815	19843.3625
1313.94233	20060.2625
1317.45412	20030.4625
1320.96354	19922.7625
1324.47058	19857.0625
1327.97525	19819.1625
1331.47754	19868.4625
1334.97747	19879.6625
1338.47502	19994.2625
1341.97022	20155.3625
1345.46305	20298.9625
1348.95352	20345.9625
1352.44163	20294.8625
1355.92738	20173.3625
1359.41078	20256.2625
1362.89183	20263.0625
1366.37053	19957.0625
1369.84688	19033.5625
1373.32088	17838.9625
1376.79254	16878.3625
1380.26186	16480.1625
1383.72883	16375.5625
1387.19347	16360.6625
1390.65578	16206.2625
1394.11575	16080.5625
1397.57339	16034.0625
1401.0287	16031.7625
1404.48168	16058.0625
1407.93234	15999.5625
1411.38068	15825.5625
1414.82669	15499.6625
1418.27039	15101.1625
1421.71177	14757.7625
1425.15083	14444.3625
1428.58758	14304.9625
1432.02203	14295.7625
1435.45416	14409.6625
1438.88399	14587.3625
1442.31151	14781.1625
1445.73673	14908.5625
1449.15965	15046.2625
1452.58027	15150.0625
1455.9986	15241.7625
1459.41463	15325.2625
1462.82837	15469.7625
1466.23982	15667.8625
1469.64898	15850.0625
1473.05586	15958.2625
1476.46045	16032.6625
1479.86276	16009.8625
1483.26279	15954.4625
1486.66054	15992.9625
1490.05602	16062.1625
1493.44922	16260.2625
1496.84016	16520.9625
1500.22882	16885.6625
1503.61521	17349.3625
1506.99934	17831.6625
1510.38121	18189.4625
1513.76081	18210.0625
1517.13816	17990.7625
1520.51324	17665.0625
1523.88607	17355.8625
1527.25665	17207.3625
1530.62498	17108.9625
1533.99105	16951.3625
1537.35488	16764.4625
1540.71647	16485.4625
1544.07581	16174.5625
1547.4329	15860.2625
1550.78776	15586.4625
1554.14038	15436.3625
1557.49077	15332.8625
1560.83892	15324.0625
1564.18484	15335.7625
1567.52853	15399.2625
1570.86999	15458.7625
1574.20922	15662.5625
1577.54624	15773.0625
1580.88103	15786.1625
1584.2136	15704.4625
1587.54395	15778.6625
1590.87208	16007.6625
1594.19801	16382.1625
1597.52172	16829.8625
1600.84321	16936.0625
1604.16251	16542.9625
1607.47959	15922.8625
1610.79447	15268.5625
1614.10715	14584.7625
1617.41763	13956.9625
1620.7259	13454.8625
1624.03199	13113.9625
1627.33587	13021.2625
1630.63757	13162.2625
1633.93707	13481.0625
1637.23439	14119.2625
1640.52951	15122.3625
1643.82246	16325.7625
1647.11321	17412.0625
1650.40179	17911.4625
1653.68819	17398.6625
1656.97241	16084.2625
1660.25446	14657.4625
1663.53433	13429.1625
1666.81203	12611.1625
1670.08756	12062.6625
1673.36092	11729.3625
1676.63211	11484.8625
1679.90115	11335.8625
1683.16801	11188.2625
1686.43272	11118.0625
1689.69527	11004.3625
1692.95567	10923.8625
1696.2139	10864.1625
1699.46999	10804.2625
1702.72392	10779.8625
1705.97571	10772.5625
1709.22535	10803.4625
1712.47284	10785.8625
1715.71819	10793.4625
1718.96139	10785.2625
1722.20246	10761.2625
1725.44139	10730.9625
1728.67818	10683.5625
1731.91284	10633.8625
1735.14537	10587.3625
1738.37576	10566.2625
1741.60403	10491.4625
1744.83017	10452.2625
1748.05418	10440.4625
1751.27607	10431.9625
1754.49584	10396.6625
1757.71349	10386.1625
1760.92903	10364.7625
1764.14244	10339.2625
1767.35375	10318.0625
1770.56294	10301.2625
1773.77002	10305.0625
1776.97499	10323.4625
1780.17785	10303.4625
1783.37861	10303.0625
1786.57727	10284.0625
1789.77382	10279.2625
1792.96828	10264.1625
1796.16064	10217.2625
1799.3509	10189.3625
1802.53907	10199.6625
1805.72514	10156.1625
1808.90913	10147.2625
1812.09102	10116.5625
1815.27083	10103.7625
1818.44856	10093.5625
1821.6242	10061.6625
1824.79776	10055.9625
1827.96924	10031.5625
1831.13864	10031.3625
1834.30597	10052.9625
1837.47122	10015.4625
1840.6344	10004.6625
1843.7955	9991.0625
1846.95454	9993.4625
1850.11151	9983.6625
1853.26642	9965.0625
1856.41926	9957.7625
1859.57004	9950.7625
1862.71876	9944.5625
1865.86542	9935.4625
1869.01003	9930.2625
1872.15258	9890.1625
1875.29308	9885.6625
1878.43152	9867.1625
1881.56792	9860.2625
1884.70227	9826.8625
1887.83457	9822.5625
1890.96482	9786.5625
1894.09304	9783.1625
1897.21921	9772.5625
1900.34335	9758.4625
1903.46544	9728.3625
1906.58551	9736.1625
1909.70353	9707.5625
1912.81953	9688.9625
1915.93349	9686.7625
1919.04543	9673.5625
1922.15534	9632.0625
1925.26322	9619.0625
1928.36908	9609.4625
1931.47292	9606.0625
1934.57473	9562.7625
1937.67453	9566.4625
1940.77232	9532.5625
1943.86808	9495.8625
1946.96184	9448.2625
1950.05358	9416.9625
1953.14331	9421.8625
1956.23103	9356.2625
1959.31675	9348.4625
1962.40046	9330.0625
1965.48217	9307.6625
1968.56188	9288.7625
1971.63959	9246.0625
1974.7153	9222.3625
1977.78901	9196.4625
1980.86073	9160.0625
1983.93046	9119.8625
1986.99819	9116.3625
1990.06394	9051.8625
1993.1277	9067.0625
1996.18947	9002.1625
1999.24925	8994.3625
2002.30706	8943.9625
2005.36288	8941.9625
2008.41672	8903.2625
2011.46859	8887.1625
2014.51848	8870.5625
2017.56639	8847.3625
2020.61233	8804.8625
2023.6563	8786.9625
2026.6983	8761.4625
2029.73833	8743.2625
2032.7764	8709.2625
2035.8125	8705.9625
2038.84664	8653.2625
2041.87881	8655.2625
2044.90903	8629.2625
2047.93729	8609.6625
2050.96359	8598.6625
2053.98794	8603.4625
2057.01034	8589.9625
2060.03078	8594.7625
2063.04927	8576.5625
2066.06582	8570.0625
2069.08042	8552.1625
2072.09307	8561.0625
2075.10378	8546.8625
2078.11255	8516.5625
2081.11938	8529.9625
2084.12426	8538.5625
2087.12722	8520.7625
2090.12824	8509.5625
2093.12732	8523.6625
2096.12447	8510.2625
2099.11969	8496.1625
2102.11299	8483.5625
2105.10435	8496.1625
2108.09379	8485.3625
2111.08131	8522.5625
2114.0669	8528.7625
2117.05057	8523.3625
2120.03233	8544.4625
2123.01216	8523.9625
2125.99008	8541.4625
2128.96609	8541.9625
2131.94018	8549.1625
2134.91236	8528.8625
2137.88263	8559.6625
2140.851	8551.4625
2143.81746	8563.5625
2146.78201	8528.0625
2149.74466	8551.6625
2152.7054	8550.7625
2155.66425	8542.9625
2158.6212	8527.2625
2161.57625	8530.4625
2164.52941	8512.6625
2167.48067	8500.6625
2170.43004	8527.3625
2173.37752	8495.2625
2176.32311	8526.4625
2179.26681	8543.2625
2182.20863	8507.1625
2185.14856	8499.8625
2188.08661	8504.0625
2191.02278	8499.7625
2193.95707	8514.3625
2196.88948	8481.6625
2199.82001	8476.0625
2202.74867	8474.5625
2205.67545	8454.9625
2208.60037	8427.4625
2211.52341	8415.7625
2214.44458	8392.4625
2217.36388	8369.2625
2220.28132	8379.0625
2223.1969	8321.3625
2226.11061	8337.2625
2229.02246	8313.1625
2231.93245	8279.0625
2234.84058	8277.9625
2237.74686	8249.7625
2240.65128	8265.4625
2243.55385	8240.4625
2246.45456	8238.3625
2249.35343	8201.7625
2252.25044	8188.2625
2255.14561	8183.1625
2258.03893	8157.7625
2260.93041	8158.9625
2263.82004	8137.8625
2266.70783	8132.7625
2269.59378	8072.6625
2272.4779	8076.9625
2275.36017	8059.7625
2278.24061	8032.6625
2281.11922	8036.3625
2283.996	8023.7625
2286.87094	7996.9625
2289.74405	7959.3625
2292.61534	7959.7625
2295.4848	7929.8625
2298.35243	7949.3625
2301.21824	7922.3625
2304.08223	7922.1625
2306.94439	7936.8625
2309.80474	7933.8625
2312.66327	7904.7625
2315.51999	7893.2625
2318.37489	7871.7625
2321.22797	7880.2625
2324.07925	7871.7625
2326.92871	7853.6625
2329.77637	7830.0625
2332.62222	7821.8625
2335.46626	7774.8625
2338.3085	7778.3625
2341.14893	7782.8625
2343.98756	7774.1625
2346.8244	7754.4625
2349.65943	7757.4625
2352.49267	7743.8625
2355.32411	7747.3625
2358.15376	7736.3625
2360.98161	7743.1625
2363.80768	7706.0625
2366.63195	7727.4625
2369.45444	7699.6625
2372.27514	7709.7625
2375.09405	7693.6625
2377.91118	7669.8625
2380.72652	7681.5625
2383.54009	7632.7625
2386.35187	7628.0625
2389.16188	7604.0625
2391.97011	7572.5625
2394.77657	7554.6625
2397.58125	7547.6625
2400.38416	7542.2625
2403.18529	7517.8625
2405.98466	7524.5625
2408.78226	7512.5625
2411.57809	7496.0625
2414.37216	7462.4625
2417.16446	7501.7625
2419.955	7468.0625
2422.74378	7455.2625
2425.5308	7475.4625
2428.31606	7459.8625
2431.09956	7446.9625
2433.88131	7436.6625
2436.6613	7437.9625
2439.43954	7420.6625
2442.21603	7406.4625
2444.99077	7410.9625
2447.76377	7409.1625
2450.53501	7394.8625
2453.30451	7381.6625
2456.07226	7378.3625
2458.83827	7351.6625
2461.60254	7348.9625
2464.36507	7339.4625
2467.12586	7308.1625
2469.88492	7295.4625
2472.64224	7304.2625
2475.39782	7303.8625
2478.15167	7301.2625
2480.90379	7275.5625
2483.65417	7320.5625
2486.40283	7296.9625
2489.14976	7290.6625
2491.89497	7258.6625
2494.63845	7279.2625
2497.3802	7246.3625
2500.12024	7240.8625
2502.85855	7234.9625
2505.59514	7234.3625
2508.33002	7240.1625
2511.06318	7223.4625
2513.79462	7216.0625
2516.52435	7190.4625
2519.25237	7186.3625
2521.97867	7205.6625
2524.70327	7179.8625
2527.42616	7154.0625
2530.14734	7154.8625
2532.86681	7154.8625
2535.58458	7148.4625
2538.30065	7125.8625
2541.01501	7104.9625
2543.72768	7103.7625
2546.43864	7062.3625
2549.14791	7088.2625
2551.85548	7061.6625
2554.56136	7035.7625
2557.26554	7044.0625
2559.96803	7026.9625
2562.66883	7004.0625
2565.36794	7000.5625
2568.06536	6990.8625
2570.7611	6964.8625
2573.45514	6945.1625
2576.14751	6946.4625
2578.83819	6947.7625
2581.52719	6905.1625
2584.21451	6918.0625
2586.90015	6887.4625
2589.58411	6887.3625
2592.2664	6879.1625
2594.94701	6862.1625
2597.62594	6862.8625
2600.30321	6825.5625
2602.9788	6829.7625
2605.65273	6804.2625
2608.32498	6827.2625
2610.99557	6806.2625
2613.66449	6788.1625
2616.33175	6806.5625
2618.99734	6782.0625
2621.66128	6773.1625
2624.32355	6757.2625
2626.98416	6755.3625
2629.64311	6749.1625
2632.30041	6746.9625
2634.95605	6729.2625
2637.61004	6712.9625
2640.26238	6709.5625
2642.91306	6698.9625
2645.56209	6672.6625
2648.20948	6681.0625
2650.85521	6683.0625
2653.4993	6667.9625
2656.14175	6696.0625
2658.78255	6692.4625
2661.42171	6669.1625
2664.05923	6693.1625
2666.6951	6688.1625
2669.32934	6702.5625
2671.96194	6662.8625
2674.59291	6663.0625
2677.22224	6661.8625
2679.84993	6663.8625
2682.476	6654.3625
2685.10043	6656.4625
2687.72324	6657.5625
2690.34441	6655.6625
2692.96396	6652.3625
2695.58188	6640.1625
2698.19818	6649.4625
2700.81285	6651.7625
2703.4259	6628.4625
2706.03733	6623.1625
2708.64714	6612.5625
2711.25533	6625.3625
2713.86191	6630.0625
2716.46687	6619.4625
2719.07021	6629.8625
2721.67194	6642.7625
2724.27206	6622.9625
2726.87057	6641.8625
2729.46747	6643.7625
2732.06276	6634.1625
2734.65644	6606.6625
2737.24852	6624.3625
2739.83899	6602.7625
2742.42786	6601.1625
2745.01513	6588.9625
2747.60079	6579.8625
2750.18486	6594.1625
2752.76733	6562.0625
2755.3482	6573.7625
2757.92747	6571.9625
2760.50515	6546.9625
2763.08123	6525.5625
2765.65573	6522.2625
2768.22863	6521.4625
2770.79994	6488.5625
2773.36967	6496.9625
2775.9378	6500.0625
2778.50435	6494.8625
2781.06932	6480.3625
2783.6327	6485.5625
2786.1945	6443.1625
2788.75471	6464.3625
2791.31335	6435.0625
2793.87041	6431.4625
2796.42589	6412.6625
2798.97979	6398.3625
2801.53212	6384.7625
2804.08288	6372.2625
2806.63206	6376.3625
2809.17967	6345.8625
2811.72571	6343.4625
2814.27018	6312.4625
2816.81308	6308.1625
2819.35442	6308.0625
2821.89419	6287.3625
2824.43239	6283.1625
2826.96904	6277.4625
2829.50412	6266.1625
2832.03763	6260.0625
2834.56959	6240.9625
2837.1	6246.0625
2839.62884	6253.9625
2842.15613	6237.0625
2844.68186	6229.3625
2847.20604	6249.0625
2849.72867	6228.8625
2852.24974	6238.0625
2854.76927	6245.1625
2857.28724	6220.8625
2859.80367	6212.3625
2862.31855	6210.5625
2864.83189	6195.2625
2867.34368	6185.1625
2869.85393	6175.0625
2872.36264	6171.4625
2874.8698	6172.4625
2877.37543	6139.4625
2879.87952	6156.7625
2882.38207	6123.6625
2884.88308	6147.4625
2887.38256	6129.6625
2889.88051	6110.0625
2892.37692	6130.6625
2894.8718	6106.4625
2897.36515	6136.2625
2899.85698	6102.0625
2902.34727	6116.2625
2904.83604	6121.1625
2907.32328	6129.7625
2909.809	6116.0625
2912.29319	6125.8625
2914.77587	6137.1625
2917.25702	6113.6625
2919.73665	6118.4625
2922.21476	6107.6625
2924.69136	6094.2625
2927.16644	6118.2625
2929.64	6086.8625
2932.11205	6112.0625
2934.58258	6084.0625
2937.05161	6067.6625
2939.51912	6100.0625
2941.98513	6060.5625
2944.44962	6058.4625
2946.91261	6023.3625
2949.37409	6026.8625
2951.83407	6028.0625
2954.29254	6012.1625
2956.74951	6014.1625
2959.20498	6012.0625
2961.65895	6017.4625
2964.11142	5997.5625
2966.56239	5995.0625
2969.01186	6007.0625
2971.45984	5989.1625
2973.90632	5989.0625
2976.35131	5953.0625
2978.7948	5962.9625
2981.23681	5945.8625
2983.67732	5938.1625
2986.11635	5917.3625
2988.55388	5901.5625
2990.98993	5890.2625
2993.4245	5889.6625
2995.85758	5893.5625
2998.28917	5872.9625
3000.71928	5867.6625
3003.14791	5847.8625
3005.57506	5838.5625
3008.00073	5825.1625
3010.42493	5816.1625
3012.84764	5808.9625
3015.26888	5801.2625
3017.68865	5787.6625
3020.10694	5783.1625
3022.52376	5756.5625
3024.9391	5757.9625
3027.35298	5758.5625
3029.76539	5722.2625
3032.17632	5734.9625
3034.5858	5724.3625
3036.9938	5732.3625
3039.40034	5710.3625
3041.80542	5730.8625
3044.20903	5690.5625
3046.61118	5707.0625
3049.01187	5685.7625
3051.4111	5687.7625
3053.80888	5691.6625
3056.20519	5662.8625
3058.60005	5644.8625
3060.99345	5615.5625
3063.3854	5604.8625
3065.7759	5605.8625
3068.16494	5617.9625
3070.55254	5583.5625
3072.93868	5575.7625
3075.32338	5564.4625
