Data from AgNPs_FTO_APTES_UA_1uM_CRN_0uM_R6G_10uM_NaF_0.1M_Addition_RamanShift__32__11-42-59-445.txt Node

Date: Thu Jan 27 11:42:59 GMT 2022
User: TCL
Spectrometer: QEP01345
Trigger mode: 4
Integration Time (sec): 7.000000E0
Scans to average: 10
Electric dark correction enabled: true
Nonlinearity correction enabled: false
Boxcar width: 0
XAxis mode: Raman Shifts
Number of Pixels in Spectrum: 1044
>>>>>Begin Spectral Data<<<<<
46.04893	0.275
50.45542	-0.025
54.85868	-2.025
59.25871	-1.325
63.6555	47.375
68.04907	52.375
72.43941	50.775
76.82654	56.475
81.21044	57.875
85.59113	56.975
89.96862	60.975
94.34289	63.675
98.71396	65.475
103.08183	66.075
107.4465	70.875
111.80798	72.575
116.16626	72.575
120.52136	78.575
124.87327	78.475
129.222	79.875
133.56755	83.575
137.90993	86.275
142.24913	100.175
146.58517	103.675
150.91804	127.975
155.24774	150.075
159.57429	178.875
163.89768	228.775
168.21792	299.675
172.53501	405.275
176.84895	559.575
181.15975	787.275
185.46741	1097.275
189.77193	1516.075
194.07331	2033.075
198.37157	2623.775
202.6667	3251.075
206.9587	3873.275
211.24758	4474.075
215.53334	5067.575
219.81599	5718.475
224.09553	6430.375
228.37195	7188.975
232.64527	8039.175
236.91549	8965.675
241.18261	9901.175
245.44663	10748.575
249.70755	11537.675
253.96539	12222.275
258.22014	12791.575
262.4718	13204.375
266.72039	13491.575
270.96589	13607.575
275.20832	13590.475
279.44768	13452.875
283.68397	13259.675
287.91719	13115.675
292.14735	12981.575
296.37445	12893.075
300.59849	12882.475
304.81948	12914.075
309.03742	12971.375
313.25231	12973.475
317.46415	12888.075
321.67296	12700.575
325.87872	12573.775
330.08145	12468.875
334.28114	12474.975
338.47781	12530.475
342.67145	12628.675
346.86207	12826.975
351.04966	13055.175
355.23424	13304.475
359.4158	13507.775
363.59435	13685.175
367.76989	13748.375
371.94243	13815.575
376.11196	13800.175
380.27849	13813.075
384.44203	13835.275
388.60257	13941.075
392.76012	14030.375
396.91468	14222.875
401.06626	14438.175
405.21485	14586.775
409.36047	14543.975
413.50311	14438.075
417.64277	14466.875
421.77947	14556.575
425.9132	14555.775
430.04396	14595.275
434.17176	14635.575
438.2966	14701.275
442.41849	14833.775
446.53742	15091.575
450.6534	15408.475
454.76644	15591.775
458.87653	15641.075
462.98368	15550.875
467.08789	15407.975
471.18916	15221.475
475.2875	14964.275
479.38291	14762.075
483.4754	14660.675
487.56496	14557.275
491.6516	14453.875
495.73531	14416.775
499.81612	14452.075
503.89401	14539.675
507.96899	14634.375
512.04106	14666.375
516.11023	14605.875
520.1765	14521.475
524.23987	14388.575
528.30034	14291.175
532.35792	14210.575
536.41261	14058.075
540.46441	13915.375
544.51333	13888.675
548.55936	14004.075
552.60252	14207.675
556.64279	14425.775
560.6802	14633.475
564.71473	14719.175
568.7464	14803.875
572.7752	15097.475
576.80114	15543.175
580.82422	16044.475
584.84444	16841.375
588.86181	17879.175
592.87633	18951.875
596.888	19077.675
600.89682	18022.675
604.9028	17270.275
608.90594	17754.575
612.90624	18671.275
616.90371	17863.275
620.89834	15664.075
624.89015	14591.175
628.87913	14479.375
632.86528	14612.775
636.84862	14646.975
640.82913	14398.575
644.80683	14105.775
648.78172	13956.475
652.75379	13945.575
656.72306	14133.375
660.68952	14297.375
664.65319	14221.875
668.61405	14019.675
672.57211	13971.375
676.52738	14090.675
680.47986	14107.975
684.42955	13975.875
688.37646	13893.775
692.32058	13957.475
696.26192	14125.075
700.20048	14308.375
704.13626	14404.575
708.06928	14447.275
711.99952	14383.675
715.927	14419.975
719.85171	14411.675
723.77365	14376.775
727.69284	14151.275
731.60928	13962.175
735.52295	13882.575
739.43388	13880.575
743.34206	13944.175
747.24749	14042.875
751.15017	14171.175
755.05012	14368.775
758.94733	14613.575
762.8418	15191.575
766.73354	16054.875
770.62254	16847.575
774.50882	17017.875
778.39237	16451.375
782.27321	15652.075
786.15132	14952.575
790.02671	14484.275
793.89938	14218.775
797.76935	14088.475
801.6366	14001.475
805.50115	13986.175
809.36299	13926.175
813.22213	13820.375
817.07857	13756.075
820.93231	13706.075
824.78336	13664.875
828.63172	13631.675
832.47738	13608.675
836.32036	13612.575
840.16066	13601.975
843.99827	13610.475
847.8332	13598.475
851.66546	13624.775
855.49504	13629.675
859.32195	13670.075
863.1462	13669.975
866.96777	13655.775
870.78668	13652.375
874.60293	13675.275
878.41652	13687.675
882.22745	13716.075
886.03573	13805.775
889.84136	13798.975
893.64433	13775.175
897.44466	13749.175
901.24235	13752.775
905.0374	13721.675
908.8298	13676.375
912.61957	13690.875
916.40671	13757.575
920.19121	13888.175
923.97308	14057.475
927.75233	14135.375
931.52895	14051.775
935.30295	13839.575
939.07433	13639.975
942.84309	13443.675
946.60924	13342.075
950.37278	13306.875
954.13371	13343.975
957.89203	13275.175
961.64774	13286.775
965.40086	13252.375
969.15137	13210.975
972.89929	13190.675
976.64461	13109.375
980.38733	13113.475
984.12747	13099.175
987.86502	13137.075
991.59999	13194.175
995.33237	13259.775
999.06217	13435.475
1002.78939	13637.675
1006.51404	13866.175
1010.23611	14140.675
1013.95561	14305.575
1017.67255	14349.975
1021.38692	14258.675
1025.09872	14013.675
1028.80796	13795.475
1032.51465	13718.875
1036.21877	13703.175
1039.92035	13739.875
1043.61937	13807.475
1047.31584	13837.075
1051.00976	13874.075
1054.70114	13929.475
1058.38998	13955.775
1062.07627	14071.675
1065.76003	14157.975
1069.44126	14310.875
1073.11995	14596.375
1076.79611	14841.975
1080.46974	15006.975
1084.14085	15060.975
1087.80943	15195.175
1091.47549	15310.575
1095.13903	15357.575
1098.80005	15179.475
1102.45857	14832.175
1106.11456	14557.275
1109.76805	14384.875
1113.41903	14384.775
1117.06751	14410.775
1120.71348	14475.475
1124.35696	14603.275
1127.99793	14708.375
1131.63641	14822.875
1135.2724	14818.475
1138.90589	14722.875
1142.5369	14719.875
1146.16542	14791.375
1149.79145	14903.175
1153.415	14952.275
1157.03607	15056.775
1160.65467	15312.475
1164.27079	15813.675
1167.88443	16472.475
1171.49561	17190.275
1175.10432	18018.475
1178.71056	19071.175
1182.31434	20113.375
1185.91565	20632.075
1189.51451	20616.375
1193.11091	20270.775
1196.70485	19774.475
1200.29634	19220.075
1203.88538	18682.675
1207.47197	18379.675
1211.05612	18150.775
1214.63782	17868.775
1218.21708	17477.775
1221.79391	17037.475
1225.36829	16804.875
1228.94024	16717.175
1232.50976	16563.375
1236.07685	16410.775
1239.6415	16234.275
1243.20374	16179.675
1246.76355	16228.675
1250.32093	16351.375
1253.8759	16620.075
1257.42845	17013.575
1260.97859	17443.975
1264.52631	17920.475
1268.07163	18374.875
1271.61453	18828.575
1275.15503	19229.175
1278.69312	19731.375
1282.22882	20226.575
1285.76211	20901.475
1289.29301	21580.475
1292.82151	22389.475
1296.34761	23326.475
1299.87133	24394.975
1303.39266	25476.475
1306.9116	26495.775
1310.42815	27211.775
1313.94233	27494.975
1317.45412	27266.775
1320.96354	26698.475
1324.47058	26156.275
1327.97525	25809.775
1331.47754	25563.675
1334.97747	25321.175
1338.47502	25085.375
1341.97022	24848.175
1345.46305	24714.275
1348.95352	24715.675
1352.44163	24960.075
1355.92738	25532.975
1359.41078	26619.175
1362.89183	27621.475
1366.37053	27697.875
1369.84688	26054.375
1373.32088	23439.275
1376.79254	21288.375
1380.26186	20324.275
1383.72883	20178.875
1387.19347	20050.575
1390.65578	19763.375
1394.11575	19477.775
1397.57339	19572.975
1401.0287	19857.275
1404.48168	20150.775
1407.93234	20135.875
1411.38068	19816.775
1414.82669	19353.075
1418.27039	18807.075
1421.71177	18276.275
1425.15083	17840.675
1428.58758	17684.575
1432.02203	17843.075
1435.45416	18285.775
1438.88399	18665.575
1442.31151	18875.675
1445.73673	18936.175
1449.15965	18911.175
1452.58027	18838.975
1455.9986	18758.875
1459.41463	18818.475
1462.82837	19099.575
1466.23982	19520.075
1469.64898	19819.375
1473.05586	20036.775
1476.46045	20157.875
1479.86276	20130.375
1483.26279	20058.975
1486.66054	20100.875
1490.05602	20211.675
1493.44922	20542.475
1496.84016	20926.275
1500.22882	21407.175
1503.61521	21880.675
1506.99934	22424.075
1510.38121	22836.775
1513.76081	22903.575
1517.13816	22604.075
1520.51324	22043.375
1523.88607	21602.375
1527.25665	21337.375
1530.62498	21228.775
1533.99105	20959.775
1537.35488	20536.775
1540.71647	20012.875
1544.07581	19502.075
1547.4329	18977.775
1550.78776	18610.575
1554.14038	18333.075
1557.49077	18246.175
1560.83892	18190.275
1564.18484	18172.775
1567.52853	18255.675
1570.86999	18361.375
1574.20922	18612.575
1577.54624	18818.675
1580.88103	18824.175
1584.2136	18866.075
1587.54395	19273.375
1590.87208	20190.475
1594.19801	21349.275
1597.52172	22405.375
1600.84321	22708.975
1604.16251	21809.575
1607.47959	20231.175
1610.79447	18628.675
1614.10715	17259.075
1617.41763	16145.575
1620.7259	15414.075
1624.03199	15044.775
1627.33587	15020.475
1630.63757	15344.575
1633.93707	16171.575
1637.23439	17555.675
1640.52951	19768.075
1643.82246	22525.675
1647.11321	24861.075
1650.40179	25331.575
1653.68819	23532.575
1656.97241	20426.375
1660.25446	17520.575
1663.53433	15513.675
1666.81203	14247.975
1670.08756	13547.375
1673.36092	13098.675
1676.63211	12829.575
1679.90115	12635.875
1683.16801	12470.475
1686.43272	12349.575
1689.69527	12231.375
1692.95567	12147.475
1696.2139	12056.975
1699.46999	11948.475
1702.72392	11892.975
1705.97571	11899.875
1709.22535	11958.275
1712.47284	11956.875
1715.71819	11984.675
1718.96139	11960.575
1722.20246	11950.575
1725.44139	11903.475
1728.67818	11828.775
1731.91284	11770.275
1735.14537	11708.675
1738.37576	11674.275
1741.60403	11622.575
1744.83017	11557.175
1748.05418	11517.375
1751.27607	11490.275
1754.49584	11460.375
1757.71349	11437.175
1760.92903	11408.775
1764.14244	11393.375
1767.35375	11397.875
1770.56294	11372.875
1773.77002	11364.675
1776.97499	11365.675
1780.17785	11357.475
1783.37861	11351.775
1786.57727	11339.975
1789.77382	11343.675
1792.96828	11331.675
1796.16064	11300.975
1799.3509	11258.475
1802.53907	11262.575
1805.72514	11215.075
1808.90913	11222.175
1812.09102	11165.375
1815.27083	11153.775
1818.44856	11119.075
1821.6242	11127.775
1824.79776	11123.775
1827.96924	11117.275
1831.13864	11108.375
1834.30597	11089.375
1837.47122	11096.675
1840.6344	11080.675
1843.7955	11088.875
1846.95454	11082.575
1850.11151	11098.875
1853.26642	11075.075
1856.41926	11062.875
1859.57004	11069.775
1862.71876	11028.075
1865.86542	11037.975
1869.01003	11044.975
1872.15258	11002.575
1875.29308	10984.175
1878.43152	10971.375
1881.56792	10955.375
1884.70227	10933.675
1887.83457	10920.075
1890.96482	10891.975
1894.09304	10907.275
1897.21921	10883.275
1900.34335	10875.675
1903.46544	10855.375
1906.58551	10842.175
1909.70353	10831.175
1912.81953	10801.975
1915.93349	10759.275
1919.04543	10768.775
1922.15534	10700.475
1925.26322	10699.175
1928.36908	10701.175
1931.47292	10654.875
1934.57473	10633.175
1937.67453	10617.475
1940.77232	10600.275
1943.86808	10538.875
1946.96184	10491.075
1950.05358	10484.375
1953.14331	10468.175
1956.23103	10415.675
1959.31675	10404.475
1962.40046	10360.275
1965.48217	10344.975
1968.56188	10313.475
1971.63959	10277.075
1974.7153	10240.075
1977.78901	10205.775
1980.86073	10190.875
1983.93046	10138.775
1986.99819	10116.375
1990.06394	10098.875
1993.1277	10042.475
1996.18947	10025.175
1999.24925	10011.175
2002.30706	9954.975
2005.36288	9931.175
2008.41672	9907.475
2011.46859	9871.275
2014.51848	9838.475
2017.56639	9806.475
2020.61233	9790.775
2023.6563	9792.975
2026.6983	9762.075
2029.73833	9733.775
2032.7764	9707.675
2035.8125	9688.975
2038.84664	9647.475
2041.87881	9651.775
2044.90903	9613.575
2047.93729	9600.775
2050.96359	9601.075
2053.98794	9583.175
2057.01034	9583.675
2060.03078	9566.275
2063.04927	9564.375
2066.06582	9580.375
2069.08042	9552.975
2072.09307	9551.875
2075.10378	9536.075
2078.11255	9556.275
2081.11938	9547.675
2084.12426	9561.875
2087.12722	9552.575
2090.12824	9541.675
2093.12732	9575.375
2096.12447	9559.175
2099.11969	9538.375
2102.11299	9544.975
2105.10435	9542.675
2108.09379	9552.575
2111.08131	9548.775
2114.0669	9536.775
2117.05057	9550.875
2120.03233	9552.575
2123.01216	9561.075
2125.99008	9564.575
2128.96609	9557.275
2131.94018	9568.875
2134.91236	9533.375
2137.88263	9533.475
2140.851	9554.375
2143.81746	9546.075
2146.78201	9572.275
2149.74466	9556.575
2152.7054	9545.675
2155.66425	9564.075
2158.6212	9580.775
2161.57625	9545.975
2164.52941	9546.375
2167.48067	9534.975
2170.43004	9541.375
2173.37752	9529.075
2176.32311	9546.175
2179.26681	9541.175
2182.20863	9521.875
2185.14856	9517.375
2188.08661	9517.475
2191.02278	9514.375
2193.95707	9519.075
2196.88948	9520.375
2199.82001	9474.675
2202.74867	9464.175
2205.67545	9454.575
2208.60037	9464.575
2211.52341	9427.875
2214.44458	9419.275
2217.36388	9386.275
2220.28132	9366.375
2223.1969	9342.475
2226.11061	9347.575
2229.02246	9318.175
2231.93245	9309.875
2234.84058	9311.675
2237.74686	9284.675
2240.65128	9288.075
2243.55385	9265.275
2246.45456	9240.175
2249.35343	9258.675
2252.25044	9236.675
2255.14561	9211.775
2258.03893	9209.775
2260.93041	9160.875
2263.82004	9136.375
2266.70783	9130.275
2269.59378	9090.275
2272.4779	9099.775
2275.36017	9086.475
2278.24061	9062.875
2281.11922	9052.875
2283.996	9029.275
2286.87094	8991.775
2289.74405	8990.575
2292.61534	8983.375
2295.4848	8949.775
2298.35243	8955.975
2301.21824	8939.375
2304.08223	8941.675
2306.94439	8948.975
2309.80474	8927.675
2312.66327	8931.975
2315.51999	8897.275
2318.37489	8879.875
2321.22797	8901.375
2324.07925	8894.675
2326.92871	8863.175
2329.77637	8866.475
2332.62222	8838.675
2335.46626	8807.975
2338.3085	8815.975
2341.14893	8788.775
2343.98756	8815.375
2346.8244	8794.075
2349.65943	8778.375
2352.49267	8791.675
2355.32411	8765.175
2358.15376	8754.275
2360.98161	8762.375
2363.80768	8775.875
2366.63195	8780.175
2369.45444	8772.775
2372.27514	8754.975
2375.09405	8750.775
2377.91118	8722.675
2380.72652	8701.275
2383.54009	8660.775
2386.35187	8664.875
2389.16188	8631.675
2391.97011	8610.975
2394.77657	8582.675
2397.58125	8589.575
2400.38416	8585.475
2403.18529	8538.575
2405.98466	8539.175
2408.78226	8528.375
2411.57809	8534.475
2414.37216	8524.675
2417.16446	8512.675
2419.955	8502.875
2422.74378	8507.275
2425.5308	8503.075
2428.31606	8490.075
2431.09956	8463.775
2433.88131	8459.975
2436.6613	8473.175
2439.43954	8472.475
2442.21603	8469.075
2444.99077	8447.475
2447.76377	8464.675
2450.53501	8462.875
2453.30451	8447.175
2456.07226	8441.175
2458.83827	8413.875
2461.60254	8401.375
2464.36507	8394.875
2467.12586	8397.675
2469.88492	8404.475
2472.64224	8405.275
2475.39782	8401.275
2478.15167	8380.675
2480.90379	8376.075
2483.65417	8377.075
2486.40283	8355.275
2489.14976	8367.675
2491.89497	8358.675
2494.63845	8356.775
2497.3802	8346.675
2500.12024	8325.175
2502.85855	8338.975
2505.59514	8330.175
2508.33002	8315.975
2511.06318	8289.975
2513.79462	8305.975
2516.52435	8278.575
2519.25237	8273.975
2521.97867	8270.275
2524.70327	8257.175
2527.42616	8256.975
2530.14734	8241.275
2532.86681	8244.175
2535.58458	8231.775
2538.30065	8209.175
2541.01501	8218.475
2543.72768	8204.575
2546.43864	8175.875
2549.14791	8181.675
2551.85548	8169.575
2554.56136	8156.275
2557.26554	8134.975
2559.96803	8121.975
2562.66883	8125.975
2565.36794	8122.675
2568.06536	8096.375
2570.7611	8083.575
2573.45514	8085.075
2576.14751	8065.475
2578.83819	8051.575
2581.52719	8051.375
2584.21451	8027.475
2586.90015	8043.275
2589.58411	8010.075
2592.2664	8007.775
2594.94701	7982.275
2597.62594	7982.575
2600.30321	7958.375
2602.9788	7955.875
2605.65273	7941.675
2608.32498	7944.575
2610.99557	7918.475
2613.66449	7934.075
2616.33175	7916.475
2618.99734	7910.575
2621.66128	7901.875
2624.32355	7879.175
2626.98416	7859.175
2629.64311	7859.675
2632.30041	7834.475
2634.95605	7835.475
2637.61004	7837.575
2640.26238	7820.775
2642.91306	7807.275
2645.56209	7806.075
2648.20948	7791.275
2650.85521	7816.475
2653.4993	7811.875
2656.14175	7821.275
2658.78255	7818.775
2661.42171	7804.775
2664.05923	7830.675
2666.6951	7838.775
2669.32934	7852.075
2671.96194	7838.775
2674.59291	7814.375
2677.22224	7818.575
2679.84993	7826.275
2682.476	7813.075
2685.10043	7824.575
2687.72324	7800.075
2690.34441	7789.375
2692.96396	7804.675
2695.58188	7804.775
2698.19818	7806.975
2700.81285	7806.375
2703.4259	7799.975
2706.03733	7752.375
2708.64714	7766.075
2711.25533	7808.375
2713.86191	7786.975
2716.46687	7805.475
2719.07021	7778.875
2721.67194	7819.475
2724.27206	7815.275
2726.87057	7817.775
2729.46747	7803.475
2732.06276	7798.075
2734.65644	7807.775
2737.24852	7812.675
2739.83899	7807.475
2742.42786	7802.375
2745.01513	7781.775
2747.60079	7753.675
2750.18486	7776.475
2752.76733	7753.775
2755.3482	7748.675
2757.92747	7748.275
2760.50515	7727.575
2763.08123	7715.275
2765.65573	7735.275
2768.22863	7714.975
2770.79994	7718.675
2773.36967	7720.875
2775.9378	7729.275
2778.50435	7701.375
2781.06932	7669.975
2783.6327	7655.975
2786.1945	7651.675
2788.75471	7664.475
2791.31335	7640.475
2793.87041	7624.875
2796.42589	7619.975
2798.97979	7605.275
2801.53212	7605.175
2804.08288	7584.075
2806.63206	7585.475
2809.17967	7558.475
2811.72571	7547.875
2814.27018	7520.775
2816.81308	7510.075
2819.35442	7477.375
2821.89419	7459.275
2824.43239	7459.675
2826.96904	7472.175
2829.50412	7457.775
2832.03763	7448.075
2834.56959	7453.675
2837.1	7449.775
2839.62884	7440.075
2842.15613	7425.375
2844.68186	7429.375
2847.20604	7453.375
2849.72867	7441.175
2852.24974	7438.975
2854.76927	7407.475
2857.28724	7406.175
2859.80367	7418.775
2862.31855	7389.275
2864.83189	7403.575
2867.34368	7376.775
2869.85393	7369.175
2872.36264	7371.175
2874.8698	7384.275
2877.37543	7364.675
2879.87952	7377.075
2882.38207	7355.675
2884.88308	7373.075
2887.38256	7363.475
2889.88051	7364.475
2892.37692	7370.575
2894.8718	7370.775
2897.36515	7372.075
2899.85698	7394.675
2902.34727	7400.075
2904.83604	7385.575
2907.32328	7407.175
2909.809	7381.875
2912.29319	7364.175
2914.77587	7374.475
2917.25702	7370.175
2919.73665	7370.175
2922.21476	7368.175
2924.69136	7372.275
2927.16644	7348.475
2929.64	7362.775
2932.11205	7337.375
2934.58258	7330.475
2937.05161	7326.475
2939.51912	7348.875
2941.98513	7315.275
2944.44962	7307.875
2946.91261	7287.875
2949.37409	7271.475
2951.83407	7263.875
2954.29254	7248.675
2956.74951	7243.975
2959.20498	7240.675
2961.65895	7235.475
2964.11142	7220.475
2966.56239	7199.475
2969.01186	7191.675
2971.45984	7169.375
2973.90632	7165.075
2976.35131	7167.875
2978.7948	7128.775
2981.23681	7131.775
2983.67732	7108.075
2986.11635	7068.475
2988.55388	7057.375
2990.98993	7026.475
2993.4245	7017.975
2995.85758	6993.875
2998.28917	6993.575
3000.71928	6981.775
3003.14791	6943.375
3005.57506	6940.875
3008.00073	6927.675
3010.42493	6924.375
3012.84764	6940.775
3015.26888	6909.575
3017.68865	6900.075
3020.10694	6899.775
3022.52376	6851.075
3024.9391	6864.675
3027.35298	6848.575
3029.76539	6850.675
3032.17632	6819.875
3034.5858	6833.075
3036.9938	6825.275
3039.40034	6799.375
3041.80542	6800.775
3044.20903	6800.575
3046.61118	6796.375
3049.01187	6778.875
3051.4111	6768.575
3053.80888	6737.975
3056.20519	6731.575
3058.60005	6711.975
3060.99345	6699.075
3063.3854	6686.975
3065.7759	6664.875
3068.16494	6665.275
3070.55254	6635.875
3072.93868	6614.075
3075.32338	6610.275
3077.70662	6600.875
3080.08842	6576.675
3082.46878	6571.875
3084.84769	6580.775
3087.22515	6568.175
3089.60118	6572.275
3091.97576	6556.975
3094.3489	6559.675
3096.72061	6586.175
3099.09087	6558.975
3101.4597	6541.675
3103.82709	6540.175
3106.19305	6542.175
3108.55757	6549.975
3110.92066	6530.375
3113.28232	6510.375
3115.64255	6491.775
3118.00134	6499.875
3120.35871	6474.475
3122.71466	6469.575
3125.06917	6461.575
3127.42226	6431.675
3129.77393	6443.775
3132.12417	6429.975
3134.47299	6416.175
3136.82039	6426.475
3139.16636	6435.075
3141.51092	6431.175
3143.85406	6428.675
3146.19579	6440.375
3148.53609	6431.175
3150.87499	6448.075
3153.21246	6441.075
3155.54853	6451.675
3157.88318	6437.075
3160.21642	6459.775
3162.54826	6437.275
3164.87868	6455.675
3167.2077	6430.775
3169.5353	6440.375
3171.86151	6450.375
3174.18631	6422.275
3176.5097	6430.475
3178.83169	6413.575
