Data from AgNPs_FTO_APTES_UA_1uM_CRN_10uM_R6G_50uM_NaF_0.1M_Addition_RamanShift__10__15-52-39-730.txt Node

Date: Thu Jan 27 15:52:39 GMT 2022
User: TCL
Spectrometer: QEP01345
Trigger mode: 4
Integration Time (sec): 7.000000E0
Scans to average: 10
Electric dark correction enabled: true
Nonlinearity correction enabled: false
Boxcar width: 0
XAxis mode: Raman Shifts
Number of Pixels in Spectrum: 1044
>>>>>Begin Spectral Data<<<<<
46.04893	0.925
50.45542	0.825
54.85868	-0.375
59.25871	-2.175
63.6555	49.125
68.04907	47.525
72.43941	48.625
76.82654	58.225
81.21044	55.725
85.59113	55.625
89.96862	60.125
94.34289	62.125
98.71396	64.825
103.08183	61.725
107.4465	70.425
111.80798	69.625
116.16626	70.525
120.52136	76.225
124.87327	75.225
129.222	77.725
133.56755	80.225
137.90993	85.625
142.24913	92.125
146.58517	102.725
150.91804	119.025
155.24774	135.025
159.57429	166.025
163.89768	210.825
168.21792	275.025
172.53501	373.725
176.84895	510.425
181.15975	716.225
185.46741	1008.325
189.77193	1375.425
194.07331	1857.625
198.37157	2402.925
202.6667	2961.925
206.9587	3533.525
211.24758	4079.225
215.53334	4634.425
219.81599	5210.425
224.09553	5821.925
228.37195	6512.425
232.64527	7253.325
236.91549	8058.525
241.18261	8883.125
245.44663	9673.325
249.70755	10411.625
253.96539	11057.925
258.22014	11596.925
262.4718	12040.925
266.72039	12350.925
270.96589	12509.925
275.20832	12538.225
279.44768	12484.925
283.68397	12395.025
287.91719	12296.525
292.14735	12235.025
296.37445	12177.825
300.59849	12174.725
304.81948	12182.625
309.03742	12185.225
313.25231	12106.125
317.46415	11948.425
321.67296	11723.225
325.87872	11542.825
330.08145	11454.725
334.28114	11456.825
338.47781	11544.925
342.67145	11638.725
346.86207	11798.925
351.04966	11960.525
355.23424	12105.025
359.4158	12245.925
363.59435	12357.925
367.76989	12465.125
371.94243	12550.325
376.11196	12591.425
380.27849	12617.725
384.44203	12670.625
388.60257	12787.125
392.76012	12900.625
396.91468	13044.525
401.06626	13208.825
405.21485	13355.925
409.36047	13300.325
413.50311	13232.425
417.64277	13156.225
421.77947	13209.625
425.9132	13277.125
430.04396	13339.525
434.17176	13428.325
438.2966	13472.825
442.41849	13586.425
446.53742	13784.825
450.6534	14028.025
454.76644	14237.725
458.87653	14318.525
462.98368	14339.925
467.08789	14303.925
471.18916	14221.125
475.2875	14113.925
479.38291	14060.625
483.4754	13985.825
487.56496	13881.525
491.6516	13755.225
495.73531	13614.525
499.81612	13542.825
503.89401	13613.725
507.96899	13633.025
512.04106	13666.825
516.11023	13636.525
520.1765	13522.125
524.23987	13388.825
528.30034	13302.825
532.35792	13190.025
536.41261	13137.125
540.46441	13038.525
544.51333	13060.225
548.55936	13152.025
552.60252	13332.825
556.64279	13555.625
560.6802	13680.925
564.71473	13801.425
568.7464	13982.125
572.7752	14261.625
576.80114	14615.725
580.82422	15001.425
584.84444	15320.025
588.86181	15695.025
592.87633	15971.725
596.888	15905.825
600.89682	15502.725
604.9028	15339.225
608.90594	15755.825
612.90624	16286.225
616.90371	15570.525
620.89834	14040.625
624.89015	13360.325
628.87913	13321.025
632.86528	13425.525
636.84862	13470.025
640.82913	13338.825
644.80683	13144.625
648.78172	13016.625
652.75379	12965.325
656.72306	13030.825
660.68952	13176.825
664.65319	13133.525
668.61405	13013.225
672.57211	12998.925
676.52738	13061.425
680.47986	13028.825
684.42955	13003.225
688.37646	12958.125
692.32058	12986.325
696.26192	13083.325
700.20048	13196.725
704.13626	13267.925
708.06928	13334.425
711.99952	13323.725
715.927	13299.325
719.85171	13266.625
723.77365	13223.025
727.69284	13069.825
731.60928	12972.125
735.52295	12909.525
739.43388	12887.125
743.34206	12928.825
747.24749	12934.725
751.15017	13074.725
755.05012	13217.725
758.94733	13506.125
762.8418	13911.425
766.73354	14524.525
770.62254	15087.225
774.50882	15144.525
778.39237	14662.425
782.27321	14050.925
786.15132	13512.325
790.02671	13142.825
793.89938	12957.125
797.76935	12909.325
801.6366	12840.725
805.50115	12831.025
809.36299	12772.825
813.22213	12695.625
817.07857	12702.325
820.93231	12716.125
824.78336	12642.025
828.63172	12606.925
832.47738	12570.525
836.32036	12572.825
840.16066	12569.225
843.99827	12556.025
847.8332	12567.325
851.66546	12561.125
855.49504	12569.325
859.32195	12591.625
863.1462	12554.725
866.96777	12542.025
870.78668	12529.825
874.60293	12541.125
878.41652	12552.625
882.22745	12574.025
886.03573	12615.625
889.84136	12619.525
893.64433	12549.325
897.44466	12532.025
901.24235	12522.125
905.0374	12492.825
908.8298	12469.525
912.61957	12479.225
916.40671	12560.225
920.19121	12686.725
923.97308	12773.525
927.75233	12744.625
931.52895	12622.525
935.30295	12496.025
939.07433	12327.425
942.84309	12227.825
946.60924	12141.825
950.37278	12101.425
954.13371	12102.125
957.89203	12122.125
961.64774	12110.725
965.40086	12079.525
969.15137	12072.725
972.89929	11998.525
976.64461	11969.725
980.38733	11934.625
984.12747	11932.025
987.86502	11947.025
991.59999	11957.625
995.33237	12024.625
999.06217	12115.325
1002.78939	12250.525
1006.51404	12365.825
1010.23611	12522.325
1013.95561	12624.425
1017.67255	12640.125
1021.38692	12577.725
1025.09872	12499.125
1028.80796	12370.125
1032.51465	12356.325
1036.21877	12328.225
1039.92035	12380.325
1043.61937	12407.425
1047.31584	12431.825
1051.00976	12460.425
1054.70114	12506.525
1058.38998	12588.725
1062.07627	12722.525
1065.76003	12825.025
1069.44126	12937.725
1073.11995	13101.725
1076.79611	13218.525
1080.46974	13283.025
1084.14085	13307.025
1087.80943	13344.725
1091.47549	13398.825
1095.13903	13470.225
1098.80005	13388.525
1102.45857	13181.825
1106.11456	12937.625
1109.76805	12812.425
1113.41903	12748.625
1117.06751	12812.625
1120.71348	12885.525
1124.35696	12973.225
1127.99793	13100.325
1131.63641	13159.525
1135.2724	13110.825
1138.90589	13067.725
1142.5369	13092.625
1146.16542	13156.825
1149.79145	13234.925
1153.415	13307.225
1157.03607	13407.025
1160.65467	13630.825
1164.27079	14044.825
1167.88443	14528.725
1171.49561	15060.325
1175.10432	15666.125
1178.71056	16385.125
1182.31434	17079.825
1185.91565	17486.525
1189.51451	17591.125
1193.11091	17429.525
1196.70485	17117.725
1200.29634	16690.725
1203.88538	16351.825
1207.47197	16123.425
1211.05612	16002.925
1214.63782	15791.725
1218.21708	15437.125
1221.79391	15082.225
1225.36829	14714.425
1228.94024	14550.125
1232.50976	14445.325
1236.07685	14350.225
1239.6415	14320.325
1243.20374	14297.025
1246.76355	14364.325
1250.32093	14503.125
1253.8759	14678.125
1257.42845	14915.225
1260.97859	15206.425
1264.52631	15528.525
1268.07163	15818.425
1271.61453	16092.625
1275.15503	16396.725
1278.69312	16725.725
1282.22882	17099.925
1285.76211	17498.925
1289.29301	18012.425
1292.82151	18614.625
1296.34761	19325.825
1299.87133	20149.825
1303.39266	20892.725
1306.9116	21530.325
1310.42815	22009.425
1313.94233	22160.925
1317.45412	22094.425
1320.96354	21944.525
1324.47058	21822.925
1327.97525	21780.725
1331.47754	21747.125
1334.97747	21717.725
1338.47502	21677.025
1341.97022	21682.025
1345.46305	21665.525
1348.95352	21586.125
1352.44163	21481.925
1355.92738	21433.825
1359.41078	21672.525
1362.89183	21881.225
1366.37053	21562.325
1369.84688	20465.125
1373.32088	18915.725
1376.79254	17786.725
1380.26186	17327.025
1383.72883	17277.825
1387.19347	17339.425
1390.65578	17225.125
1394.11575	17138.125
1397.57339	17104.625
1401.0287	17259.225
1404.48168	17368.325
1407.93234	17300.025
1411.38068	16999.925
1414.82669	16567.725
1418.27039	15995.725
1421.71177	15454.625
1425.15083	15086.425
1428.58758	14924.825
1432.02203	14950.025
1435.45416	15154.425
1438.88399	15471.425
1442.31151	15749.325
1445.73673	15908.525
1449.15965	16021.025
1452.58027	16159.625
1455.9986	16179.425
1459.41463	16254.625
1462.82837	16400.825
1466.23982	16632.125
1469.64898	16811.425
1473.05586	16963.125
1476.46045	16954.025
1479.86276	16925.225
1483.26279	16794.425
1486.66054	16799.425
1490.05602	16848.825
1493.44922	17023.925
1496.84016	17268.725
1500.22882	17567.025
1503.61521	18038.325
1506.99934	18479.325
1510.38121	18841.025
1513.76081	18844.825
1517.13816	18649.925
1520.51324	18325.625
1523.88607	18125.725
1527.25665	18059.125
1530.62498	18031.325
1533.99105	17893.925
1537.35488	17728.625
1540.71647	17363.825
1544.07581	16936.925
1547.4329	16556.325
1550.78776	16180.125
1554.14038	15958.225
1557.49077	15818.825
1560.83892	15759.125
1564.18484	15731.725
1567.52853	15754.325
1570.86999	15900.925
1574.20922	16139.725
1577.54624	16347.625
1580.88103	16424.125
1584.2136	16480.125
1587.54395	16715.625
1590.87208	17150.525
1594.19801	17776.925
1597.52172	18342.325
1600.84321	18455.025
1604.16251	17869.225
1607.47959	16945.625
1610.79447	15987.725
1614.10715	14973.225
1617.41763	14208.525
1620.7259	13605.625
1624.03199	13248.225
1627.33587	13171.025
1630.63757	13384.225
1633.93707	13901.725
1637.23439	14832.425
1640.52951	16245.025
1643.82246	17957.125
1647.11321	19386.425
1650.40179	19834.825
1653.68819	18818.025
1656.97241	16972.325
1660.25446	15072.125
1663.53433	13573.025
1666.81203	12595.325
1670.08756	11952.525
1673.36092	11557.825
1676.63211	11293.625
1679.90115	11134.625
1683.16801	10967.125
1686.43272	10870.525
1689.69527	10764.625
1692.95567	10689.525
1696.2139	10632.425
1699.46999	10582.325
1702.72392	10532.325
1705.97571	10510.425
1709.22535	10538.625
1712.47284	10525.725
1715.71819	10516.125
1718.96139	10521.525
1722.20246	10504.125
1725.44139	10452.325
1728.67818	10431.125
1731.91284	10348.025
1735.14537	10306.525
1738.37576	10274.225
1741.60403	10203.925
1744.83017	10173.525
1748.05418	10159.225
1751.27607	10132.825
1754.49584	10109.425
1757.71349	10084.625
1760.92903	10079.925
1764.14244	10066.125
1767.35375	10047.325
1770.56294	10015.125
1773.77002	10006.625
1776.97499	10012.825
1780.17785	10013.125
1783.37861	10024.025
1786.57727	9996.125
1789.77382	9974.025
1792.96828	9965.525
1796.16064	9936.425
1799.3509	9920.325
1802.53907	9900.525
1805.72514	9899.025
1808.90913	9836.425
1812.09102	9811.225
1815.27083	9782.925
1818.44856	9800.525
1821.6242	9773.125
1824.79776	9749.625
1827.96924	9748.625
1831.13864	9727.425
1834.30597	9726.625
1837.47122	9734.025
1840.6344	9721.125
1843.7955	9711.325
1846.95454	9691.125
1850.11151	9696.125
1853.26642	9696.425
1856.41926	9670.025
1859.57004	9672.025
1862.71876	9678.925
1865.86542	9668.125
1869.01003	9657.725
1872.15258	9612.425
1875.29308	9605.525
1878.43152	9563.325
1881.56792	9565.525
1884.70227	9524.125
1887.83457	9531.525
1890.96482	9523.825
1894.09304	9524.425
1897.21921	9480.825
1900.34335	9478.125
1903.46544	9481.925
1906.58551	9456.925
1909.70353	9431.225
1912.81953	9421.525
1915.93349	9403.325
1919.04543	9380.025
1922.15534	9366.825
1925.26322	9356.525
1928.36908	9343.825
1931.47292	9309.425
1934.57473	9290.725
1937.67453	9253.225
1940.77232	9234.925
1943.86808	9232.725
1946.96184	9188.025
1950.05358	9169.325
1953.14331	9160.825
1956.23103	9101.425
1959.31675	9088.025
1962.40046	9077.725
1965.48217	9040.125
1968.56188	9020.125
1971.63959	8996.725
1974.7153	8968.525
1977.78901	8936.425
1980.86073	8907.425
1983.93046	8865.825
1986.99819	8843.525
1990.06394	8820.925
1993.1277	8788.325
1996.18947	8759.325
1999.24925	8735.025
2002.30706	8699.225
2005.36288	8672.225
2008.41672	8642.725
2011.46859	8634.725
2014.51848	8614.625
2017.56639	8598.625
2020.61233	8570.825
2023.6563	8535.525
2026.6983	8514.825
2029.73833	8502.525
2032.7764	8469.325
2035.8125	8448.425
2038.84664	8427.525
2041.87881	8417.725
2044.90903	8397.025
2047.93729	8373.425
2050.96359	8359.925
2053.98794	8351.425
2057.01034	8359.125
2060.03078	8357.725
2063.04927	8336.025
2066.06582	8307.925
2069.08042	8326.425
2072.09307	8320.225
2075.10378	8293.925
2078.11255	8306.025
2081.11938	8290.125
2084.12426	8308.425
2087.12722	8293.325
2090.12824	8282.925
2093.12732	8296.725
2096.12447	8259.425
2099.11969	8270.425
2102.11299	8283.325
2105.10435	8273.125
2108.09379	8271.525
2111.08131	8274.325
2114.0669	8281.825
2117.05057	8291.625
2120.03233	8287.425
2123.01216	8286.325
2125.99008	8306.125
2128.96609	8310.425
2131.94018	8309.625
2134.91236	8320.125
2137.88263	8304.125
2140.851	8315.425
2143.81746	8312.525
2146.78201	8301.625
2149.74466	8321.125
2152.7054	8304.225
2155.66425	8307.525
2158.6212	8315.325
2161.57625	8291.525
2164.52941	8294.125
2167.48067	8285.725
2170.43004	8291.825
2173.37752	8289.025
2176.32311	8297.525
2179.26681	8274.125
2182.20863	8268.925
2185.14856	8265.625
2188.08661	8273.725
2191.02278	8275.725
2193.95707	8253.225
2196.88948	8255.425
2199.82001	8255.925
2202.74867	8233.325
2205.67545	8223.825
2208.60037	8208.825
2211.52341	8180.125
2214.44458	8170.325
2217.36388	8130.925
2220.28132	8143.525
2223.1969	8106.325
2226.11061	8114.125
2229.02246	8069.625
2231.93245	8088.225
2234.84058	8079.025
2237.74686	8048.825
2240.65128	8064.025
2243.55385	8024.925
2246.45456	8008.125
2249.35343	7989.425
2252.25044	7979.825
2255.14561	7982.325
2258.03893	7955.825
2260.93041	7935.125
2263.82004	7915.925
2266.70783	7894.325
2269.59378	7867.225
2272.4779	7852.625
2275.36017	7847.625
2278.24061	7822.625
2281.11922	7800.825
2283.996	7810.825
2286.87094	7786.025
2289.74405	7758.425
2292.61534	7742.925
2295.4848	7748.425
2298.35243	7730.025
2301.21824	7710.825
2304.08223	7726.825
2306.94439	7726.325
2309.80474	7719.625
2312.66327	7709.825
2315.51999	7708.025
2318.37489	7689.025
2321.22797	7658.225
2324.07925	7653.725
2326.92871	7665.725
2329.77637	7655.225
2332.62222	7619.225
2335.46626	7603.725
2338.3085	7595.925
2341.14893	7574.625
2343.98756	7573.625
2346.8244	7562.025
2349.65943	7550.525
2352.49267	7549.925
2355.32411	7558.825
2358.15376	7540.425
2360.98161	7542.425
2363.80768	7542.525
2366.63195	7551.025
2369.45444	7526.725
2372.27514	7513.125
2375.09405	7517.225
2377.91118	7511.225
2380.72652	7491.825
2383.54009	7461.925
2386.35187	7434.325
2389.16188	7439.425
2391.97011	7407.425
2394.77657	7383.025
2397.58125	7369.525
2400.38416	7367.425
2403.18529	7350.525
2405.98466	7370.925
2408.78226	7340.725
2411.57809	7342.125
2414.37216	7323.425
2417.16446	7314.225
2419.955	7302.425
2422.74378	7274.625
2425.5308	7288.025
2428.31606	7278.425
2431.09956	7271.525
2433.88131	7257.425
2436.6613	7259.125
2439.43954	7257.925
2442.21603	7240.725
2444.99077	7236.725
2447.76377	7246.725
2450.53501	7217.925
2453.30451	7204.325
2456.07226	7212.725
2458.83827	7189.325
2461.60254	7189.325
2464.36507	7179.025
2467.12586	7165.925
2469.88492	7165.825
2472.64224	7177.425
2475.39782	7158.425
2478.15167	7143.425
2480.90379	7134.625
2483.65417	7147.925
2486.40283	7130.325
2489.14976	7130.925
2491.89497	7136.025
2494.63845	7125.025
2497.3802	7106.725
2500.12024	7101.625
2502.85855	7086.325
2505.59514	7100.825
2508.33002	7078.225
2511.06318	7089.025
2513.79462	7083.725
2516.52435	7065.425
2519.25237	7064.025
2521.97867	7055.325
2524.70327	7047.925
2527.42616	7044.025
2530.14734	7040.125
2532.86681	7024.425
2535.58458	7007.425
2538.30065	6999.825
2541.01501	6995.625
2543.72768	6979.925
2546.43864	6962.125
2549.14791	6945.825
2551.85548	6926.325
2554.56136	6942.725
2557.26554	6912.025
2559.96803	6915.225
2562.66883	6900.625
2565.36794	6916.725
2568.06536	6879.025
2570.7611	6847.125
2573.45514	6843.525
2576.14751	6855.825
2578.83819	6835.925
2581.52719	6826.025
2584.21451	6801.725
2586.90015	6797.825
2589.58411	6772.625
2592.2664	6787.625
2594.94701	6779.525
2597.62594	6769.225
2600.30321	6756.925
2602.9788	6737.125
2605.65273	6725.525
2608.32498	6722.925
2610.99557	6738.425
2613.66449	6704.325
2616.33175	6712.125
2618.99734	6699.525
2621.66128	6715.325
2624.32355	6699.125
2626.98416	6676.425
2629.64311	6689.625
2632.30041	6682.225
2634.95605	6635.725
2637.61004	6661.625
2640.26238	6628.325
2642.91306	6643.825
2645.56209	6628.425
2648.20948	6623.625
2650.85521	6621.625
2653.4993	6626.325
2656.14175	6634.325
2658.78255	6658.525
2661.42171	6623.825
2664.05923	6617.825
2666.6951	6626.525
2669.32934	6619.325
2671.96194	6617.125
2674.59291	6621.225
2677.22224	6602.925
2679.84993	6619.825
2682.476	6619.925
2685.10043	6614.325
2687.72324	6591.425
2690.34441	6602.325
2692.96396	6592.525
2695.58188	6601.425
2698.19818	6597.925
2700.81285	6610.725
2703.4259	6597.325
2706.03733	6586.625
2708.64714	6557.925
2711.25533	6600.425
2713.86191	6570.525
2716.46687	6602.125
2719.07021	6591.825
2721.67194	6603.625
2724.27206	6608.325
2726.87057	6613.725
2729.46747	6590.025
2732.06276	6601.125
2734.65644	6608.325
2737.24852	6590.225
2739.83899	6589.925
2742.42786	6576.425
2745.01513	6565.925
2747.60079	6571.525
2750.18486	6572.625
2752.76733	6560.225
2755.3482	6551.225
2757.92747	6531.625
2760.50515	6521.825
2763.08123	6521.525
2765.65573	6508.425
2768.22863	6515.025
2770.79994	6487.725
2773.36967	6490.425
2775.9378	6479.825
2778.50435	6498.925
2781.06932	6469.125
2783.6327	6451.025
2786.1945	6466.525
2788.75471	6460.725
2791.31335	6426.125
2793.87041	6426.225
2796.42589	6411.625
2798.97979	6404.525
2801.53212	6391.325
2804.08288	6382.325
2806.63206	6343.125
2809.17967	6340.625
2811.72571	6336.025
2814.27018	6313.825
2816.81308	6314.425
2819.35442	6293.425
2821.89419	6302.525
2824.43239	6290.025
2826.96904	6268.025
2829.50412	6286.825
2832.03763	6267.125
2834.56959	6268.725
2837.1	6264.525
2839.62884	6265.225
2842.15613	6246.225
2844.68186	6260.425
2847.20604	6254.725
2849.72867	6270.725
2852.24974	6256.025
2854.76927	6246.225
2857.28724	6246.025
2859.80367	6231.725
2862.31855	6221.325
2864.83189	6231.425
2867.34368	6204.025
2869.85393	6182.125
2872.36264	6179.225
2874.8698	6194.825
2877.37543	6183.025
2879.87952	6176.625
2882.38207	6151.325
2884.88308	6158.825
2887.38256	6155.425
2889.88051	6152.525
2892.37692	6145.125
2894.8718	6138.225
2897.36515	6144.825
2899.85698	6148.825
2902.34727	6158.425
2904.83604	6168.625
2907.32328	6159.925
2909.809	6156.525
2912.29319	6174.925
2914.77587	6177.925
2917.25702	6187.825
2919.73665	6161.625
2922.21476	6155.625
2924.69136	6145.525
2927.16644	6138.225
2929.64	6155.425
2932.11205	6145.725
2934.58258	6112.525
2937.05161	6113.325
2939.51912	6138.425
2941.98513	6123.725
2944.44962	6102.225
2946.91261	6070.525
2949.37409	6070.025
2951.83407	6086.725
2954.29254	6058.125
2956.74951	6051.625
2959.20498	6074.125
2961.65895	6050.525
2964.11142	6052.525
2966.56239	6023.325
2969.01186	6041.425
2971.45984	6023.225
2973.90632	6023.025
2976.35131	6004.825
2978.7948	5986.325
2981.23681	5991.325
2983.67732	5974.525
2986.11635	5966.525
2988.55388	5946.725
2990.98993	5936.625
2993.4245	5928.325
2995.85758	5917.525
2998.28917	5905.125
3000.71928	5897.825
3003.14791	5883.925
3005.57506	5867.625
3008.00073	5849.525
3010.42493	5856.725
3012.84764	5844.425
3015.26888	5840.525
3017.68865	5824.125
3020.10694	5814.625
3022.52376	5792.625
3024.9391	5808.525
3027.35298	5779.125
3029.76539	5767.025
3032.17632	5773.325
3034.5858	5750.025
3036.9938	5770.425
3039.40034	5755.625
3041.80542	5762.325
3044.20903	5735.625
3046.61118	5740.125
3049.01187	5719.325
3051.4111	5726.825
3053.80888	5721.025
3056.20519	5711.425
3058.60005	5692.025
3060.99345	5688.425
3063.3854	5660.725
3065.7759	5636.825
3068.16494	5632.725
3070.55254	5638.725
3072.93868	5601.225
3075.32338	5603.325
3077.70662	5595.625
3080.08842	5586.625
3082.46878	5566.425
3084.84769	5575.025
3087.22515	5558.125
3089.60118	5567.625
3091.97576	5570.125
3094.3489	5561.525
3096.72061	5564.625
3099.09087	5575.125
3101.4597	5563.725
3103.82709	5575.925
3106.19305	5559.025
3108.55757	5557.125
3110.92066	5531.125
3113.28232	5537.225
3115.64255	5526.725
3118.00134	5514.925
3120.35871	5504.125
3122.71466	5502.825
3125.06917	5481.625
3127.42226	5475.925
3129.77393	5503.125
3132.12417	5463.525
3134.47299	5460.925
3136.82039	5478.825
3139.16636	5489.025
3141.51092	5471.025
3143.85406	5480.525
3146.19579	5478.825
3148.53609	5491.325
3150.87499	5497.825
3153.21246	5504.925
3155.54853	5511.225
3157.88318	5484.725
3160.21642	5496.925
3162.54826	5508.925
3164.87868	5486.825
3167.2077	5493.525
3169.5353	5514.725
3171.86151	5520.025
3174.18631	5484.225
3176.5097	5502.125
3178.83169	5494.525
3181.15228	5494.725
3183.47147	5482.425
3185.78926	5474.225
3188.10565	5473.925
