Data from AgNPs_FTO_APTES_UA_1uM_CRN_200uM_R6G_10uM_NaF_0.1M_Addition_RamanShift__25__17-34-09-846.txt Node

Date: Thu Jan 27 17:34:09 GMT 2022
User: TCL
Spectrometer: QEP01345
Trigger mode: 4
Integration Time (sec): 7.000000E0
Scans to average: 10
Electric dark correction enabled: true
Nonlinearity correction enabled: false
Boxcar width: 0
XAxis mode: Raman Shifts
Number of Pixels in Spectrum: 1044
>>>>>Begin Spectral Data<<<<<
46.04893	-0.125
50.45542	0.675
54.85868	-1.825
59.25871	-1.825
63.6555	50.875
68.04907	54.575
72.43941	55.275
76.82654	59.975
81.21044	59.775
85.59113	62.275
89.96862	63.675
94.34289	66.575
98.71396	70.275
103.08183	70.675
107.4465	76.375
111.80798	74.675
116.16626	75.575
120.52136	77.575
124.87327	81.475
129.222	81.675
133.56755	87.575
137.90993	87.475
142.24913	97.675
146.58517	108.975
150.91804	121.775
155.24774	143.475
159.57429	171.875
163.89768	218.275
168.21792	287.275
172.53501	378.075
176.84895	518.775
181.15975	727.175
185.46741	1021.075
189.77193	1404.975
194.07331	1869.575
198.37157	2427.475
202.6667	3013.875
206.9587	3579.775
211.24758	4156.875
215.53334	4750.975
219.81599	5379.875
224.09553	6062.075
228.37195	6829.875
232.64527	7705.975
236.91549	8599.275
241.18261	9422.475
245.44663	10161.375
249.70755	10822.875
253.96539	11388.575
258.22014	11829.575
262.4718	12224.575
266.72039	12542.675
270.96589	12720.575
275.20832	12762.075
279.44768	12639.075
283.68397	12436.375
287.91719	12280.875
292.14735	12197.475
296.37445	12326.975
300.59849	12593.075
304.81948	12931.375
309.03742	13164.075
313.25231	13053.775
317.46415	12593.375
321.67296	11876.675
325.87872	11289.475
330.08145	11006.375
334.28114	11029.575
338.47781	11150.675
342.67145	11380.675
346.86207	11749.675
351.04966	12268.175
355.23424	12854.675
359.4158	13297.975
363.59435	13563.175
367.76989	13738.575
371.94243	13759.675
376.11196	13818.075
380.27849	13840.575
384.44203	13762.775
388.60257	13666.275
392.76012	13604.775
396.91468	13722.875
401.06626	13995.475
405.21485	14202.775
409.36047	14064.075
413.50311	13520.075
417.64277	13034.575
421.77947	12750.375
425.9132	12651.875
430.04396	12614.275
434.17176	12686.675
438.2966	12853.675
442.41849	13121.775
446.53742	13453.775
450.6534	13815.775
454.76644	14057.575
458.87653	14141.975
462.98368	14014.375
467.08789	13864.475
471.18916	13633.675
475.2875	13411.775
479.38291	13214.975
483.4754	13068.875
487.56496	12897.175
491.6516	12776.775
495.73531	12660.075
499.81612	12679.875
503.89401	12785.875
507.96899	12878.275
512.04106	12981.875
516.11023	13188.375
520.1765	13289.175
524.23987	13274.475
528.30034	13064.975
532.35792	12890.775
536.41261	12681.175
540.46441	12499.075
544.51333	12393.375
548.55936	12451.075
552.60252	12630.675
556.64279	12851.875
560.6802	12991.575
564.71473	13138.575
568.7464	13444.875
572.7752	13700.675
576.80114	13516.575
580.82422	13223.875
584.84444	13110.775
588.86181	13173.675
592.87633	13350.975
596.888	13550.475
600.89682	13810.275
604.9028	14742.075
608.90594	17404.375
612.90624	21159.975
616.90371	20764.275
620.89834	15875.075
624.89015	13412.175
628.87913	12967.675
632.86528	12968.875
636.84862	13019.675
640.82913	12888.575
644.80683	12495.875
648.78172	12253.075
652.75379	12231.975
656.72306	12510.475
660.68952	12948.075
664.65319	12916.975
668.61405	12548.875
672.57211	12323.475
676.52738	12342.075
680.47986	12374.375
684.42955	12327.775
688.37646	12248.175
692.32058	12266.775
696.26192	12307.675
700.20048	12405.675
704.13626	12509.075
708.06928	12413.875
711.99952	12326.475
715.927	12274.275
719.85171	12306.375
723.77365	12302.575
727.69284	12275.675
731.60928	12192.275
735.52295	12184.675
739.43388	12228.075
743.34206	12242.675
747.24749	12309.375
751.15017	12370.175
755.05012	12488.275
758.94733	12862.175
762.8418	13681.675
766.73354	15167.075
770.62254	16951.075
774.50882	18003.075
778.39237	17485.875
782.27321	15659.575
786.15132	13885.675
790.02671	12859.175
793.89938	12439.875
797.76935	12256.075
801.6366	12161.175
805.50115	12132.975
809.36299	12053.275
813.22213	12021.275
817.07857	12012.275
820.93231	12004.175
824.78336	12011.875
828.63172	12046.475
832.47738	12083.875
836.32036	12100.675
840.16066	12071.075
843.99827	12086.375
847.8332	12082.075
851.66546	12004.275
855.49504	12025.175
859.32195	12009.375
863.1462	12023.775
866.96777	11992.975
870.78668	11940.175
874.60293	11911.275
878.41652	11945.175
882.22745	11983.275
886.03573	12036.775
889.84136	12003.675
893.64433	11956.175
897.44466	11894.475
901.24235	11878.375
905.0374	11836.275
908.8298	11823.675
912.61957	11801.075
916.40671	11828.175
920.19121	11916.475
923.97308	12039.575
927.75233	12171.675
931.52895	12243.975
935.30295	12224.575
939.07433	11996.675
942.84309	11740.275
946.60924	11606.975
950.37278	11519.575
954.13371	11440.175
957.89203	11365.675
961.64774	11325.375
965.40086	11266.175
969.15137	11232.375
972.89929	11196.875
976.64461	11171.375
980.38733	11205.475
984.12747	11217.175
987.86502	11321.675
991.59999	11437.575
995.33237	11587.675
999.06217	11823.075
1002.78939	12123.975
1006.51404	12262.575
1010.23611	12370.875
1013.95561	12451.875
1017.67255	12487.875
1021.38692	12396.675
1025.09872	12271.075
1028.80796	12276.375
1032.51465	12503.275
1036.21877	12739.375
1039.92035	12784.075
1043.61937	12701.575
1047.31584	12524.875
1051.00976	12271.975
1054.70114	12165.175
1058.38998	12135.475
1062.07627	12153.375
1065.76003	12178.975
1069.44126	12182.075
1073.11995	12282.975
1076.79611	12370.775
1080.46974	12483.775
1084.14085	12631.875
1087.80943	12801.975
1091.47549	12941.775
1095.13903	12825.075
1098.80005	12565.975
1102.45857	12321.175
1106.11456	12196.075
1109.76805	12275.375
1113.41903	12457.375
1117.06751	12735.575
1120.71348	13077.575
1124.35696	13405.275
1127.99793	13761.975
1131.63641	13823.675
1135.2724	13389.275
1138.90589	12900.575
1142.5369	12582.075
1146.16542	12379.675
1149.79145	12252.675
1153.415	12217.175
1157.03607	12284.275
1160.65467	12464.675
1164.27079	12780.775
1167.88443	13289.575
1171.49561	14132.475
1175.10432	15398.175
1178.71056	17100.175
1182.31434	18503.275
1185.91565	18983.875
1189.51451	18588.775
1193.11091	17646.175
1196.70485	16435.075
1200.29634	15545.875
1203.88538	14921.075
1207.47197	14285.175
1211.05612	13767.375
1214.63782	13477.375
1218.21708	13401.075
1221.79391	13400.675
1225.36829	13495.375
1228.94024	13479.375
1232.50976	13348.275
1236.07685	13282.475
1239.6415	13196.175
1243.20374	13239.275
1246.76355	13307.975
1250.32093	13457.075
1253.8759	13670.875
1257.42845	13992.475
1260.97859	14331.475
1264.52631	14629.575
1268.07163	14978.675
1271.61453	15326.375
1275.15503	15671.775
1278.69312	15900.375
1282.22882	16056.175
1285.76211	16311.275
1289.29301	16627.175
1292.82151	17077.975
1296.34761	17663.075
1299.87133	18402.475
1303.39266	19609.975
1306.9116	21383.275
1310.42815	23372.775
1313.94233	24675.375
1317.45412	24388.675
1320.96354	23039.675
1324.47058	21502.975
1327.97525	20184.375
1331.47754	19261.075
1334.97747	18871.375
1338.47502	18884.575
1341.97022	19116.675
1345.46305	19551.075
1348.95352	20092.975
1352.44163	21005.175
1355.92738	22531.075
1359.41078	25059.375
1362.89183	27721.275
1366.37053	27507.275
1369.84688	24019.175
1373.32088	20250.875
1376.79254	17808.775
1380.26186	16622.875
1383.72883	16067.175
1387.19347	15752.775
1390.65578	15390.275
1394.11575	15134.975
1397.57339	15030.375
1401.0287	15204.175
1404.48168	15420.375
1407.93234	15594.075
1411.38068	15717.275
1414.82669	15634.475
1418.27039	15392.575
1421.71177	15052.875
1425.15083	14754.075
1428.58758	14532.875
1432.02203	14549.375
1435.45416	14661.575
1438.88399	14823.775
1442.31151	14856.975
1445.73673	14922.775
1449.15965	15017.875
1452.58027	15084.775
1455.9986	14984.075
1459.41463	14945.975
1462.82837	15028.275
1466.23982	15301.475
1469.64898	15612.575
1473.05586	15801.575
1476.46045	15912.175
1479.86276	16084.475
1483.26279	16224.975
1486.66054	16410.375
1490.05602	16715.675
1493.44922	17150.675
1496.84016	17712.775
1500.22882	18673.275
1503.61521	20117.175
1506.99934	22018.575
1510.38121	23942.475
1513.76081	24948.275
1517.13816	24087.275
1520.51324	21803.575
1523.88607	19349.375
1527.25665	17674.775
1530.62498	16654.275
1533.99105	16161.175
1537.35488	15826.775
1540.71647	15669.775
1544.07581	15613.375
1547.4329	15521.775
1550.78776	15518.175
1554.14038	15498.375
1557.49077	15611.975
1560.83892	15752.875
1564.18484	15992.875
1567.52853	16238.575
1570.86999	16502.075
1574.20922	16675.575
1577.54624	16717.275
1580.88103	16270.075
1584.2136	15642.575
1587.54395	15334.575
1590.87208	15547.075
1594.19801	16358.575
1597.52172	17370.375
1600.84321	17985.375
1604.16251	17565.875
1607.47959	16564.975
1610.79447	15397.775
1614.10715	14282.575
1617.41763	13433.175
1620.7259	12870.075
1624.03199	12604.075
1627.33587	12614.975
1630.63757	12862.775
1633.93707	13361.975
1637.23439	14130.675
1640.52951	15210.675
1643.82246	16647.875
1647.11321	18168.675
1650.40179	19231.175
1653.68819	18856.575
1656.97241	16862.175
1660.25446	14550.275
1663.53433	12914.575
1666.81203	11975.775
1670.08756	11442.775
1673.36092	11095.675
1676.63211	10913.275
1679.90115	10734.875
1683.16801	10631.775
1686.43272	10543.875
1689.69527	10454.875
1692.95567	10394.575
1696.2139	10340.275
1699.46999	10289.575
1702.72392	10228.775
1705.97571	10248.675
1709.22535	10297.475
1712.47284	10301.775
1715.71819	10323.375
1718.96139	10349.575
1722.20246	10322.675
1725.44139	10292.475
1728.67818	10252.275
1731.91284	10198.675
1735.14537	10162.375
1738.37576	10115.075
1741.60403	10095.075
1744.83017	10076.375
1748.05418	10041.575
1751.27607	10033.975
1754.49584	9995.575
1757.71349	9949.775
1760.92903	9951.975
1764.14244	9927.575
1767.35375	9926.275
1770.56294	9901.275
1773.77002	9868.675
1776.97499	9871.275
1780.17785	9861.375
1783.37861	9860.075
1786.57727	9862.175
1789.77382	9851.275
1792.96828	9821.675
1796.16064	9830.475
1799.3509	9815.075
1802.53907	9794.275
1805.72514	9764.475
1808.90913	9766.975
1812.09102	9732.675
1815.27083	9714.975
1818.44856	9728.175
1821.6242	9687.575
1824.79776	9671.375
1827.96924	9670.475
1831.13864	9657.175
1834.30597	9650.575
1837.47122	9666.075
1840.6344	9633.575
1843.7955	9630.675
1846.95454	9620.175
1850.11151	9624.275
1853.26642	9611.875
1856.41926	9622.475
1859.57004	9634.075
1862.71876	9631.175
1865.86542	9641.175
1869.01003	9626.775
1872.15258	9618.575
1875.29308	9632.975
1878.43152	9627.375
1881.56792	9624.375
1884.70227	9593.275
1887.83457	9581.775
1890.96482	9582.475
1894.09304	9603.775
1897.21921	9576.475
1900.34335	9576.975
1903.46544	9577.275
1906.58551	9583.575
1909.70353	9576.875
1912.81953	9555.575
1915.93349	9568.475
1919.04543	9557.175
1922.15534	9531.275
1925.26322	9525.675
1928.36908	9505.475
1931.47292	9495.475
1934.57473	9472.675
1937.67453	9445.375
1940.77232	9416.875
1943.86808	9379.975
1946.96184	9345.475
1950.05358	9323.175
1953.14331	9298.975
1956.23103	9251.375
1959.31675	9254.475
1962.40046	9233.175
1965.48217	9200.475
1968.56188	9195.175
1971.63959	9160.975
1974.7153	9141.675
1977.78901	9112.275
1980.86073	9103.275
1983.93046	9062.775
1986.99819	9021.275
1990.06394	8997.875
1993.1277	8971.075
1996.18947	8930.575
1999.24925	8916.175
2002.30706	8901.975
2005.36288	8850.375
2008.41672	8800.175
2011.46859	8797.275
2014.51848	8807.875
2017.56639	8772.775
2020.61233	8747.775
2023.6563	8753.775
2026.6983	8719.575
2029.73833	8686.075
2032.7764	8699.175
2035.8125	8669.375
2038.84664	8641.475
2041.87881	8632.375
2044.90903	8621.175
2047.93729	8628.375
2050.96359	8603.875
2053.98794	8583.075
2057.01034	8564.175
2060.03078	8594.675
2063.04927	8575.575
2066.06582	8568.575
2069.08042	8569.975
2072.09307	8567.075
2075.10378	8539.075
2078.11255	8534.275
2081.11938	8531.575
2084.12426	8530.975
2087.12722	8541.075
2090.12824	8517.275
2093.12732	8517.675
2096.12447	8523.675
2099.11969	8530.475
2102.11299	8535.575
2105.10435	8532.075
2108.09379	8544.075
2111.08131	8558.675
2114.0669	8558.875
2117.05057	8568.275
2120.03233	8560.975
2123.01216	8587.275
2125.99008	8573.175
2128.96609	8578.375
2131.94018	8603.975
2134.91236	8623.075
2137.88263	8594.875
2140.851	8612.575
2143.81746	8635.775
2146.78201	8639.275
2149.74466	8622.175
2152.7054	8616.275
2155.66425	8614.775
2158.6212	8613.475
2161.57625	8590.675
2164.52941	8597.875
2167.48067	8606.975
2170.43004	8621.075
2173.37752	8595.575
2176.32311	8623.975
2179.26681	8615.275
2182.20863	8610.975
2185.14856	8608.075
2188.08661	8624.375
2191.02278	8666.275
2193.95707	8607.875
2196.88948	8604.175
2199.82001	8616.775
2202.74867	8608.075
2205.67545	8616.275
2208.60037	8598.075
2211.52341	8560.075
2214.44458	8551.475
2217.36388	8547.575
2220.28132	8552.075
2223.1969	8538.575
2226.11061	8548.375
2229.02246	8503.275
2231.93245	8485.075
2234.84058	8485.375
2237.74686	8455.975
2240.65128	8446.275
2243.55385	8447.275
2246.45456	8430.575
2249.35343	8415.875
2252.25044	8406.975
2255.14561	8424.175
2258.03893	8410.075
2260.93041	8391.875
2263.82004	8371.675
2266.70783	8366.875
2269.59378	8329.975
2272.4779	8308.675
2275.36017	8300.475
2278.24061	8299.775
2281.11922	8271.675
2283.996	8276.275
2286.87094	8260.875
2289.74405	8231.475
2292.61534	8219.475
2295.4848	8226.475
2298.35243	8219.875
2301.21824	8230.275
2304.08223	8225.175
2306.94439	8216.975
2309.80474	8225.075
2312.66327	8231.375
2315.51999	8216.475
2318.37489	8210.475
2321.22797	8202.775
2324.07925	8214.275
2326.92871	8184.875
2329.77637	8170.375
2332.62222	8176.475
2335.46626	8159.775
2338.3085	8173.875
2341.14893	8187.575
2343.98756	8160.675
2346.8244	8179.375
2349.65943	8160.375
2352.49267	8159.675
2355.32411	8191.275
2358.15376	8174.575
2360.98161	8150.475
2363.80768	8164.475
2366.63195	8173.675
2369.45444	8163.175
2372.27514	8146.075
2375.09405	8129.575
2377.91118	8100.175
2380.72652	8073.875
2383.54009	8060.475
2386.35187	8044.775
2389.16188	8032.575
2391.97011	8000.375
2394.77657	7993.975
2397.58125	7976.275
2400.38416	7955.275
2403.18529	7951.875
2405.98466	7943.575
2408.78226	7902.675
2411.57809	7910.475
2414.37216	7890.075
2417.16446	7881.075
2419.955	7880.975
2422.74378	7891.775
2425.5308	7884.075
2428.31606	7874.175
2431.09956	7872.175
2433.88131	7855.875
2436.6613	7873.175
2439.43954	7854.475
2442.21603	7858.775
2444.99077	7853.875
2447.76377	7841.775
2450.53501	7858.675
2453.30451	7834.775
2456.07226	7847.375
2458.83827	7831.075
2461.60254	7831.275
2464.36507	7813.375
2467.12586	7822.675
2469.88492	7802.575
2472.64224	7803.475
2475.39782	7803.475
2478.15167	7795.075
2480.90379	7821.275
2483.65417	7812.475
2486.40283	7819.975
2489.14976	7846.375
2491.89497	7842.575
2494.63845	7839.775
2497.3802	7823.275
2500.12024	7831.775
2502.85855	7812.275
2505.59514	7835.475
2508.33002	7798.075
2511.06318	7794.275
2513.79462	7772.475
2516.52435	7754.975
2519.25237	7737.775
2521.97867	7711.475
2524.70327	7714.375
2527.42616	7724.875
2530.14734	7682.175
2532.86681	7688.675
2535.58458	7678.075
2538.30065	7683.475
2541.01501	7679.175
2543.72768	7667.975
2546.43864	7667.675
2549.14791	7657.275
2551.85548	7650.475
2554.56136	7624.275
2557.26554	7627.475
2559.96803	7630.675
2562.66883	7604.875
2565.36794	7616.875
2568.06536	7602.175
2570.7611	7590.875
2573.45514	7575.975
2576.14751	7581.575
2578.83819	7566.375
2581.52719	7532.675
2584.21451	7524.075
2586.90015	7543.675
2589.58411	7526.375
2592.2664	7525.175
2594.94701	7534.475
2597.62594	7518.275
2600.30321	7507.275
2602.9788	7500.175
2605.65273	7471.375
2608.32498	7497.975
2610.99557	7476.675
2613.66449	7497.075
2616.33175	7452.375
2618.99734	7483.975
2621.66128	7474.775
2624.32355	7467.175
2626.98416	7470.475
2629.64311	7446.275
2632.30041	7467.675
2634.95605	7438.475
2637.61004	7426.075
2640.26238	7413.975
2642.91306	7405.675
2645.56209	7396.975
2648.20948	7403.875
2650.85521	7374.575
2653.4993	7377.575
2656.14175	7395.975
2658.78255	7402.475
2661.42171	7378.475
2664.05923	7394.975
2666.6951	7413.975
2669.32934	7417.775
2671.96194	7409.875
2674.59291	7421.175
2677.22224	7414.575
2679.84993	7418.375
2682.476	7391.175
2685.10043	7408.475
2687.72324	7375.975
2690.34441	7382.075
2692.96396	7423.075
2695.58188	7395.875
2698.19818	7398.175
2700.81285	7409.575
2703.4259	7379.475
2706.03733	7374.975
2708.64714	7372.075
2711.25533	7415.375
2713.86191	7390.375
2716.46687	7412.675
2719.07021	7417.775
2721.67194	7414.975
2724.27206	7417.675
2726.87057	7427.075
2729.46747	7420.975
2732.06276	7437.175
2734.65644	7417.275
2737.24852	7401.075
2739.83899	7407.175
2742.42786	7393.375
2745.01513	7369.275
2747.60079	7377.075
2750.18486	7400.475
2752.76733	7357.575
2755.3482	7390.175
2757.92747	7370.675
2760.50515	7348.975
2763.08123	7346.175
2765.65573	7365.575
2768.22863	7347.475
2770.79994	7339.475
2773.36967	7322.475
2775.9378	7333.075
2778.50435	7342.975
2781.06932	7333.175
2783.6327	7311.375
2786.1945	7311.875
2788.75471	7298.475
2791.31335	7290.875
2793.87041	7296.575
2796.42589	7265.875
2798.97979	7278.175
2801.53212	7257.575
2804.08288	7258.775
2806.63206	7225.475
2809.17967	7229.675
2811.72571	7219.775
2814.27018	7208.375
2816.81308	7198.275
2819.35442	7203.875
2821.89419	7192.375
2824.43239	7228.175
2826.96904	7229.075
2829.50412	7211.475
2832.03763	7220.175
2834.56959	7210.275
2837.1	7218.475
2839.62884	7219.475
2842.15613	7246.175
2844.68186	7295.775
2847.20604	7333.875
2849.72867	7329.175
2852.24974	7330.075
2854.76927	7324.875
2857.28724	7316.975
2859.80367	7297.575
2862.31855	7299.975
2864.83189	7290.275
2867.34368	7263.975
2869.85393	7276.375
2872.36264	7276.075
2874.8698	7292.575
2877.37543	7293.075
2879.87952	7276.875
2882.38207	7289.275
2884.88308	7270.975
2887.38256	7298.275
2889.88051	7262.475
2892.37692	7280.275
2894.8718	7279.675
2897.36515	7301.075
2899.85698	7295.275
2902.34727	7321.775
2904.83604	7319.075
2907.32328	7355.375
2909.809	7342.075
2912.29319	7340.275
2914.77587	7335.575
2917.25702	7338.875
2919.73665	7336.075
2922.21476	7330.875
2924.69136	7308.175
2927.16644	7337.875
2929.64	7325.875
2932.11205	7318.675
2934.58258	7265.375
2937.05161	7281.675
2939.51912	7284.675
2941.98513	7261.875
2944.44962	7223.675
2946.91261	7191.475
2949.37409	7203.475
2951.83407	7178.975
2954.29254	7177.975
2956.74951	7143.275
2959.20498	7141.675
2961.65895	7115.875
2964.11142	7128.075
2966.56239	7109.675
2969.01186	7100.275
2971.45984	7071.975
2973.90632	7067.675
2976.35131	7044.975
2978.7948	7053.275
2981.23681	7011.875
2983.67732	7000.775
2986.11635	6994.775
2988.55388	6977.375
2990.98993	6969.075
2993.4245	6942.675
2995.85758	6965.475
2998.28917	6941.375
3000.71928	6934.875
3003.14791	6883.775
3005.57506	6885.575
3008.00073	6884.275
3010.42493	6863.675
3012.84764	6870.475
3015.26888	6884.275
3017.68865	6869.075
3020.10694	6861.075
3022.52376	6836.375
3024.9391	6833.175
3027.35298	6831.975
3029.76539	6844.775
3032.17632	6793.175
3034.5858	6770.875
3036.9938	6808.175
3039.40034	6795.575
3041.80542	6789.575
3044.20903	6775.175
3046.61118	6758.675
3049.01187	6752.875
3051.4111	6746.375
3053.80888	6749.875
3056.20519	6727.575
3058.60005	6717.875
3060.99345	6719.975
3063.3854	6695.475
3065.7759	6665.175
3068.16494	6646.675
3070.55254	6655.175
3072.93868	6663.975
3075.32338	6629.875
3077.70662	6633.175
3080.08842	6622.075
3082.46878	6594.875
3084.84769	6613.675
3087.22515	6595.075
3089.60118	6604.875
3091.97576	6605.275
3094.3489	6594.575
3096.72061	6606.875
3099.09087	6622.275
3101.4597	6610.975
3103.82709	6611.975
3106.19305	6604.075
3108.55757	6622.175
3110.92066	6606.575
3113.28232	6599.075
3115.64255	6565.875
3118.00134	6575.875
3120.35871	6578.375
3122.71466	6570.075
3125.06917	6555.775
3127.42226	6545.375
3129.77393	6543.675
3132.12417	6549.675
3134.47299	6568.075
3136.82039	6560.775
3139.16636	6556.575
3141.51092	6566.375
3143.85406	6580.175
3146.19579	6565.775
3148.53609	6594.575
3150.87499	6594.375
3153.21246	6612.875
3155.54853	6608.475
3157.88318	6616.875
3160.21642	6629.675
3162.54826	6637.275
3164.87868	6620.875
3167.2077	6617.475
3169.5353	6638.475
3171.86151	6634.875
3174.18631	6631.375
3176.5097	6624.875
3178.83169	6608.275
3181.15228	6618.075
3183.47147	6625.975
3185.78926	6636.475
3188.10565	6602.175
