Data from AgNPs_FTO_APTES_UA_1uM_CRN_200uM_R6G_10uM_NaF_0.1M_Addition_RamanShift__12__17-18-59-829.txt Node

Date: Thu Jan 27 17:18:59 GMT 2022
User: TCL
Spectrometer: QEP01345
Trigger mode: 4
Integration Time (sec): 7.000000E0
Scans to average: 10
Electric dark correction enabled: true
Nonlinearity correction enabled: false
Boxcar width: 0
XAxis mode: Raman Shifts
Number of Pixels in Spectrum: 1044
>>>>>Begin Spectral Data<<<<<
46.04893	0.1375
50.45542	1.5375
54.85868	-0.6625
59.25871	-1.4625
63.6555	41.4375
68.04907	43.2375
72.43941	47.2375
76.82654	49.2375
81.21044	48.5375
85.59113	51.9375
89.96862	54.3375
94.34289	54.6375
98.71396	81.5375
103.08183	67.2375
107.4465	58.8375
111.80798	64.2375
116.16626	62.4375
120.52136	65.5375
124.87327	65.7375
129.222	63.7375
133.56755	70.4375
137.90993	70.4375
142.24913	79.3375
146.58517	85.6375
150.91804	94.1375
155.24774	106.9375
159.57429	129.8375
163.89768	161.9375
168.21792	214.5375
172.53501	283.3375
176.84895	390.1375
181.15975	550.4375
185.46741	762.4375
189.77193	1049.3375
194.07331	1411.7375
198.37157	1835.1375
202.6667	2262.2375
206.9587	2710.3375
211.24758	3139.5375
215.53334	3574.4375
219.81599	4017.9375
224.09553	4490.4375
228.37195	5021.6375
232.64527	5595.0375
236.91549	6215.5375
241.18261	6862.4375
245.44663	7478.6375
249.70755	8054.2375
253.96539	8560.8375
258.22014	8984.2375
262.4718	9309.6375
266.72039	9534.1375
270.96589	9624.4375
275.20832	9618.9375
279.44768	9558.1375
283.68397	9410.0375
287.91719	9307.2375
292.14735	9196.4375
296.37445	9115.7375
300.59849	9093.0375
304.81948	9086.6375
309.03742	9085.3375
313.25231	9018.0375
317.46415	8887.7375
321.67296	8749.3375
325.87872	8608.0375
330.08145	8541.6375
334.28114	8571.2375
338.47781	8615.5375
342.67145	8738.9375
346.86207	8863.4375
351.04966	9002.1375
355.23424	9167.6375
359.4158	9283.7375
363.59435	9382.3375
367.76989	9462.6375
371.94243	9538.2375
376.11196	9590.4375
380.27849	9648.5375
384.44203	9684.6375
388.60257	9739.1375
392.76012	9797.9375
396.91468	9898.9375
401.06626	10014.3375
405.21485	10097.7375
409.36047	10093.0375
413.50311	10020.7375
417.64277	9938.1375
421.77947	9903.4375
425.9132	9918.5375
430.04396	9952.9375
434.17176	9980.4375
438.2966	10033.4375
442.41849	10081.0375
446.53742	10210.0375
450.6534	10305.2375
454.76644	10417.5375
458.87653	10448.0375
462.98368	10475.5375
467.08789	10447.7375
471.18916	10399.4375
475.2875	10341.7375
479.38291	10285.8375
483.4754	10235.6375
487.56496	10188.7375
491.6516	10155.0375
495.73531	10133.0375
499.81612	10143.3375
503.89401	10188.1375
507.96899	10232.8375
512.04106	10242.8375
516.11023	10276.2375
520.1765	10229.7375
524.23987	10234.5375
528.30034	10145.0375
532.35792	10120.2375
536.41261	10068.8375
540.46441	9992.9375
544.51333	9989.8375
548.55936	10042.3375
552.60252	10140.8375
556.64279	10234.6375
560.6802	10286.4375
564.71473	10299.1375
568.7464	10346.8375
572.7752	10416.5375
576.80114	10517.0375
580.82422	10669.7375
584.84444	10868.4375
588.86181	11054.2375
592.87633	11211.8375
596.888	11151.2375
600.89682	11037.0375
604.9028	11102.9375
608.90594	11683.0375
612.90624	12462.2375
616.90371	12141.2375
620.89834	10871.9375
624.89015	10275.8375
628.87913	10195.8375
632.86528	10252.1375
636.84862	10319.6375
640.82913	10276.1375
644.80683	10180.9375
648.78172	10091.4375
652.75379	10044.2375
656.72306	10141.8375
660.68952	10246.6375
664.65319	10236.6375
668.61405	10180.6375
672.57211	10127.9375
676.52738	10174.4375
680.47986	10204.0375
684.42955	10206.0375
688.37646	10152.0375
692.32058	10159.0375
696.26192	10174.9375
700.20048	10196.9375
704.13626	10257.0375
708.06928	10244.6375
711.99952	10243.8375
715.927	10210.6375
719.85171	10213.2375
723.77365	10186.0375
727.69284	10140.4375
731.60928	10113.4375
735.52295	10077.3375
739.43388	10070.6375
743.34206	10094.5375
747.24749	10088.4375
751.15017	10153.8375
755.05012	10204.6375
758.94733	10324.6375
762.8418	10587.9375
766.73354	11048.3375
770.62254	11565.4375
774.50882	11803.6375
778.39237	11586.5375
782.27321	11113.3375
786.15132	10624.9375
790.02671	10294.5375
793.89938	10137.1375
797.76935	10071.1375
801.6366	10036.0375
805.50115	10009.1375
809.36299	9955.7375
813.22213	9928.1375
817.07857	9891.3375
820.93231	9904.3375
824.78336	9909.3375
828.63172	9910.7375
832.47738	9905.5375
836.32036	9904.1375
840.16066	9910.8375
843.99827	9873.8375
847.8332	9868.5375
851.66546	9863.5375
855.49504	9860.6375
859.32195	9898.3375
863.1462	9902.6375
866.96777	9895.6375
870.78668	9877.7375
874.60293	9890.7375
878.41652	9921.3375
882.22745	9897.7375
886.03573	9956.2375
889.84136	9987.2375
893.64433	9951.9375
897.44466	9929.3375
901.24235	9908.5375
905.0374	9874.0375
908.8298	9854.6375
912.61957	9841.3375
916.40671	9876.0375
920.19121	9927.0375
923.97308	9980.9375
927.75233	9984.7375
931.52895	10000.1375
935.30295	9920.7375
939.07433	9816.0375
942.84309	9730.6375
946.60924	9646.9375
950.37278	9634.6375
954.13371	9578.7375
957.89203	9544.4375
961.64774	9580.7375
965.40086	9537.3375
969.15137	9525.5375
972.89929	9492.3375
976.64461	9474.3375
980.38733	9436.6375
984.12747	9435.0375
987.86502	9439.9375
991.59999	9463.0375
995.33237	9484.7375
999.06217	9527.2375
1002.78939	9608.0375
1006.51404	9650.3375
1010.23611	9760.1375
1013.95561	9793.7375
1017.67255	9826.3375
1021.38692	9795.6375
1025.09872	9756.2375
1028.80796	9693.8375
1032.51465	9641.9375
1036.21877	9632.0375
1039.92035	9671.1375
1043.61937	9692.9375
1047.31584	9727.1375
1051.00976	9786.5375
1054.70114	9787.9375
1058.38998	9822.6375
1062.07627	9856.8375
1065.76003	9930.3375
1069.44126	10010.7375
1073.11995	10090.9375
1076.79611	10189.8375
1080.46974	10239.7375
1084.14085	10222.9375
1087.80943	10186.6375
1091.47549	10217.9375
1095.13903	10247.2375
1098.80005	10214.0375
1102.45857	10101.0375
1106.11456	9985.0375
1109.76805	9887.2375
1113.41903	9870.5375
1117.06751	9896.8375
1120.71348	9969.6375
1124.35696	10051.8375
1127.99793	10202.6375
1131.63641	10253.9375
1135.2724	10159.0375
1138.90589	10018.2375
1142.5369	9972.0375
1146.16542	9935.8375
1149.79145	9935.7375
1153.415	9905.4375
1157.03607	9904.2375
1160.65467	10002.7375
1164.27079	10158.7375
1167.88443	10392.3375
1171.49561	10657.1375
1175.10432	11057.6375
1178.71056	11545.9375
1182.31434	12032.4375
1185.91565	12320.7375
1189.51451	12309.4375
1193.11091	12177.9375
1196.70485	11910.8375
1200.29634	11579.6375
1203.88538	11298.4375
1207.47197	11069.9375
1211.05612	10859.6375
1214.63782	10683.8375
1218.21708	10548.6375
1221.79391	10403.4375
1225.36829	10325.4375
1228.94024	10289.7375
1232.50976	10284.2375
1236.07685	10268.2375
1239.6415	10254.5375
1243.20374	10256.0375
1246.76355	10280.4375
1250.32093	10318.0375
1253.8759	10372.8375
1257.42845	10518.9375
1260.97859	10658.3375
1264.52631	10787.4375
1268.07163	10929.6375
1271.61453	11054.6375
1275.15503	11154.2375
1278.69312	11290.3375
1282.22882	11390.2375
1285.76211	11535.8375
1289.29301	11680.7375
1292.82151	11926.0375
1296.34761	12179.7375
1299.87133	12511.8375
1303.39266	12891.8375
1306.9116	13321.0375
1310.42815	13748.3375
1313.94233	13984.3375
1317.45412	13938.0375
1320.96354	13663.8375
1324.47058	13393.0375
1327.97525	13202.9375
1331.47754	13012.6375
1334.97747	12931.3375
1338.47502	12912.1375
1341.97022	12979.1375
1345.46305	13091.2375
1348.95352	13266.7375
1352.44163	13513.7375
1355.92738	13869.1375
1359.41078	14341.2375
1362.89183	14774.2375
1366.37053	14714.0375
1369.84688	13887.6375
1373.32088	12790.3375
1376.79254	11900.5375
1380.26186	11423.7375
1383.72883	11136.4375
1387.19347	10997.8375
1390.65578	10807.6375
1394.11575	10672.3375
1397.57339	10599.7375
1401.0287	10613.4375
1404.48168	10649.8375
1407.93234	10646.7375
1411.38068	10590.5375
1414.82669	10486.2375
1418.27039	10341.3375
1421.71177	10196.1375
1425.15083	10088.8375
1428.58758	10011.9375
1432.02203	9983.9375
1435.45416	10012.8375
1438.88399	10085.0375
1442.31151	10109.8375
1445.73673	10129.9375
1449.15965	10188.0375
1452.58027	10186.6375
1455.9986	10188.7375
1459.41463	10253.7375
1462.82837	10321.2375
1466.23982	10468.9375
1469.64898	10606.6375
1473.05586	10700.9375
1476.46045	10755.1375
1479.86276	10839.9375
1483.26279	10892.8375
1486.66054	10985.8375
1490.05602	11118.1375
1493.44922	11344.0375
1496.84016	11675.4375
1500.22882	12120.2375
1503.61521	12745.4375
1506.99934	13353.9375
1510.38121	13731.8375
1513.76081	13759.7375
1517.13816	13315.6375
1520.51324	12679.6375
1523.88607	12127.5375
1527.25665	11737.7375
1530.62498	11489.0375
1533.99105	11372.2375
1537.35488	11219.6375
1540.71647	11057.2375
1544.07581	10943.4375
1547.4329	10823.6375
1550.78776	10718.1375
1554.14038	10631.3375
1557.49077	10588.1375
1560.83892	10584.8375
1564.18484	10651.8375
1567.52853	10738.1375
1570.86999	10865.9375
1574.20922	10977.0375
1577.54624	10982.5375
1580.88103	10872.7375
1584.2136	10665.3375
1587.54395	10551.3375
1590.87208	10609.2375
1594.19801	10844.1375
1597.52172	11188.6375
1600.84321	11356.7375
1604.16251	11221.9375
1607.47959	10911.0375
1610.79447	10549.3375
1614.10715	10158.1375
1617.41763	9778.1375
1620.7259	9489.3375
1624.03199	9321.0375
1627.33587	9212.8375
1630.63757	9258.2375
1633.93707	9404.9375
1637.23439	9694.7375
1640.52951	10217.0375
1643.82246	10918.6375
1647.11321	11672.7375
1650.40179	12168.0375
1653.68819	12013.1375
1656.97241	11248.1375
1660.25446	10300.3375
1663.53433	9528.5375
1666.81203	9053.5375
1670.08756	8779.0375
1673.36092	8594.9375
1676.63211	8470.4375
1679.90115	8393.5375
1683.16801	8319.2375
1686.43272	8250.9375
1689.69527	8205.5375
1692.95567	8150.3375
1696.2139	8121.2375
1699.46999	8057.9375
1702.72392	8040.1375
1705.97571	8049.2375
1709.22535	8067.1375
1712.47284	8092.3375
1715.71819	8090.8375
1718.96139	8086.7375
1722.20246	8075.0375
1725.44139	8069.9375
1728.67818	8038.7375
1731.91284	7992.9375
1735.14537	7988.3375
1738.37576	7937.6375
1741.60403	7914.5375
1744.83017	7909.2375
1748.05418	7878.1375
1751.27607	7862.6375
1754.49584	7829.0375
1757.71349	7847.3375
1760.92903	7832.2375
1764.14244	7832.4375
1767.35375	7817.4375
1770.56294	7779.1375
1773.77002	7764.4375
1776.97499	7758.3375
1780.17785	7777.6375
1783.37861	7745.1375
1786.57727	7749.2375
1789.77382	7742.8375
1792.96828	7741.5375
1796.16064	7734.6375
1799.3509	7693.5375
1802.53907	7659.7375
1805.72514	7635.0375
1808.90913	7625.1375
1812.09102	7614.5375
1815.27083	7604.3375
1818.44856	7600.9375
1821.6242	7568.8375
1824.79776	7555.5375
1827.96924	7540.7375
1831.13864	7531.7375
1834.30597	7554.9375
1837.47122	7544.4375
1840.6344	7508.1375
1843.7955	7534.5375
1846.95454	7499.2375
1850.11151	7509.1375
1853.26642	7489.3375
1856.41926	7499.1375
1859.57004	7487.2375
1862.71876	7479.6375
1865.86542	7479.0375
1869.01003	7467.2375
1872.15258	7443.7375
1875.29308	7428.8375
1878.43152	7431.7375
1881.56792	7415.7375
1884.70227	7406.4375
1887.83457	7372.5375
1890.96482	7379.9375
1894.09304	7358.2375
1897.21921	7354.5375
1900.34335	7336.7375
1903.46544	7327.3375
1906.58551	7336.8375
1909.70353	7323.9375
1912.81953	7307.3375
1915.93349	7284.6375
1919.04543	7269.9375
1922.15534	7254.2375
1925.26322	7257.9375
1928.36908	7227.1375
1931.47292	7219.6375
1934.57473	7202.0375
1937.67453	7180.3375
1940.77232	7155.2375
1943.86808	7136.0375
1946.96184	7097.4375
1950.05358	7104.1375
1953.14331	7063.3375
1956.23103	7050.5375
1959.31675	7055.7375
1962.40046	7024.8375
1965.48217	7004.6375
1968.56188	6983.0375
1971.63959	6964.9375
1974.7153	6955.0375
1977.78901	6931.6375
1980.86073	6914.5375
1983.93046	6877.0375
1986.99819	6839.6375
1990.06394	6823.0375
1993.1277	6819.3375
1996.18947	6775.0375
1999.24925	6769.2375
2002.30706	6752.5375
2005.36288	6733.6375
2008.41672	6706.0375
2011.46859	6680.1375
2014.51848	6681.7375
2017.56639	6651.7375
2020.61233	6634.3375
2023.6563	6623.4375
2026.6983	6595.4375
2029.73833	6580.8375
2032.7764	6560.6375
2035.8125	6534.8375
2038.84664	6537.1375
2041.87881	6504.0375
2044.90903	6494.6375
2047.93729	6465.2375
2050.96359	6477.6375
2053.98794	6448.5375
2057.01034	6449.2375
2060.03078	6460.7375
2063.04927	6437.0375
2066.06582	6427.5375
2069.08042	6438.0375
2072.09307	6439.5375
2075.10378	6424.2375
2078.11255	6417.0375
2081.11938	6406.3375
2084.12426	6407.4375
2087.12722	6382.1375
2090.12824	6396.8375
2093.12732	6401.9375
2096.12447	6378.1375
2099.11969	6400.3375
2102.11299	6380.6375
2105.10435	6386.9375
2108.09379	6391.9375
2111.08131	6385.2375
2114.0669	6414.6375
2117.05057	6407.8375
2120.03233	6418.4375
2123.01216	6417.1375
2125.99008	6409.9375
2128.96609	6417.4375
2131.94018	6434.5375
2134.91236	6424.8375
2137.88263	6457.1375
2140.851	6411.6375
2143.81746	6446.6375
2146.78201	6434.3375
2149.74466	6429.6375
2152.7054	6416.9375
2155.66425	6420.6375
2158.6212	6424.2375
2161.57625	6399.3375
2164.52941	6397.0375
2167.48067	6416.0375
2170.43004	6427.1375
2173.37752	6406.2375
2176.32311	6405.3375
2179.26681	6426.5375
2182.20863	6383.7375
2185.14856	6388.6375
2188.08661	6416.5375
2191.02278	6403.3375
2193.95707	6402.3375
2196.88948	6366.9375
2199.82001	6376.3375
2202.74867	6361.0375
2205.67545	6350.5375
2208.60037	6349.5375
2211.52341	6313.2375
2214.44458	6309.3375
2217.36388	6296.4375
2220.28132	6297.7375
2223.1969	6268.8375
2226.11061	6256.3375
2229.02246	6245.0375
2231.93245	6256.0375
2234.84058	6224.0375
2237.74686	6233.7375
2240.65128	6209.3375
2243.55385	6199.8375
2246.45456	6187.6375
2249.35343	6174.7375
2252.25044	6180.9375
2255.14561	6162.5375
2258.03893	6138.9375
2260.93041	6136.2375
2263.82004	6115.2375
2266.70783	6099.4375
2269.59378	6075.6375
2272.4779	6069.2375
2275.36017	6053.9375
2278.24061	6064.5375
2281.11922	6037.9375
2283.996	6032.6375
2286.87094	6017.3375
2289.74405	6000.4375
2292.61534	6001.1375
2295.4848	5984.8375
2298.35243	5988.9375
2301.21824	5959.4375
2304.08223	5968.9375
2306.94439	5961.7375
2309.80474	5952.8375
2312.66327	5952.1375
2315.51999	5932.8375
2318.37489	5930.0375
2321.22797	5921.7375
2324.07925	5900.9375
2326.92871	5914.7375
2329.77637	5889.0375
2332.62222	5878.6375
2335.46626	5864.5375
2338.3085	5856.9375
2341.14893	5850.7375
2343.98756	5857.4375
2346.8244	5837.8375
2349.65943	5824.8375
2352.49267	5809.3375
2355.32411	5828.5375
2358.15376	5801.6375
2360.98161	5826.0375
2363.80768	5810.0375
2366.63195	5800.5375
2369.45444	5818.3375
2372.27514	5798.0375
2375.09405	5787.0375
2377.91118	5789.0375
2380.72652	5752.2375
2383.54009	5743.6375
2386.35187	5736.4375
2389.16188	5702.2375
2391.97011	5720.8375
2394.77657	5689.1375
2397.58125	5688.9375
2400.38416	5668.2375
2403.18529	5658.7375
2405.98466	5647.9375
2408.78226	5649.5375
2411.57809	5640.5375
2414.37216	5621.7375
2417.16446	5640.5375
2419.955	5603.7375
2422.74378	5614.8375
2425.5308	5593.4375
2428.31606	5628.1375
2431.09956	5594.3375
2433.88131	5573.5375
2436.6613	5580.3375
2439.43954	5586.8375
2442.21603	5567.3375
2444.99077	5574.1375
2447.76377	5547.0375
2450.53501	5556.1375
2453.30451	5541.5375
2456.07226	5534.2375
2458.83827	5509.9375
2461.60254	5524.7375
2464.36507	5524.4375
2467.12586	5509.4375
2469.88492	5484.3375
2472.64224	5492.4375
2475.39782	5485.9375
2478.15167	5467.6375
2480.90379	5465.3375
2483.65417	5472.3375
2486.40283	5483.9375
2489.14976	5472.3375
2491.89497	5462.1375
2494.63845	5451.0375
2497.3802	5433.9375
2500.12024	5448.7375
2502.85855	5424.2375
2505.59514	5425.4375
2508.33002	5409.3375
2511.06318	5412.8375
2513.79462	5414.1375
2516.52435	5404.7375
2519.25237	5394.9375
2521.97867	5378.4375
2524.70327	5378.1375
2527.42616	5349.7375
2530.14734	5375.4375
2532.86681	5347.5375
2535.58458	5344.0375
2538.30065	5318.1375
2541.01501	5301.7375
2543.72768	5305.9375
2546.43864	5298.0375
2549.14791	5290.1375
2551.85548	5283.7375
2554.56136	5272.6375
2557.26554	5245.8375
2559.96803	5247.1375
2562.66883	5238.9375
2565.36794	5231.3375
2568.06536	5226.2375
2570.7611	5226.7375
2573.45514	5202.9375
2576.14751	5194.9375
2578.83819	5167.9375
2581.52719	5168.5375
2584.21451	5143.7375
2586.90015	5156.5375
2589.58411	5152.1375
2592.2664	5149.6375
2594.94701	5120.5375
2597.62594	5112.3375
2600.30321	5108.9375
2602.9788	5091.3375
2605.65273	5079.7375
2608.32498	5091.1375
2610.99557	5062.4375
2613.66449	5068.6375
2616.33175	5045.5375
2618.99734	5024.5375
2621.66128	5059.2375
2624.32355	5021.3375
2626.98416	5032.0375
2629.64311	5011.9375
2632.30041	5004.0375
2634.95605	4977.8375
2637.61004	4988.5375
2640.26238	4975.9375
2642.91306	4976.8375
2645.56209	4978.2375
2648.20948	4961.8375
2650.85521	4954.3375
2653.4993	4962.0375
2656.14175	4947.3375
2658.78255	4957.0375
2661.42171	4957.1375
2664.05923	4954.5375
2666.6951	4959.7375
2669.32934	4955.9375
2671.96194	4930.7375
2674.59291	4935.1375
2677.22224	4947.6375
2679.84993	4932.3375
2682.476	4932.9375
2685.10043	4923.7375
2687.72324	4925.4375
2690.34441	4923.2375
2692.96396	4933.7375
2695.58188	4938.0375
2698.19818	4927.7375
2700.81285	4921.5375
2703.4259	4916.1375
2706.03733	4913.4375
2708.64714	4904.5375
2711.25533	4917.0375
2713.86191	4915.2375
2716.46687	4907.8375
2719.07021	4902.8375
2721.67194	4914.2375
2724.27206	4911.6375
2726.87057	4914.3375
2729.46747	4929.4375
2732.06276	4911.6375
2734.65644	4898.8375
2737.24852	4896.8375
2739.83899	4877.5375
2742.42786	4887.7375
2745.01513	4861.7375
2747.60079	4868.7375
2750.18486	4857.7375
2752.76733	4861.6375
2755.3482	4849.0375
2757.92747	4848.8375
2760.50515	4840.8375
2763.08123	4826.1375
2765.65573	4823.8375
2768.22863	4823.7375
2770.79994	4816.2375
2773.36967	4805.3375
2775.9378	4797.7375
2778.50435	4794.6375
2781.06932	4782.6375
2783.6327	4776.2375
2786.1945	4755.0375
2788.75471	4755.7375
2791.31335	4747.4375
2793.87041	4741.0375
2796.42589	4716.7375
2798.97979	4731.3375
2801.53212	4715.2375
2804.08288	4703.7375
2806.63206	4697.9375
2809.17967	4681.3375
2811.72571	4669.5375
2814.27018	4659.2375
2816.81308	4663.3375
2819.35442	4643.7375
2821.89419	4659.8375
2824.43239	4634.4375
2826.96904	4637.4375
2829.50412	4624.4375
2832.03763	4617.2375
2834.56959	4639.9375
2837.1	4631.1375
2839.62884	4639.2375
2842.15613	4640.6375
2844.68186	4663.6375
2847.20604	4671.1375
2849.72867	4676.0375
2852.24974	4689.1375
2854.76927	4672.2375
2857.28724	4650.3375
2859.80367	4659.4375
2862.31855	4645.0375
2864.83189	4638.9375
2867.34368	4633.6375
2869.85393	4627.2375
2872.36264	4616.5375
2874.8698	4616.6375
2877.37543	4616.0375
2879.87952	4619.9375
2882.38207	4604.8375
2884.88308	4597.6375
2887.38256	4606.7375
2889.88051	4592.7375
2892.37692	4575.0375
2894.8718	4588.4375
2897.36515	4614.0375
2899.85698	4583.9375
2902.34727	4610.2375
2904.83604	4619.1375
2907.32328	4621.5375
2909.809	4614.8375
2912.29319	4627.4375
2914.77587	4601.2375
2917.25702	4602.5375
2919.73665	4602.0375
2922.21476	4603.9375
2924.69136	4600.8375
2927.16644	4606.1375
2929.64	4605.5375
2932.11205	4609.1375
2934.58258	4586.9375
2937.05161	4592.9375
2939.51912	4592.1375
2941.98513	4564.9375
2944.44962	4562.7375
2946.91261	4545.7375
2949.37409	4549.4375
2951.83407	4526.1375
2954.29254	4532.5375
2956.74951	4512.3375
2959.20498	4519.4375
2961.65895	4510.5375
2964.11142	4516.7375
2966.56239	4494.4375
2969.01186	4481.4375
2971.45984	4469.9375
2973.90632	4467.0375
2976.35131	4480.4375
2978.7948	4460.9375
2981.23681	4449.0375
2983.67732	4445.1375
2986.11635	4429.4375
2988.55388	4415.4375
2990.98993	4405.8375
2993.4245	4405.2375
2995.85758	4396.3375
2998.28917	4378.1375
3000.71928	4381.7375
3003.14791	4356.5375
3005.57506	4351.6375
3008.00073	4353.1375
3010.42493	4329.8375
3012.84764	4339.7375
3015.26888	4333.9375
3017.68865	4343.4375
3020.10694	4319.6375
3022.52376	4309.6375
3024.9391	4308.9375
3027.35298	4299.6375
3029.76539	4294.6375
3032.17632	4286.1375
3034.5858	4275.5375
3036.9938	4280.7375
3039.40034	4284.2375
3041.80542	4279.2375
3044.20903	4268.2375
3046.61118	4274.6375
3049.01187	4261.9375
3051.4111	4249.1375
3053.80888	4254.7375
3056.20519	4234.1375
3058.60005	4232.0375
3060.99345	4232.6375
3063.3854	4215.5375
3065.7759	4203.1375
3068.16494	4193.4375
3070.55254	4207.5375
3072.93868	4196.7375
3075.32338	4199.4375
3077.70662	4180.0375
3080.08842	4186.3375
3082.46878	4178.1375
3084.84769	4185.2375
3087.22515	4188.3375
3089.60118	4163.2375
3091.97576	4185.1375
3094.3489	4179.2375
3096.72061	4183.4375
