Data from AgNPs_FTO_APTES_UA_1uM_CRN_1000uM_R6G_10uM_NaF_0.1M_Addition_RamanShift__23__19-00-29-944.txt Node

Date: Thu Jan 27 19:00:29 GMT 2022
User: TCL
Spectrometer: QEP01345
Trigger mode: 4
Integration Time (sec): 7.000000E0
Scans to average: 10
Electric dark correction enabled: true
Nonlinearity correction enabled: false
Boxcar width: 0
XAxis mode: Raman Shifts
Number of Pixels in Spectrum: 1044
>>>>>Begin Spectral Data<<<<<
46.04893	-0.325
50.45542	0.975
54.85868	-0.525
59.25871	-1.725
63.6555	46.875
68.04907	50.475
72.43941	52.875
76.82654	57.375
81.21044	60.475
85.59113	59.275
89.96862	62.175
94.34289	65.775
98.71396	67.575
103.08183	69.675
107.4465	71.075
111.80798	72.275
116.16626	73.675
120.52136	81.975
124.87327	82.575
129.222	80.175
133.56755	89.475
137.90993	91.475
142.24913	101.575
146.58517	111.075
150.91804	128.375
155.24774	150.975
159.57429	187.175
163.89768	235.175
168.21792	307.575
172.53501	415.275
176.84895	570.175
181.15975	802.075
185.46741	1117.175
189.77193	1545.575
194.07331	2080.075
198.37157	2686.675
202.6667	3340.575
206.9587	3989.175
211.24758	4643.875
215.53334	5290.175
219.81599	5984.175
224.09553	6747.275
228.37195	7584.275
232.64527	8498.975
236.91549	9427.775
241.18261	10343.275
245.44663	11164.175
249.70755	11892.675
253.96539	12492.375
258.22014	12985.475
262.4718	13408.075
266.72039	13703.575
270.96589	13828.275
275.20832	13809.875
279.44768	13699.275
283.68397	13510.675
287.91719	13338.075
292.14735	13200.475
296.37445	13219.675
300.59849	13279.575
304.81948	13422.975
309.03742	13433.975
313.25231	13269.875
317.46415	12936.175
321.67296	12475.975
325.87872	12122.675
330.08145	11969.975
334.28114	11984.675
338.47781	12105.075
342.67145	12276.975
346.86207	12491.275
351.04966	12807.975
355.23424	13145.375
359.4158	13457.175
363.59435	13697.975
367.76989	13839.275
371.94243	13958.475
376.11196	14020.875
380.27849	14120.875
384.44203	14135.975
388.60257	14218.275
392.76012	14224.775
396.91468	14303.475
401.06626	14497.775
405.21485	14699.775
409.36047	14632.075
413.50311	14346.875
417.64277	14071.275
421.77947	13970.075
425.9132	13965.975
430.04396	13987.675
434.17176	14154.675
438.2966	14257.975
442.41849	14534.075
446.53742	14900.675
450.6534	15305.875
454.76644	15645.475
458.87653	15694.175
462.98368	15579.875
467.08789	15363.675
471.18916	15149.575
475.2875	14949.175
479.38291	14827.975
483.4754	14716.075
487.56496	14548.975
491.6516	14383.875
495.73531	14250.175
499.81612	14184.275
503.89401	14249.575
507.96899	14297.275
512.04106	14338.975
516.11023	14367.275
520.1765	14369.175
524.23987	14283.875
528.30034	14176.675
532.35792	14051.775
536.41261	13908.075
540.46441	13709.575
544.51333	13631.575
548.55936	13688.175
552.60252	13908.175
556.64279	14152.575
560.6802	14371.275
564.71473	14494.675
568.7464	14785.475
572.7752	15071.875
576.80114	15135.575
580.82422	15063.675
584.84444	15101.375
588.86181	15332.475
592.87633	15618.075
596.888	15886.775
600.89682	15893.975
604.9028	16308.575
608.90594	17797.675
612.90624	19871.075
616.90371	19228.975
620.89834	15904.475
624.89015	14257.275
628.87913	13998.675
632.86528	14053.775
636.84862	14115.975
640.82913	14044.575
644.80683	13750.375
648.78172	13499.675
652.75379	13429.775
656.72306	13574.175
660.68952	13816.375
664.65319	13835.175
668.61405	13626.375
672.57211	13622.175
676.52738	13735.575
680.47986	13820.675
684.42955	13786.775
688.37646	13672.075
692.32058	13603.075
696.26192	13652.175
700.20048	13745.475
704.13626	13822.675
708.06928	13786.875
711.99952	13592.875
715.927	13461.175
719.85171	13436.775
723.77365	13453.375
727.69284	13393.475
731.60928	13363.575
735.52295	13344.075
739.43388	13336.875
743.34206	13367.875
747.24749	13391.275
751.15017	13433.575
755.05012	13540.675
758.94733	13852.075
762.8418	14455.675
766.73354	15496.975
770.62254	16711.075
774.50882	17362.675
778.39237	16869.475
782.27321	15501.675
786.15132	14333.375
790.02671	13564.875
793.89938	13221.175
797.76935	13101.475
801.6366	13022.975
805.50115	13012.575
809.36299	12949.675
813.22213	12896.175
817.07857	12845.175
820.93231	12857.875
824.78336	12814.375
828.63172	12816.975
832.47738	12814.375
836.32036	12799.375
840.16066	12791.475
843.99827	12769.375
847.8332	12758.275
851.66546	12751.275
855.49504	12780.675
859.32195	12847.075
863.1462	12909.575
866.96777	12929.175
870.78668	12850.675
874.60293	12765.075
878.41652	12702.775
882.22745	12707.175
886.03573	12756.875
889.84136	12739.575
893.64433	12682.975
897.44466	12647.075
901.24235	12573.675
905.0374	12486.975
908.8298	12436.975
912.61957	12436.475
916.40671	12494.775
920.19121	12608.875
923.97308	12752.275
927.75233	12875.375
931.52895	12908.875
935.30295	12859.175
939.07433	12677.475
942.84309	12434.175
946.60924	12231.475
950.37278	12126.775
954.13371	12064.075
957.89203	11998.675
961.64774	11954.275
965.40086	11907.975
969.15137	11839.275
972.89929	11778.075
976.64461	11740.275
980.38733	11726.475
984.12747	11737.175
987.86502	11809.275
991.59999	11912.375
995.33237	12043.475
999.06217	12248.575
1002.78939	12522.475
1006.51404	12709.975
1010.23611	12784.675
1013.95561	12926.875
1017.67255	12897.175
1021.38692	12821.275
1025.09872	12668.775
1028.80796	12570.775
1032.51465	12665.675
1036.21877	12811.475
1039.92035	12864.175
1043.61937	12833.175
1047.31584	12705.875
1051.00976	12628.775
1054.70114	12544.275
1058.38998	12529.075
1062.07627	12584.375
1065.76003	12648.075
1069.44126	12724.975
1073.11995	12858.775
1076.79611	12979.475
1080.46974	13028.975
1084.14085	13059.075
1087.80943	13100.275
1091.47549	13170.575
1095.13903	13097.175
1098.80005	12948.475
1102.45857	12698.375
1106.11456	12595.075
1109.76805	12617.475
1113.41903	12676.575
1117.06751	12869.075
1120.71348	13083.875
1124.35696	13352.175
1127.99793	13611.975
1131.63641	13739.275
1135.2724	13514.875
1138.90589	13219.275
1142.5369	13052.875
1146.16542	12955.975
1149.79145	12898.675
1153.415	12884.475
1157.03607	12996.775
1160.65467	13230.375
1164.27079	13667.075
1167.88443	14216.075
1171.49561	14977.675
1175.10432	16079.275
1178.71056	17464.275
1182.31434	18741.275
1185.91565	19240.675
1189.51451	18993.275
1193.11091	18323.875
1196.70485	17545.775
1200.29634	16772.975
1203.88538	16218.375
1207.47197	15733.975
1211.05612	15333.675
1214.63782	15044.775
1218.21708	14928.675
1221.79391	14883.175
1225.36829	14824.075
1228.94024	14662.075
1232.50976	14365.375
1236.07685	14195.075
1239.6415	14088.575
1243.20374	14071.475
1246.76355	14121.875
1250.32093	14257.075
1253.8759	14477.075
1257.42845	14750.475
1260.97859	15109.075
1264.52631	15429.475
1268.07163	15761.675
1271.61453	16159.875
1275.15503	16540.775
1278.69312	16846.775
1282.22882	17154.375
1285.76211	17450.275
1289.29301	17863.375
1292.82151	18439.875
1296.34761	19255.375
1299.87133	20276.175
1303.39266	21519.675
1306.9116	23049.375
1310.42815	24605.075
1313.94233	25650.275
1317.45412	25615.575
1320.96354	24838.075
1324.47058	23831.375
1327.97525	22956.675
1331.47754	22295.275
1334.97747	22057.675
1338.47502	22077.775
1341.97022	22138.475
1345.46305	22090.975
1348.95352	22132.475
1352.44163	22460.375
1355.92738	23285.175
1359.41078	24675.375
1362.89183	26221.475
1366.37053	26171.875
1369.84688	23826.575
1373.32088	20841.675
1376.79254	18758.275
1380.26186	17755.675
1383.72883	17450.175
1387.19347	17335.275
1390.65578	17149.075
1394.11575	17094.375
1397.57339	17297.075
1401.0287	17781.475
1404.48168	18203.775
1407.93234	18470.075
1411.38068	18493.075
1414.82669	18188.175
1418.27039	17689.775
1421.71177	17065.075
1425.15083	16512.375
1428.58758	16141.775
1432.02203	16077.475
1435.45416	16301.575
1438.88399	16581.875
1442.31151	16828.275
1445.73673	17031.675
1449.15965	17258.075
1452.58027	17434.275
1455.9986	17397.275
1459.41463	17415.975
1462.82837	17606.875
1466.23982	17902.875
1469.64898	18229.375
1473.05586	18486.075
1476.46045	18540.575
1479.86276	18490.075
1483.26279	18394.375
1486.66054	18259.075
1490.05602	18242.875
1493.44922	18287.975
1496.84016	18366.675
1500.22882	18615.975
1503.61521	19260.775
1506.99934	20308.275
1510.38121	21359.375
1513.76081	21902.775
1517.13816	21308.075
1520.51324	19942.675
1523.88607	18586.075
1527.25665	17666.675
1530.62498	17265.575
1533.99105	17074.175
1537.35488	16983.375
1540.71647	16838.175
1544.07581	16756.975
1547.4329	16617.275
1550.78776	16417.575
1554.14038	16334.575
1557.49077	16298.575
1560.83892	16326.275
1564.18484	16390.275
1567.52853	16516.575
1570.86999	16683.475
1574.20922	16988.075
1577.54624	17194.875
1580.88103	17066.075
1584.2136	16822.375
1587.54395	16823.975
1590.87208	17314.075
1594.19801	18228.775
1597.52172	19342.775
1600.84321	19969.275
1604.16251	19567.875
1607.47959	18310.275
1610.79447	16801.275
1614.10715	15418.975
1617.41763	14297.075
1620.7259	13504.475
1624.03199	13058.875
1627.33587	13015.975
1630.63757	13247.675
1633.93707	13850.475
1637.23439	14889.075
1640.52951	16387.075
1643.82246	18306.275
1647.11321	20054.975
1650.40179	20767.675
1653.68819	19884.275
1656.97241	17611.875
1660.25446	15173.375
1663.53433	13407.475
1666.81203	12275.375
1670.08756	11625.575
1673.36092	11206.375
1676.63211	10954.675
1679.90115	10752.675
1683.16801	10602.975
1686.43272	10463.575
1689.69527	10379.175
1692.95567	10281.475
1696.2139	10204.775
1699.46999	10130.175
1702.72392	10072.275
1705.97571	10073.975
1709.22535	10060.375
1712.47284	10113.775
1715.71819	10061.275
1718.96139	10076.575
1722.20246	10053.875
1725.44139	10011.275
1728.67818	9948.475
1731.91284	9901.375
1735.14537	9858.775
1738.37576	9822.375
1741.60403	9820.775
1744.83017	9786.475
1748.05418	9787.075
1751.27607	9764.975
1754.49584	9726.875
1757.71349	9713.775
1760.92903	9652.375
1764.14244	9593.475
1767.35375	9559.475
1770.56294	9524.775
1773.77002	9498.575
1776.97499	9480.375
1780.17785	9473.475
1783.37861	9469.875
1786.57727	9453.575
1789.77382	9435.575
1792.96828	9404.875
1796.16064	9385.575
1799.3509	9348.975
1802.53907	9329.875
1805.72514	9307.375
1808.90913	9286.675
1812.09102	9263.175
1815.27083	9234.275
1818.44856	9205.275
1821.6242	9177.175
1824.79776	9189.875
1827.96924	9170.175
1831.13864	9166.075
1834.30597	9144.875
1837.47122	9149.075
1840.6344	9126.175
1843.7955	9127.575
1846.95454	9105.275
1850.11151	9104.675
1853.26642	9104.675
1856.41926	9117.075
1859.57004	9120.075
1862.71876	9106.675
1865.86542	9078.975
1869.01003	9068.075
1872.15258	9086.575
1875.29308	9074.875
1878.43152	9096.175
1881.56792	9059.275
1884.70227	9046.875
1887.83457	9044.475
1890.96482	9052.475
1894.09304	9028.875
1897.21921	8998.275
1900.34335	8986.775
1903.46544	9002.075
1906.58551	8998.775
1909.70353	8991.575
1912.81953	8983.975
1915.93349	8949.375
1919.04543	8943.275
1922.15534	8926.575
1925.26322	8904.575
1928.36908	8866.875
1931.47292	8849.775
1934.57473	8838.275
1937.67453	8827.175
1940.77232	8784.875
1943.86808	8758.375
1946.96184	8717.475
1950.05358	8690.675
1953.14331	8670.175
1956.23103	8646.975
1959.31675	8616.075
1962.40046	8599.675
1965.48217	8583.075
1968.56188	8546.875
1971.63959	8510.975
1974.7153	8463.075
1977.78901	8473.875
1980.86073	8441.175
1983.93046	8432.375
1986.99819	8370.075
1990.06394	8359.175
1993.1277	8320.075
1996.18947	8279.275
1999.24925	8285.775
2002.30706	8238.375
2005.36288	8234.575
2008.41672	8195.375
2011.46859	8193.475
2014.51848	8154.875
2017.56639	8126.275
2020.61233	8127.975
2023.6563	8089.075
2026.6983	8084.675
2029.73833	8078.775
2032.7764	8050.275
2035.8125	8022.875
2038.84664	8019.575
2041.87881	8002.475
2044.90903	7973.175
2047.93729	7956.575
2050.96359	7950.575
2053.98794	7940.875
2057.01034	7912.675
2060.03078	7925.575
2063.04927	7924.775
2066.06582	7916.275
2069.08042	7890.975
2072.09307	7906.275
2075.10378	7884.875
2078.11255	7882.175
2081.11938	7892.675
2084.12426	7865.375
2087.12722	7857.375
2090.12824	7856.075
2093.12732	7867.675
2096.12447	7838.175
2099.11969	7861.775
2102.11299	7852.775
2105.10435	7862.575
2108.09379	7861.975
2111.08131	7861.375
2114.0669	7865.475
2117.05057	7848.375
2120.03233	7860.075
2123.01216	7878.875
2125.99008	7876.675
2128.96609	7881.175
2131.94018	7876.875
2134.91236	7900.275
2137.88263	7905.375
2140.851	7884.375
2143.81746	7881.075
2146.78201	7873.975
2149.74466	7885.075
2152.7054	7867.575
2155.66425	7898.275
2158.6212	7867.575
2161.57625	7851.175
2164.52941	7881.175
2167.48067	7855.875
2170.43004	7856.975
2173.37752	7849.275
2176.32311	7872.075
2179.26681	7865.675
2182.20863	7842.975
2185.14856	7855.675
2188.08661	7839.875
2191.02278	7848.775
2193.95707	7838.375
2196.88948	7839.775
2199.82001	7831.075
2202.74867	7818.675
2205.67545	7806.375
2208.60037	7807.475
2211.52341	7797.575
2214.44458	7766.975
2217.36388	7773.975
2220.28132	7756.875
2223.1969	7748.575
2226.11061	7735.575
2229.02246	7710.475
2231.93245	7701.775
2234.84058	7675.675
2237.74686	7671.475
2240.65128	7659.375
2243.55385	7640.475
2246.45456	7637.375
2249.35343	7603.975
2252.25044	7598.475
2255.14561	7577.775
2258.03893	7588.575
2260.93041	7563.875
2263.82004	7546.275
2266.70783	7531.375
2269.59378	7502.075
2272.4779	7501.975
2275.36017	7466.575
2278.24061	7469.875
2281.11922	7451.275
2283.996	7452.175
2286.87094	7421.375
2289.74405	7412.875
2292.61534	7400.175
2295.4848	7381.575
2298.35243	7393.775
2301.21824	7369.175
2304.08223	7364.675
2306.94439	7392.375
2309.80474	7384.775
2312.66327	7390.775
2315.51999	7368.075
2318.37489	7361.475
2321.22797	7350.675
2324.07925	7348.475
2326.92871	7340.775
2329.77637	7332.375
2332.62222	7331.475
2335.46626	7314.875
2338.3085	7305.075
2341.14893	7292.975
2343.98756	7288.275
2346.8244	7279.575
2349.65943	7256.375
2352.49267	7288.475
2355.32411	7279.575
2358.15376	7266.775
2360.98161	7273.875
2363.80768	7276.775
2366.63195	7280.075
2369.45444	7285.875
2372.27514	7259.775
2375.09405	7250.375
2377.91118	7224.175
2380.72652	7202.675
2383.54009	7184.175
2386.35187	7178.375
2389.16188	7161.375
2391.97011	7132.275
2394.77657	7129.475
2397.58125	7073.575
2400.38416	7097.675
2403.18529	7083.975
2405.98466	7064.475
2408.78226	7051.175
2411.57809	7056.375
2414.37216	7048.075
2417.16446	7027.875
2419.955	7021.175
2422.74378	7011.575
2425.5308	7010.075
2428.31606	7003.675
2431.09956	6991.275
2433.88131	6978.175
2436.6613	6990.075
2439.43954	6977.775
2442.21603	6980.975
2444.99077	6977.375
2447.76377	7000.075
2450.53501	6965.975
2453.30451	6962.475
2456.07226	6965.575
2458.83827	6931.075
2461.60254	6943.775
2464.36507	6946.875
2467.12586	6955.175
2469.88492	6932.675
2472.64224	6923.975
2475.39782	6921.475
2478.15167	6914.975
2480.90379	6934.175
2483.65417	6929.775
2486.40283	6944.075
2489.14976	6943.475
2491.89497	6937.975
2494.63845	6934.775
2497.3802	6913.675
2500.12024	6922.275
2502.85855	6927.575
2505.59514	6936.675
2508.33002	6917.175
2511.06318	6900.775
2513.79462	6878.375
2516.52435	6866.775
2519.25237	6852.875
2521.97867	6841.575
2524.70327	6843.075
2527.42616	6830.475
2530.14734	6840.275
2532.86681	6815.975
2535.58458	6805.775
2538.30065	6802.875
2541.01501	6801.275
2543.72768	6778.875
2546.43864	6790.275
2549.14791	6766.075
2551.85548	6774.275
2554.56136	6741.775
2557.26554	6751.375
2559.96803	6737.675
2562.66883	6748.475
2565.36794	6722.475
2568.06536	6722.175
2570.7611	6720.175
2573.45514	6695.675
2576.14751	6704.475
2578.83819	6677.675
2581.52719	6682.475
2584.21451	6672.875
2586.90015	6668.275
2589.58411	6657.575
2592.2664	6658.275
2594.94701	6633.475
2597.62594	6635.475
2600.30321	6623.975
2602.9788	6623.175
2605.65273	6616.475
2608.32498	6628.975
2610.99557	6609.075
2613.66449	6611.975
2616.33175	6607.475
2618.99734	6586.875
2621.66128	6608.275
2624.32355	6596.775
2626.98416	6601.475
2629.64311	6589.775
2632.30041	6574.575
2634.95605	6580.275
2637.61004	6562.675
2640.26238	6544.275
2642.91306	6546.975
2645.56209	6531.575
2648.20948	6531.275
2650.85521	6525.775
2653.4993	6527.575
2656.14175	6542.975
2658.78255	6550.275
2661.42171	6530.475
2664.05923	6572.675
2666.6951	6551.975
2669.32934	6552.275
2671.96194	6541.975
2674.59291	6547.275
2677.22224	6553.575
2679.84993	6537.175
2682.476	6540.475
2685.10043	6546.475
2687.72324	6531.475
2690.34441	6531.575
2692.96396	6520.975
2695.58188	6525.875
2698.19818	6537.875
2700.81285	6531.275
2703.4259	6524.375
2706.03733	6514.475
2708.64714	6506.775
2711.25533	6538.275
2713.86191	6527.575
2716.46687	6546.475
2719.07021	6541.675
2721.67194	6539.775
2724.27206	6547.175
2726.87057	6575.075
2729.46747	6544.975
2732.06276	6544.575
2734.65644	6535.775
2737.24852	6539.375
2739.83899	6531.975
2742.42786	6536.875
2745.01513	6496.475
2747.60079	6522.175
2750.18486	6511.875
2752.76733	6503.775
2755.3482	6507.775
2757.92747	6474.875
2760.50515	6508.475
2763.08123	6505.475
2765.65573	6494.875
2768.22863	6513.975
2770.79994	6489.675
2773.36967	6482.275
2775.9378	6491.975
2778.50435	6484.775
2781.06932	6481.075
2783.6327	6484.975
2786.1945	6475.275
2788.75471	6465.175
2791.31335	6464.675
2793.87041	6436.675
2796.42589	6420.775
2798.97979	6469.175
2801.53212	6439.075
2804.08288	6434.775
2806.63206	6416.875
2809.17967	6413.175
2811.72571	6402.075
2814.27018	6420.475
2816.81308	6404.275
2819.35442	6400.075
2821.89419	6399.475
2824.43239	6371.875
2826.96904	6404.475
2829.50412	6389.075
2832.03763	6385.975
2834.56959	6376.375
2837.1	6373.475
2839.62884	6402.375
2842.15613	6430.475
2844.68186	6460.575
2847.20604	6491.875
2849.72867	6517.675
2852.24974	6521.075
2854.76927	6496.175
2857.28724	6480.175
2859.80367	6497.175
2862.31855	6468.275
2864.83189	6451.275
2867.34368	6465.975
2869.85393	6472.175
2872.36264	6486.975
2874.8698	6471.575
2877.37543	6484.175
2879.87952	6496.775
2882.38207	6498.775
2884.88308	6487.175
2887.38256	6510.575
2889.88051	6530.475
2892.37692	6526.175
2894.8718	6524.675
2897.36515	6552.975
2899.85698	6580.975
2902.34727	6596.575
2904.83604	6601.975
2907.32328	6639.775
2909.809	6611.775
2912.29319	6639.875
2914.77587	6657.575
2917.25702	6636.575
2919.73665	6652.375
2922.21476	6667.075
2924.69136	6667.175
2927.16644	6652.475
2929.64	6667.675
2932.11205	6652.675
2934.58258	6627.575
2937.05161	6616.475
2939.51912	6623.275
2941.98513	6590.375
2944.44962	6559.375
2946.91261	6510.875
2949.37409	6512.975
2951.83407	6492.575
2954.29254	6486.275
2956.74951	6441.475
2959.20498	6431.975
2961.65895	6400.675
2964.11142	6402.475
2966.56239	6358.575
2969.01186	6337.375
2971.45984	6306.275
2973.90632	6303.275
2976.35131	6270.375
2978.7948	6236.575
2981.23681	6242.375
2983.67732	6216.475
2986.11635	6203.775
2988.55388	6179.975
2990.98993	6137.575
2993.4245	6147.775
2995.85758	6129.075
2998.28917	6122.575
3000.71928	6105.975
3003.14791	6090.775
3005.57506	6084.575
3008.00073	6059.075
3010.42493	6059.175
3012.84764	6072.575
3015.26888	6053.675
3017.68865	6017.875
3020.10694	6018.275
3022.52376	6003.275
3024.9391	5975.475
3027.35298	5967.475
3029.76539	5984.075
3032.17632	5963.575
3034.5858	5968.275
3036.9938	5932.275
3039.40034	5923.675
3041.80542	5933.175
3044.20903	5940.075
3046.61118	5925.175
3049.01187	5909.575
3051.4111	5893.075
3053.80888	5898.375
3056.20519	5890.875
3058.60005	5874.875
3060.99345	5856.275
3063.3854	5833.575
3065.7759	5829.575
3068.16494	5806.375
3070.55254	5784.475
3072.93868	5789.675
3075.32338	5785.175
3077.70662	5762.175
3080.08842	5744.575
3082.46878	5745.575
3084.84769	5754.975
3087.22515	5750.775
3089.60118	5741.775
3091.97576	5751.375
3094.3489	5755.975
3096.72061	5755.375
3099.09087	5778.675
3101.4597	5765.375
3103.82709	5770.075
3106.19305	5766.875
3108.55757	5764.575
3110.92066	5752.175
3113.28232	5740.875
3115.64255	5705.675
3118.00134	5713.675
3120.35871	5722.575
3122.71466	5725.875
3125.06917	5699.275
3127.42226	5692.575
3129.77393	5699.575
3132.12417	5697.375
3134.47299	5680.375
3136.82039	5704.275
3139.16636	5693.275
3141.51092	5695.575
3143.85406	5698.075
3146.19579	5710.175
3148.53609	5702.075
3150.87499	5728.675
3153.21246	5727.575
3155.54853	5757.775
3157.88318	5726.775
3160.21642	5770.075
3162.54826	5742.475
3164.87868	5748.275
3167.2077	5755.875
3169.5353	5772.875
3171.86151	5770.875
3174.18631	5755.475
3176.5097	5775.675
3178.83169	5762.075
3181.15228	5755.975
3183.47147	5741.875
3185.78926	5759.375
3188.10565	5741.975
