Data from AgNPs_FTO_APTES_UA_1uM_CRN_2uM_R6G_10uM_NaF_0.1M_Addition_RamanShift__17__13-15-09-550.txt Node

Date: Thu Jan 27 13:15:09 GMT 2022
User: TCL
Spectrometer: QEP01345
Trigger mode: 4
Integration Time (sec): 7.000000E0
Scans to average: 10
Electric dark correction enabled: true
Nonlinearity correction enabled: false
Boxcar width: 0
XAxis mode: Raman Shifts
Number of Pixels in Spectrum: 1044
>>>>>Begin Spectral Data<<<<<
46.04893	-1.1875
50.45542	0.9125
54.85868	-0.2875
59.25871	0.0125
63.6555	54.9125
68.04907	56.4125
72.43941	56.1125
76.82654	62.6125
81.21044	63.7125
85.59113	65.8125
89.96862	65.9125
94.34289	71.0125
98.71396	74.2125
103.08183	73.2125
107.4465	78.6125
111.80798	80.3125
116.16626	80.1125
120.52136	89.5125
124.87327	88.8125
129.222	86.6125
133.56755	93.3125
137.90993	95.1125
142.24913	108.1125
146.58517	118.2125
150.91804	138.3125
155.24774	159.2125
159.57429	195.3125
163.89768	245.0125
168.21792	324.1125
172.53501	440.7125
176.84895	600.7125
181.15975	843.8125
185.46741	1188.2125
189.77193	1621.3125
194.07331	2171.2125
198.37157	2799.9125
202.6667	3459.5125
206.9587	4118.6125
211.24758	4754.4125
215.53334	5394.2125
219.81599	6090.8125
224.09553	6839.4125
228.37195	7705.9125
232.64527	8623.6125
236.91549	9610.3125
241.18261	10586.4125
245.44663	11492.3125
249.70755	12308.2125
253.96539	13011.1125
258.22014	13634.8125
262.4718	14131.4125
266.72039	14493.3125
270.96589	14689.2125
275.20832	14752.9125
279.44768	14648.6125
283.68397	14497.1125
287.91719	14393.4125
292.14735	14298.3125
296.37445	14308.6125
300.59849	14367.7125
304.81948	14444.0125
309.03742	14449.8125
313.25231	14350.2125
317.46415	13987.7125
321.67296	13529.3125
325.87872	13192.0125
330.08145	12983.8125
334.28114	12970.7125
338.47781	13068.3125
342.67145	13262.3125
346.86207	13469.4125
351.04966	13780.8125
355.23424	14080.8125
359.4158	14374.4125
363.59435	14583.5125
367.76989	14695.8125
371.94243	14819.2125
376.11196	14877.3125
380.27849	14948.5125
384.44203	15062.3125
388.60257	15136.1125
392.76012	15270.0125
396.91468	15419.2125
401.06626	15682.1125
405.21485	15853.0125
409.36047	15785.9125
413.50311	15529.7125
417.64277	15298.0125
421.77947	15211.4125
425.9132	15275.6125
430.04396	15368.2125
434.17176	15419.1125
438.2966	15527.7125
442.41849	15714.6125
446.53742	16047.4125
450.6534	16452.4125
454.76644	16838.9125
458.87653	16959.2125
462.98368	16911.4125
467.08789	16734.9125
471.18916	16501.4125
475.2875	16256.7125
479.38291	16120.7125
483.4754	16016.9125
487.56496	15829.1125
491.6516	15642.8125
495.73531	15500.1125
499.81612	15439.9125
503.89401	15552.4125
507.96899	15634.4125
512.04106	15622.8125
516.11023	15565.0125
520.1765	15453.5125
524.23987	15338.6125
528.30034	15147.7125
532.35792	14999.9125
536.41261	14808.8125
540.46441	14640.2125
544.51333	14602.2125
548.55936	14791.2125
552.60252	15099.4125
556.64279	15457.3125
560.6802	15589.6125
564.71473	15671.4125
568.7464	15824.1125
572.7752	16163.4125
576.80114	16442.7125
580.82422	16731.5125
584.84444	17061.8125
588.86181	17285.0125
592.87633	17426.6125
596.888	17514.8125
600.89682	17489.8125
604.9028	18061.7125
608.90594	19755.8125
612.90624	21679.3125
616.90371	20626.8125
620.89834	17225.4125
624.89015	15797.5125
628.87913	15665.5125
632.86528	15665.5125
636.84862	15468.0125
640.82913	15179.0125
644.80683	14754.3125
648.78172	14458.2125
652.75379	14367.5125
656.72306	14571.1125
660.68952	14827.7125
664.65319	14789.8125
668.61405	14503.6125
672.57211	14377.6125
676.52738	14392.9125
680.47986	14365.7125
684.42955	14282.0125
688.37646	14255.4125
692.32058	14301.1125
696.26192	14447.4125
700.20048	14643.6125
704.13626	14730.2125
708.06928	14689.2125
711.99952	14570.8125
715.927	14537.9125
719.85171	14568.9125
723.77365	14520.7125
727.69284	14392.3125
731.60928	14233.8125
735.52295	14177.6125
739.43388	14204.0125
743.34206	14268.0125
747.24749	14296.1125
751.15017	14435.3125
755.05012	14750.3125
758.94733	15108.7125
762.8418	15803.7125
766.73354	17039.8125
770.62254	18317.0125
774.50882	18712.5125
778.39237	17929.6125
782.27321	16564.0125
786.15132	15486.8125
790.02671	14816.4125
793.89938	14529.9125
797.76935	14421.5125
801.6366	14364.7125
805.50115	14354.5125
809.36299	14252.3125
813.22213	14138.8125
817.07857	14019.6125
820.93231	14001.4125
824.78336	13940.7125
828.63172	13945.0125
832.47738	13924.2125
836.32036	13986.9125
840.16066	14084.1125
843.99827	14154.1125
847.8332	14109.1125
851.66546	14019.1125
855.49504	13966.6125
859.32195	13960.9125
863.1462	13922.2125
866.96777	13879.3125
870.78668	13802.3125
874.60293	13773.7125
878.41652	13790.3125
882.22745	13848.8125
886.03573	13904.0125
889.84136	13936.5125
893.64433	13836.9125
897.44466	13791.7125
901.24235	13717.2125
905.0374	13679.4125
908.8298	13624.2125
912.61957	13643.7125
916.40671	13793.2125
920.19121	14009.6125
923.97308	14227.2125
927.75233	14315.8125
931.52895	14291.5125
935.30295	14186.4125
939.07433	13890.5125
942.84309	13630.2125
946.60924	13540.8125
950.37278	13498.5125
954.13371	13477.3125
957.89203	13354.3125
961.64774	13296.6125
965.40086	13209.7125
969.15137	13195.8125
972.89929	13142.1125
976.64461	13136.0125
980.38733	13108.8125
984.12747	13211.6125
987.86502	13373.3125
991.59999	13602.7125
995.33237	13971.7125
999.06217	14483.8125
1002.78939	15071.6125
1006.51404	15351.3125
1010.23611	15429.0125
1013.95561	15495.6125
1017.67255	15518.1125
1021.38692	15326.9125
1025.09872	15165.6125
1028.80796	15376.8125
1032.51465	16061.9125
1036.21877	16677.5125
1039.92035	16790.7125
1043.61937	16438.1125
1047.31584	15830.3125
1051.00976	15233.7125
1054.70114	14915.5125
1058.38998	14878.6125
1062.07627	14936.5125
1065.76003	14965.0125
1069.44126	15031.1125
1073.11995	15193.7125
1076.79611	15406.5125
1080.46974	15528.3125
1084.14085	15667.1125
1087.80943	15819.3125
1091.47549	15922.5125
1095.13903	15935.5125
1098.80005	15727.3125
1102.45857	15376.8125
1106.11456	15117.1125
1109.76805	15032.8125
1113.41903	15084.4125
1117.06751	15141.6125
1120.71348	15285.2125
1124.35696	15428.2125
1127.99793	15603.2125
1131.63641	15741.8125
1135.2724	15639.2125
1138.90589	15490.2125
1142.5369	15379.2125
1146.16542	15339.7125
1149.79145	15360.2125
1153.415	15401.4125
1157.03607	15567.5125
1160.65467	15884.5125
1164.27079	16433.1125
1167.88443	17339.3125
1171.49561	18436.1125
1175.10432	19886.0125
1178.71056	21680.5125
1182.31434	23455.6125
1185.91565	24447.5125
1189.51451	24467.6125
1193.11091	23663.4125
1196.70485	22495.5125
1200.29634	21385.7125
1203.88538	20592.6125
1207.47197	19999.2125
1211.05612	19557.5125
1214.63782	19206.9125
1218.21708	18942.0125
1221.79391	18827.4125
1225.36829	18774.3125
1228.94024	18620.3125
1232.50976	18221.1125
1236.07685	17957.8125
1239.6415	17722.4125
1243.20374	17663.5125
1246.76355	17744.3125
1250.32093	18038.4125
1253.8759	18476.2125
1257.42845	19055.8125
1260.97859	19639.6125
1264.52631	20184.7125
1268.07163	20774.8125
1271.61453	21495.9125
1275.15503	22200.9125
1278.69312	22943.1125
1282.22882	23578.8125
1285.76211	23995.1125
1289.29301	24303.1125
1292.82151	24927.8125
1296.34761	25854.6125
1299.87133	27251.9125
1303.39266	29004.6125
1306.9116	31168.6125
1310.42815	33161.3125
1313.94233	34482.1125
1317.45412	34366.7125
1320.96354	33417.6125
1324.47058	32325.7125
1327.97525	31415.6125
1331.47754	30689.0125
1334.97747	30278.4125
1338.47502	30023.0125
1341.97022	29869.9125
1345.46305	29586.3125
1348.95352	29228.2125
1352.44163	29119.9125
1355.92738	29593.1125
1359.41078	31086.9125
1362.89183	32490.1125
1366.37053	32060.4125
1369.84688	29505.3125
1373.32088	26295.4125
1376.79254	24006.3125
1380.26186	22967.6125
1383.72883	22752.1125
1387.19347	22645.9125
1390.65578	22386.7125
1394.11575	22257.0125
1397.57339	22376.7125
1401.0287	22729.6125
1404.48168	23102.0125
1407.93234	23182.7125
1411.38068	23020.3125
1414.82669	22471.5125
1418.27039	21715.6125
1421.71177	20896.3125
1425.15083	20264.6125
1428.58758	19868.8125
1432.02203	19921.7125
1435.45416	20274.3125
1438.88399	20805.0125
1442.31151	21283.2125
1445.73673	21591.7125
1449.15965	21824.6125
1452.58027	22011.8125
1455.9986	22027.9125
1459.41463	22138.6125
1462.82837	22450.8125
1466.23982	22980.7125
1469.64898	23460.9125
1473.05586	23763.8125
1476.46045	23821.9125
1479.86276	23693.6125
1483.26279	23368.0125
1486.66054	23170.6125
1490.05602	23075.6125
1493.44922	23215.4125
1496.84016	23485.2125
1500.22882	23954.0125
1503.61521	24737.9125
1506.99934	25860.2125
1510.38121	26793.4125
1513.76081	27051.7125
1517.13816	26495.6125
1520.51324	25296.7125
1523.88607	24124.4125
1527.25665	23372.3125
1530.62498	22973.4125
1533.99105	22764.7125
1537.35488	22617.9125
1540.71647	22405.6125
1544.07581	22150.6125
1547.4329	21807.2125
1550.78776	21511.3125
1554.14038	21294.6125
1557.49077	21181.9125
1560.83892	21032.0125
1564.18484	21049.6125
1567.52853	21110.0125
1570.86999	21242.2125
1574.20922	21519.5125
1577.54624	21689.4125
1580.88103	21660.6125
1584.2136	21692.2125
1587.54395	22115.5125
1590.87208	23160.3125
1594.19801	24652.6125
1597.52172	26376.8125
1600.84321	27028.3125
1604.16251	25982.3125
1607.47959	23871.4125
1610.79447	21741.0125
1614.10715	19836.9125
1617.41763	18270.2125
1620.7259	17258.8125
1624.03199	16727.9125
1627.33587	16728.4125
1630.63757	17195.0125
1633.93707	18245.2125
1637.23439	19818.6125
1640.52951	21983.0125
1643.82246	24352.7125
1647.11321	26122.2125
1650.40179	26410.2125
1653.68819	24766.7125
1656.97241	21770.8125
1660.25446	18775.8125
1663.53433	16565.5125
1666.81203	15161.5125
1670.08756	14263.2125
1673.36092	13713.6125
1676.63211	13374.5125
1679.90115	13101.4125
1683.16801	12873.9125
1686.43272	12748.1125
1689.69527	12624.1125
1692.95567	12536.3125
1696.2139	12443.6125
1699.46999	12360.1125
1702.72392	12335.3125
1705.97571	12335.0125
1709.22535	12362.0125
1712.47284	12358.4125
1715.71819	12335.4125
1718.96139	12323.0125
1722.20246	12263.1125
1725.44139	12244.5125
1728.67818	12206.2125
1731.91284	12098.2125
1735.14537	12050.9125
1738.37576	11992.2125
1741.60403	11959.7125
1744.83017	11903.9125
1748.05418	11859.8125
1751.27607	11850.8125
1754.49584	11800.9125
1757.71349	11788.8125
1760.92903	11753.9125
1764.14244	11730.6125
1767.35375	11739.8125
1770.56294	11703.5125
1773.77002	11683.3125
1776.97499	11694.1125
1780.17785	11698.1125
1783.37861	11701.4125
1786.57727	11710.2125
1789.77382	11677.8125
1792.96828	11667.9125
1796.16064	11631.0125
1799.3509	11609.3125
1802.53907	11605.5125
1805.72514	11577.5125
1808.90913	11568.6125
1812.09102	11538.0125
1815.27083	11501.4125
1818.44856	11508.1125
1821.6242	11452.4125
1824.79776	11454.2125
1827.96924	11455.0125
1831.13864	11453.3125
1834.30597	11458.0125
1837.47122	11472.4125
1840.6344	11473.3125
1843.7955	11481.6125
1846.95454	11486.6125
1850.11151	11471.8125
1853.26642	11479.9125
1856.41926	11496.2125
1859.57004	11522.0125
1862.71876	11474.3125
1865.86542	11495.4125
1869.01003	11477.5125
1872.15258	11459.2125
1875.29308	11443.8125
1878.43152	11438.8125
1881.56792	11452.5125
1884.70227	11446.2125
1887.83457	11423.5125
1890.96482	11445.9125
1894.09304	11436.9125
1897.21921	11450.4125
1900.34335	11395.2125
1903.46544	11409.4125
1906.58551	11405.7125
1909.70353	11386.5125
1912.81953	11366.5125
1915.93349	11351.9125
1919.04543	11327.9125
1922.15534	11305.3125
1925.26322	11264.4125
1928.36908	11233.7125
1931.47292	11207.8125
1934.57473	11159.2125
1937.67453	11129.6125
1940.77232	11099.4125
1943.86808	11043.3125
1946.96184	11007.0125
1950.05358	10977.8125
1953.14331	10954.1125
1956.23103	10917.9125
1959.31675	10878.5125
1962.40046	10844.9125
1965.48217	10816.0125
1968.56188	10800.0125
1971.63959	10745.1125
1974.7153	10745.1125
1977.78901	10715.5125
1980.86073	10697.4125
1983.93046	10637.8125
1986.99819	10609.2125
1990.06394	10572.8125
1993.1277	10534.3125
1996.18947	10480.6125
1999.24925	10483.4125
2002.30706	10415.4125
2005.36288	10382.1125
2008.41672	10384.4125
2011.46859	10371.6125
2014.51848	10338.3125
2017.56639	10294.2125
2020.61233	10301.6125
2023.6563	10272.2125
2026.6983	10238.2125
2029.73833	10228.7125
2032.7764	10200.6125
2035.8125	10192.8125
2038.84664	10197.4125
2041.87881	10192.3125
2044.90903	10180.8125
2047.93729	10139.8125
2050.96359	10139.8125
2053.98794	10126.8125
2057.01034	10138.9125
2060.03078	10129.2125
2063.04927	10131.2125
2066.06582	10116.7125
2069.08042	10126.1125
2072.09307	10108.6125
2075.10378	10094.6125
2078.11255	10075.4125
2081.11938	10082.7125
2084.12426	10068.3125
2087.12722	10050.2125
2090.12824	10056.3125
2093.12732	10060.6125
2096.12447	10058.3125
2099.11969	10044.2125
2102.11299	10063.4125
2105.10435	10082.7125
2108.09379	10078.7125
2111.08131	10099.2125
2114.0669	10105.0125
2117.05057	10098.0125
2120.03233	10102.5125
2123.01216	10106.5125
2125.99008	10104.8125
2128.96609	10149.5125
2131.94018	10127.7125
2134.91236	10138.5125
2137.88263	10135.6125
2140.851	10143.9125
2143.81746	10165.6125
2146.78201	10175.2125
2149.74466	10177.2125
2152.7054	10183.5125
2155.66425	10182.4125
2158.6212	10179.7125
2161.57625	10183.6125
2164.52941	10148.9125
2167.48067	10152.7125
2170.43004	10163.5125
2173.37752	10160.3125
2176.32311	10161.9125
2179.26681	10195.9125
2182.20863	10167.6125
2185.14856	10153.8125
2188.08661	10181.2125
2191.02278	10202.7125
2193.95707	10183.8125
2196.88948	10190.9125
2199.82001	10194.0125
2202.74867	10202.8125
2205.67545	10186.8125
2208.60037	10163.3125
2211.52341	10158.7125
2214.44458	10158.0125
2217.36388	10138.8125
2220.28132	10143.2125
2223.1969	10134.3125
2226.11061	10131.2125
2229.02246	10096.0125
2231.93245	10076.4125
2234.84058	10034.8125
2237.74686	10023.9125
2240.65128	10023.4125
2243.55385	9987.0125
2246.45456	9985.3125
2249.35343	9945.4125
2252.25044	9951.2125
2255.14561	9950.3125
2258.03893	9922.2125
2260.93041	9904.8125
2263.82004	9894.3125
2266.70783	9881.1125
2269.59378	9865.3125
2272.4779	9828.1125
2275.36017	9825.9125
2278.24061	9810.9125
2281.11922	9787.9125
2283.996	9793.7125
2286.87094	9786.2125
2289.74405	9759.0125
2292.61534	9733.4125
2295.4848	9736.5125
2298.35243	9748.2125
2301.21824	9760.8125
2304.08223	9777.1125
2306.94439	9784.5125
2309.80474	9794.8125
2312.66327	9788.2125
2315.51999	9805.7125
2318.37489	9806.0125
2321.22797	9803.0125
2324.07925	9783.5125
2326.92871	9771.8125
2329.77637	9764.9125
2332.62222	9745.8125
2335.46626	9744.8125
2338.3085	9753.2125
2341.14893	9759.2125
2343.98756	9779.9125
2346.8244	9766.8125
2349.65943	9764.9125
2352.49267	9760.0125
2355.32411	9783.7125
2358.15376	9728.3125
2360.98161	9744.6125
2363.80768	9733.8125
2366.63195	9724.5125
2369.45444	9699.3125
2372.27514	9678.8125
2375.09405	9656.7125
2377.91118	9630.9125
2380.72652	9634.5125
2383.54009	9607.3125
2386.35187	9603.1125
2389.16188	9570.8125
2391.97011	9556.5125
2394.77657	9554.2125
2397.58125	9544.2125
2400.38416	9528.1125
2403.18529	9526.5125
2405.98466	9502.8125
2408.78226	9481.8125
2411.57809	9449.3125
2414.37216	9422.8125
2417.16446	9421.3125
2419.955	9421.1125
2422.74378	9425.1125
2425.5308	9425.5125
2428.31606	9422.2125
2431.09956	9399.0125
2433.88131	9373.0125
2436.6613	9400.8125
2439.43954	9378.0125
2442.21603	9387.3125
2444.99077	9399.9125
2447.76377	9367.6125
2450.53501	9362.8125
2453.30451	9384.6125
2456.07226	9390.0125
2458.83827	9356.0125
2461.60254	9373.4125
2464.36507	9373.5125
2467.12586	9371.6125
2469.88492	9367.8125
2472.64224	9397.0125
2475.39782	9387.9125
2478.15167	9403.2125
2480.90379	9390.0125
2483.65417	9399.4125
2486.40283	9413.1125
2489.14976	9413.2125
2491.89497	9436.4125
2494.63845	9436.0125
2497.3802	9432.0125
2500.12024	9437.2125
2502.85855	9399.1125
2505.59514	9408.7125
2508.33002	9380.5125
2511.06318	9386.3125
2513.79462	9375.1125
2516.52435	9347.2125
2519.25237	9367.1125
2521.97867	9353.0125
2524.70327	9348.2125
2527.42616	9335.7125
2530.14734	9339.6125
2532.86681	9328.4125
2535.58458	9330.1125
2538.30065	9318.9125
2541.01501	9368.6125
2543.72768	9348.7125
2546.43864	9331.5125
2549.14791	9310.3125
2551.85548	9306.9125
2554.56136	9287.1125
2557.26554	9284.4125
2559.96803	9272.3125
2562.66883	9291.8125
2565.36794	9275.0125
2568.06536	9263.6125
2570.7611	9263.8125
2573.45514	9218.4125
2576.14751	9231.0125
2578.83819	9223.4125
2581.52719	9232.8125
2584.21451	9245.9125
2586.90015	9239.4125
2589.58411	9217.6125
2592.2664	9241.2125
2594.94701	9221.3125
2597.62594	9232.3125
2600.30321	9209.3125
2602.9788	9211.0125
2605.65273	9187.1125
2608.32498	9196.7125
2610.99557	9190.1125
2613.66449	9211.8125
2616.33175	9205.9125
2618.99734	9195.2125
2621.66128	9194.2125
2624.32355	9171.2125
2626.98416	9215.2125
2629.64311	9185.8125
2632.30041	9214.6125
2634.95605	9195.3125
2637.61004	9145.8125
2640.26238	9153.2125
2642.91306	9164.0125
2645.56209	9165.3125
2648.20948	9131.6125
2650.85521	9128.9125
2653.4993	9138.4125
2656.14175	9135.2125
2658.78255	9150.5125
2661.42171	9145.7125
2664.05923	9172.8125
2666.6951	9151.7125
2669.32934	9174.1125
2671.96194	9166.0125
2674.59291	9180.9125
2677.22224	9157.1125
2679.84993	9174.8125
2682.476	9154.6125
2685.10043	9166.9125
2687.72324	9091.9125
2690.34441	9114.8125
2692.96396	9121.3125
2695.58188	9114.6125
2698.19818	9083.7125
2700.81285	9105.0125
2703.4259	9103.5125
2706.03733	9088.4125
2708.64714	9098.9125
2711.25533	9101.2125
2713.86191	9119.8125
2716.46687	9139.7125
2719.07021	9117.0125
2721.67194	9138.5125
2724.27206	9129.0125
2726.87057	9163.8125
2729.46747	9158.7125
2732.06276	9152.8125
2734.65644	9143.8125
2737.24852	9164.3125
2739.83899	9134.4125
2742.42786	9135.5125
2745.01513	9128.3125
2747.60079	9107.6125
2750.18486	9087.4125
2752.76733	9118.4125
2755.3482	9101.8125
2757.92747	9116.8125
2760.50515	9085.7125
2763.08123	9098.5125
2765.65573	9089.8125
2768.22863	9078.1125
2770.79994	9092.4125
2773.36967	9097.8125
2775.9378	9110.6125
2778.50435	9082.9125
2781.06932	9082.8125
2783.6327	9074.9125
2786.1945	9086.1125
2788.75471	9070.1125
2791.31335	9055.2125
2793.87041	9024.7125
2796.42589	9014.1125
2798.97979	9017.1125
2801.53212	9003.5125
2804.08288	8975.7125
2806.63206	8963.8125
2809.17967	8947.7125
2811.72571	8931.8125
2814.27018	8898.9125
2816.81308	8921.0125
2819.35442	8886.3125
2821.89419	8889.5125
2824.43239	8927.3125
2826.96904	8892.2125
2829.50412	8899.2125
2832.03763	8881.9125
2834.56959	8881.8125
2837.1	8877.0125
2839.62884	8867.7125
2842.15613	8870.2125
2844.68186	8891.0125
2847.20604	8903.6125
2849.72867	8925.7125
2852.24974	8904.1125
2854.76927	8886.3125
2857.28724	8886.4125
2859.80367	8877.2125
2862.31855	8868.9125
2864.83189	8861.7125
2867.34368	8851.3125
2869.85393	8853.5125
2872.36264	8833.4125
2874.8698	8846.3125
2877.37543	8847.4125
2879.87952	8841.3125
2882.38207	8846.1125
2884.88308	8844.6125
2887.38256	8843.9125
2889.88051	8845.7125
2892.37692	8822.8125
2894.8718	8851.6125
2897.36515	8868.8125
2899.85698	8876.4125
2902.34727	8877.5125
2904.83604	8897.7125
2907.32328	8930.9125
2909.809	8922.0125
2912.29319	8941.7125
2914.77587	8943.3125
2917.25702	8918.3125
2919.73665	8926.5125
2922.21476	8926.2125
2924.69136	8918.8125
2927.16644	8897.0125
2929.64	8894.9125
2932.11205	8875.1125
2934.58258	8850.3125
2937.05161	8861.1125
2939.51912	8860.5125
2941.98513	8853.8125
2944.44962	8822.1125
2946.91261	8791.4125
2949.37409	8801.7125
2951.83407	8773.7125
2954.29254	8783.4125
2956.74951	8779.7125
2959.20498	8757.9125
2961.65895	8742.3125
2964.11142	8749.9125
2966.56239	8725.5125
2969.01186	8737.5125
2971.45984	8711.1125
2973.90632	8688.5125
2976.35131	8681.5125
2978.7948	8680.4125
2981.23681	8638.0125
2983.67732	8641.9125
2986.11635	8613.4125
2988.55388	8579.2125
2990.98993	8563.1125
2993.4245	8559.5125
2995.85758	8537.0125
2998.28917	8521.8125
3000.71928	8497.1125
3003.14791	8493.5125
3005.57506	8490.4125
3008.00073	8479.2125
3010.42493	8474.1125
3012.84764	8466.7125
3015.26888	8431.7125
3017.68865	8436.0125
3020.10694	8439.8125
3022.52376	8409.5125
3024.9391	8411.7125
3027.35298	8414.4125
3029.76539	8399.8125
3032.17632	8388.0125
3034.5858	8379.6125
3036.9938	8392.8125
3039.40034	8370.7125
3041.80542	8376.7125
3044.20903	8353.6125
3046.61118	8353.3125
3049.01187	8338.8125
3051.4111	8333.4125
3053.80888	8318.9125
3056.20519	8300.7125
3058.60005	8305.2125
3060.99345	8294.9125
