Data from AgNPs_FTO_APTES_UA_1uM_CRN_10uM_R6G_20uM_NaF_0.1M_Addition_RamanShift__5__15-03-39-675.txt Node

Date: Thu Jan 27 15:03:39 GMT 2022
User: TCL
Spectrometer: QEP01345
Trigger mode: 4
Integration Time (sec): 7.000000E0
Scans to average: 10
Electric dark correction enabled: true
Nonlinearity correction enabled: false
Boxcar width: 0
XAxis mode: Raman Shifts
Number of Pixels in Spectrum: 1044
>>>>>Begin Spectral Data<<<<<
46.04893	1.725
50.45542	-0.575
54.85868	-1.275
59.25871	-1.475
63.6555	48.025
68.04907	51.525
72.43941	53.625
76.82654	58.625
81.21044	59.425
85.59113	60.725
89.96862	64.125
94.34289	65.925
98.71396	69.625
103.08183	69.625
107.4465	72.325
111.80798	73.525
116.16626	76.625
120.52136	79.125
124.87327	83.025
129.222	83.825
133.56755	84.325
137.90993	90.225
142.24913	101.625
146.58517	107.225
150.91804	128.425
155.24774	142.825
159.57429	174.525
163.89768	223.925
168.21792	292.425
172.53501	392.025
176.84895	545.425
181.15975	762.225
185.46741	1062.925
189.77193	1467.625
194.07331	1967.525
198.37157	2524.625
202.6667	3106.025
206.9587	3698.525
211.24758	4278.125
215.53334	4848.825
219.81599	5492.425
224.09553	6129.125
228.37195	6861.225
232.64527	7668.525
236.91549	8551.325
241.18261	9395.125
245.44663	10212.225
249.70755	10917.025
253.96539	11598.125
258.22014	12155.225
262.4718	12604.525
266.72039	12889.525
270.96589	13060.425
275.20832	13122.025
279.44768	13013.925
283.68397	12883.525
287.91719	12755.225
292.14735	12705.325
296.37445	12667.725
300.59849	12692.325
304.81948	12765.125
309.03742	12752.325
313.25231	12692.125
317.46415	12534.525
321.67296	12290.725
325.87872	12086.025
330.08145	12004.025
334.28114	12007.025
338.47781	12040.125
342.67145	12188.025
346.86207	12351.225
351.04966	12570.725
355.23424	12817.725
359.4158	12958.425
363.59435	13121.425
367.76989	13243.825
371.94243	13322.425
376.11196	13392.125
380.27849	13461.925
384.44203	13508.125
388.60257	13635.925
392.76012	13758.025
396.91468	13927.225
401.06626	14122.225
405.21485	14255.625
409.36047	14208.325
413.50311	14109.525
417.64277	14047.725
421.77947	14117.725
425.9132	14202.025
430.04396	14244.525
434.17176	14305.925
438.2966	14397.225
442.41849	14595.025
446.53742	14925.125
450.6534	15293.925
454.76644	15582.525
458.87653	15625.225
462.98368	15545.325
467.08789	15375.625
471.18916	15124.125
475.2875	14897.625
479.38291	14718.525
483.4754	14656.825
487.56496	14504.025
491.6516	14320.925
495.73531	14205.425
499.81612	14191.825
503.89401	14261.025
507.96899	14338.825
512.04106	14314.125
516.11023	14203.125
520.1765	14117.925
524.23987	14007.625
528.30034	13858.425
532.35792	13799.825
536.41261	13638.425
540.46441	13489.225
544.51333	13527.225
548.55936	13590.025
552.60252	13864.825
556.64279	14124.325
560.6802	14355.025
564.71473	14455.525
568.7464	14587.025
572.7752	14900.825
576.80114	15269.625
580.82422	15723.825
584.84444	16275.625
588.86181	17045.225
592.87633	17589.225
596.888	17554.625
600.89682	16872.525
604.9028	16561.525
608.90594	17277.325
612.90624	18171.325
616.90371	17296.125
620.89834	15085.325
624.89015	14091.225
628.87913	13951.525
632.86528	13978.525
636.84862	13957.525
640.82913	13745.225
644.80683	13497.925
648.78172	13325.225
652.75379	13320.025
656.72306	13488.725
660.68952	13620.525
664.65319	13529.125
668.61405	13382.725
672.57211	13342.325
676.52738	13400.025
680.47986	13399.625
684.42955	13332.925
688.37646	13241.925
692.32058	13314.425
696.26192	13520.525
700.20048	13687.625
704.13626	13789.625
708.06928	13761.525
711.99952	13703.225
715.927	13702.025
719.85171	13775.525
723.77365	13702.725
727.69284	13524.225
731.60928	13369.125
735.52295	13299.225
739.43388	13315.725
743.34206	13341.825
747.24749	13408.225
751.15017	13542.825
755.05012	13718.025
758.94733	14049.325
762.8418	14579.725
766.73354	15358.825
770.62254	16106.725
774.50882	16229.325
778.39237	15617.025
782.27321	14808.625
786.15132	14094.325
790.02671	13687.225
793.89938	13454.025
797.76935	13378.225
801.6366	13367.225
805.50115	13333.925
809.36299	13276.325
813.22213	13154.225
817.07857	13139.825
820.93231	13080.425
824.78336	13011.325
828.63172	13001.925
832.47738	12992.525
836.32036	13028.725
840.16066	13009.625
843.99827	13048.725
847.8332	13019.425
851.66546	12997.525
855.49504	12980.825
859.32195	12992.825
863.1462	12964.625
866.96777	12910.525
870.78668	12907.825
874.60293	12894.625
878.41652	12921.325
882.22745	12954.625
886.03573	12993.325
889.84136	13010.525
893.64433	12947.225
897.44466	12870.925
901.24235	12858.925
905.0374	12822.325
908.8298	12801.425
912.61957	12811.525
916.40671	12909.425
920.19121	13063.825
923.97308	13218.625
927.75233	13292.925
931.52895	13189.325
935.30295	13021.525
939.07433	12825.225
942.84309	12690.225
946.60924	12628.525
950.37278	12617.525
954.13371	12576.025
957.89203	12555.125
961.64774	12527.825
965.40086	12531.825
969.15137	12493.025
972.89929	12464.225
976.64461	12415.625
980.38733	12471.925
984.12747	12491.525
987.86502	12556.325
991.59999	12661.725
995.33237	12808.925
999.06217	13037.825
1002.78939	13371.625
1006.51404	13642.525
1010.23611	13805.925
1013.95561	13914.525
1017.67255	13911.225
1021.38692	13818.025
1025.09872	13643.825
1028.80796	13604.525
1032.51465	13840.625
1036.21877	14107.925
1039.92035	14160.625
1043.61937	14087.025
1047.31584	13873.625
1051.00976	13665.125
1054.70114	13554.225
1058.38998	13519.225
1062.07627	13583.025
1065.76003	13650.725
1069.44126	13801.025
1073.11995	13961.125
1076.79611	14142.425
1080.46974	14232.025
1084.14085	14302.725
1087.80943	14419.025
1091.47549	14502.725
1095.13903	14497.725
1098.80005	14330.025
1102.45857	14071.525
1106.11456	13851.825
1109.76805	13731.925
1113.41903	13711.825
1117.06751	13792.625
1120.71348	13902.025
1124.35696	13984.425
1127.99793	14131.225
1131.63641	14195.925
1135.2724	14155.925
1138.90589	14087.725
1142.5369	14134.525
1146.16542	14224.025
1149.79145	14291.925
1153.415	14352.425
1157.03607	14521.725
1160.65467	14869.525
1164.27079	15460.125
1167.88443	16214.725
1171.49561	16962.625
1175.10432	17898.125
1178.71056	18997.825
1182.31434	20143.925
1185.91565	20712.025
1189.51451	20676.125
1193.11091	20212.325
1196.70485	19582.025
1200.29634	18997.025
1203.88538	18586.325
1207.47197	18316.325
1211.05612	18131.125
1214.63782	17818.125
1218.21708	17426.025
1221.79391	16991.725
1225.36829	16717.725
1228.94024	16534.025
1232.50976	16287.225
1236.07685	16058.125
1239.6415	15892.725
1243.20374	15905.025
1246.76355	16048.225
1250.32093	16269.025
1253.8759	16573.325
1257.42845	16947.925
1260.97859	17412.925
1264.52631	17825.325
1268.07163	18334.425
1271.61453	18787.725
1275.15503	19300.825
1278.69312	19826.925
1282.22882	20309.425
1285.76211	20832.725
1289.29301	21470.025
1292.82151	22366.025
1296.34761	23462.225
1299.87133	24819.525
1303.39266	26276.525
1306.9116	27537.225
1310.42815	28481.225
1313.94233	28869.025
1317.45412	28529.625
1320.96354	27848.925
1324.47058	27325.725
1327.97525	26894.625
1331.47754	26624.125
1334.97747	26477.725
1338.47502	26252.425
1341.97022	25925.625
1345.46305	25473.425
1348.95352	25162.625
1352.44163	25228.325
1355.92738	25816.925
1359.41078	26890.525
1362.89183	27671.825
1366.37053	27396.925
1369.84688	25508.625
1373.32088	22929.025
1376.79254	21107.625
1380.26186	20417.725
1383.72883	20386.625
1387.19347	20493.925
1390.65578	20260.225
1394.11575	20100.125
1397.57339	20236.225
1401.0287	20535.125
1404.48168	20862.825
1407.93234	20915.925
1411.38068	20666.825
1414.82669	20107.525
1418.27039	19433.825
1421.71177	18695.225
1425.15083	18098.325
1428.58758	17804.425
1432.02203	17944.625
1435.45416	18406.225
1438.88399	18971.625
1442.31151	19294.425
1445.73673	19546.225
1449.15965	19634.825
1452.58027	19626.625
1455.9986	19554.725
1459.41463	19541.325
1462.82837	19741.225
1466.23982	20107.525
1469.64898	20512.025
1473.05586	20756.325
1476.46045	20914.925
1479.86276	20827.625
1483.26279	20586.525
1486.66054	20479.225
1490.05602	20474.725
1493.44922	20671.325
1496.84016	20825.225
1500.22882	21058.325
1503.61521	21417.525
1506.99934	21857.925
1510.38121	22252.625
1513.76081	22355.925
1517.13816	21974.625
1520.51324	21417.025
1523.88607	20996.825
1527.25665	20870.725
1530.62498	20903.125
1533.99105	20827.525
1537.35488	20604.725
1540.71647	20269.925
1544.07581	19807.925
1547.4329	19340.125
1550.78776	18920.525
1554.14038	18611.025
1557.49077	18416.225
1560.83892	18315.925
1564.18484	18222.825
1567.52853	18255.425
1570.86999	18370.925
1574.20922	18639.625
1577.54624	18937.925
1580.88103	19113.625
1584.2136	19329.925
1587.54395	19933.025
1590.87208	20959.525
1594.19801	22202.125
1597.52172	23399.425
1600.84321	23765.825
1604.16251	22775.625
1607.47959	21021.425
1610.79447	19201.525
1614.10715	17559.825
1617.41763	16340.625
1620.7259	15520.825
1624.03199	15143.725
1627.33587	15157.125
1630.63757	15559.725
1633.93707	16427.225
1637.23439	17878.625
1640.52951	19961.625
1643.82246	22496.425
1647.11321	24536.625
1650.40179	24909.525
1653.68819	23067.925
1656.97241	20100.525
1660.25446	17307.625
1663.53433	15295.325
1666.81203	14027.725
1670.08756	13297.225
1673.36092	12788.125
1676.63211	12487.225
1679.90115	12277.825
1683.16801	12109.325
1686.43272	11967.425
1689.69527	11865.725
1692.95567	11790.025
1696.2139	11726.125
1699.46999	11637.325
1702.72392	11585.225
1705.97571	11595.825
1709.22535	11616.625
1712.47284	11619.125
1715.71819	11616.725
1718.96139	11606.925
1722.20246	11566.525
1725.44139	11549.525
1728.67818	11478.525
1731.91284	11403.725
1735.14537	11366.525
1738.37576	11288.925
1741.60403	11262.625
1744.83017	11219.125
1748.05418	11203.125
1751.27607	11162.025
1754.49584	11152.625
1757.71349	11116.025
1760.92903	11067.525
1764.14244	11062.925
1767.35375	11079.825
1770.56294	11056.825
1773.77002	11076.925
1776.97499	11064.625
1780.17785	11054.425
1783.37861	11075.025
1786.57727	11036.125
1789.77382	11052.325
1792.96828	11014.925
1796.16064	11001.725
1799.3509	10981.125
1802.53907	10959.425
1805.72514	10939.225
1808.90913	10917.025
1812.09102	10903.125
1815.27083	10892.425
1818.44856	10881.825
1821.6242	10856.925
1824.79776	10828.525
1827.96924	10833.925
1831.13864	10834.725
1834.30597	10828.525
1837.47122	10820.425
1840.6344	10834.725
1843.7955	10812.325
1846.95454	10798.625
1850.11151	10804.925
1853.26642	10806.225
1856.41926	10811.825
1859.57004	10804.225
1862.71876	10782.425
1865.86542	10772.425
1869.01003	10761.525
1872.15258	10760.325
1875.29308	10744.825
1878.43152	10742.125
1881.56792	10716.825
1884.70227	10713.425
1887.83457	10709.525
1890.96482	10684.225
1894.09304	10674.325
1897.21921	10655.325
1900.34335	10626.525
1903.46544	10645.625
1906.58551	10619.025
1909.70353	10600.825
1912.81953	10598.325
1915.93349	10586.525
1919.04543	10583.125
1922.15534	10541.525
1925.26322	10546.725
1928.36908	10490.925
1931.47292	10499.525
1934.57473	10459.625
1937.67453	10441.925
1940.77232	10407.425
1943.86808	10402.925
1946.96184	10348.525
1950.05358	10317.925
1953.14331	10305.225
1956.23103	10286.325
1959.31675	10236.925
1962.40046	10237.625
1965.48217	10206.425
1968.56188	10183.925
1971.63959	10153.725
1974.7153	10107.025
1977.78901	10092.425
1980.86073	10057.525
1983.93046	10037.925
1986.99819	9988.025
1990.06394	9971.525
1993.1277	9938.925
1996.18947	9907.925
1999.24925	9884.325
2002.30706	9856.125
2005.36288	9863.625
2008.41672	9812.925
2011.46859	9800.325
2014.51848	9746.725
2017.56639	9739.425
2020.61233	9725.725
2023.6563	9717.425
2026.6983	9693.825
2029.73833	9679.125
2032.7764	9657.025
2035.8125	9642.925
2038.84664	9617.525
2041.87881	9592.825
2044.90903	9592.825
2047.93729	9584.625
2050.96359	9573.325
2053.98794	9569.425
2057.01034	9539.925
2060.03078	9526.725
2063.04927	9535.725
2066.06582	9541.625
2069.08042	9531.025
2072.09307	9531.725
2075.10378	9514.625
2078.11255	9516.025
2081.11938	9505.225
2084.12426	9505.225
2087.12722	9502.825
2090.12824	9466.625
2093.12732	9494.125
2096.12447	9512.725
2099.11969	9486.325
2102.11299	9507.525
2105.10435	9525.425
2108.09379	9508.325
2111.08131	9530.125
2114.0669	9533.825
2117.05057	9524.325
2120.03233	9517.525
2123.01216	9534.625
2125.99008	9565.625
2128.96609	9562.325
2131.94018	9601.225
2134.91236	9578.825
2137.88263	9583.825
2140.851	9578.325
2143.81746	9594.225
2146.78201	9568.025
2149.74466	9606.425
2152.7054	9623.225
2155.66425	9600.125
2158.6212	9598.625
2161.57625	9576.425
2164.52941	9609.125
2167.48067	9576.825
2170.43004	9601.625
2173.37752	9589.825
2176.32311	9588.425
2179.26681	9597.325
2182.20863	9586.925
2185.14856	9583.125
2188.08661	9609.725
2191.02278	9598.025
2193.95707	9605.925
2196.88948	9557.625
2199.82001	9592.425
2202.74867	9572.225
2205.67545	9590.225
2208.60037	9554.825
2211.52341	9544.025
2214.44458	9563.225
2217.36388	9514.425
2220.28132	9514.025
2223.1969	9499.025
2226.11061	9471.725
2229.02246	9470.925
2231.93245	9481.625
2234.84058	9447.525
2237.74686	9446.125
2240.65128	9450.925
2243.55385	9387.225
2246.45456	9413.425
2249.35343	9405.925
2252.25044	9370.725
2255.14561	9357.225
2258.03893	9350.625
2260.93041	9327.125
2263.82004	9298.725
2266.70783	9284.525
2269.59378	9264.825
2272.4779	9239.225
2275.36017	9227.725
2278.24061	9236.525
2281.11922	9232.025
2283.996	9208.325
2286.87094	9193.625
2289.74405	9160.025
2292.61534	9161.325
2295.4848	9141.425
2298.35243	9175.925
2301.21824	9142.325
2304.08223	9139.025
2306.94439	9183.625
2309.80474	9175.125
2312.66327	9176.325
2315.51999	9180.425
2318.37489	9162.225
2321.22797	9156.525
2324.07925	9157.525
2326.92871	9150.025
2329.77637	9131.125
2332.62222	9110.625
2335.46626	9118.425
2338.3085	9106.025
2341.14893	9085.725
2343.98756	9096.125
2346.8244	9082.725
2349.65943	9090.725
2352.49267	9070.625
2355.32411	9068.025
2358.15376	9063.125
2360.98161	9053.925
2363.80768	9040.225
2366.63195	9061.125
2369.45444	9037.025
2372.27514	9027.825
2375.09405	9035.225
2377.91118	8998.725
2380.72652	9008.925
2383.54009	8978.425
2386.35187	8969.425
2389.16188	8943.725
2391.97011	8940.525
2394.77657	8910.425
2397.58125	8892.325
2400.38416	8894.125
2403.18529	8870.325
2405.98466	8877.525
2408.78226	8872.325
2411.57809	8843.125
2414.37216	8830.925
2417.16446	8848.825
2419.955	8824.925
2422.74378	8836.625
2425.5308	8816.925
2428.31606	8812.325
2431.09956	8817.225
2433.88131	8810.925
2436.6613	8815.125
2439.43954	8806.925
2442.21603	8795.925
2444.99077	8787.125
2447.76377	8799.925
2450.53501	8786.625
2453.30451	8782.425
2456.07226	8767.525
2458.83827	8764.725
2461.60254	8759.725
2464.36507	8764.325
2467.12586	8762.825
2469.88492	8759.425
2472.64224	8760.925
2475.39782	8785.225
2478.15167	8754.625
2480.90379	8751.825
2483.65417	8777.925
2486.40283	8776.425
2489.14976	8790.825
2491.89497	8786.925
2494.63845	8791.125
2497.3802	8785.925
2500.12024	8747.425
2502.85855	8761.125
2505.59514	8764.925
2508.33002	8762.525
2511.06318	8746.925
2513.79462	8759.625
2516.52435	8728.825
2519.25237	8739.825
2521.97867	8732.625
2524.70327	8727.625
2527.42616	8727.625
2530.14734	8716.925
2532.86681	8714.725
2535.58458	8725.725
2538.30065	8705.225
2541.01501	8688.225
2543.72768	8680.325
2546.43864	8680.525
2549.14791	8681.025
2551.85548	8644.925
2554.56136	8646.925
2557.26554	8626.025
2559.96803	8630.025
2562.66883	8659.925
2565.36794	8627.325
2568.06536	8651.025
2570.7611	8624.825
2573.45514	8598.525
2576.14751	8587.525
2578.83819	8612.425
2581.52719	8604.825
2584.21451	8592.425
2586.90015	8589.925
2589.58411	8581.025
2592.2664	8576.325
2594.94701	8558.725
2597.62594	8549.625
2600.30321	8535.525
2602.9788	8519.725
2605.65273	8527.925
2608.32498	8533.225
2610.99557	8529.925
2613.66449	8534.625
2616.33175	8538.825
2618.99734	8536.425
2621.66128	8525.425
2624.32355	8512.125
2626.98416	8503.025
2629.64311	8519.425
2632.30041	8517.525
2634.95605	8506.925
2637.61004	8482.025
2640.26238	8458.825
2642.91306	8467.125
2645.56209	8475.025
2648.20948	8471.725
2650.85521	8463.125
2653.4993	8491.325
2656.14175	8482.225
2658.78255	8505.125
2661.42171	8500.425
2664.05923	8501.025
2666.6951	8500.825
2669.32934	8512.925
2671.96194	8475.625
2674.59291	8542.425
2677.22224	8518.025
2679.84993	8489.225
2682.476	8506.925
2685.10043	8503.025
2687.72324	8459.625
2690.34441	8480.725
2692.96396	8488.525
2695.58188	8499.125
2698.19818	8501.125
2700.81285	8477.825
2703.4259	8492.725
2706.03733	8491.525
2708.64714	8474.425
2711.25533	8503.725
2713.86191	8507.825
2716.46687	8516.325
2719.07021	8517.825
2721.67194	8517.525
2724.27206	8537.325
2726.87057	8537.025
2729.46747	8555.025
2732.06276	8565.325
2734.65644	8558.025
2737.24852	8547.425
2739.83899	8547.025
2742.42786	8527.625
2745.01513	8526.725
2747.60079	8526.025
2750.18486	8523.825
2752.76733	8518.825
2755.3482	8500.325
2757.92747	8512.125
2760.50515	8525.525
2763.08123	8507.025
2765.65573	8507.925
2768.22863	8513.325
2770.79994	8500.625
2773.36967	8485.225
2775.9378	8501.925
2778.50435	8516.225
2781.06932	8494.725
2783.6327	8493.425
2786.1945	8470.325
2788.75471	8472.125
2791.31335	8457.625
2793.87041	8442.125
2796.42589	8424.225
2798.97979	8433.525
2801.53212	8424.525
2804.08288	8430.725
2806.63206	8378.825
2809.17967	8372.425
2811.72571	8349.425
2814.27018	8352.425
2816.81308	8345.925
2819.35442	8343.725
2821.89419	8304.925
2824.43239	8311.625
2826.96904	8301.325
2829.50412	8299.225
2832.03763	8279.425
2834.56959	8303.625
2837.1	8276.825
2839.62884	8303.025
2842.15613	8281.525
2844.68186	8294.825
2847.20604	8294.925
2849.72867	8308.625
2852.24974	8296.325
2854.76927	8305.925
2857.28724	8277.825
2859.80367	8263.925
2862.31855	8261.825
2864.83189	8246.925
2867.34368	8249.925
2869.85393	8242.825
2872.36264	8233.025
2874.8698	8223.525
2877.37543	8215.925
2879.87952	8219.525
2882.38207	8209.625
2884.88308	8211.925
2887.38256	8252.025
2889.88051	8247.225
2892.37692	8240.025
2894.8718	8231.025
2897.36515	8258.725
2899.85698	8251.525
2902.34727	8259.325
2904.83604	8270.425
2907.32328	8265.525
2909.809	8271.225
2912.29319	8282.725
2914.77587	8279.425
2917.25702	8271.325
2919.73665	8272.625
2922.21476	8288.225
2924.69136	8268.625
2927.16644	8300.925
2929.64	8280.425
2932.11205	8262.225
2934.58258	8252.925
2937.05161	8247.825
2939.51912	8265.925
2941.98513	8226.425
2944.44962	8220.925
2946.91261	8179.525
2949.37409	8200.825
2951.83407	8206.925
2954.29254	8179.725
2956.74951	8202.325
2959.20498	8203.825
2961.65895	8195.625
2964.11142	8187.925
2966.56239	8175.025
2969.01186	8169.925
2971.45984	8146.125
2973.90632	8164.225
2976.35131	8138.025
2978.7948	8127.925
2981.23681	8117.725
2983.67732	8091.325
2986.11635	8069.825
2988.55388	8067.725
2990.98993	8055.125
2993.4245	8034.725
2995.85758	8023.125
2998.28917	7992.725
3000.71928	8000.725
3003.14791	7969.925
3005.57506	7989.725
3008.00073	7960.925
3010.42493	7952.725
3012.84764	7960.625
3015.26888	7942.725
3017.68865	7920.425
3020.10694	7900.625
3022.52376	7900.525
3024.9391	7911.725
3027.35298	7884.225
3029.76539	7906.325
3032.17632	7870.525
3034.5858	7853.425
3036.9938	7867.525
3039.40034	7871.225
3041.80542	7884.325
3044.20903	7840.425
3046.61118	7858.625
3049.01187	7846.125
3051.4111	7851.625
3053.80888	7824.025
3056.20519	7818.025
3058.60005	7785.025
3060.99345	7774.225
3063.3854	7753.725
3065.7759	7747.625
3068.16494	7727.225
3070.55254	7714.825
3072.93868	7706.325
3075.32338	7704.525
3077.70662	7678.425
3080.08842	7683.825
3082.46878	7660.625
3084.84769	7653.025
3087.22515	7632.325
3089.60118	7646.525
3091.97576	7660.225
3094.3489	7632.925
3096.72061	7632.325
3099.09087	7664.325
3101.4597	7641.725
3103.82709	7658.325
3106.19305	7643.225
3108.55757	7658.525
3110.92066	7634.325
3113.28232	7583.725
3115.64255	7605.825
3118.00134	7610.225
3120.35871	7599.025
3122.71466	7569.525
3125.06917	7569.425
3127.42226	7539.625
3129.77393	7554.025
3132.12417	7546.225
3134.47299	7564.825
3136.82039	7549.225
3139.16636	7552.525
3141.51092	7545.625
3143.85406	7566.225
3146.19579	7570.625
3148.53609	7568.325
3150.87499	7592.725
3153.21246	7590.125
3155.54853	7578.325
3157.88318	7588.025
3160.21642	7588.925
3162.54826	7586.825
3164.87868	7562.625
3167.2077	7583.525
3169.5353	7574.325
3171.86151	7627.925
3174.18631	7603.725
3176.5097	7599.625
3178.83169	7589.525
