Data from AgNPs_FTO_APTES_UA_1uM_CRN_500uM_R6G_10uM_NaF_0.1M_Addition_RamanShift__4__17-49-19-863.txt Node

Date: Thu Jan 27 17:49:19 GMT 2022
User: TCL
Spectrometer: QEP01345
Trigger mode: 4
Integration Time (sec): 7.000000E0
Scans to average: 10
Electric dark correction enabled: true
Nonlinearity correction enabled: false
Boxcar width: 0
XAxis mode: Raman Shifts
Number of Pixels in Spectrum: 1044
>>>>>Begin Spectral Data<<<<<
46.04893	0.1125
50.45542	0.9125
54.85868	-1.6875
59.25871	-0.8875
63.6555	41.3125
68.04907	44.6125
72.43941	46.7125
76.82654	50.1125
81.21044	52.5125
85.59113	51.4125
89.96862	55.9125
94.34289	58.6125
98.71396	60.2125
103.08183	62.0125
107.4465	63.3125
111.80798	65.3125
116.16626	63.4125
120.52136	68.5125
124.87327	68.0125
129.222	70.0125
133.56755	69.6125
137.90993	72.7125
142.24913	78.5125
146.58517	86.3125
150.91804	95.8125
155.24774	112.1125
159.57429	131.3125
163.89768	164.5125
168.21792	210.6125
172.53501	287.9125
176.84895	390.5125
181.15975	542.9125
185.46741	755.6125
189.77193	1035.8125
194.07331	1382.8125
198.37157	1800.7125
202.6667	2212.6125
206.9587	2632.5125
211.24758	3055.7125
215.53334	3457.6125
219.81599	3903.3125
224.09553	4368.8125
228.37195	4912.0125
232.64527	5494.5125
236.91549	6070.4125
241.18261	6698.2125
245.44663	7285.2125
249.70755	7809.3125
253.96539	8262.7125
258.22014	8618.2125
262.4718	8933.5125
266.72039	9114.4125
270.96589	9210.8125
275.20832	9187.3125
279.44768	9089.1125
283.68397	8954.7125
287.91719	8830.3125
292.14735	8744.1125
296.37445	8713.5125
300.59849	8730.1125
304.81948	8761.9125
309.03742	8765.6125
313.25231	8722.8125
317.46415	8597.5125
321.67296	8396.8125
325.87872	8247.9125
330.08145	8176.8125
334.28114	8154.3125
338.47781	8209.3125
342.67145	8293.0125
346.86207	8424.0125
351.04966	8600.4125
355.23424	8731.6125
359.4158	8872.9125
363.59435	8960.4125
367.76989	9022.0125
371.94243	9080.2125
376.11196	9135.1125
380.27849	9191.8125
384.44203	9239.9125
388.60257	9315.7125
392.76012	9393.3125
396.91468	9488.7125
401.06626	9600.7125
405.21485	9737.6125
409.36047	9723.1125
413.50311	9604.4125
417.64277	9534.2125
421.77947	9532.1125
425.9132	9574.8125
430.04396	9580.3125
434.17176	9630.2125
438.2966	9662.3125
442.41849	9748.7125
446.53742	9969.0125
450.6534	10220.0125
454.76644	10359.6125
458.87653	10340.9125
462.98368	10258.3125
467.08789	10110.5125
471.18916	9972.4125
475.2875	9802.0125
479.38291	9692.9125
483.4754	9590.6125
487.56496	9551.0125
491.6516	9457.1125
495.73531	9449.7125
499.81612	9450.0125
503.89401	9509.4125
507.96899	9532.1125
512.04106	9507.5125
516.11023	9499.2125
520.1765	9450.7125
524.23987	9373.8125
528.30034	9341.9125
532.35792	9260.3125
536.41261	9192.1125
540.46441	9071.4125
544.51333	9032.4125
548.55936	9086.3125
552.60252	9238.7125
556.64279	9467.0125
560.6802	9564.5125
564.71473	9596.7125
568.7464	9664.3125
572.7752	9821.9125
576.80114	10005.4125
580.82422	10281.8125
584.84444	10708.5125
588.86181	11271.4125
592.87633	11727.8125
596.888	11684.6125
600.89682	11158.6125
604.9028	10907.0125
608.90594	11521.8125
612.90624	12401.5125
616.90371	11940.6125
620.89834	10193.8125
624.89015	9390.0125
628.87913	9273.0125
632.86528	9321.6125
636.84862	9315.1125
640.82913	9222.0125
644.80683	9054.3125
648.78172	8942.5125
652.75379	8949.3125
656.72306	9011.5125
660.68952	9119.4125
664.65319	9065.7125
668.61405	8917.9125
672.57211	8913.6125
676.52738	8969.1125
680.47986	8983.1125
684.42955	8966.7125
688.37646	8903.9125
692.32058	8877.9125
696.26192	8938.8125
700.20048	9048.5125
704.13626	9093.8125
708.06928	9080.5125
711.99952	9060.2125
715.927	9053.2125
719.85171	9080.4125
723.77365	9084.8125
727.69284	9010.2125
731.60928	8904.8125
735.52295	8857.3125
739.43388	8901.0125
743.34206	8904.7125
747.24749	8933.7125
751.15017	9008.7125
755.05012	9102.6125
758.94733	9294.0125
762.8418	9628.6125
766.73354	10220.2125
770.62254	10886.9125
774.50882	11153.9125
778.39237	10853.2125
782.27321	10144.5125
786.15132	9522.3125
790.02671	9135.7125
793.89938	8979.8125
797.76935	8918.5125
801.6366	8896.0125
805.50115	8874.7125
809.36299	8802.5125
813.22213	8733.2125
817.07857	8680.0125
820.93231	8655.4125
824.78336	8610.2125
828.63172	8601.0125
832.47738	8619.3125
836.32036	8641.0125
840.16066	8650.5125
843.99827	8676.2125
847.8332	8644.4125
851.66546	8617.2125
855.49504	8617.3125
859.32195	8627.8125
863.1462	8595.5125
866.96777	8601.4125
870.78668	8573.8125
874.60293	8562.8125
878.41652	8587.2125
882.22745	8609.1125
886.03573	8633.6125
889.84136	8653.2125
893.64433	8640.2125
897.44466	8583.8125
901.24235	8558.5125
905.0374	8513.2125
908.8298	8478.4125
912.61957	8490.8125
916.40671	8543.4125
920.19121	8624.9125
923.97308	8707.6125
927.75233	8760.2125
931.52895	8759.5125
935.30295	8663.8125
939.07433	8523.0125
942.84309	8383.0125
946.60924	8322.5125
950.37278	8290.9125
954.13371	8254.5125
957.89203	8211.6125
961.64774	8211.2125
965.40086	8198.1125
969.15137	8162.9125
972.89929	8101.4125
976.64461	8109.6125
980.38733	8095.7125
984.12747	8103.1125
987.86502	8173.4125
991.59999	8228.8125
995.33237	8316.6125
999.06217	8481.8125
1002.78939	8650.5125
1006.51404	8759.1125
1010.23611	8832.7125
1013.95561	8918.6125
1017.67255	8964.2125
1021.38692	8926.3125
1025.09872	8802.3125
1028.80796	8775.7125
1032.51465	8880.5125
1036.21877	9038.1125
1039.92035	9092.1125
1043.61937	9056.0125
1047.31584	8957.5125
1051.00976	8844.5125
1054.70114	8801.4125
1058.38998	8759.9125
1062.07627	8787.4125
1065.76003	8846.1125
1069.44126	8924.5125
1073.11995	9078.6125
1076.79611	9173.0125
1080.46974	9191.8125
1084.14085	9199.1125
1087.80943	9209.2125
1091.47549	9253.0125
1095.13903	9273.0125
1098.80005	9177.6125
1102.45857	8966.9125
1106.11456	8848.3125
1109.76805	8785.9125
1113.41903	8804.9125
1117.06751	8853.2125
1120.71348	8946.6125
1124.35696	9083.5125
1127.99793	9208.8125
1131.63641	9327.0125
1135.2724	9237.2125
1138.90589	9098.7125
1142.5369	9073.9125
1146.16542	9088.4125
1149.79145	9070.5125
1153.415	9095.5125
1157.03607	9167.8125
1160.65467	9373.5125
1164.27079	9765.4125
1167.88443	10203.0125
1171.49561	10753.6125
1175.10432	11399.8125
1178.71056	12246.0125
1182.31434	13105.5125
1185.91565	13525.3125
1189.51451	13371.8125
1193.11091	12852.2125
1196.70485	12323.2125
1200.29634	11797.1125
1203.88538	11410.8125
1207.47197	11127.1125
1211.05612	10927.8125
1214.63782	10698.0125
1218.21708	10500.2125
1221.79391	10354.2125
1225.36829	10291.7125
1228.94024	10250.1125
1232.50976	10119.1125
1236.07685	9962.6125
1239.6415	9847.7125
1243.20374	9813.2125
1246.76355	9851.8125
1250.32093	9948.4125
1253.8759	10121.9125
1257.42845	10344.7125
1260.97859	10593.4125
1264.52631	10838.8125
1268.07163	11108.9125
1271.61453	11386.6125
1275.15503	11693.1125
1278.69312	12008.4125
1282.22882	12326.6125
1285.76211	12688.5125
1289.29301	13133.2125
1292.82151	13699.4125
1296.34761	14320.5125
1299.87133	15165.5125
1303.39266	16098.7125
1306.9116	17090.5125
1310.42815	17894.7125
1313.94233	18320.9125
1317.45412	18044.1125
1320.96354	17371.0125
1324.47058	16640.8125
1327.97525	16050.0125
1331.47754	15650.3125
1334.97747	15420.4125
1338.47502	15125.7125
1341.97022	14859.6125
1345.46305	14708.4125
1348.95352	14782.0125
1352.44163	15264.6125
1355.92738	16171.3125
1359.41078	17303.4125
1362.89183	18178.2125
1366.37053	18120.6125
1369.84688	16687.8125
1373.32088	14713.2125
1376.79254	13203.3125
1380.26186	12528.4125
1383.72883	12320.9125
1387.19347	12173.2125
1390.65578	11896.9125
1394.11575	11788.1125
1397.57339	11885.7125
1401.0287	12168.6125
1404.48168	12354.0125
1407.93234	12384.3125
1411.38068	12246.1125
1414.82669	11992.3125
1418.27039	11691.4125
1421.71177	11338.1125
1425.15083	10992.7125
1428.58758	10801.9125
1432.02203	10853.3125
1435.45416	11085.4125
1438.88399	11369.6125
1442.31151	11480.5125
1445.73673	11551.1125
1449.15965	11588.1125
1452.58027	11567.0125
1455.9986	11497.3125
1459.41463	11447.1125
1462.82837	11584.1125
1466.23982	11823.9125
1469.64898	12088.4125
1473.05586	12298.0125
1476.46045	12397.6125
1479.86276	12443.1125
1483.26279	12407.5125
1486.66054	12429.9125
1490.05602	12519.3125
1493.44922	12730.9125
1496.84016	12922.9125
1500.22882	13209.4125
1503.61521	13689.8125
1506.99934	14269.4125
1510.38121	14749.2125
1513.76081	14806.2125
1517.13816	14377.8125
1520.51324	13682.9125
1523.88607	13083.6125
1527.25665	12759.3125
1530.62498	12585.5125
1533.99105	12467.2125
1537.35488	12309.3125
1540.71647	12109.7125
1544.07581	11846.3125
1547.4329	11628.5125
1550.78776	11411.7125
1554.14038	11236.8125
1557.49077	11088.9125
1560.83892	11012.6125
1564.18484	10985.0125
1567.52853	11018.6125
1570.86999	11172.6125
1574.20922	11374.8125
1577.54624	11585.2125
1580.88103	11526.9125
1584.2136	11482.0125
1587.54395	11638.2125
1590.87208	12115.1125
1594.19801	12835.9125
1597.52172	13626.6125
1600.84321	14074.3125
1604.16251	13761.2125
1607.47959	12809.9125
1610.79447	11698.4125
1614.10715	10643.1125
1617.41763	9858.2125
1620.7259	9355.0125
1624.03199	9114.3125
1627.33587	9110.6125
1630.63757	9266.9125
1633.93707	9715.3125
1637.23439	10493.6125
1640.52951	11730.0125
1643.82246	13367.2125
1647.11321	14947.4125
1650.40179	15449.9125
1653.68819	14458.1125
1656.97241	12543.2125
1660.25446	10723.8125
1663.53433	9445.0125
1666.81203	8717.8125
1670.08756	8260.5125
1673.36092	8000.3125
1676.63211	7815.6125
1679.90115	7715.3125
1683.16801	7627.6125
1686.43272	7539.0125
1689.69527	7467.0125
1692.95567	7407.5125
1696.2139	7357.0125
1699.46999	7283.6125
1702.72392	7253.7125
1705.97571	7256.2125
1709.22535	7273.3125
1712.47284	7281.7125
1715.71819	7297.1125
1718.96139	7305.0125
1722.20246	7265.9125
1725.44139	7278.2125
1728.67818	7237.3125
1731.91284	7179.8125
1735.14537	7168.8125
1738.37576	7149.5125
1741.60403	7126.1125
1744.83017	7083.4125
1748.05418	7084.3125
1751.27607	7072.4125
1754.49584	7074.1125
1757.71349	7065.0125
1760.92903	7024.9125
1764.14244	7014.1125
1767.35375	6980.9125
1770.56294	6968.4125
1773.77002	6951.9125
1776.97499	6950.0125
1780.17785	6956.2125
1783.37861	6973.1125
1786.57727	6991.3125
1789.77382	6941.9125
1792.96828	6934.9125
1796.16064	6920.8125
1799.3509	6897.7125
1802.53907	6887.0125
1805.72514	6864.4125
1808.90913	6841.0125
1812.09102	6826.0125
1815.27083	6816.0125
1818.44856	6818.3125
1821.6242	6826.4125
1824.79776	6772.0125
1827.96924	6780.9125
1831.13864	6811.2125
1834.30597	6815.6125
1837.47122	6773.3125
1840.6344	6792.6125
1843.7955	6776.2125
1846.95454	6770.2125
1850.11151	6779.3125
1853.26642	6775.6125
1856.41926	6785.4125
1859.57004	6776.8125
1862.71876	6762.9125
1865.86542	6760.4125
1869.01003	6742.1125
1872.15258	6737.9125
1875.29308	6748.8125
1878.43152	6730.8125
1881.56792	6725.6125
1884.70227	6705.3125
1887.83457	6716.9125
1890.96482	6688.5125
1894.09304	6672.8125
1897.21921	6675.3125
1900.34335	6661.4125
1903.46544	6668.8125
1906.58551	6655.4125
1909.70353	6639.2125
1912.81953	6648.4125
1915.93349	6629.2125
1919.04543	6600.4125
1922.15534	6588.6125
1925.26322	6595.3125
1928.36908	6590.6125
1931.47292	6555.8125
1934.57473	6528.9125
1937.67453	6545.4125
1940.77232	6508.1125
1943.86808	6492.3125
1946.96184	6472.5125
1950.05358	6462.5125
1953.14331	6439.9125
1956.23103	6414.1125
1959.31675	6435.4125
1962.40046	6396.4125
1965.48217	6363.8125
1968.56188	6376.7125
1971.63959	6335.7125
1974.7153	6325.8125
1977.78901	6303.2125
1980.86073	6288.9125
1983.93046	6278.8125
1986.99819	6255.2125
1990.06394	6221.2125
1993.1277	6211.2125
1996.18947	6187.0125
1999.24925	6173.1125
2002.30706	6172.1125
2005.36288	6154.0125
2008.41672	6149.9125
2011.46859	6123.9125
2014.51848	6107.2125
2017.56639	6080.6125
2020.61233	6057.2125
2023.6563	6068.1125
2026.6983	6060.7125
2029.73833	6069.7125
2032.7764	6032.3125
2035.8125	6023.9125
2038.84664	6009.2125
2041.87881	5986.7125
2044.90903	5988.5125
2047.93729	5963.8125
2050.96359	5964.1125
2053.98794	5959.8125
2057.01034	5963.8125
2060.03078	5951.6125
2063.04927	5936.6125
2066.06582	5935.1125
2069.08042	5949.6125
2072.09307	5947.0125
2075.10378	5945.7125
2078.11255	5938.4125
2081.11938	5943.1125
2084.12426	5926.5125
2087.12722	5921.7125
2090.12824	5915.1125
2093.12732	5927.7125
2096.12447	5908.5125
2099.11969	5934.5125
2102.11299	5918.3125
2105.10435	5924.3125
2108.09379	5941.9125
2111.08131	5925.8125
2114.0669	5949.8125
2117.05057	5933.3125
2120.03233	5943.8125
2123.01216	5957.2125
2125.99008	5974.2125
2128.96609	5959.3125
2131.94018	5985.7125
2134.91236	5964.9125
2137.88263	5973.4125
2140.851	5979.1125
2143.81746	5969.4125
2146.78201	5971.0125
2149.74466	5981.9125
2152.7054	5987.0125
2155.66425	5980.2125
2158.6212	5969.0125
2161.57625	5955.4125
2164.52941	5970.6125
2167.48067	5952.9125
2170.43004	5969.6125
2173.37752	5986.2125
2176.32311	5965.9125
2179.26681	5975.1125
2182.20863	5969.5125
2185.14856	5967.5125
2188.08661	5966.6125
2191.02278	5976.9125
2193.95707	5979.7125
2196.88948	5969.7125
2199.82001	5971.6125
2202.74867	5954.9125
2205.67545	5957.0125
2208.60037	5941.5125
2211.52341	5932.4125
2214.44458	5928.0125
2217.36388	5927.9125
2220.28132	5915.9125
2223.1969	5894.8125
2226.11061	5908.9125
2229.02246	5882.5125
2231.93245	5898.6125
2234.84058	5879.2125
2237.74686	5872.6125
2240.65128	5866.0125
2243.55385	5831.6125
2246.45456	5823.4125
2249.35343	5852.2125
2252.25044	5816.8125
2255.14561	5811.9125
2258.03893	5808.9125
2260.93041	5795.7125
2263.82004	5777.6125
2266.70783	5769.6125
2269.59378	5749.2125
2272.4779	5732.8125
2275.36017	5730.8125
2278.24061	5740.9125
2281.11922	5716.0125
2283.996	5712.4125
2286.87094	5696.2125
2289.74405	5701.2125
2292.61534	5682.3125
2295.4848	5687.4125
2298.35243	5689.3125
2301.21824	5680.4125
2304.08223	5697.1125
2306.94439	5686.6125
2309.80474	5708.2125
2312.66327	5673.9125
2315.51999	5677.5125
2318.37489	5668.3125
2321.22797	5664.3125
2324.07925	5662.7125
2326.92871	5635.4125
2329.77637	5643.6125
2332.62222	5641.2125
2335.46626	5623.5125
2338.3085	5638.7125
2341.14893	5638.7125
2343.98756	5617.7125
2346.8244	5606.2125
2349.65943	5613.2125
2352.49267	5625.5125
2355.32411	5644.7125
2358.15376	5600.3125
2360.98161	5610.6125
2363.80768	5622.7125
2366.63195	5624.9125
2369.45444	5603.1125
2372.27514	5604.0125
2375.09405	5605.8125
2377.91118	5575.7125
2380.72652	5577.4125
2383.54009	5557.4125
2386.35187	5553.2125
2389.16188	5530.8125
2391.97011	5534.1125
2394.77657	5521.9125
2397.58125	5506.0125
2400.38416	5492.5125
2403.18529	5505.0125
2405.98466	5493.9125
2408.78226	5477.7125
2411.57809	5474.1125
2414.37216	5460.2125
2417.16446	5460.7125
2419.955	5443.9125
2422.74378	5449.3125
2425.5308	5467.4125
2428.31606	5433.6125
2431.09956	5427.0125
2433.88131	5440.2125
2436.6613	5422.4125
2439.43954	5433.5125
2442.21603	5423.9125
2444.99077	5440.4125
2447.76377	5445.5125
2450.53501	5427.7125
2453.30451	5432.4125
2456.07226	5425.7125
2458.83827	5426.5125
2461.60254	5422.8125
2464.36507	5435.2125
2467.12586	5418.5125
2469.88492	5419.6125
2472.64224	5415.2125
2475.39782	5411.3125
2478.15167	5399.4125
2480.90379	5414.3125
2483.65417	5407.5125
2486.40283	5418.2125
2489.14976	5420.2125
2491.89497	5422.6125
2494.63845	5396.8125
2497.3802	5403.0125
2500.12024	5397.3125
2502.85855	5400.1125
2505.59514	5403.5125
2508.33002	5397.4125
2511.06318	5382.1125
2513.79462	5397.8125
2516.52435	5376.4125
2519.25237	5363.7125
2521.97867	5369.4125
2524.70327	5369.8125
2527.42616	5343.3125
2530.14734	5341.0125
2532.86681	5340.1125
2535.58458	5326.5125
2538.30065	5339.2125
2541.01501	5344.7125
2543.72768	5331.4125
2546.43864	5317.9125
2549.14791	5312.1125
2551.85548	5310.6125
2554.56136	5313.1125
2557.26554	5292.8125
2559.96803	5295.3125
2562.66883	5285.0125
2565.36794	5280.4125
2568.06536	5298.4125
2570.7611	5293.1125
2573.45514	5288.9125
2576.14751	5256.0125
2578.83819	5260.0125
2581.52719	5259.9125
2584.21451	5263.9125
2586.90015	5261.2125
2589.58411	5243.8125
2592.2664	5241.3125
2594.94701	5229.5125
2597.62594	5232.1125
2600.30321	5200.8125
2602.9788	5210.0125
2605.65273	5201.3125
2608.32498	5219.1125
2610.99557	5200.9125
2613.66449	5205.6125
2616.33175	5203.8125
2618.99734	5202.4125
2621.66128	5196.0125
2624.32355	5174.9125
2626.98416	5187.2125
2629.64311	5183.6125
2632.30041	5182.3125
2634.95605	5185.9125
2637.61004	5160.2125
2640.26238	5160.3125
2642.91306	5151.9125
2645.56209	5134.4125
2648.20948	5137.0125
2650.85521	5137.1125
2653.4993	5152.0125
2656.14175	5143.2125
2658.78255	5156.4125
2661.42171	5150.0125
2664.05923	5166.6125
2666.6951	5172.5125
2669.32934	5166.8125
2671.96194	5162.9125
2674.59291	5155.5125
2677.22224	5157.5125
2679.84993	5156.1125
2682.476	5151.3125
2685.10043	5170.7125
2687.72324	5149.4125
2690.34441	5156.0125
2692.96396	5152.1125
2695.58188	5163.0125
2698.19818	5165.0125
2700.81285	5173.8125
2703.4259	5160.3125
2706.03733	5155.7125
2708.64714	5121.8125
2711.25533	5177.3125
2713.86191	5150.4125
2716.46687	5176.2125
2719.07021	5169.9125
2721.67194	5164.7125
2724.27206	5173.3125
2726.87057	5182.2125
2729.46747	5196.8125
2732.06276	5196.5125
2734.65644	5185.6125
2737.24852	5176.3125
2739.83899	5179.6125
2742.42786	5188.0125
2745.01513	5152.5125
2747.60079	5179.8125
2750.18486	5172.4125
2752.76733	5157.5125
2755.3482	5159.1125
2757.92747	5156.7125
2760.50515	5151.6125
2763.08123	5149.7125
2765.65573	5158.9125
2768.22863	5153.0125
2770.79994	5134.6125
2773.36967	5130.3125
2775.9378	5143.1125
2778.50435	5146.1125
2781.06932	5139.6125
2783.6327	5122.7125
2786.1945	5127.5125
2788.75471	5119.7125
2791.31335	5122.7125
2793.87041	5125.1125
2796.42589	5096.4125
2798.97979	5110.5125
2801.53212	5101.8125
2804.08288	5096.8125
2806.63206	5091.5125
2809.17967	5086.4125
2811.72571	5056.9125
2814.27018	5048.7125
2816.81308	5063.1125
2819.35442	5043.3125
2821.89419	5043.2125
2824.43239	5049.5125
2826.96904	5040.0125
2829.50412	5052.0125
2832.03763	5039.0125
2834.56959	5048.4125
2837.1	5050.0125
2839.62884	5059.0125
2842.15613	5079.1125
2844.68186	5118.3125
2847.20604	5129.1125
2849.72867	5157.8125
2852.24974	5152.0125
2854.76927	5140.1125
2857.28724	5143.8125
2859.80367	5141.6125
2862.31855	5125.8125
2864.83189	5127.6125
2867.34368	5125.9125
2869.85393	5115.7125
2872.36264	5123.4125
2874.8698	5111.8125
2877.37543	5109.7125
2879.87952	5101.9125
2882.38207	5103.9125
2884.88308	5117.0125
2887.38256	5118.7125
2889.88051	5116.1125
2892.37692	5103.8125
2894.8718	5122.3125
2897.36515	5145.7125
2899.85698	5151.2125
2902.34727	5170.2125
2904.83604	5163.1125
2907.32328	5182.7125
2909.809	5161.1125
2912.29319	5187.1125
2914.77587	5177.0125
2917.25702	5156.5125
2919.73665	5166.9125
2922.21476	5182.3125
2924.69136	5173.4125
2927.16644	5180.0125
2929.64	5191.8125
2932.11205	5174.2125
2934.58258	5172.0125
2937.05161	5185.4125
2939.51912	5196.2125
2941.98513	5142.4125
2944.44962	5142.0125
2946.91261	5118.2125
2949.37409	5119.8125
2951.83407	5125.3125
2954.29254	5094.8125
2956.74951	5103.5125
2959.20498	5099.4125
2961.65895	5073.4125
2964.11142	5078.2125
2966.56239	5064.8125
2969.01186	5036.0125
2971.45984	5031.1125
2973.90632	5040.2125
2976.35131	5030.2125
2978.7948	5011.8125
2981.23681	5005.5125
2983.67732	5007.8125
2986.11635	4971.3125
2988.55388	4974.9125
2990.98993	4943.3125
2993.4245	4965.5125
2995.85758	4952.8125
2998.28917	4925.6125
3000.71928	4922.5125
3003.14791	4934.2125
3005.57506	4913.6125
3008.00073	4907.8125
3010.42493	4904.1125
3012.84764	4904.9125
3015.26888	4910.6125
3017.68865	4896.4125
3020.10694	4884.8125
3022.52376	4878.6125
3024.9391	4863.4125
3027.35298	4862.4125
3029.76539	4869.6125
3032.17632	4850.8125
3034.5858	4866.7125
3036.9938	4868.6125
3039.40034	4852.8125
3041.80542	4863.4125
3044.20903	4844.7125
3046.61118	4848.0125
3049.01187	4853.0125
3051.4111	4854.7125
3053.80888	4839.8125
3056.20519	4836.2125
3058.60005	4827.5125
3060.99345	4824.9125
3063.3854	4829.2125
3065.7759	4794.3125
3068.16494	4786.1125
3070.55254	4798.9125
3072.93868	4783.4125
3075.32338	4778.5125
3077.70662	4770.4125
3080.08842	4757.7125
3082.46878	4761.7125
3084.84769	4752.3125
3087.22515	4783.7125
3089.60118	4766.3125
3091.97576	4752.1125
3094.3489	4788.8125
3096.72061	4784.8125
3099.09087	4799.4125
3101.4597	4767.6125
3103.82709	4789.6125
3106.19305	4792.8125
3108.55757	4779.6125
