Data from AgNPs_FTO_APTES_UA_1uM_CRN_100uM_R6G_10uM_NaF_0.1M_Addition_RamanShift__18__16-41-39-786.txt Node

Date: Thu Jan 27 16:41:39 GMT 2022
User: TCL
Spectrometer: QEP01345
Trigger mode: 4
Integration Time (sec): 7.000000E0
Scans to average: 10
Electric dark correction enabled: true
Nonlinearity correction enabled: false
Boxcar width: 0
XAxis mode: Raman Shifts
Number of Pixels in Spectrum: 1044
>>>>>Begin Spectral Data<<<<<
46.04893	-0.1625
50.45542	0.6375
54.85868	-1.4625
59.25871	0.0375
63.6555	40.3375
68.04907	45.2375
72.43941	44.5375
76.82654	47.6375
81.21044	50.4375
85.59113	51.7375
89.96862	53.1375
94.34289	57.7375
98.71396	61.6375
103.08183	59.3375
107.4465	63.0375
111.80798	62.9375
116.16626	64.6375
120.52136	70.0375
124.87327	64.3375
129.222	66.2375
133.56755	71.3375
137.90993	75.4375
142.24913	78.3375
146.58517	86.7375
150.91804	100.2375
155.24774	115.8375
159.57429	138.5375
163.89768	173.8375
168.21792	230.8375
172.53501	312.4375
176.84895	419.8375
181.15975	589.5375
185.46741	818.7375
189.77193	1132.1375
194.07331	1514.4375
198.37157	1952.1375
202.6667	2406.9375
206.9587	2855.3375
211.24758	3317.5375
215.53334	3745.9375
219.81599	4222.3375
224.09553	4729.1375
228.37195	5281.9375
232.64527	5902.9375
236.91549	6569.6375
241.18261	7240.1375
245.44663	7856.0375
249.70755	8422.1375
253.96539	8942.7375
258.22014	9350.6375
262.4718	9704.0375
266.72039	9955.8375
270.96589	10111.2375
275.20832	10134.1375
279.44768	10134.0375
283.68397	10056.1375
287.91719	10009.5375
292.14735	9991.1375
296.37445	9991.4375
300.59849	10027.5375
304.81948	10017.4375
309.03742	9993.1375
313.25231	9849.8375
317.46415	9618.3375
321.67296	9348.5375
325.87872	9120.9375
330.08145	9027.0375
334.28114	8979.3375
338.47781	9032.0375
342.67145	9129.2375
346.86207	9258.3375
351.04966	9419.6375
355.23424	9575.2375
359.4158	9690.0375
363.59435	9788.2375
367.76989	9878.5375
371.94243	9959.9375
376.11196	9996.3375
380.27849	10077.8375
384.44203	10114.6375
388.60257	10229.2375
392.76012	10332.2375
396.91468	10439.1375
401.06626	10569.9375
405.21485	10664.4375
409.36047	10622.2375
413.50311	10519.1375
417.64277	10435.6375
421.77947	10401.4375
425.9132	10431.2375
430.04396	10474.9375
434.17176	10572.3375
438.2966	10630.6375
442.41849	10800.3375
446.53742	11017.2375
450.6534	11283.0375
454.76644	11517.5375
458.87653	11632.8375
462.98368	11668.3375
467.08789	11603.3375
471.18916	11514.8375
475.2875	11446.1375
479.38291	11438.5375
483.4754	11411.0375
487.56496	11287.8375
491.6516	11046.8375
495.73531	10880.0375
499.81612	10774.6375
503.89401	10827.8375
507.96899	10865.0375
512.04106	10839.3375
516.11023	10777.7375
520.1765	10660.5375
524.23987	10547.6375
528.30034	10455.3375
532.35792	10369.7375
536.41261	10292.9375
540.46441	10198.2375
544.51333	10227.6375
548.55936	10374.8375
552.60252	10598.5375
556.64279	10821.3375
560.6802	10956.8375
564.71473	11047.5375
568.7464	11204.0375
572.7752	11420.8375
576.80114	11608.5375
580.82422	11794.7375
584.84444	11938.3375
588.86181	12050.5375
592.87633	12167.1375
596.888	12196.3375
600.89682	12222.5375
604.9028	12430.7375
608.90594	13116.9375
612.90624	13780.3375
616.90371	13043.0375
620.89834	11380.3375
624.89015	10696.7375
628.87913	10667.6375
632.86528	10757.9375
636.84862	10730.3375
640.82913	10592.9375
644.80683	10353.8375
648.78172	10161.6375
652.75379	10096.0375
656.72306	10109.1375
660.68952	10248.5375
664.65319	10218.1375
668.61405	10096.1375
672.57211	10047.8375
676.52738	10065.4375
680.47986	10099.8375
684.42955	10071.7375
688.37646	10051.1375
692.32058	10058.0375
696.26192	10110.0375
700.20048	10181.3375
704.13626	10255.2375
708.06928	10243.9375
711.99952	10194.1375
715.927	10182.4375
719.85171	10177.6375
723.77365	10154.7375
727.69284	10090.7375
731.60928	9992.7375
735.52295	9973.8375
739.43388	9965.1375
743.34206	9978.9375
747.24749	10035.1375
751.15017	10115.9375
755.05012	10241.8375
758.94733	10513.9375
762.8418	10970.3375
766.73354	11610.5375
770.62254	12239.0375
774.50882	12368.3375
778.39237	11873.0375
782.27321	11107.1375
786.15132	10523.8375
790.02671	10152.3375
793.89938	10023.1375
797.76935	9943.2375
801.6366	9950.7375
805.50115	9913.4375
809.36299	9863.1375
813.22213	9798.6375
817.07857	9756.5375
820.93231	9747.2375
824.78336	9699.4375
828.63172	9680.3375
832.47738	9654.8375
836.32036	9660.7375
840.16066	9719.0375
843.99827	9749.0375
847.8332	9714.1375
851.66546	9661.7375
855.49504	9652.8375
859.32195	9658.8375
863.1462	9628.0375
866.96777	9614.2375
870.78668	9578.6375
874.60293	9574.5375
878.41652	9566.6375
882.22745	9557.4375
886.03573	9616.5375
889.84136	9585.8375
893.64433	9589.7375
897.44466	9547.6375
901.24235	9524.7375
905.0374	9480.7375
908.8298	9460.9375
912.61957	9486.0375
916.40671	9568.7375
920.19121	9693.0375
923.97308	9831.8375
927.75233	9796.1375
931.52895	9750.4375
935.30295	9674.7375
939.07433	9499.5375
942.84309	9356.0375
946.60924	9282.9375
950.37278	9229.1375
954.13371	9218.7375
957.89203	9192.8375
961.64774	9171.0375
965.40086	9140.8375
969.15137	9095.1375
972.89929	9072.6375
976.64461	9022.2375
980.38733	9023.2375
984.12747	9050.5375
987.86502	9085.4375
991.59999	9192.9375
995.33237	9341.9375
999.06217	9563.5375
1002.78939	9842.6375
1006.51404	9950.2375
1010.23611	9979.1375
1013.95561	10028.3375
1017.67255	10059.8375
1021.38692	10002.2375
1025.09872	9917.6375
1028.80796	9995.3375
1032.51465	10216.9375
1036.21877	10496.2375
1039.92035	10540.9375
1043.61937	10424.8375
1047.31584	10197.5375
1051.00976	10011.6375
1054.70114	9876.2375
1058.38998	9933.8375
1062.07627	9992.9375
1065.76003	10056.0375
1069.44126	10093.0375
1073.11995	10194.8375
1076.79611	10270.8375
1080.46974	10317.7375
1084.14085	10359.9375
1087.80943	10406.4375
1091.47549	10451.1375
1095.13903	10467.0375
1098.80005	10387.2375
1102.45857	10212.4375
1106.11456	10073.5375
1109.76805	9993.8375
1113.41903	10005.7375
1117.06751	10065.5375
1120.71348	10136.4375
1124.35696	10239.4375
1127.99793	10348.1375
1131.63641	10408.6375
1135.2724	10373.8375
1138.90589	10289.3375
1142.5369	10277.9375
1146.16542	10317.1375
1149.79145	10376.5375
1153.415	10480.3375
1157.03607	10661.0375
1160.65467	10906.1375
1164.27079	11287.5375
1167.88443	11823.2375
1171.49561	12488.8375
1175.10432	13266.5375
1178.71056	14240.0375
1182.31434	15155.8375
1185.91565	15704.7375
1189.51451	15728.8375
1193.11091	15401.8375
1196.70485	14853.0375
1200.29634	14294.3375
1203.88538	13850.8375
1207.47197	13570.0375
1211.05612	13302.2375
1214.63782	13073.3375
1218.21708	12852.2375
1221.79391	12636.1375
1225.36829	12483.4375
1228.94024	12309.8375
1232.50976	12110.8375
1236.07685	11917.2375
1239.6415	11796.9375
1243.20374	11812.2375
1246.76355	11885.5375
1250.32093	12043.5375
1253.8759	12222.9375
1257.42845	12543.3375
1260.97859	12808.4375
1264.52631	13069.0375
1268.07163	13421.2375
1271.61453	13734.8375
1275.15503	14159.1375
1278.69312	14618.6375
1282.22882	15006.8375
1285.76211	15373.6375
1289.29301	15815.8375
1292.82151	16362.4375
1296.34761	17133.3375
1299.87133	18093.8375
1303.39266	19133.3375
1306.9116	20178.0375
1310.42815	21132.2375
1313.94233	21707.7375
1317.45412	21711.4375
1320.96354	21363.6375
1324.47058	21047.4375
1327.97525	20725.8375
1331.47754	20552.8375
1334.97747	20432.8375
1338.47502	20349.3375
1341.97022	20291.4375
1345.46305	20134.3375
1348.95352	19780.8375
1352.44163	19456.1375
1355.92738	19394.7375
1359.41078	19765.5375
1362.89183	20159.2375
1366.37053	19814.8375
1369.84688	18481.3375
1373.32088	16880.6375
1376.79254	15734.3375
1380.26186	15294.6375
1383.72883	15308.9375
1387.19347	15410.7375
1390.65578	15408.6375
1394.11575	15460.7375
1397.57339	15639.7375
1401.0287	15962.4375
1404.48168	16232.1375
1407.93234	16187.1375
1411.38068	15905.9375
1414.82669	15342.2375
1418.27039	14652.9375
1421.71177	13988.1375
1425.15083	13446.3375
1428.58758	13117.3375
1432.02203	13090.2375
1435.45416	13331.9375
1438.88399	13708.9375
1442.31151	14100.7375
1445.73673	14341.7375
1449.15965	14602.6375
1452.58027	14838.2375
1455.9986	14968.1375
1459.41463	15102.6375
1462.82837	15270.5375
1466.23982	15496.7375
1469.64898	15682.6375
1473.05586	15773.5375
1476.46045	15724.6375
1479.86276	15606.7375
1483.26279	15370.3375
1486.66054	15178.9375
1490.05602	15041.4375
1493.44922	15057.5375
1496.84016	15130.1375
1500.22882	15326.6375
1503.61521	15685.9375
1506.99934	16160.9375
1510.38121	16614.8375
1513.76081	16800.3375
1517.13816	16589.0375
1520.51324	16186.9375
1523.88607	15793.0375
1527.25665	15566.9375
1530.62498	15503.2375
1533.99105	15469.0375
1537.35488	15373.0375
1540.71647	15238.2375
1544.07581	14916.9375
1547.4329	14636.8375
1550.78776	14364.6375
1554.14038	14183.5375
1557.49077	14070.9375
1560.83892	14012.6375
1564.18484	13997.6375
1567.52853	13998.5375
1570.86999	14117.7375
1574.20922	14323.9375
1577.54624	14557.8375
1580.88103	14693.7375
1584.2136	14826.4375
1587.54395	15152.1375
1590.87208	15762.0375
1594.19801	16500.9375
1597.52172	17302.3375
1600.84321	17540.1375
1604.16251	16870.7375
1607.47959	15707.2375
1610.79447	14491.8375
1614.10715	13367.8375
1617.41763	12420.5375
1620.7259	11751.7375
1624.03199	11349.3375
1627.33587	11322.6375
1630.63757	11550.7375
1633.93707	12166.7375
1637.23439	13129.6375
1640.52951	14498.8375
1643.82246	16028.1375
1647.11321	17260.7375
1650.40179	17535.7375
1653.68819	16595.3375
1656.97241	14806.8375
1660.25446	12932.1375
1663.53433	11435.7375
1666.81203	10445.2375
1670.08756	9816.9375
1673.36092	9417.3375
1676.63211	9135.5375
1679.90115	8931.5375
1683.16801	8805.8375
1686.43272	8696.6375
1689.69527	8599.3375
1692.95567	8506.1375
1696.2139	8455.5375
1699.46999	8383.3375
1702.72392	8311.9375
1705.97571	8305.0375
1709.22535	8340.3375
1712.47284	8345.2375
1715.71819	8344.8375
1718.96139	8339.1375
1722.20246	8310.7375
1725.44139	8282.5375
1728.67818	8227.0375
1731.91284	8207.3375
1735.14537	8151.7375
1738.37576	8130.4375
1741.60403	8109.0375
1744.83017	8085.5375
1748.05418	8063.0375
1751.27607	8034.1375
1754.49584	8020.4375
1757.71349	7987.4375
1760.92903	7949.9375
1764.14244	7932.8375
1767.35375	7931.2375
1770.56294	7920.3375
1773.77002	7909.2375
1776.97499	7889.7375
1780.17785	7910.3375
1783.37861	7922.2375
1786.57727	7894.4375
1789.77382	7891.5375
1792.96828	7846.0375
1796.16064	7846.9375
1799.3509	7837.7375
1802.53907	7828.5375
1805.72514	7809.0375
1808.90913	7803.4375
1812.09102	7781.8375
1815.27083	7773.2375
1818.44856	7746.6375
1821.6242	7730.6375
1824.79776	7702.8375
1827.96924	7721.6375
1831.13864	7691.6375
1834.30597	7710.3375
1837.47122	7717.1375
1840.6344	7719.2375
1843.7955	7704.1375
1846.95454	7700.7375
1850.11151	7680.8375
1853.26642	7683.4375
1856.41926	7669.3375
1859.57004	7699.0375
1862.71876	7677.4375
1865.86542	7683.4375
1869.01003	7677.3375
1872.15258	7661.7375
1875.29308	7645.2375
1878.43152	7645.8375
1881.56792	7635.3375
1884.70227	7631.4375
1887.83457	7621.4375
1890.96482	7621.6375
1894.09304	7597.6375
1897.21921	7609.5375
1900.34335	7589.4375
1903.46544	7604.3375
1906.58551	7583.4375
1909.70353	7559.2375
1912.81953	7560.6375
1915.93349	7557.8375
1919.04543	7526.7375
1922.15534	7519.9375
1925.26322	7510.3375
1928.36908	7494.2375
1931.47292	7477.6375
1934.57473	7472.3375
1937.67453	7440.3375
1940.77232	7439.0375
1943.86808	7408.7375
1946.96184	7373.5375
1950.05358	7355.5375
1953.14331	7321.0375
1956.23103	7299.9375
1959.31675	7287.4375
1962.40046	7265.6375
1965.48217	7251.3375
1968.56188	7230.9375
1971.63959	7216.1375
1974.7153	7179.3375
1977.78901	7178.9375
1980.86073	7157.6375
1983.93046	7124.1375
1986.99819	7102.0375
1990.06394	7088.1375
1993.1277	7063.4375
1996.18947	7042.4375
1999.24925	7032.7375
2002.30706	7020.0375
2005.36288	6980.6375
2008.41672	6977.6375
2011.46859	6950.7375
2014.51848	6938.2375
2017.56639	6922.4375
2020.61233	6904.3375
2023.6563	6886.3375
2026.6983	6860.3375
2029.73833	6873.4375
2032.7764	6851.3375
2035.8125	6842.4375
2038.84664	6829.0375
2041.87881	6809.1375
2044.90903	6805.3375
2047.93729	6775.8375
2050.96359	6774.5375
2053.98794	6775.6375
2057.01034	6786.4375
2060.03078	6760.8375
2063.04927	6757.6375
2066.06582	6769.7375
2069.08042	6751.6375
2072.09307	6743.1375
2075.10378	6745.2375
2078.11255	6745.7375
2081.11938	6749.6375
2084.12426	6746.9375
2087.12722	6731.6375
2090.12824	6723.4375
2093.12732	6715.4375
2096.12447	6719.7375
2099.11969	6708.0375
2102.11299	6737.2375
2105.10435	6755.1375
2108.09379	6726.3375
2111.08131	6746.1375
2114.0669	6732.5375
2117.05057	6740.3375
2120.03233	6739.8375
2123.01216	6769.5375
2125.99008	6761.1375
2128.96609	6764.9375
2131.94018	6777.0375
2134.91236	6783.7375
2137.88263	6784.3375
2140.851	6787.4375
2143.81746	6794.7375
2146.78201	6807.2375
2149.74466	6779.6375
2152.7054	6776.5375
2155.66425	6786.4375
2158.6212	6799.6375
2161.57625	6780.4375
2164.52941	6776.3375
2167.48067	6791.4375
2170.43004	6794.7375
2173.37752	6767.7375
2176.32311	6810.4375
2179.26681	6783.7375
2182.20863	6773.1375
2185.14856	6785.0375
2188.08661	6794.5375
2191.02278	6805.0375
2193.95707	6788.0375
2196.88948	6784.9375
2199.82001	6770.5375
2202.74867	6756.0375
2205.67545	6773.3375
2208.60037	6743.4375
2211.52341	6737.7375
2214.44458	6752.3375
2217.36388	6744.1375
2220.28132	6749.8375
2223.1969	6733.2375
2226.11061	6715.4375
2229.02246	6686.6375
2231.93245	6680.9375
2234.84058	6668.7375
2237.74686	6665.2375
2240.65128	6655.2375
2243.55385	6639.1375
2246.45456	6634.7375
2249.35343	6606.3375
2252.25044	6613.5375
2255.14561	6605.3375
2258.03893	6583.4375
2260.93041	6580.7375
2263.82004	6557.0375
2266.70783	6545.1375
2269.59378	6524.0375
2272.4779	6502.5375
2275.36017	6510.5375
2278.24061	6510.8375
2281.11922	6483.1375
2283.996	6492.4375
2286.87094	6469.5375
2289.74405	6449.2375
2292.61534	6443.6375
2295.4848	6457.5375
2298.35243	6471.1375
2301.21824	6458.2375
2304.08223	6449.8375
2306.94439	6454.7375
2309.80474	6469.5375
2312.66327	6444.6375
2315.51999	6462.5375
2318.37489	6444.2375
2321.22797	6436.9375
2324.07925	6444.2375
2326.92871	6430.8375
2329.77637	6427.7375
2332.62222	6420.3375
2335.46626	6417.9375
2338.3085	6409.3375
2341.14893	6414.3375
2343.98756	6406.8375
2346.8244	6388.6375
2349.65943	6410.2375
2352.49267	6402.5375
2355.32411	6401.2375
2358.15376	6397.9375
2360.98161	6404.6375
2363.80768	6385.9375
2366.63195	6398.1375
2369.45444	6370.9375
2372.27514	6365.5375
2375.09405	6359.6375
2377.91118	6346.4375
2380.72652	6324.5375
2383.54009	6313.1375
2386.35187	6314.6375
2389.16188	6296.9375
2391.97011	6289.0375
2394.77657	6280.9375
2397.58125	6271.4375
2400.38416	6268.7375
2403.18529	6238.9375
2405.98466	6250.0375
2408.78226	6226.3375
2411.57809	6221.8375
2414.37216	6197.3375
2417.16446	6201.7375
2419.955	6204.0375
2422.74378	6172.1375
2425.5308	6192.1375
2428.31606	6182.6375
2431.09956	6180.7375
2433.88131	6185.7375
2436.6613	6182.5375
2439.43954	6181.5375
2442.21603	6173.3375
2444.99077	6177.6375
2447.76377	6172.0375
2450.53501	6174.8375
2453.30451	6162.8375
2456.07226	6145.3375
2458.83827	6162.3375
2461.60254	6140.9375
2464.36507	6157.6375
2467.12586	6144.3375
2469.88492	6146.3375
2472.64224	6141.8375
2475.39782	6133.9375
2478.15167	6140.7375
2480.90379	6131.1375
2483.65417	6149.2375
2486.40283	6141.7375
2489.14976	6164.5375
2491.89497	6144.4375
2494.63845	6140.0375
2497.3802	6141.3375
2500.12024	6159.6375
2502.85855	6159.2375
2505.59514	6159.9375
2508.33002	6163.2375
2511.06318	6143.3375
2513.79462	6134.2375
2516.52435	6123.3375
2519.25237	6119.9375
2521.97867	6114.4375
2524.70327	6127.9375
2527.42616	6116.3375
2530.14734	6107.7375
2532.86681	6113.0375
2535.58458	6097.0375
2538.30065	6096.8375
2541.01501	6081.5375
2543.72768	6091.4375
2546.43864	6063.9375
2549.14791	6062.7375
2551.85548	6056.6375
2554.56136	6033.4375
2557.26554	6037.5375
2559.96803	6046.3375
2562.66883	6043.1375
2565.36794	6031.8375
2568.06536	6016.5375
2570.7611	6037.8375
2573.45514	6025.5375
2576.14751	6018.5375
2578.83819	6019.9375
2581.52719	6015.5375
2584.21451	5992.0375
2586.90015	6008.7375
2589.58411	6001.2375
2592.2664	6005.3375
2594.94701	5981.5375
2597.62594	5986.5375
2600.30321	5973.9375
2602.9788	5966.2375
2605.65273	5970.4375
2608.32498	5974.2375
2610.99557	5961.2375
2613.66449	5977.9375
2616.33175	5956.8375
2618.99734	5954.3375
2621.66128	5971.3375
2624.32355	5958.4375
2626.98416	5979.2375
2629.64311	5976.1375
2632.30041	5974.9375
2634.95605	5959.9375
2637.61004	5973.5375
2640.26238	5947.9375
2642.91306	5935.1375
2645.56209	5921.2375
2648.20948	5939.8375
2650.85521	5911.8375
2653.4993	5923.2375
2656.14175	5951.3375
2658.78255	5952.2375
2661.42171	5938.6375
2664.05923	5941.1375
2666.6951	5937.3375
2669.32934	5960.4375
2671.96194	5947.8375
2674.59291	5945.4375
2677.22224	5941.9375
2679.84993	5934.7375
2682.476	5941.9375
2685.10043	5930.6375
2687.72324	5919.1375
2690.34441	5928.8375
2692.96396	5900.7375
2695.58188	5917.3375
2698.19818	5922.2375
2700.81285	5909.2375
2703.4259	5914.7375
2706.03733	5890.6375
2708.64714	5893.2375
2711.25533	5903.6375
2713.86191	5924.7375
2716.46687	5911.6375
2719.07021	5930.2375
2721.67194	5956.8375
2724.27206	5928.3375
2726.87057	5943.0375
2729.46747	5961.0375
2732.06276	5974.1375
2734.65644	5939.0375
2737.24852	5950.5375
2739.83899	5931.9375
2742.42786	5943.1375
2745.01513	5928.6375
2747.60079	5934.0375
2750.18486	5932.8375
2752.76733	5927.1375
2755.3482	5935.3375
2757.92747	5944.0375
2760.50515	5907.0375
2763.08123	5928.0375
2765.65573	5907.6375
2768.22863	5933.0375
2770.79994	5912.1375
2773.36967	5900.4375
2775.9378	5924.9375
2778.50435	5917.6375
2781.06932	5911.9375
2783.6327	5900.1375
2786.1945	5898.2375
2788.75471	5899.0375
2791.31335	5877.5375
2793.87041	5890.5375
2796.42589	5871.8375
2798.97979	5871.3375
2801.53212	5861.9375
2804.08288	5846.0375
2806.63206	5841.1375
2809.17967	5831.3375
2811.72571	5833.2375
2814.27018	5816.2375
2816.81308	5810.0375
2819.35442	5812.7375
2821.89419	5817.3375
2824.43239	5795.7375
2826.96904	5787.3375
2829.50412	5780.7375
2832.03763	5776.0375
2834.56959	5784.1375
2837.1	5767.0375
2839.62884	5783.9375
2842.15613	5779.5375
2844.68186	5800.4375
2847.20604	5797.4375
2849.72867	5807.6375
2852.24974	5781.7375
2854.76927	5792.8375
2857.28724	5780.7375
2859.80367	5774.8375
2862.31855	5771.5375
2864.83189	5764.8375
2867.34368	5762.1375
2869.85393	5753.6375
2872.36264	5758.3375
2874.8698	5741.7375
2877.37543	5768.8375
2879.87952	5744.0375
2882.38207	5745.2375
2884.88308	5757.4375
2887.38256	5769.4375
2889.88051	5749.9375
2892.37692	5776.2375
2894.8718	5772.8375
2897.36515	5780.9375
2899.85698	5772.6375
2902.34727	5806.9375
2904.83604	5816.9375
2907.32328	5829.8375
2909.809	5798.3375
2912.29319	5833.0375
2914.77587	5838.8375
2917.25702	5836.8375
2919.73665	5825.0375
2922.21476	5820.3375
2924.69136	5821.5375
2927.16644	5833.2375
2929.64	5828.5375
2932.11205	5810.5375
2934.58258	5801.9375
2937.05161	5800.0375
2939.51912	5805.7375
2941.98513	5790.4375
2944.44962	5792.9375
2946.91261	5747.4375
2949.37409	5783.6375
2951.83407	5780.6375
2954.29254	5765.2375
2956.74951	5757.6375
2959.20498	5753.6375
2961.65895	5734.2375
2964.11142	5743.5375
2966.56239	5708.7375
2969.01186	5711.9375
2971.45984	5712.3375
2973.90632	5704.7375
2976.35131	5696.0375
2978.7948	5701.9375
2981.23681	5681.6375
2983.67732	5677.4375
2986.11635	5652.4375
2988.55388	5649.9375
2990.98993	5631.7375
2993.4245	5644.3375
2995.85758	5612.0375
2998.28917	5597.2375
3000.71928	5607.4375
3003.14791	5598.2375
3005.57506	5582.6375
3008.00073	5552.7375
3010.42493	5555.8375
3012.84764	5570.2375
3015.26888	5558.3375
3017.68865	5546.0375
3020.10694	5547.6375
3022.52376	5546.7375
3024.9391	5527.9375
3027.35298	5534.9375
3029.76539	5537.7375
3032.17632	5505.2375
3034.5858	5521.1375
3036.9938	5519.3375
3039.40034	5514.7375
3041.80542	5515.1375
3044.20903	5503.2375
3046.61118	5512.0375
3049.01187	5494.7375
3051.4111	5502.6375
3053.80888	5482.2375
3056.20519	5496.7375
3058.60005	5471.2375
3060.99345	5461.5375
3063.3854	5438.3375
3065.7759	5429.0375
3068.16494	5425.5375
3070.55254	5414.9375
3072.93868	5421.7375
3075.32338	5398.9375
3077.70662	5383.4375
3080.08842	5393.1375
3082.46878	5379.6375
3084.84769	5373.7375
3087.22515	5396.3375
3089.60118	5379.0375
3091.97576	5370.1375
