Data from AgNPs_FTO_APTES_UA_1uM_CRN_500uM_R6G_10uM_NaF_0.1M_Addition_RamanShift__23__18-11-29-889.txt Node

Date: Thu Jan 27 18:11:29 GMT 2022
User: TCL
Spectrometer: QEP01345
Trigger mode: 4
Integration Time (sec): 7.000000E0
Scans to average: 10
Electric dark correction enabled: true
Nonlinearity correction enabled: false
Boxcar width: 0
XAxis mode: Raman Shifts
Number of Pixels in Spectrum: 1044
>>>>>Begin Spectral Data<<<<<
46.04893	1.025
50.45542	0.125
54.85868	-2.175
59.25871	-1.075
63.6555	45.225
68.04907	46.125
72.43941	49.225
76.82654	53.425
81.21044	54.225
85.59113	56.325
89.96862	57.925
94.34289	60.425
98.71396	62.125
103.08183	62.325
107.4465	68.225
111.80798	68.925
116.16626	67.325
120.52136	76.225
124.87327	73.625
129.222	72.225
133.56755	76.725
137.90993	84.125
142.24913	87.925
146.58517	96.725
150.91804	110.025
155.24774	122.325
159.57429	149.425
163.89768	186.625
168.21792	248.125
172.53501	326.625
176.84895	448.125
181.15975	617.125
185.46741	870.625
189.77193	1188.425
194.07331	1607.725
198.37157	2066.125
202.6667	2543.925
206.9587	3041.325
211.24758	3517.325
215.53334	3994.325
219.81599	4508.325
224.09553	5053.025
228.37195	5680.725
232.64527	6361.325
236.91549	7071.225
241.18261	7758.725
245.44663	8441.125
249.70755	9029.825
253.96539	9543.425
258.22014	9951.125
262.4718	10324.025
266.72039	10560.625
270.96589	10687.225
275.20832	10712.025
279.44768	10627.225
283.68397	10521.525
287.91719	10419.325
292.14735	10347.125
296.37445	10347.125
300.59849	10382.025
304.81948	10381.225
309.03742	10372.925
313.25231	10245.925
317.46415	10015.125
321.67296	9702.925
325.87872	9483.825
330.08145	9343.625
334.28114	9344.425
338.47781	9408.025
342.67145	9523.425
346.86207	9684.825
351.04966	9868.925
355.23424	10077.125
359.4158	10270.825
363.59435	10413.725
367.76989	10497.925
371.94243	10615.225
376.11196	10676.825
380.27849	10757.625
384.44203	10814.625
388.60257	10877.925
392.76012	10949.025
396.91468	11046.125
401.06626	11233.525
405.21485	11358.825
409.36047	11346.625
413.50311	11194.125
417.64277	11072.825
421.77947	11031.425
425.9132	11095.125
430.04396	11138.725
434.17176	11219.325
438.2966	11339.725
442.41849	11517.325
446.53742	11823.925
450.6534	12141.925
454.76644	12411.025
458.87653	12457.225
462.98368	12371.425
467.08789	12225.725
471.18916	12044.525
475.2875	11909.725
479.38291	11842.025
483.4754	11771.425
487.56496	11618.325
491.6516	11484.225
495.73531	11340.225
499.81612	11303.425
503.89401	11344.525
507.96899	11375.525
512.04106	11358.325
516.11023	11322.425
520.1765	11225.125
524.23987	11142.725
528.30034	11060.025
532.35792	10965.825
536.41261	10890.225
540.46441	10769.725
544.51333	10720.425
548.55936	10819.125
552.60252	11030.725
556.64279	11253.825
560.6802	11411.525
564.71473	11520.825
568.7464	11708.825
572.7752	11941.225
576.80114	12082.125
580.82422	12193.025
584.84444	12352.325
588.86181	12602.625
592.87633	12877.325
596.888	13030.525
600.89682	12971.625
604.9028	13121.425
608.90594	13937.425
612.90624	14986.025
616.90371	14280.525
620.89834	12188.025
624.89015	11209.225
628.87913	11116.225
632.86528	11151.025
636.84862	11182.425
640.82913	11096.825
644.80683	10854.925
648.78172	10641.125
652.75379	10573.525
656.72306	10645.025
660.68952	10795.825
664.65319	10797.825
668.61405	10634.425
672.57211	10615.225
676.52738	10667.825
680.47986	10705.625
684.42955	10686.025
688.37646	10643.125
692.32058	10585.125
696.26192	10657.725
700.20048	10730.025
704.13626	10823.425
708.06928	10759.325
711.99952	10683.225
715.927	10651.325
719.85171	10633.025
723.77365	10635.225
727.69284	10570.925
731.60928	10544.525
735.52295	10526.925
739.43388	10550.125
743.34206	10532.325
747.24749	10590.225
751.15017	10672.725
755.05012	10772.525
758.94733	11031.425
762.8418	11467.125
766.73354	12239.825
770.62254	12984.425
774.50882	13318.225
778.39237	12858.025
782.27321	11925.725
786.15132	11151.825
790.02671	10690.625
793.89938	10497.825
797.76935	10426.225
801.6366	10419.025
805.50115	10408.325
809.36299	10353.525
813.22213	10291.225
817.07857	10261.125
820.93231	10224.125
824.78336	10210.425
828.63172	10207.625
832.47738	10169.425
836.32036	10171.125
840.16066	10208.825
843.99827	10218.025
847.8332	10186.125
851.66546	10144.125
855.49504	10154.925
859.32195	10170.825
863.1462	10178.425
866.96777	10192.425
870.78668	10154.225
874.60293	10142.125
878.41652	10117.125
882.22745	10111.725
886.03573	10137.525
889.84136	10184.725
893.64433	10146.925
897.44466	10079.225
901.24235	10029.325
905.0374	9995.425
908.8298	9953.325
912.61957	9955.325
916.40671	10030.025
920.19121	10142.325
923.97308	10216.225
927.75233	10278.125
931.52895	10290.625
935.30295	10178.225
939.07433	10040.625
942.84309	9887.025
946.60924	9780.725
950.37278	9714.525
954.13371	9685.825
957.89203	9650.625
961.64774	9626.525
965.40086	9588.425
969.15137	9560.225
972.89929	9503.525
976.64461	9466.225
980.38733	9438.725
984.12747	9476.325
987.86502	9535.525
991.59999	9661.025
995.33237	9789.525
999.06217	9990.325
1002.78939	10249.525
1006.51404	10381.025
1010.23611	10464.125
1013.95561	10560.625
1017.67255	10551.225
1021.38692	10468.125
1025.09872	10339.825
1028.80796	10308.425
1032.51465	10478.225
1036.21877	10621.725
1039.92035	10678.225
1043.61937	10583.825
1047.31584	10467.625
1051.00976	10307.825
1054.70114	10238.825
1058.38998	10234.125
1062.07627	10269.625
1065.76003	10345.325
1069.44126	10428.025
1073.11995	10517.525
1076.79611	10610.225
1080.46974	10644.425
1084.14085	10651.925
1087.80943	10706.725
1091.47549	10770.425
1095.13903	10755.625
1098.80005	10653.225
1102.45857	10456.425
1106.11456	10332.525
1109.76805	10314.725
1113.41903	10375.325
1117.06751	10484.825
1120.71348	10634.125
1124.35696	10772.625
1127.99793	10943.925
1131.63641	11056.125
1135.2724	10911.025
1138.90589	10737.725
1142.5369	10675.025
1146.16542	10654.925
1149.79145	10645.625
1153.415	10677.025
1157.03607	10800.325
1160.65467	11044.625
1164.27079	11440.225
1167.88443	11991.225
1171.49561	12678.525
1175.10432	13522.925
1178.71056	14604.725
1182.31434	15596.825
1185.91565	16083.525
1189.51451	15969.625
1193.11091	15504.725
1196.70485	14899.425
1200.29634	14288.425
1203.88538	13836.125
1207.47197	13488.925
1211.05612	13182.125
1214.63782	12938.325
1218.21708	12780.025
1221.79391	12690.525
1225.36829	12645.725
1228.94024	12508.425
1232.50976	12283.825
1236.07685	12080.925
1239.6415	11952.025
1243.20374	11916.625
1246.76355	11941.525
1250.32093	12062.425
1253.8759	12282.125
1257.42845	12564.725
1260.97859	12842.725
1264.52631	13126.225
1268.07163	13445.525
1271.61453	13777.925
1275.15503	14163.325
1278.69312	14552.325
1282.22882	14838.225
1285.76211	15222.125
1289.29301	15610.425
1292.82151	16180.325
1296.34761	16929.325
1299.87133	17877.925
1303.39266	18965.825
1306.9116	20167.525
1310.42815	21355.625
1313.94233	22166.725
1317.45412	22195.425
1320.96354	21720.625
1324.47058	21073.825
1327.97525	20500.625
1331.47754	20074.025
1334.97747	19926.325
1338.47502	19928.325
1341.97022	19867.425
1345.46305	19656.325
1348.95352	19409.725
1352.44163	19375.525
1355.92738	19763.325
1359.41078	20566.025
1362.89183	21460.025
1366.37053	21376.925
1369.84688	19776.725
1373.32088	17659.225
1376.79254	16029.725
1380.26186	15289.525
1383.72883	15150.625
1387.19347	15145.025
1390.65578	15008.025
1394.11575	15017.025
1397.57339	15267.625
1401.0287	15723.425
1404.48168	16208.525
1407.93234	16499.625
1411.38068	16445.325
1414.82669	16111.925
1418.27039	15537.625
1421.71177	14809.625
1425.15083	14212.325
1428.58758	13846.825
1432.02203	13811.225
1435.45416	14029.625
1438.88399	14391.125
1442.31151	14703.425
1445.73673	14972.925
1449.15965	15219.025
1452.58027	15370.125
1455.9986	15379.925
1459.41463	15370.625
1462.82837	15542.525
1466.23982	15848.725
1469.64898	16185.225
1473.05586	16411.925
1476.46045	16507.525
1479.86276	16465.825
1483.26279	16368.725
1486.66054	16154.825
1490.05602	16086.725
1493.44922	16043.025
1496.84016	15992.025
1500.22882	15983.325
1503.61521	16284.725
1506.99934	16761.025
1510.38121	17349.925
1513.76081	17569.825
1517.13816	17148.325
1520.51324	16443.225
1523.88607	15745.425
1527.25665	15275.025
1530.62498	15142.525
1533.99105	15055.525
1537.35488	15004.725
1540.71647	14935.125
1544.07581	14786.025
1547.4329	14607.925
1550.78776	14454.725
1554.14038	14230.625
1557.49077	14157.625
1560.83892	14110.425
1564.18484	14103.125
1567.52853	14061.225
1570.86999	14146.825
1574.20922	14344.825
1577.54624	14533.625
1580.88103	14567.925
1584.2136	14548.225
1587.54395	14791.625
1590.87208	15454.425
1594.19801	16421.425
1597.52172	17501.225
1600.84321	18087.125
1604.16251	17611.125
1607.47959	16390.725
1610.79447	14972.125
1614.10715	13611.225
1617.41763	12507.625
1620.7259	11788.425
1624.03199	11409.125
1627.33587	11336.525
1630.63757	11613.225
1633.93707	12221.325
1637.23439	13257.025
1640.52951	14701.825
1643.82246	16487.025
1647.11321	17921.825
1650.40179	18305.825
1653.68819	17209.925
1656.97241	15110.925
1660.25446	13032.625
1663.53433	11496.125
1666.81203	10564.125
1670.08756	9986.825
1673.36092	9630.925
1676.63211	9415.325
1679.90115	9229.225
1683.16801	9124.125
1686.43272	9001.425
1689.69527	8922.425
1692.95567	8842.325
1696.2139	8758.825
1699.46999	8703.525
1702.72392	8644.825
1705.97571	8663.925
1709.22535	8678.125
1712.47284	8684.025
1715.71819	8672.725
1718.96139	8663.525
1722.20246	8665.625
1725.44139	8632.025
1728.67818	8571.525
1731.91284	8543.725
1735.14537	8517.625
1738.37576	8493.525
1741.60403	8474.725
1744.83017	8453.925
1748.05418	8420.525
1751.27607	8433.825
1754.49584	8386.025
1757.71349	8370.125
1760.92903	8336.025
1764.14244	8290.725
1767.35375	8280.725
1770.56294	8261.625
1773.77002	8262.125
1776.97499	8241.125
1780.17785	8262.125
1783.37861	8263.825
1786.57727	8251.925
1789.77382	8232.125
1792.96828	8205.725
1796.16064	8219.525
1799.3509	8188.325
1802.53907	8170.625
1805.72514	8152.025
1808.90913	8127.525
1812.09102	8125.725
1815.27083	8113.925
1818.44856	8108.225
1821.6242	8061.625
1824.79776	8063.525
1827.96924	8047.025
1831.13864	8060.225
1834.30597	8052.025
1837.47122	8041.325
1840.6344	8052.125
1843.7955	8036.625
1846.95454	8026.225
1850.11151	8050.025
1853.26642	8052.025
1856.41926	8041.625
1859.57004	8066.025
1862.71876	8045.425
1865.86542	8067.925
1869.01003	8057.825
1872.15258	8048.425
1875.29308	8050.725
1878.43152	8032.925
1881.56792	8037.825
1884.70227	8037.425
1887.83457	8022.025
1890.96482	8013.625
1894.09304	8015.625
1897.21921	8001.825
1900.34335	7993.725
1903.46544	7994.725
1906.58551	7993.825
1909.70353	7992.025
1912.81953	7981.725
1915.93349	7970.625
1919.04543	7958.125
1922.15534	7947.825
1925.26322	7928.825
1928.36908	7903.725
1931.47292	7898.525
1934.57473	7859.625
1937.67453	7831.925
1940.77232	7816.625
1943.86808	7797.225
1946.96184	7762.925
1950.05358	7753.025
1953.14331	7732.325
1956.23103	7678.825
1959.31675	7683.325
1962.40046	7661.925
1965.48217	7630.125
1968.56188	7598.925
1971.63959	7604.525
1974.7153	7564.225
1977.78901	7567.525
1980.86073	7525.225
1983.93046	7507.825
1986.99819	7481.825
1990.06394	7457.725
1993.1277	7437.725
1996.18947	7429.625
1999.24925	7404.025
2002.30706	7381.925
2005.36288	7371.125
2008.41672	7363.625
2011.46859	7341.425
2014.51848	7324.625
2017.56639	7310.925
2020.61233	7297.425
2023.6563	7258.725
2026.6983	7266.325
2029.73833	7239.625
2032.7764	7216.625
2035.8125	7193.425
2038.84664	7192.225
2041.87881	7193.125
2044.90903	7183.025
2047.93729	7158.825
2050.96359	7161.825
2053.98794	7128.825
2057.01034	7142.925
2060.03078	7154.125
2063.04927	7134.625
2066.06582	7124.125
2069.08042	7141.125
2072.09307	7127.725
2075.10378	7116.725
2078.11255	7121.725
2081.11938	7121.925
2084.12426	7107.425
2087.12722	7106.125
2090.12824	7099.625
2093.12732	7116.525
2096.12447	7103.425
2099.11969	7108.625
2102.11299	7113.525
2105.10435	7108.425
2108.09379	7114.125
2111.08131	7137.825
2114.0669	7128.025
2117.05057	7140.625
2120.03233	7145.425
2123.01216	7122.125
2125.99008	7156.525
2128.96609	7156.125
2131.94018	7157.525
2134.91236	7176.025
2137.88263	7158.525
2140.851	7166.325
2143.81746	7168.925
2146.78201	7159.625
2149.74466	7180.325
2152.7054	7169.425
2155.66425	7156.725
2158.6212	7146.125
2161.57625	7148.925
2164.52941	7155.025
2167.48067	7158.825
2170.43004	7181.425
2173.37752	7173.525
2176.32311	7168.525
2179.26681	7154.025
2182.20863	7153.825
2185.14856	7160.825
2188.08661	7184.425
2191.02278	7178.925
2193.95707	7160.325
2196.88948	7174.525
2199.82001	7164.025
2202.74867	7142.025
2205.67545	7148.325
2208.60037	7147.325
2211.52341	7127.225
2214.44458	7113.725
2217.36388	7123.925
2220.28132	7111.425
2223.1969	7112.725
2226.11061	7095.125
2229.02246	7075.325
2231.93245	7071.725
2234.84058	7047.425
2237.74686	7041.125
2240.65128	7058.825
2243.55385	7015.125
2246.45456	7021.525
2249.35343	6980.425
2252.25044	6985.025
2255.14561	6971.425
2258.03893	6965.925
2260.93041	6973.525
2263.82004	6926.925
2266.70783	6922.625
2269.59378	6904.725
2272.4779	6883.625
2275.36017	6891.225
2278.24061	6863.925
2281.11922	6863.725
2283.996	6849.825
2286.87094	6846.325
2289.74405	6815.425
2292.61534	6827.225
2295.4848	6804.325
2298.35243	6826.425
2301.21824	6802.525
2304.08223	6823.525
2306.94439	6816.625
2309.80474	6821.225
2312.66327	6815.225
2315.51999	6809.525
2318.37489	6822.825
2321.22797	6792.025
2324.07925	6806.125
2326.92871	6795.325
2329.77637	6792.125
2332.62222	6770.125
2335.46626	6758.125
2338.3085	6769.825
2341.14893	6775.225
2343.98756	6784.825
2346.8244	6745.625
2349.65943	6750.925
2352.49267	6745.525
2355.32411	6769.825
2358.15376	6744.625
2360.98161	6763.625
2363.80768	6747.525
2366.63195	6763.225
2369.45444	6735.825
2372.27514	6728.325
2375.09405	6721.625
2377.91118	6711.525
2380.72652	6692.925
2383.54009	6677.425
2386.35187	6697.625
2389.16188	6644.425
2391.97011	6643.525
2394.77657	6635.925
2397.58125	6620.325
2400.38416	6593.925
2403.18529	6609.425
2405.98466	6596.725
2408.78226	6585.525
2411.57809	6571.225
2414.37216	6571.625
2417.16446	6536.025
2419.955	6535.525
2422.74378	6553.025
2425.5308	6549.825
2428.31606	6528.025
2431.09956	6544.625
2433.88131	6539.625
2436.6613	6535.325
2439.43954	6528.525
2442.21603	6514.025
2444.99077	6519.925
2447.76377	6519.925
2450.53501	6508.225
2453.30451	6524.125
2456.07226	6512.125
2458.83827	6480.625
2461.60254	6502.325
2464.36507	6505.825
2467.12586	6502.525
2469.88492	6506.625
2472.64224	6509.425
2475.39782	6515.225
2478.15167	6486.225
2480.90379	6492.525
2483.65417	6507.625
2486.40283	6504.125
2489.14976	6505.825
2491.89497	6490.825
2494.63845	6504.925
2497.3802	6488.625
2500.12024	6503.325
2502.85855	6501.225
2505.59514	6497.425
2508.33002	6505.325
2511.06318	6477.125
2513.79462	6466.325
2516.52435	6463.125
2519.25237	6459.525
2521.97867	6455.825
2524.70327	6447.325
2527.42616	6429.425
2530.14734	6442.425
2532.86681	6428.025
2535.58458	6437.525
2538.30065	6425.225
2541.01501	6433.625
2543.72768	6404.825
2546.43864	6401.625
2549.14791	6407.625
2551.85548	6395.025
2554.56136	6385.025
2557.26554	6362.425
2559.96803	6375.325
2562.66883	6363.725
2565.36794	6361.625
2568.06536	6371.725
2570.7611	6355.025
2573.45514	6371.225
2576.14751	6331.925
2578.83819	6323.025
2581.52719	6327.025
2584.21451	6320.725
2586.90015	6329.425
2589.58411	6332.625
2592.2664	6345.525
2594.94701	6315.225
2597.62594	6306.225
2600.30321	6304.225
2602.9788	6289.125
2605.65273	6256.725
2608.32498	6289.725
2610.99557	6286.825
2613.66449	6282.525
2616.33175	6280.125
2618.99734	6285.125
2621.66128	6289.525
2624.32355	6271.725
2626.98416	6288.025
2629.64311	6301.925
2632.30041	6280.925
2634.95605	6247.825
2637.61004	6257.925
2640.26238	6257.225
2642.91306	6258.825
2645.56209	6248.325
2648.20948	6217.825
2650.85521	6235.225
2653.4993	6241.525
2656.14175	6245.625
2658.78255	6261.925
2661.42171	6260.225
2664.05923	6259.625
2666.6951	6257.025
2669.32934	6277.925
2671.96194	6267.925
2674.59291	6256.725
2677.22224	6257.025
2679.84993	6259.725
2682.476	6263.525
2685.10043	6251.425
2687.72324	6252.825
2690.34441	6261.525
2692.96396	6240.425
2695.58188	6264.925
2698.19818	6250.225
2700.81285	6251.125
2703.4259	6242.325
2706.03733	6237.225
2708.64714	6247.325
2711.25533	6262.825
2713.86191	6255.225
2716.46687	6256.225
2719.07021	6256.025
2721.67194	6272.925
2724.27206	6262.925
2726.87057	6282.125
2729.46747	6281.325
2732.06276	6285.025
2734.65644	6275.225
2737.24852	6284.725
2739.83899	6264.725
2742.42786	6300.625
2745.01513	6266.225
2747.60079	6273.225
2750.18486	6278.525
2752.76733	6256.325
2755.3482	6240.325
2757.92747	6259.825
2760.50515	6260.425
2763.08123	6263.225
2765.65573	6267.925
2768.22863	6262.725
2770.79994	6247.925
2773.36967	6259.225
2775.9378	6264.925
2778.50435	6251.725
2781.06932	6262.925
2783.6327	6247.825
2786.1945	6255.625
2788.75471	6236.225
2791.31335	6227.225
2793.87041	6216.025
2796.42589	6208.425
2798.97979	6219.425
2801.53212	6216.625
2804.08288	6208.325
2806.63206	6208.825
2809.17967	6184.425
2811.72571	6173.425
2814.27018	6167.225
2816.81308	6148.625
2819.35442	6159.325
2821.89419	6152.325
2824.43239	6144.525
2826.96904	6125.925
2829.50412	6130.225
2832.03763	6118.225
2834.56959	6127.625
2837.1	6153.725
2839.62884	6145.725
2842.15613	6170.925
2844.68186	6181.525
2847.20604	6210.625
2849.72867	6228.825
2852.24974	6202.725
2854.76927	6216.725
2857.28724	6198.025
2859.80367	6199.425
2862.31855	6191.625
2864.83189	6181.925
2867.34368	6174.725
2869.85393	6179.025
2872.36264	6189.225
2874.8698	6169.925
2877.37543	6184.225
2879.87952	6181.925
2882.38207	6193.125
2884.88308	6209.125
2887.38256	6195.325
2889.88051	6184.025
2892.37692	6197.025
2894.8718	6210.925
2897.36515	6238.025
2899.85698	6227.925
2902.34727	6268.025
2904.83604	6279.525
2907.32328	6279.925
2909.809	6275.825
2912.29319	6281.525
2914.77587	6298.325
2917.25702	6293.525
2919.73665	6278.125
2922.21476	6303.425
2924.69136	6296.825
2927.16644	6291.125
2929.64	6287.925
2932.11205	6287.625
2934.58258	6272.125
2937.05161	6283.625
2939.51912	6261.625
2941.98513	6271.125
2944.44962	6236.025
2946.91261	6198.825
2949.37409	6209.225
2951.83407	6203.625
2954.29254	6188.425
2956.74951	6159.225
2959.20498	6166.925
2961.65895	6150.425
2964.11142	6155.425
2966.56239	6135.225
2969.01186	6129.625
2971.45984	6093.225
2973.90632	6084.325
2976.35131	6082.525
2978.7948	6053.925
2981.23681	6055.925
2983.67732	6052.925
2986.11635	6014.225
2988.55388	6018.925
2990.98993	5996.825
2993.4245	5970.625
2995.85758	5949.225
2998.28917	5976.125
3000.71928	5942.825
3003.14791	5937.625
3005.57506	5949.025
3008.00073	5930.925
3010.42493	5928.325
3012.84764	5921.725
3015.26888	5921.525
3017.68865	5911.525
3020.10694	5902.125
3022.52376	5877.525
3024.9391	5875.625
3027.35298	5874.125
3029.76539	5874.325
3032.17632	5857.225
3034.5858	5843.725
3036.9938	5857.525
3039.40034	5848.725
3041.80542	5856.925
3044.20903	5835.925
3046.61118	5833.525
3049.01187	5849.425
3051.4111	5836.625
3053.80888	5811.625
3056.20519	5803.325
3058.60005	5812.725
3060.99345	5781.725
3063.3854	5782.025
3065.7759	5759.425
3068.16494	5762.225
3070.55254	5725.525
3072.93868	5728.325
3075.32338	5724.325
3077.70662	5715.725
3080.08842	5704.125
3082.46878	5697.525
3084.84769	5706.925
3087.22515	5712.625
3089.60118	5716.725
3091.97576	5708.525
3094.3489	5727.425
3096.72061	5720.025
3099.09087	5741.625
3101.4597	5728.125
3103.82709	5728.625
3106.19305	5735.925
3108.55757	5732.625
3110.92066	5735.025
3113.28232	5706.625
3115.64255	5683.525
3118.00134	5684.725
3120.35871	5676.025
3122.71466	5666.525
3125.06917	5676.025
3127.42226	5665.225
3129.77393	5668.625
3132.12417	5673.425
3134.47299	5671.325
3136.82039	5654.725
3139.16636	5689.725
3141.51092	5681.425
3143.85406	5679.025
3146.19579	5693.125
3148.53609	5691.125
3150.87499	5710.425
3153.21246	5728.925
3155.54853	5706.325
3157.88318	5728.925
3160.21642	5729.125
3162.54826	5744.125
3164.87868	5744.225
3167.2077	5749.225
3169.5353	5753.125
3171.86151	5750.725
3174.18631	5747.925
3176.5097	5751.925
3178.83169	5769.225
3181.15228	5758.625
3183.47147	5746.925
3185.78926	5748.025
3188.10565	5747.825
3190.42065	5751.425
3192.73424	5753.825
3195.04645	5751.425
