Data from AgNPs_FTO_APTES_UA_1uM_CRN_10uM_R6G_10uM_NaF_0.1M_Addition_RamanShift__9__14-26-19-632.txt Node

Date: Thu Jan 27 14:26:19 GMT 2022
User: TCL
Spectrometer: QEP01345
Trigger mode: 4
Integration Time (sec): 7.000000E0
Scans to average: 10
Electric dark correction enabled: true
Nonlinearity correction enabled: false
Boxcar width: 0
XAxis mode: Raman Shifts
Number of Pixels in Spectrum: 1044
>>>>>Begin Spectral Data<<<<<
46.04893	2.6875
50.45542	0.5875
54.85868	-1.3125
59.25871	-1.3125
63.6555	49.1875
68.04907	50.4875
72.43941	56.5875
76.82654	58.8875
81.21044	58.2875
85.59113	61.3875
89.96862	61.7875
94.34289	68.4875
98.71396	70.2875
103.08183	66.7875
107.4465	73.3875
111.80798	75.8875
116.16626	75.5875
120.52136	79.4875
124.87327	78.4875
129.222	79.9875
133.56755	86.3875
137.90993	90.6875
142.24913	95.9875
146.58517	108.7875
150.91804	126.5875
155.24774	146.3875
159.57429	176.8875
163.89768	220.2875
168.21792	296.3875
172.53501	394.2875
176.84895	546.8875
181.15975	755.2875
185.46741	1056.7875
189.77193	1460.8875
194.07331	1960.7875
198.37157	2527.3875
202.6667	3123.1875
206.9587	3714.8875
211.24758	4299.0875
215.53334	4875.0875
219.81599	5485.6875
224.09553	6135.6875
228.37195	6867.8875
232.64527	7675.0875
236.91549	8537.8875
241.18261	9412.1875
245.44663	10231.9875
249.70755	10972.1875
253.96539	11648.7875
258.22014	12214.8875
262.4718	12657.5875
266.72039	12984.5875
270.96589	13130.3875
275.20832	13178.3875
279.44768	13124.1875
283.68397	12988.1875
287.91719	12826.3875
292.14735	12781.9875
296.37445	12728.0875
300.59849	12755.1875
304.81948	12798.2875
309.03742	12800.0875
313.25231	12733.9875
317.46415	12546.2875
321.67296	12301.3875
325.87872	12097.0875
330.08145	11978.4875
334.28114	11954.7875
338.47781	12013.0875
342.67145	12173.7875
346.86207	12344.6875
351.04966	12533.5875
355.23424	12748.2875
359.4158	12949.4875
363.59435	13091.6875
367.76989	13207.1875
371.94243	13278.5875
376.11196	13370.7875
380.27849	13409.5875
384.44203	13455.7875
388.60257	13512.7875
392.76012	13630.7875
396.91468	13837.4875
401.06626	14042.4875
405.21485	14148.5875
409.36047	14096.8875
413.50311	13952.6875
417.64277	13889.2875
421.77947	13905.1875
425.9132	13962.7875
430.04396	14022.8875
434.17176	14096.4875
438.2966	14146.4875
442.41849	14284.3875
446.53742	14502.9875
450.6534	14798.6875
454.76644	15030.5875
458.87653	15095.4875
462.98368	15066.4875
467.08789	14985.0875
471.18916	14821.1875
475.2875	14652.1875
479.38291	14556.1875
483.4754	14446.1875
487.56496	14364.0875
491.6516	14211.3875
495.73531	14105.9875
499.81612	14068.4875
503.89401	14100.1875
507.96899	14180.0875
512.04106	14198.9875
516.11023	14151.1875
520.1765	14043.2875
524.23987	13912.4875
528.30034	13792.9875
532.35792	13689.9875
536.41261	13593.2875
540.46441	13487.4875
544.51333	13480.7875
548.55936	13550.8875
552.60252	13799.9875
556.64279	14034.5875
560.6802	14216.8875
564.71473	14262.7875
568.7464	14427.6875
572.7752	14727.1875
576.80114	15094.3875
580.82422	15486.0875
584.84444	15957.9875
588.86181	16504.7875
592.87633	16934.8875
596.888	16835.5875
600.89682	16272.1875
604.9028	16065.0875
608.90594	16831.4875
612.90624	17755.1875
616.90371	16953.8875
620.89834	14855.8875
624.89015	13890.3875
628.87913	13787.6875
632.86528	13903.6875
636.84862	13912.7875
640.82913	13763.3875
644.80683	13509.3875
648.78172	13350.5875
652.75379	13333.9875
656.72306	13445.3875
660.68952	13620.6875
664.65319	13587.7875
668.61405	13402.2875
672.57211	13370.9875
676.52738	13441.7875
680.47986	13406.1875
684.42955	13328.8875
688.37646	13283.3875
692.32058	13321.5875
696.26192	13468.7875
700.20048	13639.6875
704.13626	13736.7875
708.06928	13714.3875
711.99952	13719.7875
715.927	13702.8875
719.85171	13662.7875
723.77365	13673.2875
727.69284	13481.5875
731.60928	13332.7875
735.52295	13266.1875
739.43388	13251.8875
743.34206	13301.0875
747.24749	13342.9875
751.15017	13459.3875
755.05012	13624.8875
758.94733	13918.5875
762.8418	14419.8875
766.73354	15199.9875
770.62254	15926.9875
774.50882	16072.3875
778.39237	15576.5875
782.27321	14781.9875
786.15132	14097.5875
790.02671	13634.8875
793.89938	13409.3875
797.76935	13326.7875
801.6366	13296.5875
805.50115	13230.1875
809.36299	13176.2875
813.22213	13117.2875
817.07857	13055.9875
820.93231	13038.0875
824.78336	12990.0875
828.63172	12960.6875
832.47738	12945.6875
836.32036	12916.0875
840.16066	12909.9875
843.99827	12907.8875
847.8332	12911.5875
851.66546	12912.6875
855.49504	12900.5875
859.32195	12897.9875
863.1462	12889.8875
866.96777	12865.4875
870.78668	12860.8875
874.60293	12871.5875
878.41652	12872.8875
882.22745	12904.1875
886.03573	12947.4875
889.84136	12976.6875
893.64433	12931.5875
897.44466	12857.0875
901.24235	12851.2875
905.0374	12793.2875
908.8298	12760.5875
912.61957	12788.4875
916.40671	12857.6875
920.19121	13014.1875
923.97308	13109.6875
927.75233	13107.5875
931.52895	13029.5875
935.30295	12898.7875
939.07433	12689.8875
942.84309	12561.8875
946.60924	12493.0875
950.37278	12439.8875
954.13371	12438.0875
957.89203	12405.4875
961.64774	12429.7875
965.40086	12420.0875
969.15137	12378.3875
972.89929	12320.9875
976.64461	12301.9875
980.38733	12276.2875
984.12747	12277.6875
987.86502	12317.2875
991.59999	12390.6875
995.33237	12454.2875
999.06217	12603.9875
1002.78939	12787.4875
1006.51404	12977.8875
1010.23611	13166.3875
1013.95561	13273.8875
1017.67255	13277.8875
1021.38692	13208.7875
1025.09872	13061.4875
1028.80796	12935.9875
1032.51465	12924.9875
1036.21877	12978.2875
1039.92035	13014.6875
1043.61937	13049.1875
1047.31584	13026.6875
1051.00976	12994.4875
1054.70114	13027.8875
1058.38998	13088.0875
1062.07627	13189.4875
1065.76003	13272.9875
1069.44126	13448.8875
1073.11995	13621.7875
1076.79611	13796.4875
1080.46974	13904.8875
1084.14085	13903.5875
1087.80943	13995.1875
1091.47549	14064.3875
1095.13903	14115.7875
1098.80005	13991.7875
1102.45857	13745.7875
1106.11456	13505.4875
1109.76805	13375.5875
1113.41903	13342.7875
1117.06751	13394.8875
1120.71348	13505.9875
1124.35696	13613.6875
1127.99793	13743.3875
1131.63641	13823.1875
1135.2724	13759.0875
1138.90589	13712.5875
1142.5369	13733.5875
1146.16542	13754.1875
1149.79145	13818.6875
1153.415	13906.9875
1157.03607	13998.2875
1160.65467	14269.4875
1164.27079	14789.4875
1167.88443	15367.4875
1171.49561	16016.6875
1175.10432	16804.7875
1178.71056	17758.4875
1182.31434	18697.4875
1185.91565	19202.9875
1189.51451	19214.2875
1193.11091	18948.9875
1196.70485	18434.1875
1200.29634	17855.8875
1203.88538	17435.9875
1207.47197	17209.1875
1211.05612	17010.7875
1214.63782	16749.9875
1218.21708	16382.9875
1221.79391	15948.5875
1225.36829	15631.5875
1228.94024	15491.6875
1232.50976	15346.6875
1236.07685	15251.5875
1239.6415	15150.7875
1243.20374	15170.2875
1246.76355	15261.7875
1250.32093	15399.0875
1253.8759	15628.6875
1257.42845	15964.4875
1260.97859	16361.2875
1264.52631	16716.2875
1268.07163	17108.1875
1271.61453	17445.3875
1275.15503	17756.6875
1278.69312	18182.4875
1282.22882	18582.4875
1285.76211	19051.8875
1289.29301	19604.4875
1292.82151	20349.9875
1296.34761	21229.9875
1299.87133	22236.4875
1303.39266	23237.8875
1306.9116	24187.9875
1310.42815	24851.0875
1313.94233	25174.6875
1317.45412	25002.8875
1320.96354	24586.6875
1324.47058	24321.5875
1327.97525	24123.5875
1331.47754	24046.1875
1334.97747	23911.4875
1338.47502	23771.9875
1341.97022	23650.8875
1345.46305	23473.8875
1348.95352	23394.1875
1352.44163	23411.3875
1355.92738	23715.4875
1359.41078	24370.9875
1362.89183	24973.5875
1366.37053	24724.0875
1369.84688	23197.5875
1373.32088	21031.4875
1376.79254	19461.5875
1380.26186	18843.5875
1383.72883	18795.4875
1387.19347	18791.3875
1390.65578	18582.5875
1394.11575	18449.3875
1397.57339	18466.6875
1401.0287	18661.3875
1404.48168	18876.9875
1407.93234	18859.4875
1411.38068	18575.8875
1414.82669	18116.3875
1418.27039	17529.2875
1421.71177	16973.6875
1425.15083	16512.4875
1428.58758	16321.8875
1432.02203	16413.7875
1435.45416	16709.4875
1438.88399	17126.3875
1442.31151	17424.9875
1445.73673	17564.3875
1449.15965	17660.5875
1452.58027	17662.1875
1455.9986	17672.2875
1459.41463	17697.7875
1462.82837	17911.8875
1466.23982	18197.9875
1469.64898	18479.5875
1473.05586	18665.7875
1476.46045	18700.8875
1479.86276	18619.9875
1483.26279	18481.8875
1486.66054	18483.7875
1490.05602	18533.3875
1493.44922	18783.2875
1496.84016	19089.1875
1500.22882	19499.5875
1503.61521	20032.4875
1506.99934	20636.8875
1510.38121	21147.6875
1513.76081	21237.1875
1517.13816	20881.1875
1520.51324	20292.7875
1523.88607	19816.4875
1527.25665	19608.9875
1530.62498	19496.7875
1533.99105	19390.7875
1537.35488	19107.1875
1540.71647	18689.8875
1544.07581	18293.4875
1547.4329	17820.0875
1550.78776	17457.0875
1554.14038	17208.1875
1557.49077	17078.3875
1560.83892	17023.6875
1564.18484	16994.8875
1567.52853	17042.9875
1570.86999	17228.8875
1574.20922	17466.5875
1577.54624	17694.8875
1580.88103	17768.7875
1584.2136	17842.6875
1587.54395	18195.7875
1590.87208	18806.1875
1594.19801	19717.7875
1597.52172	20566.7875
1600.84321	20779.8875
1604.16251	20004.0875
1607.47959	18745.9875
1610.79447	17441.3875
1614.10715	16192.1875
1617.41763	15182.9875
1620.7259	14514.2875
1624.03199	14096.5875
1627.33587	14081.9875
1630.63757	14361.3875
1633.93707	15015.7875
1637.23439	16228.2875
1640.52951	18011.6875
1643.82246	20142.8875
1647.11321	21898.5875
1650.40179	22319.2875
1653.68819	20991.6875
1656.97241	18557.6875
1660.25446	16170.6875
1663.53433	14379.0875
1666.81203	13264.5875
1670.08756	12565.9875
1673.36092	12114.7875
1676.63211	11852.0875
1679.90115	11633.8875
1683.16801	11498.4875
1686.43272	11364.7875
1689.69527	11281.0875
1692.95567	11194.6875
1696.2139	11126.7875
1699.46999	11055.7875
1702.72392	11008.1875
1705.97571	11010.7875
1709.22535	11022.4875
1712.47284	11044.0875
1715.71819	11032.9875
1718.96139	11038.4875
1722.20246	10986.9875
1725.44139	10944.8875
1728.67818	10884.7875
1731.91284	10851.8875
1735.14537	10782.8875
1738.37576	10742.1875
1741.60403	10706.1875
1744.83017	10666.4875
1748.05418	10617.8875
1751.27607	10587.0875
1754.49584	10580.0875
1757.71349	10545.1875
1760.92903	10507.7875
1764.14244	10500.3875
1767.35375	10502.3875
1770.56294	10485.8875
1773.77002	10491.2875
1776.97499	10475.5875
1780.17785	10447.5875
1783.37861	10465.0875
1786.57727	10468.8875
1789.77382	10447.8875
1792.96828	10419.5875
1796.16064	10422.0875
1799.3509	10386.5875
1802.53907	10375.5875
1805.72514	10344.2875
1808.90913	10319.4875
1812.09102	10278.3875
1815.27083	10266.9875
1818.44856	10273.8875
1821.6242	10248.4875
1824.79776	10247.2875
1827.96924	10249.4875
1831.13864	10214.4875
1834.30597	10198.1875
1837.47122	10215.9875
1840.6344	10211.1875
1843.7955	10223.1875
1846.95454	10208.8875
1850.11151	10209.0875
1853.26642	10200.0875
1856.41926	10169.9875
1859.57004	10214.9875
1862.71876	10172.1875
1865.86542	10164.6875
1869.01003	10122.9875
1872.15258	10114.8875
1875.29308	10095.2875
1878.43152	10077.8875
1881.56792	10090.3875
1884.70227	10055.2875
1887.83457	10042.3875
1890.96482	10030.4875
1894.09304	10008.1875
1897.21921	10001.4875
1900.34335	9975.6875
1903.46544	9955.7875
1906.58551	9973.7875
1909.70353	9932.1875
1912.81953	9936.8875
1915.93349	9923.8875
1919.04543	9878.8875
1922.15534	9858.4875
1925.26322	9851.3875
1928.36908	9848.4875
1931.47292	9812.0875
1934.57473	9776.9875
1937.67453	9747.8875
1940.77232	9737.1875
1943.86808	9702.8875
1946.96184	9678.8875
1950.05358	9635.0875
1953.14331	9615.7875
1956.23103	9624.9875
1959.31675	9574.0875
1962.40046	9567.4875
1965.48217	9525.1875
1968.56188	9502.4875
1971.63959	9468.8875
1974.7153	9447.7875
1977.78901	9416.5875
1980.86073	9362.2875
1983.93046	9349.2875
1986.99819	9329.9875
1990.06394	9292.7875
1993.1277	9256.9875
1996.18947	9219.5875
1999.24925	9191.6875
2002.30706	9190.1875
2005.36288	9175.5875
2008.41672	9149.7875
2011.46859	9106.9875
2014.51848	9071.7875
2017.56639	9041.4875
2020.61233	9052.8875
2023.6563	9026.9875
2026.6983	8992.0875
2029.73833	8976.3875
2032.7764	8934.4875
2035.8125	8939.1875
2038.84664	8901.6875
2041.87881	8911.8875
2044.90903	8883.0875
2047.93729	8856.4875
2050.96359	8851.0875
2053.98794	8826.6875
2057.01034	8838.7875
2060.03078	8816.0875
2063.04927	8815.7875
2066.06582	8818.6875
2069.08042	8803.8875
2072.09307	8804.5875
2075.10378	8787.7875
2078.11255	8764.1875
2081.11938	8785.0875
2084.12426	8778.0875
2087.12722	8754.6875
2090.12824	8767.4875
2093.12732	8787.6875
2096.12447	8762.0875
2099.11969	8743.8875
2102.11299	8799.1875
2105.10435	8782.2875
2108.09379	8790.9875
2111.08131	8778.0875
2114.0669	8774.6875
2117.05057	8779.8875
2120.03233	8789.1875
2123.01216	8794.1875
2125.99008	8812.5875
2128.96609	8822.7875
2131.94018	8826.3875
2134.91236	8820.4875
2137.88263	8804.8875
2140.851	8804.9875
2143.81746	8840.5875
2146.78201	8843.8875
2149.74466	8826.6875
2152.7054	8830.4875
2155.66425	8814.6875
2158.6212	8828.0875
2161.57625	8812.0875
2164.52941	8818.1875
2167.48067	8814.2875
2170.43004	8807.7875
2173.37752	8811.5875
2176.32311	8800.6875
2179.26681	8802.5875
2182.20863	8802.8875
2185.14856	8782.9875
2188.08661	8816.2875
2191.02278	8807.2875
2193.95707	8798.5875
2196.88948	8784.4875
2199.82001	8771.2875
2202.74867	8771.5875
2205.67545	8757.6875
2208.60037	8744.6875
2211.52341	8723.5875
2214.44458	8722.0875
2217.36388	8693.7875
2220.28132	8685.3875
2223.1969	8675.7875
2226.11061	8645.3875
2229.02246	8629.4875
2231.93245	8623.8875
2234.84058	8600.0875
2237.74686	8588.6875
2240.65128	8600.2875
2243.55385	8585.3875
2246.45456	8568.1875
2249.35343	8538.6875
2252.25044	8530.2875
2255.14561	8490.9875
2258.03893	8502.0875
2260.93041	8481.6875
2263.82004	8447.2875
2266.70783	8444.8875
2269.59378	8437.6875
2272.4779	8396.0875
2275.36017	8379.5875
2278.24061	8383.9875
2281.11922	8370.1875
2283.996	8366.9875
2286.87094	8348.4875
2289.74405	8321.8875
2292.61534	8313.8875
2295.4848	8268.6875
2298.35243	8291.4875
2301.21824	8301.3875
2304.08223	8277.5875
2306.94439	8273.2875
2309.80474	8272.8875
2312.66327	8270.0875
2315.51999	8260.4875
2318.37489	8260.1875
2321.22797	8248.7875
2324.07925	8231.1875
2326.92871	8217.5875
2329.77637	8188.3875
2332.62222	8193.4875
2335.46626	8174.3875
2338.3085	8155.5875
2341.14893	8150.6875
2343.98756	8167.3875
2346.8244	8157.0875
2349.65943	8141.0875
2352.49267	8116.6875
2355.32411	8145.5875
2358.15376	8130.0875
2360.98161	8108.0875
2363.80768	8141.9875
2366.63195	8127.5875
2369.45444	8125.4875
2372.27514	8112.1875
2375.09405	8089.5875
2377.91118	8097.8875
2380.72652	8066.5875
2383.54009	8055.2875
2386.35187	8050.5875
2389.16188	8010.1875
2391.97011	7991.5875
2394.77657	7974.2875
2397.58125	7977.9875
2400.38416	7972.1875
2403.18529	7957.8875
2405.98466	7953.0875
2408.78226	7942.6875
2411.57809	7906.9875
2414.37216	7891.3875
2417.16446	7902.3875
2419.955	7888.0875
2422.74378	7911.3875
2425.5308	7888.9875
2428.31606	7888.5875
2431.09956	7865.4875
2433.88131	7839.8875
2436.6613	7839.4875
2439.43954	7855.0875
2442.21603	7862.6875
2444.99077	7840.5875
2447.76377	7838.9875
2450.53501	7834.6875
2453.30451	7840.0875
2456.07226	7822.1875
2458.83827	7805.7875
2461.60254	7801.5875
2464.36507	7809.7875
2467.12586	7787.9875
2469.88492	7792.1875
2472.64224	7792.5875
2475.39782	7785.7875
2478.15167	7787.1875
2480.90379	7758.1875
2483.65417	7794.0875
2486.40283	7780.2875
2489.14976	7756.5875
2491.89497	7768.8875
2494.63845	7758.2875
2497.3802	7743.9875
2500.12024	7766.6875
2502.85855	7753.2875
2505.59514	7745.7875
2508.33002	7758.2875
2511.06318	7738.2875
2513.79462	7733.2875
2516.52435	7702.0875
2519.25237	7694.0875
2521.97867	7709.2875
2524.70327	7685.7875
2527.42616	7693.5875
2530.14734	7668.1875
2532.86681	7646.7875
2535.58458	7644.7875
2538.30065	7649.6875
2541.01501	7641.7875
2543.72768	7625.8875
2546.43864	7615.9875
2549.14791	7603.7875
2551.85548	7599.5875
2554.56136	7579.4875
2557.26554	7575.8875
2559.96803	7573.4875
2562.66883	7576.4875
2565.36794	7558.0875
2568.06536	7554.1875
2570.7611	7550.4875
2573.45514	7535.0875
2576.14751	7514.4875
2578.83819	7499.2875
2581.52719	7488.6875
2584.21451	7483.9875
2586.90015	7485.6875
2589.58411	7483.0875
2592.2664	7457.2875
2594.94701	7435.2875
2597.62594	7437.7875
2600.30321	7443.6875
2602.9788	7429.1875
2605.65273	7416.8875
2608.32498	7414.4875
2610.99557	7409.5875
2613.66449	7409.8875
2616.33175	7400.4875
2618.99734	7405.2875
2621.66128	7392.6875
2624.32355	7373.3875
2626.98416	7381.3875
2629.64311	7362.1875
2632.30041	7364.2875
2634.95605	7353.0875
2637.61004	7331.8875
2640.26238	7317.1875
2642.91306	7326.5875
2645.56209	7309.1875
2648.20948	7353.2875
2650.85521	7302.2875
2653.4993	7309.3875
2656.14175	7325.8875
2658.78255	7337.4875
2661.42171	7341.6875
2664.05923	7338.9875
2666.6951	7340.9875
2669.32934	7322.3875
2671.96194	7346.9875
2674.59291	7338.1875
2677.22224	7358.0875
2679.84993	7342.0875
2682.476	7312.2875
2685.10043	7302.8875
2687.72324	7310.9875
2690.34441	7313.1875
2692.96396	7290.7875
2695.58188	7313.5875
2698.19818	7309.6875
2700.81285	7314.1875
2703.4259	7309.9875
2706.03733	7288.8875
2708.64714	7292.6875
2711.25533	7306.3875
2713.86191	7303.2875
2716.46687	7320.9875
2719.07021	7316.2875
2721.67194	7323.4875
2724.27206	7331.3875
2726.87057	7344.1875
2729.46747	7343.2875
2732.06276	7343.0875
2734.65644	7320.2875
2737.24852	7336.1875
2739.83899	7331.7875
2742.42786	7327.3875
2745.01513	7297.7875
2747.60079	7313.2875
2750.18486	7299.7875
2752.76733	7296.1875
2755.3482	7298.4875
2757.92747	7288.2875
2760.50515	7277.5875
2763.08123	7268.8875
2765.65573	7258.4875
2768.22863	7239.6875
2770.79994	7245.1875
2773.36967	7251.4875
2775.9378	7222.7875
2778.50435	7227.9875
2781.06932	7201.4875
2783.6327	7208.4875
2786.1945	7195.4875
2788.75471	7202.7875
2791.31335	7185.7875
2793.87041	7160.8875
2796.42589	7152.7875
2798.97979	7155.7875
2801.53212	7146.7875
2804.08288	7142.5875
2806.63206	7109.4875
2809.17967	7105.9875
2811.72571	7063.8875
2814.27018	7065.4875
2816.81308	7056.7875
2819.35442	7069.1875
2821.89419	7050.1875
2824.43239	7028.9875
2826.96904	7032.0875
2829.50412	7036.0875
2832.03763	7002.2875
2834.56959	7016.8875
2837.1	7006.6875
2839.62884	7026.4875
2842.15613	6992.3875
2844.68186	7008.6875
2847.20604	7012.4875
2849.72867	7020.2875
2852.24974	7010.7875
2854.76927	7003.7875
2857.28724	7017.7875
2859.80367	6985.2875
2862.31855	6983.5875
2864.83189	6972.4875
2867.34368	6961.5875
2869.85393	6960.1875
2872.36264	6943.8875
2874.8698	6926.1875
2877.37543	6949.6875
2879.87952	6923.3875
2882.38207	6941.1875
2884.88308	6916.4875
2887.38256	6920.3875
2889.88051	6925.2875
2892.37692	6909.6875
2894.8718	6899.7875
2897.36515	6951.9875
2899.85698	6926.5875
2902.34727	6937.5875
2904.83604	6932.0875
2907.32328	6943.0875
2909.809	6927.9875
2912.29319	6946.0875
2914.77587	6931.4875
2917.25702	6931.7875
2919.73665	6928.5875
2922.21476	6940.4875
2924.69136	6913.0875
2927.16644	6948.4875
2929.64	6926.3875
2932.11205	6924.3875
2934.58258	6901.7875
2937.05161	6912.2875
2939.51912	6907.8875
2941.98513	6885.6875
2944.44962	6859.7875
2946.91261	6834.7875
2949.37409	6862.0875
2951.83407	6840.1875
2954.29254	6854.8875
2956.74951	6816.3875
2959.20498	6832.1875
2961.65895	6821.6875
2964.11142	6812.2875
2966.56239	6822.6875
2969.01186	6798.5875
2971.45984	6794.8875
2973.90632	6762.1875
2976.35131	6766.7875
2978.7948	6739.8875
2981.23681	6735.4875
2983.67732	6726.7875
2986.11635	6704.7875
2988.55388	6694.9875
2990.98993	6680.7875
2993.4245	6668.5875
2995.85758	6665.4875
2998.28917	6632.6875
3000.71928	6651.6875
3003.14791	6627.1875
3005.57506	6613.0875
3008.00073	6621.1875
3010.42493	6617.6875
3012.84764	6598.0875
3015.26888	6588.9875
3017.68865	6553.6875
3020.10694	6553.1875
3022.52376	6529.1875
3024.9391	6533.2875
3027.35298	6519.7875
3029.76539	6510.6875
3032.17632	6520.9875
3034.5858	6514.6875
3036.9938	6495.4875
3039.40034	6499.3875
3041.80542	6519.2875
3044.20903	6478.6875
3046.61118	6484.8875
3049.01187	6484.2875
3051.4111	6461.3875
3053.80888	6457.4875
3056.20519	6455.8875
3058.60005	6430.7875
3060.99345	6410.8875
3063.3854	6388.5875
3065.7759	6381.8875
3068.16494	6368.9875
3070.55254	6353.3875
3072.93868	6356.2875
