Data from AgNPs_FTO_APTES_UA_1uM_CRN_0uM_R6G_10uM_NaF_0.1M_Addition_RamanShift__12__11-19-39-418.txt Node

Date: Thu Jan 27 11:19:39 GMT 2022
User: TCL
Spectrometer: QEP01345
Trigger mode: 4
Integration Time (sec): 7.000000E0
Scans to average: 10
Electric dark correction enabled: true
Nonlinearity correction enabled: false
Boxcar width: 0
XAxis mode: Raman Shifts
Number of Pixels in Spectrum: 1044
>>>>>Begin Spectral Data<<<<<
46.04893	-0.525
50.45542	0.975
54.85868	-1.125
59.25871	-1.325
63.6555	26.975
68.04907	25.975
72.43941	30.675
76.82654	31.475
81.21044	32.975
85.59113	34.975
89.96862	35.275
94.34289	36.975
98.71396	40.775
103.08183	37.275
107.4465	40.075
111.80798	41.375
116.16626	38.675
120.52136	45.975
124.87327	41.775
129.222	39.375
133.56755	42.775
137.90993	40.175
142.24913	41.875
146.58517	41.975
150.91804	47.775
155.24774	51.575
159.57429	57.175
163.89768	65.275
168.21792	84.575
172.53501	104.175
176.84895	136.275
181.15975	175.975
185.46741	240.175
189.77193	315.675
194.07331	416.675
198.37157	534.275
202.6667	657.675
206.9587	777.575
211.24758	888.275
215.53334	998.075
219.81599	1133.675
224.09553	1246.175
228.37195	1393.175
232.64527	1540.775
236.91549	1707.475
241.18261	1873.975
245.44663	2030.175
249.70755	2173.675
253.96539	2292.375
258.22014	2373.475
262.4718	2436.875
266.72039	2460.375
270.96589	2469.075
275.20832	2451.075
279.44768	2402.275
283.68397	2349.775
287.91719	2308.175
292.14735	2261.275
296.37445	2256.975
300.59849	2266.775
304.81948	2300.675
309.03742	2306.275
313.25231	2317.175
317.46415	2261.575
321.67296	2144.375
325.87872	2076.575
330.08145	2033.175
334.28114	2036.475
338.47781	2049.775
342.67145	2091.575
346.86207	2131.875
351.04966	2201.875
355.23424	2282.575
359.4158	2360.775
363.59435	2433.275
367.76989	2472.375
371.94243	2496.275
376.11196	2500.475
380.27849	2519.475
384.44203	2498.375
388.60257	2482.275
392.76012	2470.675
396.91468	2477.875
401.06626	2502.375
405.21485	2534.275
409.36047	2518.075
413.50311	2445.175
417.64277	2366.175
421.77947	2317.675
425.9132	2305.775
430.04396	2283.675
434.17176	2304.075
438.2966	2329.375
442.41849	2380.775
446.53742	2429.375
450.6534	2476.175
454.76644	2495.575
458.87653	2509.975
462.98368	2516.875
467.08789	2498.275
471.18916	2482.575
475.2875	2464.775
479.38291	2425.075
483.4754	2403.575
487.56496	2397.675
491.6516	2389.775
495.73531	2388.175
499.81612	2383.575
503.89401	2396.175
507.96899	2423.575
512.04106	2452.575
516.11023	2480.775
520.1765	2525.475
524.23987	2527.175
528.30034	2495.975
532.35792	2460.375
536.41261	2441.875
540.46441	2399.575
544.51333	2391.575
548.55936	2388.975
552.60252	2397.875
556.64279	2425.675
560.6802	2441.675
564.71473	2440.275
568.7464	2476.775
572.7752	2481.775
576.80114	2451.675
580.82422	2398.775
584.84444	2370.375
588.86181	2374.075
592.87633	2402.875
596.888	2426.475
600.89682	2483.975
604.9028	2601.875
608.90594	2948.875
612.90624	3485.475
616.90371	3508.375
620.89834	2878.475
624.89015	2525.775
628.87913	2460.475
632.86528	2444.375
636.84862	2469.875
640.82913	2456.675
644.80683	2402.575
648.78172	2373.775
652.75379	2368.175
656.72306	2415.775
660.68952	2495.575
664.65319	2493.475
668.61405	2412.975
672.57211	2370.675
676.52738	2382.175
680.47986	2381.475
684.42955	2381.675
688.37646	2377.075
692.32058	2374.175
696.26192	2381.275
700.20048	2383.975
704.13626	2393.775
708.06928	2391.575
711.99952	2359.975
715.927	2374.075
719.85171	2383.975
723.77365	2386.175
727.69284	2385.575
731.60928	2373.975
735.52295	2363.975
739.43388	2387.475
743.34206	2381.975
747.24749	2402.275
751.15017	2402.975
755.05012	2422.175
758.94733	2473.275
762.8418	2564.475
766.73354	2748.075
770.62254	2993.575
774.50882	3173.375
778.39237	3137.175
782.27321	2889.675
786.15132	2636.775
790.02671	2480.975
793.89938	2413.575
797.76935	2383.575
801.6366	2392.075
805.50115	2368.975
809.36299	2379.375
813.22213	2363.175
817.07857	2338.075
820.93231	2320.875
824.78336	2323.975
828.63172	2333.475
832.47738	2338.575
836.32036	2362.875
840.16066	2356.475
843.99827	2337.275
847.8332	2337.875
851.66546	2320.975
855.49504	2320.975
859.32195	2315.875
863.1462	2311.675
866.96777	2293.475
870.78668	2282.675
874.60293	2275.975
878.41652	2281.675
882.22745	2300.675
886.03573	2320.275
889.84136	2324.675
893.64433	2311.875
897.44466	2320.075
901.24235	2335.075
905.0374	2308.875
908.8298	2309.175
912.61957	2340.275
916.40671	2362.975
920.19121	2395.775
923.97308	2415.275
927.75233	2452.475
931.52895	2455.175
935.30295	2461.675
939.07433	2419.675
942.84309	2393.175
946.60924	2359.875
950.37278	2356.475
954.13371	2335.775
957.89203	2307.275
961.64774	2280.575
965.40086	2263.775
969.15137	2249.075
972.89929	2248.275
976.64461	2229.175
980.38733	2238.475
984.12747	2228.775
987.86502	2246.375
991.59999	2244.375
995.33237	2262.875
999.06217	2281.275
1002.78939	2298.475
1006.51404	2302.775
1010.23611	2328.275
1013.95561	2343.275
1017.67255	2334.375
1021.38692	2328.775
1025.09872	2316.075
1028.80796	2307.675
1032.51465	2309.375
1036.21877	2312.675
1039.92035	2343.875
1043.61937	2349.675
1047.31584	2357.175
1051.00976	2347.475
1054.70114	2328.475
1058.38998	2325.975
1062.07627	2320.075
1065.76003	2304.775
1069.44126	2290.875
1073.11995	2276.875
1076.79611	2291.675
1080.46974	2311.875
1084.14085	2332.875
1087.80943	2343.475
1091.47549	2334.075
1095.13903	2296.975
1098.80005	2236.275
1102.45857	2180.875
1106.11456	2156.275
1109.76805	2147.175
1113.41903	2190.675
1117.06751	2227.475
1120.71348	2262.075
1124.35696	2330.375
1127.99793	2383.975
1131.63641	2407.875
1135.2724	2338.475
1138.90589	2244.275
1142.5369	2174.275
1146.16542	2135.175
1149.79145	2080.875
1153.415	2063.975
1157.03607	2061.575
1160.65467	2096.975
1164.27079	2124.575
1167.88443	2199.875
1171.49561	2304.475
1175.10432	2470.475
1178.71056	2711.175
1182.31434	2940.675
1185.91565	3041.875
1189.51451	3031.375
1193.11091	2926.975
1196.70485	2791.575
1200.29634	2625.675
1203.88538	2507.175
1207.47197	2366.975
1211.05612	2242.175
1214.63782	2175.975
1218.21708	2140.975
1221.79391	2147.475
1225.36829	2165.875
1228.94024	2177.475
1232.50976	2176.075
1236.07685	2165.275
1239.6415	2159.775
1243.20374	2154.075
1246.76355	2159.375
1250.32093	2160.775
1253.8759	2172.775
1257.42845	2193.775
1260.97859	2219.075
1264.52631	2249.075
1268.07163	2295.375
1271.61453	2339.175
1275.15503	2372.775
1278.69312	2379.775
1282.22882	2389.575
1285.76211	2414.675
1289.29301	2465.575
1292.82151	2536.875
1296.34761	2601.975
1299.87133	2664.175
1303.39266	2791.475
1306.9116	2970.875
1310.42815	3169.575
1313.94233	3285.575
1317.45412	3213.375
1320.96354	3024.275
1324.47058	2809.975
1327.97525	2639.475
1331.47754	2584.775
1334.97747	2575.175
1338.47502	2617.775
1341.97022	2660.675
1345.46305	2734.375
1348.95352	2865.575
1352.44163	3078.175
1355.92738	3392.975
1359.41078	3799.075
1362.89183	4177.475
1366.37053	4207.975
1369.84688	3757.075
1373.32088	3246.175
1376.79254	2862.275
1380.26186	2676.075
1383.72883	2569.775
1387.19347	2488.475
1390.65578	2402.175
1394.11575	2327.675
1397.57339	2264.975
1401.0287	2228.475
1404.48168	2209.675
1407.93234	2215.975
1411.38068	2199.975
1414.82669	2212.875
1418.27039	2203.775
1421.71177	2188.775
1425.15083	2181.775
1428.58758	2186.575
1432.02203	2203.175
1435.45416	2227.075
1438.88399	2246.575
1442.31151	2249.075
1445.73673	2233.075
1449.15965	2202.275
1452.58027	2193.175
1455.9986	2154.775
1459.41463	2123.775
1462.82837	2107.975
1466.23982	2120.575
1469.64898	2147.875
1473.05586	2165.975
1476.46045	2166.175
1479.86276	2178.475
1483.26279	2200.775
1486.66054	2221.875
1490.05602	2253.675
1493.44922	2335.275
1496.84016	2426.475
1500.22882	2601.675
1503.61521	2855.775
1506.99934	3149.475
1510.38121	3401.875
1513.76081	3525.175
1517.13816	3387.575
1520.51324	3056.575
1523.88607	2671.775
1527.25665	2454.075
1530.62498	2311.075
1533.99105	2266.075
1537.35488	2230.375
1540.71647	2200.875
1544.07581	2195.175
1547.4329	2201.175
1550.78776	2198.075
1554.14038	2216.375
1557.49077	2236.675
1560.83892	2236.675
1564.18484	2267.575
1567.52853	2331.875
1570.86999	2393.875
1574.20922	2456.575
1577.54624	2472.675
1580.88103	2396.575
1584.2136	2247.975
1587.54395	2152.275
1590.87208	2104.775
1594.19801	2143.775
1597.52172	2219.575
1600.84321	2264.875
1604.16251	2244.975
1607.47959	2192.075
1610.79447	2092.275
1614.10715	1981.375
1617.41763	1926.175
1620.7259	1878.775
1624.03199	1840.875
1627.33587	1844.175
1630.63757	1844.475
1633.93707	1871.775
1637.23439	1917.075
1640.52951	1993.775
1643.82246	2147.675
1647.11321	2311.275
1650.40179	2456.875
1653.68819	2422.875
1656.97241	2213.575
1660.25446	1944.475
1663.53433	1741.175
1666.81203	1642.875
1670.08756	1578.775
1673.36092	1544.875
1676.63211	1539.575
1679.90115	1507.675
1683.16801	1473.175
1686.43272	1447.475
1689.69527	1417.675
1692.95567	1381.875
1696.2139	1326.475
1699.46999	1278.775
1702.72392	1248.975
1705.97571	1280.075
1709.22535	1320.875
1712.47284	1352.875
1715.71819	1365.775
1718.96139	1368.275
1722.20246	1377.175
1725.44139	1369.575
1728.67818	1351.175
1731.91284	1332.475
1735.14537	1317.275
1738.37576	1313.675
1741.60403	1297.475
1744.83017	1274.275
1748.05418	1258.775
1751.27607	1250.975
1754.49584	1228.875
1757.71349	1194.475
1760.92903	1168.775
1764.14244	1168.275
1767.35375	1163.975
1770.56294	1152.475
1773.77002	1160.375
1776.97499	1170.375
1780.17785	1197.275
1783.37861	1208.675
1786.57727	1213.375
1789.77382	1209.075
1792.96828	1202.975
1796.16064	1194.775
1799.3509	1194.375
1802.53907	1202.275
1805.72514	1199.775
1808.90913	1190.475
1812.09102	1182.375
1815.27083	1188.275
1818.44856	1175.975
1821.6242	1176.275
1824.79776	1176.175
1827.96924	1162.475
1831.13864	1166.475
1834.30597	1159.575
1837.47122	1156.275
1840.6344	1147.075
1843.7955	1153.575
1846.95454	1148.975
1850.11151	1149.375
1853.26642	1153.175
1856.41926	1141.675
1859.57004	1145.975
1862.71876	1138.275
1865.86542	1137.875
1869.01003	1138.375
1872.15258	1136.475
1875.29308	1123.775
1878.43152	1124.475
1881.56792	1131.375
1884.70227	1126.875
1887.83457	1115.175
1890.96482	1118.375
1894.09304	1119.075
1897.21921	1115.475
1900.34335	1111.975
1903.46544	1113.875
1906.58551	1107.675
1909.70353	1110.675
1912.81953	1111.775
1915.93349	1100.275
1919.04543	1099.475
1922.15534	1090.375
1925.26322	1094.475
1928.36908	1085.575
1931.47292	1081.275
1934.57473	1077.575
1937.67453	1082.975
1940.77232	1069.275
1943.86808	1066.775
1946.96184	1064.275
1950.05358	1061.175
1953.14331	1063.475
1956.23103	1055.375
1959.31675	1048.175
1962.40046	1046.875
1965.48217	1040.975
1968.56188	1036.675
1971.63959	1033.475
1974.7153	1036.775
1977.78901	1026.875
1980.86073	1025.475
1983.93046	1022.975
1986.99819	1022.275
1990.06394	1009.275
1993.1277	1004.775
1996.18947	1000.475
1999.24925	999.075
2002.30706	991.175
2005.36288	995.675
2008.41672	994.775
2011.46859	985.975
2014.51848	978.975
2017.56639	986.075
2020.61233	971.475
2023.6563	971.375
2026.6983	957.175
2029.73833	968.875
2032.7764	959.575
2035.8125	959.975
2038.84664	956.175
2041.87881	952.875
2044.90903	944.675
2047.93729	948.975
2050.96359	947.675
2053.98794	944.775
2057.01034	941.475
2060.03078	944.275
2063.04927	944.675
2066.06582	944.475
2069.08042	935.475
2072.09307	939.175
2075.10378	937.675
2078.11255	935.975
2081.11938	941.675
2084.12426	932.475
2087.12722	937.875
2090.12824	931.475
2093.12732	941.875
2096.12447	933.875
2099.11969	934.175
2102.11299	929.975
2105.10435	934.375
2108.09379	928.275
2111.08131	932.875
2114.0669	933.475
2117.05057	930.775
2120.03233	923.975
2123.01216	918.975
2125.99008	920.875
2128.96609	922.075
2131.94018	922.175
2134.91236	914.975
2137.88263	922.375
2140.851	929.275
2143.81746	918.575
2146.78201	915.375
2149.74466	918.975
2152.7054	907.875
2155.66425	912.875
2158.6212	917.875
2161.57625	912.275
2164.52941	910.075
2167.48067	906.275
2170.43004	907.275
2173.37752	910.975
2176.32311	903.275
2179.26681	905.875
2182.20863	900.675
2185.14856	911.775
2188.08661	909.875
2191.02278	901.575
2193.95707	905.075
2196.88948	901.875
2199.82001	898.375
2202.74867	893.775
2205.67545	895.775
2208.60037	891.575
2211.52341	893.675
2214.44458	880.075
2217.36388	879.575
2220.28132	876.575
2223.1969	874.975
2226.11061	868.075
2229.02246	874.675
2231.93245	859.175
2234.84058	858.275
2237.74686	858.175
2240.65128	859.575
2243.55385	854.875
2246.45456	852.275
2249.35343	857.575
2252.25044	852.175
2255.14561	854.075
2258.03893	845.175
2260.93041	829.375
2263.82004	839.975
2266.70783	841.675
2269.59378	838.575
2272.4779	841.875
2275.36017	834.375
2278.24061	831.275
2281.11922	830.075
2283.996	828.975
2286.87094	822.075
2289.74405	826.575
2292.61534	811.375
2295.4848	810.375
2298.35243	814.875
2301.21824	816.375
2304.08223	818.675
2306.94439	811.575
2309.80474	815.275
2312.66327	816.575
2315.51999	807.175
2318.37489	813.575
2321.22797	807.975
2324.07925	798.275
2326.92871	800.375
2329.77637	793.875
2332.62222	796.375
2335.46626	794.675
2338.3085	795.375
2341.14893	793.375
2343.98756	788.575
2346.8244	781.675
2349.65943	788.175
2352.49267	785.275
2355.32411	788.875
2358.15376	783.775
2360.98161	786.775
2363.80768	785.975
2366.63195	786.675
2369.45444	792.175
2372.27514	782.875
2375.09405	789.775
2377.91118	779.975
2380.72652	784.675
2383.54009	768.075
2386.35187	772.175
2389.16188	770.175
2391.97011	764.975
2394.77657	755.775
2397.58125	755.775
2400.38416	758.775
2403.18529	754.775
2405.98466	752.375
2408.78226	746.975
2411.57809	746.175
2414.37216	751.275
2417.16446	750.875
2419.955	741.575
2422.74378	743.375
2425.5308	743.475
2428.31606	746.275
2431.09956	742.575
2433.88131	740.975
2436.6613	736.875
2439.43954	737.275
2442.21603	736.175
2444.99077	737.075
2447.76377	734.075
2450.53501	733.075
2453.30451	734.375
2456.07226	731.475
2458.83827	723.275
2461.60254	728.775
2464.36507	730.975
2467.12586	726.775
2469.88492	722.675
2472.64224	725.775
2475.39782	722.975
2478.15167	712.475
2480.90379	718.575
2483.65417	722.075
2486.40283	712.275
2489.14976	731.975
2491.89497	721.975
2494.63845	719.275
2497.3802	709.875
2500.12024	712.875
2502.85855	716.375
2505.59514	713.575
2508.33002	707.375
2511.06318	707.575
2513.79462	704.675
2516.52435	702.175
2519.25237	710.575
2521.97867	699.775
2524.70327	700.375
2527.42616	693.275
2530.14734	686.975
2532.86681	695.175
2535.58458	696.175
2538.30065	689.575
2541.01501	695.175
2543.72768	692.675
2546.43864	685.375
2549.14791	691.475
2551.85548	693.075
2554.56136	682.375
2557.26554	691.175
2559.96803	681.675
2562.66883	687.975
2565.36794	683.775
2568.06536	676.275
2570.7611	684.075
2573.45514	682.075
2576.14751	674.075
2578.83819	684.275
2581.52719	674.975
2584.21451	677.575
2586.90015	672.075
2589.58411	678.775
2592.2664	671.675
2594.94701	670.975
2597.62594	667.675
2600.30321	668.475
2602.9788	668.375
2605.65273	665.975
2608.32498	662.075
2610.99557	667.375
2613.66449	665.975
2616.33175	664.475
2618.99734	664.575
2621.66128	659.775
2624.32355	666.675
2626.98416	660.575
2629.64311	660.875
2632.30041	658.075
2634.95605	653.575
2637.61004	652.975
2640.26238	662.975
2642.91306	654.775
2645.56209	652.975
2648.20948	660.075
2650.85521	653.975
2653.4993	658.675
2656.14175	659.475
2658.78255	666.475
2661.42171	667.575
2664.05923	664.875
2666.6951	666.775
2669.32934	671.475
2671.96194	663.875
2674.59291	670.775
2677.22224	665.275
2679.84993	677.175
2682.476	671.375
2685.10043	665.775
2687.72324	666.675
2690.34441	669.075
2692.96396	671.275
2695.58188	671.975
2698.19818	676.475
2700.81285	677.975
2703.4259	674.275
2706.03733	633.575
2708.64714	649.875
2711.25533	676.975
2713.86191	685.875
2716.46687	692.875
2719.07021	702.075
2721.67194	709.275
2724.27206	711.275
2726.87057	722.075
2729.46747	726.075
2732.06276	725.075
2734.65644	728.875
2737.24852	738.175
2739.83899	738.475
2742.42786	750.075
2745.01513	748.375
2747.60079	752.875
2750.18486	763.775
2752.76733	763.975
2755.3482	770.575
2757.92747	771.175
2760.50515	780.775
2763.08123	775.475
2765.65573	784.975
2768.22863	788.375
2770.79994	788.975
2773.36967	789.475
2775.9378	795.075
2778.50435	806.075
2781.06932	808.475
2783.6327	808.875
2786.1945	818.475
2788.75471	818.575
2791.31335	819.675
2793.87041	824.475
2796.42589	846.275
2798.97979	844.175
2801.53212	855.575
2804.08288	865.075
2806.63206	871.075
2809.17967	870.775
2811.72571	880.175
2814.27018	878.375
2816.81308	890.575
2819.35442	898.075
2821.89419	906.775
2824.43239	900.675
2826.96904	902.275
2829.50412	900.675
2832.03763	906.075
2834.56959	907.575
2837.1	911.875
2839.62884	920.875
2842.15613	937.275
2844.68186	970.475
2847.20604	1005.075
2849.72867	1027.675
2852.24974	1047.675
2854.76927	1041.375
2857.28724	1039.075
2859.80367	1042.375
2862.31855	1039.575
2864.83189	1035.075
2867.34368	1039.175
2869.85393	1036.575
2872.36264	1037.475
2874.8698	1036.975
2877.37543	1035.975
2879.87952	1017.575
2882.38207	1024.475
2884.88308	1030.375
2887.38256	1027.075
2889.88051	1015.075
2892.37692	1014.875
2894.8718	1013.275
2897.36515	1014.575
2899.85698	1010.575
2902.34727	1011.775
2904.83604	1009.875
2907.32328	1014.275
2909.809	1004.475
2912.29319	1006.075
2914.77587	1009.075
2917.25702	1011.175
2919.73665	1013.575
2922.21476	1012.275
2924.69136	1011.775
2927.16644	1010.875
2929.64	1002.975
2932.11205	1001.775
2934.58258	978.875
2937.05161	969.875
2939.51912	961.175
2941.98513	928.575
2944.44962	912.175
2946.91261	879.675
2949.37409	856.675
2951.83407	832.175
2954.29254	822.875
2956.74951	795.275
2959.20498	782.275
2961.65895	767.775
2964.11142	758.175
2966.56239	743.575
2969.01186	736.975
2971.45984	728.375
2973.90632	712.675
2976.35131	705.675
2978.7948	693.175
2981.23681	688.275
2983.67732	677.775
2986.11635	668.775
2988.55388	665.575
2990.98993	655.175
2993.4245	662.475
2995.85758	652.475
2998.28917	647.275
3000.71928	639.375
3003.14791	636.375
3005.57506	640.675
3008.00073	635.275
3010.42493	632.475
3012.84764	630.975
3015.26888	632.475
3017.68865	635.175
3020.10694	629.175
3022.52376	633.375
3024.9391	632.875
3027.35298	632.775
3029.76539	630.375
3032.17632	630.175
3034.5858	626.475
3036.9938	633.375
3039.40034	639.975
3041.80542	638.075
3044.20903	641.275
3046.61118	631.575
3049.01187	639.575
3051.4111	639.875
3053.80888	643.275
3056.20519	640.575
3058.60005	640.875
3060.99345	645.075
3063.3854	651.075
3065.7759	655.475
3068.16494	647.275
3070.55254	652.275
3072.93868	656.275
3075.32338	649.275
3077.70662	656.975
3080.08842	655.375
3082.46878	664.675
3084.84769	664.975
3087.22515	670.875
3089.60118	668.475
3091.97576	672.575
3094.3489	681.475
3096.72061	687.075
3099.09087	689.975
3101.4597	689.675
3103.82709	692.575
3106.19305	693.675
3108.55757	702.675
3110.92066	703.275
3113.28232	706.975
3115.64255	702.675
3118.00134	720.975
3120.35871	716.475
3122.71466	726.675
3125.06917	725.675
3127.42226	730.775
3129.77393	730.175
3132.12417	740.275
3134.47299	745.875
3136.82039	752.475
3139.16636	758.375
3141.51092	769.575
3143.85406	766.775
3146.19579	776.475
3148.53609	785.175
3150.87499	786.775
3153.21246	798.475
3155.54853	804.475
3157.88318	807.675
3160.21642	820.275
3162.54826	822.975
3164.87868	829.975
3167.2077	823.275
3169.5353	837.175
3171.86151	843.775
3174.18631	851.275
3176.5097	855.475
3178.83169	860.375
3181.15228	871.675
3183.47147	867.675
3185.78926	877.175
3188.10565	878.975
3190.42065	883.675
3192.73424	886.075
3195.04645	893.075
3197.35725	891.775
3199.66667	898.175
3201.97469	896.175
3204.28132	908.775
3206.58656	915.775
3208.8904	917.975
3211.19287	922.575
3213.49394	922.775
3215.79363	939.475
3218.09193	930.275
3220.38884	930.475
3222.68438	920.275
3224.97853	926.475
3227.2713	933.975
3229.56269	935.775
3231.8527	943.675
3234.14133	949.675
3236.42858	951.275
3238.71446	955.275
3240.99896	950.075
3243.28209	956.175
3245.56384	966.975
3247.84423	956.975
3250.12324	965.775
3252.40088	958.975
3254.67715	954.075
3256.95205	970.475
3259.22558	969.375
3261.49775	972.075
3263.76855	971.575
3266.03799	971.475
3268.30606	974.675
3270.57277	981.575
3272.83812	976.075
3275.10211	976.575
3277.36474	974.275
3279.62601	975.075
3281.88593	976.375
3284.14448	974.475
3286.40168	977.175
3288.65753	970.775
