Data from AgNPs_FTO_APTES_UA_1uM_CRN_0uM_R6G_10uM_NaF_0.1M_Addition_RamanShift__16__11-24-19-423.txt Node

Date: Thu Jan 27 11:24:19 GMT 2022
User: TCL
Spectrometer: QEP01345
Trigger mode: 4
Integration Time (sec): 7.000000E0
Scans to average: 10
Electric dark correction enabled: true
Nonlinearity correction enabled: false
Boxcar width: 0
XAxis mode: Raman Shifts
Number of Pixels in Spectrum: 1044
>>>>>Begin Spectral Data<<<<<
46.04893	0.25
50.45542	-0.05
54.85868	-0.85
59.25871	-0.15
63.6555	26.25
68.04907	29.35
72.43941	29.15
76.82654	33.65
81.21044	30.95
85.59113	33.35
89.96862	37.45
94.34289	38.85
98.71396	41.15
103.08183	39.85
107.4465	40.25
111.80798	43.15
116.16626	38.25
120.52136	41.75
124.87327	41.55
129.222	38.75
133.56755	40.35
137.90993	42.15
142.24913	43.05
146.58517	43.65
150.91804	45.85
155.24774	50.05
159.57429	53.85
163.89768	59.95
168.21792	74.65
172.53501	96.05
176.84895	115.15
181.15975	154.15
185.46741	209.05
189.77193	270.65
194.07331	359.45
198.37157	457.85
202.6667	560.85
206.9587	662.05
211.24758	749.45
215.53334	844.75
219.81599	946.55
224.09553	1059.95
228.37195	1192.55
232.64527	1328.45
236.91549	1471.65
241.18261	1605.25
245.44663	1718.25
249.70755	1815.85
253.96539	1907.95
258.22014	1967.85
262.4718	2014.65
266.72039	2056.35
270.96589	2068.95
275.20832	2040.35
279.44768	2014.85
283.68397	1968.85
287.91719	1928.45
292.14735	1908.15
296.37445	1908.65
300.59849	1933.55
304.81948	2004.25
309.03742	2043.65
313.25231	2039.05
317.46415	1950.05
321.67296	1827.85
325.87872	1733.85
330.08145	1694.45
334.28114	1705.25
338.47781	1726.15
342.67145	1762.05
346.86207	1825.25
351.04966	1923.95
355.23424	2032.35
359.4158	2120.15
363.59435	2186.85
367.76989	2218.05
371.94243	2232.85
376.11196	2233.05
380.27849	2237.15
384.44203	2207.65
388.60257	2174.75
392.76012	2132.65
396.91468	2153.75
401.06626	2182.35
405.21485	2216.25
409.36047	2181.35
413.50311	2087.15
417.64277	1996.75
421.77947	1937.55
425.9132	1908.35
430.04396	1901.05
434.17176	1921.55
438.2966	1943.95
442.41849	2000.05
446.53742	2050.85
450.6534	2104.65
454.76644	2140.65
458.87653	2151.25
462.98368	2141.85
467.08789	2125.15
471.18916	2089.95
475.2875	2054.25
479.38291	2029.05
483.4754	2004.75
487.56496	1982.45
491.6516	1981.65
495.73531	1977.65
499.81612	1965.45
503.89401	1988.55
507.96899	2011.65
512.04106	2040.25
516.11023	2091.35
520.1765	2139.35
524.23987	2123.45
528.30034	2088.85
532.35792	2041.35
536.41261	1991.65
540.46441	1940.45
544.51333	1908.35
548.55936	1902.55
552.60252	1916.45
556.64279	1951.85
560.6802	1965.75
564.71473	1968.65
568.7464	2027.85
572.7752	2054.35
576.80114	1988.65
580.82422	1917.55
584.84444	1895.85
588.86181	1892.35
592.87633	1898.55
596.888	1911.75
600.89682	1954.05
604.9028	2118.95
608.90594	2555.25
612.90624	3200.25
616.90371	3261.65
620.89834	2495.25
624.89015	2081.05
628.87913	1981.35
632.86528	1959.65
636.84862	1982.95
640.82913	1966.45
644.80683	1916.85
648.78172	1878.95
652.75379	1888.25
656.72306	1967.35
660.68952	2067.75
664.65319	2044.75
668.61405	1923.55
672.57211	1849.55
676.52738	1841.45
680.47986	1838.95
684.42955	1836.65
688.37646	1845.75
692.32058	1852.85
696.26192	1865.85
700.20048	1881.75
704.13626	1903.75
708.06928	1890.85
711.99952	1867.75
715.927	1855.45
719.85171	1850.85
723.77365	1870.55
727.69284	1850.65
731.60928	1839.35
735.52295	1834.05
739.43388	1841.15
743.34206	1848.85
747.24749	1845.05
751.15017	1867.95
755.05012	1874.85
758.94733	1941.05
762.8418	2068.15
766.73354	2304.65
770.62254	2589.55
774.50882	2790.25
778.39237	2780.05
782.27321	2507.65
786.15132	2177.85
790.02671	2002.75
793.89938	1926.15
797.76935	1901.05
801.6366	1898.45
805.50115	1905.25
809.36299	1907.35
813.22213	1889.25
817.07857	1901.75
820.93231	1889.85
824.78336	1887.65
828.63172	1889.15
832.47738	1878.55
836.32036	1880.35
840.16066	1878.05
843.99827	1866.75
847.8332	1859.35
851.66546	1862.65
855.49504	1867.65
859.32195	1863.15
863.1462	1839.75
866.96777	1831.65
870.78668	1823.45
874.60293	1824.65
878.41652	1830.15
882.22745	1831.25
886.03573	1866.95
889.84136	1860.65
893.64433	1860.75
897.44466	1857.75
901.24235	1845.75
905.0374	1842.75
908.8298	1820.45
912.61957	1832.45
916.40671	1841.55
920.19121	1842.25
923.97308	1868.95
927.75233	1891.75
931.52895	1916.05
935.30295	1910.35
939.07433	1879.95
942.84309	1856.25
946.60924	1827.45
950.37278	1807.35
954.13371	1797.35
957.89203	1776.45
961.64774	1762.05
965.40086	1749.35
969.15137	1737.75
972.89929	1726.25
976.64461	1713.25
980.38733	1718.35
984.12747	1709.05
987.86502	1714.35
991.59999	1712.75
995.33237	1721.95
999.06217	1734.35
1002.78939	1740.35
1006.51404	1749.15
1010.23611	1764.65
1013.95561	1787.95
1017.67255	1785.85
1021.38692	1785.15
1025.09872	1767.65
1028.80796	1767.65
1032.51465	1768.35
1036.21877	1797.95
1039.92035	1850.55
1043.61937	1865.15
1047.31584	1848.55
1051.00976	1823.45
1054.70114	1783.35
1058.38998	1748.15
1062.07627	1745.35
1065.76003	1737.35
1069.44126	1738.15
1073.11995	1740.05
1076.79611	1757.35
1080.46974	1793.65
1084.14085	1817.75
1087.80943	1844.65
1091.47549	1838.35
1095.13903	1797.15
1098.80005	1726.55
1102.45857	1681.35
1106.11456	1660.15
1109.76805	1677.35
1113.41903	1716.35
1117.06751	1769.55
1120.71348	1836.65
1124.35696	1918.15
1127.99793	1988.25
1131.63641	1973.35
1135.2724	1893.15
1138.90589	1792.25
1142.5369	1722.65
1146.16542	1667.25
1149.79145	1640.65
1153.415	1622.35
1157.03607	1643.75
1160.65467	1673.55
1164.27079	1706.05
1167.88443	1756.85
1171.49561	1858.65
1175.10432	2053.95
1178.71056	2314.45
1182.31434	2545.15
1185.91565	2600.75
1189.51451	2557.25
1193.11091	2464.65
1196.70485	2320.45
1200.29634	2195.05
1203.88538	2072.75
1207.47197	1931.25
1211.05612	1799.65
1214.63782	1718.05
1218.21708	1684.25
1221.79391	1671.95
1225.36829	1660.75
1228.94024	1671.55
1232.50976	1674.15
1236.07685	1664.25
1239.6415	1687.75
1243.20374	1690.45
1246.76355	1709.85
1250.32093	1708.25
1253.8759	1734.85
1257.42845	1775.85
1260.97859	1820.95
1264.52631	1869.15
1268.07163	1917.75
1271.61453	1965.45
1275.15503	1978.95
1278.69312	1976.85
1282.22882	1973.75
1285.76211	2010.25
1289.29301	2067.75
1292.82151	2116.95
1296.34761	2197.85
1299.87133	2278.35
1303.39266	2409.45
1306.9116	2611.75
1310.42815	2854.45
1313.94233	2956.75
1317.45412	2878.25
1320.96354	2654.25
1324.47058	2418.25
1327.97525	2211.05
1331.47754	2109.15
1334.97747	2083.55
1338.47502	2128.05
1341.97022	2198.55
1345.46305	2294.65
1348.95352	2476.95
1352.44163	2737.25
1355.92738	3103.55
1359.41078	3553.15
1362.89183	3924.25
1366.37053	3807.65
1369.84688	3331.95
1373.32088	2846.85
1376.79254	2463.25
1380.26186	2224.75
1383.72883	2090.45
1387.19347	1985.05
1390.65578	1859.85
1394.11575	1774.75
1397.57339	1716.95
1401.0287	1680.55
1404.48168	1682.25
1407.93234	1672.75
1411.38068	1678.95
1414.82669	1684.75
1418.27039	1688.35
1421.71177	1698.35
1425.15083	1702.85
1428.58758	1707.75
1432.02203	1732.15
1435.45416	1758.75
1438.88399	1785.45
1442.31151	1773.35
1445.73673	1765.85
1449.15965	1743.95
1452.58027	1732.75
1455.9986	1687.65
1459.41463	1677.95
1462.82837	1656.25
1466.23982	1679.55
1469.64898	1700.75
1473.05586	1714.25
1476.46045	1726.55
1479.86276	1753.45
1483.26279	1769.35
1486.66054	1816.15
1490.05602	1859.35
1493.44922	1934.95
1496.84016	2073.85
1500.22882	2308.35
1503.61521	2636.15
1506.99934	2971.25
1510.38121	3248.55
1513.76081	3358.35
1517.13816	3150.45
1520.51324	2727.55
1523.88607	2303.05
1527.25665	2033.25
1530.62498	1906.95
1533.99105	1838.65
1537.35488	1796.05
1540.71647	1788.95
1544.07581	1784.15
1547.4329	1809.25
1550.78776	1815.55
1554.14038	1828.05
1557.49077	1849.25
1560.83892	1866.35
1564.18484	1904.15
1567.52853	1961.45
1570.86999	2050.65
1574.20922	2123.25
1577.54624	2127.85
1580.88103	2038.75
1584.2136	1847.15
1587.54395	1731.35
1590.87208	1703.65
1594.19801	1744.15
1597.52172	1835.35
1600.84321	1891.15
1604.16251	1841.65
1607.47959	1770.75
1610.79447	1681.35
1614.10715	1564.25
1617.41763	1503.65
1620.7259	1450.55
1624.03199	1425.65
1627.33587	1409.05
1630.63757	1423.95
1633.93707	1442.65
1637.23439	1485.05
1640.52951	1573.55
1643.82246	1723.25
1647.11321	1924.95
1650.40179	2086.05
1653.68819	2075.15
1656.97241	1838.75
1660.25446	1567.05
1663.53433	1374.95
1666.81203	1266.15
1670.08756	1210.45
1673.36092	1179.05
1676.63211	1169.15
1679.90115	1148.15
1683.16801	1132.75
1686.43272	1115.15
1689.69527	1088.55
1692.95567	1059.85
1696.2139	1015.65
1699.46999	966.55
1702.72392	939.95
1705.97571	979.15
1709.22535	1013.25
1712.47284	1039.55
1715.71819	1059.65
1718.96139	1065.35
1722.20246	1062.75
1725.44139	1067.55
1728.67818	1046.75
1731.91284	1029.35
1735.14537	1011.15
1738.37576	990.15
1741.60403	983.05
1744.83017	964.55
1748.05418	952.25
1751.27607	939.95
1754.49584	912.85
1757.71349	881.35
1760.92903	861.75
1764.14244	851.25
1767.35375	852.25
1770.56294	854.95
1773.77002	858.15
1776.97499	871.05
1780.17785	889.95
1783.37861	896.85
1786.57727	905.45
1789.77382	911.25
1792.96828	894.65
1796.16064	903.65
1799.3509	903.65
1802.53907	893.25
1805.72514	896.25
1808.90913	888.55
1812.09102	885.65
1815.27083	878.25
1818.44856	878.55
1821.6242	876.45
1824.79776	869.85
1827.96924	866.45
1831.13864	868.65
1834.30597	859.45
1837.47122	864.85
1840.6344	864.45
1843.7955	855.45
1846.95454	854.45
1850.11151	849.95
1853.26642	847.95
1856.41926	842.25
1859.57004	853.25
1862.71876	840.15
1865.86542	836.95
1869.01003	842.45
1872.15258	841.65
1875.29308	837.85
1878.43152	833.75
1881.56792	836.15
1884.70227	838.65
1887.83457	833.55
1890.96482	819.25
1894.09304	822.05
1897.21921	821.45
1900.34335	828.15
1903.46544	822.05
1906.58551	818.85
1909.70353	817.05
1912.81953	815.45
1915.93349	819.75
1919.04543	814.35
1922.15534	812.35
1925.26322	801.05
1928.36908	800.75
1931.47292	796.15
1934.57473	787.05
1937.67453	795.95
1940.77232	787.75
1943.86808	784.75
1946.96184	783.35
1950.05358	776.65
1953.14331	773.35
1956.23103	776.65
1959.31675	776.25
1962.40046	771.65
1965.48217	766.15
1968.56188	760.75
1971.63959	763.15
1974.7153	764.55
1977.78901	758.05
1980.86073	752.35
1983.93046	749.45
1986.99819	751.05
1990.06394	744.65
1993.1277	740.75
1996.18947	737.15
1999.24925	737.75
2002.30706	728.05
2005.36288	726.45
2008.41672	722.55
2011.46859	722.65
2014.51848	714.95
2017.56639	721.85
2020.61233	715.15
2023.6563	707.65
2026.6983	705.65
2029.73833	704.55
2032.7764	703.45
2035.8125	702.95
2038.84664	695.55
2041.87881	697.85
2044.90903	694.45
2047.93729	688.85
2050.96359	692.95
2053.98794	686.55
2057.01034	685.75
2060.03078	684.95
2063.04927	687.55
2066.06582	682.35
2069.08042	688.75
2072.09307	686.95
2075.10378	686.25
2078.11255	685.95
2081.11938	686.55
2084.12426	683.35
2087.12722	682.15
2090.12824	680.85
2093.12732	682.75
2096.12447	683.05
2099.11969	680.45
2102.11299	679.85
2105.10435	682.15
2108.09379	674.85
2111.08131	674.25
2114.0669	672.75
2117.05057	671.45
2120.03233	672.05
2123.01216	673.55
2125.99008	669.65
2128.96609	673.95
2131.94018	675.75
2134.91236	671.15
2137.88263	672.05
2140.851	672.35
2143.81746	664.85
2146.78201	671.15
2149.74466	666.75
2152.7054	661.05
2155.66425	663.45
2158.6212	662.05
2161.57625	665.45
2164.52941	664.05
2167.48067	658.15
2170.43004	656.15
2173.37752	658.25
2176.32311	657.35
2179.26681	655.55
2182.20863	660.45
2185.14856	656.65
2188.08661	657.75
2191.02278	658.25
2193.95707	660.05
2196.88948	647.95
2199.82001	647.95
2202.74867	646.85
2205.67545	646.45
2208.60037	639.55
2211.52341	646.75
2214.44458	634.25
2217.36388	628.85
2220.28132	631.95
2223.1969	626.85
2226.11061	630.15
2229.02246	623.65
2231.93245	620.65
2234.84058	624.25
2237.74686	618.65
2240.65128	625.05
2243.55385	620.25
2246.45456	618.25
2249.35343	625.05
2252.25044	621.75
2255.14561	616.55
2258.03893	609.75
2260.93041	600.65
2263.82004	602.45
2266.70783	606.05
2269.59378	608.25
2272.4779	603.75
2275.36017	608.15
2278.24061	606.15
2281.11922	601.75
2283.996	599.05
2286.87094	597.05
2289.74405	594.55
2292.61534	590.15
2295.4848	590.65
2298.35243	588.35
2301.21824	587.75
2304.08223	585.55
2306.94439	583.35
2309.80474	586.25
2312.66327	579.25
2315.51999	581.65
2318.37489	580.45
2321.22797	578.25
2324.07925	575.75
2326.92871	576.85
2329.77637	577.65
2332.62222	579.75
2335.46626	565.95
2338.3085	572.55
2341.14893	570.55
2343.98756	565.65
2346.8244	562.85
2349.65943	564.25
2352.49267	566.15
2355.32411	567.55
2358.15376	562.55
2360.98161	566.75
2363.80768	571.15
2366.63195	567.85
2369.45444	569.85
2372.27514	573.55
2375.09405	575.35
2377.91118	566.55
2380.72652	567.95
2383.54009	560.65
2386.35187	557.05
2389.16188	555.45
2391.97011	552.25
2394.77657	556.35
2397.58125	545.65
2400.38416	546.45
2403.18529	537.85
2405.98466	540.05
2408.78226	544.65
2411.57809	539.15
2414.37216	542.95
2417.16446	537.25
2419.955	539.15
2422.74378	536.45
2425.5308	534.15
2428.31606	536.15
2431.09956	535.25
2433.88131	532.15
2436.6613	535.65
2439.43954	534.95
2442.21603	533.55
2444.99077	536.25
2447.76377	532.35
2450.53501	534.35
2453.30451	529.85
2456.07226	529.85
2458.83827	529.55
2461.60254	532.35
2464.36507	530.55
2467.12586	522.45
2469.88492	526.15
2472.64224	527.15
2475.39782	525.55
2478.15167	510.45
2480.90379	520.05
2483.65417	530.95
2486.40283	529.35
2489.14976	528.25
2491.89497	537.65
2494.63845	523.15
2497.3802	517.45
2500.12024	526.75
2502.85855	521.65
2505.59514	522.95
2508.33002	521.15
2511.06318	518.25
2513.79462	516.45
2516.52435	517.65
2519.25237	510.25
2521.97867	510.75
2524.70327	504.85
2527.42616	510.45
2530.14734	504.55
2532.86681	501.65
2535.58458	501.85
2538.30065	502.15
2541.01501	507.85
2543.72768	506.25
2546.43864	500.95
2549.14791	507.65
2551.85548	506.25
2554.56136	505.65
2557.26554	501.25
2559.96803	498.55
2562.66883	503.25
2565.36794	508.95
2568.06536	502.45
2570.7611	504.15
2573.45514	500.35
2576.14751	504.35
2578.83819	505.55
2581.52719	503.35
2584.21451	499.05
2586.90015	501.45
2589.58411	495.85
2592.2664	498.35
2594.94701	498.55
2597.62594	495.95
2600.30321	495.45
2602.9788	495.65
2605.65273	493.05
2608.32498	489.35
2610.99557	491.95
2613.66449	497.85
2616.33175	492.95
2618.99734	492.35
2621.66128	495.15
2624.32355	489.65
2626.98416	497.45
2629.64311	486.85
2632.30041	490.85
2634.95605	485.35
2637.61004	486.25
2640.26238	487.85
2642.91306	486.05
2645.56209	487.55
2648.20948	489.65
2650.85521	488.05
2653.4993	493.25
2656.14175	491.75
2658.78255	497.25
2661.42171	505.05
2664.05923	503.75
2666.6951	504.95
2669.32934	505.95
2671.96194	511.55
2674.59291	515.65
2677.22224	508.45
2679.84993	512.25
2682.476	519.85
2685.10043	516.05
2687.72324	517.95
2690.34441	516.05
2692.96396	524.85
2695.58188	529.25
2698.19818	530.25
2700.81285	531.75
2703.4259	531.35
2706.03733	500.95
2708.64714	514.15
2711.25533	532.25
2713.86191	551.45
2716.46687	551.85
2719.07021	559.75
2721.67194	564.65
2724.27206	570.85
2726.87057	565.15
2729.46747	572.15
2732.06276	570.25
2734.65644	570.35
2737.24852	578.95
2739.83899	575.75
2742.42786	586.95
2745.01513	582.25
2747.60079	588.05
2750.18486	600.35
2752.76733	592.95
2755.3482	602.25
2757.92747	612.35
2760.50515	614.15
2763.08123	617.95
2765.65573	621.55
2768.22863	630.95
2770.79994	638.75
2773.36967	641.25
2775.9378	658.65
2778.50435	670.85
2781.06932	677.65
2783.6327	683.65
2786.1945	700.15
2788.75471	713.85
2791.31335	727.35
2793.87041	743.75
2796.42589	760.45
2798.97979	780.05
2801.53212	797.05
2804.08288	815.45
2806.63206	833.25
2809.17967	849.45
2811.72571	868.15
2814.27018	879.55
2816.81308	895.95
2819.35442	911.25
2821.89419	917.95
2824.43239	922.05
2826.96904	920.35
2829.50412	921.25
2832.03763	924.45
2834.56959	925.85
2837.1	924.35
2839.62884	931.35
2842.15613	953.65
2844.68186	987.95
2847.20604	1022.75
2849.72867	1047.35
2852.24974	1056.35
2854.76927	1053.75
2857.28724	1041.15
2859.80367	1036.25
2862.31855	1035.85
2864.83189	1021.85
2867.34368	1004.55
2869.85393	1006.15
2872.36264	988.45
2874.8698	989.15
2877.37543	982.85
2879.87952	966.35
2882.38207	965.55
2884.88308	960.05
2887.38256	943.15
2889.88051	942.35
2892.37692	931.05
2894.8718	934.65
2897.36515	932.35
2899.85698	929.05
2902.34727	930.15
2904.83604	920.75
2907.32328	910.85
2909.809	913.35
2912.29319	914.75
2914.77587	908.25
2917.25702	904.85
2919.73665	901.05
2922.21476	894.65
2924.69136	887.45
2927.16644	880.95
2929.64	884.55
2932.11205	869.05
2934.58258	861.35
2937.05161	840.35
2939.51912	823.25
2941.98513	800.85
2944.44962	763.25
2946.91261	739.55
2949.37409	710.05
2951.83407	686.55
2954.29254	671.35
2956.74951	654.65
2959.20498	637.85
2961.65895	623.75
2964.11142	618.65
2966.56239	605.85
2969.01186	597.15
2971.45984	584.65
2973.90632	578.55
2976.35131	575.65
2978.7948	570.15
2981.23681	561.25
2983.67732	550.15
2986.11635	549.65
2988.55388	540.45
2990.98993	532.65
2993.4245	527.25
2995.85758	515.65
2998.28917	517.85
3000.71928	510.85
3003.14791	508.05
3005.57506	507.45
3008.00073	502.55
3010.42493	502.75
3012.84764	506.05
3015.26888	508.15
3017.68865	503.35
3020.10694	503.65
3022.52376	502.15
3024.9391	503.85
3027.35298	500.05
3029.76539	506.15
3032.17632	508.15
3034.5858	506.65
3036.9938	512.25
3039.40034	509.35
3041.80542	515.55
3044.20903	516.05
3046.61118	517.55
3049.01187	513.45
3051.4111	513.05
3053.80888	521.95
3056.20519	523.25
3058.60005	526.05
3060.99345	523.95
3063.3854	532.55
3065.7759	525.75
3068.16494	534.95
3070.55254	534.05
3072.93868	537.05
3075.32338	533.55
3077.70662	537.35
3080.08842	537.45
3082.46878	539.65
3084.84769	548.15
3087.22515	543.35
3089.60118	543.55
3091.97576	550.15
3094.3489	551.55
3096.72061	553.15
3099.09087	558.85
3101.4597	559.15
3103.82709	559.15
3106.19305	567.95
3108.55757	573.45
3110.92066	580.75
3113.28232	581.75
3115.64255	586.45
3118.00134	593.35
3120.35871	587.25
3122.71466	599.45
3125.06917	600.45
3127.42226	603.25
3129.77393	614.55
3132.12417	614.75
3134.47299	614.65
3136.82039	626.75
3139.16636	639.15
3141.51092	640.15
3143.85406	650.45
3146.19579	657.15
3148.53609	658.35
3150.87499	666.95
3153.21246	670.25
3155.54853	678.85
3157.88318	692.55
3160.21642	690.25
3162.54826	697.05
3164.87868	703.55
3167.2077	710.55
3169.5353	714.05
3171.86151	719.25
3174.18631	721.65
3176.5097	731.15
3178.83169	732.65
3181.15228	741.15
3183.47147	746.55
3185.78926	746.65
3188.10565	758.55
3190.42065	762.85
3192.73424	756.75
3195.04645	766.45
3197.35725	776.95
3199.66667	776.05
3201.97469	778.95
3204.28132	788.85
3206.58656	791.35
3208.8904	799.65
3211.19287	801.25
3213.49394	804.15
3215.79363	817.25
3218.09193	812.95
3220.38884	810.35
3222.68438	804.85
3224.97853	813.75
3227.2713	823.35
3229.56269	819.15
3231.8527	823.75
3234.14133	832.35
3236.42858	829.85
3238.71446	829.65
3240.99896	832.55
3243.28209	822.15
3245.56384	837.55
3247.84423	833.55
3250.12324	839.95
3252.40088	842.15
3254.67715	838.45
3256.95205	843.55
3259.22558	844.95
3261.49775	853.05
3263.76855	850.65
3266.03799	856.25
3268.30606	856.35
3270.57277	863.15
3272.83812	850.95
3275.10211	858.35
3277.36474	860.85
3279.62601	851.95
3281.88593	860.45
3284.14448	859.55
3286.40168	854.15
3288.65753	860.05
3290.91202	862.25
3293.16516	844.25
3295.41695	842.15
3297.66738	843.85
3299.91647	837.65
3302.16421	833.35
3304.4106	824.15
3306.65564	827.65
3308.89933	823.95
3311.14169	816.55
3313.38269	805.55
3315.62236	798.45
3317.86068	792.25
3320.09766	792.45
3322.3333	789.55
3324.5676	777.95
3326.80056	765.95
3329.03219	762.75
3331.26248	0.95
3333.49143	0.25
3335.71905	-0.55
