Data from AgNPs_FTO_APTES_UA_1uM_CRN_10uM_R6G_50uM_NaF_0.1M_Addition_RamanShift__29__16-14-49-756.txt Node

Date: Thu Jan 27 16:14:49 GMT 2022
User: TCL
Spectrometer: QEP01345
Trigger mode: 4
Integration Time (sec): 7.000000E0
Scans to average: 10
Electric dark correction enabled: true
Nonlinearity correction enabled: false
Boxcar width: 0
XAxis mode: Raman Shifts
Number of Pixels in Spectrum: 1044
>>>>>Begin Spectral Data<<<<<
46.04893	1.45
50.45542	0.75
54.85868	-1.55
59.25871	-0.75
63.6555	29.65
68.04907	34.15
72.43941	35.05
76.82654	39.65
81.21044	39.45
85.59113	41.95
89.96862	42.55
94.34289	41.15
98.71396	48.45
103.08183	42.75
107.4465	48.45
111.80798	49.45
116.16626	47.45
120.52136	54.05
124.87327	51.75
129.222	50.95
133.56755	50.85
137.90993	51.45
142.24913	56.45
146.58517	60.05
150.91804	66.95
155.24774	73.35
159.57429	87.05
163.89768	104.25
168.21792	130.75
172.53501	172.85
176.84895	230.75
181.15975	319.15
185.46741	440.15
189.77193	599.85
194.07331	802.05
198.37157	1030.15
202.6667	1271.15
206.9587	1505.15
211.24758	1732.55
215.53334	1961.75
219.81599	2230.05
224.09553	2528.75
228.37195	2836.15
232.64527	3200.65
236.91549	3568.35
241.18261	3910.05
245.44663	4208.65
249.70755	4493.05
253.96539	4719.45
258.22014	4902.05
262.4718	5097.15
266.72039	5262.05
270.96589	5346.25
275.20832	5384.65
279.44768	5360.05
283.68397	5340.95
287.91719	5337.25
292.14735	5355.65
296.37445	5384.75
300.59849	5459.45
304.81948	5578.85
309.03742	5644.45
313.25231	5590.35
317.46415	5392.95
321.67296	5108.75
325.87872	4847.95
330.08145	4752.55
334.28114	4744.25
338.47781	4810.25
342.67145	4910.25
346.86207	5059.25
351.04966	5287.05
355.23424	5490.35
359.4158	5683.55
363.59435	5760.85
367.76989	5794.25
371.94243	5795.25
376.11196	5795.85
380.27849	5790.55
384.44203	5741.75
388.60257	5724.35
392.76012	5724.15
396.91468	5786.85
401.06626	5941.15
405.21485	6048.45
409.36047	6022.35
413.50311	5826.65
417.64277	5644.65
421.77947	5556.75
425.9132	5517.15
430.04396	5525.95
434.17176	5559.35
438.2966	5637.15
442.41849	5706.95
446.53742	5827.45
450.6534	5990.65
454.76644	6079.05
458.87653	6144.85
462.98368	6129.05
467.08789	6042.05
471.18916	5984.95
475.2875	5875.55
479.38291	5795.85
483.4754	5736.65
487.56496	5692.55
491.6516	5647.85
495.73531	5638.15
499.81612	5628.25
503.89401	5678.85
507.96899	5724.55
512.04106	5736.85
516.11023	5761.05
520.1765	5816.85
524.23987	5768.65
528.30034	5698.85
532.35792	5612.05
536.41261	5535.25
540.46441	5457.75
544.51333	5454.65
548.55936	5497.55
552.60252	5605.05
556.64279	5736.65
560.6802	5790.55
564.71473	5831.35
568.7464	5969.95
572.7752	6088.05
576.80114	6043.45
580.82422	5976.35
584.84444	5951.25
588.86181	5932.95
592.87633	5901.25
596.888	5949.15
600.89682	6077.95
604.9028	6493.85
608.90594	7590.55
612.90624	9002.05
616.90371	8742.75
620.89834	6852.25
624.89015	5907.95
628.87913	5718.55
632.86528	5752.35
636.84862	5781.95
640.82913	5750.55
644.80683	5589.55
648.78172	5483.75
652.75379	5493.25
656.72306	5648.05
660.68952	5830.55
664.65319	5818.15
668.61405	5651.65
672.57211	5565.75
676.52738	5568.55
680.47986	5554.95
684.42955	5546.05
688.37646	5543.65
692.32058	5570.55
696.26192	5619.95
700.20048	5662.75
704.13626	5699.35
708.06928	5702.85
711.99952	5674.55
715.927	5657.75
719.85171	5637.85
723.77365	5629.85
727.69284	5571.15
731.60928	5554.85
735.52295	5527.55
739.43388	5539.05
743.34206	5552.75
747.24749	5609.05
751.15017	5661.25
755.05012	5754.65
758.94733	5958.85
762.8418	6361.55
766.73354	7030.85
770.62254	7749.65
774.50882	8033.25
778.39237	7714.65
782.27321	6986.95
786.15132	6270.75
790.02671	5860.45
793.89938	5680.85
797.76935	5601.35
801.6366	5557.55
805.50115	5523.05
809.36299	5528.25
813.22213	5499.55
817.07857	5512.05
820.93231	5514.45
824.78336	5512.95
828.63172	5522.75
832.47738	5532.65
836.32036	5523.45
840.16066	5520.55
843.99827	5510.95
847.8332	5497.15
851.66546	5483.75
855.49504	5481.25
859.32195	5459.95
863.1462	5460.25
866.96777	5433.15
870.78668	5453.75
874.60293	5459.45
878.41652	5445.05
882.22745	5480.35
886.03573	5498.75
889.84136	5502.65
893.64433	5470.65
897.44466	5463.05
901.24235	5451.05
905.0374	5426.55
908.8298	5429.55
912.61957	5427.95
916.40671	5480.35
920.19121	5518.65
923.97308	5557.95
927.75233	5580.45
931.52895	5568.85
935.30295	5515.65
939.07433	5430.85
942.84309	5331.75
946.60924	5273.75
950.37278	5261.95
954.13371	5228.55
957.89203	5210.95
961.64774	5209.25
965.40086	5191.95
969.15137	5177.45
972.89929	5186.55
976.64461	5170.05
980.38733	5150.25
984.12747	5153.55
987.86502	5181.45
991.59999	5198.55
995.33237	5239.15
999.06217	5304.75
1002.78939	5425.65
1006.51404	5498.95
1010.23611	5604.55
1013.95561	5662.65
1017.67255	5648.65
1021.38692	5594.85
1025.09872	5543.75
1028.80796	5517.15
1032.51465	5505.55
1036.21877	5558.85
1039.92035	5616.15
1043.61937	5636.35
1047.31584	5612.25
1051.00976	5608.05
1054.70114	5616.85
1058.38998	5638.85
1062.07627	5693.05
1065.76003	5734.75
1069.44126	5777.55
1073.11995	5802.45
1076.79611	5847.45
1080.46974	5859.95
1084.14085	5913.45
1087.80943	5988.45
1091.47549	6037.15
1095.13903	5993.05
1098.80005	5872.55
1102.45857	5723.95
1106.11456	5655.65
1109.76805	5627.85
1113.41903	5680.05
1117.06751	5767.15
1120.71348	5906.05
1124.35696	6035.45
1127.99793	6177.85
1131.63641	6205.95
1135.2724	6028.95
1138.90589	5861.65
1142.5369	5780.05
1146.16542	5721.65
1149.79145	5701.45
1153.415	5705.05
1157.03607	5756.85
1160.65467	5841.75
1164.27079	5969.15
1167.88443	6183.15
1171.49561	6526.35
1175.10432	7035.05
1178.71056	7713.45
1182.31434	8166.55
1185.91565	8300.25
1189.51451	8208.25
1193.11091	7918.15
1196.70485	7511.85
1200.29634	7185.05
1203.88538	6940.25
1207.47197	6628.45
1211.05612	6398.95
1214.63782	6244.65
1218.21708	6179.55
1221.79391	6195.65
1225.36829	6247.55
1228.94024	6282.65
1232.50976	6358.65
1236.07685	6382.65
1239.6415	6394.05
1243.20374	6381.35
1246.76355	6394.15
1250.32093	6435.35
1253.8759	6538.15
1257.42845	6664.35
1260.97859	6835.75
1264.52631	6947.25
1268.07163	7061.25
1271.61453	7174.25
1275.15503	7283.85
1278.69312	7365.95
1282.22882	7419.85
1285.76211	7543.85
1289.29301	7707.55
1292.82151	7891.55
1296.34761	8077.65
1299.87133	8330.35
1303.39266	8729.65
1306.9116	9340.95
1310.42815	10075.95
1313.94233	10564.95
1317.45412	10540.45
1320.96354	10174.75
1324.47058	9740.75
1327.97525	9360.65
1331.47754	9161.05
1334.97747	9081.65
1338.47502	9156.85
1341.97022	9297.25
1345.46305	9445.15
1348.95352	9576.25
1352.44163	9807.45
1355.92738	10245.45
1359.41078	11077.05
1362.89183	11960.25
1366.37053	11765.15
1369.84688	10493.35
1373.32088	9221.15
1376.79254	8343.85
1380.26186	7927.75
1383.72883	7720.25
1387.19347	7575.45
1390.65578	7390.45
1394.11575	7235.75
1397.57339	7169.85
1401.0287	7231.15
1404.48168	7321.85
1407.93234	7430.05
1411.38068	7530.65
1414.82669	7497.35
1418.27039	7348.05
1421.71177	7169.45
1425.15083	7037.95
1428.58758	6919.55
1432.02203	6896.35
1435.45416	6935.65
1438.88399	6946.45
1442.31151	6964.35
1445.73673	6974.75
1449.15965	7012.05
1452.58027	7037.55
1455.9986	7007.55
1459.41463	6996.85
1462.82837	7063.65
1466.23982	7148.55
1469.64898	7270.95
1473.05586	7356.05
1476.46045	7418.55
1479.86276	7522.25
1483.26279	7611.55
1486.66054	7753.65
1490.05602	7941.35
1493.44922	8180.15
1496.84016	8503.35
1500.22882	8997.15
1503.61521	9615.65
1506.99934	10285.85
1510.38121	10949.15
1513.76081	11295.55
1517.13816	11033.95
1520.51324	10199.95
1523.88607	9283.05
1527.25665	8680.75
1530.62498	8251.85
1533.99105	8020.25
1537.35488	7852.25
1540.71647	7737.25
1544.07581	7677.95
1547.4329	7627.05
1550.78776	7547.15
1554.14038	7521.25
1557.49077	7543.65
1560.83892	7609.85
1564.18484	7743.15
1567.52853	7877.55
1570.86999	7953.35
1574.20922	8020.75
1577.54624	7961.15
1580.88103	7727.15
1584.2136	7430.85
1587.54395	7325.95
1590.87208	7452.55
1594.19801	7755.75
1597.52172	8156.05
1600.84321	8329.85
1604.16251	8101.95
1607.47959	7711.95
1610.79447	7257.85
1614.10715	6832.95
1617.41763	6491.95
1620.7259	6252.95
1624.03199	6128.55
1627.33587	6107.75
1630.63757	6193.55
1633.93707	6398.55
1637.23439	6722.85
1640.52951	7156.15
1643.82246	7708.25
1647.11321	8236.25
1650.40179	8611.35
1653.68819	8432.45
1656.97241	7682.65
1660.25446	6776.45
1663.53433	6115.35
1666.81203	5682.45
1670.08756	5419.35
1673.36092	5268.35
1676.63211	5178.55
1679.90115	5114.35
1683.16801	5040.35
1686.43272	5011.25
1689.69527	4967.95
1692.95567	4937.55
1696.2139	4890.35
1699.46999	4854.35
1702.72392	4824.65
1705.97571	4835.35
1709.22535	4870.05
1712.47284	4881.45
1715.71819	4890.85
1718.96139	4889.45
1722.20246	4903.35
1725.44139	4889.05
1728.67818	4855.25
1731.91284	4816.45
1735.14537	4805.25
1738.37576	4784.05
1741.60403	4765.55
1744.83017	4751.55
1748.05418	4732.75
1751.27607	4708.35
1754.49584	4692.95
1757.71349	4695.35
1760.92903	4662.85
1764.14244	4654.05
1767.35375	4661.25
1770.56294	4649.35
1773.77002	4648.15
1776.97499	4644.35
1780.17785	4671.55
1783.37861	4658.35
1786.57727	4650.55
1789.77382	4641.85
1792.96828	4648.05
1796.16064	4656.85
1799.3509	4626.25
1802.53907	4643.65
1805.72514	4623.35
1808.90913	4614.35
1812.09102	4593.55
1815.27083	4587.45
1818.44856	4587.25
1821.6242	4567.55
1824.79776	4557.05
1827.96924	4566.95
1831.13864	4568.75
1834.30597	4564.55
1837.47122	4549.05
1840.6344	4558.85
1843.7955	4545.95
1846.95454	4555.55
1850.11151	4553.15
1853.26642	4540.85
1856.41926	4548.65
1859.57004	4548.05
1862.71876	4541.45
1865.86542	4546.45
1869.01003	4552.15
1872.15258	4542.65
1875.29308	4548.25
1878.43152	4528.95
1881.56792	4540.25
1884.70227	4539.45
1887.83457	4531.75
1890.96482	4536.45
1894.09304	4523.25
1897.21921	4546.05
1900.34335	4543.25
1903.46544	4543.55
1906.58551	4525.85
1909.70353	4535.95
1912.81953	4529.65
1915.93349	4527.25
1919.04543	4519.35
1922.15534	4522.65
1925.26322	4516.55
1928.36908	4505.55
1931.47292	4485.85
1934.57473	4464.45
1937.67453	4461.35
1940.77232	4423.15
1943.86808	4406.55
1946.96184	4391.85
1950.05358	4375.25
1953.14331	4355.55
1956.23103	4334.15
1959.31675	4332.35
1962.40046	4325.95
1965.48217	4309.45
1968.56188	4298.05
1971.63959	4288.85
1974.7153	4278.35
1977.78901	4266.85
1980.86073	4247.95
1983.93046	4231.85
1986.99819	4202.25
1990.06394	4198.65
1993.1277	4191.75
1996.18947	4176.35
1999.24925	4172.05
2002.30706	4156.25
2005.36288	4132.25
2008.41672	4135.95
2011.46859	4131.25
2014.51848	4084.05
2017.56639	4103.75
2020.61233	4105.65
2023.6563	4075.45
2026.6983	4055.75
2029.73833	4049.55
2032.7764	4042.25
2035.8125	4041.85
2038.84664	4013.75
2041.87881	4017.85
2044.90903	3999.55
2047.93729	3999.95
2050.96359	3992.85
2053.98794	3992.85
2057.01034	3977.05
2060.03078	3986.05
2063.04927	3981.35
2066.06582	3978.45
2069.08042	3960.25
2072.09307	3966.45
2075.10378	3970.65
2078.11255	3966.25
2081.11938	3966.55
2084.12426	3965.05
2087.12722	3962.55
2090.12824	3954.05
2093.12732	3951.05
2096.12447	3942.45
2099.11969	3948.35
2102.11299	3942.85
2105.10435	3958.55
2108.09379	3942.25
2111.08131	3953.35
2114.0669	3954.65
2117.05057	3965.65
2120.03233	3962.35
2123.01216	3962.05
2125.99008	3958.85
2128.96609	3957.25
2131.94018	3985.25
2134.91236	3962.05
2137.88263	3971.55
2140.851	3965.25
2143.81746	3981.25
2146.78201	3970.75
2149.74466	3964.45
2152.7054	3976.65
2155.66425	3965.35
2158.6212	3971.95
2161.57625	3972.65
2164.52941	3966.65
2167.48067	3954.65
2170.43004	3964.35
2173.37752	3959.35
2176.32311	3965.35
2179.26681	3958.95
2182.20863	3950.75
2185.14856	3953.65
2188.08661	3960.25
2191.02278	3943.55
2193.95707	3955.15
2196.88948	3944.15
2199.82001	3948.15
2202.74867	3936.45
2205.67545	3934.05
2208.60037	3923.65
2211.52341	3916.25
2214.44458	3912.25
2217.36388	3908.95
2220.28132	3883.95
2223.1969	3887.65
2226.11061	3890.95
2229.02246	3877.45
2231.93245	3877.35
2234.84058	3861.05
2237.74686	3855.05
2240.65128	3856.05
2243.55385	3844.35
2246.45456	3831.25
2249.35343	3832.35
2252.25044	3837.55
2255.14561	3817.05
2258.03893	3807.55
2260.93041	3811.95
2263.82004	3805.25
2266.70783	3798.45
2269.59378	3793.35
2272.4779	3776.75
2275.36017	3766.95
2278.24061	3757.35
2281.11922	3762.65
2283.996	3750.75
2286.87094	3750.05
2289.74405	3728.85
2292.61534	3710.95
2295.4848	3707.45
2298.35243	3715.75
2301.21824	3719.15
2304.08223	3705.45
2306.94439	3717.55
2309.80474	3715.45
2312.66327	3695.85
2315.51999	3692.15
2318.37489	3702.15
2321.22797	3690.15
2324.07925	3690.85
2326.92871	3684.45
2329.77637	3672.65
2332.62222	3666.15
2335.46626	3656.65
2338.3085	3658.55
2341.14893	3653.65
2343.98756	3658.95
2346.8244	3635.05
2349.65943	3650.65
2352.49267	3651.05
2355.32411	3643.65
2358.15376	3640.65
2360.98161	3636.25
2363.80768	3648.55
2366.63195	3639.45
2369.45444	3636.15
2372.27514	3649.15
2375.09405	3638.35
2377.91118	3633.05
2380.72652	3617.25
2383.54009	3605.65
2386.35187	3596.75
2389.16188	3583.45
2391.97011	3566.25
2394.77657	3573.45
2397.58125	3552.35
2400.38416	3553.15
2403.18529	3531.35
2405.98466	3543.05
2408.78226	3528.05
2411.57809	3524.05
2414.37216	3523.65
2417.16446	3519.15
2419.955	3514.25
2422.74378	3522.55
2425.5308	3514.35
2428.31606	3509.95
2431.09956	3515.65
2433.88131	3502.75
2436.6613	3492.35
2439.43954	3499.75
2442.21603	3488.55
2444.99077	3493.35
2447.76377	3494.35
2450.53501	3492.95
2453.30451	3490.65
2456.07226	3481.85
2458.83827	3468.55
2461.60254	3489.05
2464.36507	3469.05
2467.12586	3473.45
2469.88492	3460.85
2472.64224	3453.05
2475.39782	3466.25
2478.15167	3454.95
2480.90379	3458.55
2483.65417	3467.05
2486.40283	3469.65
2489.14976	3458.25
2491.89497	3463.95
2494.63845	3457.85
2497.3802	3465.25
2500.12024	3455.35
2502.85855	3452.15
2505.59514	3449.65
2508.33002	3437.65
2511.06318	3433.65
2513.79462	3443.35
2516.52435	3429.75
2519.25237	3419.85
2521.97867	3406.65
2524.70327	3406.35
2527.42616	3411.45
2530.14734	3408.15
2532.86681	3387.55
2535.58458	3383.85
2538.30065	3375.95
2541.01501	3380.45
2543.72768	3373.55
2546.43864	3352.85
2549.14791	3358.15
2551.85548	3369.25
2554.56136	3366.55
2557.26554	3345.75
2559.96803	3347.45
2562.66883	3340.25
2565.36794	3338.45
2568.06536	3341.45
2570.7611	3309.25
2573.45514	3313.35
2576.14751	3310.35
2578.83819	3306.35
2581.52719	3305.55
2584.21451	3284.15
2586.90015	3298.75
2589.58411	3293.25
2592.2664	3300.25
2594.94701	3289.35
2597.62594	3272.95
2600.30321	3281.85
2602.9788	3273.85
2605.65273	3269.45
2608.32498	3264.85
2610.99557	3267.15
2613.66449	3255.25
2616.33175	3254.55
2618.99734	3255.15
2621.66128	3252.65
2624.32355	3253.55
2626.98416	3245.75
2629.64311	3246.45
2632.30041	3241.35
2634.95605	3241.75
2637.61004	3233.05
2640.26238	3228.65
2642.91306	3236.25
2645.56209	3217.65
2648.20948	3210.55
2650.85521	3212.45
2653.4993	3217.85
2656.14175	3206.85
2658.78255	3214.05
2661.42171	3219.75
2664.05923	3226.85
2666.6951	3226.85
2669.32934	3217.15
2671.96194	3209.55
2674.59291	3227.35
2677.22224	3208.95
2679.84993	3224.35
2682.476	3230.65
2685.10043	3216.05
2687.72324	3207.55
2690.34441	3216.75
2692.96396	3213.25
2695.58188	3226.85
2698.19818	3211.15
2700.81285	3216.55
2703.4259	3219.65
2706.03733	3208.05
2708.64714	3205.15
2711.25533	3216.75
2713.86191	3209.95
2716.46687	3231.75
2719.07021	3214.55
2721.67194	3224.45
2724.27206	3230.85
2726.87057	3225.35
2729.46747	3230.75
2732.06276	3230.05
2734.65644	3222.55
2737.24852	3221.95
2739.83899	3212.65
2742.42786	3212.45
2745.01513	3187.25
2747.60079	3192.25
2750.18486	3201.15
2752.76733	3188.25
2755.3482	3186.25
2757.92747	3197.35
2760.50515	3180.55
2763.08123	3181.35
2765.65573	3178.95
2768.22863	3180.35
2770.79994	3169.45
2773.36967	3168.45
2775.9378	3154.75
2778.50435	3175.05
2781.06932	3157.65
2783.6327	3156.95
2786.1945	3158.55
2788.75471	3158.35
2791.31335	3148.75
2793.87041	3131.25
2796.42589	3133.65
2798.97979	3139.45
2801.53212	3134.05
2804.08288	3127.75
2806.63206	3122.95
2809.17967	3118.05
2811.72571	3115.95
2814.27018	3107.75
2816.81308	3103.95
2819.35442	3101.45
2821.89419	3109.65
2824.43239	3111.35
2826.96904	3103.95
2829.50412	3100.45
2832.03763	3100.75
2834.56959	3106.55
2837.1	3106.55
2839.62884	3117.05
2842.15613	3130.85
2844.68186	3160.85
2847.20604	3176.95
2849.72867	3183.95
2852.24974	3194.85
2854.76927	3196.55
2857.28724	3179.25
2859.80367	3166.05
2862.31855	3168.05
2864.83189	3151.35
2867.34368	3147.95
2869.85393	3135.75
2872.36264	3146.95
2874.8698	3148.15
2877.37543	3131.35
2879.87952	3128.25
2882.38207	3141.85
2884.88308	3148.65
2887.38256	3124.05
2889.88051	3124.45
2892.37692	3136.55
2894.8718	3135.65
2897.36515	3119.05
2899.85698	3129.75
2902.34727	3134.35
2904.83604	3135.75
2907.32328	3137.25
2909.809	3128.95
2912.29319	3130.85
2914.77587	3137.35
2917.25702	3130.05
2919.73665	3128.25
2922.21476	3130.45
2924.69136	3121.65
2927.16644	3132.05
2929.64	3122.05
2932.11205	3128.35
2934.58258	3117.65
2937.05161	3113.05
2939.51912	3102.85
2941.98513	3087.35
2944.44962	3074.05
2946.91261	3050.95
2949.37409	3052.45
2951.83407	3045.55
2954.29254	3038.25
2956.74951	3031.15
2959.20498	3021.45
2961.65895	3010.35
2964.11142	3011.05
2966.56239	3001.45
2969.01186	2998.35
2971.45984	3001.05
2973.90632	2984.85
2976.35131	2984.65
2978.7948	2968.85
2981.23681	2969.65
2983.67732	2961.55
2986.11635	2950.25
2988.55388	2940.55
2990.98993	2938.95
2993.4245	2930.35
2995.85758	2930.45
2998.28917	2917.15
3000.71928	2917.25
3003.14791	2906.85
3005.57506	2908.95
3008.00073	2905.15
3010.42493	2893.75
3012.84764	2898.95
3015.26888	2890.95
3017.68865	2894.25
3020.10694	2879.95
3022.52376	2877.85
3024.9391	2878.55
3027.35298	2865.85
3029.76539	2871.75
3032.17632	2862.75
3034.5858	2873.85
3036.9938	2872.15
3039.40034	2863.15
3041.80542	2864.75
3044.20903	2859.85
3046.61118	2854.75
3049.01187	2859.35
3051.4111	2851.95
3053.80888	2847.45
3056.20519	2842.15
3058.60005	2851.55
3060.99345	2828.95
3063.3854	2823.75
3065.7759	2818.15
3068.16494	2827.85
3070.55254	2809.55
3072.93868	2806.15
3075.32338	2805.25
3077.70662	2788.85
3080.08842	2796.65
3082.46878	2783.65
3084.84769	2779.95
3087.22515	2789.05
3089.60118	2800.05
3091.97576	2780.65
3094.3489	2787.55
3096.72061	2791.85
3099.09087	2789.15
3101.4597	2790.05
3103.82709	2780.95
3106.19305	2792.35
3108.55757	2802.65
3110.92066	2789.45
3113.28232	2791.45
3115.64255	2786.45
3118.00134	2782.25
3120.35871	2778.05
3122.71466	2783.55
3125.06917	2778.25
3127.42226	2776.25
3129.77393	2771.25
3132.12417	2777.95
3134.47299	2770.45
3136.82039	2791.25
3139.16636	2781.55
3141.51092	2798.95
3143.85406	2801.35
3146.19579	2795.15
3148.53609	2800.85
3150.87499	2812.15
3153.21246	2822.65
3155.54853	2827.25
3157.88318	2828.45
3160.21642	2836.35
3162.54826	2828.45
3164.87868	2829.65
3167.2077	2830.95
3169.5353	2846.15
3171.86151	2841.25
3174.18631	2836.35
3176.5097	2847.35
3178.83169	2842.15
3181.15228	2841.05
3183.47147	2849.35
3185.78926	2845.65
3188.10565	2833.25
3190.42065	2850.45
3192.73424	2841.75
3195.04645	2848.95
3197.35725	2840.75
3199.66667	2862.15
3201.97469	2854.45
3204.28132	2861.35
3206.58656	2874.25
3208.8904	2860.35
3211.19287	2875.55
3213.49394	2878.95
3215.79363	2878.25
3218.09193	2878.05
3220.38884	2884.95
3222.68438	2874.45
3224.97853	2887.65
3227.2713	2881.25
3229.56269	2874.15
3231.8527	2886.55
3234.14133	2865.75
3236.42858	2872.45
3238.71446	2867.35
3240.99896	2855.35
3243.28209	2860.65
3245.56384	2859.45
3247.84423	2854.25
3250.12324	2846.15
3252.40088	2850.35
3254.67715	2855.35
3256.95205	2861.05
3259.22558	2849.15
3261.49775	2839.15
3263.76855	2845.95
3266.03799	2822.95
3268.30606	2840.65
3270.57277	2829.75
3272.83812	2818.65
3275.10211	2807.35
3277.36474	2811.85
3279.62601	2799.75
3281.88593	2803.75
3284.14448	2800.15
3286.40168	2805.65
3288.65753	2811.25
3290.91202	2797.35
3293.16516	2789.45
3295.41695	2781.25
3297.66738	2759.95
3299.91647	2764.05
3302.16421	2737.55
3304.4106	2729.45
3306.65564	2720.65
3308.89933	2704.15
3311.14169	2682.45
3313.38269	2660.65
3315.62236	2641.55
3317.86068	2626.35
3320.09766	2609.05
3322.3333	2595.05
3324.5676	2584.45
3326.80056	2525.75
3329.03219	2509.25
3331.26248	-0.75
3333.49143	0.05
3335.71905	-0.05
