Data from AgNPs_FTO_APTES_UA_1uM_CRN_10uM_R6G_10uM_NaF_0.1M_Addition_RamanShift__6__14-22-49-628.txt Node

Date: Thu Jan 27 14:22:49 GMT 2022
User: TCL
Spectrometer: QEP01345
Trigger mode: 4
Integration Time (sec): 7.000000E0
Scans to average: 10
Electric dark correction enabled: true
Nonlinearity correction enabled: false
Boxcar width: 0
XAxis mode: Raman Shifts
Number of Pixels in Spectrum: 1044
>>>>>Begin Spectral Data<<<<<
46.04893	1.475
50.45542	0.875
54.85868	-1.025
59.25871	-0.325
63.6555	52.375
68.04907	51.675
72.43941	54.675
76.82654	61.075
81.21044	59.375
85.59113	59.275
89.96862	60.975
94.34289	68.475
98.71396	70.675
103.08183	66.475
107.4465	71.775
111.80798	73.675
116.16626	71.675
120.52136	80.175
124.87327	82.675
129.222	82.275
133.56755	84.075
137.90993	89.975
142.24913	100.475
146.58517	110.075
150.91804	125.475
155.24774	146.675
159.57429	176.875
163.89768	227.475
168.21792	296.175
172.53501	399.275
176.84895	550.475
181.15975	775.875
185.46741	1083.375
189.77193	1490.175
194.07331	1992.575
198.37157	2585.475
202.6667	3185.375
206.9587	3776.075
211.24758	4378.675
215.53334	4974.375
219.81599	5594.675
224.09553	6274.075
228.37195	7034.975
232.64527	7852.275
236.91549	8741.575
241.18261	9618.775
245.44663	10437.975
249.70755	11204.675
253.96539	11865.275
258.22014	12418.575
262.4718	12910.175
266.72039	13229.675
270.96589	13397.075
275.20832	13409.775
279.44768	13337.375
283.68397	13189.075
287.91719	13055.375
292.14735	12951.975
296.37445	12891.175
300.59849	12947.575
304.81948	12984.675
309.03742	13015.875
313.25231	12956.875
317.46415	12786.675
321.67296	12560.275
325.87872	12350.475
330.08145	12252.575
334.28114	12243.175
338.47781	12325.075
342.67145	12430.775
346.86207	12650.175
351.04966	12866.675
355.23424	13075.075
359.4158	13291.775
363.59435	13443.975
367.76989	13559.175
371.94243	13634.575
376.11196	13710.075
380.27849	13744.675
384.44203	13813.775
388.60257	13929.175
392.76012	14072.875
396.91468	14230.775
401.06626	14423.075
405.21485	14563.675
409.36047	14527.075
413.50311	14390.775
417.64277	14343.275
421.77947	14371.775
425.9132	14426.775
430.04396	14533.375
434.17176	14605.175
438.2966	14670.975
442.41849	14801.875
446.53742	15141.375
450.6534	15513.975
454.76644	15755.575
458.87653	15794.275
462.98368	15724.675
467.08789	15564.075
471.18916	15415.275
475.2875	15162.675
479.38291	15017.375
483.4754	14901.875
487.56496	14796.175
491.6516	14641.775
495.73531	14487.275
499.81612	14428.275
503.89401	14523.175
507.96899	14600.675
512.04106	14585.375
516.11023	14502.675
520.1765	14416.275
524.23987	14287.775
528.30034	14176.275
532.35792	14102.675
536.41261	13994.275
540.46441	13823.975
544.51333	13806.275
548.55936	13912.275
552.60252	14134.175
556.64279	14422.775
560.6802	14610.575
564.71473	14708.475
568.7464	14853.375
572.7752	15163.775
576.80114	15536.375
580.82422	15982.775
584.84444	16530.475
588.86181	17290.775
592.87633	17926.975
596.888	17843.975
600.89682	17128.375
604.9028	16844.075
608.90594	17571.575
612.90624	18580.075
616.90371	17702.775
620.89834	15451.775
624.89015	14398.075
628.87913	14272.775
632.86528	14360.575
636.84862	14305.575
640.82913	14140.575
644.80683	13861.075
648.78172	13697.575
652.75379	13683.975
656.72306	13860.675
660.68952	14017.975
664.65319	13959.075
668.61405	13721.675
672.57211	13694.175
676.52738	13763.775
680.47986	13774.375
684.42955	13704.575
688.37646	13621.175
692.32058	13688.375
696.26192	13837.475
700.20048	14058.975
704.13626	14138.175
708.06928	14155.675
711.99952	14098.675
715.927	14097.575
719.85171	14122.075
723.77365	14096.275
727.69284	13924.075
731.60928	13764.975
735.52295	13666.675
739.43388	13658.175
743.34206	13713.675
747.24749	13787.175
751.15017	13909.475
755.05012	14086.575
758.94733	14410.675
762.8418	14940.875
766.73354	15725.475
770.62254	16489.075
774.50882	16653.675
778.39237	16132.475
782.27321	15252.875
786.15132	14544.475
790.02671	14074.275
793.89938	13851.175
797.76935	13745.375
801.6366	13724.675
805.50115	13664.175
809.36299	13604.475
813.22213	13535.175
817.07857	13475.475
820.93231	13441.175
824.78336	13408.375
828.63172	13363.175
832.47738	13360.175
836.32036	13360.975
840.16066	13393.375
843.99827	13417.375
847.8332	13369.475
851.66546	13363.275
855.49504	13341.975
859.32195	13333.775
863.1462	13353.775
866.96777	13305.875
870.78668	13280.575
874.60293	13297.875
878.41652	13313.975
882.22745	13371.975
886.03573	13415.075
889.84136	13415.375
893.64433	13370.175
897.44466	13289.075
901.24235	13255.975
905.0374	13205.475
908.8298	13191.375
912.61957	13206.975
916.40671	13304.475
920.19121	13443.575
923.97308	13602.775
927.75233	13658.075
931.52895	13538.875
935.30295	13395.875
939.07433	13201.075
942.84309	13076.475
946.60924	13011.775
950.37278	12993.375
954.13371	12965.975
957.89203	12929.975
961.64774	12908.975
965.40086	12901.475
969.15137	12875.375
972.89929	12872.075
976.64461	12837.575
980.38733	12803.075
984.12747	12868.075
987.86502	12947.975
991.59999	13025.575
995.33237	13146.475
999.06217	13352.675
1002.78939	13615.275
1006.51404	13872.375
1010.23611	14066.375
1013.95561	14208.475
1017.67255	14197.775
1021.38692	14084.675
1025.09872	13885.475
1028.80796	13787.975
1032.51465	13922.575
1036.21877	14092.275
1039.92035	14148.875
1043.61937	14138.075
1047.31584	14011.175
1051.00976	13884.375
1054.70114	13825.675
1058.38998	13812.975
1062.07627	13911.475
1065.76003	13997.175
1069.44126	14144.975
1073.11995	14362.275
1076.79611	14528.375
1080.46974	14631.475
1084.14085	14678.975
1087.80943	14783.575
1091.47549	14878.475
1095.13903	14877.575
1098.80005	14766.475
1102.45857	14451.075
1106.11456	14236.775
1109.76805	14113.675
1113.41903	14108.575
1117.06751	14139.075
1120.71348	14255.775
1124.35696	14375.375
1127.99793	14537.075
1131.63641	14608.475
1135.2724	14553.675
1138.90589	14499.175
1142.5369	14505.775
1146.16542	14586.475
1149.79145	14661.075
1153.415	14715.275
1157.03607	14861.675
1160.65467	15194.675
1164.27079	15752.675
1167.88443	16455.975
1171.49561	17196.075
1175.10432	18051.975
1178.71056	19160.075
1182.31434	20237.275
1185.91565	20743.175
1189.51451	20721.875
1193.11091	20275.675
1196.70485	19738.275
1200.29634	19129.575
1203.88538	18743.575
1207.47197	18498.675
1211.05612	18298.175
1214.63782	17990.275
1218.21708	17595.475
1221.79391	17188.875
1225.36829	16897.475
1228.94024	16751.275
1232.50976	16533.475
1236.07685	16369.375
1239.6415	16240.275
1243.20374	16266.375
1246.76355	16384.275
1250.32093	16553.175
1253.8759	16832.675
1257.42845	17217.475
1260.97859	17624.075
1264.52631	18077.975
1268.07163	18526.775
1271.61453	18958.875
1275.15503	19394.775
1278.69312	19868.375
1282.22882	20336.475
1285.76211	20860.675
1289.29301	21579.275
1292.82151	22406.575
1296.34761	23450.975
1299.87133	24708.475
1303.39266	25963.875
1306.9116	27107.275
1310.42815	27960.275
1313.94233	28319.475
1317.45412	28075.275
1320.96354	27506.675
1324.47058	27013.075
1327.97525	26645.975
1331.47754	26420.975
1334.97747	26207.675
1338.47502	25988.375
1341.97022	25661.175
1345.46305	25289.275
1348.95352	25111.175
1352.44163	25150.975
1355.92738	25768.875
1359.41078	26848.575
1362.89183	27685.875
1366.37053	27456.175
1369.84688	25586.575
1373.32088	23110.975
1376.79254	21236.975
1380.26186	20520.175
1383.72883	20544.675
1387.19347	20557.275
1390.65578	20323.975
1394.11575	20096.475
1397.57339	20174.375
1401.0287	20471.175
1404.48168	20767.875
1407.93234	20806.975
1411.38068	20560.875
1414.82669	20016.675
1418.27039	19385.475
1421.71177	18747.075
1425.15083	18212.475
1428.58758	17928.075
1432.02203	18075.875
1435.45416	18494.775
1438.88399	18991.475
1442.31151	19370.675
1445.73673	19542.975
1449.15965	19632.175
1452.58027	19557.275
1455.9986	19483.875
1459.41463	19475.475
1462.82837	19704.675
1466.23982	20066.975
1469.64898	20433.175
1473.05586	20726.875
1476.46045	20778.275
1479.86276	20756.975
1483.26279	20572.275
1486.66054	20481.875
1490.05602	20531.575
1493.44922	20710.475
1496.84016	20984.075
1500.22882	21258.075
1503.61521	21696.675
1506.99934	22256.475
1510.38121	22674.675
1513.76081	22774.475
1517.13816	22398.875
1520.51324	21818.375
1523.88607	21352.375
1527.25665	21119.575
1530.62498	21104.875
1533.99105	21007.875
1537.35488	20701.375
1540.71647	20281.575
1544.07581	19812.675
1547.4329	19370.275
1550.78776	18964.575
1554.14038	18726.975
1557.49077	18545.875
1560.83892	18487.375
1564.18484	18396.075
1567.52853	18429.475
1570.86999	18572.275
1574.20922	18893.875
1577.54624	19133.475
1580.88103	19265.575
1584.2136	19417.975
1587.54395	19985.575
1590.87208	20900.675
1594.19801	22058.675
1597.52172	23152.275
1600.84321	23443.075
1604.16251	22506.575
1607.47959	20876.975
1610.79447	19173.475
1614.10715	17661.875
1617.41763	16492.175
1620.7259	15698.775
1624.03199	15322.775
1627.33587	15359.675
1630.63757	15716.175
1633.93707	16572.975
1637.23439	17959.875
1640.52951	20066.675
1643.82246	22551.075
1647.11321	24591.975
1650.40179	24933.875
1653.68819	23211.775
1656.97241	20300.875
1660.25446	17549.575
1663.53433	15598.575
1666.81203	14336.975
1670.08756	13577.575
1673.36092	13109.375
1676.63211	12808.375
1679.90115	12602.675
1683.16801	12436.075
1686.43272	12319.375
1689.69527	12199.575
1692.95567	12125.375
1696.2139	12045.975
1699.46999	11988.575
1702.72392	11925.375
1705.97571	11925.975
1709.22535	11944.875
1712.47284	11967.175
1715.71819	11962.775
1718.96139	11923.275
1722.20246	11919.775
1725.44139	11872.975
1728.67818	11819.275
1731.91284	11750.075
1735.14537	11711.975
1738.37576	11657.575
1741.60403	11610.575
1744.83017	11548.075
1748.05418	11536.275
1751.27607	11502.775
1754.49584	11481.375
1757.71349	11456.575
1760.92903	11422.875
1764.14244	11413.275
1767.35375	11416.175
1770.56294	11382.975
1773.77002	11388.175
1776.97499	11387.775
1780.17785	11401.075
1783.37861	11384.975
1786.57727	11406.975
1789.77382	11347.375
1792.96828	11338.175
1796.16064	11315.975
1799.3509	11284.175
1802.53907	11296.675
1805.72514	11270.175
1808.90913	11230.975
1812.09102	11201.575
1815.27083	11194.775
1818.44856	11193.775
1821.6242	11172.175
1824.79776	11164.975
1827.96924	11163.275
1831.13864	11134.375
1834.30597	11154.775
1837.47122	11143.075
1840.6344	11133.475
1843.7955	11125.575
1846.95454	11141.975
1850.11151	11124.175
1853.26642	11140.475
1856.41926	11115.575
1859.57004	11148.375
1862.71876	11109.475
1865.86542	11087.975
1869.01003	11076.475
1872.15258	11089.375
1875.29308	11050.275
1878.43152	11028.975
1881.56792	11033.775
1884.70227	11015.575
1887.83457	11007.275
1890.96482	11011.375
1894.09304	10981.375
1897.21921	10982.075
1900.34335	10975.775
1903.46544	10933.475
1906.58551	10953.575
1909.70353	10910.275
1912.81953	10908.275
1915.93349	10883.375
1919.04543	10843.575
1922.15534	10848.275
1925.26322	10811.875
1928.36908	10816.775
1931.47292	10777.975
1934.57473	10771.075
1937.67453	10744.775
1940.77232	10741.775
1943.86808	10657.475
1946.96184	10652.175
1950.05358	10607.575
1953.14331	10575.375
1956.23103	10568.475
1959.31675	10558.575
1962.40046	10524.375
1965.48217	10505.875
1968.56188	10462.775
1971.63959	10431.975
1974.7153	10423.275
1977.78901	10361.875
1980.86073	10331.575
1983.93046	10309.875
1986.99819	10273.775
1990.06394	10243.675
1993.1277	10212.075
1996.18947	10213.575
1999.24925	10184.275
2002.30706	10132.975
2005.36288	10104.175
2008.41672	10113.875
2011.46859	10043.775
2014.51848	10022.675
2017.56639	10024.975
2020.61233	10000.375
2023.6563	9974.475
2026.6983	9948.075
2029.73833	9939.175
2032.7764	9911.575
2035.8125	9900.075
2038.84664	9882.575
2041.87881	9850.075
2044.90903	9838.375
2047.93729	9832.975
2050.96359	9820.575
2053.98794	9771.775
2057.01034	9795.475
2060.03078	9792.675
2063.04927	9777.975
2066.06582	9768.275
2069.08042	9766.075
2072.09307	9767.575
2075.10378	9760.375
2078.11255	9742.575
2081.11938	9738.275
2084.12426	9755.575
2087.12722	9739.975
2090.12824	9737.175
2093.12732	9758.775
2096.12447	9731.175
2099.11969	9757.075
2102.11299	9746.775
2105.10435	9756.175
2108.09379	9796.375
2111.08131	9778.475
2114.0669	9769.675
2117.05057	9783.175
2120.03233	9783.175
2123.01216	9790.575
2125.99008	9795.275
2128.96609	9827.075
2131.94018	9848.375
2134.91236	9825.975
2137.88263	9832.475
2140.851	9821.275
2143.81746	9831.575
2146.78201	9849.175
2149.74466	9843.275
2152.7054	9867.975
2155.66425	9819.175
2158.6212	9842.675
2161.57625	9817.475
2164.52941	9833.175
2167.48067	9833.675
2170.43004	9810.675
2173.37752	9842.975
2176.32311	9837.875
2179.26681	9827.575
2182.20863	9826.575
2185.14856	9822.275
2188.08661	9838.575
2191.02278	9849.475
2193.95707	9843.375
2196.88948	9831.675
2199.82001	9823.375
2202.74867	9834.375
2205.67545	9830.075
2208.60037	9820.875
2211.52341	9773.375
2214.44458	9779.775
2217.36388	9759.975
2220.28132	9740.675
2223.1969	9711.875
2226.11061	9710.375
2229.02246	9680.475
2231.93245	9696.175
2234.84058	9678.075
2237.74686	9653.275
2240.65128	9641.175
2243.55385	9638.275
2246.45456	9614.875
2249.35343	9605.075
2252.25044	9584.875
2255.14561	9561.475
2258.03893	9532.375
2260.93041	9546.775
2263.82004	9509.675
2266.70783	9517.275
2269.59378	9481.375
2272.4779	9450.075
2275.36017	9448.475
2278.24061	9443.975
2281.11922	9432.775
2283.996	9406.575
2286.87094	9406.375
2289.74405	9377.975
2292.61534	9369.275
2295.4848	9354.375
2298.35243	9380.875
2301.21824	9360.375
2304.08223	9394.975
2306.94439	9380.475
2309.80474	9378.675
2312.66327	9340.375
2315.51999	9358.475
2318.37489	9340.375
2321.22797	9354.975
2324.07925	9333.175
2326.92871	9319.575
2329.77637	9313.575
2332.62222	9289.375
2335.46626	9266.875
2338.3085	9281.775
2341.14893	9264.675
2343.98756	9258.775
2346.8244	9263.375
2349.65943	9248.675
2352.49267	9254.175
2355.32411	9237.875
2358.15376	9230.175
2360.98161	9232.275
2363.80768	9233.675
2366.63195	9228.675
2369.45444	9204.975
2372.27514	9181.075
2375.09405	9188.875
2377.91118	9186.675
2380.72652	9166.975
2383.54009	9142.775
2386.35187	9137.475
2389.16188	9112.575
2391.97011	9097.475
2394.77657	9093.575
2397.58125	9078.575
2400.38416	9085.475
2403.18529	9052.475
2405.98466	9069.975
2408.78226	9021.875
2411.57809	9027.675
2414.37216	8998.075
2417.16446	8999.875
2419.955	9005.175
2422.74378	9003.475
2425.5308	8981.875
2428.31606	8987.475
2431.09956	8970.875
2433.88131	8966.375
2436.6613	8976.675
2439.43954	8970.675
2442.21603	8940.775
2444.99077	8942.275
2447.76377	8975.575
2450.53501	8960.275
2453.30451	8940.075
2456.07226	8955.775
2458.83827	8925.375
2461.60254	8931.175
2464.36507	8944.375
2467.12586	8932.375
2469.88492	8908.675
2472.64224	8918.475
2475.39782	8914.275
2478.15167	8914.475
2480.90379	8883.975
2483.65417	8921.275
2486.40283	8934.675
2489.14976	8921.775
2491.89497	8916.475
2494.63845	8936.375
2497.3802	8905.275
2500.12024	8900.375
2502.85855	8930.875
2505.59514	8905.875
2508.33002	8879.975
2511.06318	8870.275
2513.79462	8887.675
2516.52435	8871.075
2519.25237	8882.275
2521.97867	8859.275
2524.70327	8849.475
2527.42616	8839.175
2530.14734	8850.275
2532.86681	8833.675
2535.58458	8811.375
2538.30065	8801.975
2541.01501	8807.375
2543.72768	8794.375
2546.43864	8797.575
2549.14791	8792.275
2551.85548	8783.975
2554.56136	8760.875
2557.26554	8753.075
2559.96803	8742.675
2562.66883	8758.575
2565.36794	8773.475
2568.06536	8747.875
2570.7611	8713.575
2573.45514	8720.175
2576.14751	8713.275
2578.83819	8679.675
2581.52719	8696.175
2584.21451	8681.375
2586.90015	8668.875
2589.58411	8643.275
2592.2664	8674.375
2594.94701	8642.175
2597.62594	8650.775
2600.30321	8611.475
2602.9788	8630.875
2605.65273	8614.575
2608.32498	8617.075
2610.99557	8601.675
2613.66449	8621.975
2616.33175	8595.375
2618.99734	8605.275
2621.66128	8606.675
2624.32355	8601.175
2626.98416	8587.275
2629.64311	8553.875
2632.30041	8572.275
2634.95605	8554.975
2637.61004	8535.375
2640.26238	8528.775
2642.91306	8526.575
2645.56209	8532.675
2648.20948	8536.575
2650.85521	8532.775
2653.4993	8545.275
2656.14175	8530.275
2658.78255	8545.275
2661.42171	8533.075
2664.05923	8561.575
2666.6951	8538.975
2669.32934	8553.175
2671.96194	8546.775
2674.59291	8569.275
2677.22224	8562.175
2679.84993	8562.575
2682.476	8566.675
2685.10043	8550.975
2687.72324	8531.475
2690.34441	8548.675
2692.96396	8528.775
2695.58188	8542.675
2698.19818	8523.175
2700.81285	8519.475
2703.4259	8546.375
2706.03733	8540.475
2708.64714	8502.575
2711.25533	8543.575
2713.86191	8549.475
2716.46687	8574.975
2719.07021	8559.175
2721.67194	8570.775
2724.27206	8559.475
2726.87057	8602.175
2729.46747	8585.575
2732.06276	8617.075
2734.65644	8580.375
2737.24852	8584.575
2739.83899	8585.475
2742.42786	8579.475
2745.01513	8556.875
2747.60079	8553.375
2750.18486	8540.575
2752.76733	8533.075
2755.3482	8549.675
2757.92747	8559.475
2760.50515	8527.875
2763.08123	8521.975
2765.65573	8527.675
2768.22863	8509.175
2770.79994	8534.875
2773.36967	8513.975
2775.9378	8522.975
2778.50435	8495.275
2781.06932	8508.875
2783.6327	8483.875
2786.1945	8485.575
2788.75471	8485.375
2791.31335	8456.375
2793.87041	8467.975
2796.42589	8441.675
2798.97979	8449.675
2801.53212	8421.975
2804.08288	8416.975
2806.63206	8393.675
2809.17967	8384.475
2811.72571	8339.875
2814.27018	8350.675
2816.81308	8331.975
2819.35442	8341.075
2821.89419	8324.275
2824.43239	8309.175
2826.96904	8320.375
2829.50412	8295.275
2832.03763	8297.075
2834.56959	8311.075
2837.1	8275.075
2839.62884	8261.775
2842.15613	8287.575
2844.68186	8302.175
2847.20604	8300.775
2849.72867	8310.375
2852.24974	8284.775
2854.76927	8289.575
2857.28724	8287.275
2859.80367	8285.975
2862.31855	8253.675
2864.83189	8244.875
2867.34368	8238.075
2869.85393	8228.575
2872.36264	8232.275
2874.8698	8223.475
2877.37543	8225.675
2879.87952	8219.175
2882.38207	8211.175
2884.88308	8220.575
2887.38256	8212.875
2889.88051	8226.475
2892.37692	8217.375
2894.8718	8189.675
2897.36515	8225.275
2899.85698	8213.775
2902.34727	8243.775
2904.83604	8243.375
2907.32328	8239.175
2909.809	8253.175
2912.29319	8256.075
2914.77587	8243.675
2917.25702	8258.975
2919.73665	8220.875
2922.21476	8229.175
2924.69136	8242.075
2927.16644	8250.575
2929.64	8251.875
2932.11205	8225.975
2934.58258	8187.075
2937.05161	8237.575
2939.51912	8219.275
2941.98513	8199.275
2944.44962	8167.575
2946.91261	8154.175
2949.37409	8176.175
2951.83407	8162.075
2954.29254	8149.475
2956.74951	8144.675
2959.20498	8141.775
2961.65895	8125.075
2964.11142	8161.775
2966.56239	8135.675
2969.01186	8113.575
2971.45984	8115.775
2973.90632	8065.675
2976.35131	8083.875
2978.7948	8089.775
2981.23681	8035.875
2983.67732	8051.875
2986.11635	8008.675
2988.55388	8017.575
2990.98993	7991.875
2993.4245	8001.575
2995.85758	7990.675
2998.28917	7953.975
3000.71928	7943.875
3003.14791	7930.875
3005.57506	7911.175
3008.00073	7890.975
3010.42493	7910.175
3012.84764	7893.575
3015.26888	7895.675
3017.68865	7887.975
3020.10694	7866.275
3022.52376	7836.475
3024.9391	7831.775
3027.35298	7830.375
3029.76539	7824.575
3032.17632	7815.175
3034.5858	7788.075
3036.9938	7801.675
3039.40034	7806.775
3041.80542	7798.275
3044.20903	7775.575
3046.61118	7774.675
3049.01187	7783.775
3051.4111	7777.275
3053.80888	7747.275
3056.20519	7748.275
3058.60005	7732.375
3060.99345	7684.975
3063.3854	7684.875
3065.7759	7682.875
3068.16494	7653.375
3070.55254	7626.275
3072.93868	7636.675
3075.32338	7618.575
3077.70662	7613.175
3080.08842	7586.775
3082.46878	7576.875
3084.84769	7583.575
3087.22515	7581.875
3089.60118	7553.075
3091.97576	7570.875
3094.3489	7567.075
3096.72061	7575.975
3099.09087	7576.775
3101.4597	7576.875
3103.82709	7545.775
3106.19305	7552.675
3108.55757	7565.675
3110.92066	7526.975
3113.28232	7506.875
3115.64255	7507.575
3118.00134	7516.375
3120.35871	7508.775
3122.71466	7481.275
3125.06917	7459.175
3127.42226	7473.375
3129.77393	7443.475
3132.12417	7450.175
3134.47299	7441.575
3136.82039	7442.075
3139.16636	7457.875
3141.51092	7462.675
3143.85406	7452.975
3146.19579	7463.775
3148.53609	7471.975
3150.87499	7482.275
3153.21246	7489.275
3155.54853	7481.475
3157.88318	7446.075
3160.21642	7463.575
3162.54826	7479.975
3164.87868	7483.875
3167.2077	7460.875
3169.5353	7480.175
3171.86151	7480.375
3174.18631	7475.075
3176.5097	7465.175
3178.83169	7455.775
