Data from AgNPs_FTO_APTES_UA_1uM_CRN_5uM_R6G_10uM_NaF_0.1M_Addition_RamanShift__2__13-38-29-577.txt Node

Date: Thu Jan 27 13:38:29 GMT 2022
User: TCL
Spectrometer: QEP01345
Trigger mode: 4
Integration Time (sec): 7.000000E0
Scans to average: 10
Electric dark correction enabled: true
Nonlinearity correction enabled: false
Boxcar width: 0
XAxis mode: Raman Shifts
Number of Pixels in Spectrum: 1044
>>>>>Begin Spectral Data<<<<<
46.04893	0.825
50.45542	0.225
54.85868	-0.775
59.25871	-1.975
63.6555	59.125
68.04907	56.825
72.43941	58.825
76.82654	66.025
81.21044	66.225
85.59113	68.525
89.96862	71.425
94.34289	74.625
98.71396	78.025
103.08183	74.925
107.4465	77.625
111.80798	83.225
116.16626	83.825
120.52136	91.925
124.87327	86.925
129.222	88.025
133.56755	95.925
137.90993	101.125
142.24913	109.025
146.58517	122.525
150.91804	142.125
155.24774	163.725
159.57429	200.025
163.89768	252.225
168.21792	331.525
172.53501	447.525
176.84895	614.225
181.15975	859.325
185.46741	1198.325
189.77193	1651.025
194.07331	2218.625
198.37157	2847.125
202.6667	3514.925
206.9587	4194.225
211.24758	4842.925
215.53334	5494.525
219.81599	6188.325
224.09553	6981.525
228.37195	7839.325
232.64527	8768.825
236.91549	9741.025
241.18261	10746.625
245.44663	11646.025
249.70755	12468.925
253.96539	13194.825
258.22014	13806.725
262.4718	14318.425
266.72039	14663.925
270.96589	14866.025
275.20832	14853.025
279.44768	14754.925
283.68397	14581.825
287.91719	14446.925
292.14735	14328.425
296.37445	14259.925
300.59849	14319.325
304.81948	14413.225
309.03742	14441.325
313.25231	14351.625
317.46415	14186.025
321.67296	13899.325
325.87872	13682.525
330.08145	13579.225
334.28114	13562.925
338.47781	13655.025
342.67145	13818.725
346.86207	14015.625
351.04966	14313.425
355.23424	14575.825
359.4158	14835.025
363.59435	15041.625
367.76989	15218.025
371.94243	15319.925
376.11196	15429.525
380.27849	15486.325
384.44203	15582.425
388.60257	15724.125
392.76012	15841.825
396.91468	16018.625
401.06626	16267.025
405.21485	16435.825
409.36047	16412.025
413.50311	16243.425
417.64277	16140.525
421.77947	16154.825
425.9132	16248.425
430.04396	16320.225
434.17176	16402.125
438.2966	16499.125
442.41849	16728.825
446.53742	17177.125
450.6534	17673.025
454.76644	18003.625
458.87653	18125.825
462.98368	17949.925
467.08789	17705.225
471.18916	17393.725
475.2875	17046.625
479.38291	16778.925
483.4754	16669.025
487.56496	16539.125
491.6516	16395.425
495.73531	16287.025
499.81612	16309.425
503.89401	16456.725
507.96899	16498.125
512.04106	16413.125
516.11023	16355.425
520.1765	16239.425
524.23987	16152.125
528.30034	16091.525
532.35792	15995.225
536.41261	15822.025
540.46441	15611.925
544.51333	15559.125
548.55936	15652.125
552.60252	15958.225
556.64279	16287.025
560.6802	16492.825
564.71473	16571.625
568.7464	16657.725
572.7752	16935.725
576.80114	17251.325
580.82422	17681.625
584.84444	18311.625
588.86181	19066.825
592.87633	19719.225
596.888	19761.825
600.89682	19187.925
604.9028	19121.025
608.90594	20428.725
612.90624	21992.625
616.90371	21005.725
620.89834	18098.925
624.89015	16740.025
628.87913	16563.025
632.86528	16465.125
636.84862	16323.825
640.82913	16070.025
644.80683	15727.925
648.78172	15513.425
652.75379	15530.025
656.72306	15694.125
660.68952	15974.025
664.65319	15914.625
668.61405	15647.325
672.57211	15606.025
676.52738	15689.325
680.47986	15635.825
684.42955	15548.725
688.37646	15478.125
692.32058	15588.825
696.26192	15853.425
700.20048	16129.525
704.13626	16199.925
708.06928	16093.825
711.99952	15963.725
715.927	15971.125
719.85171	16068.225
723.77365	16056.725
727.69284	15822.925
731.60928	15605.325
735.52295	15536.125
739.43388	15554.925
743.34206	15610.025
747.24749	15669.925
751.15017	15810.825
755.05012	16019.925
758.94733	16401.325
762.8418	16993.125
766.73354	17983.825
770.62254	18927.325
774.50882	19221.725
778.39237	18650.025
782.27321	17596.925
786.15132	16707.925
790.02671	16164.725
793.89938	15961.625
797.76935	15857.825
801.6366	15830.725
805.50115	15762.525
809.36299	15722.725
813.22213	15605.025
817.07857	15461.425
820.93231	15433.425
824.78336	15417.525
828.63172	15400.325
832.47738	15473.025
836.32036	15510.425
840.16066	15660.425
843.99827	15748.825
847.8332	15685.225
851.66546	15572.925
855.49504	15494.725
859.32195	15513.725
863.1462	15458.025
866.96777	15411.125
870.78668	15373.625
874.60293	15387.825
878.41652	15377.525
882.22745	15453.825
886.03573	15537.425
889.84136	15509.625
893.64433	15439.225
897.44466	15336.725
901.24235	15264.725
905.0374	15237.025
908.8298	15192.425
912.61957	15220.725
916.40671	15382.525
920.19121	15564.925
923.97308	15811.025
927.75233	15937.025
931.52895	15945.625
935.30295	15823.525
939.07433	15582.525
942.84309	15387.325
946.60924	15317.925
950.37278	15250.325
954.13371	15221.025
957.89203	15099.425
961.64774	15094.825
965.40086	15041.825
969.15137	15016.525
972.89929	15013.325
976.64461	15037.425
980.38733	15103.925
984.12747	15205.125
987.86502	15355.225
991.59999	15576.425
995.33237	15917.625
999.06217	16461.525
1002.78939	17057.625
1006.51404	17392.325
1010.23611	17533.525
1013.95561	17592.125
1017.67255	17557.125
1021.38692	17354.725
1025.09872	17238.125
1028.80796	17482.525
1032.51465	18263.725
1036.21877	19028.225
1039.92035	19278.225
1043.61937	18959.225
1047.31584	18319.025
1051.00976	17568.225
1054.70114	17126.925
1058.38998	16945.725
1062.07627	16892.425
1065.76003	16832.125
1069.44126	16918.725
1073.11995	17131.725
1076.79611	17392.825
1080.46974	17529.425
1084.14085	17681.525
1087.80943	17777.725
1091.47549	17857.925
1095.13903	17804.025
1098.80005	17571.825
1102.45857	17272.525
1106.11456	17042.225
1109.76805	16958.625
1113.41903	16960.225
1117.06751	17009.825
1120.71348	17097.525
1124.35696	17204.025
1127.99793	17373.625
1131.63641	17488.725
1135.2724	17379.625
1138.90589	17309.925
1142.5369	17291.025
1146.16542	17303.925
1149.79145	17332.825
1153.415	17376.525
1157.03607	17530.125
1160.65467	17906.025
1164.27079	18581.325
1167.88443	19471.925
1171.49561	20443.925
1175.10432	21673.125
1178.71056	23251.225
1182.31434	24872.925
1185.91565	25728.425
1189.51451	25643.525
1193.11091	24924.225
1196.70485	23966.625
1200.29634	23192.325
1203.88538	22612.825
1207.47197	22222.925
1211.05612	21804.725
1214.63782	21426.225
1218.21708	21066.425
1221.79391	20770.825
1225.36829	20617.825
1228.94024	20327.525
1232.50976	19953.625
1236.07685	19633.725
1239.6415	19437.725
1243.20374	19428.725
1246.76355	19673.925
1250.32093	20019.125
1253.8759	20490.225
1257.42845	21067.825
1260.97859	21646.625
1264.52631	22229.025
1268.07163	22930.325
1271.61453	23645.725
1275.15503	24412.425
1278.69312	25063.925
1282.22882	25643.625
1285.76211	26096.225
1289.29301	26676.025
1292.82151	27535.425
1296.34761	28801.925
1299.87133	30447.325
1303.39266	32437.125
1306.9116	34480.025
1310.42815	35910.525
1313.94233	36368.325
1317.45412	35731.525
1320.96354	34466.525
1324.47058	33279.625
1327.97525	32343.725
1331.47754	31734.925
1334.97747	31410.225
1338.47502	31048.825
1341.97022	30527.825
1345.46305	29970.125
1348.95352	29727.325
1352.44163	30044.425
1355.92738	31334.825
1359.41078	33279.825
1362.89183	34715.825
1366.37053	34284.925
1369.84688	31630.425
1373.32088	28274.725
1376.79254	25868.025
1380.26186	24864.125
1383.72883	24711.825
1387.19347	24674.025
1390.65578	24270.925
1394.11575	24000.425
1397.57339	24076.525
1401.0287	24317.925
1404.48168	24624.725
1407.93234	24724.225
1411.38068	24541.025
1414.82669	24151.925
1418.27039	23530.425
1421.71177	22810.425
1425.15083	22186.625
1428.58758	21911.125
1432.02203	22113.925
1435.45416	22672.625
1438.88399	23252.925
1442.31151	23675.225
1445.73673	23810.825
1449.15965	23878.425
1452.58027	23784.025
1455.9986	23633.725
1459.41463	23513.725
1462.82837	23848.325
1466.23982	24333.725
1469.64898	24861.325
1473.05586	25288.825
1476.46045	25520.425
1479.86276	25459.225
1483.26279	25261.525
1486.66054	25128.825
1490.05602	25178.225
1493.44922	25365.125
1496.84016	25545.225
1500.22882	25737.825
1503.61521	26226.125
1506.99934	26826.925
1510.38121	27439.925
1513.76081	27583.725
1517.13816	27044.025
1520.51324	26159.325
1523.88607	25413.425
1527.25665	25043.525
1530.62498	24885.025
1533.99105	24806.825
1537.35488	24624.025
1540.71647	24321.425
1544.07581	23928.625
1547.4329	23530.325
1550.78776	23150.725
1554.14038	22871.325
1557.49077	22685.725
1560.83892	22499.425
1564.18484	22347.825
1567.52853	22327.625
1570.86999	22475.225
1574.20922	22744.325
1577.54624	23011.625
1580.88103	23154.025
1584.2136	23374.625
1587.54395	24142.525
1590.87208	25534.825
1594.19801	27270.025
1597.52172	28922.925
1600.84321	29446.925
1604.16251	28178.525
1607.47959	25934.125
1610.79447	23516.925
1614.10715	21489.825
1617.41763	20022.125
1620.7259	19096.125
1624.03199	18712.425
1627.33587	18803.225
1630.63757	19371.325
1633.93707	20375.825
1637.23439	21939.425
1640.52951	24235.325
1643.82246	26933.425
1647.11321	29066.925
1650.40179	29346.125
1653.68819	27238.125
1656.97241	23764.425
1660.25446	20673.025
1663.53433	18498.725
1666.81203	17156.825
1670.08756	16367.825
1673.36092	15872.325
1676.63211	15524.325
1679.90115	15293.125
1683.16801	15104.425
1686.43272	14977.425
1689.69527	14885.025
1692.95567	14783.025
1696.2139	14721.925
1699.46999	14670.725
1702.72392	14618.025
1705.97571	14605.725
1709.22535	14627.925
1712.47284	14662.025
1715.71819	14641.725
1718.96139	14617.425
1722.20246	14608.525
1725.44139	14550.025
1728.67818	14522.525
1731.91284	14422.025
1735.14537	14378.425
1738.37576	14307.025
1741.60403	14247.325
1744.83017	14207.025
1748.05418	14149.225
1751.27607	14151.225
1754.49584	14135.425
1757.71349	14087.225
1760.92903	14069.325
1764.14244	14061.525
1767.35375	14047.825
1770.56294	14044.725
1773.77002	14070.225
1776.97499	14020.525
1780.17785	14053.225
1783.37861	14047.225
1786.57727	14054.925
1789.77382	14022.925
1792.96828	13999.225
1796.16064	13988.525
1799.3509	13982.425
1802.53907	13944.625
1805.72514	13916.425
1808.90913	13880.225
1812.09102	13879.425
1815.27083	13852.625
1818.44856	13856.525
1821.6242	13827.525
1824.79776	13799.125
1827.96924	13816.625
1831.13864	13830.625
1834.30597	13825.225
1837.47122	13830.825
1840.6344	13795.625
1843.7955	13767.525
1846.95454	13802.425
1850.11151	13762.525
1853.26642	13802.725
1856.41926	13785.525
1859.57004	13797.725
1862.71876	13819.625
1865.86542	13779.625
1869.01003	13792.725
1872.15258	13753.125
1875.29308	13782.925
1878.43152	13737.325
1881.56792	13756.625
1884.70227	13741.725
1887.83457	13715.125
1890.96482	13706.125
1894.09304	13693.525
1897.21921	13698.825
1900.34335	13672.225
1903.46544	13660.225
1906.58551	13658.425
1909.70353	13646.025
1912.81953	13635.425
1915.93349	13640.725
1919.04543	13574.525
1922.15534	13562.125
1925.26322	13579.625
1928.36908	13541.725
1931.47292	13516.425
1934.57473	13463.925
1937.67453	13470.225
1940.77232	13421.525
1943.86808	13394.525
1946.96184	13319.425
1950.05358	13311.125
1953.14331	13268.925
1956.23103	13225.125
1959.31675	13224.225
1962.40046	13196.225
1965.48217	13179.325
1968.56188	13149.625
1971.63959	13116.425
1974.7153	13077.325
1977.78901	13026.925
1980.86073	13045.125
1983.93046	12972.925
1986.99819	12908.225
1990.06394	12869.825
1993.1277	12861.325
1996.18947	12830.525
1999.24925	12797.025
2002.30706	12752.625
2005.36288	12740.425
2008.41672	12683.825
2011.46859	12692.425
2014.51848	12656.925
2017.56639	12630.125
2020.61233	12615.525
2023.6563	12609.025
2026.6983	12566.525
2029.73833	12560.325
2032.7764	12530.825
2035.8125	12549.825
2038.84664	12504.125
2041.87881	12512.925
2044.90903	12486.925
2047.93729	12463.225
2050.96359	12471.425
2053.98794	12445.525
2057.01034	12444.025
2060.03078	12467.825
2063.04927	12423.525
2066.06582	12438.225
2069.08042	12411.125
2072.09307	12416.225
2075.10378	12399.225
2078.11255	12407.725
2081.11938	12393.325
2084.12426	12379.025
2087.12722	12384.425
2090.12824	12363.525
2093.12732	12390.625
2096.12447	12392.625
2099.11969	12390.625
2102.11299	12401.525
2105.10435	12403.525
2108.09379	12436.525
2111.08131	12426.825
2114.0669	12457.725
2117.05057	12480.725
2120.03233	12491.925
2123.01216	12484.725
2125.99008	12496.025
2128.96609	12510.825
2131.94018	12552.125
2134.91236	12536.525
2137.88263	12550.025
2140.851	12565.925
2143.81746	12576.825
2146.78201	12585.025
2149.74466	12606.325
2152.7054	12602.725
2155.66425	12607.325
2158.6212	12600.025
2161.57625	12602.625
2164.52941	12600.125
2167.48067	12582.725
2170.43004	12599.825
2173.37752	12602.025
2176.32311	12604.225
2179.26681	12619.825
2182.20863	12600.025
2185.14856	12622.525
2188.08661	12639.125
2191.02278	12666.625
2193.95707	12656.725
2196.88948	12647.925
2199.82001	12684.925
2202.74867	12623.925
2205.67545	12660.825
2208.60037	12631.525
2211.52341	12639.425
2214.44458	12627.825
2217.36388	12620.125
2220.28132	12614.525
2223.1969	12571.725
2226.11061	12602.125
2229.02246	12543.225
2231.93245	12569.225
2234.84058	12514.125
2237.74686	12479.125
2240.65128	12512.925
2243.55385	12490.225
2246.45456	12470.725
2249.35343	12436.625
2252.25044	12426.625
2255.14561	12396.825
2258.03893	12399.525
2260.93041	12381.525
2263.82004	12360.725
2266.70783	12348.425
2269.59378	12321.025
2272.4779	12325.825
2275.36017	12272.625
2278.24061	12277.425
2281.11922	12266.225
2283.996	12264.025
2286.87094	12228.225
2289.74405	12237.825
2292.61534	12226.125
2295.4848	12223.825
2298.35243	12238.625
2301.21824	12281.925
2304.08223	12262.125
2306.94439	12279.925
2309.80474	12282.225
2312.66327	12280.325
2315.51999	12299.325
2318.37489	12308.525
2321.22797	12288.625
2324.07925	12295.225
2326.92871	12267.425
2329.77637	12244.525
2332.62222	12249.225
2335.46626	12242.525
2338.3085	12222.725
2341.14893	12222.125
2343.98756	12230.625
2346.8244	12233.225
2349.65943	12244.225
2352.49267	12232.925
2355.32411	12212.525
2358.15376	12208.925
2360.98161	12186.525
2363.80768	12201.725
2366.63195	12196.925
2369.45444	12165.525
2372.27514	12114.925
2375.09405	12116.825
2377.91118	12130.125
2380.72652	12087.225
2383.54009	12069.825
2386.35187	12081.925
2389.16188	12054.425
2391.97011	12031.425
2394.77657	12034.225
2397.58125	12038.925
2400.38416	12007.725
2403.18529	12015.025
2405.98466	11968.425
2408.78226	11937.625
2411.57809	11942.625
2414.37216	11925.525
2417.16446	11904.125
2419.955	11898.325
2422.74378	11903.925
2425.5308	11908.625
2428.31606	11892.925
2431.09956	11917.325
2433.88131	11874.725
2436.6613	11895.925
2439.43954	11868.225
2442.21603	11892.325
2444.99077	11876.125
2447.76377	11876.025
2450.53501	11874.125
2453.30451	11880.825
2456.07226	11883.625
2458.83827	11882.925
2461.60254	11885.225
2464.36507	11854.525
2467.12586	11857.125
2469.88492	11881.825
2472.64224	11889.025
2475.39782	11897.325
2478.15167	11876.525
2480.90379	11887.925
2483.65417	11912.025
2486.40283	11924.825
2489.14976	11931.825
2491.89497	11941.325
2494.63845	11929.325
2497.3802	11948.125
2500.12024	11917.425
2502.85855	11917.725
2505.59514	11922.625
2508.33002	11929.525
2511.06318	11886.325
2513.79462	11905.625
2516.52435	11879.925
2519.25237	11872.025
2521.97867	11872.325
2524.70327	11889.425
2527.42616	11850.625
2530.14734	11863.225
2532.86681	11880.425
2535.58458	11856.725
2538.30065	11838.125
2541.01501	11856.425
2543.72768	11842.425
2546.43864	11854.325
2549.14791	11847.425
2551.85548	11860.625
2554.56136	11799.625
2557.26554	11799.725
2559.96803	11788.525
2562.66883	11805.625
2565.36794	11828.925
2568.06536	11799.525
2570.7611	11794.925
2573.45514	11770.025
2576.14751	11791.925
2578.83819	11783.025
2581.52719	11788.325
2584.21451	11746.825
2586.90015	11783.625
2589.58411	11746.225
2592.2664	11756.225
2594.94701	11747.025
2597.62594	11724.925
2600.30321	11716.725
2602.9788	11728.125
2605.65273	11725.325
2608.32498	11720.925
2610.99557	11723.625
2613.66449	11711.625
2616.33175	11743.625
2618.99734	11753.725
2621.66128	11751.225
2624.32355	11724.625
2626.98416	11737.825
2629.64311	11708.225
2632.30041	11710.725
2634.95605	11687.725
2637.61004	11662.225
2640.26238	11656.225
2642.91306	11664.125
2645.56209	11654.925
2648.20948	11640.725
2650.85521	11629.925
2653.4993	11628.525
2656.14175	11617.225
2658.78255	11646.125
2661.42171	11650.225
2664.05923	11698.425
2666.6951	11708.225
2669.32934	11682.825
2671.96194	11678.225
2674.59291	11716.425
2677.22224	11663.125
2679.84993	11712.925
2682.476	11658.525
2685.10043	11681.825
2687.72324	11652.925
2690.34441	11666.125
2692.96396	11652.225
2695.58188	11660.325
2698.19818	11660.225
2700.81285	11654.625
2703.4259	11656.525
2706.03733	11676.425
2708.64714	11659.425
2711.25533	11682.925
2713.86191	11691.825
2716.46687	11711.225
2719.07021	11721.325
2721.67194	11736.325
2724.27206	11739.425
2726.87057	11743.125
2729.46747	11753.825
2732.06276	11729.625
2734.65644	11758.225
2737.24852	11750.525
2739.83899	11739.125
2742.42786	11753.525
2745.01513	11721.225
2747.60079	11706.925
2750.18486	11735.725
2752.76733	11738.325
2755.3482	11734.125
2757.92747	11734.825
2760.50515	11717.225
2763.08123	11726.025
2765.65573	11709.025
2768.22863	11706.325
2770.79994	11682.125
2773.36967	11717.625
2775.9378	11698.725
2778.50435	11705.325
2781.06932	11685.125
2783.6327	11701.725
2786.1945	11692.425
2788.75471	11685.225
2791.31335	11657.525
2793.87041	11663.825
2796.42589	11623.725
2798.97979	11628.525
2801.53212	11632.725
2804.08288	11600.025
2806.63206	11582.625
2809.17967	11547.425
2811.72571	11531.225
2814.27018	11507.825
2816.81308	11512.125
2819.35442	11525.425
2821.89419	11538.325
2824.43239	11503.825
2826.96904	11496.125
2829.50412	11523.425
2832.03763	11483.125
2834.56959	11484.125
2837.1	11421.625
2839.62884	11470.425
2842.15613	11458.825
2844.68186	11482.225
2847.20604	11498.325
2849.72867	11509.525
2852.24974	11494.825
2854.76927	11499.725
2857.28724	11480.425
2859.80367	11484.325
2862.31855	11469.425
2864.83189	11456.225
2867.34368	11461.125
2869.85393	11463.125
2872.36264	11429.325
2874.8698	11445.625
2877.37543	11461.125
2879.87952	11459.225
2882.38207	11447.625
2884.88308	11463.925
2887.38256	11461.825
2889.88051	11453.625
2892.37692	11461.225
2894.8718	11461.325
2897.36515	11502.725
2899.85698	11488.425
2902.34727	11515.625
2904.83604	11528.525
2907.32328	11563.925
2909.809	11543.625
2912.29319	11549.525
2914.77587	11563.025
2917.25702	11524.225
2919.73665	11533.125
2922.21476	11542.925
2924.69136	11533.325
2927.16644	11528.825
2929.64	11547.125
2932.11205	11543.125
2934.58258	11481.625
2937.05161	11515.525
2939.51912	11465.025
2941.98513	11481.625
2944.44962	11454.025
2946.91261	11411.825
2949.37409	11417.725
2951.83407	11447.225
2954.29254	11460.925
2956.74951	11433.325
2959.20498	11430.125
2961.65895	11410.325
2964.11142	11417.525
2966.56239	11396.325
2969.01186	11414.025
2971.45984	11370.825
2973.90632	11340.125
2976.35131	11376.925
2978.7948	11323.625
2981.23681	11322.725
2983.67732	11308.625
2986.11635	11278.525
2988.55388	11237.725
2990.98993	11224.025
2993.4245	11222.025
2995.85758	11210.625
2998.28917	11183.125
3000.71928	11166.025
3003.14791	11177.625
3005.57506	11119.125
3008.00073	11125.725
3010.42493	11128.625
3012.84764	11138.925
3015.26888	11123.825
3017.68865	11083.525
3020.10694	11100.825
3022.52376	11048.225
3024.9391	11038.325
3027.35298	11049.925
3029.76539	11053.925
3032.17632	11031.425
3034.5858	11019.725
3036.9938	11034.125
3039.40034	11015.225
3041.80542	11013.725
3044.20903	10999.125
3046.61118	10999.025
3049.01187	11011.925
3051.4111	10997.525
3053.80888	10970.525
3056.20519	10985.725
3058.60005	10928.425
3060.99345	10888.025
3063.3854	10880.425
3065.7759	10843.925
3068.16494	10868.225
3070.55254	10837.425
3072.93868	10826.425
3075.32338	10814.225
3077.70662	10792.725
3080.08842	10787.525
3082.46878	10769.225
3084.84769	10746.725
3087.22515	10766.125
3089.60118	10762.325
3091.97576	10778.225
3094.3489	10770.625
3096.72061	10769.825
3099.09087	10779.325
3101.4597	10751.325
3103.82709	10772.225
3106.19305	10777.925
3108.55757	10756.525
3110.92066	10734.125
3113.28232	10715.425
3115.64255	10685.425
3118.00134	10696.325
3120.35871	10673.625
3122.71466	10679.525
3125.06917	10661.425
3127.42226	10633.725
3129.77393	10636.925
