Data from AgNPs_FTO_APTES_UA_1uM_CRN_10uM_R6G_50uM_NaF_0.1M_Addition_RamanShift__31__16-17-09-758.txt Node

Date: Thu Jan 27 16:17:09 GMT 2022
User: TCL
Spectrometer: QEP01345
Trigger mode: 4
Integration Time (sec): 7.000000E0
Scans to average: 10
Electric dark correction enabled: true
Nonlinearity correction enabled: false
Boxcar width: 0
XAxis mode: Raman Shifts
Number of Pixels in Spectrum: 1044
>>>>>Begin Spectral Data<<<<<
46.04893	0.8125
50.45542	1.3125
54.85868	-0.1875
59.25871	-1.6875
63.6555	30.1125
68.04907	31.3125
72.43941	30.2125
76.82654	36.6125
81.21044	37.2125
85.59113	39.1125
89.96862	38.8125
94.34289	39.4125
98.71396	40.8125
103.08183	40.4125
107.4465	45.1125
111.80798	45.1125
116.16626	43.2125
120.52136	43.9125
124.87327	47.6125
129.222	43.8125
133.56755	47.3125
137.90993	46.6125
142.24913	52.1125
146.58517	54.3125
150.91804	58.8125
155.24774	66.6125
159.57429	76.8125
163.89768	94.3125
168.21792	115.8125
172.53501	151.9125
176.84895	203.1125
181.15975	272.2125
185.46741	379.5125
189.77193	518.6125
194.07331	696.7125
198.37157	892.4125
202.6667	1094.6125
206.9587	1304.7125
211.24758	1515.9125
215.53334	1735.7125
219.81599	1964.5125
224.09553	2234.8125
228.37195	2546.5125
232.64527	2858.9125
236.91549	3184.5125
241.18261	3473.4125
245.44663	3726.7125
249.70755	3932.7125
253.96539	4084.7125
258.22014	4253.8125
262.4718	4382.5125
266.72039	4497.3125
270.96589	4573.5125
275.20832	4600.7125
279.44768	4585.1125
283.68397	4540.0125
287.91719	4525.7125
292.14735	4553.1125
296.37445	4607.4125
300.59849	4759.9125
304.81948	4939.6125
309.03742	5094.7125
313.25231	5039.5125
317.46415	4817.9125
321.67296	4453.6125
325.87872	4151.0125
330.08145	3991.8125
334.28114	3988.1125
338.47781	4039.8125
342.67145	4157.6125
346.86207	4346.1125
351.04966	4605.7125
355.23424	4881.1125
359.4158	5090.8125
363.59435	5214.5125
367.76989	5226.3125
371.94243	5225.7125
376.11196	5183.3125
380.27849	5149.5125
384.44203	5083.5125
388.60257	5027.9125
392.76012	4975.5125
396.91468	5043.6125
401.06626	5159.8125
405.21485	5281.6125
409.36047	5199.3125
413.50311	4943.1125
417.64277	4691.2125
421.77947	4535.7125
425.9132	4506.1125
430.04396	4479.9125
434.17176	4495.8125
438.2966	4545.4125
442.41849	4621.0125
446.53742	4741.2125
450.6534	4857.5125
454.76644	4961.2125
458.87653	4960.1125
462.98368	4953.0125
467.08789	4887.1125
471.18916	4778.3125
475.2875	4709.5125
479.38291	4618.0125
483.4754	4549.6125
487.56496	4500.6125
491.6516	4471.6125
495.73531	4468.1125
499.81612	4496.5125
503.89401	4516.9125
507.96899	4580.3125
512.04106	4634.4125
516.11023	4701.1125
520.1765	4751.8125
524.23987	4725.7125
528.30034	4633.2125
532.35792	4526.7125
536.41261	4430.4125
540.46441	4341.5125
544.51333	4313.6125
548.55936	4337.3125
552.60252	4425.6125
556.64279	4543.4125
560.6802	4608.5125
564.71473	4689.4125
568.7464	4863.0125
572.7752	4987.7125
576.80114	4868.6125
580.82422	4721.1125
584.84444	4655.3125
588.86181	4613.8125
592.87633	4611.9125
596.888	4627.0125
600.89682	4782.1125
604.9028	5280.3125
608.90594	6651.3125
612.90624	8522.9125
616.90371	8337.9125
620.89834	5938.5125
624.89015	4738.3125
628.87913	4484.2125
632.86528	4517.9125
636.84862	4585.1125
640.82913	4546.5125
644.80683	4383.2125
648.78172	4269.2125
652.75379	4293.2125
656.72306	4458.6125
660.68952	4674.1125
664.65319	4654.8125
668.61405	4429.7125
672.57211	4319.4125
676.52738	4314.6125
680.47986	4306.5125
684.42955	4278.8125
688.37646	4275.8125
692.32058	4270.4125
696.26192	4315.3125
700.20048	4343.4125
704.13626	4398.1125
708.06928	4398.5125
711.99952	4361.0125
715.927	4342.4125
719.85171	4353.3125
723.77365	4352.2125
727.69284	4300.3125
731.60928	4259.1125
735.52295	4244.4125
739.43388	4261.5125
743.34206	4275.7125
747.24749	4287.1125
751.15017	4354.5125
755.05012	4436.4125
758.94733	4643.6125
762.8418	5088.0125
766.73354	5890.7125
770.62254	6770.9125
774.50882	7197.9125
778.39237	6900.7125
782.27321	6015.6125
786.15132	5152.1125
790.02671	4648.2125
793.89938	4424.8125
797.76935	4320.8125
801.6366	4287.4125
805.50115	4248.7125
809.36299	4221.9125
813.22213	4219.9125
817.07857	4221.6125
820.93231	4211.3125
824.78336	4226.1125
828.63172	4237.0125
832.47738	4256.1125
836.32036	4247.2125
840.16066	4221.9125
843.99827	4183.5125
847.8332	4167.9125
851.66546	4177.4125
855.49504	4154.5125
859.32195	4164.2125
863.1462	4155.5125
866.96777	4124.4125
870.78668	4134.6125
874.60293	4140.0125
878.41652	4152.7125
882.22745	4145.7125
886.03573	4176.0125
889.84136	4187.3125
893.64433	4149.4125
897.44466	4129.8125
901.24235	4143.6125
905.0374	4122.9125
908.8298	4122.1125
912.61957	4115.9125
916.40671	4124.6125
920.19121	4171.2125
923.97308	4189.5125
927.75233	4220.6125
931.52895	4254.7125
935.30295	4209.7125
939.07433	4114.5125
942.84309	4020.2125
946.60924	3937.9125
950.37278	3922.1125
954.13371	3878.7125
957.89203	3865.2125
961.64774	3863.7125
965.40086	3857.5125
969.15137	3853.9125
972.89929	3839.6125
976.64461	3833.2125
980.38733	3831.5125
984.12747	3817.0125
987.86502	3839.0125
991.59999	3866.2125
995.33237	3874.4125
999.06217	3931.7125
1002.78939	4023.9125
1006.51404	4080.5125
1010.23611	4183.0125
1013.95561	4242.1125
1017.67255	4212.1125
1021.38692	4184.1125
1025.09872	4109.4125
1028.80796	4052.9125
1032.51465	4077.8125
1036.21877	4097.7125
1039.92035	4144.5125
1043.61937	4176.6125
1047.31584	4188.6125
1051.00976	4193.5125
1054.70114	4196.5125
1058.38998	4186.9125
1062.07627	4214.4125
1065.76003	4253.0125
1069.44126	4297.8125
1073.11995	4321.0125
1076.79611	4367.3125
1080.46974	4420.6125
1084.14085	4498.9125
1087.80943	4615.2125
1091.47549	4649.9125
1095.13903	4594.0125
1098.80005	4446.1125
1102.45857	4327.4125
1106.11456	4239.4125
1109.76805	4236.7125
1113.41903	4306.5125
1117.06751	4433.5125
1120.71348	4591.1125
1124.35696	4785.7125
1127.99793	4954.1125
1131.63641	4960.4125
1135.2724	4733.8125
1138.90589	4526.3125
1142.5369	4411.8125
1146.16542	4331.0125
1149.79145	4267.4125
1153.415	4276.0125
1157.03607	4330.9125
1160.65467	4395.0125
1164.27079	4544.0125
1167.88443	4730.4125
1171.49561	5092.8125
1175.10432	5671.4125
1178.71056	6469.3125
1182.31434	6979.3125
1185.91565	7051.6125
1189.51451	6852.0125
1193.11091	6423.8125
1196.70485	5973.6125
1200.29634	5631.7125
1203.88538	5384.9125
1207.47197	5105.5125
1211.05612	4815.0125
1214.63782	4654.0125
1218.21708	4612.4125
1221.79391	4611.9125
1225.36829	4634.0125
1228.94024	4677.0125
1232.50976	4710.4125
1236.07685	4750.6125
1239.6415	4758.6125
1243.20374	4765.7125
1246.76355	4764.9125
1250.32093	4806.4125
1253.8759	4893.2125
1257.42845	5028.2125
1260.97859	5167.1125
1264.52631	5283.1125
1268.07163	5421.9125
1271.61453	5553.1125
1275.15503	5654.4125
1278.69312	5706.2125
1282.22882	5691.3125
1285.76211	5780.4125
1289.29301	5950.9125
1292.82151	6130.1125
1296.34761	6309.1125
1299.87133	6547.4125
1303.39266	6982.0125
1306.9116	7683.6125
1310.42815	8576.5125
1313.94233	9185.0125
1317.45412	9081.5125
1320.96354	8552.2125
1324.47058	7892.0125
1327.97525	7338.2125
1331.47754	7008.6125
1334.97747	6902.0125
1338.47502	6926.7125
1341.97022	7069.6125
1345.46305	7276.8125
1348.95352	7608.9125
1352.44163	8077.1125
1355.92738	8786.5125
1359.41078	9971.4125
1362.89183	11176.8125
1366.37053	11050.6125
1369.84688	9445.6125
1373.32088	7827.7125
1376.79254	6775.6125
1380.26186	6224.2125
1383.72883	5977.6125
1387.19347	5794.4125
1390.65578	5581.3125
1394.11575	5399.2125
1397.57339	5308.9125
1401.0287	5309.5125
1404.48168	5351.8125
1407.93234	5428.4125
1411.38068	5488.6125
1414.82669	5479.2125
1418.27039	5407.0125
1421.71177	5303.3125
1425.15083	5181.5125
1428.58758	5101.5125
1432.02203	5098.1125
1435.45416	5117.1125
1438.88399	5142.7125
1442.31151	5156.4125
1445.73673	5172.0125
1449.15965	5216.7125
1452.58027	5210.8125
1455.9986	5176.9125
1459.41463	5142.9125
1462.82837	5177.8125
1466.23982	5281.2125
1469.64898	5383.1125
1473.05586	5494.8125
1476.46045	5541.3125
1479.86276	5632.5125
1483.26279	5752.6125
1486.66054	5908.1125
1490.05602	6099.3125
1493.44922	6369.0125
1496.84016	6777.5125
1500.22882	7409.8125
1503.61521	8262.3125
1506.99934	9180.5125
1510.38121	10160.4125
1513.76081	10711.9125
1517.13816	10343.5125
1520.51324	9195.5125
1523.88607	7954.1125
1527.25665	7068.7125
1530.62498	6521.9125
1533.99105	6237.7125
1537.35488	6032.3125
1540.71647	5889.0125
1544.07581	5810.8125
1547.4329	5771.8125
1550.78776	5744.0125
1554.14038	5751.6125
1557.49077	5789.3125
1560.83892	5911.6125
1564.18484	6070.0125
1567.52853	6259.9125
1570.86999	6394.3125
1574.20922	6508.0125
1577.54624	6453.0125
1580.88103	6174.1125
1584.2136	5735.4125
1587.54395	5529.3125
1590.87208	5550.7125
1594.19801	5782.7125
1597.52172	6124.2125
1600.84321	6274.9125
1604.16251	6092.7125
1607.47959	5749.4125
1610.79447	5394.3125
1614.10715	5031.9125
1617.41763	4742.4125
1620.7259	4556.8125
1624.03199	4443.7125
1627.33587	4447.7125
1630.63757	4480.2125
1633.93707	4666.1125
1637.23439	4930.3125
1640.52951	5330.7125
1643.82246	5883.3125
1647.11321	6589.6125
1650.40179	7142.8125
1653.68819	7111.7125
1656.97241	6335.3125
1660.25446	5371.2125
1663.53433	4617.2125
1666.81203	4189.6125
1670.08756	3937.7125
1673.36092	3801.3125
1676.63211	3713.7125
1679.90115	3646.0125
1683.16801	3585.0125
1686.43272	3558.7125
1689.69527	3506.5125
1692.95567	3483.6125
1696.2139	3437.8125
1699.46999	3390.5125
1702.72392	3390.7125
1705.97571	3388.2125
1709.22535	3408.4125
1712.47284	3425.3125
1715.71819	3444.3125
1718.96139	3461.1125
1722.20246	3473.8125
1725.44139	3441.8125
1728.67818	3436.2125
1731.91284	3387.4125
1735.14537	3378.2125
1738.37576	3362.5125
1741.60403	3325.3125
1744.83017	3316.2125
1748.05418	3306.8125
1751.27607	3300.3125
1754.49584	3267.5125
1757.71349	3256.1125
1760.92903	3239.7125
1764.14244	3234.6125
1767.35375	3223.5125
1770.56294	3212.1125
1773.77002	3214.0125
1776.97499	3207.3125
1780.17785	3215.8125
1783.37861	3213.6125
1786.57727	3226.1125
1789.77382	3221.7125
1792.96828	3221.8125
1796.16064	3207.6125
1799.3509	3191.9125
1802.53907	3208.7125
1805.72514	3185.8125
1808.90913	3184.6125
1812.09102	3174.3125
1815.27083	3151.1125
1818.44856	3157.5125
1821.6242	3155.6125
1824.79776	3144.4125
1827.96924	3124.5125
1831.13864	3137.8125
1834.30597	3131.6125
1837.47122	3134.1125
1840.6344	3133.6125
1843.7955	3126.7125
1846.95454	3124.9125
1850.11151	3117.7125
1853.26642	3116.7125
1856.41926	3125.8125
1859.57004	3127.7125
1862.71876	3119.2125
1865.86542	3124.2125
1869.01003	3120.0125
1872.15258	3121.8125
1875.29308	3123.6125
1878.43152	3124.2125
1881.56792	3122.1125
1884.70227	3115.0125
1887.83457	3115.4125
1890.96482	3106.3125
1894.09304	3109.3125
1897.21921	3109.5125
1900.34335	3109.0125
1903.46544	3104.8125
1906.58551	3102.6125
1909.70353	3107.5125
1912.81953	3100.9125
1915.93349	3099.8125
1919.04543	3096.4125
1922.15534	3087.5125
1925.26322	3096.2125
1928.36908	3075.1125
1931.47292	3066.3125
1934.57473	3051.1125
1937.67453	3040.4125
1940.77232	3027.1125
1943.86808	3007.1125
1946.96184	2998.7125
1950.05358	2998.6125
1953.14331	2979.5125
1956.23103	2957.4125
1959.31675	2972.1125
1962.40046	2954.3125
1965.48217	2936.1125
1968.56188	2929.3125
1971.63959	2917.0125
1974.7153	2915.1125
1977.78901	2899.9125
1980.86073	2893.8125
1983.93046	2888.1125
1986.99819	2872.2125
1990.06394	2857.3125
1993.1277	2852.9125
1996.18947	2833.1125
1999.24925	2832.5125
2002.30706	2818.2125
2005.36288	2814.4125
2008.41672	2803.9125
2011.46859	2802.4125
2014.51848	2784.8125
2017.56639	2783.2125
2020.61233	2787.1125
2023.6563	2767.6125
2026.6983	2755.2125
2029.73833	2756.2125
2032.7764	2745.0125
2035.8125	2746.5125
2038.84664	2717.3125
2041.87881	2722.4125
2044.90903	2722.0125
2047.93729	2706.2125
2050.96359	2706.2125
2053.98794	2697.9125
2057.01034	2695.2125
2060.03078	2701.3125
2063.04927	2700.9125
2066.06582	2687.3125
2069.08042	2687.2125
2072.09307	2691.2125
2075.10378	2685.0125
2078.11255	2682.5125
2081.11938	2690.4125
2084.12426	2681.9125
2087.12722	2684.1125
2090.12824	2673.5125
2093.12732	2670.7125
2096.12447	2671.0125
2099.11969	2675.4125
2102.11299	2663.0125
2105.10435	2672.3125
2108.09379	2671.0125
2111.08131	2665.6125
2114.0669	2673.8125
2117.05057	2682.3125
2120.03233	2671.7125
2123.01216	2676.6125
2125.99008	2677.6125
2128.96609	2679.2125
2131.94018	2686.5125
2134.91236	2677.4125
2137.88263	2676.7125
2140.851	2680.5125
2143.81746	2688.8125
2146.78201	2669.2125
2149.74466	2679.5125
2152.7054	2672.9125
2155.66425	2677.4125
2158.6212	2672.2125
2161.57625	2664.9125
2164.52941	2662.3125
2167.48067	2651.5125
2170.43004	2671.7125
2173.37752	2655.2125
2176.32311	2662.7125
2179.26681	2665.0125
2182.20863	2657.2125
2185.14856	2656.6125
2188.08661	2656.1125
2191.02278	2654.7125
2193.95707	2638.4125
2196.88948	2652.3125
2199.82001	2653.7125
2202.74867	2643.9125
2205.67545	2638.7125
2208.60037	2633.3125
2211.52341	2634.8125
2214.44458	2620.2125
2217.36388	2610.3125
2220.28132	2607.9125
2223.1969	2598.4125
2226.11061	2591.6125
2229.02246	2591.7125
2231.93245	2580.5125
2234.84058	2576.3125
2237.74686	2575.8125
2240.65128	2582.1125
2243.55385	2563.2125
2246.45456	2558.7125
2249.35343	2569.4125
2252.25044	2552.3125
2255.14561	2559.3125
2258.03893	2563.0125
2260.93041	2549.7125
2263.82004	2543.5125
2266.70783	2548.8125
2269.59378	2535.9125
2272.4779	2523.9125
2275.36017	2513.2125
2278.24061	2519.9125
2281.11922	2506.6125
2283.996	2518.4125
2286.87094	2502.7125
2289.74405	2494.0125
2292.61534	2481.9125
2295.4848	2480.8125
2298.35243	2481.9125
2301.21824	2476.9125
2304.08223	2474.0125
2306.94439	2471.7125
2309.80474	2473.4125
2312.66327	2472.2125
2315.51999	2467.7125
2318.37489	2454.9125
2321.22797	2452.9125
2324.07925	2457.4125
2326.92871	2454.2125
2329.77637	2457.3125
2332.62222	2436.2125
2335.46626	2445.3125
2338.3085	2431.5125
2341.14893	2438.6125
2343.98756	2427.5125
2346.8244	2429.8125
2349.65943	2432.9125
2352.49267	2420.6125
2355.32411	2430.5125
2358.15376	2435.1125
2360.98161	2435.9125
2363.80768	2434.6125
2366.63195	2454.2125
2369.45444	2444.7125
2372.27514	2446.2125
2375.09405	2434.8125
2377.91118	2424.3125
2380.72652	2413.7125
2383.54009	2405.7125
2386.35187	2412.6125
2389.16188	2393.7125
2391.97011	2381.6125
2394.77657	2375.2125
2397.58125	2363.1125
2400.38416	2358.6125
2403.18529	2355.0125
2405.98466	2358.4125
2408.78226	2352.4125
2411.57809	2353.4125
2414.37216	2345.6125
2417.16446	2339.2125
2419.955	2339.7125
2422.74378	2336.4125
2425.5308	2333.8125
2428.31606	2324.9125
2431.09956	2327.2125
2433.88131	2323.6125
2436.6613	2320.9125
2439.43954	2325.6125
2442.21603	2324.4125
2444.99077	2320.7125
2447.76377	2314.7125
2450.53501	2321.7125
2453.30451	2317.9125
2456.07226	2306.6125
2458.83827	2317.6125
2461.60254	2318.6125
2464.36507	2319.5125
2467.12586	2319.1125
2469.88492	2304.5125
2472.64224	2299.6125
2475.39782	2314.0125
2478.15167	2290.0125
2480.90379	2304.3125
2483.65417	2317.2125
2486.40283	2302.8125
2489.14976	2326.8125
2491.89497	2309.0125
2494.63845	2312.3125
2497.3802	2314.5125
2500.12024	2318.7125
2502.85855	2307.8125
2505.59514	2303.9125
2508.33002	2287.6125
2511.06318	2293.8125
2513.79462	2272.4125
2516.52435	2271.9125
2519.25237	2264.6125
2521.97867	2254.3125
2524.70327	2254.6125
2527.42616	2258.8125
2530.14734	2239.5125
2532.86681	2237.6125
2535.58458	2238.9125
2538.30065	2239.8125
2541.01501	2223.8125
2543.72768	2236.2125
2546.43864	2232.1125
2549.14791	2222.8125
2551.85548	2220.9125
2554.56136	2224.9125
2557.26554	2218.4125
2559.96803	2211.9125
2562.66883	2207.1125
2565.36794	2215.6125
2568.06536	2198.7125
2570.7611	2211.6125
2573.45514	2192.9125
2576.14751	2188.5125
2578.83819	2191.7125
2581.52719	2176.9125
2584.21451	2177.4125
2586.90015	2190.2125
2589.58411	2171.2125
2592.2664	2173.9125
2594.94701	2164.0125
2597.62594	2175.3125
2600.30321	2168.3125
2602.9788	2155.6125
2605.65273	2146.4125
2608.32498	2158.6125
2610.99557	2146.6125
2613.66449	2144.8125
2616.33175	2147.7125
2618.99734	2150.4125
2621.66128	2154.3125
2624.32355	2143.4125
2626.98416	2146.8125
2629.64311	2138.5125
2632.30041	2147.0125
2634.95605	2127.6125
2637.61004	2127.4125
2640.26238	2133.4125
2642.91306	2124.5125
2645.56209	2116.3125
2648.20948	2129.7125
2650.85521	2117.2125
2653.4993	2114.3125
2656.14175	2108.7125
2658.78255	2121.7125
2661.42171	2123.1125
2664.05923	2127.9125
2666.6951	2125.6125
2669.32934	2128.2125
2671.96194	2120.3125
2674.59291	2125.8125
2677.22224	2122.2125
2679.84993	2131.8125
2682.476	2119.5125
2685.10043	2129.8125
2687.72324	2122.2125
2690.34441	2122.8125
2692.96396	2122.5125
2695.58188	2129.1125
2698.19818	2129.0125
2700.81285	2133.4125
2703.4259	2116.4125
2706.03733	2108.3125
2708.64714	2106.5125
2711.25533	2117.2125
2713.86191	2119.1125
2716.46687	2125.6125
2719.07021	2125.5125
2721.67194	2133.4125
2724.27206	2130.6125
2726.87057	2127.8125
2729.46747	2127.1125
2732.06276	2132.4125
2734.65644	2133.2125
2737.24852	2124.4125
2739.83899	2108.9125
2742.42786	2113.5125
2745.01513	2115.3125
2747.60079	2106.8125
2750.18486	2097.8125
2752.76733	2109.7125
2755.3482	2096.7125
2757.92747	2090.4125
2760.50515	2089.5125
2763.08123	2079.0125
2765.65573	2079.6125
2768.22863	2081.0125
2770.79994	2082.8125
2773.36967	2078.1125
2775.9378	2080.5125
2778.50435	2084.6125
2781.06932	2078.2125
2783.6327	2071.6125
2786.1945	2078.6125
2788.75471	2077.5125
2791.31335	2061.4125
2793.87041	2053.9125
2796.42589	2068.4125
2798.97979	2063.5125
2801.53212	2058.0125
2804.08288	2060.3125
2806.63206	2055.8125
2809.17967	2058.8125
2811.72571	2054.4125
2814.27018	2052.4125
2816.81308	2056.1125
2819.35442	2051.1125
2821.89419	2066.7125
2824.43239	2065.6125
2826.96904	2060.9125
2829.50412	2066.8125
2832.03763	2057.7125
2834.56959	2059.8125
2837.1	2068.3125
2839.62884	2082.9125
2842.15613	2088.1125
2844.68186	2107.5125
2847.20604	2138.6125
2849.72867	2164.6125
2852.24974	2171.8125
2854.76927	2166.3125
2857.28724	2157.1125
2859.80367	2144.7125
2862.31855	2153.5125
2864.83189	2146.3125
2867.34368	2124.2125
2869.85393	2122.6125
2872.36264	2130.0125
2874.8698	2133.5125
2877.37543	2131.4125
2879.87952	2117.9125
2882.38207	2124.6125
2884.88308	2114.0125
2887.38256	2116.4125
2889.88051	2111.3125
2892.37692	2105.2125
2894.8718	2114.1125
2897.36515	2127.0125
2899.85698	2123.2125
2902.34727	2126.1125
2904.83604	2131.5125
2907.32328	2129.2125
2909.809	2122.2125
2912.29319	2117.8125
2914.77587	2126.5125
2917.25702	2126.7125
2919.73665	2116.7125
2922.21476	2123.9125
2924.69136	2118.2125
2927.16644	2119.6125
2929.64	2124.3125
2932.11205	2118.8125
2934.58258	2091.9125
2937.05161	2099.0125
2939.51912	2095.8125
2941.98513	2068.9125
2944.44962	2059.4125
2946.91261	2045.4125
2949.37409	2037.2125
2951.83407	2028.3125
2954.29254	2011.0125
2956.74951	2013.5125
2959.20498	2023.3125
2961.65895	1995.5125
2964.11142	2007.1125
2966.56239	1999.0125
2969.01186	1989.7125
2971.45984	1983.5125
2973.90632	1973.2125
2976.35131	1975.9125
2978.7948	1969.5125
2981.23681	1965.2125
2983.67732	1974.1125
2986.11635	1954.5125
2988.55388	1947.9125
2990.98993	1947.2125
2993.4245	1935.5125
2995.85758	1928.9125
2998.28917	1928.1125
3000.71928	1935.1125
3003.14791	1932.6125
3005.57506	1935.1125
3008.00073	1928.9125
3010.42493	1924.0125
3012.84764	1914.7125
3015.26888	1917.7125
3017.68865	1915.7125
3020.10694	1913.0125
3022.52376	1907.0125
3024.9391	1909.5125
3027.35298	1917.7125
3029.76539	1910.3125
3032.17632	1907.1125
3034.5858	1903.1125
3036.9938	1910.1125
3039.40034	1909.7125
3041.80542	1907.4125
3044.20903	1902.3125
3046.61118	1896.8125
3049.01187	1899.1125
3051.4111	1899.5125
3053.80888	1895.2125
3056.20519	1895.1125
3058.60005	1904.9125
3060.99345	1887.6125
3063.3854	1895.0125
3065.7759	1882.0125
3068.16494	1886.5125
3070.55254	1884.2125
3072.93868	1887.2125
3075.32338	1885.6125
3077.70662	1877.3125
3080.08842	1870.4125
3082.46878	1873.1125
3084.84769	1871.4125
3087.22515	1871.7125
3089.60118	1878.0125
3091.97576	1868.0125
3094.3489	1877.9125
3096.72061	1870.9125
3099.09087	1876.0125
3101.4597	1875.1125
3103.82709	1875.1125
3106.19305	1876.9125
3108.55757	1878.5125
3110.92066	1887.5125
3113.28232	1884.2125
3115.64255	1868.1125
3118.00134	1879.1125
3120.35871	1879.0125
3122.71466	1881.2125
3125.06917	1882.2125
