Data from AgNPs_FTO_APTES_UA_1uM_CRN_10uM_R6G_10uM_NaF_0.1M_Addition_RamanShift__2__14-18-09-622.txt Node

Date: Thu Jan 27 14:18:09 GMT 2022
User: TCL
Spectrometer: QEP01345
Trigger mode: 4
Integration Time (sec): 7.000000E0
Scans to average: 10
Electric dark correction enabled: true
Nonlinearity correction enabled: false
Boxcar width: 0
XAxis mode: Raman Shifts
Number of Pixels in Spectrum: 1044
>>>>>Begin Spectral Data<<<<<
46.04893	1.5875
50.45542	-0.8125
54.85868	0.1875
59.25871	-1.5125
63.6555	50.9875
68.04907	53.2875
72.43941	56.2875
76.82654	58.4875
81.21044	60.7875
85.59113	63.8875
89.96862	63.8875
94.34289	66.9875
98.71396	70.4875
103.08183	72.3875
107.4465	74.0875
111.80798	78.1875
116.16626	73.7875
120.52136	82.4875
124.87327	83.3875
129.222	79.6875
133.56755	86.3875
137.90993	92.1875
142.24913	95.9875
146.58517	110.2875
150.91804	127.4875
155.24774	148.4875
159.57429	174.8875
163.89768	222.4875
168.21792	289.8875
172.53501	393.3875
176.84895	540.8875
181.15975	748.9875
185.46741	1048.9875
189.77193	1439.2875
194.07331	1934.0875
198.37157	2476.6875
202.6667	3090.0875
206.9587	3663.7875
211.24758	4223.0875
215.53334	4816.9875
219.81599	5408.8875
224.09553	6079.5875
228.37195	6833.8875
232.64527	7645.1875
236.91549	8502.1875
241.18261	9375.9875
245.44663	10170.3875
249.70755	10878.6875
253.96539	11481.2875
258.22014	12034.9875
262.4718	12476.8875
266.72039	12810.2875
270.96589	13000.1875
275.20832	12966.2875
279.44768	12901.7875
283.68397	12772.4875
287.91719	12591.8875
292.14735	12543.5875
296.37445	12513.0875
300.59849	12572.9875
304.81948	12642.3875
309.03742	12689.3875
313.25231	12615.5875
317.46415	12408.4875
321.67296	12173.8875
325.87872	11934.1875
330.08145	11840.1875
334.28114	11810.5875
338.47781	11874.6875
342.67145	12045.8875
346.86207	12223.0875
351.04966	12459.7875
355.23424	12742.6875
359.4158	12980.8875
363.59435	13151.7875
367.76989	13261.2875
371.94243	13370.9875
376.11196	13439.9875
380.27849	13510.8875
384.44203	13581.8875
388.60257	13683.7875
392.76012	13794.3875
396.91468	13974.1875
401.06626	14153.8875
405.21485	14302.0875
409.36047	14300.7875
413.50311	14106.5875
417.64277	13993.5875
421.77947	13968.4875
425.9132	13996.7875
430.04396	14033.0875
434.17176	14149.1875
438.2966	14213.1875
442.41849	14419.5875
446.53742	14786.0875
450.6534	15209.0875
454.76644	15511.1875
458.87653	15553.9875
462.98368	15497.8875
467.08789	15321.5875
471.18916	15093.4875
475.2875	14809.6875
479.38291	14673.7875
483.4754	14530.4875
487.56496	14420.3875
491.6516	14269.1875
495.73531	14182.7875
499.81612	14177.4875
503.89401	14255.0875
507.96899	14294.4875
512.04106	14258.5875
516.11023	14196.9875
520.1765	14133.4875
524.23987	14057.3875
528.30034	14031.6875
532.35792	13956.5875
536.41261	13787.0875
540.46441	13635.0875
544.51333	13596.2875
548.55936	13681.7875
552.60252	13900.8875
556.64279	14225.0875
560.6802	14380.0875
564.71473	14450.6875
568.7464	14549.8875
572.7752	14759.0875
576.80114	15015.1875
580.82422	15276.8875
584.84444	15684.0875
588.86181	16217.6875
592.87633	16705.0875
596.888	16770.7875
600.89682	16389.1875
604.9028	16485.2875
608.90594	17705.4875
612.90624	19169.4875
616.90371	18329.0875
620.89834	15772.1875
624.89015	14572.4875
628.87913	14426.9875
632.86528	14389.0875
636.84862	14284.4875
640.82913	14074.9875
644.80683	13753.5875
648.78172	13585.4875
652.75379	13557.9875
656.72306	13741.7875
660.68952	13966.6875
664.65319	13915.9875
668.61405	13707.6875
672.57211	13667.2875
676.52738	13684.0875
680.47986	13684.8875
684.42955	13594.0875
688.37646	13563.8875
692.32058	13644.2875
696.26192	13834.2875
700.20048	14027.4875
704.13626	14112.9875
708.06928	14051.5875
711.99952	13970.1875
715.927	13935.3875
719.85171	13998.6875
723.77365	13982.0875
727.69284	13816.3875
731.60928	13664.4875
735.52295	13589.2875
739.43388	13615.4875
743.34206	13666.2875
747.24749	13739.9875
751.15017	13819.6875
755.05012	14026.6875
758.94733	14301.8875
762.8418	14867.6875
766.73354	15738.9875
770.62254	16632.0875
774.50882	16925.9875
778.39237	16404.3875
782.27321	15502.9875
786.15132	14665.5875
790.02671	14167.0875
793.89938	13946.8875
797.76935	13878.7875
801.6366	13809.9875
805.50115	13795.3875
809.36299	13705.0875
813.22213	13648.2875
817.07857	13565.4875
820.93231	13515.1875
824.78336	13516.8875
828.63172	13516.0875
832.47738	13562.9875
836.32036	13642.9875
840.16066	13735.4875
843.99827	13797.9875
847.8332	13756.2875
851.66546	13669.7875
855.49504	13633.5875
859.32195	13622.1875
863.1462	13593.8875
866.96777	13516.2875
870.78668	13485.9875
874.60293	13474.5875
878.41652	13496.8875
882.22745	13511.5875
886.03573	13609.2875
889.84136	13625.8875
893.64433	13553.7875
897.44466	13464.5875
901.24235	13404.7875
905.0374	13396.5875
908.8298	13366.6875
912.61957	13377.4875
916.40671	13494.3875
920.19121	13665.3875
923.97308	13827.7875
927.75233	13955.6875
931.52895	13959.3875
935.30295	13824.6875
939.07433	13652.0875
942.84309	13495.5875
946.60924	13413.1875
950.37278	13393.4875
954.13371	13321.4875
957.89203	13228.7875
961.64774	13187.5875
965.40086	13189.3875
969.15137	13174.5875
972.89929	13167.8875
976.64461	13175.1875
980.38733	13207.3875
984.12747	13295.1875
987.86502	13445.8875
991.59999	13615.1875
995.33237	13922.9875
999.06217	14335.9875
1002.78939	14792.9875
1006.51404	15012.5875
1010.23611	15106.9875
1013.95561	15169.9875
1017.67255	15134.8875
1021.38692	15000.7875
1025.09872	14896.5875
1028.80796	15094.7875
1032.51465	15718.1875
1036.21877	16373.0875
1039.92035	16529.9875
1043.61937	16283.8875
1047.31584	15756.9875
1051.00976	15204.3875
1054.70114	14830.4875
1058.38998	14734.7875
1062.07627	14665.6875
1065.76003	14647.5875
1069.44126	14703.9875
1073.11995	14893.9875
1076.79611	15076.7875
1080.46974	15189.6875
1084.14085	15273.9875
1087.80943	15427.8875
1091.47549	15487.8875
1095.13903	15435.5875
1098.80005	15251.6875
1102.45857	15021.8875
1106.11456	14806.0875
1109.76805	14753.2875
1113.41903	14777.6875
1117.06751	14826.2875
1120.71348	14910.4875
1124.35696	15017.9875
1127.99793	15176.8875
1131.63641	15245.8875
1135.2724	15178.3875
1138.90589	15041.1875
1142.5369	15004.7875
1146.16542	15033.1875
1149.79145	15039.7875
1153.415	15092.6875
1157.03607	15200.6875
1160.65467	15534.0875
1164.27079	16071.9875
1167.88443	16798.7875
1171.49561	17589.1875
1175.10432	18607.6875
1178.71056	19946.8875
1182.31434	21280.0875
1185.91565	21962.1875
1189.51451	21875.7875
1193.11091	21233.6875
1196.70485	20470.2875
1200.29634	19786.3875
1203.88538	19327.7875
1207.47197	18934.5875
1211.05612	18583.0875
1214.63782	18261.1875
1218.21708	17959.8875
1221.79391	17762.4875
1225.36829	17601.4875
1228.94024	17403.8875
1232.50976	17086.9875
1236.07685	16830.7875
1239.6415	16728.8875
1243.20374	16764.7875
1246.76355	16971.4875
1250.32093	17221.6875
1253.8759	17569.5875
1257.42845	18030.6875
1260.97859	18463.1875
1264.52631	18936.9875
1268.07163	19490.9875
1271.61453	20029.2875
1275.15503	20679.2875
1278.69312	21231.5875
1282.22882	21639.1875
1285.76211	22027.9875
1289.29301	22499.7875
1292.82151	23177.7875
1296.34761	24186.2875
1299.87133	25502.1875
1303.39266	27167.8875
1306.9116	28783.1875
1310.42815	30039.9875
1313.94233	30429.2875
1317.45412	29878.8875
1320.96354	28916.6875
1324.47058	27963.7875
1327.97525	27124.3875
1331.47754	26571.8875
1334.97747	26215.1875
1338.47502	25962.7875
1341.97022	25609.4875
1345.46305	25213.9875
1348.95352	25169.1875
1352.44163	25531.6875
1355.92738	26477.9875
1359.41078	27995.8875
1362.89183	29278.3875
1366.37053	28887.0875
1369.84688	26702.8875
1373.32088	23887.0875
1376.79254	21921.7875
1380.26186	21136.5875
1383.72883	20964.4875
1387.19347	20924.6875
1390.65578	20588.1875
1394.11575	20338.2875
1397.57339	20417.9875
1401.0287	20567.9875
1404.48168	20789.9875
1407.93234	20813.7875
1411.38068	20665.1875
1414.82669	20278.8875
1418.27039	19822.1875
1421.71177	19261.8875
1425.15083	18742.5875
1428.58758	18518.3875
1432.02203	18576.1875
1435.45416	19013.6875
1438.88399	19449.8875
1442.31151	19789.0875
1445.73673	19935.9875
1449.15965	20072.0875
1452.58027	19997.2875
1455.9986	19896.3875
1459.41463	19798.1875
1462.82837	20019.2875
1466.23982	20411.1875
1469.64898	20771.4875
1473.05586	21096.2875
1476.46045	21311.6875
1479.86276	21309.2875
1483.26279	21196.5875
1486.66054	21099.9875
1490.05602	21189.5875
1493.44922	21422.4875
1496.84016	21647.2875
1500.22882	21938.3875
1503.61521	22421.6875
1506.99934	23114.0875
1510.38121	23748.9875
1513.76081	23971.4875
1517.13816	23535.9875
1520.51324	22697.7875
1523.88607	21883.9875
1527.25665	21433.9875
1530.62498	21249.5875
1533.99105	21123.9875
1537.35488	20923.4875
1540.71647	20657.5875
1544.07581	20310.5875
1547.4329	19961.2875
1550.78776	19658.2875
1554.14038	19476.9875
1557.49077	19347.4875
1560.83892	19249.6875
1564.18484	19189.9875
1567.52853	19211.7875
1570.86999	19373.1875
1574.20922	19594.5875
1577.54624	19813.0875
1580.88103	19909.0875
1584.2136	20007.5875
1587.54395	20574.9875
1590.87208	21573.4875
1594.19801	22842.0875
1597.52172	24045.3875
1600.84321	24420.9875
1604.16251	23493.2875
1607.47959	21701.8875
1610.79447	19931.1875
1614.10715	18329.3875
1617.41763	17142.6875
1620.7259	16470.4875
1624.03199	16165.2875
1627.33587	16213.8875
1630.63757	16658.1875
1633.93707	17446.9875
1637.23439	18681.4875
1640.52951	20427.6875
1643.82246	22539.8875
1647.11321	24281.0875
1650.40179	24645.7875
1653.68819	23108.7875
1656.97241	20449.5875
1660.25446	17857.1875
1663.53433	16094.9875
1666.81203	14973.9875
1670.08756	14282.6875
1673.36092	13876.2875
1676.63211	13581.8875
1679.90115	13373.9875
1683.16801	13264.9875
1686.43272	13129.8875
1689.69527	13034.8875
1692.95567	12946.6875
1696.2139	12889.4875
1699.46999	12835.9875
1702.72392	12778.3875
1705.97571	12830.2875
1709.22535	12819.3875
1712.47284	12858.5875
1715.71819	12869.4875
1718.96139	12845.2875
1722.20246	12834.6875
1725.44139	12789.9875
1728.67818	12741.8875
1731.91284	12679.9875
1735.14537	12640.6875
1738.37576	12577.0875
1741.60403	12532.1875
1744.83017	12499.1875
1748.05418	12474.5875
1751.27607	12432.9875
1754.49584	12421.1875
1757.71349	12389.8875
1760.92903	12359.5875
1764.14244	12378.4875
1767.35375	12354.0875
1770.56294	12339.0875
1773.77002	12353.0875
1776.97499	12331.4875
1780.17785	12332.0875
1783.37861	12364.8875
1786.57727	12373.2875
1789.77382	12355.4875
1792.96828	12322.9875
1796.16064	12319.1875
1799.3509	12297.5875
1802.53907	12298.4875
1805.72514	12281.9875
1808.90913	12256.8875
1812.09102	12214.2875
1815.27083	12219.7875
1818.44856	12168.6875
1821.6242	12197.7875
1824.79776	12167.3875
1827.96924	12181.1875
1831.13864	12137.5875
1834.30597	12164.0875
1837.47122	12166.0875
1840.6344	12150.9875
1843.7955	12157.4875
1846.95454	12142.4875
1850.11151	12149.6875
1853.26642	12163.5875
1856.41926	12160.9875
1859.57004	12183.7875
1862.71876	12155.6875
1865.86542	12129.1875
1869.01003	12126.6875
1872.15258	12122.0875
1875.29308	12098.1875
1878.43152	12105.9875
1881.56792	12124.6875
1884.70227	12086.4875
1887.83457	12061.5875
1890.96482	12061.7875
1894.09304	12065.2875
1897.21921	12052.2875
1900.34335	12054.5875
1903.46544	12036.7875
1906.58551	12053.4875
1909.70353	12027.4875
1912.81953	12014.2875
1915.93349	11992.8875
1919.04543	11977.1875
1922.15534	11964.1875
1925.26322	11939.1875
1928.36908	11939.3875
1931.47292	11934.8875
1934.57473	11889.2875
1937.67453	11859.0875
1940.77232	11843.9875
1943.86808	11815.6875
1946.96184	11749.8875
1950.05358	11737.5875
1953.14331	11713.2875
1956.23103	11664.5875
1959.31675	11678.2875
1962.40046	11640.8875
1965.48217	11616.4875
1968.56188	11607.2875
1971.63959	11567.5875
1974.7153	11528.8875
1977.78901	11499.2875
1980.86073	11445.3875
1983.93046	11441.6875
1986.99819	11406.4875
1990.06394	11371.9875
1993.1277	11341.6875
1996.18947	11318.9875
1999.24925	11294.2875
2002.30706	11254.2875
2005.36288	11241.5875
2008.41672	11233.5875
2011.46859	11174.3875
2014.51848	11174.5875
2017.56639	11153.6875
2020.61233	11120.3875
2023.6563	11140.2875
2026.6983	11105.6875
2029.73833	11067.7875
2032.7764	11049.3875
2035.8125	11071.4875
2038.84664	11040.6875
2041.87881	11008.0875
2044.90903	11024.2875
2047.93729	10989.2875
2050.96359	11024.8875
2053.98794	10969.3875
2057.01034	10978.5875
2060.03078	10982.3875
2063.04927	10975.3875
2066.06582	10962.4875
2069.08042	10960.1875
2072.09307	10947.0875
2075.10378	10941.3875
2078.11255	10935.1875
2081.11938	10932.7875
2084.12426	10900.5875
2087.12722	10945.5875
2090.12824	10953.8875
2093.12732	10953.5875
2096.12447	10942.0875
2099.11969	10948.1875
2102.11299	10957.6875
2105.10435	10975.2875
2108.09379	10977.4875
2111.08131	10981.1875
2114.0669	11001.8875
2117.05057	10991.4875
2120.03233	11017.8875
2123.01216	11014.1875
2125.99008	11043.0875
2128.96609	11069.5875
2131.94018	11072.8875
2134.91236	11071.0875
2137.88263	11073.2875
2140.851	11092.1875
2143.81746	11122.8875
2146.78201	11122.5875
2149.74466	11138.3875
2152.7054	11151.0875
2155.66425	11122.8875
2158.6212	11134.4875
2161.57625	11116.1875
2164.52941	11142.1875
2167.48067	11135.7875
2170.43004	11115.0875
2173.37752	11141.2875
2176.32311	11133.5875
2179.26681	11163.0875
2182.20863	11152.2875
2185.14856	11175.6875
2188.08661	11151.2875
2191.02278	11196.8875
2193.95707	11172.7875
2196.88948	11180.4875
2199.82001	11176.8875
2202.74867	11172.4875
2205.67545	11179.7875
2208.60037	11171.4875
2211.52341	11160.7875
2214.44458	11171.2875
2217.36388	11157.8875
2220.28132	11129.7875
2223.1969	11106.3875
2226.11061	11127.7875
2229.02246	11064.2875
2231.93245	11107.6875
2234.84058	11065.8875
2237.74686	11033.3875
2240.65128	11044.9875
2243.55385	11047.0875
2246.45456	11037.2875
2249.35343	10982.3875
2252.25044	10986.4875
2255.14561	11000.7875
2258.03893	10978.5875
2260.93041	10959.7875
2263.82004	10937.6875
2266.70783	10926.1875
2269.59378	10906.8875
2272.4779	10892.6875
2275.36017	10844.1875
2278.24061	10861.1875
2281.11922	10848.0875
2283.996	10844.8875
2286.87094	10826.9875
2289.74405	10799.8875
2292.61534	10802.3875
2295.4848	10794.6875
2298.35243	10834.0875
2301.21824	10810.9875
2304.08223	10851.8875
2306.94439	10857.0875
2309.80474	10851.9875
2312.66327	10884.2875
2315.51999	10872.5875
2318.37489	10848.5875
2321.22797	10850.1875
2324.07925	10833.2875
2326.92871	10823.7875
2329.77637	10837.0875
2332.62222	10824.2875
2335.46626	10820.5875
2338.3085	10797.4875
2341.14893	10820.7875
2343.98756	10814.2875
2346.8244	10822.2875
2349.65943	10823.1875
2352.49267	10837.3875
2355.32411	10803.1875
2358.15376	10783.6875
2360.98161	10792.5875
2363.80768	10775.6875
2366.63195	10755.2875
2369.45444	10753.9875
2372.27514	10728.2875
2375.09405	10713.3875
2377.91118	10707.0875
2380.72652	10697.2875
2383.54009	10679.7875
2386.35187	10686.3875
2389.16188	10643.8875
2391.97011	10656.4875
2394.77657	10648.7875
2397.58125	10650.7875
2400.38416	10624.4875
2403.18529	10575.2875
2405.98466	10589.5875
2408.78226	10575.5875
2411.57809	10554.3875
2414.37216	10554.5875
2417.16446	10542.8875
2419.955	10539.4875
2422.74378	10550.0875
2425.5308	10543.6875
2428.31606	10518.8875
2431.09956	10531.7875
2433.88131	10494.0875
2436.6613	10507.9875
2439.43954	10520.2875
2442.21603	10528.4875
2444.99077	10487.3875
2447.76377	10514.1875
2450.53501	10516.0875
2453.30451	10487.7875
2456.07226	10488.1875
2458.83827	10490.2875
2461.60254	10512.3875
2464.36507	10525.9875
2467.12586	10504.6875
2469.88492	10509.5875
2472.64224	10528.0875
2475.39782	10515.0875
2478.15167	10512.3875
2480.90379	10537.8875
2483.65417	10553.0875
2486.40283	10555.1875
2489.14976	10562.2875
2491.89497	10526.9875
2494.63845	10541.0875
2497.3802	10545.6875
2500.12024	10549.4875
2502.85855	10550.1875
2505.59514	10534.8875
2508.33002	10532.8875
2511.06318	10542.2875
2513.79462	10530.9875
2516.52435	10502.1875
2519.25237	10511.6875
2521.97867	10483.1875
2524.70327	10487.7875
2527.42616	10486.0875
2530.14734	10485.8875
2532.86681	10484.1875
2535.58458	10456.6875
2538.30065	10471.5875
2541.01501	10480.9875
2543.72768	10471.6875
2546.43864	10457.1875
2549.14791	10465.5875
2551.85548	10447.0875
2554.56136	10443.6875
2557.26554	10431.6875
2559.96803	10447.5875
2562.66883	10445.3875
2565.36794	10464.7875
2568.06536	10436.7875
2570.7611	10413.6875
2573.45514	10405.3875
2576.14751	10381.0875
2578.83819	10411.6875
2581.52719	10413.8875
2584.21451	10386.5875
2586.90015	10402.1875
2589.58411	10380.4875
2592.2664	10376.0875
2594.94701	10389.1875
2597.62594	10352.4875
2600.30321	10358.6875
2602.9788	10357.2875
2605.65273	10340.1875
2608.32498	10350.5875
2610.99557	10353.7875
2613.66449	10351.8875
2616.33175	10356.4875
2618.99734	10351.0875
2621.66128	10369.4875
2624.32355	10356.5875
2626.98416	10344.9875
2629.64311	10333.4875
2632.30041	10344.1875
2634.95605	10306.3875
2637.61004	10264.8875
2640.26238	10293.9875
2642.91306	10300.3875
2645.56209	10282.9875
2648.20948	10295.4875
2650.85521	10261.8875
2653.4993	10280.2875
2656.14175	10294.8875
2658.78255	10301.3875
2661.42171	10297.9875
2664.05923	10329.7875
2666.6951	10328.2875
2669.32934	10322.1875
2671.96194	10309.1875
2674.59291	10334.9875
2677.22224	10321.3875
2679.84993	10340.3875
2682.476	10313.4875
2685.10043	10313.3875
2687.72324	10315.8875
2690.34441	10300.9875
2692.96396	10313.3875
2695.58188	10312.2875
2698.19818	10296.2875
2700.81285	10332.5875
2703.4259	10329.7875
2706.03733	10303.9875
2708.64714	10287.5875
2711.25533	10304.8875
2713.86191	10333.5875
2716.46687	10376.7875
2719.07021	10382.7875
2721.67194	10366.5875
2724.27206	10386.5875
2726.87057	10395.4875
2729.46747	10420.4875
2732.06276	10414.6875
2734.65644	10405.5875
2737.24852	10403.4875
2739.83899	10396.3875
2742.42786	10393.5875
2745.01513	10373.8875
2747.60079	10378.4875
2750.18486	10369.1875
2752.76733	10373.9875
2755.3482	10345.5875
2757.92747	10412.2875
2760.50515	10362.9875
2763.08123	10373.2875
2765.65573	10370.5875
2768.22863	10359.3875
2770.79994	10329.1875
2773.36967	10368.4875
2775.9378	10372.6875
2778.50435	10338.6875
2781.06932	10351.7875
2783.6327	10349.4875
2786.1945	10347.4875
2788.75471	10333.0875
2791.31335	10341.4875
2793.87041	10334.8875
2796.42589	10274.1875
2798.97979	10264.2875
2801.53212	10245.6875
2804.08288	10269.1875
2806.63206	10225.9875
2809.17967	10235.6875
2811.72571	10212.6875
2814.27018	10207.2875
2816.81308	10176.4875
2819.35442	10201.8875
2821.89419	10197.4875
2824.43239	10183.1875
2826.96904	10190.9875
2829.50412	10167.0875
2832.03763	10154.9875
2834.56959	10183.7875
2837.1	10143.3875
2839.62884	10177.5875
2842.15613	10169.1875
2844.68186	10184.4875
2847.20604	10178.1875
2849.72867	10212.2875
2852.24974	10184.5875
2854.76927	10187.6875
2857.28724	10174.3875
2859.80367	10187.3875
2862.31855	10153.9875
2864.83189	10159.7875
2867.34368	10136.8875
2869.85393	10133.1875
2872.36264	10128.5875
2874.8698	10132.5875
2877.37543	10119.9875
2879.87952	10142.9875
2882.38207	10137.7875
2884.88308	10140.7875
2887.38256	10147.2875
2889.88051	10157.5875
2892.37692	10151.0875
2894.8718	10156.3875
2897.36515	10188.9875
2899.85698	10196.2875
2902.34727	10210.3875
2904.83604	10223.9875
2907.32328	10214.7875
2909.809	10202.9875
2912.29319	10245.2875
2914.77587	10246.2875
2917.25702	10229.0875
2919.73665	10232.3875
2922.21476	10227.1875
2924.69136	10240.1875
2927.16644	10241.8875
2929.64	10223.2875
2932.11205	10214.3875
2934.58258	10163.4875
2937.05161	10218.6875
2939.51912	10197.1875
2941.98513	10169.7875
2944.44962	10172.9875
2946.91261	10115.8875
2949.37409	10152.9875
2951.83407	10143.2875
2954.29254	10152.5875
2956.74951	10120.3875
2959.20498	10154.6875
2961.65895	10136.1875
2964.11142	10159.5875
2966.56239	10126.8875
2969.01186	10114.1875
2971.45984	10115.8875
2973.90632	10104.0875
2976.35131	10094.6875
2978.7948	10084.7875
2981.23681	10069.6875
2983.67732	10043.5875
2986.11635	10033.9875
2988.55388	10020.9875
2990.98993	10010.8875
2993.4245	9995.2875
2995.85758	9982.9875
2998.28917	9971.6875
3000.71928	9935.1875
3003.14791	9938.0875
3005.57506	9926.5875
3008.00073	9912.1875
3010.42493	9919.6875
3012.84764	9913.3875
3015.26888	9919.5875
3017.68865	9901.9875
3020.10694	9902.7875
3022.52376	9869.1875
3024.9391	9860.5875
3027.35298	9855.3875
