Data from AgNPs_FTO_APTES_UA_1uM_CRN_1uM_R6G_10uM_NaF_0.1M_Addition_RamanShift__1__12-13-19-479.txt Node

Date: Thu Jan 27 12:13:19 GMT 2022
User: TCL
Spectrometer: QEP01345
Trigger mode: 4
Integration Time (sec): 7.000000E0
Scans to average: 10
Electric dark correction enabled: true
Nonlinearity correction enabled: false
Boxcar width: 0
XAxis mode: Raman Shifts
Number of Pixels in Spectrum: 1044
>>>>>Begin Spectral Data<<<<<
46.04893	0.275
50.45542	0.275
54.85868	-0.725
59.25871	-2.225
63.6555	56.675
68.04907	59.675
72.43941	62.375
76.82654	67.275
81.21044	66.475
85.59113	68.275
89.96862	70.175
94.34289	78.175
98.71396	80.875
103.08183	74.175
107.4465	82.875
111.80798	80.075
116.16626	84.975
120.52136	90.675
124.87327	91.475
129.222	94.775
133.56755	95.975
137.90993	102.175
142.24913	114.475
146.58517	122.575
150.91804	143.075
155.24774	169.475
159.57429	204.175
163.89768	253.975
168.21792	336.375
172.53501	448.375
176.84895	617.475
181.15975	866.075
185.46741	1208.475
189.77193	1697.875
194.07331	2252.575
198.37157	2934.575
202.6667	3595.975
206.9587	4284.675
211.24758	4968.375
215.53334	5648.875
219.81599	6392.375
224.09553	7187.275
228.37195	8044.075
232.64527	9005.675
236.91549	10050.475
241.18261	11087.875
245.44663	12024.075
249.70755	12877.675
253.96539	13616.575
258.22014	14232.275
262.4718	14720.775
266.72039	15085.075
270.96589	15243.675
275.20832	15224.375
279.44768	15077.375
283.68397	14851.075
287.91719	14624.875
292.14735	14468.675
296.37445	14448.175
300.59849	14510.675
304.81948	14645.575
309.03742	14718.975
313.25231	14696.575
317.46415	14517.875
321.67296	14249.975
325.87872	14010.875
330.08145	13956.075
334.28114	13967.275
338.47781	14051.475
342.67145	14274.175
346.86207	14486.775
351.04966	14826.375
355.23424	15139.575
359.4158	15441.575
363.59435	15679.075
367.76989	15851.975
371.94243	15956.175
376.11196	16012.875
380.27849	16077.975
384.44203	16125.075
388.60257	16184.775
392.76012	16270.175
396.91468	16422.975
401.06626	16636.975
405.21485	16828.475
409.36047	16739.675
413.50311	16532.175
417.64277	16321.875
421.77947	16268.475
425.9132	16255.875
430.04396	16294.475
434.17176	16351.675
438.2966	16459.875
442.41849	16675.575
446.53742	17059.675
450.6534	17480.275
454.76644	17744.875
458.87653	17778.675
462.98368	17679.775
467.08789	17496.875
471.18916	17245.375
475.2875	17002.075
479.38291	16757.275
483.4754	16569.075
487.56496	16529.275
491.6516	16439.775
495.73531	16500.075
499.81612	16519.675
503.89401	16651.975
507.96899	16735.875
512.04106	16686.475
516.11023	16681.275
520.1765	16707.275
524.23987	16698.375
528.30034	16700.575
532.35792	16664.275
536.41261	16484.275
540.46441	16229.775
544.51333	16123.375
548.55936	16141.675
552.60252	16342.175
556.64279	16646.575
560.6802	16812.875
564.71473	16800.675
568.7464	16856.175
572.7752	16941.975
576.80114	17019.275
580.82422	17126.075
584.84444	17513.775
588.86181	18132.975
592.87633	18819.275
596.888	19083.175
600.89682	18812.575
604.9028	18965.375
608.90594	20633.075
612.90624	22856.675
616.90371	22155.375
620.89834	18964.075
624.89015	17382.075
628.87913	17105.775
632.86528	17105.275
636.84862	17037.075
640.82913	16852.375
644.80683	16505.275
648.78172	16297.075
652.75379	16275.875
656.72306	16496.675
660.68952	16839.375
664.65319	16802.175
668.61405	16559.875
672.57211	16463.775
676.52738	16571.175
680.47986	16543.475
684.42955	16385.075
688.37646	16317.175
692.32058	16395.975
696.26192	16642.275
700.20048	16879.675
704.13626	16967.275
708.06928	16843.175
711.99952	16698.875
715.927	16690.675
719.85171	16752.775
723.77365	16765.175
727.69284	16591.975
731.60928	16445.475
735.52295	16338.975
739.43388	16343.475
743.34206	16426.175
747.24749	16481.775
751.15017	16555.875
755.05012	16702.075
758.94733	16990.875
762.8418	17569.775
766.73354	18566.775
770.62254	19657.675
774.50882	20230.675
778.39237	19893.975
782.27321	18919.875
786.15132	17900.175
790.02671	17239.375
793.89938	16946.575
797.76935	16768.575
801.6366	16705.775
805.50115	16612.175
809.36299	16535.875
813.22213	16425.575
817.07857	16351.575
820.93231	16318.575
824.78336	16295.975
828.63172	16374.575
832.47738	16424.875
836.32036	16526.975
840.16066	16596.875
843.99827	16688.375
847.8332	16596.975
851.66546	16531.675
855.49504	16494.075
859.32195	16485.775
863.1462	16483.175
866.96777	16436.875
870.78668	16376.675
874.60293	16382.575
878.41652	16429.375
882.22745	16479.275
886.03573	16563.675
889.84136	16564.975
893.64433	16517.775
897.44466	16433.675
901.24235	16354.375
905.0374	16303.275
908.8298	16305.275
912.61957	16322.675
916.40671	16367.275
920.19121	16476.475
923.97308	16643.875
927.75233	16796.975
931.52895	16937.675
935.30295	16864.475
939.07433	16671.975
942.84309	16517.275
946.60924	16393.575
950.37278	16322.475
954.13371	16270.975
957.89203	16199.075
961.64774	16118.175
965.40086	16095.675
969.15137	16113.175
972.89929	16112.875
976.64461	16218.275
980.38733	16344.875
984.12747	16452.275
987.86502	16588.575
991.59999	16750.375
995.33237	16999.875
999.06217	17395.475
1002.78939	17810.875
1006.51404	18031.575
1010.23611	18154.575
1013.95561	18196.275
1017.67255	18172.575
1021.38692	18054.175
1025.09872	17948.275
1028.80796	18131.775
1032.51465	18662.175
1036.21877	19212.375
1039.92035	19384.175
1043.61937	19124.775
1047.31584	18704.875
1051.00976	18207.575
1054.70114	17886.575
1058.38998	17784.075
1062.07627	17735.375
1065.76003	17730.875
1069.44126	17823.975
1073.11995	18034.575
1076.79611	18352.275
1080.46974	18512.075
1084.14085	18671.475
1087.80943	18753.075
1091.47549	18800.175
1095.13903	18717.575
1098.80005	18469.775
1102.45857	18195.875
1106.11456	17955.375
1109.76805	17844.875
1113.41903	17826.175
1117.06751	17871.475
1120.71348	18020.075
1124.35696	18170.875
1127.99793	18375.875
1131.63641	18440.975
1135.2724	18277.975
1138.90589	18041.275
1142.5369	17921.175
1146.16542	17852.175
1149.79145	17824.875
1153.415	17747.875
1157.03607	17744.575
1160.65467	17904.875
1164.27079	18324.775
1167.88443	18917.475
1171.49561	19714.375
1175.10432	20800.475
1178.71056	22264.975
1182.31434	23665.575
1185.91565	24388.275
1189.51451	24363.775
1193.11091	23773.375
1196.70485	22965.975
1200.29634	22190.875
1203.88538	21622.775
1207.47197	21087.175
1211.05612	20594.075
1214.63782	20182.675
1218.21708	19911.175
1221.79391	19799.975
1225.36829	19723.475
1228.94024	19628.575
1232.50976	19389.275
1236.07685	19164.575
1239.6415	19018.675
1243.20374	19005.175
1246.76355	19137.975
1250.32093	19386.275
1253.8759	19773.575
1257.42845	20177.675
1260.97859	20665.775
1264.52631	21167.375
1268.07163	21696.575
1271.61453	22267.775
1275.15503	22783.675
1278.69312	23270.275
1282.22882	23495.275
1285.76211	23813.175
1289.29301	24158.675
1292.82151	24730.375
1296.34761	25470.275
1299.87133	26480.875
1303.39266	27854.075
1306.9116	29413.875
1310.42815	30768.075
1313.94233	31433.675
1317.45412	30977.375
1320.96354	29762.375
1324.47058	28430.475
1327.97525	27307.475
1331.47754	26490.375
1334.97747	25971.775
1338.47502	25707.075
1341.97022	25540.275
1345.46305	25555.375
1348.95352	26005.575
1352.44163	26905.775
1355.92738	28362.175
1359.41078	30355.275
1362.89183	32014.975
1366.37053	31837.375
1369.84688	29315.375
1373.32088	26148.875
1376.79254	23819.875
1380.26186	22792.875
1383.72883	22373.075
1387.19347	22035.075
1390.65578	21590.175
1394.11575	21209.975
1397.57339	20980.475
1401.0287	20942.575
1404.48168	20967.275
1407.93234	20941.675
1411.38068	20883.475
1414.82669	20820.475
1418.27039	20659.475
1421.71177	20429.475
1425.15083	20178.175
1428.58758	20074.175
1432.02203	20234.275
1435.45416	20577.975
1438.88399	20849.275
1442.31151	20896.075
1445.73673	20916.275
1449.15965	20835.175
1452.58027	20754.275
1455.9986	20566.175
1459.41463	20533.475
1462.82837	20734.775
1466.23982	21113.075
1469.64898	21490.275
1473.05586	21806.975
1476.46045	22015.575
1479.86276	22143.675
1483.26279	22193.675
1486.66054	22253.775
1490.05602	22470.475
1493.44922	22805.975
1496.84016	23208.075
1500.22882	23732.575
1503.61521	24577.775
1506.99934	25655.175
1510.38121	26640.775
1513.76081	27017.475
1517.13816	26452.375
1520.51324	25169.475
1523.88607	23807.175
1527.25665	22969.575
1530.62498	22473.475
1533.99105	22184.375
1537.35488	21863.375
1540.71647	21617.675
1544.07581	21339.775
1547.4329	21097.275
1550.78776	20937.175
1554.14038	20800.275
1557.49077	20779.975
1560.83892	20771.875
1564.18484	20791.675
1567.52853	20913.075
1570.86999	21079.875
1574.20922	21283.275
1577.54624	21418.175
1580.88103	21256.175
1584.2136	21067.075
1587.54395	21219.875
1590.87208	21958.975
1594.19801	23061.975
1597.52172	24160.475
1600.84321	24606.775
1604.16251	24050.775
1607.47959	22674.375
1610.79447	21155.275
1614.10715	19799.075
1617.41763	18739.575
1620.7259	18131.675
1624.03199	17845.375
1627.33587	17924.975
1630.63757	18245.175
1633.93707	18893.775
1637.23439	19881.575
1640.52951	21359.975
1643.82246	23309.675
1647.11321	25042.475
1650.40179	25643.275
1653.68819	24429.475
1656.97241	21941.575
1660.25446	19512.475
1663.53433	17827.675
1666.81203	16867.975
1670.08756	16283.275
1673.36092	15980.175
1676.63211	15756.475
1679.90115	15594.375
1683.16801	15406.275
1686.43272	15344.475
1689.69527	15274.575
1692.95567	15188.175
1696.2139	15121.275
1699.46999	15076.175
1702.72392	15038.075
1705.97571	15048.775
1709.22535	15070.475
1712.47284	15134.975
1715.71819	15147.375
1718.96139	15141.275
1722.20246	15116.875
1725.44139	15058.775
1728.67818	15007.475
1731.91284	14943.275
1735.14537	14884.375
1738.37576	14866.875
1741.60403	14819.075
1744.83017	14754.875
1748.05418	14737.075
1751.27607	14657.175
1754.49584	14665.675
1757.71349	14659.375
1760.92903	14610.375
1764.14244	14611.375
1767.35375	14601.875
1770.56294	14579.875
1773.77002	14559.575
1776.97499	14584.075
1780.17785	14578.875
1783.37861	14583.175
1786.57727	14580.575
1789.77382	14580.275
1792.96828	14566.975
1796.16064	14543.475
1799.3509	14540.475
1802.53907	14502.175
1805.72514	14496.575
1808.90913	14447.275
1812.09102	14442.775
1815.27083	14433.775
1818.44856	14394.075
1821.6242	14402.375
1824.79776	14377.975
1827.96924	14346.175
1831.13864	14357.075
1834.30597	14319.375
1837.47122	14316.975
1840.6344	14340.575
1843.7955	14357.775
1846.95454	14355.675
1850.11151	14339.975
1853.26642	14339.075
1856.41926	14316.675
1859.57004	14339.175
1862.71876	14309.275
1865.86542	14323.075
1869.01003	14312.975
1872.15258	14283.375
1875.29308	14286.775
1878.43152	14254.575
1881.56792	14249.875
1884.70227	14203.375
1887.83457	14205.675
1890.96482	14185.375
1894.09304	14150.375
1897.21921	14186.875
1900.34335	14190.875
1903.46544	14137.275
1906.58551	14170.175
1909.70353	14154.875
1912.81953	14119.175
1915.93349	14085.475
1919.04543	14065.175
1922.15534	14039.775
1925.26322	14014.075
1928.36908	14028.075
1931.47292	13982.675
1934.57473	13952.675
1937.67453	13927.075
1940.77232	13904.175
1943.86808	13845.475
1946.96184	13842.375
1950.05358	13825.375
1953.14331	13768.975
1956.23103	13728.575
1959.31675	13716.275
1962.40046	13670.075
1965.48217	13681.175
1968.56188	13606.275
1971.63959	13627.875
1974.7153	13555.475
1977.78901	13547.775
1980.86073	13495.775
1983.93046	13440.375
1986.99819	13412.675
1990.06394	13402.875
1993.1277	13335.775
1996.18947	13289.575
1999.24925	13257.675
2002.30706	13236.975
2005.36288	13187.875
2008.41672	13175.675
2011.46859	13145.075
2014.51848	13110.575
2017.56639	13047.375
2020.61233	13048.075
2023.6563	13002.875
2026.6983	13007.275
2029.73833	12980.675
2032.7764	12980.875
2035.8125	12944.475
2038.84664	12901.875
2041.87881	12916.975
2044.90903	12885.775
2047.93729	12866.975
2050.96359	12838.075
2053.98794	12815.075
2057.01034	12836.675
2060.03078	12830.975
2063.04927	12823.475
2066.06582	12842.775
2069.08042	12813.675
2072.09307	12794.975
2075.10378	12805.275
2078.11255	12794.975
2081.11938	12841.775
2084.12426	12803.075
2087.12722	12820.175
2090.12824	12784.375
2093.12732	12806.375
2096.12447	12821.275
2099.11969	12818.875
2102.11299	12828.675
2105.10435	12842.475
2108.09379	12851.075
2111.08131	12864.175
2114.0669	12827.775
2117.05057	12887.575
2120.03233	12866.775
2123.01216	12884.975
2125.99008	12906.775
2128.96609	12919.675
2131.94018	12924.675
2134.91236	12934.975
2137.88263	12929.475
2140.851	12944.275
2143.81746	12998.275
2146.78201	12985.775
2149.74466	12987.175
2152.7054	13003.175
2155.66425	12987.675
2158.6212	13004.575
2161.57625	13005.575
2164.52941	13013.575
2167.48067	12995.975
2170.43004	12981.475
2173.37752	12995.575
2176.32311	12985.375
2179.26681	13006.775
2182.20863	12986.275
2185.14856	13024.675
2188.08661	13021.975
2191.02278	13039.475
2193.95707	13016.075
2196.88948	13038.375
2199.82001	13005.175
2202.74867	13032.575
2205.67545	13020.275
2208.60037	13029.975
2211.52341	13002.275
2214.44458	12986.175
2217.36388	12972.075
2220.28132	12917.575
2223.1969	12898.475
2226.11061	12908.275
2229.02246	12872.175
2231.93245	12858.775
2234.84058	12858.675
2237.74686	12863.475
2240.65128	12834.175
2243.55385	12816.575
2246.45456	12807.675
2249.35343	12769.575
2252.25044	12763.875
2255.14561	12751.575
2258.03893	12755.875
2260.93041	12707.175
2263.82004	12721.575
2266.70783	12677.575
2269.59378	12655.275
2272.4779	12660.275
2275.36017	12635.775
2278.24061	12616.475
2281.11922	12612.275
2283.996	12558.075
2286.87094	12570.575
2289.74405	12546.975
2292.61534	12563.275
2295.4848	12546.975
2298.35243	12540.375
2301.21824	12525.175
2304.08223	12548.775
2306.94439	12550.775
2309.80474	12570.975
2312.66327	12549.275
2315.51999	12557.075
2318.37489	12555.575
2321.22797	12553.675
2324.07925	12528.175
2326.92871	12525.475
2329.77637	12537.775
2332.62222	12499.275
2335.46626	12466.375
2338.3085	12471.875
2341.14893	12479.775
2343.98756	12470.875
2346.8244	12458.175
2349.65943	12473.475
2352.49267	12451.875
2355.32411	12452.675
2358.15376	12416.675
2360.98161	12418.875
2363.80768	12436.875
2366.63195	12436.275
2369.45444	12412.775
2372.27514	12411.575
2375.09405	12364.975
2377.91118	12372.975
2380.72652	12322.775
2383.54009	12299.175
2386.35187	12326.175
2389.16188	12236.875
2391.97011	12250.175
2394.77657	12244.575
2397.58125	12254.175
2400.38416	12209.575
2403.18529	12191.075
2405.98466	12141.475
2408.78226	12131.875
2411.57809	12138.575
2414.37216	12131.175
2417.16446	12102.275
2419.955	12106.275
2422.74378	12087.975
2425.5308	12075.475
2428.31606	12079.375
2431.09956	12059.075
2433.88131	12051.075
2436.6613	12076.875
2439.43954	12054.175
2442.21603	12061.975
2444.99077	12066.775
2447.76377	12077.275
2450.53501	12061.375
2453.30451	12065.175
2456.07226	12033.175
2458.83827	12023.575
2461.60254	12047.675
2464.36507	12026.575
2467.12586	12023.375
2469.88492	12007.575
2472.64224	12048.075
2475.39782	12027.875
2478.15167	12041.875
2480.90379	12024.075
2483.65417	12034.575
2486.40283	12034.375
2489.14976	12042.975
2491.89497	12050.475
2494.63845	12054.375
2497.3802	12025.875
2500.12024	12006.075
2502.85855	12002.975
2505.59514	12014.375
2508.33002	11975.975
2511.06318	11966.475
2513.79462	11966.275
2516.52435	11944.975
2519.25237	11947.375
2521.97867	11939.575
2524.70327	11972.875
2527.42616	11909.075
2530.14734	11891.475
2532.86681	11906.875
2535.58458	11907.375
2538.30065	11891.075
2541.01501	11912.475
2543.72768	11895.775
2546.43864	11854.675
2549.14791	11853.075
2551.85548	11878.775
2554.56136	11814.975
2557.26554	11804.675
2559.96803	11795.175
2562.66883	11787.975
2565.36794	11798.375
2568.06536	11796.375
2570.7611	11785.775
2573.45514	11752.575
2576.14751	11742.375
2578.83819	11740.575
2581.52719	11748.975
2584.21451	11735.575
2586.90015	11699.475
2589.58411	11690.775
2592.2664	11682.575
2594.94701	11662.075
2597.62594	11676.575
2600.30321	11642.375
2602.9788	11656.175
2605.65273	11620.075
2608.32498	11582.375
2610.99557	11579.675
2613.66449	11604.875
2616.33175	11580.475
2618.99734	11560.775
2621.66128	11552.775
2624.32355	11559.375
2626.98416	11539.275
2629.64311	11547.375
2632.30041	11550.175
2634.95605	11528.275
2637.61004	11494.275
2640.26238	11460.775
2642.91306	11463.675
2645.56209	11479.675
2648.20948	11456.675
2650.85521	11420.975
2653.4993	11454.375
2656.14175	11446.675
2658.78255	11474.575
2661.42171	11475.975
2664.05923	11493.175
2666.6951	11513.775
2669.32934	11497.975
2671.96194	11489.075
2674.59291	11500.075
2677.22224	11484.075
2679.84993	11516.875
2682.476	11484.075
2685.10043	11486.875
2687.72324	11461.775
2690.34441	11467.875
2692.96396	11483.875
2695.58188	11458.275
2698.19818	11482.475
2700.81285	11463.275
2703.4259	11435.675
2706.03733	11439.875
2708.64714	11451.475
2711.25533	11464.775
2713.86191	11483.175
2716.46687	11507.175
2719.07021	11483.475
2721.67194	11508.875
2724.27206	11517.075
2726.87057	11532.975
2729.46747	11536.275
2732.06276	11534.275
2734.65644	11514.275
2737.24852	11515.175
2739.83899	11504.575
2742.42786	11484.975
2745.01513	11472.575
2747.60079	11475.575
2750.18486	11471.075
2752.76733	11454.075
2755.3482	11442.375
2757.92747	11496.375
2760.50515	11437.875
2763.08123	11437.675
2765.65573	11441.375
2768.22863	11447.875
2770.79994	11416.375
2773.36967	11417.375
2775.9378	11431.575
2778.50435	11426.775
2781.06932	11385.775
2783.6327	11363.375
2786.1945	11378.175
2788.75471	11365.975
2791.31335	11357.575
2793.87041	11358.175
2796.42589	11320.275
2798.97979	11319.375
2801.53212	11295.175
2804.08288	11268.675
2806.63206	11245.775
2809.17967	11251.375
2811.72571	11209.975
2814.27018	11195.675
2816.81308	11170.675
2819.35442	11177.775
2821.89419	11133.775
2824.43239	11126.775
2826.96904	11149.075
2829.50412	11145.075
2832.03763	11135.975
2834.56959	11142.575
2837.1	11150.875
2839.62884	11146.375
2842.15613	11161.575
2844.68186	11185.275
2847.20604	11169.675
2849.72867	11186.475
2852.24974	11177.875
2854.76927	11174.075
2857.28724	11143.875
2859.80367	11160.475
2862.31855	11141.175
2864.83189	11116.075
2867.34368	11126.975
2869.85393	11116.075
2872.36264	11124.375
2874.8698	11130.575
2877.37543	11109.775
2879.87952	11119.075
2882.38207	11138.175
2884.88308	11149.875
2887.38256	11182.175
2889.88051	11137.375
2892.37692	11165.375
2894.8718	11163.975
2897.36515	11186.675
2899.85698	11204.175
2902.34727	11218.475
2904.83604	11206.875
2907.32328	11233.875
2909.809	11223.175
2912.29319	11216.275
2914.77587	11196.075
2917.25702	11174.875
2919.73665	11191.575
2922.21476	11206.475
2924.69136	11175.275
2927.16644	11145.375
2929.64	11170.575
2932.11205	11174.675
2934.58258	11118.675
2937.05161	11141.975
2939.51912	11146.375
2941.98513	11139.675
2944.44962	11093.175
2946.91261	11076.575
2949.37409	11069.175
2951.83407	11043.575
2954.29254	11037.375
2956.74951	11028.475
2959.20498	11056.975
2961.65895	11013.675
2964.11142	11034.275
2966.56239	11013.475
2969.01186	11023.075
2971.45984	10980.175
2973.90632	10949.275
2976.35131	10933.775
2978.7948	10923.875
2981.23681	10885.675
2983.67732	10903.075
2986.11635	10866.675
2988.55388	10836.675
2990.98993	10782.875
2993.4245	10764.875
2995.85758	10776.975
2998.28917	10751.575
3000.71928	10725.475
3003.14791	10707.175
3005.57506	10708.975
3008.00073	10699.975
3010.42493	10686.875
3012.84764	10673.275
3015.26888	10673.175
3017.68865	10652.875
3020.10694	10635.075
3022.52376	10611.475
3024.9391	10633.575
3027.35298	10611.475
3029.76539	10615.275
3032.17632	10586.975
3034.5858	10570.975
3036.9938	10579.375
3039.40034	10567.075
3041.80542	10568.675
3044.20903	10533.275
3046.61118	10547.375
3049.01187	10515.875
3051.4111	10504.675
3053.80888	10527.275
3056.20519	10478.375
3058.60005	10469.175
3060.99345	10453.375
3063.3854	10433.675
3065.7759	10427.175
3068.16494	10409.775
3070.55254	10373.375
3072.93868	10379.975
3075.32338	10360.375
3077.70662	10331.675
3080.08842	10316.275
3082.46878	10328.275
3084.84769	10301.775
3087.22515	10308.575
3089.60118	10321.875
3091.97576	10330.675
3094.3489	10314.475
3096.72061	10321.675
3099.09087	10312.975
3101.4597	10303.575
3103.82709	10326.575
3106.19305	10311.275
3108.55757	10329.475
3110.92066	10279.975
3113.28232	10276.075
3115.64255	10247.875
3118.00134	10241.375
3120.35871	10218.275
3122.71466	10216.675
3125.06917	10208.775
3127.42226	10197.375
3129.77393	10188.875
