Data from AgNPs_FTO_APTES_UA_1uM_CRN_500uM_R6G_10uM_NaF_0.1M_Addition_RamanShift__38__18-28-59-909.txt Node

Date: Thu Jan 27 18:28:59 GMT 2022
User: TCL
Spectrometer: QEP01345
Trigger mode: 4
Integration Time (sec): 7.000000E0
Scans to average: 10
Electric dark correction enabled: true
Nonlinearity correction enabled: false
Boxcar width: 0
XAxis mode: Raman Shifts
Number of Pixels in Spectrum: 1044
>>>>>Begin Spectral Data<<<<<
46.04893	0.6375
50.45542	-0.1625
54.85868	-0.2625
59.25871	-0.9625
63.6555	48.8375
68.04907	51.1375
72.43941	50.3375
76.82654	57.0375
81.21044	59.2375
85.59113	56.5375
89.96862	63.4375
94.34289	64.6375
98.71396	67.3375
103.08183	67.0375
107.4465	71.8375
111.80798	74.5375
116.16626	74.0375
120.52136	79.4375
124.87327	80.0375
129.222	79.2375
133.56755	80.6375
137.90993	85.3375
142.24913	96.0375
146.58517	103.0375
150.91804	119.3375
155.24774	138.8375
159.57429	163.6375
163.89768	207.9375
168.21792	276.9375
172.53501	373.4375
176.84895	506.9375
181.15975	713.0375
185.46741	992.8375
189.77193	1363.5375
194.07331	1831.3375
198.37157	2369.0375
202.6667	2930.9375
206.9587	3477.2375
211.24758	4021.8375
215.53334	4570.5375
219.81599	5141.4375
224.09553	5746.5375
228.37195	6431.7375
232.64527	7175.6375
236.91549	7984.3375
241.18261	8785.9375
245.44663	9552.8375
249.70755	10269.6375
253.96539	10867.1375
258.22014	11390.7375
262.4718	11805.8375
266.72039	12072.2375
270.96589	12183.2375
275.20832	12206.7375
279.44768	12103.2375
283.68397	11978.1375
287.91719	11854.5375
292.14735	11707.6375
296.37445	11674.3375
300.59849	11639.5375
304.81948	11642.5375
309.03742	11646.2375
313.25231	11572.8375
317.46415	11434.5375
321.67296	11274.8375
325.87872	11142.9375
330.08145	11091.1375
334.28114	11072.3375
338.47781	11149.2375
342.67145	11260.5375
346.86207	11383.5375
351.04966	11569.8375
355.23424	11776.2375
359.4158	11905.9375
363.59435	12040.5375
367.76989	12156.2375
371.94243	12235.7375
376.11196	12294.0375
380.27849	12351.6375
384.44203	12420.8375
388.60257	12493.4375
392.76012	12607.0375
396.91468	12698.1375
401.06626	12879.0375
405.21485	12999.4375
409.36047	13002.8375
413.50311	12917.9375
417.64277	12892.7375
421.77947	12969.7375
425.9132	13027.1375
430.04396	13127.6375
434.17176	13245.9375
438.2966	13321.6375
442.41849	13524.5375
446.53742	13876.5375
450.6534	14257.9375
454.76644	14493.1375
458.87653	14472.4375
462.98368	14328.5375
467.08789	14084.3375
471.18916	13796.7375
475.2875	13574.4375
479.38291	13359.2375
483.4754	13273.1375
487.56496	13165.8375
491.6516	13062.8375
495.73531	12978.4375
499.81612	12915.1375
503.89401	12975.6375
507.96899	13004.2375
512.04106	12954.1375
516.11023	12863.9375
520.1765	12777.1375
524.23987	12717.8375
528.30034	12640.3375
532.35792	12571.4375
536.41261	12465.3375
540.46441	12297.4375
544.51333	12276.7375
548.55936	12373.4375
552.60252	12571.0375
556.64279	12865.2375
560.6802	13094.1375
564.71473	13196.2375
568.7464	13289.5375
572.7752	13547.8375
576.80114	13850.8375
580.82422	14257.3375
584.84444	14918.5375
588.86181	15807.8375
592.87633	16601.0375
596.888	16630.8375
600.89682	15752.6375
604.9028	15208.0375
608.90594	15527.1375
612.90624	16157.7375
616.90371	15438.0375
620.89834	13543.6375
624.89015	12656.5375
628.87913	12542.2375
632.86528	12578.8375
636.84862	12559.6375
640.82913	12434.0375
644.80683	12201.3375
648.78172	12103.6375
652.75379	12145.8375
656.72306	12200.5375
660.68952	12312.1375
664.65319	12239.4375
668.61405	12065.0375
672.57211	12024.7375
676.52738	12138.4375
680.47986	12170.5375
684.42955	12119.5375
688.37646	12041.5375
692.32058	12070.9375
696.26192	12176.4375
700.20048	12310.6375
704.13626	12386.4375
708.06928	12389.4375
711.99952	12352.1375
715.927	12394.3375
719.85171	12438.2375
723.77365	12393.3375
727.69284	12273.9375
731.60928	12134.4375
735.52295	12109.4375
739.43388	12129.2375
743.34206	12139.6375
747.24749	12216.0375
751.15017	12285.9375
755.05012	12397.2375
758.94733	12655.5375
762.8418	13100.1375
766.73354	13745.2375
770.62254	14412.3375
774.50882	14619.9375
778.39237	14155.0375
782.27321	13355.1375
786.15132	12682.2375
790.02671	12266.5375
793.89938	12093.6375
797.76935	12020.9375
801.6366	12032.7375
805.50115	11990.5375
809.36299	11925.5375
813.22213	11819.1375
817.07857	11795.4375
820.93231	11745.3375
824.78336	11659.7375
828.63172	11628.3375
832.47738	11650.8375
836.32036	11624.4375
840.16066	11668.2375
843.99827	11659.0375
847.8332	11626.5375
851.66546	11633.7375
855.49504	11635.2375
859.32195	11635.3375
863.1462	11612.2375
866.96777	11608.0375
870.78668	11585.2375
874.60293	11581.8375
878.41652	11576.9375
882.22745	11616.2375
886.03573	11657.2375
889.84136	11691.5375
893.64433	11629.8375
897.44466	11535.2375
901.24235	11520.1375
905.0374	11487.4375
908.8298	11435.1375
912.61957	11435.0375
916.40671	11506.8375
920.19121	11612.9375
923.97308	11743.2375
927.75233	11771.3375
931.52895	11716.9375
935.30295	11575.5375
939.07433	11351.6375
942.84309	11222.7375
946.60924	11127.4375
950.37278	11097.5375
954.13371	11081.6375
957.89203	11052.8375
961.64774	11042.0375
965.40086	11026.2375
969.15137	10987.3375
972.89929	10930.4375
976.64461	10884.2375
980.38733	10871.7375
984.12747	10883.1375
987.86502	10922.3375
991.59999	10988.6375
995.33237	11087.4375
999.06217	11263.6375
1002.78939	11456.7375
1006.51404	11616.5375
1010.23611	11716.4375
1013.95561	11892.1375
1017.67255	11904.1375
1021.38692	11827.5375
1025.09872	11640.7375
1028.80796	11503.2375
1032.51465	11518.8375
1036.21877	11620.3375
1039.92035	11673.6375
1043.61937	11668.2375
1047.31584	11644.8375
1051.00976	11597.6375
1054.70114	11555.5375
1058.38998	11557.3375
1062.07627	11622.5375
1065.76003	11711.5375
1069.44126	11852.2375
1073.11995	12008.8375
1076.79611	12102.8375
1080.46974	12136.7375
1084.14085	12119.2375
1087.80943	12158.8375
1091.47549	12233.0375
1095.13903	12260.5375
1098.80005	12117.4375
1102.45857	11905.8375
1106.11456	11751.3375
1109.76805	11688.9375
1113.41903	11714.5375
1117.06751	11785.4375
1120.71348	11901.0375
1124.35696	12055.4375
1127.99793	12221.6375
1131.63641	12327.8375
1135.2724	12232.5375
1138.90589	12114.2375
1142.5369	12103.7375
1146.16542	12166.9375
1149.79145	12218.6375
1153.415	12299.8375
1157.03607	12443.5375
1160.65467	12822.6375
1164.27079	13425.9375
1167.88443	14058.5375
1171.49561	14647.2375
1175.10432	15463.6375
1178.71056	16469.3375
1182.31434	17426.8375
1185.91565	17749.5375
1189.51451	17457.2375
1193.11091	16890.0375
1196.70485	16342.9375
1200.29634	15841.9375
1203.88538	15483.5375
1207.47197	15296.7375
1211.05612	15100.1375
1214.63782	14826.7375
1218.21708	14538.8375
1221.79391	14314.6375
1225.36829	14170.0375
1228.94024	14060.3375
1232.50976	13812.1375
1236.07685	13569.0375
1239.6415	13416.0375
1243.20374	13386.4375
1246.76355	13415.6375
1250.32093	13559.0375
1253.8759	13785.0375
1257.42845	14068.0375
1260.97859	14338.8375
1264.52631	14638.7375
1268.07163	14976.2375
1271.61453	15269.9375
1275.15503	15628.1375
1278.69312	16051.4375
1282.22882	16560.3375
1285.76211	17195.9375
1289.29301	17927.9375
1292.82151	18862.0375
1296.34761	19923.6375
1299.87133	21173.3375
1303.39266	22475.5375
1306.9116	23597.8375
1310.42815	24464.5375
1313.94233	24907.7375
1317.45412	24685.7375
1320.96354	23965.0375
1324.47058	23161.9375
1327.97525	22496.6375
1331.47754	22062.6375
1334.97747	21757.6375
1338.47502	21467.5375
1341.97022	20989.4375
1345.46305	20534.8375
1348.95352	20416.0375
1352.44163	20841.8375
1355.92738	21862.2375
1359.41078	23315.4375
1362.89183	24337.1375
1366.37053	24306.7375
1369.84688	22546.5375
1373.32088	19885.4375
1376.79254	17909.4375
1380.26186	17198.9375
1383.72883	17186.8375
1387.19347	17105.3375
1390.65578	16873.3375
1394.11575	16747.4375
1397.57339	17016.8375
1401.0287	17541.1375
1404.48168	18009.3375
1407.93234	18090.3375
1411.38068	17765.2375
1414.82669	17252.1375
1418.27039	16621.3375
1421.71177	15927.0375
1425.15083	15346.7375
1428.58758	15034.4375
1432.02203	15184.2375
1435.45416	15596.3375
1438.88399	16096.8375
1442.31151	16443.7375
1445.73673	16572.0375
1449.15965	16676.9375
1452.58027	16604.8375
1455.9986	16378.8375
1459.41463	16228.3375
1462.82837	16331.8375
1466.23982	16692.8375
1469.64898	17071.7375
1473.05586	17414.8375
1476.46045	17567.9375
1479.86276	17630.0375
1483.26279	17496.4375
1486.66054	17378.8375
1490.05602	17354.5375
1493.44922	17403.4375
1496.84016	17433.5375
1500.22882	17470.1375
1503.61521	17647.4375
1506.99934	17952.5375
1510.38121	18284.8375
1513.76081	18373.1375
1517.13816	18067.2375
1520.51324	17600.6375
1523.88607	17301.4375
1527.25665	17195.7375
1530.62498	17287.7375
1533.99105	17221.4375
1537.35488	17041.0375
1540.71647	16706.2375
1544.07581	16307.8375
1547.4329	15894.4375
1550.78776	15467.4375
1554.14038	15130.0375
1557.49077	14879.2375
1560.83892	14759.4375
1564.18484	14658.7375
1567.52853	14676.0375
1570.86999	14858.3375
1574.20922	15198.7375
1577.54624	15496.1375
1580.88103	15607.2375
1584.2136	15740.9375
1587.54395	16208.3375
1590.87208	17124.9375
1594.19801	18352.7375
1597.52172	19588.6375
1600.84321	20084.5375
1604.16251	19385.0375
1607.47959	17759.0375
1610.79447	15986.6375
1614.10715	14400.6375
1617.41763	13329.0375
1620.7259	12662.3375
1624.03199	12339.2375
1627.33587	12333.1375
1630.63757	12686.5375
1633.93707	13427.7375
1637.23439	14698.7375
1640.52951	16648.1375
1643.82246	19217.3375
1647.11321	21322.3375
1650.40179	21718.0375
1653.68819	19889.2375
1656.97241	17001.0375
1660.25446	14393.5375
1663.53433	12587.4375
1666.81203	11596.2375
1670.08756	10972.6375
1673.36092	10566.5375
1676.63211	10323.3375
1679.90115	10145.1375
1683.16801	10001.7375
1686.43272	9878.0375
1689.69527	9790.6375
1692.95567	9717.3375
1696.2139	9656.6375
1699.46999	9557.9375
1702.72392	9530.1375
1705.97571	9514.6375
1709.22535	9545.5375
1712.47284	9556.9375
1715.71819	9555.7375
1718.96139	9549.2375
1722.20246	9518.7375
1725.44139	9473.3375
1728.67818	9414.0375
1731.91284	9371.2375
1735.14537	9324.7375
1738.37576	9305.0375
1741.60403	9268.7375
1744.83017	9231.5375
1748.05418	9201.9375
1751.27607	9204.1375
1754.49584	9177.0375
1757.71349	9172.0375
1760.92903	9166.5375
1764.14244	9113.4375
1767.35375	9100.1375
1770.56294	9067.1375
1773.77002	9045.6375
1776.97499	9042.6375
1780.17785	9070.0375
1783.37861	9059.0375
1786.57727	9026.9375
1789.77382	9021.9375
1792.96828	9009.9375
1796.16064	8969.2375
1799.3509	8937.1375
1802.53907	8936.3375
1805.72514	8925.4375
1808.90913	8883.9375
1812.09102	8899.7375
1815.27083	8867.6375
1818.44856	8845.2375
1821.6242	8814.4375
1824.79776	8794.2375
1827.96924	8787.4375
1831.13864	8784.4375
1834.30597	8783.2375
1837.47122	8791.9375
1840.6344	8756.3375
1843.7955	8750.0375
1846.95454	8745.2375
1850.11151	8739.3375
1853.26642	8739.6375
1856.41926	8744.9375
1859.57004	8735.5375
1862.71876	8739.2375
1865.86542	8723.3375
1869.01003	8695.8375
1872.15258	8719.9375
1875.29308	8696.6375
1878.43152	8693.7375
1881.56792	8675.1375
1884.70227	8659.5375
1887.83457	8644.9375
1890.96482	8647.1375
1894.09304	8630.9375
1897.21921	8626.0375
1900.34335	8613.9375
1903.46544	8602.0375
1906.58551	8593.7375
1909.70353	8572.9375
1912.81953	8557.8375
1915.93349	8566.9375
1919.04543	8552.6375
1922.15534	8524.7375
1925.26322	8499.3375
1928.36908	8483.9375
1931.47292	8457.8375
1934.57473	8453.9375
1937.67453	8423.6375
1940.77232	8408.0375
1943.86808	8374.6375
1946.96184	8384.3375
1950.05358	8326.8375
1953.14331	8315.7375
1956.23103	8293.1375
1959.31675	8276.6375
1962.40046	8262.4375
1965.48217	8225.1375
1968.56188	8177.4375
1971.63959	8166.3375
1974.7153	8135.3375
1977.78901	8113.0375
1980.86073	8095.8375
1983.93046	8073.2375
1986.99819	8039.0375
1990.06394	8015.2375
1993.1277	7981.0375
1996.18947	7974.8375
1999.24925	7958.1375
2002.30706	7936.7375
2005.36288	7910.2375
2008.41672	7868.8375
2011.46859	7873.4375
2014.51848	7856.3375
2017.56639	7825.2375
2020.61233	7809.5375
2023.6563	7782.5375
2026.6983	7760.5375
2029.73833	7772.3375
2032.7764	7742.8375
2035.8125	7729.9375
2038.84664	7680.7375
2041.87881	7703.2375
2044.90903	7674.2375
2047.93729	7649.3375
2050.96359	7618.4375
2053.98794	7626.7375
2057.01034	7638.2375
2060.03078	7635.3375
2063.04927	7608.2375
2066.06582	7619.7375
2069.08042	7616.4375
2072.09307	7609.9375
2075.10378	7619.7375
2078.11255	7590.5375
2081.11938	7584.6375
2084.12426	7584.9375
2087.12722	7589.6375
2090.12824	7578.6375
2093.12732	7579.2375
2096.12447	7589.1375
2099.11969	7567.6375
2102.11299	7570.1375
2105.10435	7574.9375
2108.09379	7578.9375
2111.08131	7579.1375
2114.0669	7570.3375
2117.05057	7591.2375
2120.03233	7591.1375
2123.01216	7579.2375
2125.99008	7590.1375
2128.96609	7583.6375
2131.94018	7613.4375
2134.91236	7608.3375
2137.88263	7613.6375
2140.851	7604.8375
2143.81746	7606.4375
2146.78201	7591.9375
2149.74466	7606.5375
2152.7054	7613.9375
2155.66425	7589.4375
2158.6212	7598.8375
2161.57625	7595.0375
2164.52941	7586.2375
2167.48067	7584.9375
2170.43004	7602.7375
2173.37752	7598.6375
2176.32311	7584.2375
2179.26681	7582.4375
2182.20863	7579.7375
2185.14856	7575.9375
2188.08661	7577.8375
2191.02278	7582.4375
2193.95707	7577.9375
2196.88948	7566.0375
2199.82001	7549.9375
2202.74867	7519.1375
2205.67545	7533.1375
2208.60037	7522.2375
2211.52341	7507.0375
2214.44458	7505.4375
2217.36388	7490.6375
2220.28132	7482.8375
2223.1969	7455.1375
2226.11061	7452.8375
2229.02246	7438.1375
2231.93245	7444.0375
2234.84058	7407.7375
2237.74686	7418.0375
2240.65128	7415.8375
2243.55385	7391.8375
2246.45456	7368.8375
2249.35343	7364.4375
2252.25044	7345.7375
2255.14561	7319.3375
2258.03893	7316.4375
2260.93041	7286.2375
2263.82004	7280.4375
2266.70783	7273.1375
2269.59378	7228.5375
2272.4779	7220.2375
2275.36017	7225.4375
2278.24061	7207.8375
2281.11922	7185.9375
2283.996	7182.9375
2286.87094	7175.3375
2289.74405	7146.9375
2292.61534	7127.7375
2295.4848	7139.0375
2298.35243	7138.2375
2301.21824	7117.2375
2304.08223	7131.9375
2306.94439	7142.1375
2309.80474	7126.6375
2312.66327	7130.3375
2315.51999	7096.7375
2318.37489	7071.1375
2321.22797	7085.2375
2324.07925	7070.8375
2326.92871	7044.7375
2329.77637	7060.6375
2332.62222	7042.0375
2335.46626	7033.5375
2338.3085	7047.3375
2341.14893	7026.8375
2343.98756	6996.2375
2346.8244	7009.7375
2349.65943	6999.0375
2352.49267	7003.2375
2355.32411	6992.5375
2358.15376	6985.6375
2360.98161	7004.2375
2363.80768	6988.2375
2366.63195	6992.0375
2369.45444	6964.5375
2372.27514	6976.3375
2375.09405	6972.8375
2377.91118	6948.6375
2380.72652	6919.6375
2383.54009	6923.9375
2386.35187	6912.3375
2389.16188	6891.5375
2391.97011	6882.5375
2394.77657	6869.7375
2397.58125	6852.4375
2400.38416	6830.8375
2403.18529	6831.7375
2405.98466	6805.4375
2408.78226	6805.6375
2411.57809	6801.8375
2414.37216	6785.3375
2417.16446	6801.3375
2419.955	6761.9375
2422.74378	6772.1375
2425.5308	6784.3375
2428.31606	6778.3375
2431.09956	6763.2375
2433.88131	6765.7375
2436.6613	6742.5375
2439.43954	6737.9375
2442.21603	6739.5375
2444.99077	6727.9375
2447.76377	6732.3375
2450.53501	6713.3375
2453.30451	6727.8375
2456.07226	6731.7375
2458.83827	6704.3375
2461.60254	6714.2375
2464.36507	6710.4375
2467.12586	6715.3375
2469.88492	6705.2375
2472.64224	6714.9375
2475.39782	6697.7375
2478.15167	6685.0375
2480.90379	6683.8375
2483.65417	6678.3375
2486.40283	6685.0375
2489.14976	6688.4375
2491.89497	6670.3375
2494.63845	6696.0375
2497.3802	6656.6375
2500.12024	6670.9375
2502.85855	6665.0375
2505.59514	6674.7375
2508.33002	6666.1375
2511.06318	6664.5375
2513.79462	6655.8375
2516.52435	6621.6375
2519.25237	6622.4375
2521.97867	6621.0375
2524.70327	6628.8375
2527.42616	6604.0375
2530.14734	6598.1375
2532.86681	6585.8375
2535.58458	6587.6375
2538.30065	6585.2375
2541.01501	6587.6375
2543.72768	6565.8375
2546.43864	6573.3375
2549.14791	6561.0375
2551.85548	6547.0375
2554.56136	6530.0375
2557.26554	6535.7375
2559.96803	6520.8375
2562.66883	6503.9375
2565.36794	6511.0375
2568.06536	6509.5375
2570.7611	6494.1375
2573.45514	6485.7375
2576.14751	6491.9375
2578.83819	6452.2375
2581.52719	6454.3375
2584.21451	6447.3375
2586.90015	6461.4375
2589.58411	6436.1375
2592.2664	6453.3375
2594.94701	6433.4375
2597.62594	6408.5375
2600.30321	6408.1375
2602.9788	6391.8375
2605.65273	6385.6375
2608.32498	6392.1375
2610.99557	6376.7375
2613.66449	6383.9375
2616.33175	6371.0375
2618.99734	6345.8375
2621.66128	6371.9375
2624.32355	6363.9375
2626.98416	6347.8375
2629.64311	6361.9375
2632.30041	6352.0375
2634.95605	6326.5375
2637.61004	6325.1375
2640.26238	6322.2375
2642.91306	6328.6375
2645.56209	6316.1375
2648.20948	6309.1375
2650.85521	6303.1375
2653.4993	6315.9375
2656.14175	6322.6375
2658.78255	6336.5375
2661.42171	6344.1375
2664.05923	6333.2375
2666.6951	6337.2375
2669.32934	6344.5375
2671.96194	6337.6375
2674.59291	6338.5375
2677.22224	6336.0375
2679.84993	6345.4375
2682.476	6318.9375
2685.10043	6317.7375
2687.72324	6329.9375
2690.34441	6319.6375
2692.96396	6308.5375
2695.58188	6337.6375
2698.19818	6322.7375
2700.81285	6331.4375
2703.4259	6323.9375
2706.03733	6300.4375
2708.64714	6300.9375
2711.25533	6321.8375
2713.86191	6298.6375
2716.46687	6329.4375
2719.07021	6320.5375
2721.67194	6335.8375
2724.27206	6338.9375
2726.87057	6364.2375
2729.46747	6346.7375
2732.06276	6354.5375
2734.65644	6337.5375
2737.24852	6345.0375
2739.83899	6341.1375
2742.42786	6339.4375
2745.01513	6311.0375
2747.60079	6304.7375
2750.18486	6310.1375
2752.76733	6315.3375
2755.3482	6311.4375
2757.92747	6312.9375
2760.50515	6311.5375
2763.08123	6322.8375
2765.65573	6294.2375
2768.22863	6301.7375
2770.79994	6293.7375
2773.36967	6293.0375
2775.9378	6261.7375
2778.50435	6273.7375
2781.06932	6269.4375
2783.6327	6278.6375
2786.1945	6257.2375
2788.75471	6247.5375
2791.31335	6240.5375
2793.87041	6242.5375
2796.42589	6218.2375
2798.97979	6239.4375
2801.53212	6227.7375
2804.08288	6211.7375
2806.63206	6204.9375
2809.17967	6197.7375
2811.72571	6171.4375
2814.27018	6167.1375
2816.81308	6154.7375
2819.35442	6148.6375
2821.89419	6138.7375
2824.43239	6132.9375
2826.96904	6128.5375
2829.50412	6143.2375
2832.03763	6132.8375
2834.56959	6124.9375
2837.1	6141.1375
2839.62884	6147.1375
2842.15613	6165.4375
2844.68186	6225.1375
2847.20604	6231.5375
2849.72867	6267.0375
2852.24974	6259.7375
2854.76927	6238.8375
2857.28724	6230.9375
2859.80367	6222.8375
2862.31855	6212.7375
2864.83189	6210.5375
2867.34368	6177.9375
2869.85393	6179.6375
2872.36264	6172.5375
2874.8698	6171.4375
2877.37543	6165.7375
2879.87952	6166.1375
2882.38207	6187.4375
2884.88308	6173.8375
2887.38256	6183.2375
2889.88051	6164.6375
2892.37692	6175.5375
2894.8718	6178.7375
2897.36515	6186.9375
2899.85698	6203.0375
2902.34727	6229.6375
2904.83604	6215.8375
2907.32328	6221.0375
2909.809	6218.2375
2912.29319	6237.5375
2914.77587	6221.7375
2917.25702	6229.1375
2919.73665	6205.3375
2922.21476	6218.3375
2924.69136	6206.5375
2927.16644	6222.7375
2929.64	6224.1375
2932.11205	6222.1375
2934.58258	6207.9375
2937.05161	6218.0375
2939.51912	6214.6375
2941.98513	6187.9375
2944.44962	6162.3375
2946.91261	6112.1375
2949.37409	6136.7375
2951.83407	6108.0375
2954.29254	6082.2375
2956.74951	6093.0375
2959.20498	6092.4375
2961.65895	6056.6375
2964.11142	6078.9375
2966.56239	6054.2375
2969.01186	6042.6375
2971.45984	6018.4375
2973.90632	6009.5375
2976.35131	6001.8375
2978.7948	5971.9375
2981.23681	5967.3375
2983.67732	5962.4375
2986.11635	5949.1375
2988.55388	5926.0375
2990.98993	5910.9375
2993.4245	5874.8375
2995.85758	5897.9375
2998.28917	5876.6375
3000.71928	5862.7375
3003.14791	5848.1375
3005.57506	5855.9375
3008.00073	5840.3375
3010.42493	5832.4375
3012.84764	5829.5375
3015.26888	5830.8375
3017.68865	5796.2375
3020.10694	5799.5375
3022.52376	5775.6375
3024.9391	5772.4375
3027.35298	5771.4375
3029.76539	5770.8375
3032.17632	5767.6375
3034.5858	5734.4375
3036.9938	5742.1375
3039.40034	5744.0375
3041.80542	5751.0375
3044.20903	5744.6375
3046.61118	5755.8375
3049.01187	5731.0375
3051.4111	5737.7375
3053.80888	5718.4375
3056.20519	5712.7375
3058.60005	5704.0375
3060.99345	5689.1375
3063.3854	5674.7375
3065.7759	5644.0375
3068.16494	5652.0375
3070.55254	5627.6375
3072.93868	5621.9375
3075.32338	5633.7375
3077.70662	5599.1375
3080.08842	5605.3375
