Data from AgNPs_FTO_APTES_UA_1uM_CRN_10uM_R6G_20uM_NaF_0.1M_Addition_RamanShift__14__15-14-09-687.txt Node

Date: Thu Jan 27 15:14:09 GMT 2022
User: TCL
Spectrometer: QEP01345
Trigger mode: 4
Integration Time (sec): 7.000000E0
Scans to average: 10
Electric dark correction enabled: true
Nonlinearity correction enabled: false
Boxcar width: 0
XAxis mode: Raman Shifts
Number of Pixels in Spectrum: 1044
>>>>>Begin Spectral Data<<<<<
46.04893	1.8375
50.45542	0.1375
54.85868	-1.9625
59.25871	-1.2625
63.6555	51.5375
68.04907	51.5375
72.43941	54.4375
76.82654	58.0375
81.21044	58.2375
85.59113	62.5375
89.96862	64.0375
94.34289	68.6375
98.71396	66.6375
103.08183	69.0375
107.4465	72.2375
111.80798	76.6375
116.16626	77.6375
120.52136	86.4375
124.87327	83.5375
129.222	78.8375
133.56755	86.8375
137.90993	91.0375
142.24913	98.8375
146.58517	109.9375
150.91804	130.0375
155.24774	152.3375
159.57429	176.6375
163.89768	228.1375
168.21792	298.4375
172.53501	399.2375
176.84895	553.4375
181.15975	773.1375
185.46741	1087.7375
189.77193	1506.5375
194.07331	2023.0375
198.37157	2603.6375
202.6667	3222.6375
206.9587	3830.0375
211.24758	4433.1375
215.53334	5034.8375
219.81599	5664.4375
224.09553	6347.0375
228.37195	7082.1375
232.64527	7898.5375
236.91549	8796.9375
241.18261	9676.2375
245.44663	10539.8375
249.70755	11331.5375
253.96539	12032.3375
258.22014	12654.5375
262.4718	13126.1375
266.72039	13469.6375
270.96589	13659.7375
275.20832	13720.5375
279.44768	13658.6375
283.68397	13562.7375
287.91719	13426.4375
292.14735	13322.9375
296.37445	13293.6375
300.59849	13326.0375
304.81948	13340.8375
309.03742	13302.3375
313.25231	13204.2375
317.46415	12974.1375
321.67296	12708.4375
325.87872	12466.8375
330.08145	12382.9375
334.28114	12365.5375
338.47781	12475.5375
342.67145	12599.8375
346.86207	12779.1375
351.04966	12956.4375
355.23424	13188.0375
359.4158	13341.0375
363.59435	13497.1375
367.76989	13618.4375
371.94243	13726.8375
376.11196	13774.7375
380.27849	13858.9375
384.44203	13922.6375
388.60257	14004.0375
392.76012	14115.1375
396.91468	14246.0375
401.06626	14455.7375
405.21485	14587.2375
409.36047	14583.4375
413.50311	14413.1375
417.64277	14280.4375
421.77947	14251.4375
425.9132	14266.9375
430.04396	14327.5375
434.17176	14391.4375
438.2966	14520.7375
442.41849	14624.5375
446.53742	14827.8375
450.6534	15048.4375
454.76644	15268.4375
458.87653	15397.9375
462.98368	15390.1375
467.08789	15370.9375
471.18916	15287.4375
475.2875	15198.9375
479.38291	15143.9375
483.4754	15089.5375
487.56496	14996.5375
491.6516	14862.1375
495.73531	14715.0375
499.81612	14660.8375
503.89401	14724.0375
507.96899	14787.3375
512.04106	14814.9375
516.11023	14766.0375
520.1765	14737.3375
524.23987	14625.7375
528.30034	14503.9375
532.35792	14426.5375
536.41261	14316.7375
540.46441	14234.6375
544.51333	14214.7375
548.55936	14369.7375
552.60252	14574.3375
556.64279	14771.6375
560.6802	14933.4375
564.71473	15010.2375
568.7464	15133.4375
572.7752	15359.9375
576.80114	15593.8375
580.82422	15869.4375
584.84444	16065.1375
588.86181	16200.7375
592.87633	16261.5375
596.888	16130.1375
600.89682	16016.4375
604.9028	16247.3375
608.90594	17109.5375
612.90624	18026.9375
616.90371	17403.6375
620.89834	15511.6375
624.89015	14608.3375
628.87913	14474.4375
632.86528	14566.1375
636.84862	14654.7375
640.82913	14552.7375
644.80683	14338.7375
648.78172	14178.4375
652.75379	14147.9375
656.72306	14222.7375
660.68952	14386.6375
664.65319	14416.3375
668.61405	14274.5375
672.57211	14234.5375
676.52738	14253.5375
680.47986	14236.1375
684.42955	14205.1375
688.37646	14182.3375
692.32058	14185.6375
696.26192	14295.8375
700.20048	14399.8375
704.13626	14484.5375
708.06928	14503.6375
711.99952	14480.0375
715.927	14436.2375
719.85171	14442.7375
723.77365	14391.0375
727.69284	14293.5375
731.60928	14171.7375
735.52295	14142.5375
739.43388	14089.4375
743.34206	14123.9375
747.24749	14151.0375
751.15017	14265.0375
755.05012	14378.4375
758.94733	14655.2375
762.8418	15103.6375
766.73354	15813.0375
770.62254	16562.3375
774.50882	16771.3375
778.39237	16322.6375
782.27321	15556.4375
786.15132	14926.8375
790.02671	14478.0375
793.89938	14262.5375
797.76935	14127.0375
801.6366	14119.0375
805.50115	14099.0375
809.36299	14006.3375
813.22213	13989.5375
817.07857	13950.7375
820.93231	13934.4375
824.78336	13901.3375
828.63172	13901.8375
832.47738	13863.7375
836.32036	13859.8375
840.16066	13862.1375
843.99827	13860.5375
847.8332	13845.6375
851.66546	13829.7375
855.49504	13830.7375
859.32195	13844.1375
863.1462	13837.6375
866.96777	13861.8375
870.78668	13822.2375
874.60293	13818.4375
878.41652	13863.4375
882.22745	13870.1375
886.03573	13893.9375
889.84136	13886.7375
893.64433	13858.1375
897.44466	13822.4375
901.24235	13824.2375
905.0374	13759.1375
908.8298	13754.9375
912.61957	13755.5375
916.40671	13810.3375
920.19121	13931.6375
923.97308	14010.7375
927.75233	13973.2375
931.52895	13901.8375
935.30295	13789.2375
939.07433	13667.6375
942.84309	13546.4375
946.60924	13468.5375
950.37278	13428.2375
954.13371	13410.7375
957.89203	13376.5375
961.64774	13355.7375
965.40086	13348.8375
969.15137	13333.8375
972.89929	13276.6375
976.64461	13214.8375
980.38733	13224.6375
984.12747	13214.7375
987.86502	13271.2375
991.59999	13350.6375
995.33237	13411.4375
999.06217	13529.6375
1002.78939	13694.2375
1006.51404	13800.1375
1010.23611	13905.2375
1013.95561	13992.2375
1017.67255	14010.7375
1021.38692	13969.1375
1025.09872	13852.7375
1028.80796	13769.6375
1032.51465	13826.4375
1036.21877	13868.9375
1039.92035	13944.3375
1043.61937	13932.1375
1047.31584	13947.6375
1051.00976	13905.9375
1054.70114	13913.0375
1058.38998	13974.4375
1062.07627	14072.4375
1065.76003	14154.4375
1069.44126	14306.5375
1073.11995	14434.7375
1076.79611	14561.5375
1080.46974	14646.2375
1084.14085	14674.4375
1087.80943	14734.3375
1091.47549	14808.0375
1095.13903	14836.8375
1098.80005	14774.7375
1102.45857	14567.7375
1106.11456	14393.1375
1109.76805	14278.8375
1113.41903	14240.4375
1117.06751	14269.3375
1120.71348	14359.1375
1124.35696	14409.4375
1127.99793	14533.9375
1131.63641	14589.3375
1135.2724	14522.0375
1138.90589	14476.8375
1142.5369	14430.8375
1146.16542	14443.7375
1149.79145	14462.7375
1153.415	14507.9375
1157.03607	14604.0375
1160.65467	14814.0375
1164.27079	15132.9375
1167.88443	15625.5375
1171.49561	16184.8375
1175.10432	16869.6375
1178.71056	17754.7375
1182.31434	18585.6375
1185.91565	19091.3375
1189.51451	19240.4375
1193.11091	19040.0375
1196.70485	18638.6375
1200.29634	18122.7375
1203.88538	17718.6375
1207.47197	17389.4375
1211.05612	17102.1375
1214.63782	16817.9375
1218.21708	16535.2375
1221.79391	16204.0375
1225.36829	15960.9375
1228.94024	15821.4375
1232.50976	15690.6375
1236.07685	15618.7375
1239.6415	15616.5375
1243.20374	15603.1375
1246.76355	15692.8375
1250.32093	15827.1375
1253.8759	16006.1375
1257.42845	16257.5375
1260.97859	16572.7375
1264.52631	16857.3375
1268.07163	17166.1375
1271.61453	17385.9375
1275.15503	17669.2375
1278.69312	17984.7375
1282.22882	18233.1375
1285.76211	18541.8375
1289.29301	18921.3375
1292.82151	19383.1375
1296.34761	19988.8375
1299.87133	20735.8375
1303.39266	21505.4375
1306.9116	22269.4375
1310.42815	22913.7375
1313.94233	23278.5375
1317.45412	23157.2375
1320.96354	22950.1375
1324.47058	22783.3375
1327.97525	22668.2375
1331.47754	22576.5375
1334.97747	22603.8375
1338.47502	22671.6375
1341.97022	22843.2375
1345.46305	22913.8375
1348.95352	22946.1375
1352.44163	22909.3375
1355.92738	22864.2375
1359.41078	23162.9375
1362.89183	23439.5375
1366.37053	23104.9375
1369.84688	21823.0375
1373.32088	20174.5375
1376.79254	18972.8375
1380.26186	18436.7375
1383.72883	18253.3375
1387.19347	18235.8375
1390.65578	18069.8375
1394.11575	17946.4375
1397.57339	17925.3375
1401.0287	18011.4375
1404.48168	18061.6375
1407.93234	18034.2375
1411.38068	17843.7375
1414.82669	17485.8375
1418.27039	17054.7375
1421.71177	16593.1375
1425.15083	16261.3375
1428.58758	16049.8375
1432.02203	16067.5375
1435.45416	16230.3375
1438.88399	16494.3375
1442.31151	16678.7375
1445.73673	16877.0375
1449.15965	16998.7375
1452.58027	17142.3375
1455.9986	17197.4375
1459.41463	17279.5375
1462.82837	17461.2375
1466.23982	17656.5375
1469.64898	17826.1375
1473.05586	17984.0375
1476.46045	18036.3375
1479.86276	17986.2375
1483.26279	17954.3375
1486.66054	17919.2375
1490.05602	18004.4375
1493.44922	18207.7375
1496.84016	18501.8375
1500.22882	18986.0375
1503.61521	19662.9375
1506.99934	20381.3375
1510.38121	20940.0375
1513.76081	21045.8375
1517.13816	20669.1375
1520.51324	20030.3375
1523.88607	19432.9375
1527.25665	19080.4375
1530.62498	18939.0375
1533.99105	18801.2375
1537.35488	18600.2375
1540.71647	18308.3375
1544.07581	18002.0375
1547.4329	17676.5375
1550.78776	17436.5375
1554.14038	17217.9375
1557.49077	17165.0375
1560.83892	17154.2375
1564.18484	17210.7375
1567.52853	17303.9375
1570.86999	17416.9375
1574.20922	17599.5375
1577.54624	17756.3375
1580.88103	17744.9375
1584.2136	17652.0375
1587.54395	17752.2375
1590.87208	18132.0375
1594.19801	18605.0375
1597.52172	19169.8375
1600.84321	19404.5375
1604.16251	18900.2375
1607.47959	18145.6375
1610.79447	17239.6375
1614.10715	16388.1375
1617.41763	15584.3375
1620.7259	14944.5375
1624.03199	14547.6375
1627.33587	14455.0375
1630.63757	14598.5375
1633.93707	15040.9375
1637.23439	15822.8375
1640.52951	17017.1375
1643.82246	18428.2375
1647.11321	19671.8375
1650.40179	20164.5375
1653.68819	19530.3375
1656.97241	17985.0375
1660.25446	16246.9375
1663.53433	14845.1375
1666.81203	13850.5375
1670.08756	13239.5375
1673.36092	12831.9375
1676.63211	12565.6375
1679.90115	12386.1375
1683.16801	12215.7375
1686.43272	12126.9375
1689.69527	12040.5375
1692.95567	11930.5375
1696.2139	11879.0375
1699.46999	11791.4375
1702.72392	11758.6375
1705.97571	11769.4375
1709.22535	11822.8375
1712.47284	11794.3375
1715.71819	11797.7375
1718.96139	11787.1375
1722.20246	11739.0375
1725.44139	11709.6375
1728.67818	11661.2375
1731.91284	11618.9375
1735.14537	11577.7375
1738.37576	11564.3375
1741.60403	11474.5375
1744.83017	11451.6375
1748.05418	11400.5375
1751.27607	11389.8375
1754.49584	11365.2375
1757.71349	11352.5375
1760.92903	11323.6375
1764.14244	11296.3375
1767.35375	11282.0375
1770.56294	11284.7375
1773.77002	11243.9375
1776.97499	11275.3375
1780.17785	11271.6375
1783.37861	11265.7375
1786.57727	11237.7375
1789.77382	11220.0375
1792.96828	11232.4375
1796.16064	11193.3375
1799.3509	11169.2375
1802.53907	11170.6375
1805.72514	11130.1375
1808.90913	11094.7375
1812.09102	11080.0375
1815.27083	11054.7375
1818.44856	11048.1375
1821.6242	11018.3375
1824.79776	11012.5375
1827.96924	11013.6375
1831.13864	10998.1375
1834.30597	10979.9375
1837.47122	10983.5375
1840.6344	10981.5375
1843.7955	10955.7375
1846.95454	10946.1375
1850.11151	10951.5375
1853.26642	10961.5375
1856.41926	10940.0375
1859.57004	10931.2375
1862.71876	10948.1375
1865.86542	10917.1375
1869.01003	10897.1375
1872.15258	10874.2375
1875.29308	10871.5375
1878.43152	10813.0375
1881.56792	10808.6375
1884.70227	10808.4375
1887.83457	10774.2375
1890.96482	10760.5375
1894.09304	10746.0375
1897.21921	10735.8375
1900.34335	10712.8375
1903.46544	10692.2375
1906.58551	10686.6375
1909.70353	10662.2375
1912.81953	10665.5375
1915.93349	10661.3375
1919.04543	10627.9375
1922.15534	10616.1375
1925.26322	10556.9375
1928.36908	10561.5375
1931.47292	10539.8375
1934.57473	10499.5375
1937.67453	10473.1375
1940.77232	10490.9375
1943.86808	10432.8375
1946.96184	10407.4375
1950.05358	10370.6375
1953.14331	10330.2375
1956.23103	10287.9375
1959.31675	10284.7375
1962.40046	10260.6375
1965.48217	10234.4375
1968.56188	10208.6375
1971.63959	10169.6375
1974.7153	10116.6375
1977.78901	10089.5375
1980.86073	10060.1375
1983.93046	10031.4375
1986.99819	10005.9375
1990.06394	9981.3375
1993.1277	9957.5375
1996.18947	9902.3375
1999.24925	9889.0375
2002.30706	9843.8375
2005.36288	9812.0375
2008.41672	9784.3375
2011.46859	9743.6375
2014.51848	9730.8375
2017.56639	9725.4375
2020.61233	9671.8375
2023.6563	9697.5375
2026.6983	9642.2375
2029.73833	9612.4375
2032.7764	9580.9375
2035.8125	9572.5375
2038.84664	9542.1375
2041.87881	9541.1375
2044.90903	9501.9375
2047.93729	9487.2375
2050.96359	9459.8375
2053.98794	9440.9375
2057.01034	9441.2375
2060.03078	9425.5375
2063.04927	9442.6375
2066.06582	9431.2375
2069.08042	9423.0375
2072.09307	9428.5375
2075.10378	9390.1375
2078.11255	9402.4375
2081.11938	9406.4375
2084.12426	9391.6375
2087.12722	9387.9375
2090.12824	9371.9375
2093.12732	9387.0375
2096.12447	9368.3375
2099.11969	9365.6375
2102.11299	9389.4375
2105.10435	9386.9375
2108.09379	9402.8375
2111.08131	9402.2375
2114.0669	9392.9375
2117.05057	9388.1375
2120.03233	9380.8375
2123.01216	9399.0375
2125.99008	9427.8375
2128.96609	9429.7375
2131.94018	9421.0375
2134.91236	9418.8375
2137.88263	9412.1375
2140.851	9441.6375
2143.81746	9440.6375
2146.78201	9422.1375
2149.74466	9439.4375
2152.7054	9428.0375
2155.66425	9445.7375
2158.6212	9444.4375
2161.57625	9407.9375
2164.52941	9412.6375
2167.48067	9412.2375
2170.43004	9419.4375
2173.37752	9420.0375
2176.32311	9422.6375
2179.26681	9398.5375
2182.20863	9395.0375
2185.14856	9403.0375
2188.08661	9399.7375
2191.02278	9398.3375
2193.95707	9397.1375
2196.88948	9383.4375
2199.82001	9364.0375
2202.74867	9344.5375
2205.67545	9340.4375
2208.60037	9341.3375
2211.52341	9301.8375
2214.44458	9297.9375
2217.36388	9276.6375
2220.28132	9271.7375
2223.1969	9250.1375
2226.11061	9224.3375
2229.02246	9199.2375
2231.93245	9191.5375
2234.84058	9182.9375
2237.74686	9169.0375
2240.65128	9162.3375
2243.55385	9140.4375
2246.45456	9110.9375
2249.35343	9124.7375
2252.25044	9115.2375
2255.14561	9066.9375
2258.03893	9080.8375
2260.93041	9039.4375
2263.82004	9028.4375
2266.70783	9013.3375
2269.59378	8990.3375
2272.4779	8953.1375
2275.36017	8938.7375
2278.24061	8932.8375
2281.11922	8914.0375
2283.996	8912.8375
2286.87094	8890.5375
2289.74405	8833.5375
2292.61534	8824.0375
2295.4848	8814.0375
2298.35243	8815.0375
2301.21824	8809.9375
2304.08223	8822.2375
2306.94439	8800.3375
2309.80474	8805.3375
2312.66327	8790.8375
2315.51999	8792.2375
2318.37489	8789.8375
2321.22797	8761.4375
2324.07925	8753.8375
2326.92871	8714.0375
2329.77637	8708.6375
2332.62222	8709.2375
2335.46626	8682.5375
2338.3085	8675.8375
2341.14893	8657.8375
2343.98756	8665.8375
2346.8244	8669.4375
2349.65943	8636.0375
2352.49267	8619.8375
2355.32411	8630.3375
2358.15376	8597.3375
2360.98161	8602.5375
2363.80768	8600.4375
2366.63195	8609.1375
2369.45444	8602.7375
2372.27514	8607.1375
2375.09405	8579.7375
2377.91118	8584.0375
2380.72652	8535.1375
2383.54009	8516.0375
2386.35187	8495.6375
2389.16188	8482.9375
2391.97011	8456.2375
2394.77657	8450.1375
2397.58125	8435.5375
2400.38416	8422.2375
2403.18529	8418.0375
2405.98466	8386.7375
2408.78226	8385.8375
2411.57809	8384.4375
2414.37216	8357.7375
2417.16446	8342.7375
2419.955	8345.2375
2422.74378	8350.3375
2425.5308	8319.9375
2428.31606	8316.5375
2431.09956	8321.3375
2433.88131	8304.6375
2436.6613	8312.6375
2439.43954	8282.9375
2442.21603	8282.1375
2444.99077	8295.0375
2447.76377	8263.0375
2450.53501	8259.9375
2453.30451	8265.9375
2456.07226	8234.5375
2458.83827	8199.1375
2461.60254	8224.3375
2464.36507	8215.3375
2467.12586	8202.2375
2469.88492	8197.6375
2472.64224	8217.2375
2475.39782	8212.2375
2478.15167	8168.3375
2480.90379	8157.5375
2483.65417	8168.4375
2486.40283	8185.1375
2489.14976	8171.4375
2491.89497	8160.2375
2494.63845	8153.3375
2497.3802	8145.5375
2500.12024	8149.8375
2502.85855	8138.4375
2505.59514	8129.5375
2508.33002	8110.7375
2511.06318	8118.0375
2513.79462	8115.6375
2516.52435	8092.5375
2519.25237	8089.9375
2521.97867	8073.1375
2524.70327	8073.9375
2527.42616	8060.1375
2530.14734	8046.1375
2532.86681	8030.2375
2535.58458	8019.5375
2538.30065	7991.2375
2541.01501	8014.9375
2543.72768	7996.2375
2546.43864	7989.1375
2549.14791	7971.4375
2551.85548	7960.2375
2554.56136	7947.4375
2557.26554	7921.4375
2559.96803	7909.8375
2562.66883	7922.3375
2565.36794	7908.7375
2568.06536	7886.2375
2570.7611	7859.3375
2573.45514	7856.3375
2576.14751	7853.7375
2578.83819	7839.3375
2581.52719	7831.8375
2584.21451	7823.5375
2586.90015	7802.0375
2589.58411	7778.8375
2592.2664	7779.2375
2594.94701	7768.6375
2597.62594	7733.9375
2600.30321	7725.0375
2602.9788	7724.3375
2605.65273	7727.1375
2608.32498	7708.9375
2610.99557	7704.9375
2613.66449	7706.0375
2616.33175	7694.6375
2618.99734	7689.6375
2621.66128	7672.1375
2624.32355	7661.8375
2626.98416	7669.5375
2629.64311	7644.4375
2632.30041	7664.0375
2634.95605	7602.1375
2637.61004	7620.0375
2640.26238	7599.5375
2642.91306	7594.6375
2645.56209	7598.0375
2648.20948	7618.1375
2650.85521	7577.9375
2653.4993	7604.3375
2656.14175	7592.4375
2658.78255	7594.7375
2661.42171	7567.7375
2664.05923	7597.8375
2666.6951	7577.6375
2669.32934	7593.0375
2671.96194	7583.6375
2674.59291	7588.1375
2677.22224	7575.2375
2679.84993	7584.5375
2682.476	7545.7375
2685.10043	7584.4375
2687.72324	7559.0375
2690.34441	7557.6375
2692.96396	7538.3375
2695.58188	7556.6375
2698.19818	7558.3375
2700.81285	7555.8375
2703.4259	7530.2375
2706.03733	7530.1375
2708.64714	7512.5375
2711.25533	7542.9375
2713.86191	7536.4375
2716.46687	7558.0375
2719.07021	7552.0375
2721.67194	7550.0375
2724.27206	7525.4375
2726.87057	7565.2375
2729.46747	7551.6375
2732.06276	7554.1375
2734.65644	7561.3375
2737.24852	7549.6375
2739.83899	7515.2375
2742.42786	7545.5375
2745.01513	7519.0375
2747.60079	7520.3375
2750.18486	7503.8375
2752.76733	7483.5375
2755.3482	7488.1375
2757.92747	7497.1375
2760.50515	7479.5375
2763.08123	7449.7375
2765.65573	7455.4375
2768.22863	7456.2375
2770.79994	7449.7375
2773.36967	7442.1375
2775.9378	7437.3375
2778.50435	7433.1375
2781.06932	7425.2375
2783.6327	7409.3375
2786.1945	7379.0375
2788.75471	7380.5375
2791.31335	7356.2375
2793.87041	7349.1375
2796.42589	7328.4375
2798.97979	7343.1375
2801.53212	7308.4375
2804.08288	7310.0375
2806.63206	7277.7375
2809.17967	7257.2375
2811.72571	7255.2375
2814.27018	7217.8375
2816.81308	7203.6375
2819.35442	7196.4375
2821.89419	7186.1375
2824.43239	7195.3375
2826.96904	7183.4375
2829.50412	7186.3375
2832.03763	7167.7375
2834.56959	7170.1375
2837.1	7167.2375
2839.62884	7157.0375
2842.15613	7149.4375
2844.68186	7163.0375
2847.20604	7166.0375
2849.72867	7153.0375
2852.24974	7139.5375
2854.76927	7140.4375
2857.28724	7137.0375
2859.80367	7115.4375
2862.31855	7112.4375
2864.83189	7094.8375
2867.34368	7076.6375
2869.85393	7076.5375
2872.36264	7095.2375
2874.8698	7065.3375
2877.37543	7044.6375
2879.87952	7033.8375
2882.38207	7051.4375
2884.88308	7065.0375
2887.38256	7066.5375
2889.88051	7043.1375
2892.37692	7048.3375
2894.8718	7038.2375
2897.36515	7049.7375
2899.85698	7025.7375
2902.34727	7049.1375
2904.83604	7039.5375
2907.32328	7050.3375
2909.809	7041.3375
2912.29319	7052.5375
2914.77587	7051.2375
2917.25702	7044.4375
2919.73665	7026.5375
2922.21476	7044.9375
2924.69136	7037.8375
2927.16644	7051.2375
2929.64	7034.6375
2932.11205	7035.9375
2934.58258	7018.8375
2937.05161	7026.7375
2939.51912	7016.8375
2941.98513	6991.4375
2944.44962	6972.8375
2946.91261	6962.6375
2949.37409	6969.6375
2951.83407	6951.7375
2954.29254	6949.5375
2956.74951	6948.7375
2959.20498	6937.3375
2961.65895	6937.1375
2964.11142	6930.0375
2966.56239	6908.2375
2969.01186	6908.6375
2971.45984	6921.5375
2973.90632	6908.3375
2976.35131	6883.8375
2978.7948	6874.2375
2981.23681	6878.1375
2983.67732	6863.6375
2986.11635	6849.6375
2988.55388	6812.4375
2990.98993	6793.1375
2993.4245	6792.1375
2995.85758	6770.9375
2998.28917	6764.4375
3000.71928	6754.6375
3003.14791	6744.3375
3005.57506	6733.0375
3008.00073	6727.8375
3010.42493	6705.3375
3012.84764	6725.2375
3015.26888	6704.5375
3017.68865	6687.5375
3020.10694	6684.8375
3022.52376	6663.3375
3024.9391	6653.8375
3027.35298	6650.9375
3029.76539	6653.2375
3032.17632	6629.5375
3034.5858	6621.6375
3036.9938	6610.1375
3039.40034	6608.0375
3041.80542	6620.0375
3044.20903	6606.2375
3046.61118	6609.2375
3049.01187	6589.1375
3051.4111	6583.7375
3053.80888	6567.8375
3056.20519	6557.0375
3058.60005	6535.8375
3060.99345	6519.0375
3063.3854	6502.1375
3065.7759	6489.0375
3068.16494	6488.0375
3070.55254	6472.6375
