Data from AgNPs_FTO_APTES_UA_1uM_CRN_5uM_R6G_10uM_NaF_0.1M_Addition_RamanShift__11__13-48-59-589.txt Node

Date: Thu Jan 27 13:48:59 GMT 2022
User: TCL
Spectrometer: QEP01345
Trigger mode: 4
Integration Time (sec): 7.000000E0
Scans to average: 10
Electric dark correction enabled: true
Nonlinearity correction enabled: false
Boxcar width: 0
XAxis mode: Raman Shifts
Number of Pixels in Spectrum: 1044
>>>>>Begin Spectral Data<<<<<
46.04893	1.175
50.45542	0.975
54.85868	-0.625
59.25871	-0.925
63.6555	55.875
68.04907	57.675
72.43941	61.475
76.82654	66.775
81.21044	66.575
85.59113	66.875
89.96862	69.375
94.34289	77.675
98.71396	80.875
103.08183	78.975
107.4465	85.675
111.80798	83.875
116.16626	88.375
120.52136	94.675
124.87327	90.475
129.222	93.175
133.56755	98.175
137.90993	105.375
142.24913	115.575
146.58517	128.975
150.91804	149.175
155.24774	176.475
159.57429	212.675
163.89768	266.275
168.21792	355.875
172.53501	477.675
176.84895	666.575
181.15975	936.375
185.46741	1305.375
189.77193	1800.375
194.07331	2419.775
198.37157	3129.575
202.6667	3870.475
206.9587	4612.675
211.24758	5343.075
215.53334	6044.775
219.81599	6795.375
224.09553	7611.775
228.37195	8496.475
232.64527	9470.075
236.91549	10551.075
241.18261	11673.475
245.44663	12677.975
249.70755	13661.275
253.96539	14513.075
258.22014	15221.175
262.4718	15800.575
266.72039	16224.475
270.96589	16402.175
275.20832	16471.175
279.44768	16335.775
283.68397	16224.775
287.91719	16040.675
292.14735	15911.775
296.37445	15839.975
300.59849	15809.075
304.81948	15799.275
309.03742	15805.375
313.25231	15740.675
317.46415	15522.775
321.67296	15281.075
325.87872	15079.975
330.08145	15000.875
334.28114	15011.375
338.47781	15094.875
342.67145	15258.375
346.86207	15462.675
351.04966	15676.575
355.23424	15893.575
359.4158	16152.875
363.59435	16315.175
367.76989	16464.875
371.94243	16542.775
376.11196	16630.775
380.27849	16688.775
384.44203	16742.375
388.60257	16867.275
392.76012	17009.175
396.91468	17226.375
401.06626	17465.675
405.21485	17631.475
409.36047	17628.975
413.50311	17462.775
417.64277	17338.275
421.77947	17385.475
425.9132	17499.675
430.04396	17565.075
434.17176	17655.675
438.2966	17709.175
442.41849	17872.875
446.53742	18082.575
450.6534	18375.875
454.76644	18588.175
458.87653	18681.475
462.98368	18693.075
467.08789	18648.975
471.18916	18512.975
475.2875	18338.175
479.38291	18241.375
483.4754	18140.175
487.56496	18067.075
491.6516	17926.275
495.73531	17802.875
499.81612	17715.375
503.89401	17795.675
507.96899	17918.775
512.04106	17949.675
516.11023	17928.675
520.1765	17807.775
524.23987	17666.375
528.30034	17515.575
532.35792	17450.175
536.41261	17332.275
540.46441	17227.675
544.51333	17206.375
548.55936	17332.575
552.60252	17543.275
556.64279	17772.075
560.6802	17947.775
564.71473	18031.275
568.7464	18201.175
572.7752	18518.475
576.80114	18906.775
580.82422	19404.475
584.84444	19881.275
588.86181	20398.775
592.87633	20911.575
596.888	20889.475
600.89682	20370.675
604.9028	20119.175
608.90594	20845.675
612.90624	21740.975
616.90371	20873.675
620.89834	18768.975
624.89015	17756.375
628.87913	17712.475
632.86528	17837.475
636.84862	17920.375
640.82913	17720.375
644.80683	17434.375
648.78172	17242.775
652.75379	17232.375
656.72306	17349.175
660.68952	17555.975
664.65319	17487.475
668.61405	17360.375
672.57211	17336.375
676.52738	17368.275
680.47986	17354.075
684.42955	17293.975
688.37646	17200.775
692.32058	17256.875
696.26192	17379.775
700.20048	17554.375
704.13626	17658.575
708.06928	17706.175
711.99952	17685.475
715.927	17645.975
719.85171	17620.175
723.77365	17561.575
727.69284	17415.075
731.60928	17221.575
735.52295	17155.475
739.43388	17160.275
743.34206	17188.075
747.24749	17236.775
751.15017	17368.575
755.05012	17539.075
758.94733	17854.575
762.8418	18366.975
766.73354	19193.075
770.62254	19991.475
774.50882	20120.575
778.39237	19605.175
782.27321	18832.675
786.15132	18093.775
790.02671	17647.375
793.89938	17380.775
797.76935	17221.975
801.6366	17180.075
805.50115	17100.675
809.36299	17064.775
813.22213	16955.975
817.07857	16955.775
820.93231	16918.775
824.78336	16907.575
828.63172	16900.375
832.47738	16829.975
836.32036	16834.175
840.16066	16802.975
843.99827	16781.175
847.8332	16795.475
851.66546	16806.975
855.49504	16804.975
859.32195	16836.975
863.1462	16813.475
866.96777	16845.775
870.78668	16834.775
874.60293	16835.675
878.41652	16857.975
882.22745	16881.775
886.03573	16901.075
889.84136	16938.875
893.64433	16888.375
897.44466	16835.375
901.24235	16827.875
905.0374	16811.975
908.8298	16727.275
912.61957	16757.275
916.40671	16839.575
920.19121	17013.075
923.97308	17097.775
927.75233	17110.775
931.52895	16979.075
935.30295	16833.275
939.07433	16633.075
942.84309	16457.775
946.60924	16374.275
950.37278	16326.575
954.13371	16326.575
957.89203	16311.875
961.64774	16283.475
965.40086	16255.475
969.15137	16240.475
972.89929	16189.775
976.64461	16119.575
980.38733	16110.575
984.12747	16103.375
987.86502	16113.075
991.59999	16180.675
995.33237	16255.175
999.06217	16352.975
1002.78939	16548.275
1006.51404	16762.275
1010.23611	16956.675
1013.95561	17094.275
1017.67255	17143.475
1021.38692	17065.275
1025.09872	16859.075
1028.80796	16690.675
1032.51465	16608.475
1036.21877	16630.875
1039.92035	16668.975
1043.61937	16722.975
1047.31584	16745.975
1051.00976	16840.075
1054.70114	16847.275
1058.38998	16947.875
1062.07627	17105.275
1065.76003	17238.875
1069.44126	17402.075
1073.11995	17634.875
1076.79611	17846.475
1080.46974	17965.075
1084.14085	17981.775
1087.80943	18048.675
1091.47549	18147.775
1095.13903	18243.775
1098.80005	18123.675
1102.45857	17865.875
1106.11456	17598.775
1109.76805	17400.275
1113.41903	17317.775
1117.06751	17348.675
1120.71348	17452.575
1124.35696	17578.875
1127.99793	17691.275
1131.63641	17818.675
1135.2724	17722.675
1138.90589	17647.375
1142.5369	17665.675
1146.16542	17712.375
1149.79145	17765.175
1153.415	17818.875
1157.03607	17941.975
1160.65467	18177.475
1164.27079	18593.675
1167.88443	19155.175
1171.49561	19800.875
1175.10432	20603.775
1178.71056	21556.175
1182.31434	22486.075
1185.91565	23018.275
1189.51451	23191.475
1193.11091	23025.375
1196.70485	22634.975
1200.29634	22054.775
1203.88538	21594.375
1207.47197	21273.975
1211.05612	21037.975
1214.63782	20766.075
1218.21708	20376.975
1221.79391	19922.175
1225.36829	19562.175
1228.94024	19366.275
1232.50976	19298.875
1236.07685	19215.575
1239.6415	19152.875
1243.20374	19140.175
1246.76355	19240.375
1250.32093	19379.775
1253.8759	19605.275
1257.42845	20000.075
1260.97859	20339.275
1264.52631	20743.775
1268.07163	21125.075
1271.61453	21438.875
1275.15503	21787.175
1278.69312	22177.575
1282.22882	22624.175
1285.76211	23122.075
1289.29301	23656.975
1292.82151	24302.275
1296.34761	25088.775
1299.87133	26034.975
1303.39266	26930.775
1306.9116	27733.475
1310.42815	28339.975
1313.94233	28660.775
1317.45412	28531.375
1320.96354	28234.375
1324.47058	28035.775
1327.97525	27924.875
1331.47754	27810.275
1334.97747	27749.975
1338.47502	27760.375
1341.97022	27874.375
1345.46305	27927.975
1348.95352	27962.175
1352.44163	27958.775
1355.92738	28014.775
1359.41078	28452.475
1362.89183	28857.475
1366.37053	28522.475
1369.84688	27031.575
1373.32088	25009.175
1376.79254	23458.075
1380.26186	22702.475
1383.72883	22547.875
1387.19347	22496.275
1390.65578	22242.575
1394.11575	22032.575
1397.57339	22036.175
1401.0287	22177.075
1404.48168	22316.675
1407.93234	22254.575
1411.38068	21961.375
1414.82669	21509.475
1418.27039	20978.875
1421.71177	20457.175
1425.15083	19984.775
1428.58758	19840.475
1432.02203	19895.375
1435.45416	20145.375
1438.88399	20547.275
1442.31151	20811.675
1445.73673	20948.675
1449.15965	21058.875
1452.58027	21124.775
1455.9986	21166.175
1459.41463	21256.475
1462.82837	21496.375
1466.23982	21811.575
1469.64898	22054.975
1473.05586	22260.675
1476.46045	22265.475
1479.86276	22261.375
1483.26279	22178.075
1486.66054	22147.675
1490.05602	22234.975
1493.44922	22531.075
1496.84016	22931.375
1500.22882	23453.275
1503.61521	24088.675
1506.99934	24779.375
1510.38121	25240.575
1513.76081	25291.675
1517.13816	24883.275
1520.51324	24389.075
1523.88607	23926.575
1527.25665	23668.475
1530.62498	23547.375
1533.99105	23336.875
1537.35488	22988.375
1540.71647	22540.175
1544.07581	22061.975
1547.4329	21618.275
1550.78776	21200.675
1554.14038	21005.675
1557.49077	20875.575
1560.83892	20847.275
1564.18484	20834.575
1567.52853	20880.775
1570.86999	21028.775
1574.20922	21311.675
1577.54624	21519.375
1580.88103	21522.575
1584.2136	21555.275
1587.54395	21795.375
1590.87208	22349.275
1594.19801	23120.975
1597.52172	23922.875
1600.84321	24144.475
1604.16251	23463.675
1607.47959	22286.175
1610.79447	21043.375
1614.10715	19850.375
1617.41763	18832.275
1620.7259	18064.875
1624.03199	17659.875
1627.33587	17577.975
1630.63757	17818.875
1633.93707	18473.675
1637.23439	19641.575
1640.52951	21437.875
1643.82246	23555.375
1647.11321	25317.675
1650.40179	25796.675
1653.68819	24607.675
1656.97241	22220.175
1660.25446	19797.575
1663.53433	17942.775
1666.81203	16755.875
1670.08756	16016.775
1673.36092	15566.075
1676.63211	15241.875
1679.90115	15034.375
1683.16801	14884.575
1686.43272	14739.575
1689.69527	14639.075
1692.95567	14547.275
1696.2139	14466.575
1699.46999	14404.775
1702.72392	14349.175
1705.97571	14341.575
1709.22535	14340.375
1712.47284	14323.975
1715.71819	14335.775
1718.96139	14327.175
1722.20246	14284.375
1725.44139	14239.275
1728.67818	14196.375
1731.91284	14109.075
1735.14537	14068.775
1738.37576	13979.975
1741.60403	13931.375
1744.83017	13893.975
1748.05418	13878.075
1751.27607	13819.875
1754.49584	13791.175
1757.71349	13795.375
1760.92903	13729.775
1764.14244	13710.875
1767.35375	13691.075
1770.56294	13681.875
1773.77002	13691.575
1776.97499	13655.775
1780.17785	13662.075
1783.37861	13648.175
1786.57727	13664.175
1789.77382	13640.375
1792.96828	13609.275
1796.16064	13526.175
1799.3509	13531.175
1802.53907	13509.175
1805.72514	13467.475
1808.90913	13448.675
1812.09102	13430.275
1815.27083	13413.975
1818.44856	13413.275
1821.6242	13360.575
1824.79776	13341.475
1827.96924	13319.075
1831.13864	13322.775
1834.30597	13312.575
1837.47122	13312.575
1840.6344	13306.175
1843.7955	13282.975
1846.95454	13298.075
1850.11151	13267.175
1853.26642	13279.875
1856.41926	13259.275
1859.57004	13285.775
1862.71876	13234.675
1865.86542	13206.075
1869.01003	13204.975
1872.15258	13150.975
1875.29308	13156.475
1878.43152	13109.475
1881.56792	13093.975
1884.70227	13044.775
1887.83457	13055.275
1890.96482	13040.475
1894.09304	13024.475
1897.21921	12991.675
1900.34335	12958.175
1903.46544	12972.475
1906.58551	12922.075
1909.70353	12924.775
1912.81953	12893.475
1915.93349	12863.575
1919.04543	12827.175
1922.15534	12816.475
1925.26322	12784.875
1928.36908	12758.775
1931.47292	12754.075
1934.57473	12691.875
1937.67453	12681.375
1940.77232	12637.875
1943.86808	12609.875
1946.96184	12569.175
1950.05358	12541.575
1953.14331	12513.375
1956.23103	12431.775
1959.31675	12421.475
1962.40046	12391.375
1965.48217	12366.575
1968.56188	12312.575
1971.63959	12306.675
1974.7153	12240.575
1977.78901	12200.075
1980.86073	12155.575
1983.93046	12129.575
1986.99819	12079.375
1990.06394	12024.775
1993.1277	12006.475
1996.18947	11973.175
1999.24925	11922.375
2002.30706	11879.575
2005.36288	11829.175
2008.41672	11829.575
2011.46859	11781.875
2014.51848	11758.775
2017.56639	11745.075
2020.61233	11698.575
2023.6563	11702.275
2026.6983	11629.275
2029.73833	11596.175
2032.7764	11562.775
2035.8125	11574.275
2038.84664	11505.875
2041.87881	11472.875
2044.90903	11458.675
2047.93729	11461.775
2050.96359	11434.175
2053.98794	11419.075
2057.01034	11395.475
2060.03078	11375.175
2063.04927	11369.075
2066.06582	11374.375
2069.08042	11374.875
2072.09307	11347.475
2075.10378	11330.475
2078.11255	11320.375
2081.11938	11346.175
2084.12426	11314.275
2087.12722	11323.775
2090.12824	11330.275
2093.12732	11314.275
2096.12447	11295.975
2099.11969	11297.275
2102.11299	11313.475
2105.10435	11307.075
2108.09379	11316.075
2111.08131	11316.375
2114.0669	11315.475
2117.05057	11322.075
2120.03233	11333.075
2123.01216	11346.675
2125.99008	11344.375
2128.96609	11336.375
2131.94018	11344.975
2134.91236	11342.075
2137.88263	11394.275
2140.851	11333.075
2143.81746	11358.075
2146.78201	11354.775
2149.74466	11382.975
2152.7054	11348.875
2155.66425	11359.875
2158.6212	11350.975
2161.57625	11334.575
2164.52941	11327.875
2167.48067	11321.475
2170.43004	11329.175
2173.37752	11326.075
2176.32311	11337.175
2179.26681	11312.575
2182.20863	11293.475
2185.14856	11295.775
2188.08661	11331.375
2191.02278	11289.775
2193.95707	11280.875
2196.88948	11262.175
2199.82001	11270.575
2202.74867	11238.675
2205.67545	11241.875
2208.60037	11213.075
2211.52341	11191.575
2214.44458	11184.975
2217.36388	11137.075
2220.28132	11116.375
2223.1969	11110.375
2226.11061	11085.875
2229.02246	11024.475
2231.93245	11051.375
2234.84058	11011.375
2237.74686	11010.875
2240.65128	11001.975
2243.55385	10971.075
2246.45456	10954.275
2249.35343	10942.775
2252.25044	10909.175
2255.14561	10900.275
2258.03893	10874.575
2260.93041	10843.575
2263.82004	10827.975
2266.70783	10827.475
2269.59378	10790.375
2272.4779	10723.875
2275.36017	10752.175
2278.24061	10703.375
2281.11922	10680.775
2283.996	10684.075
2286.87094	10665.775
2289.74405	10634.975
2292.61534	10590.575
2295.4848	10573.375
2298.35243	10556.775
2301.21824	10570.475
2304.08223	10588.475
2306.94439	10576.275
2309.80474	10555.575
2312.66327	10522.075
2315.51999	10499.875
2318.37489	10498.875
2321.22797	10464.775
2324.07925	10454.375
2326.92871	10432.075
2329.77637	10408.475
2332.62222	10405.275
2335.46626	10408.475
2338.3085	10356.075
2341.14893	10357.175
2343.98756	10371.075
2346.8244	10330.875
2349.65943	10328.275
2352.49267	10313.675
2355.32411	10310.275
2358.15376	10310.075
2360.98161	10281.575
2363.80768	10306.375
2366.63195	10300.675
2369.45444	10283.675
2372.27514	10255.575
2375.09405	10243.075
2377.91118	10256.875
2380.72652	10213.475
2383.54009	10190.075
2386.35187	10180.375
2389.16188	10125.075
2391.97011	10111.975
2394.77657	10108.075
2397.58125	10091.075
2400.38416	10067.675
2403.18529	10045.875
2405.98466	10044.275
2408.78226	10013.975
2411.57809	10031.975
2414.37216	9988.675
2417.16446	10003.175
2419.955	9987.875
2422.74378	9997.375
2425.5308	9951.475
2428.31606	9948.575
2431.09956	9936.875
2433.88131	9921.775
2436.6613	9928.375
2439.43954	9918.075
2442.21603	9911.175
2444.99077	9875.475
2447.76377	9888.975
2450.53501	9867.075
2453.30451	9890.675
2456.07226	9857.975
2458.83827	9837.375
2461.60254	9834.675
2464.36507	9820.075
2467.12586	9798.275
2469.88492	9800.575
2472.64224	9793.275
2475.39782	9779.875
2478.15167	9774.775
2480.90379	9768.675
2483.65417	9758.075
2486.40283	9756.075
2489.14976	9755.475
2491.89497	9759.775
2494.63845	9734.875
2497.3802	9721.375
2500.12024	9694.075
2502.85855	9712.875
2505.59514	9695.075
2508.33002	9670.775
2511.06318	9666.675
2513.79462	9647.375
2516.52435	9639.675
2519.25237	9640.275
2521.97867	9614.175
2524.70327	9623.775
2527.42616	9605.475
2530.14734	9583.775
2532.86681	9555.275
2535.58458	9575.975
2538.30065	9565.475
2541.01501	9541.875
2543.72768	9506.475
2546.43864	9479.575
2549.14791	9479.675
2551.85548	9479.575
2554.56136	9446.575
2557.26554	9453.375
2559.96803	9418.175
2562.66883	9415.475
2565.36794	9421.575
2568.06536	9405.975
2570.7611	9364.475
2573.45514	9344.075
2576.14751	9339.075
2578.83819	9308.275
2581.52719	9303.075
2584.21451	9270.975
2586.90015	9260.275
2589.58411	9255.275
2592.2664	9235.675
2594.94701	9207.275
2597.62594	9218.375
2600.30321	9210.975
2602.9788	9182.275
2605.65273	9173.475
2608.32498	9175.875
2610.99557	9154.275
2613.66449	9150.375
2616.33175	9143.675
2618.99734	9140.475
2621.66128	9116.375
2624.32355	9122.775
2626.98416	9086.675
2629.64311	9076.675
2632.30041	9068.775
2634.95605	9058.475
2637.61004	9048.575
2640.26238	9025.475
2642.91306	9039.475
2645.56209	9038.475
2648.20948	8989.975
2650.85521	9001.175
2653.4993	9026.475
2656.14175	9001.175
2658.78255	9027.875
2661.42171	8975.575
2664.05923	9005.575
2666.6951	9006.675
2669.32934	9014.475
2671.96194	9003.375
2674.59291	9009.375
2677.22224	8994.575
2679.84993	8983.575
2682.476	8971.375
2685.10043	8969.975
2687.72324	8960.975
2690.34441	8972.975
2692.96396	8971.275
2695.58188	8959.075
2698.19818	8949.175
2700.81285	8964.375
2703.4259	8943.375
2706.03733	8948.175
2708.64714	8945.175
2711.25533	8937.775
2713.86191	8946.275
2716.46687	8969.375
2719.07021	8953.575
2721.67194	8954.875
2724.27206	8958.475
2726.87057	8965.775
2729.46747	8965.575
2732.06276	8952.475
2734.65644	8952.775
2737.24852	8941.475
2739.83899	8932.175
2742.42786	8930.275
2745.01513	8907.275
2747.60079	8908.475
2750.18486	8877.675
2752.76733	8862.775
2755.3482	8868.675
2757.92747	8862.775
2760.50515	8857.975
2763.08123	8848.675
2765.65573	8824.475
2768.22863	8807.775
2770.79994	8809.175
2773.36967	8820.075
2775.9378	8795.175
2778.50435	8775.175
2781.06932	8758.275
2783.6327	8767.975
2786.1945	8735.575
2788.75471	8713.475
2791.31335	8719.575
2793.87041	8673.575
2796.42589	8660.075
2798.97979	8655.575
2801.53212	8656.675
2804.08288	8617.375
2806.63206	8593.175
2809.17967	8604.875
2811.72571	8541.075
2814.27018	8551.175
2816.81308	8531.575
2819.35442	8537.475
2821.89419	8530.875
2824.43239	8515.275
2826.96904	8490.675
2829.50412	8498.475
2832.03763	8472.175
2834.56959	8479.475
2837.1	8453.875
2839.62884	8464.075
2842.15613	8443.275
2844.68186	8458.875
2847.20604	8458.075
2849.72867	8450.675
2852.24974	8436.775
2854.76927	8444.475
2857.28724	8437.175
2859.80367	8415.175
2862.31855	8400.075
2864.83189	8393.475
2867.34368	8348.675
2869.85393	8350.075
2872.36264	8338.975
2874.8698	8325.275
2877.37543	8319.175
2879.87952	8331.575
2882.38207	8339.775
2884.88308	8298.275
2887.38256	8309.075
2889.88051	8292.175
2892.37692	8291.375
2894.8718	8288.775
2897.36515	8303.775
2899.85698	8303.475
2902.34727	8299.275
2904.83604	8296.375
2907.32328	8293.375
2909.809	8310.675
2912.29319	8314.975
2914.77587	8291.675
2917.25702	8288.275
2919.73665	8278.675
2922.21476	8293.075
2924.69136	8287.275
2927.16644	8279.775
2929.64	8265.375
2932.11205	8286.075
2934.58258	8246.175
2937.05161	8256.075
2939.51912	8275.075
2941.98513	8232.275
2944.44962	8190.875
2946.91261	8162.875
2949.37409	8159.475
2951.83407	8144.675
2954.29254	8152.075
2956.74951	8156.375
2959.20498	8148.175
2961.65895	8125.375
2964.11142	8150.675
2966.56239	8126.375
2969.01186	8092.775
2971.45984	8102.575
2973.90632	8086.475
2976.35131	8073.475
2978.7948	8070.675
2981.23681	8044.275
2983.67732	8039.375
2986.11635	7992.075
2988.55388	7977.975
2990.98993	7962.175
2993.4245	7944.975
2995.85758	7932.875
2998.28917	7920.875
3000.71928	7887.375
3003.14791	7884.375
3005.57506	7861.875
3008.00073	7856.175
3010.42493	7855.375
3012.84764	7841.675
3015.26888	7823.975
3017.68865	7801.475
3020.10694	7789.875
3022.52376	7757.675
3024.9391	7760.275
3027.35298	7758.875
3029.76539	7758.475
3032.17632	7721.075
3034.5858	7714.275
3036.9938	7722.275
3039.40034	7714.375
3041.80542	7704.575
3044.20903	7678.575
3046.61118	7659.075
3049.01187	7652.975
3051.4111	7669.375
3053.80888	7641.875
3056.20519	7609.575
3058.60005	7590.575
3060.99345	7558.875
3063.3854	7551.875
3065.7759	7554.475
3068.16494	7538.875
3070.55254	7500.475
3072.93868	7478.775
3075.32338	7474.475
3077.70662	7472.975
3080.08842	7460.375
3082.46878	7450.075
3084.84769	7444.575
3087.22515	7436.775
3089.60118	7416.075
3091.97576	7412.975
3094.3489	7419.875
3096.72061	7414.675
3099.09087	7418.375
3101.4597	7400.575
3103.82709	7403.175
3106.19305	7395.575
3108.55757	7417.875
3110.92066	7382.175
3113.28232	7374.575
3115.64255	7357.575
3118.00134	7331.275
3120.35871	7341.775
3122.71466	7329.775
3125.06917	7279.875
3127.42226	7271.075
3129.77393	7262.975
3132.12417	7260.575
3134.47299	7267.275
3136.82039	7244.575
3139.16636	7266.875
3141.51092	7244.775
3143.85406	7264.975
3146.19579	7280.575
3148.53609	7261.775
3150.87499	7279.475
3153.21246	7265.375
3155.54853	7292.175
3157.88318	7249.375
3160.21642	7266.075
3162.54826	7270.075
