Data from AgNPs_FTO_APTES_UA_1uM_CRN_2uM_R6G_10uM_NaF_0.1M_Addition_RamanShift__6__13-02-19-535.txt Node

Date: Thu Jan 27 13:02:19 GMT 2022
User: TCL
Spectrometer: QEP01345
Trigger mode: 4
Integration Time (sec): 7.000000E0
Scans to average: 10
Electric dark correction enabled: true
Nonlinearity correction enabled: false
Boxcar width: 0
XAxis mode: Raman Shifts
Number of Pixels in Spectrum: 1044
>>>>>Begin Spectral Data<<<<<
46.04893	0.075
50.45542	1.675
54.85868	-2.125
59.25871	-2.125
63.6555	59.375
68.04907	63.175
72.43941	67.275
76.82654	74.575
81.21044	69.175
85.59113	71.575
89.96862	76.575
94.34289	80.175
98.71396	80.775
103.08183	82.175
107.4465	85.975
111.80798	88.775
116.16626	89.675
120.52136	94.475
124.87327	95.775
129.222	97.875
133.56755	103.675
137.90993	110.075
142.24913	122.375
146.58517	135.175
150.91804	154.675
155.24774	187.275
159.57429	225.175
163.89768	285.675
168.21792	380.175
172.53501	516.075
176.84895	709.175
181.15975	996.675
185.46741	1389.675
189.77193	1920.275
194.07331	2562.075
198.37157	3315.175
202.6667	4087.575
206.9587	4860.375
211.24758	5615.975
215.53334	6365.975
219.81599	7184.075
224.09553	8059.375
228.37195	9036.775
232.64527	10118.075
236.91549	11255.475
241.18261	12421.675
245.44663	13492.275
249.70755	14496.875
253.96539	15326.675
258.22014	16055.875
262.4718	16592.575
266.72039	17005.375
270.96589	17178.875
275.20832	17217.475
279.44768	17073.975
283.68397	16876.575
287.91719	16684.375
292.14735	16553.175
296.37445	16471.475
300.59849	16502.075
304.81948	16555.675
309.03742	16595.075
313.25231	16536.475
317.46415	16376.075
321.67296	16149.675
325.87872	15947.375
330.08145	15840.675
334.28114	15850.775
338.47781	15912.275
342.67145	16115.575
346.86207	16375.075
351.04966	16683.675
355.23424	16991.775
359.4158	17238.575
363.59435	17455.475
367.76989	17632.675
371.94243	17669.675
376.11196	17785.675
380.27849	17889.675
384.44203	18006.875
388.60257	18131.675
392.76012	18254.075
396.91468	18514.275
401.06626	18738.875
405.21485	18934.075
409.36047	18942.175
413.50311	18801.775
417.64277	18792.975
421.77947	18917.875
425.9132	19048.475
430.04396	19153.975
434.17176	19245.275
438.2966	19297.975
442.41849	19521.475
446.53742	19958.975
450.6534	20482.075
454.76644	20804.875
458.87653	20877.475
462.98368	20728.975
467.08789	20447.875
471.18916	20079.075
475.2875	19677.275
479.38291	19377.175
483.4754	19197.175
487.56496	19039.475
491.6516	18884.075
495.73531	18768.175
499.81612	18783.075
503.89401	18966.675
507.96899	19087.275
512.04106	19067.675
516.11023	18945.575
520.1765	18805.775
524.23987	18621.175
528.30034	18557.875
532.35792	18422.475
536.41261	18219.475
540.46441	17981.475
544.51333	17957.375
548.55936	18051.475
552.60252	18351.075
556.64279	18716.375
560.6802	18972.375
564.71473	19110.875
568.7464	19250.775
572.7752	19597.875
576.80114	20081.175
580.82422	20833.175
584.84444	21831.275
588.86181	23118.975
592.87633	24175.275
596.888	24119.775
600.89682	22933.875
604.9028	22287.775
608.90594	23192.775
612.90624	24399.875
616.90371	23283.475
620.89834	20393.475
624.89015	19007.875
628.87913	18814.975
632.86528	18841.075
636.84862	18712.375
640.82913	18453.975
644.80683	18043.275
648.78172	17847.175
652.75379	17895.775
656.72306	18088.075
660.68952	18332.575
664.65319	18229.675
668.61405	17936.375
672.57211	17887.375
676.52738	17997.875
680.47986	17987.575
684.42955	17855.275
688.37646	17747.975
692.32058	17905.775
696.26192	18152.175
700.20048	18443.475
704.13626	18592.975
708.06928	18515.875
711.99952	18428.575
715.927	18455.475
719.85171	18525.275
723.77365	18504.375
727.69284	18239.075
731.60928	17947.475
735.52295	17861.575
739.43388	17876.775
743.34206	17950.975
747.24749	18026.375
751.15017	18168.575
755.05012	18458.575
758.94733	18828.075
762.8418	19489.475
766.73354	20493.675
770.62254	21461.775
774.50882	21654.075
778.39237	20971.575
782.27321	19921.475
786.15132	19025.075
790.02671	18418.475
793.89938	18176.875
797.76935	18077.875
801.6366	18030.875
805.50115	17982.575
809.36299	17910.675
813.22213	17799.475
817.07857	17674.175
820.93231	17601.175
824.78336	17540.175
828.63172	17518.375
832.47738	17558.075
836.32036	17571.675
840.16066	17639.975
843.99827	17667.475
847.8332	17620.075
851.66546	17576.075
855.49504	17607.675
859.32195	17600.275
863.1462	17563.075
866.96777	17538.975
870.78668	17460.775
874.60293	17472.975
878.41652	17498.575
882.22745	17542.975
886.03573	17645.775
889.84136	17620.975
893.64433	17544.375
897.44466	17416.875
901.24235	17391.175
905.0374	17360.775
908.8298	17298.275
912.61957	17332.075
916.40671	17466.275
920.19121	17699.975
923.97308	17917.975
927.75233	18054.675
931.52895	17965.775
935.30295	17743.575
939.07433	17480.775
942.84309	17290.275
946.60924	17235.775
950.37278	17215.975
954.13371	17209.775
957.89203	17134.275
961.64774	17092.575
965.40086	17066.775
969.15137	17083.675
972.89929	17073.675
976.64461	17099.575
980.38733	17105.675
984.12747	17213.575
987.86502	17320.175
991.59999	17435.875
995.33237	17673.975
999.06217	18051.075
1002.78939	18551.075
1006.51404	18984.875
1010.23611	19329.675
1013.95561	19455.775
1017.67255	19376.675
1021.38692	19126.275
1025.09872	18851.575
1028.80796	18834.275
1032.51465	19190.475
1036.21877	19656.375
1039.92035	19784.675
1043.61937	19647.175
1047.31584	19370.275
1051.00976	18945.875
1054.70114	18714.375
1058.38998	18695.975
1062.07627	18749.775
1065.76003	18841.675
1069.44126	18992.575
1073.11995	19294.475
1076.79611	19598.975
1080.46974	19734.375
1084.14085	19807.375
1087.80943	19962.675
1091.47549	20060.375
1095.13903	20052.575
1098.80005	19829.175
1102.45857	19466.475
1106.11456	19130.075
1109.76805	18954.275
1113.41903	18884.075
1117.06751	18906.375
1120.71348	19010.175
1124.35696	19159.975
1127.99793	19322.575
1131.63641	19482.975
1135.2724	19431.375
1138.90589	19378.575
1142.5369	19396.075
1146.16542	19503.975
1149.79145	19598.475
1153.415	19660.875
1157.03607	19812.575
1160.65467	20193.475
1164.27079	20991.775
1167.88443	21952.575
1171.49561	22921.775
1175.10432	24089.175
1178.71056	25595.275
1182.31434	27137.475
1185.91565	27963.775
1189.51451	27854.975
1193.11091	27285.975
1196.70485	26470.075
1200.29634	25749.375
1203.88538	25221.475
1207.47197	24946.375
1211.05612	24705.275
1214.63782	24304.475
1218.21708	23789.575
1221.79391	23239.575
1225.36829	22870.675
1228.94024	22585.875
1232.50976	22296.475
1236.07685	21959.875
1239.6415	21698.475
1243.20374	21695.175
1246.76355	21901.875
1250.32093	22272.275
1253.8759	22687.575
1257.42845	23316.175
1260.97859	23976.875
1264.52631	24631.375
1268.07163	25327.175
1271.61453	26017.775
1275.15503	26667.275
1278.69312	27397.275
1282.22882	28054.375
1285.76211	28726.875
1289.29301	29657.375
1292.82151	30663.275
1296.34761	32076.375
1299.87133	33919.075
1303.39266	35858.575
1306.9116	37717.075
1310.42815	38959.675
1313.94233	39369.775
1317.45412	38844.475
1320.96354	37720.175
1324.47058	36748.775
1327.97525	36111.075
1331.47754	35747.275
1334.97747	35428.375
1338.47502	35015.175
1341.97022	34407.075
1345.46305	33752.775
1348.95352	33258.275
1352.44163	33502.175
1355.92738	34633.075
1359.41078	36510.075
1362.89183	37966.275
1366.37053	37604.275
1369.84688	35118.875
1373.32088	31463.575
1376.79254	28762.275
1380.26186	27709.275
1383.72883	27589.175
1387.19347	27608.675
1390.65578	27267.875
1394.11575	27034.275
1397.57339	27143.675
1401.0287	27556.475
1404.48168	27952.175
1407.93234	28046.275
1411.38068	27840.175
1414.82669	27235.275
1418.27039	26400.475
1421.71177	25514.075
1425.15083	24829.175
1428.58758	24485.475
1432.02203	24770.075
1435.45416	25451.575
1438.88399	26234.575
1442.31151	26749.975
1445.73673	26924.875
1449.15965	26926.575
1452.58027	26756.375
1455.9986	26531.175
1459.41463	26497.575
1462.82837	26875.475
1466.23982	27466.675
1469.64898	28032.475
1473.05586	28439.375
1476.46045	28604.675
1479.86276	28447.575
1483.26279	28175.075
1486.66054	27924.975
1490.05602	27964.175
1493.44922	28176.175
1496.84016	28340.775
1500.22882	28530.575
1503.61521	28938.075
1506.99934	29441.475
1510.38121	29814.075
1513.76081	29861.575
1517.13816	29433.375
1520.51324	28690.375
1523.88607	28146.975
1527.25665	27993.775
1530.62498	28057.875
1533.99105	28005.875
1537.35488	27678.075
1540.71647	27208.075
1544.07581	26640.275
1547.4329	26159.775
1550.78776	25644.675
1554.14038	25273.575
1557.49077	25045.175
1560.83892	24796.475
1564.18484	24629.975
1567.52853	24563.575
1570.86999	24717.575
1574.20922	25047.675
1577.54624	25320.875
1580.88103	25553.875
1584.2136	25920.275
1587.54395	26813.075
1590.87208	28440.275
1594.19801	30362.975
1597.52172	32224.975
1600.84321	32784.575
1604.16251	31343.675
1607.47959	28750.575
1610.79447	26034.875
1614.10715	23708.975
1617.41763	22013.775
1620.7259	20961.175
1624.03199	20490.975
1627.33587	20533.375
1630.63757	21179.775
1633.93707	22362.775
1637.23439	24358.375
1640.52951	27282.875
1643.82246	30768.475
1647.11321	33493.075
1650.40179	33766.575
1653.68819	31041.275
1656.97241	26860.875
1660.25446	23071.575
1663.53433	20502.475
1666.81203	18885.175
1670.08756	17949.575
1673.36092	17371.975
1676.63211	17014.975
1679.90115	16695.575
1683.16801	16510.875
1686.43272	16371.875
1689.69527	16202.975
1692.95567	16126.275
1696.2139	16033.075
1699.46999	15953.975
1702.72392	15899.475
1705.97571	15924.975
1709.22535	15957.475
1712.47284	15912.375
1715.71819	15918.575
1718.96139	15908.275
1722.20246	15833.075
1725.44139	15793.475
1728.67818	15747.675
1731.91284	15667.775
1735.14537	15585.775
1738.37576	15512.475
1741.60403	15472.975
1744.83017	15420.075
1748.05418	15356.075
1751.27607	15319.075
1754.49584	15270.875
1757.71349	15259.675
1760.92903	15209.575
1764.14244	15202.275
1767.35375	15247.875
1770.56294	15201.975
1773.77002	15203.775
1776.97499	15179.375
1780.17785	15205.475
1783.37861	15161.975
1786.57727	15157.975
1789.77382	15151.275
1792.96828	15128.175
1796.16064	15074.275
1799.3509	15067.275
1802.53907	15037.675
1805.72514	15002.275
1808.90913	14965.275
1812.09102	14952.675
1815.27083	14938.175
1818.44856	14905.875
1821.6242	14874.975
1824.79776	14870.575
1827.96924	14860.175
1831.13864	14839.975
1834.30597	14864.575
1837.47122	14839.375
1840.6344	14845.575
1843.7955	14848.875
1846.95454	14853.775
1850.11151	14855.675
1853.26642	14840.375
1856.41926	14868.675
1859.57004	14879.875
1862.71876	14814.075
1865.86542	14819.375
1869.01003	14796.675
1872.15258	14777.275
1875.29308	14758.175
1878.43152	14742.575
1881.56792	14708.075
1884.70227	14713.975
1887.83457	14702.875
1890.96482	14707.975
1894.09304	14668.575
1897.21921	14679.575
1900.34335	14635.175
1903.46544	14650.875
1906.58551	14626.675
1909.70353	14594.375
1912.81953	14599.775
1915.93349	14546.375
1919.04543	14519.075
1922.15534	14483.375
1925.26322	14456.475
1928.36908	14415.475
1931.47292	14424.075
1934.57473	14381.475
1937.67453	14324.875
1940.77232	14335.075
1943.86808	14262.875
1946.96184	14240.275
1950.05358	14224.875
1953.14331	14175.375
1956.23103	14101.475
1959.31675	14113.475
1962.40046	14068.375
1965.48217	14035.575
1968.56188	13997.675
1971.63959	13955.375
1974.7153	13903.275
1977.78901	13874.175
1980.86073	13840.175
1983.93046	13805.575
1986.99819	13767.075
1990.06394	13689.275
1993.1277	13686.275
1996.18947	13613.975
1999.24925	13598.875
2002.30706	13552.175
2005.36288	13527.675
2008.41672	13510.675
2011.46859	13465.175
2014.51848	13444.475
2017.56639	13428.675
2020.61233	13400.975
2023.6563	13352.375
2026.6983	13335.475
2029.73833	13305.475
2032.7764	13265.675
2035.8125	13268.075
2038.84664	13236.175
2041.87881	13222.175
2044.90903	13183.475
2047.93729	13168.675
2050.96359	13165.575
2053.98794	13135.575
2057.01034	13152.375
2060.03078	13108.675
2063.04927	13147.675
2066.06582	13147.475
2069.08042	13133.375
2072.09307	13107.475
2075.10378	13073.075
2078.11255	13083.075
2081.11938	13055.775
2084.12426	13073.975
2087.12722	13051.275
2090.12824	13073.275
2093.12732	13092.075
2096.12447	13067.975
2099.11969	13050.875
2102.11299	13086.275
2105.10435	13120.675
2108.09379	13104.175
2111.08131	13109.875
2114.0669	13114.475
2117.05057	13152.575
2120.03233	13132.375
2123.01216	13114.875
2125.99008	13172.375
2128.96609	13163.575
2131.94018	13158.675
2134.91236	13192.175
2137.88263	13185.775
2140.851	13185.275
2143.81746	13218.375
2146.78201	13191.575
2149.74466	13223.075
2152.7054	13236.075
2155.66425	13228.275
2158.6212	13200.675
2161.57625	13210.875
2164.52941	13227.675
2167.48067	13190.775
2170.43004	13190.775
2173.37752	13202.375
2176.32311	13209.275
2179.26681	13210.675
2182.20863	13199.875
2185.14856	13188.275
2188.08661	13216.375
2191.02278	13214.375
2193.95707	13211.475
2196.88948	13212.375
2199.82001	13228.375
2202.74867	13179.875
2205.67545	13182.175
2208.60037	13168.675
2211.52341	13163.175
2214.44458	13135.075
2217.36388	13117.575
2220.28132	13083.575
2223.1969	13070.475
2226.11061	13080.475
2229.02246	13098.275
2231.93245	13064.775
2234.84058	13013.975
2237.74686	13004.375
2240.65128	13014.875
2243.55385	12986.075
2246.45456	12949.675
2249.35343	12923.675
2252.25044	12900.175
2255.14561	12888.575
2258.03893	12870.675
2260.93041	12831.275
2263.82004	12790.275
2266.70783	12783.875
2269.59378	12782.475
2272.4779	12768.275
2275.36017	12765.075
2278.24061	12689.475
2281.11922	12697.175
2283.996	12704.575
2286.87094	12671.775
2289.74405	12631.775
2292.61534	12633.975
2295.4848	12642.775
2298.35243	12650.575
2301.21824	12632.475
2304.08223	12642.475
2306.94439	12664.375
2309.80474	12654.775
2312.66327	12665.375
2315.51999	12635.675
2318.37489	12646.275
2321.22797	12611.875
2324.07925	12586.875
2326.92871	12603.275
2329.77637	12599.075
2332.62222	12575.975
2335.46626	12551.875
2338.3085	12536.075
2341.14893	12551.075
2343.98756	12565.675
2346.8244	12508.475
2349.65943	12549.175
2352.49267	12531.775
2355.32411	12547.375
2358.15376	12497.975
2360.98161	12499.275
2363.80768	12489.475
2366.63195	12490.275
2369.45444	12465.975
2372.27514	12446.675
2375.09405	12439.575
2377.91118	12429.275
2380.72652	12424.675
2383.54009	12362.075
2386.35187	12351.675
2389.16188	12336.675
2391.97011	12309.675
2394.77657	12304.075
2397.58125	12312.975
2400.38416	12272.875
2403.18529	12259.775
2405.98466	12262.875
2408.78226	12220.675
2411.57809	12223.875
2414.37216	12185.275
2417.16446	12170.375
2419.955	12185.275
2422.74378	12189.375
2425.5308	12175.275
2428.31606	12142.775
2431.09956	12136.475
2433.88131	12128.675
2436.6613	12152.175
2439.43954	12120.775
2442.21603	12119.075
2444.99077	12107.875
2447.76377	12123.975
2450.53501	12111.575
2453.30451	12115.375
2456.07226	12075.275
2458.83827	12085.075
2461.60254	12103.775
2464.36507	12085.975
2467.12586	12095.375
2469.88492	12086.875
2472.64224	12125.375
2475.39782	12126.975
2478.15167	12112.275
2480.90379	12102.775
2483.65417	12094.075
2486.40283	12095.975
2489.14976	12083.975
2491.89497	12115.975
2494.63845	12119.675
2497.3802	12087.575
2500.12024	12098.275
2502.85855	12044.675
2505.59514	12065.575
2508.33002	12073.775
2511.06318	12055.075
2513.79462	12050.575
2516.52435	12022.475
2519.25237	12011.775
2521.97867	12039.075
2524.70327	12031.575
2527.42616	12014.975
2530.14734	12023.175
2532.86681	12003.875
2535.58458	11996.775
2538.30065	11961.175
2541.01501	11981.875
2543.72768	11963.475
2546.43864	11999.775
2549.14791	11960.175
2551.85548	11941.175
2554.56136	11959.475
2557.26554	11934.575
2559.96803	11927.875
2562.66883	11943.375
2565.36794	11937.275
2568.06536	11908.175
2570.7611	11906.175
2573.45514	11854.275
2576.14751	11869.775
2578.83819	11860.975
2581.52719	11849.475
2584.21451	11848.275
2586.90015	11837.275
2589.58411	11824.375
2592.2664	11834.675
2594.94701	11793.675
2597.62594	11795.575
2600.30321	11772.575
2602.9788	11786.175
2605.65273	11764.475
2608.32498	11759.675
2610.99557	11752.075
2613.66449	11765.575
2616.33175	11760.275
2618.99734	11751.875
2621.66128	11756.075
2624.32355	11716.775
2626.98416	11718.975
2629.64311	11722.875
2632.30041	11702.675
2634.95605	11681.375
2637.61004	11649.275
2640.26238	11660.375
2642.91306	11670.075
2645.56209	11663.375
2648.20948	11678.675
2650.85521	11627.875
2653.4993	11670.175
2656.14175	11667.575
2658.78255	11685.175
2661.42171	11663.875
2664.05923	11678.475
2666.6951	11690.575
2669.32934	11710.775
2671.96194	11690.375
2674.59291	11722.875
2677.22224	11695.675
2679.84993	11696.975
2682.476	11669.475
2685.10043	11685.175
2687.72324	11666.275
2690.34441	11653.075
2692.96396	11674.475
2695.58188	11672.175
2698.19818	11667.375
2700.81285	11675.275
2703.4259	11625.375
2706.03733	11647.375
2708.64714	11635.075
2711.25533	11660.575
2713.86191	11691.675
2716.46687	11703.675
2719.07021	11678.675
2721.67194	11713.175
2724.27206	11699.875
2726.87057	11738.075
2729.46747	11724.475
2732.06276	11723.775
2734.65644	11733.375
2737.24852	11730.275
2739.83899	11720.475
2742.42786	11732.375
2745.01513	11687.775
2747.60079	11689.875
2750.18486	11687.675
2752.76733	11694.875
2755.3482	11670.775
2757.92747	11699.675
2760.50515	11670.875
2763.08123	11656.375
2765.65573	11667.075
2768.22863	11647.875
2770.79994	11648.475
2773.36967	11641.275
2775.9378	11651.675
2778.50435	11632.975
2781.06932	11603.875
2783.6327	11627.775
2786.1945	11602.475
2788.75471	11577.575
2791.31335	11553.175
2793.87041	11568.275
2796.42589	11551.375
2798.97979	11530.875
2801.53212	11525.075
2804.08288	11488.175
2806.63206	11477.475
2809.17967	11455.975
2811.72571	11434.775
2814.27018	11401.775
2816.81308	11398.975
2819.35442	11383.675
2821.89419	11347.575
2824.43239	11370.575
2826.96904	11353.475
2829.50412	11351.475
2832.03763	11335.875
2834.56959	11337.675
2837.1	11306.875
2839.62884	11317.575
2842.15613	11306.175
2844.68186	11332.475
2847.20604	11348.375
2849.72867	11348.075
2852.24974	11327.475
2854.76927	11349.575
2857.28724	11310.175
2859.80367	11318.775
2862.31855	11277.775
2864.83189	11261.675
2867.34368	11259.975
2869.85393	11286.675
2872.36264	11231.175
2874.8698	11238.175
2877.37543	11251.675
2879.87952	11215.475
2882.38207	11233.375
2884.88308	11237.475
2887.38256	11251.975
2889.88051	11238.375
2892.37692	11244.175
2894.8718	11246.275
2897.36515	11246.875
2899.85698	11257.375
2902.34727	11279.875
2904.83604	11269.875
2907.32328	11306.175
2909.809	11316.475
2912.29319	11314.175
2914.77587	11303.275
2917.25702	11333.375
2919.73665	11272.675
2922.21476	11284.975
2924.69136	11286.675
2927.16644	11276.475
2929.64	11275.575
2932.11205	11265.875
2934.58258	11217.775
2937.05161	11255.975
2939.51912	11238.975
2941.98513	11219.175
2944.44962	11185.875
2946.91261	11140.975
2949.37409	11169.875
2951.83407	11166.675
2954.29254	11149.275
2956.74951	11122.475
2959.20498	11124.175
2961.65895	11107.175
2964.11142	11096.875
2966.56239	11071.575
2969.01186	11059.975
2971.45984	11084.775
2973.90632	11070.275
2976.35131	11025.775
2978.7948	11038.375
2981.23681	10981.575
2983.67732	10986.375
2986.11635	10939.675
2988.55388	10907.175
2990.98993	10874.375
2993.4245	10846.475
2995.85758	10866.875
2998.28917	10813.075
3000.71928	10810.775
3003.14791	10778.875
3005.57506	10779.875
3008.00073	10734.675
3010.42493	10736.475
3012.84764	10765.375
3015.26888	10729.875
3017.68865	10739.375
3020.10694	10692.175
3022.52376	10684.075
3024.9391	10663.475
3027.35298	10658.875
3029.76539	10667.975
3032.17632	10634.875
3034.5858	10612.775
3036.9938	10613.075
3039.40034	10609.575
3041.80542	10607.575
3044.20903	10584.175
3046.61118	10598.575
3049.01187	10574.675
3051.4111	10570.875
3053.80888	10543.975
3056.20519	10508.575
3058.60005	10501.875
3060.99345	10480.175
3063.3854	10456.175
3065.7759	10427.975
3068.16494	10417.075
3070.55254	10403.975
3072.93868	10392.175
3075.32338	10360.175
3077.70662	10325.375
3080.08842	10298.875
3082.46878	10298.975
3084.84769	10284.775
3087.22515	10288.475
3089.60118	10286.175
3091.97576	10303.575
3094.3489	10272.275
3096.72061	10260.975
3099.09087	10275.075
3101.4597	10268.175
3103.82709	10271.775
3106.19305	10245.275
3108.55757	10259.275
3110.92066	10202.675
3113.28232	10209.675
3115.64255	10195.575
3118.00134	10163.975
3120.35871	10165.275
3122.71466	10153.275
3125.06917	10139.775
3127.42226	10085.175
3129.77393	10100.675
