Data from AgNPs_FTO_APTES_UA_1uM_CRN_1uM_R6G_10uM_NaF_0.1M_Addition_RamanShift__20__12-35-29-505.txt Node

Date: Thu Jan 27 12:35:29 GMT 2022
User: TCL
Spectrometer: QEP01345
Trigger mode: 4
Integration Time (sec): 7.000000E0
Scans to average: 10
Electric dark correction enabled: true
Nonlinearity correction enabled: false
Boxcar width: 0
XAxis mode: Raman Shifts
Number of Pixels in Spectrum: 1044
>>>>>Begin Spectral Data<<<<<
46.04893	1.1625
50.45542	0.7625
54.85868	-1.7375
59.25871	-1.4375
63.6555	63.6625
68.04907	63.2625
72.43941	62.7625
76.82654	70.4625
81.21044	73.0625
85.59113	70.3625
89.96862	76.4625
94.34289	77.1625
98.71396	81.1625
103.08183	83.4625
107.4465	85.2625
111.80798	85.7625
116.16626	87.3625
120.52136	97.0625
124.87327	96.9625
129.222	100.8625
133.56755	103.7625
137.90993	112.1625
142.24913	121.3625
146.58517	136.2625
150.91804	157.3625
155.24774	182.8625
159.57429	224.5625
163.89768	290.2625
168.21792	380.5625
172.53501	512.7625
176.84895	707.3625
181.15975	991.2625
185.46741	1385.9625
189.77193	1913.6625
194.07331	2552.4625
198.37157	3282.0625
202.6667	4079.1625
206.9587	4843.4625
211.24758	5609.8625
215.53334	6375.0625
219.81599	7199.0625
224.09553	8102.3625
228.37195	9103.8625
232.64527	10230.4625
236.91549	11421.4625
241.18261	12617.9625
245.44663	13685.2625
249.70755	14637.8625
253.96539	15461.1625
258.22014	16149.4625
262.4718	16706.9625
266.72039	17149.2625
270.96589	17430.8625
275.20832	17408.0625
279.44768	17295.8625
283.68397	17074.7625
287.91719	16929.6625
292.14735	16819.2625
296.37445	16856.7625
300.59849	16971.2625
304.81948	17125.2625
309.03742	17208.2625
313.25231	17098.4625
317.46415	16645.3625
321.67296	16102.1625
325.87872	15630.1625
330.08145	15416.6625
334.28114	15412.8625
338.47781	15567.2625
342.67145	15778.6625
346.86207	16154.2625
351.04966	16554.6625
355.23424	17066.7625
359.4158	17478.1625
363.59435	17824.1625
367.76989	18000.5625
371.94243	18096.6625
376.11196	18197.1625
380.27849	18333.7625
384.44203	18372.7625
388.60257	18451.6625
392.76012	18556.0625
396.91468	18787.1625
401.06626	19114.2625
405.21485	19377.8625
409.36047	19321.2625
413.50311	18939.4625
417.64277	18657.9625
421.77947	18552.1625
425.9132	18569.3625
430.04396	18658.8625
434.17176	18736.9625
438.2966	18949.3625
442.41849	19276.3625
446.53742	19764.1625
450.6534	20308.6625
454.76644	20825.8625
458.87653	21025.8625
462.98368	20913.1625
467.08789	20577.6625
471.18916	20159.6625
475.2875	19744.3625
479.38291	19503.2625
483.4754	19349.3625
487.56496	19131.2625
491.6516	18942.7625
495.73531	18766.5625
499.81612	18690.1625
503.89401	18772.1625
507.96899	18847.4625
512.04106	18851.8625
516.11023	18848.0625
520.1765	18872.6625
524.23987	18753.7625
528.30034	18609.5625
532.35792	18402.2625
536.41261	18123.0625
540.46441	17903.7625
544.51333	17825.7625
548.55936	18001.1625
552.60252	18347.8625
556.64279	18697.4625
560.6802	18864.5625
564.71473	18891.2625
568.7464	19154.1625
572.7752	19499.3625
576.80114	19721.7625
580.82422	19925.7625
584.84444	20215.4625
588.86181	20497.2625
592.87633	20820.6625
596.888	21038.6625
600.89682	21232.6625
604.9028	22151.5625
608.90594	24733.3625
612.90624	27691.1625
616.90371	26506.6625
620.89834	21919.9625
624.89015	19860.6625
628.87913	19673.5625
632.86528	19596.3625
636.84862	19170.9625
640.82913	18755.1625
644.80683	18216.1625
648.78172	17766.8625
652.75379	17735.3625
656.72306	18008.8625
660.68952	18429.2625
664.65319	18422.9625
668.61405	18053.9625
672.57211	17863.5625
676.52738	17841.1625
680.47986	17808.6625
684.42955	17713.0625
688.37646	17679.2625
692.32058	17782.4625
696.26192	17945.7625
700.20048	18159.2625
704.13626	18280.0625
708.06928	18159.7625
711.99952	17971.9625
715.927	17935.2625
719.85171	17960.3625
723.77365	17900.4625
727.69284	17715.5625
731.60928	17582.4625
735.52295	17536.0625
739.43388	17575.1625
743.34206	17711.1625
747.24749	17802.9625
751.15017	17977.0625
755.05012	18266.4625
758.94733	18766.9625
762.8418	19713.2625
766.73354	21294.0625
770.62254	22991.0625
774.50882	23681.2625
778.39237	22807.8625
782.27321	20966.4625
786.15132	19433.3625
790.02671	18508.5625
793.89938	18098.4625
797.76935	17995.2625
801.6366	17944.3625
805.50115	17861.1625
809.36299	17733.7625
813.22213	17607.9625
817.07857	17496.1625
820.93231	17453.3625
824.78336	17465.1625
828.63172	17490.0625
832.47738	17536.8625
836.32036	17633.0625
840.16066	17802.1625
843.99827	17939.0625
847.8332	17857.3625
851.66546	17680.9625
855.49504	17611.4625
859.32195	17588.3625
863.1462	17510.9625
866.96777	17388.8625
870.78668	17294.5625
874.60293	17315.4625
878.41652	17329.2625
882.22745	17369.2625
886.03573	17479.8625
889.84136	17469.3625
893.64433	17350.6625
897.44466	17293.2625
901.24235	17232.7625
905.0374	17172.7625
908.8298	17112.2625
912.61957	17184.8625
916.40671	17327.3625
920.19121	17586.7625
923.97308	17888.5625
927.75233	18129.0625
931.52895	18182.7625
935.30295	18088.5625
939.07433	17679.1625
942.84309	17345.6625
946.60924	17221.4625
950.37278	17133.8625
954.13371	17036.0625
957.89203	16862.4625
961.64774	16762.1625
965.40086	16672.6625
969.15137	16578.0625
972.89929	16528.8625
976.64461	16524.0625
980.38733	16554.3625
984.12747	16664.9625
987.86502	16946.8625
991.59999	17286.3625
995.33237	17803.6625
999.06217	18688.6625
1002.78939	19610.7625
1006.51404	20050.2625
1010.23611	20139.4625
1013.95561	20205.9625
1017.67255	20230.6625
1021.38692	20019.6625
1025.09872	19918.7625
1028.80796	20421.4625
1032.51465	21630.2625
1036.21877	22709.8625
1039.92035	22774.9625
1043.61937	22091.2625
1047.31584	21012.9625
1051.00976	19880.5625
1054.70114	19222.4625
1058.38998	19039.4625
1062.07627	19005.4625
1065.76003	18944.8625
1069.44126	18944.3625
1073.11995	19069.7625
1076.79611	19301.3625
1080.46974	19526.2625
1084.14085	19675.5625
1087.80943	19903.9625
1091.47549	19995.5625
1095.13903	19824.5625
1098.80005	19483.9625
1102.45857	19062.7625
1106.11456	18833.3625
1109.76805	18882.0625
1113.41903	19007.4625
1117.06751	19199.1625
1120.71348	19417.6625
1124.35696	19635.4625
1127.99793	19871.6625
1131.63641	19994.0625
1135.2724	19800.4625
1138.90589	19502.6625
1142.5369	19267.8625
1146.16542	19109.7625
1149.79145	19043.0625
1153.415	19081.0625
1157.03607	19217.0625
1160.65467	19583.6625
1164.27079	20182.1625
1167.88443	21161.6625
1171.49561	22612.8625
1175.10432	24524.9625
1178.71056	26958.0625
1182.31434	29370.7625
1185.91565	30826.4625
1189.51451	30867.9625
1193.11091	29581.1625
1196.70485	27845.9625
1200.29634	26227.0625
1203.88538	25099.6625
1207.47197	24217.8625
1211.05612	23522.0625
1214.63782	23117.4625
1218.21708	22998.1625
1221.79391	23197.1625
1225.36829	23431.2625
1228.94024	23349.7625
1232.50976	22932.9625
1236.07685	22511.4625
1239.6415	22243.4625
1243.20374	22103.0625
1246.76355	22189.1625
1250.32093	22520.6625
1253.8759	23095.1625
1257.42845	23866.7625
1260.97859	24612.4625
1264.52631	25225.0625
1268.07163	25981.8625
1271.61453	26817.5625
1275.15503	27827.0625
1278.69312	28868.6625
1282.22882	29660.1625
1285.76211	30207.1625
1289.29301	30579.2625
1292.82151	31116.6625
1296.34761	32033.4625
1299.87133	33558.2625
1303.39266	35730.2625
1306.9116	38594.4625
1310.42815	41652.8625
1313.94233	43615.0625
1317.45412	43579.6625
1320.96354	41970.8625
1324.47058	39999.8625
1327.97525	38298.2625
1331.47754	37050.2625
1334.97747	36345.3625
1338.47502	36229.9625
1341.97022	36293.9625
1345.46305	36153.9625
1348.95352	35877.9625
1352.44163	35942.3625
1355.92738	37008.0625
1359.41078	39417.7625
1362.89183	41845.3625
1366.37053	41462.2625
1369.84688	37729.6625
1373.32088	33295.5625
1376.79254	30072.1625
1380.26186	28551.7625
1383.72883	27959.8625
1387.19347	27581.4625
1390.65578	27208.2625
1394.11575	26945.0625
1397.57339	27082.5625
1401.0287	27630.5625
1404.48168	28096.7625
1407.93234	28443.8625
1411.38068	28533.1625
1414.82669	28260.9625
1418.27039	27561.1625
1421.71177	26711.3625
1425.15083	25954.1625
1428.58758	25526.8625
1432.02203	25464.9625
1435.45416	25784.3625
1438.88399	26219.6625
1442.31151	26542.6625
1445.73673	26794.3625
1449.15965	27027.3625
1452.58027	27088.5625
1455.9986	27032.4625
1459.41463	27043.8625
1462.82837	27382.3625
1466.23982	27947.9625
1469.64898	28567.8625
1473.05586	28916.2625
1476.46045	29095.2625
1479.86276	29147.0625
1483.26279	29086.4625
1486.66054	29144.1625
1490.05602	29347.0625
1493.44922	29759.8625
1496.84016	30132.1625
1500.22882	30745.1625
1503.61521	31685.7625
1506.99934	33037.2625
1510.38121	34332.3625
1513.76081	34947.9625
1517.13816	34150.3625
1520.51324	32427.2625
1523.88607	30582.6625
1527.25665	29289.5625
1530.62498	28510.5625
1533.99105	28031.8625
1537.35488	27721.6625
1540.71647	27563.2625
1544.07581	27307.6625
1547.4329	27059.7625
1550.78776	26816.9625
1554.14038	26660.7625
1557.49077	26532.3625
1560.83892	26525.6625
1564.18484	26456.9625
1567.52853	26448.4625
1570.86999	26523.5625
1574.20922	26665.5625
1577.54624	26784.5625
1580.88103	26691.1625
1584.2136	26588.7625
1587.54395	27094.6625
1590.87208	28463.6625
1594.19801	30553.4625
1597.52172	32857.1625
1600.84321	33939.5625
1604.16251	32713.5625
1607.47959	30040.5625
1610.79447	27259.3625
1614.10715	24806.3625
1617.41763	22933.8625
1620.7259	21738.9625
1624.03199	21160.8625
1627.33587	21227.4625
1630.63757	21914.3625
1633.93707	23245.7625
1637.23439	25088.5625
1640.52951	27394.0625
1643.82246	29742.0625
1647.11321	31500.4625
1650.40179	31793.9625
1653.68819	29972.2625
1656.97241	26569.3625
1660.25446	23083.5625
1663.53433	20551.6625
1666.81203	18932.0625
1670.08756	17973.8625
1673.36092	17393.8625
1676.63211	16998.7625
1679.90115	16678.8625
1683.16801	16487.1625
1686.43272	16314.2625
1689.69527	16198.3625
1692.95567	16115.7625
1696.2139	16006.0625
1699.46999	15920.8625
1702.72392	15900.7625
1705.97571	15867.7625
1709.22535	15897.9625
1712.47284	15967.3625
1715.71819	15935.9625
1718.96139	15917.4625
1722.20246	15868.6625
1725.44139	15828.1625
1728.67818	15731.6625
1731.91284	15670.0625
1735.14537	15577.0625
1738.37576	15511.8625
1741.60403	15490.2625
1744.83017	15405.2625
1748.05418	15381.2625
1751.27607	15338.9625
1754.49584	15296.9625
1757.71349	15282.7625
1760.92903	15275.3625
1764.14244	15258.1625
1767.35375	15238.9625
1770.56294	15223.7625
1773.77002	15211.0625
1776.97499	15204.9625
1780.17785	15190.9625
1783.37861	15211.8625
1786.57727	15219.2625
1789.77382	15211.1625
1792.96828	15177.8625
1796.16064	15188.6625
1799.3509	15130.5625
1802.53907	15138.3625
1805.72514	15095.7625
1808.90913	15066.0625
1812.09102	15069.3625
1815.27083	15014.4625
1818.44856	14998.3625
1821.6242	14961.9625
1824.79776	14990.1625
1827.96924	14969.6625
1831.13864	14953.8625
1834.30597	14955.1625
1837.47122	14954.8625
1840.6344	14968.6625
1843.7955	14976.9625
1846.95454	15012.1625
1850.11151	14965.4625
1853.26642	14990.2625
1856.41926	14999.3625
1859.57004	15027.7625
1862.71876	15039.4625
1865.86542	15028.4625
1869.01003	15024.2625
1872.15258	15034.3625
1875.29308	15002.5625
1878.43152	15041.5625
1881.56792	15024.7625
1884.70227	15049.3625
1887.83457	15036.0625
1890.96482	15029.1625
1894.09304	15023.6625
1897.21921	15033.9625
1900.34335	15026.9625
1903.46544	15046.4625
1906.58551	15035.2625
1909.70353	15014.0625
1912.81953	15017.8625
1915.93349	14988.8625
1919.04543	14977.5625
1922.15534	14910.9625
1925.26322	14848.7625
1928.36908	14822.3625
1931.47292	14796.6625
1934.57473	14741.9625
1937.67453	14712.7625
1940.77232	14644.0625
1943.86808	14590.8625
1946.96184	14512.2625
1950.05358	14478.2625
1953.14331	14425.4625
1956.23103	14391.2625
1959.31675	14326.8625
1962.40046	14287.8625
1965.48217	14236.3625
1968.56188	14222.6625
1971.63959	14183.5625
1974.7153	14162.3625
1977.78901	14097.8625
1980.86073	14042.7625
1983.93046	14038.7625
1986.99819	13952.6625
1990.06394	13932.1625
1993.1277	13886.6625
1996.18947	13861.8625
1999.24925	13796.6625
2002.30706	13758.0625
2005.36288	13753.7625
2008.41672	13720.3625
2011.46859	13662.8625
2014.51848	13623.9625
2017.56639	13594.5625
2020.61233	13592.9625
2023.6563	13554.5625
2026.6983	13548.8625
2029.73833	13497.4625
2032.7764	13477.2625
2035.8125	13494.9625
2038.84664	13454.3625
2041.87881	13431.9625
2044.90903	13455.1625
2047.93729	13412.0625
2050.96359	13397.2625
2053.98794	13369.8625
2057.01034	13362.4625
2060.03078	13356.8625
2063.04927	13359.4625
2066.06582	13349.4625
2069.08042	13331.2625
2072.09307	13332.4625
2075.10378	13296.3625
2078.11255	13301.9625
2081.11938	13295.8625
2084.12426	13266.2625
2087.12722	13266.4625
2090.12824	13278.2625
2093.12732	13244.5625
2096.12447	13240.1625
2099.11969	13271.0625
2102.11299	13247.9625
2105.10435	13275.3625
2108.09379	13262.0625
2111.08131	13298.6625
2114.0669	13277.6625
2117.05057	13307.4625
2120.03233	13308.1625
2123.01216	13309.9625
2125.99008	13297.0625
2128.96609	13329.2625
2131.94018	13340.4625
2134.91236	13327.8625
2137.88263	13349.2625
2140.851	13358.0625
2143.81746	13373.3625
2146.78201	13387.9625
2149.74466	13401.8625
2152.7054	13413.9625
2155.66425	13368.1625
2158.6212	13401.1625
2161.57625	13405.8625
2164.52941	13398.2625
2167.48067	13374.6625
2170.43004	13382.4625
2173.37752	13390.7625
2176.32311	13388.9625
2179.26681	13397.1625
2182.20863	13403.0625
2185.14856	13436.6625
2188.08661	13409.6625
2191.02278	13426.3625
2193.95707	13434.8625
2196.88948	13440.7625
2199.82001	13429.9625
2202.74867	13430.8625
2205.67545	13458.6625
2208.60037	13439.3625
2211.52341	13438.8625
2214.44458	13434.1625
2217.36388	13417.9625
2220.28132	13388.8625
2223.1969	13377.6625
2226.11061	13384.5625
2229.02246	13341.3625
2231.93245	13305.9625
2234.84058	13292.5625
2237.74686	13257.5625
2240.65128	13279.5625
2243.55385	13233.4625
2246.45456	13216.3625
2249.35343	13168.1625
2252.25044	13174.8625
2255.14561	13136.9625
2258.03893	13158.5625
2260.93041	13145.6625
2263.82004	13086.0625
2266.70783	13062.4625
2269.59378	13016.0625
2272.4779	12992.6625
2275.36017	12998.4625
2278.24061	12979.6625
2281.11922	12960.4625
2283.996	12903.9625
2286.87094	12905.0625
2289.74405	12916.8625
2292.61534	12925.9625
2295.4848	12899.7625
2298.35243	12908.9625
2301.21824	12923.3625
2304.08223	12934.5625
2306.94439	12961.3625
2309.80474	12937.6625
2312.66327	12986.0625
2315.51999	12988.9625
2318.37489	13019.4625
2321.22797	13020.0625
2324.07925	13014.9625
2326.92871	12980.4625
2329.77637	12971.0625
2332.62222	12981.2625
2335.46626	12961.8625
2338.3085	12979.1625
2341.14893	12969.7625
2343.98756	13010.4625
2346.8244	13022.2625
2349.65943	13042.8625
2352.49267	13019.7625
2355.32411	13046.4625
2358.15376	12996.0625
2360.98161	12994.7625
2363.80768	12956.4625
2366.63195	12934.0625
2369.45444	12909.1625
2372.27514	12869.5625
2375.09405	12846.3625
2377.91118	12822.9625
2380.72652	12791.0625
2383.54009	12763.9625
2386.35187	12745.0625
2389.16188	12712.9625
2391.97011	12689.2625
2394.77657	12684.3625
2397.58125	12666.0625
2400.38416	12641.3625
2403.18529	12627.4625
2405.98466	12559.4625
2408.78226	12558.3625
2411.57809	12525.7625
2414.37216	12490.0625
2417.16446	12499.2625
2419.955	12497.7625
2422.74378	12488.5625
2425.5308	12462.2625
2428.31606	12448.4625
2431.09956	12441.1625
2433.88131	12424.1625
2436.6613	12440.0625
2439.43954	12411.1625
2442.21603	12427.1625
2444.99077	12438.3625
2447.76377	12451.7625
2450.53501	12442.6625
2453.30451	12438.6625
2456.07226	12392.0625
2458.83827	12380.3625
2461.60254	12406.2625
2464.36507	12401.5625
2467.12586	12416.5625
2469.88492	12413.2625
2472.64224	12443.1625
2475.39782	12442.2625
2478.15167	12460.1625
2480.90379	12450.4625
2483.65417	12455.9625
2486.40283	12466.5625
2489.14976	12495.9625
2491.89497	12485.2625
2494.63845	12518.7625
2497.3802	12496.6625
2500.12024	12512.0625
2502.85855	12500.9625
2505.59514	12490.8625
2508.33002	12473.1625
2511.06318	12452.1625
2513.79462	12420.2625
2516.52435	12407.9625
2519.25237	12385.7625
2521.97867	12402.2625
2524.70327	12379.8625
2527.42616	12373.1625
2530.14734	12376.5625
2532.86681	12391.4625
2535.58458	12382.9625
2538.30065	12369.7625
2541.01501	12389.1625
2543.72768	12372.1625
2546.43864	12374.9625
2549.14791	12356.4625
2551.85548	12323.8625
2554.56136	12320.8625
2557.26554	12318.4625
2559.96803	12283.2625
2562.66883	12271.2625
2565.36794	12302.0625
2568.06536	12291.7625
2570.7611	12261.7625
2573.45514	12271.8625
2576.14751	12275.6625
2578.83819	12238.0625
2581.52719	12259.5625
2584.21451	12302.7625
2586.90015	12283.7625
2589.58411	12283.3625
2592.2664	12275.4625
2594.94701	12270.3625
2597.62594	12249.6625
2600.30321	12246.0625
2602.9788	12236.2625
2605.65273	12198.9625
2608.32498	12205.8625
2610.99557	12199.5625
2613.66449	12250.6625
2616.33175	12237.4625
2618.99734	12243.9625
2621.66128	12226.2625
2624.32355	12252.0625
2626.98416	12224.8625
2629.64311	12259.6625
2632.30041	12267.4625
2634.95605	12256.1625
2637.61004	12217.5625
2640.26238	12190.8625
2642.91306	12177.0625
2645.56209	12144.4625
2648.20948	12154.8625
2650.85521	12143.5625
2653.4993	12121.0625
2656.14175	12129.7625
2658.78255	12128.3625
2661.42171	12145.5625
2664.05923	12170.3625
2666.6951	12161.4625
2669.32934	12195.5625
2671.96194	12178.6625
2674.59291	12196.1625
2677.22224	12189.5625
2679.84993	12187.5625
2682.476	12164.8625
2685.10043	12147.6625
2687.72324	12130.6625
2690.34441	12106.1625
2692.96396	12093.4625
2695.58188	12111.2625
2698.19818	12078.0625
2700.81285	12081.6625
2703.4259	12065.9625
2706.03733	12073.3625
2708.64714	12051.4625
2711.25533	12079.8625
2713.86191	12077.2625
2716.46687	12124.7625
2719.07021	12127.5625
2721.67194	12132.1625
2724.27206	12128.1625
2726.87057	12144.6625
2729.46747	12144.7625
2732.06276	12142.6625
2734.65644	12117.9625
2737.24852	12099.0625
2739.83899	12096.9625
2742.42786	12110.0625
2745.01513	12097.4625
2747.60079	12088.9625
2750.18486	12071.5625
2752.76733	12060.0625
2755.3482	12065.3625
2757.92747	12091.8625
2760.50515	12060.0625
2763.08123	12089.5625
2765.65573	12058.3625
2768.22863	12071.3625
2770.79994	12073.3625
2773.36967	12062.2625
2775.9378	12066.8625
2778.50435	12080.7625
2781.06932	12059.5625
2783.6327	12061.7625
2786.1945	12057.5625
2788.75471	12064.2625
2791.31335	12026.2625
2793.87041	12003.1625
2796.42589	11967.5625
2798.97979	11982.4625
2801.53212	11954.8625
2804.08288	11945.7625
2806.63206	11896.5625
2809.17967	11896.7625
2811.72571	11869.1625
2814.27018	11855.1625
2816.81308	11826.6625
2819.35442	11835.0625
2821.89419	11815.0625
2824.43239	11840.4625
2826.96904	11803.6625
2829.50412	11825.8625
2832.03763	11825.0625
2834.56959	11822.0625
2837.1	11826.5625
2839.62884	11823.6625
2842.15613	11799.9625
2844.68186	11834.7625
2847.20604	11844.1625
2849.72867	11820.9625
2852.24974	11820.7625
2854.76927	11781.7625
2857.28724	11798.1625
2859.80367	11779.5625
2862.31855	11743.5625
2864.83189	11750.5625
2867.34368	11759.8625
2869.85393	11759.5625
2872.36264	11756.2625
2874.8698	11747.0625
2877.37543	11756.0625
2879.87952	11731.8625
2882.38207	11753.6625
2884.88308	11744.3625
2887.38256	11769.6625
2889.88051	11776.4625
2892.37692	11767.5625
2894.8718	11780.2625
2897.36515	11790.4625
2899.85698	11808.1625
2902.34727	11850.4625
2904.83604	11882.2625
2907.32328	11856.0625
2909.809	11883.3625
2912.29319	11875.2625
2914.77587	11864.9625
2917.25702	11851.8625
2919.73665	11841.4625
2922.21476	11834.7625
2924.69136	11814.3625
2927.16644	11817.8625
2929.64	11799.2625
2932.11205	11791.4625
2934.58258	11751.2625
2937.05161	11741.5625
2939.51912	11763.1625
2941.98513	11733.3625
2944.44962	11722.5625
2946.91261	11665.1625
2949.37409	11720.4625
2951.83407	11683.7625
2954.29254	11677.6625
2956.74951	11684.6625
2959.20498	11658.8625
2961.65895	11646.4625
2964.11142	11662.9625
2966.56239	11609.2625
2969.01186	11614.5625
2971.45984	11582.2625
2973.90632	11561.8625
2976.35131	11518.5625
2978.7948	11472.5625
2981.23681	11476.9625
2983.67732	11465.8625
2986.11635	11428.9625
2988.55388	11371.5625
2990.98993	11360.4625
2993.4245	11334.8625
2995.85758	11316.5625
2998.28917	11302.2625
3000.71928	11283.5625
3003.14791	11269.7625
3005.57506	11265.7625
3008.00073	11229.4625
3010.42493	11219.7625
3012.84764	11197.1625
3015.26888	11206.9625
3017.68865	11153.4625
3020.10694	11155.1625
3022.52376	11143.3625
3024.9391	11153.4625
