Data from AgNPs_FTO_APTES_UA_1uM_CRN_10uM_R6G_10uM_NaF_0.1M_Addition_RamanShift__13__14-30-59-637.txt Node

Date: Thu Jan 27 14:30:59 GMT 2022
User: TCL
Spectrometer: QEP01345
Trigger mode: 4
Integration Time (sec): 7.000000E0
Scans to average: 10
Electric dark correction enabled: true
Nonlinearity correction enabled: false
Boxcar width: 0
XAxis mode: Raman Shifts
Number of Pixels in Spectrum: 1044
>>>>>Begin Spectral Data<<<<<
46.04893	1.975
50.45542	0.675
54.85868	-0.725
59.25871	-1.925
63.6555	51.775
68.04907	53.175
72.43941	56.475
76.82654	58.175
81.21044	61.775
85.59113	61.475
89.96862	62.775
94.34289	64.375
98.71396	73.175
103.08183	73.575
107.4465	73.375
111.80798	77.575
116.16626	76.075
120.52136	76.075
124.87327	82.375
129.222	78.275
133.56755	88.075
137.90993	95.875
142.24913	99.975
146.58517	114.375
150.91804	129.675
155.24774	152.875
159.57429	183.375
163.89768	232.375
168.21792	304.375
172.53501	415.275
176.84895	574.775
181.15975	805.675
185.46741	1120.375
189.77193	1547.975
194.07331	2087.675
198.37157	2696.775
202.6667	3344.175
206.9587	3988.375
211.24758	4602.575
215.53334	5218.975
219.81599	5852.175
224.09553	6547.575
228.37195	7324.775
232.64527	8163.575
236.91549	9075.275
241.18261	10023.075
245.44663	10904.175
249.70755	11765.275
253.96539	12513.375
258.22014	13136.675
262.4718	13636.275
266.72039	13978.275
270.96589	14163.375
275.20832	14202.575
279.44768	14138.275
283.68397	14033.175
287.91719	13903.175
292.14735	13796.075
296.37445	13709.475
300.59849	13711.775
304.81948	13705.975
309.03742	13689.075
313.25231	13573.475
317.46415	13393.875
321.67296	13158.375
325.87872	12965.975
330.08145	12895.875
334.28114	12930.175
338.47781	13006.975
342.67145	13156.875
346.86207	13332.875
351.04966	13512.675
355.23424	13688.875
359.4158	13864.975
363.59435	13996.575
367.76989	14158.075
371.94243	14242.375
376.11196	14326.375
380.27849	14360.775
384.44203	14445.475
388.60257	14482.175
392.76012	14619.975
396.91468	14823.675
401.06626	14992.375
405.21485	15132.575
409.36047	15120.975
413.50311	14979.375
417.64277	14885.575
421.77947	14886.175
425.9132	14961.575
430.04396	15031.275
434.17176	15096.675
438.2966	15177.375
442.41849	15288.975
446.53742	15443.475
450.6534	15714.075
454.76644	15872.475
458.87653	15972.375
462.98368	15989.675
467.08789	15993.975
471.18916	15931.375
475.2875	15816.275
479.38291	15748.675
483.4754	15689.675
487.56496	15611.975
491.6516	15505.775
495.73531	15366.775
499.81612	15320.175
503.89401	15373.975
507.96899	15430.275
512.04106	15450.775
516.11023	15450.575
520.1765	15368.775
524.23987	15282.575
528.30034	15151.775
532.35792	15081.475
536.41261	14991.375
540.46441	14943.775
544.51333	14912.875
548.55936	15019.075
552.60252	15197.375
556.64279	15404.875
560.6802	15536.475
564.71473	15616.175
568.7464	15758.375
572.7752	16057.875
576.80114	16360.975
580.82422	16700.175
584.84444	16985.375
588.86181	17199.175
592.87633	17360.775
596.888	17319.575
600.89682	17118.475
604.9028	17100.475
608.90594	17770.375
612.90624	18514.675
616.90371	17858.975
620.89834	16155.875
624.89015	15319.875
628.87913	15275.275
632.86528	15392.475
636.84862	15453.775
640.82913	15354.675
644.80683	15143.375
648.78172	14958.275
652.75379	14908.275
656.72306	15002.175
660.68952	15159.575
664.65319	15156.675
668.61405	15018.575
672.57211	15003.675
676.52738	15056.575
680.47986	15024.575
684.42955	15007.975
688.37646	14963.075
692.32058	14970.775
696.26192	15089.575
700.20048	15194.875
704.13626	15264.475
708.06928	15307.175
711.99952	15303.075
715.927	15258.875
719.85171	15229.375
723.77365	15167.975
727.69284	15056.075
731.60928	14975.375
735.52295	14879.075
739.43388	14861.075
743.34206	14885.975
747.24749	14953.475
751.15017	15016.575
755.05012	15138.075
758.94733	15439.575
762.8418	15846.975
766.73354	16524.875
770.62254	17186.275
774.50882	17325.475
778.39237	16936.075
782.27321	16260.075
786.15132	15666.975
790.02671	15219.275
793.89938	15027.775
797.76935	14899.075
801.6366	14858.875
805.50115	14801.975
809.36299	14756.075
813.22213	14726.475
817.07857	14685.675
820.93231	14712.575
824.78336	14687.975
828.63172	14658.575
832.47738	14630.975
836.32036	14641.675
840.16066	14611.875
843.99827	14583.375
847.8332	14558.575
851.66546	14580.475
855.49504	14591.775
859.32195	14631.775
863.1462	14595.675
866.96777	14597.975
870.78668	14595.775
874.60293	14584.475
878.41652	14604.175
882.22745	14652.775
886.03573	14684.475
889.84136	14693.175
893.64433	14667.175
897.44466	14629.775
901.24235	14610.875
905.0374	14571.075
908.8298	14532.575
912.61957	14565.475
916.40671	14637.875
920.19121	14746.475
923.97308	14812.575
927.75233	14771.875
931.52895	14713.175
935.30295	14609.675
939.07433	14448.175
942.84309	14300.575
946.60924	14257.675
950.37278	14168.175
954.13371	14153.875
957.89203	14155.475
961.64774	14123.275
965.40086	14109.975
969.15137	14084.475
972.89929	14032.075
976.64461	14010.375
980.38733	13983.875
984.12747	13975.775
987.86502	13987.675
991.59999	14027.175
995.33237	14050.175
999.06217	14174.075
1002.78939	14283.675
1006.51404	14422.275
1010.23611	14577.575
1013.95561	14666.475
1017.67255	14710.575
1021.38692	14640.475
1025.09872	14540.775
1028.80796	14374.975
1032.51465	14378.175
1036.21877	14339.275
1039.92035	14351.875
1043.61937	14412.675
1047.31584	14460.375
1051.00976	14535.175
1054.70114	14566.875
1058.38998	14659.475
1062.07627	14762.875
1065.76003	14864.775
1069.44126	15002.975
1073.11995	15174.875
1076.79611	15329.775
1080.46974	15384.575
1084.14085	15429.075
1087.80943	15424.675
1091.47549	15525.975
1095.13903	15596.975
1098.80005	15517.275
1102.45857	15332.075
1106.11456	15134.075
1109.76805	14944.175
1113.41903	14898.775
1117.06751	14930.675
1120.71348	15004.175
1124.35696	15125.675
1127.99793	15220.575
1131.63641	15276.275
1135.2724	15232.975
1138.90589	15147.375
1142.5369	15135.575
1146.16542	15187.275
1149.79145	15219.875
1153.415	15257.475
1157.03607	15307.275
1160.65467	15528.475
1164.27079	15840.775
1167.88443	16276.875
1171.49561	16798.775
1175.10432	17449.875
1178.71056	18193.175
1182.31434	18928.775
1185.91565	19359.775
1189.51451	19548.375
1193.11091	19469.775
1196.70485	19129.675
1200.29634	18660.975
1203.88538	18233.975
1207.47197	17918.175
1211.05612	17685.775
1214.63782	17494.475
1218.21708	17189.475
1221.79391	16839.275
1225.36829	16559.975
1228.94024	16406.475
1232.50976	16362.875
1236.07685	16284.375
1239.6415	16319.575
1243.20374	16307.575
1246.76355	16378.475
1250.32093	16480.575
1253.8759	16616.175
1257.42845	16872.275
1260.97859	17187.475
1264.52631	17480.075
1268.07163	17760.675
1271.61453	18022.475
1275.15503	18267.275
1278.69312	18599.575
1282.22882	18856.875
1285.76211	19177.875
1289.29301	19580.675
1292.82151	20082.275
1296.34761	20633.175
1299.87133	21291.875
1303.39266	21930.475
1306.9116	22567.175
1310.42815	23070.675
1313.94233	23283.275
1317.45412	23247.875
1320.96354	23056.775
1324.47058	22944.775
1327.97525	22910.375
1331.47754	22874.575
1334.97747	22891.575
1338.47502	22975.175
1341.97022	23103.175
1345.46305	23298.875
1348.95352	23419.975
1352.44163	23335.675
1355.92738	23323.575
1359.41078	23421.875
1362.89183	23644.875
1366.37053	23286.275
1369.84688	22152.575
1373.32088	20668.775
1376.79254	19501.875
1380.26186	18955.175
1383.72883	18832.875
1387.19347	18753.675
1390.65578	18585.875
1394.11575	18410.375
1397.57339	18328.475
1401.0287	18382.375
1404.48168	18441.575
1407.93234	18367.575
1411.38068	18170.575
1414.82669	17814.175
1418.27039	17368.175
1421.71177	16975.275
1425.15083	16654.275
1428.58758	16482.075
1432.02203	16489.775
1435.45416	16686.575
1438.88399	16918.375
1442.31151	17094.175
1445.73673	17240.875
1449.15965	17362.475
1452.58027	17490.075
1455.9986	17560.575
1459.41463	17638.675
1462.82837	17836.875
1466.23982	18051.575
1469.64898	18250.775
1473.05586	18419.375
1476.46045	18457.975
1479.86276	18445.175
1483.26279	18350.375
1486.66054	18381.475
1490.05602	18488.075
1493.44922	18702.675
1496.84016	19083.575
1500.22882	19552.975
1503.61521	20169.475
1506.99934	20786.175
1510.38121	21210.675
1513.76081	21272.975
1517.13816	20980.175
1520.51324	20485.375
1523.88607	20048.675
1527.25665	19798.375
1530.62498	19624.175
1533.99105	19467.675
1537.35488	19200.075
1540.71647	18853.275
1544.07581	18463.175
1547.4329	18084.675
1550.78776	17828.275
1554.14038	17673.175
1557.49077	17625.875
1560.83892	17595.875
1564.18484	17596.675
1567.52853	17681.075
1570.86999	17792.575
1574.20922	18019.175
1577.54624	18158.875
1580.88103	18157.875
1584.2136	18116.775
1587.54395	18218.475
1590.87208	18511.475
1594.19801	18976.975
1597.52172	19509.775
1600.84321	19621.475
1604.16251	19147.575
1607.47959	18382.375
1610.79447	17525.975
1614.10715	16711.275
1617.41763	15924.975
1620.7259	15325.575
1624.03199	14985.675
1627.33587	14888.475
1630.63757	15064.875
1633.93707	15516.875
1637.23439	16347.075
1640.52951	17598.475
1643.82246	19090.575
1647.11321	20400.275
1650.40179	20848.475
1653.68819	20131.375
1656.97241	18506.475
1660.25446	16688.075
1663.53433	15288.875
1666.81203	14328.675
1670.08756	13732.475
1673.36092	13291.775
1676.63211	13070.775
1679.90115	12919.375
1683.16801	12752.475
1686.43272	12655.475
1689.69527	12547.575
1692.95567	12470.175
1696.2139	12402.075
1699.46999	12315.875
1702.72392	12284.375
1705.97571	12290.475
1709.22535	12319.475
1712.47284	12293.875
1715.71819	12306.375
1718.96139	12278.975
1722.20246	12266.175
1725.44139	12241.775
1728.67818	12179.175
1731.91284	12128.475
1735.14537	12067.075
1738.37576	12033.775
1741.60403	11971.475
1744.83017	11934.875
1748.05418	11895.375
1751.27607	11901.175
1754.49584	11847.475
1757.71349	11827.675
1760.92903	11805.675
1764.14244	11777.975
1767.35375	11779.575
1770.56294	11764.975
1773.77002	11743.675
1776.97499	11730.775
1780.17785	11764.375
1783.37861	11736.175
1786.57727	11708.175
1789.77382	11713.275
1792.96828	11697.475
1796.16064	11662.075
1799.3509	11632.975
1802.53907	11636.475
1805.72514	11605.275
1808.90913	11557.175
1812.09102	11533.375
1815.27083	11526.475
1818.44856	11526.975
1821.6242	11478.275
1824.79776	11463.275
1827.96924	11475.375
1831.13864	11423.775
1834.30597	11443.275
1837.47122	11398.675
1840.6344	11433.975
1843.7955	11397.475
1846.95454	11390.975
1850.11151	11409.975
1853.26642	11376.175
1856.41926	11388.575
1859.57004	11399.375
1862.71876	11375.675
1865.86542	11339.475
1869.01003	11309.575
1872.15258	11310.175
1875.29308	11300.475
1878.43152	11266.975
1881.56792	11227.975
1884.70227	11214.575
1887.83457	11211.275
1890.96482	11174.975
1894.09304	11182.975
1897.21921	11153.075
1900.34335	11123.275
1903.46544	11094.975
1906.58551	11084.875
1909.70353	11101.075
1912.81953	11080.775
1915.93349	11042.875
1919.04543	10986.575
1922.15534	10992.975
1925.26322	10976.375
1928.36908	10959.275
1931.47292	10918.475
1934.57473	10913.375
1937.67453	10884.575
1940.77232	10864.475
1943.86808	10828.175
1946.96184	10800.875
1950.05358	10760.275
1953.14331	10721.975
1956.23103	10672.875
1959.31675	10660.775
1962.40046	10631.375
1965.48217	10589.475
1968.56188	10565.175
1971.63959	10515.175
1974.7153	10500.575
1977.78901	10471.875
1980.86073	10416.075
1983.93046	10413.775
1986.99819	10350.775
1990.06394	10328.775
1993.1277	10293.775
1996.18947	10249.675
1999.24925	10229.175
2002.30706	10200.375
2005.36288	10164.475
2008.41672	10146.175
2011.46859	10091.675
2014.51848	10067.875
2017.56639	10045.975
2020.61233	10028.875
2023.6563	10017.975
2026.6983	9976.075
2029.73833	9953.675
2032.7764	9888.775
2035.8125	9905.975
2038.84664	9863.975
2041.87881	9845.575
2044.90903	9836.975
2047.93729	9809.575
2050.96359	9778.975
2053.98794	9756.875
2057.01034	9779.775
2060.03078	9750.975
2063.04927	9733.075
2066.06582	9748.775
2069.08042	9729.675
2072.09307	9727.175
2075.10378	9702.375
2078.11255	9703.675
2081.11938	9710.975
2084.12426	9689.875
2087.12722	9670.575
2090.12824	9684.075
2093.12732	9706.975
2096.12447	9685.175
2099.11969	9677.075
2102.11299	9679.675
2105.10435	9682.875
2108.09379	9683.375
2111.08131	9699.275
2114.0669	9699.475
2117.05057	9685.275
2120.03233	9692.375
2123.01216	9677.675
2125.99008	9709.475
2128.96609	9712.875
2131.94018	9732.475
2134.91236	9714.975
2137.88263	9731.575
2140.851	9721.875
2143.81746	9731.675
2146.78201	9724.575
2149.74466	9721.175
2152.7054	9719.975
2155.66425	9712.275
2158.6212	9702.975
2161.57625	9692.475
2164.52941	9686.875
2167.48067	9690.075
2170.43004	9682.675
2173.37752	9695.375
2176.32311	9669.675
2179.26681	9676.175
2182.20863	9659.075
2185.14856	9668.675
2188.08661	9675.375
2191.02278	9645.475
2193.95707	9636.975
2196.88948	9648.675
2199.82001	9635.575
2202.74867	9634.875
2205.67545	9612.275
2208.60037	9587.775
2211.52341	9561.175
2214.44458	9568.075
2217.36388	9538.875
2220.28132	9504.475
2223.1969	9483.175
2226.11061	9474.375
2229.02246	9468.275
2231.93245	9452.975
2234.84058	9425.375
2237.74686	9408.275
2240.65128	9412.275
2243.55385	9387.575
2246.45456	9395.375
2249.35343	9343.675
2252.25044	9318.675
2255.14561	9317.875
2258.03893	9302.775
2260.93041	9273.775
2263.82004	9243.275
2266.70783	9237.775
2269.59378	9208.475
2272.4779	9206.575
2275.36017	9168.375
2278.24061	9152.375
2281.11922	9137.675
2283.996	9119.675
2286.87094	9092.575
2289.74405	9077.375
2292.61534	9059.875
2295.4848	9032.975
2298.35243	9067.575
2301.21824	9003.675
2304.08223	9030.675
2306.94439	9002.875
2309.80474	8997.075
2312.66327	9002.875
2315.51999	8991.275
2318.37489	8954.975
2321.22797	8947.075
2324.07925	8933.075
2326.92871	8927.675
2329.77637	8908.175
2332.62222	8894.075
2335.46626	8881.675
2338.3085	8853.675
2341.14893	8858.775
2343.98756	8832.075
2346.8244	8817.475
2349.65943	8830.875
2352.49267	8798.875
2355.32411	8791.375
2358.15376	8792.875
2360.98161	8806.175
2363.80768	8782.375
2366.63195	8782.775
2369.45444	8768.475
2372.27514	8738.975
2375.09405	8737.775
2377.91118	8754.775
2380.72652	8700.375
2383.54009	8695.075
2386.35187	8687.075
2389.16188	8629.975
2391.97011	8644.275
2394.77657	8608.375
2397.58125	8602.875
2400.38416	8590.775
2403.18529	8562.275
2405.98466	8553.575
2408.78226	8558.775
2411.57809	8546.075
2414.37216	8531.775
2417.16446	8507.075
2419.955	8495.775
2422.74378	8505.575
2425.5308	8494.575
2428.31606	8491.975
2431.09956	8473.075
2433.88131	8472.675
2436.6613	8449.875
2439.43954	8445.875
2442.21603	8436.575
2444.99077	8404.475
2447.76377	8413.875
2450.53501	8398.775
2453.30451	8393.775
2456.07226	8396.675
2458.83827	8381.475
2461.60254	8379.375
2464.36507	8380.075
2467.12586	8334.475
2469.88492	8340.975
2472.64224	8350.275
2475.39782	8331.575
2478.15167	8330.575
2480.90379	8317.675
2483.65417	8312.675
2486.40283	8321.875
2489.14976	8318.575
2491.89497	8298.475
2494.63845	8292.075
2497.3802	8263.175
2500.12024	8263.575
2502.85855	8262.375
2505.59514	8244.775
2508.33002	8263.875
2511.06318	8241.475
2513.79462	8216.675
2516.52435	8208.775
2519.25237	8206.275
2521.97867	8186.775
2524.70327	8205.975
2527.42616	8164.475
2530.14734	8153.275
2532.86681	8162.775
2535.58458	8130.475
2538.30065	8105.375
2541.01501	8105.675
2543.72768	8082.175
2546.43864	8063.775
2549.14791	8042.275
2551.85548	8060.375
2554.56136	8042.075
2557.26554	8034.775
2559.96803	8014.475
2562.66883	8019.375
2565.36794	8005.875
2568.06536	7978.975
2570.7611	7955.875
2573.45514	7931.875
2576.14751	7924.475
2578.83819	7898.875
2581.52719	7938.175
2584.21451	7895.075
2586.90015	7870.875
2589.58411	7846.775
2592.2664	7858.675
2594.94701	7820.375
2597.62594	7815.075
2600.30321	7799.475
2602.9788	7789.275
2605.65273	7784.975
2608.32498	7770.175
2610.99557	7777.675
2613.66449	7762.875
2616.33175	7756.775
2618.99734	7745.375
2621.66128	7724.675
2624.32355	7711.775
2626.98416	7712.775
2629.64311	7688.975
2632.30041	7698.775
2634.95605	7682.375
2637.61004	7646.275
2640.26238	7637.275
2642.91306	7658.575
2645.56209	7649.175
2648.20948	7651.275
2650.85521	7633.275
2653.4993	7626.775
2656.14175	7614.375
2658.78255	7634.175
2661.42171	7629.775
2664.05923	7638.575
2666.6951	7623.775
2669.32934	7638.075
2671.96194	7607.875
2674.59291	7620.775
2677.22224	7614.975
2679.84993	7610.375
2682.476	7604.375
2685.10043	7588.675
2687.72324	7593.675
2690.34441	7589.575
2692.96396	7587.175
2695.58188	7595.475
2698.19818	7582.075
2700.81285	7582.475
2703.4259	7569.075
2706.03733	7562.475
2708.64714	7536.175
2711.25533	7556.275
2713.86191	7566.675
2716.46687	7577.175
2719.07021	7571.075
2721.67194	7577.375
2724.27206	7589.375
2726.87057	7569.575
2729.46747	7579.375
2732.06276	7590.375
2734.65644	7556.475
2737.24852	7559.475
2739.83899	7546.975
2742.42786	7555.975
2745.01513	7527.575
2747.60079	7520.875
2750.18486	7506.375
2752.76733	7493.575
2755.3482	7488.075
2757.92747	7489.675
2760.50515	7470.075
2763.08123	7456.675
2765.65573	7460.975
2768.22863	7451.175
2770.79994	7452.075
2773.36967	7434.675
2775.9378	7421.975
2778.50435	7398.875
2781.06932	7396.575
2783.6327	7398.475
2786.1945	7369.275
2788.75471	7338.975
2791.31335	7361.875
2793.87041	7334.375
2796.42589	7324.075
2798.97979	7319.475
2801.53212	7290.975
2804.08288	7278.575
2806.63206	7249.175
2809.17967	7245.375
2811.72571	7225.375
2814.27018	7206.575
2816.81308	7212.375
2819.35442	7188.675
2821.89419	7180.575
2824.43239	7168.275
2826.96904	7138.575
2829.50412	7156.975
2832.03763	7136.775
2834.56959	7141.575
2837.1	7130.475
2839.62884	7099.975
2842.15613	7130.775
2844.68186	7141.775
2847.20604	7131.175
2849.72867	7141.275
2852.24974	7126.375
2854.76927	7110.875
2857.28724	7095.775
2859.80367	7101.475
2862.31855	7063.975
2864.83189	7064.575
2867.34368	7049.075
2869.85393	7045.675
2872.36264	7033.175
2874.8698	7018.975
2877.37543	7020.875
2879.87952	7008.675
2882.38207	7014.375
2884.88308	6986.975
2887.38256	7003.775
2889.88051	6993.175
2892.37692	6978.275
2894.8718	6991.375
2897.36515	6997.675
2899.85698	6988.075
2902.34727	6998.975
2904.83604	6989.175
2907.32328	6991.375
2909.809	6990.975
2912.29319	6985.575
2914.77587	7003.875
2917.25702	7001.275
2919.73665	6982.675
2922.21476	6978.675
2924.69136	6985.575
2927.16644	6974.775
2929.64	6969.975
2932.11205	6952.375
2934.58258	6944.275
2937.05161	6948.675
2939.51912	6937.575
2941.98513	6925.575
2944.44962	6895.275
2946.91261	6872.075
2949.37409	6882.575
2951.83407	6884.975
2954.29254	6889.375
2956.74951	6857.675
2959.20498	6865.475
2961.65895	6852.775
2964.11142	6842.775
2966.56239	6851.975
2969.01186	6826.475
2971.45984	6827.375
2973.90632	6808.875
2976.35131	6818.875
2978.7948	6782.575
2981.23681	6777.475
2983.67732	6754.975
2986.11635	6743.175
2988.55388	6732.675
2990.98993	6718.575
2993.4245	6690.975
2995.85758	6695.775
2998.28917	6692.175
3000.71928	6664.875
3003.14791	6651.975
3005.57506	6636.475
3008.00073	6621.475
3010.42493	6632.375
3012.84764	6633.175
3015.26888	6621.775
3017.68865	6588.275
3020.10694	6584.975
3022.52376	6554.075
3024.9391	6560.175
3027.35298	6549.275
3029.76539	6535.975
3032.17632	6534.675
3034.5858	6508.575
3036.9938	6498.675
3039.40034	6510.275
3041.80542	6522.975
3044.20903	6491.275
3046.61118	6497.175
3049.01187	6461.175
3051.4111	6474.775
3053.80888	6458.775
3056.20519	6452.475
3058.60005	6409.775
3060.99345	6383.375
3063.3854	6393.875
3065.7759	6369.575
3068.16494	6368.675
3070.55254	6344.775
3072.93868	6346.475
3075.32338	6318.075
3077.70662	6312.875
3080.08842	6303.575
3082.46878	6308.475
3084.84769	6286.075
3087.22515	6281.875
3089.60118	6251.275
3091.97576	6270.075
3094.3489	6280.475
3096.72061	6276.775
3099.09087	6264.975
3101.4597	6261.475
3103.82709	6276.975
3106.19305	6266.875
3108.55757	6258.475
3110.92066	6245.775
3113.28232	6226.575
3115.64255	6226.575
3118.00134	6222.375
3120.35871	6206.975
3122.71466	6194.575
3125.06917	6185.175
3127.42226	6170.375
3129.77393	6166.275
3132.12417	6161.375
3134.47299	6159.275
3136.82039	6146.375
3139.16636	6155.075
3141.51092	6156.675
3143.85406	6152.975
3146.19579	6153.875
3148.53609	6157.475
3150.87499	6169.875
3153.21246	6190.875
3155.54853	6198.075
3157.88318	6160.375
3160.21642	6186.175
3162.54826	6175.675
3164.87868	6152.875
3167.2077	6168.875
3169.5353	6191.275
3171.86151	6183.675
3174.18631	6177.875
3176.5097	6171.675
3178.83169	6153.975
