Data from AgNPs_FTO_APTES_UA_1uM_CRN_100uM_R6G_10uM_NaF_0.1M_Addition_RamanShift__8__16-29-59-773.txt Node

Date: Thu Jan 27 16:29:59 GMT 2022
User: TCL
Spectrometer: QEP01345
Trigger mode: 4
Integration Time (sec): 7.000000E0
Scans to average: 10
Electric dark correction enabled: true
Nonlinearity correction enabled: false
Boxcar width: 0
XAxis mode: Raman Shifts
Number of Pixels in Spectrum: 1044
>>>>>Begin Spectral Data<<<<<
46.04893	1.875
50.45542	0.775
54.85868	-1.725
59.25871	-1.825
63.6555	40.975
68.04907	45.675
72.43941	49.775
76.82654	52.475
81.21044	53.275
85.59113	54.675
89.96862	55.375
94.34289	60.975
98.71396	63.875
103.08183	59.475
107.4465	67.275
111.80798	67.175
116.16626	69.175
120.52136	74.375
124.87327	70.175
129.222	68.475
133.56755	76.575
137.90993	79.575
142.24913	90.475
146.58517	94.475
150.91804	113.275
155.24774	125.475
159.57429	152.275
163.89768	192.675
168.21792	252.875
172.53501	338.075
176.84895	463.775
181.15975	649.375
185.46741	907.375
189.77193	1250.275
194.07331	1664.075
198.37157	2152.075
202.6667	2666.075
206.9587	3167.675
211.24758	3660.575
215.53334	4139.575
219.81599	4655.775
224.09553	5214.475
228.37195	5822.675
232.64527	6484.975
236.91549	7207.675
241.18261	7933.075
245.44663	8630.275
249.70755	9268.275
253.96539	9858.675
258.22014	10357.775
262.4718	10726.975
266.72039	10993.775
270.96589	11143.075
275.20832	11164.375
279.44768	11109.975
283.68397	11064.275
287.91719	10967.075
292.14735	10908.175
296.37445	10915.475
300.59849	10905.375
304.81948	10940.875
309.03742	10950.375
313.25231	10850.575
317.46415	10657.775
321.67296	10423.775
325.87872	10215.575
330.08145	10131.875
334.28114	10112.875
338.47781	10156.675
342.67145	10256.675
346.86207	10388.175
351.04966	10520.675
355.23424	10693.875
359.4158	10820.975
363.59435	10952.175
367.76989	11026.275
371.94243	11108.375
376.11196	11137.675
380.27849	11195.775
384.44203	11231.475
388.60257	11314.775
392.76012	11417.975
396.91468	11546.775
401.06626	11729.075
405.21485	11857.475
409.36047	11810.275
413.50311	11715.975
417.64277	11640.575
421.77947	11663.375
425.9132	11691.375
430.04396	11742.975
434.17176	11800.975
438.2966	11871.175
442.41849	11985.675
446.53742	12208.975
450.6534	12464.975
454.76644	12663.875
458.87653	12763.475
462.98368	12772.775
467.08789	12723.975
471.18916	12625.975
475.2875	12549.475
479.38291	12511.175
483.4754	12456.975
487.56496	12350.575
491.6516	12125.675
495.73531	11948.675
499.81612	11875.775
503.89401	11904.375
507.96899	11973.875
512.04106	11968.775
516.11023	11885.875
520.1765	11782.375
524.23987	11660.175
528.30034	11570.775
532.35792	11483.575
536.41261	11408.175
540.46441	11332.975
544.51333	11330.675
548.55936	11431.075
552.60252	11624.675
556.64279	11850.675
560.6802	12035.275
564.71473	12122.775
568.7464	12302.375
572.7752	12607.575
576.80114	12928.175
580.82422	13253.375
584.84444	13612.775
588.86181	13996.575
592.87633	14268.075
596.888	14142.675
600.89682	13670.575
604.9028	13505.675
608.90594	13943.075
612.90624	14562.075
616.90371	13839.475
620.89834	12222.275
624.89015	11510.075
628.87913	11441.475
632.86528	11554.575
636.84862	11554.475
640.82913	11483.575
644.80683	11312.975
648.78172	11167.275
652.75379	11124.875
656.72306	11240.775
660.68952	11329.875
664.65319	11273.175
668.61405	11151.475
672.57211	11126.375
676.52738	11153.675
680.47986	11151.075
684.42955	11136.075
688.37646	11077.475
692.32058	11108.275
696.26192	11191.675
700.20048	11318.375
704.13626	11377.375
708.06928	11415.875
711.99952	11411.275
715.927	11385.875
719.85171	11380.175
723.77365	11362.775
727.69284	11241.375
731.60928	11117.475
735.52295	11040.475
739.43388	11038.275
743.34206	11042.475
747.24749	11110.075
751.15017	11223.675
755.05012	11364.475
758.94733	11645.175
762.8418	12041.475
766.73354	12647.675
770.62254	13184.275
774.50882	13267.875
778.39237	12827.875
782.27321	12145.675
786.15132	11605.975
790.02671	11270.875
793.89938	11089.375
797.76935	10994.975
801.6366	10984.275
805.50115	10964.275
809.36299	10908.975
813.22213	10854.175
817.07857	10838.775
820.93231	10833.875
824.78336	10754.575
828.63172	10713.975
832.47738	10692.775
836.32036	10672.875
840.16066	10679.575
843.99827	10673.575
847.8332	10657.375
851.66546	10652.275
855.49504	10653.075
859.32195	10678.075
863.1462	10661.375
866.96777	10640.175
870.78668	10620.075
874.60293	10631.675
878.41652	10612.475
882.22745	10632.375
886.03573	10665.475
889.84136	10664.475
893.64433	10646.375
897.44466	10603.775
901.24235	10601.875
905.0374	10570.975
908.8298	10532.175
912.61957	10565.075
916.40671	10654.775
920.19121	10763.675
923.97308	10871.475
927.75233	10808.175
931.52895	10690.575
935.30295	10602.275
939.07433	10427.675
942.84309	10306.575
946.60924	10246.275
950.37278	10212.075
954.13371	10198.075
957.89203	10183.275
961.64774	10214.275
965.40086	10193.275
969.15137	10143.675
972.89929	10100.075
976.64461	10052.875
980.38733	10045.575
984.12747	10040.675
987.86502	10043.875
991.59999	10080.575
995.33237	10133.875
999.06217	10246.575
1002.78939	10368.075
1006.51404	10489.175
1010.23611	10617.875
1013.95561	10721.475
1017.67255	10752.675
1021.38692	10692.475
1025.09872	10582.475
1028.80796	10499.275
1032.51465	10441.775
1036.21877	10466.275
1039.92035	10519.475
1043.61937	10553.775
1047.31584	10552.675
1051.00976	10575.275
1054.70114	10614.875
1058.38998	10686.475
1062.07627	10774.175
1065.76003	10916.375
1069.44126	11025.375
1073.11995	11142.675
1076.79611	11271.775
1080.46974	11303.175
1084.14085	11291.575
1087.80943	11366.575
1091.47549	11443.375
1095.13903	11493.075
1098.80005	11420.175
1102.45857	11205.275
1106.11456	10988.075
1109.76805	10846.575
1113.41903	10823.175
1117.06751	10890.575
1120.71348	10958.175
1124.35696	11071.375
1127.99793	11204.375
1131.63641	11270.475
1135.2724	11241.675
1138.90589	11187.675
1142.5369	11220.275
1146.16542	11308.875
1149.79145	11395.475
1153.415	11486.975
1157.03607	11617.775
1160.65467	11885.075
1164.27079	12337.875
1167.88443	12855.475
1171.49561	13387.975
1175.10432	14010.275
1178.71056	14797.175
1182.31434	15515.575
1185.91565	15900.475
1189.51451	15883.975
1193.11091	15649.775
1196.70485	15251.175
1200.29634	14872.275
1203.88538	14556.375
1207.47197	14407.475
1211.05612	14274.875
1214.63782	14057.375
1218.21708	13713.975
1221.79391	13252.875
1225.36829	12928.275
1228.94024	12764.375
1232.50976	12609.875
1236.07685	12530.875
1239.6415	12470.075
1243.20374	12501.175
1246.76355	12538.375
1250.32093	12695.675
1253.8759	12862.775
1257.42845	13119.475
1260.97859	13439.375
1264.52631	13690.275
1268.07163	13960.775
1271.61453	14246.075
1275.15503	14581.175
1278.69312	14965.375
1282.22882	15344.675
1285.76211	15832.975
1289.29301	16425.975
1292.82151	17165.975
1296.34761	18017.275
1299.87133	18931.175
1303.39266	19762.275
1306.9116	20475.075
1310.42815	20926.975
1313.94233	21137.375
1317.45412	21062.475
1320.96354	20852.475
1324.47058	20669.475
1327.97525	20566.375
1331.47754	20552.775
1334.97747	20422.275
1338.47502	20326.775
1341.97022	20162.275
1345.46305	19982.575
1348.95352	19795.775
1352.44163	19670.475
1355.92738	19790.875
1359.41078	20190.775
1362.89183	20575.775
1366.37053	20265.975
1369.84688	19025.875
1373.32088	17375.275
1376.79254	16203.375
1380.26186	15749.375
1383.72883	15853.175
1387.19347	15947.175
1390.65578	15815.375
1394.11575	15764.175
1397.57339	15818.575
1401.0287	16041.675
1404.48168	16191.775
1407.93234	16115.975
1411.38068	15750.575
1414.82669	15171.575
1418.27039	14555.275
1421.71177	13994.475
1425.15083	13526.175
1428.58758	13281.875
1432.02203	13358.575
1435.45416	13608.175
1438.88399	14032.575
1442.31151	14308.575
1445.73673	14501.275
1449.15965	14647.675
1452.58027	14745.075
1455.9986	14809.775
1459.41463	14824.975
1462.82837	14961.375
1466.23982	15161.175
1469.64898	15354.575
1473.05586	15521.775
1476.46045	15514.975
1479.86276	15426.575
1483.26279	15253.475
1486.66054	15199.975
1490.05602	15269.775
1493.44922	15354.075
1496.84016	15578.875
1500.22882	15861.175
1503.61521	16255.375
1506.99934	16722.275
1510.38121	17087.575
1513.76081	17182.675
1517.13816	16969.675
1520.51324	16668.775
1523.88607	16439.875
1527.25665	16382.075
1530.62498	16383.175
1533.99105	16300.575
1537.35488	16049.975
1540.71647	15710.075
1544.07581	15241.575
1547.4329	14822.175
1550.78776	14475.575
1554.14038	14226.775
1557.49077	14099.475
1560.83892	14031.475
1564.18484	14033.075
1567.52853	14026.975
1570.86999	14201.875
1574.20922	14498.575
1577.54624	14778.775
1580.88103	14926.975
1584.2136	15061.775
1587.54395	15350.975
1590.87208	15879.575
1594.19801	16499.775
1597.52172	17104.175
1600.84321	17183.575
1604.16251	16531.575
1607.47959	15421.775
1610.79447	14330.875
1614.10715	13346.075
1617.41763	12497.775
1620.7259	11945.175
1624.03199	11596.975
1627.33587	11576.675
1630.63757	11776.875
1633.93707	12391.375
1637.23439	13373.675
1640.52951	14864.475
1643.82246	16679.475
1647.11321	18169.175
1650.40179	18545.875
1653.68819	17451.775
1656.97241	15500.675
1660.25446	13447.375
1663.53433	11925.375
1666.81203	10889.775
1670.08756	10281.075
1673.36092	9861.375
1676.63211	9642.575
1679.90115	9464.175
1683.16801	9307.275
1686.43272	9206.975
1689.69527	9104.175
1692.95567	9032.875
1696.2139	8964.875
1699.46999	8879.975
1702.72392	8834.275
1705.97571	8845.675
1709.22535	8889.775
1712.47284	8868.275
1715.71819	8884.075
1718.96139	8840.975
1722.20246	8853.675
1725.44139	8817.675
1728.67818	8782.175
1731.91284	8719.075
1735.14537	8690.275
1738.37576	8639.475
1741.60403	8609.475
1744.83017	8576.875
1748.05418	8558.275
1751.27607	8523.275
1754.49584	8492.275
1757.71349	8483.375
1760.92903	8444.375
1764.14244	8462.775
1767.35375	8443.475
1770.56294	8416.075
1773.77002	8411.575
1776.97499	8414.775
1780.17785	8409.675
1783.37861	8417.375
1786.57727	8398.775
1789.77382	8393.575
1792.96828	8366.575
1796.16064	8349.975
1799.3509	8330.775
1802.53907	8322.375
1805.72514	8301.875
1808.90913	8285.875
1812.09102	8269.175
1815.27083	8236.175
1818.44856	8224.975
1821.6242	8214.175
1824.79776	8198.075
1827.96924	8172.675
1831.13864	8193.575
1834.30597	8209.275
1837.47122	8186.575
1840.6344	8174.875
1843.7955	8160.875
1846.95454	8158.675
1850.11151	8150.675
1853.26642	8151.575
1856.41926	8121.975
1859.57004	8131.775
1862.71876	8119.775
1865.86542	8110.275
1869.01003	8114.175
1872.15258	8089.675
1875.29308	8086.875
1878.43152	8066.575
1881.56792	8058.175
1884.70227	8020.875
1887.83457	8007.675
1890.96482	8012.675
1894.09304	7983.375
1897.21921	7987.075
1900.34335	7979.375
1903.46544	7968.775
1906.58551	7968.875
1909.70353	7946.975
1912.81953	7916.375
1915.93349	7931.975
1919.04543	7907.375
1922.15534	7901.375
1925.26322	7885.075
1928.36908	7871.575
1931.47292	7842.475
1934.57473	7817.175
1937.67453	7806.475
1940.77232	7778.575
1943.86808	7751.775
1946.96184	7740.175
1950.05358	7710.075
1953.14331	7673.375
1956.23103	7667.575
1959.31675	7638.675
1962.40046	7635.175
1965.48217	7592.775
1968.56188	7585.975
1971.63959	7536.375
1974.7153	7561.075
1977.78901	7531.075
1980.86073	7498.875
1983.93046	7455.575
1986.99819	7422.475
1990.06394	7426.475
1993.1277	7387.375
1996.18947	7350.475
1999.24925	7366.375
2002.30706	7333.175
2005.36288	7297.675
2008.41672	7283.575
2011.46859	7285.675
2014.51848	7247.475
2017.56639	7209.675
2020.61233	7207.775
2023.6563	7194.675
2026.6983	7159.375
2029.73833	7170.375
2032.7764	7145.175
2035.8125	7110.675
2038.84664	7102.175
2041.87881	7081.875
2044.90903	7059.175
2047.93729	7075.175
2050.96359	7054.875
2053.98794	7042.875
2057.01034	7040.175
2060.03078	7030.175
2063.04927	7027.975
2066.06582	7023.775
2069.08042	7011.275
2072.09307	6999.475
2075.10378	6996.775
2078.11255	7006.575
2081.11938	6980.475
2084.12426	6986.475
2087.12722	7000.475
2090.12824	6981.675
2093.12732	6972.275
2096.12447	6975.475
2099.11969	6977.775
2102.11299	6952.875
2105.10435	6952.175
2108.09379	6961.975
2111.08131	6972.175
2114.0669	6978.275
2117.05057	6961.675
2120.03233	6996.275
2123.01216	6992.175
2125.99008	6984.675
2128.96609	7007.875
2131.94018	7014.175
2134.91236	7017.575
2137.88263	7012.875
2140.851	6997.875
2143.81746	7012.075
2146.78201	6995.875
2149.74466	7006.375
2152.7054	6998.975
2155.66425	6989.875
2158.6212	6990.475
2161.57625	6982.875
2164.52941	6983.375
2167.48067	7007.775
2170.43004	6992.275
2173.37752	6988.075
2176.32311	6970.175
2179.26681	6996.775
2182.20863	6983.275
2185.14856	6966.175
2188.08661	6970.075
2191.02278	6990.975
2193.95707	6975.275
2196.88948	6970.275
2199.82001	6953.575
2202.74867	6929.475
2205.67545	6946.275
2208.60037	6911.075
2211.52341	6894.475
2214.44458	6899.775
2217.36388	6877.575
2220.28132	6876.075
2223.1969	6854.375
2226.11061	6858.975
2229.02246	6818.575
2231.93245	6814.775
2234.84058	6818.775
2237.74686	6801.475
2240.65128	6794.575
2243.55385	6801.575
2246.45456	6780.275
2249.35343	6758.975
2252.25044	6733.175
2255.14561	6745.175
2258.03893	6737.775
2260.93041	6704.975
2263.82004	6699.775
2266.70783	6674.075
2269.59378	6644.175
2272.4779	6628.375
2275.36017	6651.575
2278.24061	6624.275
2281.11922	6596.375
2283.996	6597.075
2286.87094	6586.275
2289.74405	6543.875
2292.61534	6557.175
2295.4848	6559.075
2298.35243	6549.275
2301.21824	6537.975
2304.08223	6542.975
2306.94439	6533.775
2309.80474	6539.075
2312.66327	6503.375
2315.51999	6518.875
2318.37489	6520.275
2321.22797	6484.875
2324.07925	6492.875
2326.92871	6487.275
2329.77637	6478.775
2332.62222	6466.575
2335.46626	6443.575
2338.3085	6432.075
2341.14893	6425.075
2343.98756	6441.475
2346.8244	6422.075
2349.65943	6410.175
2352.49267	6408.375
2355.32411	6417.175
2358.15376	6413.475
2360.98161	6409.475
2363.80768	6402.275
2366.63195	6398.575
2369.45444	6390.475
2372.27514	6390.275
2375.09405	6400.575
2377.91118	6356.275
2380.72652	6339.275
2383.54009	6333.075
2386.35187	6323.475
2389.16188	6299.675
2391.97011	6303.575
2394.77657	6283.175
2397.58125	6262.775
2400.38416	6253.375
2403.18529	6270.875
2405.98466	6237.075
2408.78226	6240.675
2411.57809	6243.875
2414.37216	6213.475
2417.16446	6235.875
2419.955	6202.875
2422.74378	6200.075
2425.5308	6186.275
2428.31606	6211.475
2431.09956	6166.575
2433.88131	6196.175
2436.6613	6170.075
2439.43954	6183.475
2442.21603	6167.575
2444.99077	6166.675
2447.76377	6172.275
2450.53501	6170.475
2453.30451	6163.175
2456.07226	6160.775
2458.83827	6127.075
2461.60254	6136.575
2464.36507	6140.375
2467.12586	6108.075
2469.88492	6120.375
2472.64224	6121.975
2475.39782	6106.675
2478.15167	6087.575
2480.90379	6090.575
2483.65417	6110.675
2486.40283	6097.475
2489.14976	6113.075
2491.89497	6099.475
2494.63845	6103.775
2497.3802	6074.275
2500.12024	6062.375
2502.85855	6071.075
2505.59514	6085.175
2508.33002	6066.175
2511.06318	6060.475
2513.79462	6075.675
2516.52435	6051.575
2519.25237	6063.775
2521.97867	6032.375
2524.70327	6038.875
2527.42616	6037.975
2530.14734	6026.875
2532.86681	6004.175
2535.58458	6007.075
2538.30065	5988.275
2541.01501	5997.075
2543.72768	6001.775
2546.43864	5973.975
2549.14791	5984.275
2551.85548	5955.975
2554.56136	5948.575
2557.26554	5948.475
2559.96803	5942.175
2562.66883	5915.875
2565.36794	5937.075
2568.06536	5913.875
2570.7611	5907.075
2573.45514	5896.575
2576.14751	5888.675
2578.83819	5869.975
2581.52719	5861.975
2584.21451	5862.175
2586.90015	5852.175
2589.58411	5834.275
2592.2664	5844.975
2594.94701	5838.475
2597.62594	5820.375
2600.30321	5818.875
2602.9788	5814.375
2605.65273	5812.875
2608.32498	5797.275
2610.99557	5795.975
2613.66449	5793.975
2616.33175	5759.175
2618.99734	5787.075
2621.66128	5784.775
2624.32355	5775.475
2626.98416	5766.975
2629.64311	5757.275
2632.30041	5753.375
2634.95605	5742.575
2637.61004	5724.875
2640.26238	5730.475
2642.91306	5719.975
2645.56209	5720.775
2648.20948	5718.275
2650.85521	5709.475
2653.4993	5711.675
2656.14175	5729.675
2658.78255	5736.875
2661.42171	5722.875
2664.05923	5732.475
2666.6951	5748.075
2669.32934	5721.175
2671.96194	5724.475
2674.59291	5722.375
2677.22224	5719.975
2679.84993	5716.775
2682.476	5704.175
2685.10043	5711.875
2687.72324	5706.575
2690.34441	5711.675
2692.96396	5707.175
2695.58188	5723.175
2698.19818	5728.075
2700.81285	5714.075
2703.4259	5693.775
2706.03733	5682.475
2708.64714	5693.775
2711.25533	5704.875
2713.86191	5717.175
2716.46687	5709.475
2719.07021	5720.775
2721.67194	5724.175
2724.27206	5714.575
2726.87057	5732.575
2729.46747	5725.175
2732.06276	5735.975
2734.65644	5724.075
2737.24852	5730.975
2739.83899	5715.075
2742.42786	5708.275
2745.01513	5694.875
2747.60079	5701.775
2750.18486	5707.975
2752.76733	5694.275
2755.3482	5681.975
2757.92747	5665.675
2760.50515	5668.875
2763.08123	5657.875
2765.65573	5662.675
2768.22863	5665.175
2770.79994	5646.375
2773.36967	5637.875
2775.9378	5649.075
2778.50435	5644.875
2781.06932	5624.075
2783.6327	5647.475
2786.1945	5642.375
2788.75471	5624.375
2791.31335	5599.275
2793.87041	5606.375
2796.42589	5584.175
2798.97979	5573.675
2801.53212	5593.475
2804.08288	5566.275
2806.63206	5546.575
2809.17967	5532.575
2811.72571	5518.675
2814.27018	5507.275
2816.81308	5507.875
2819.35442	5503.875
2821.89419	5499.975
2824.43239	5484.775
2826.96904	5500.875
2829.50412	5470.175
2832.03763	5475.675
2834.56959	5477.975
2837.1	5477.275
2839.62884	5486.275
2842.15613	5465.175
2844.68186	5492.675
2847.20604	5481.675
2849.72867	5486.375
2852.24974	5487.475
2854.76927	5482.775
2857.28724	5448.475
2859.80367	5447.975
2862.31855	5459.575
2864.83189	5433.175
2867.34368	5446.775
2869.85393	5438.575
2872.36264	5434.475
2874.8698	5423.775
2877.37543	5425.575
2879.87952	5416.975
2882.38207	5414.275
2884.88308	5411.775
2887.38256	5397.575
2889.88051	5406.675
2892.37692	5402.975
2894.8718	5406.975
2897.36515	5424.575
2899.85698	5410.275
2902.34727	5442.375
2904.83604	5428.575
2907.32328	5412.075
2909.809	5429.275
2912.29319	5444.675
2914.77587	5438.275
2917.25702	5419.175
2919.73665	5412.475
2922.21476	5431.775
2924.69136	5407.075
2927.16644	5433.875
2929.64	5405.375
2932.11205	5410.875
2934.58258	5398.175
2937.05161	5403.275
2939.51912	5404.575
2941.98513	5389.575
2944.44962	5385.975
2946.91261	5362.675
2949.37409	5383.975
2951.83407	5361.375
2954.29254	5341.875
2956.74951	5345.975
2959.20498	5343.175
2961.65895	5313.975
2964.11142	5329.875
2966.56239	5318.675
2969.01186	5320.575
2971.45984	5305.775
2973.90632	5291.775
2976.35131	5285.975
2978.7948	5292.075
2981.23681	5291.575
2983.67732	5273.775
2986.11635	5267.375
2988.55388	5248.475
2990.98993	5220.675
2993.4245	5230.075
2995.85758	5213.075
2998.28917	5205.875
3000.71928	5195.375
3003.14791	5191.575
3005.57506	5180.275
3008.00073	5160.775
3010.42493	5142.075
3012.84764	5150.675
3015.26888	5156.775
3017.68865	5138.575
3020.10694	5131.475
3022.52376	5095.575
3024.9391	5098.175
3027.35298	5121.275
3029.76539	5087.875
3032.17632	5091.675
3034.5858	5081.675
3036.9938	5080.075
3039.40034	5108.175
3041.80542	5091.675
3044.20903	5076.175
3046.61118	5071.675
3049.01187	5063.675
3051.4111	5062.275
3053.80888	5056.775
3056.20519	5048.475
3058.60005	5037.375
3060.99345	5010.075
3063.3854	5000.075
3065.7759	4995.975
3068.16494	5000.675
3070.55254	4956.675
3072.93868	4961.775
3075.32338	4953.675
3077.70662	4961.275
3080.08842	4940.175
3082.46878	4932.975
3084.84769	4930.575
3087.22515	4927.875
3089.60118	4928.575
3091.97576	4925.775
3094.3489	4936.975
3096.72061	4936.975
3099.09087	4952.075
3101.4597	4930.375
3103.82709	4936.575
3106.19305	4923.275
3108.55757	4923.775
3110.92066	4923.175
3113.28232	4915.975
3115.64255	4901.475
3118.00134	4886.275
3120.35871	4891.475
3122.71466	4881.675
3125.06917	4879.875
3127.42226	4863.475
3129.77393	4853.675
3132.12417	4855.675
3134.47299	4855.375
3136.82039	4857.575
3139.16636	4859.975
3141.51092	4884.575
3143.85406	4868.975
3146.19579	4887.575
3148.53609	4881.975
3150.87499	4900.475
3153.21246	4889.775
3155.54853	4902.175
3157.88318	4897.975
3160.21642	4896.775
3162.54826	4902.275
3164.87868	4893.875
3167.2077	4902.775
3169.5353	4910.675
3171.86151	4900.975
3174.18631	4888.575
3176.5097	4894.175
3178.83169	4883.475
3181.15228	4905.175
3183.47147	4881.675
3185.78926	4899.675
3188.10565	4874.775
3190.42065	4874.775
3192.73424	4874.275
