Data from AgNPs_FTO_APTES_UA_1uM_CRN_10uM_R6G_50uM_NaF_0.1M_Addition_RamanShift__5__15-46-49-724.txt Node

Date: Thu Jan 27 15:46:49 GMT 2022
User: TCL
Spectrometer: QEP01345
Trigger mode: 4
Integration Time (sec): 7.000000E0
Scans to average: 10
Electric dark correction enabled: true
Nonlinearity correction enabled: false
Boxcar width: 0
XAxis mode: Raman Shifts
Number of Pixels in Spectrum: 1044
>>>>>Begin Spectral Data<<<<<
46.04893	0.8875
50.45542	0.5875
54.85868	-2.6125
59.25871	-1.1125
63.6555	43.1875
68.04907	45.9875
72.43941	49.7875
76.82654	54.6875
81.21044	55.0875
85.59113	56.5875
89.96862	56.6875
94.34289	61.3875
98.71396	59.1875
103.08183	62.3875
107.4465	66.0875
111.80798	66.9875
116.16626	68.1875
120.52136	78.5875
124.87327	72.0875
129.222	74.7875
133.56755	78.6875
137.90993	82.3875
142.24913	88.1875
146.58517	99.8875
150.91804	118.0875
155.24774	131.8875
159.57429	159.2875
163.89768	204.7875
168.21792	262.6875
172.53501	361.3875
176.84895	497.6875
181.15975	685.7875
185.46741	963.7875
189.77193	1318.8875
194.07331	1774.6875
198.37157	2280.2875
202.6667	2823.8875
206.9587	3343.5875
211.24758	3859.1875
215.53334	4373.6875
219.81599	4920.7875
224.09553	5518.5875
228.37195	6179.4875
232.64527	6895.9875
236.91549	7661.2875
241.18261	8444.0875
245.44663	9180.4875
249.70755	9846.9875
253.96539	10431.9875
258.22014	10923.9875
262.4718	11317.8875
266.72039	11577.3875
270.96589	11761.0875
275.20832	11777.9875
279.44768	11712.1875
283.68397	11634.1875
287.91719	11526.4875
292.14735	11473.6875
296.37445	11438.9875
300.59849	11452.8875
304.81948	11529.2875
309.03742	11519.9875
313.25231	11435.4875
317.46415	11281.2875
321.67296	11056.9875
325.87872	10823.1875
330.08145	10714.8875
334.28114	10706.9875
338.47781	10782.9875
342.67145	10868.5875
346.86207	11025.8875
351.04966	11218.8875
355.23424	11370.6875
359.4158	11585.7875
363.59435	11685.6875
367.76989	11797.6875
371.94243	11880.9875
376.11196	11948.8875
380.27849	11962.3875
384.44203	12049.4875
388.60257	12148.3875
392.76012	12247.0875
396.91468	12387.8875
401.06626	12570.0875
405.21485	12679.1875
409.36047	12671.5875
413.50311	12508.4875
417.64277	12477.3875
421.77947	12464.2875
425.9132	12552.4875
430.04396	12637.5875
434.17176	12679.3875
438.2966	12743.1875
442.41849	12911.5875
446.53742	13211.0875
450.6534	13551.3875
454.76644	13763.2875
458.87653	13834.9875
462.98368	13791.3875
467.08789	13657.8875
471.18916	13485.9875
475.2875	13333.2875
479.38291	13204.7875
483.4754	13137.0875
487.56496	12998.7875
491.6516	12865.1875
495.73531	12718.2875
499.81612	12634.3875
503.89401	12693.7875
507.96899	12751.4875
512.04106	12726.6875
516.11023	12666.2875
520.1765	12546.1875
524.23987	12420.1875
528.30034	12328.1875
532.35792	12243.0875
536.41261	12124.6875
540.46441	12026.7875
544.51333	11981.6875
548.55936	12101.5875
552.60252	12335.7875
556.64279	12594.2875
560.6802	12785.7875
564.71473	12879.1875
568.7464	13006.2875
572.7752	13322.2875
576.80114	13646.0875
580.82422	13982.4875
584.84444	14427.4875
588.86181	14910.0875
592.87633	15295.9875
596.888	15196.9875
600.89682	14719.1875
604.9028	14605.0875
608.90594	15271.1875
612.90624	16070.5875
616.90371	15257.6875
620.89834	13320.3875
624.89015	12432.8875
628.87913	12360.4875
632.86528	12416.2875
636.84862	12363.1875
640.82913	12195.7875
644.80683	11961.8875
648.78172	11805.2875
652.75379	11797.1875
656.72306	11904.9875
660.68952	12033.6875
664.65319	11998.3875
668.61405	11790.3875
672.57211	11773.9875
676.52738	11837.4875
680.47986	11806.9875
684.42955	11748.9875
688.37646	11695.8875
692.32058	11740.6875
696.26192	11911.4875
700.20048	12029.8875
704.13626	12146.8875
708.06928	12114.0875
711.99952	12067.1875
715.927	12062.7875
719.85171	12077.3875
723.77365	12063.7875
727.69284	11913.4875
731.60928	11803.8875
735.52295	11724.6875
739.43388	11713.8875
743.34206	11760.0875
747.24749	11786.5875
751.15017	11911.2875
755.05012	12077.7875
758.94733	12381.2875
762.8418	12866.9875
766.73354	13564.0875
770.62254	14216.8875
774.50882	14309.8875
778.39237	13791.4875
782.27321	13038.8875
786.15132	12389.2875
790.02671	12008.9875
793.89938	11821.0875
797.76935	11763.2875
801.6366	11725.9875
805.50115	11697.2875
809.36299	11621.1875
813.22213	11568.3875
817.07857	11528.7875
820.93231	11490.4875
824.78336	11415.9875
828.63172	11371.1875
832.47738	11368.9875
836.32036	11411.8875
840.16066	11437.7875
843.99827	11460.2875
847.8332	11455.7875
851.66546	11414.8875
855.49504	11398.8875
859.32195	11383.8875
863.1462	11355.0875
866.96777	11323.8875
870.78668	11309.5875
874.60293	11334.1875
878.41652	11307.8875
882.22745	11335.0875
886.03573	11369.7875
889.84136	11399.8875
893.64433	11352.0875
897.44466	11302.5875
901.24235	11266.0875
905.0374	11225.2875
908.8298	11202.1875
912.61957	11210.0875
916.40671	11322.2875
920.19121	11457.2875
923.97308	11582.7875
927.75233	11619.1875
931.52895	11525.1875
935.30295	11365.2875
939.07433	11203.8875
942.84309	11071.4875
946.60924	11017.9875
950.37278	10980.2875
954.13371	10975.7875
957.89203	10933.2875
961.64774	10920.6875
965.40086	10941.5875
969.15137	10906.3875
972.89929	10858.0875
976.64461	10794.5875
980.38733	10830.0875
984.12747	10824.1875
987.86502	10890.1875
991.59999	10989.1875
995.33237	11146.5875
999.06217	11344.7875
1002.78939	11632.0875
1006.51404	11817.5875
1010.23611	11937.9875
1013.95561	12029.4875
1017.67255	12070.2875
1021.38692	11936.3875
1025.09872	11810.9875
1028.80796	11812.7875
1032.51465	12042.4875
1036.21877	12285.2875
1039.92035	12363.5875
1043.61937	12279.3875
1047.31584	12093.9875
1051.00976	11875.4875
1054.70114	11743.8875
1058.38998	11747.5875
1062.07627	11793.9875
1065.76003	11883.3875
1069.44126	12002.2875
1073.11995	12126.8875
1076.79611	12276.8875
1080.46974	12351.7875
1084.14085	12409.3875
1087.80943	12491.7875
1091.47549	12525.0875
1095.13903	12582.5875
1098.80005	12458.3875
1102.45857	12221.5875
1106.11456	12022.1875
1109.76805	11910.6875
1113.41903	11920.2875
1117.06751	11952.6875
1120.71348	12049.9875
1124.35696	12157.8875
1127.99793	12273.2875
1131.63641	12376.7875
1135.2724	12320.6875
1138.90589	12260.0875
1142.5369	12280.6875
1146.16542	12332.5875
1149.79145	12399.4875
1153.415	12501.2875
1157.03607	12642.1875
1160.65467	12948.8875
1164.27079	13492.4875
1167.88443	14119.9875
1171.49561	14781.4875
1175.10432	15627.2875
1178.71056	16613.3875
1182.31434	17643.3875
1185.91565	18193.7875
1189.51451	18162.3875
1193.11091	17757.2875
1196.70485	17191.8875
1200.29634	16658.7875
1203.88538	16264.3875
1207.47197	16023.7875
1211.05612	15826.2875
1214.63782	15504.2875
1218.21708	15132.9875
1221.79391	14807.8875
1225.36829	14566.6875
1228.94024	14362.9875
1232.50976	14117.5875
1236.07685	13947.4875
1239.6415	13831.9875
1243.20374	13861.2875
1246.76355	13957.1875
1250.32093	14131.5875
1253.8759	14397.3875
1257.42845	14734.2875
1260.97859	15093.1875
1264.52631	15471.8875
1268.07163	15870.3875
1271.61453	16296.1875
1275.15503	16747.6875
1278.69312	17203.8875
1282.22882	17645.7875
1285.76211	18082.1875
1289.29301	18635.5875
1292.82151	19447.8875
1296.34761	20435.7875
1299.87133	21594.4875
1303.39266	22823.2875
1306.9116	23966.0875
1310.42815	24766.6875
1313.94233	25122.2875
1317.45412	24853.3875
1320.96354	24328.8875
1324.47058	23892.5875
1327.97525	23545.0875
1331.47754	23413.1875
1334.97747	23236.4875
1338.47502	23002.0875
1341.97022	22742.0875
1345.46305	22424.0875
1348.95352	22211.7875
1352.44163	22214.9875
1355.92738	22602.2875
1359.41078	23352.2875
1362.89183	24004.7875
1366.37053	23687.0875
1369.84688	22071.9875
1373.32088	19897.9875
1376.79254	18374.9875
1380.26186	17767.6875
1383.72883	17813.9875
1387.19347	17882.4875
1390.65578	17710.3875
1394.11575	17612.5875
1397.57339	17707.8875
1401.0287	18036.7875
1404.48168	18300.1875
1407.93234	18324.3875
1411.38068	18061.0875
1414.82669	17520.9875
1418.27039	16797.0875
1421.71177	16198.4875
1425.15083	15662.9875
1428.58758	15345.5875
1432.02203	15434.0875
1435.45416	15824.3875
1438.88399	16316.9875
1442.31151	16637.2875
1445.73673	16867.3875
1449.15965	16990.6875
1452.58027	17051.5875
1455.9986	16970.3875
1459.41463	16996.0875
1462.82837	17174.9875
1466.23982	17455.1875
1469.64898	17765.2875
1473.05586	17984.9875
1476.46045	18069.2875
1479.86276	17957.7875
1483.26279	17784.3875
1486.66054	17659.2875
1490.05602	17702.0875
1493.44922	17846.9875
1496.84016	17998.8875
1500.22882	18205.7875
1503.61521	18573.0875
1506.99934	19043.3875
1510.38121	19430.5875
1513.76081	19527.9875
1517.13816	19209.1875
1520.51324	18692.3875
1523.88607	18379.2875
1527.25665	18240.5875
1530.62498	18220.2875
1533.99105	18184.1875
1537.35488	18011.3875
1540.71647	17709.5875
1544.07581	17296.9875
1547.4329	16881.3875
1550.78776	16470.7875
1554.14038	16213.2875
1557.49077	16056.0875
1560.83892	15936.9875
1564.18484	15912.4875
1567.52853	15904.8875
1570.86999	16032.8875
1574.20922	16303.0875
1577.54624	16542.5875
1580.88103	16693.9875
1584.2136	16864.6875
1587.54395	17378.0875
1590.87208	18204.9875
1594.19801	19268.9875
1597.52172	20161.2875
1600.84321	20412.0875
1604.16251	19603.6875
1607.47959	18171.1875
1610.79447	16628.8875
1614.10715	15320.6875
1617.41763	14207.6875
1620.7259	13489.3875
1624.03199	13132.1875
1627.33587	13153.8875
1630.63757	13485.2875
1633.93707	14225.5875
1637.23439	15419.6875
1640.52951	17176.0875
1643.82246	19295.6875
1647.11321	21020.8875
1650.40179	21357.1875
1653.68819	19933.4875
1656.97241	17457.5875
1660.25446	15081.4875
1663.53433	13309.9875
1666.81203	12236.5875
1670.08756	11492.3875
1673.36092	11100.4875
1676.63211	10811.8875
1679.90115	10613.4875
1683.16801	10454.2875
1686.43272	10337.0875
1689.69527	10242.2875
1692.95567	10154.2875
1696.2139	10078.9875
1699.46999	10033.9875
1702.72392	9998.1875
1705.97571	9980.2875
1709.22535	9990.5875
1712.47284	10016.8875
1715.71819	9974.7875
1718.96139	9982.3875
1722.20246	9951.4875
1725.44139	9934.4875
1728.67818	9864.1875
1731.91284	9845.1875
1735.14537	9784.7875
1738.37576	9731.1875
1741.60403	9697.6875
1744.83017	9659.5875
1748.05418	9660.9875
1751.27607	9609.8875
1754.49584	9592.3875
1757.71349	9568.4875
1760.92903	9545.2875
1764.14244	9551.7875
1767.35375	9536.1875
1770.56294	9497.8875
1773.77002	9539.7875
1776.97499	9510.6875
1780.17785	9522.7875
1783.37861	9518.5875
1786.57727	9515.2875
1789.77382	9465.7875
1792.96828	9485.4875
1796.16064	9436.6875
1799.3509	9438.0875
1802.53907	9427.6875
1805.72514	9376.1875
1808.90913	9366.9875
1812.09102	9370.5875
1815.27083	9335.6875
1818.44856	9329.6875
1821.6242	9301.4875
1824.79776	9308.1875
1827.96924	9295.0875
1831.13864	9293.2875
1834.30597	9283.6875
1837.47122	9285.3875
1840.6344	9257.7875
1843.7955	9260.5875
1846.95454	9239.8875
1850.11151	9272.9875
1853.26642	9242.8875
1856.41926	9252.4875
1859.57004	9263.5875
1862.71876	9248.5875
1865.86542	9230.2875
1869.01003	9249.1875
1872.15258	9234.7875
1875.29308	9200.6875
1878.43152	9210.3875
1881.56792	9204.7875
1884.70227	9181.6875
1887.83457	9161.5875
1890.96482	9161.4875
1894.09304	9154.7875
1897.21921	9144.9875
1900.34335	9133.4875
1903.46544	9098.0875
1906.58551	9141.1875
1909.70353	9089.7875
1912.81953	9109.1875
1915.93349	9066.9875
1919.04543	9033.0875
1922.15534	9061.7875
1925.26322	9036.0875
1928.36908	9023.3875
1931.47292	8994.0875
1934.57473	8962.2875
1937.67453	8959.3875
1940.77232	8924.7875
1943.86808	8905.6875
1946.96184	8874.1875
1950.05358	8846.0875
1953.14331	8819.6875
1956.23103	8774.2875
1959.31675	8786.1875
1962.40046	8763.7875
1965.48217	8750.1875
1968.56188	8711.2875
1971.63959	8704.4875
1974.7153	8661.6875
1977.78901	8632.1875
1980.86073	8628.9875
1983.93046	8601.3875
1986.99819	8561.8875
1990.06394	8545.4875
1993.1277	8530.7875
1996.18947	8497.2875
1999.24925	8492.6875
2002.30706	8449.0875
2005.36288	8433.1875
2008.41672	8398.4875
2011.46859	8392.0875
2014.51848	8381.1875
2017.56639	8351.9875
2020.61233	8354.1875
2023.6563	8320.7875
2026.6983	8296.7875
2029.73833	8267.6875
2032.7764	8262.0875
2035.8125	8242.4875
2038.84664	8221.4875
2041.87881	8224.9875
2044.90903	8230.1875
2047.93729	8194.4875
2050.96359	8177.6875
2053.98794	8172.9875
2057.01034	8168.4875
2060.03078	8172.9875
2063.04927	8176.5875
2066.06582	8183.4875
2069.08042	8151.2875
2072.09307	8151.2875
2075.10378	8139.7875
2078.11255	8127.1875
2081.11938	8146.4875
2084.12426	8133.5875
2087.12722	8114.2875
2090.12824	8126.4875
2093.12732	8134.7875
2096.12447	8122.2875
2099.11969	8115.2875
2102.11299	8126.5875
2105.10435	8134.7875
2108.09379	8140.2875
2111.08131	8139.1875
2114.0669	8164.1875
2117.05057	8163.9875
2120.03233	8150.4875
2123.01216	8154.7875
2125.99008	8159.9875
2128.96609	8176.1875
2131.94018	8188.3875
2134.91236	8191.8875
2137.88263	8203.1875
2140.851	8195.0875
2143.81746	8185.5875
2146.78201	8202.9875
2149.74466	8208.8875
2152.7054	8191.3875
2155.66425	8216.0875
2158.6212	8199.6875
2161.57625	8202.7875
2164.52941	8208.6875
2167.48067	8195.6875
2170.43004	8201.5875
2173.37752	8198.1875
2176.32311	8190.3875
2179.26681	8196.0875
2182.20863	8196.1875
2185.14856	8195.8875
2188.08661	8193.9875
2191.02278	8205.5875
2193.95707	8199.2875
2196.88948	8208.4875
2199.82001	8186.5875
2202.74867	8180.6875
2205.67545	8165.2875
2208.60037	8160.9875
2211.52341	8157.3875
2214.44458	8140.6875
2217.36388	8121.1875
2220.28132	8138.9875
2223.1969	8112.8875
2226.11061	8094.1875
2229.02246	8085.1875
2231.93245	8073.3875
2234.84058	8071.3875
2237.74686	8040.2875
2240.65128	8047.6875
2243.55385	8034.0875
2246.45456	8012.1875
2249.35343	7994.3875
2252.25044	8000.9875
2255.14561	7990.1875
2258.03893	7981.0875
2260.93041	7952.3875
2263.82004	7947.0875
2266.70783	7923.1875
2269.59378	7896.3875
2272.4779	7880.0875
2275.36017	7866.3875
2278.24061	7845.9875
2281.11922	7853.6875
2283.996	7868.9875
2286.87094	7837.4875
2289.74405	7814.9875
2292.61534	7826.0875
2295.4848	7818.9875
2298.35243	7807.6875
2301.21824	7805.3875
2304.08223	7805.5875
2306.94439	7826.1875
2309.80474	7838.9875
2312.66327	7824.5875
2315.51999	7820.7875
2318.37489	7805.1875
2321.22797	7799.6875
2324.07925	7790.4875
2326.92871	7781.2875
2329.77637	7777.2875
2332.62222	7757.6875
2335.46626	7749.2875
2338.3085	7747.2875
2341.14893	7748.7875
2343.98756	7762.3875
2346.8244	7761.8875
2349.65943	7752.2875
2352.49267	7726.8875
2355.32411	7743.0875
2358.15376	7732.2875
2360.98161	7712.2875
2363.80768	7705.1875
2366.63195	7717.1875
2369.45444	7695.2875
2372.27514	7674.9875
2375.09405	7687.0875
2377.91118	7691.1875
2380.72652	7637.4875
2383.54009	7644.8875
2386.35187	7638.8875
2389.16188	7615.8875
2391.97011	7603.1875
2394.77657	7604.3875
2397.58125	7571.7875
2400.38416	7584.2875
2403.18529	7553.0875
2405.98466	7558.8875
2408.78226	7552.1875
2411.57809	7541.1875
2414.37216	7521.4875
2417.16446	7534.0875
2419.955	7518.0875
2422.74378	7508.9875
2425.5308	7506.9875
2428.31606	7515.0875
2431.09956	7506.2875
2433.88131	7470.8875
2436.6613	7482.8875
2439.43954	7502.7875
2442.21603	7480.5875
2444.99077	7471.3875
2447.76377	7501.9875
2450.53501	7470.1875
2453.30451	7479.8875
2456.07226	7482.7875
2458.83827	7463.2875
2461.60254	7457.7875
2464.36507	7463.5875
2467.12586	7448.0875
2469.88492	7461.1875
2472.64224	7454.6875
2475.39782	7469.5875
2478.15167	7457.5875
2480.90379	7457.9875
2483.65417	7472.5875
2486.40283	7470.2875
2489.14976	7463.4875
2491.89497	7469.2875
2494.63845	7468.2875
2497.3802	7453.4875
2500.12024	7449.9875
2502.85855	7466.5875
2505.59514	7446.7875
2508.33002	7431.1875
2511.06318	7456.9875
2513.79462	7430.9875
2516.52435	7431.5875
2519.25237	7441.7875
2521.97867	7430.6875
2524.70327	7418.2875
2527.42616	7413.0875
2530.14734	7424.5875
2532.86681	7423.9875
2535.58458	7399.9875
2538.30065	7409.3875
2541.01501	7397.7875
2543.72768	7395.2875
2546.43864	7394.9875
2549.14791	7376.7875
2551.85548	7368.5875
2554.56136	7365.0875
2557.26554	7344.0875
2559.96803	7347.3875
2562.66883	7354.7875
2565.36794	7333.0875
2568.06536	7340.4875
2570.7611	7323.0875
2573.45514	7343.4875
2576.14751	7324.8875
2578.83819	7304.0875
2581.52719	7308.1875
2584.21451	7301.6875
2586.90015	7278.7875
2589.58411	7283.2875
2592.2664	7314.5875
2594.94701	7264.0875
2597.62594	7282.5875
2600.30321	7251.6875
2602.9788	7244.8875
2605.65273	7253.7875
2608.32498	7260.0875
2610.99557	7263.4875
2613.66449	7233.9875
2616.33175	7254.8875
2618.99734	7277.9875
2621.66128	7251.2875
2624.32355	7255.9875
2626.98416	7254.3875
2629.64311	7249.8875
2632.30041	7263.9875
2634.95605	7228.7875
2637.61004	7227.3875
2640.26238	7222.2875
2642.91306	7201.9875
2645.56209	7214.7875
2648.20948	7186.9875
2650.85521	7192.1875
2653.4993	7206.0875
2656.14175	7214.3875
2658.78255	7219.2875
2661.42171	7229.3875
2664.05923	7241.8875
2666.6951	7236.4875
2669.32934	7245.7875
2671.96194	7217.6875
2674.59291	7249.3875
2677.22224	7233.4875
2679.84993	7235.9875
2682.476	7230.0875
2685.10043	7226.0875
2687.72324	7202.1875
2690.34441	7203.2875
2692.96396	7208.0875
2695.58188	7222.0875
2698.19818	7213.1875
2700.81285	7226.9875
2703.4259	7217.3875
2706.03733	7226.9875
2708.64714	7215.7875
2711.25533	7221.8875
2713.86191	7223.8875
2716.46687	7232.0875
2719.07021	7235.6875
2721.67194	7256.9875
2724.27206	7233.1875
2726.87057	7271.6875
2729.46747	7270.9875
2732.06276	7286.8875
2734.65644	7268.5875
2737.24852	7273.8875
2739.83899	7272.4875
2742.42786	7273.3875
2745.01513	7255.4875
2747.60079	7251.4875
2750.18486	7259.6875
2752.76733	7239.1875
2755.3482	7245.8875
2757.92747	7260.0875
2760.50515	7246.0875
2763.08123	7227.2875
2765.65573	7224.1875
2768.22863	7241.0875
2770.79994	7228.1875
2773.36967	7227.9875
2775.9378	7203.4875
2778.50435	7225.5875
2781.06932	7202.3875
2783.6327	7208.8875
2786.1945	7222.8875
2788.75471	7206.2875
2791.31335	7197.8875
2793.87041	7179.5875
2796.42589	7181.7875
2798.97979	7173.7875
2801.53212	7170.4875
2804.08288	7160.8875
2806.63206	7136.8875
2809.17967	7136.2875
2811.72571	7112.1875
2814.27018	7105.5875
2816.81308	7103.3875
2819.35442	7111.3875
2821.89419	7071.1875
2824.43239	7074.8875
2826.96904	7063.4875
2829.50412	7087.7875
2832.03763	7057.6875
2834.56959	7053.1875
2837.1	7052.5875
2839.62884	7059.5875
2842.15613	7061.6875
2844.68186	7081.1875
2847.20604	7082.5875
2849.72867	7072.1875
2852.24974	7069.8875
2854.76927	7061.0875
2857.28724	7068.5875
2859.80367	7059.5875
2862.31855	7058.1875
2864.83189	7045.7875
2867.34368	7027.4875
2869.85393	7019.6875
2872.36264	7020.6875
2874.8698	7019.7875
2877.37543	7032.6875
2879.87952	7029.9875
2882.38207	7014.1875
2884.88308	7022.8875
2887.38256	7020.0875
2889.88051	7021.4875
2892.37692	7023.9875
2894.8718	7030.8875
2897.36515	7016.8875
2899.85698	7036.0875
2902.34727	7057.1875
2904.83604	7050.8875
2907.32328	7078.6875
2909.809	7070.2875
2912.29319	7075.0875
2914.77587	7072.0875
2917.25702	7082.5875
2919.73665	7073.3875
2922.21476	7080.7875
2924.69136	7051.3875
2927.16644	7066.8875
2929.64	7061.8875
2932.11205	7073.0875
2934.58258	7053.5875
2937.05161	7051.1875
2939.51912	7056.1875
2941.98513	7023.4875
2944.44962	7017.5875
2946.91261	7004.2875
2949.37409	7026.2875
2951.83407	7003.7875
2954.29254	6987.8875
2956.74951	6996.3875
2959.20498	6989.4875
2961.65895	7004.1875
2964.11142	7007.5875
2966.56239	6974.4875
2969.01186	7000.6875
2971.45984	6960.9875
2973.90632	6963.5875
2976.35131	6948.1875
2978.7948	6935.1875
2981.23681	6927.7875
2983.67732	6915.8875
2986.11635	6908.5875
2988.55388	6890.5875
2990.98993	6889.4875
2993.4245	6879.5875
2995.85758	6878.8875
2998.28917	6861.7875
3000.71928	6843.0875
3003.14791	6838.1875
3005.57506	6809.1875
3008.00073	6798.5875
3010.42493	6793.2875
3012.84764	6792.2875
3015.26888	6795.0875
3017.68865	6790.7875
3020.10694	6763.2875
3022.52376	6754.4875
3024.9391	6744.4875
3027.35298	6734.5875
3029.76539	6747.2875
3032.17632	6742.3875
3034.5858	6725.8875
3036.9938	6721.5875
3039.40034	6749.1875
3041.80542	6739.6875
3044.20903	6707.4875
3046.61118	6720.2875
3049.01187	6698.5875
3051.4111	6711.2875
3053.80888	6687.8875
3056.20519	6691.2875
3058.60005	6677.7875
3060.99345	6653.4875
3063.3854	6625.7875
3065.7759	6617.1875
3068.16494	6619.7875
3070.55254	6612.2875
3072.93868	6588.4875
3075.32338	6579.4875
3077.70662	6588.0875
3080.08842	6581.4875
