Data from AgNPs_FTO_APTES_UA_1uM_CRN_10uM_R6G_20uM_NaF_0.1M_Addition_RamanShift__0__14-57-49-668.txt Node

Date: Thu Jan 27 14:57:49 GMT 2022
User: TCL
Spectrometer: QEP01345
Trigger mode: 4
Integration Time (sec): 7.000000E0
Scans to average: 10
Electric dark correction enabled: true
Nonlinearity correction enabled: false
Boxcar width: 0
XAxis mode: Raman Shifts
Number of Pixels in Spectrum: 1044
>>>>>Begin Spectral Data<<<<<
46.04893	0.8125
50.45542	-0.8875
54.85868	-1.7875
59.25871	-1.0875
63.6555	53.1125
68.04907	54.9125
72.43941	58.3125
76.82654	57.2125
81.21044	62.8125
85.59113	60.7125
89.96862	66.4125
94.34289	64.2125
98.71396	69.9125
103.08183	70.2125
107.4465	70.9125
111.80798	76.3125
116.16626	77.2125
120.52136	83.7125
124.87327	81.4125
129.222	82.3125
133.56755	87.7125
137.90993	94.3125
142.24913	99.9125
146.58517	113.8125
150.91804	130.0125
155.24774	154.0125
159.57429	178.9125
163.89768	229.2125
168.21792	301.7125
172.53501	406.2125
176.84895	559.8125
181.15975	785.0125
185.46741	1098.9125
189.77193	1512.2125
194.07331	2030.6125
198.37157	2620.9125
202.6667	3233.4125
206.9587	3842.0125
211.24758	4454.0125
215.53334	5063.5125
219.81599	5691.0125
224.09553	6392.5125
228.37195	7157.3125
232.64527	8015.4125
236.91549	8921.1125
241.18261	9808.4125
245.44663	10659.9125
249.70755	11446.4125
253.96539	12116.0125
258.22014	12683.4125
262.4718	13154.6125
266.72039	13491.4125
270.96589	13636.1125
275.20832	13668.1125
279.44768	13565.4125
283.68397	13417.0125
287.91719	13305.5125
292.14735	13160.3125
296.37445	13142.1125
300.59849	13173.2125
304.81948	13247.9125
309.03742	13282.4125
313.25231	13219.1125
317.46415	13098.2125
321.67296	12845.6125
325.87872	12655.0125
330.08145	12564.4125
334.28114	12544.5125
338.47781	12639.9125
342.67145	12753.0125
346.86207	12989.3125
351.04966	13237.0125
355.23424	13498.9125
359.4158	13716.2125
363.59435	13886.5125
367.76989	14022.9125
371.94243	14112.0125
376.11196	14166.7125
380.27849	14255.2125
384.44203	14291.0125
388.60257	14403.9125
392.76012	14515.0125
396.91468	14659.6125
401.06626	14867.6125
405.21485	15010.7125
409.36047	14985.0125
413.50311	14845.0125
417.64277	14701.8125
421.77947	14723.7125
425.9132	14753.5125
430.04396	14809.6125
434.17176	14873.9125
438.2966	14998.6125
442.41849	15228.1125
446.53742	15607.5125
450.6534	16024.0125
454.76644	16268.7125
458.87653	16384.5125
462.98368	16272.5125
467.08789	16072.6125
471.18916	15881.7125
475.2875	15623.8125
479.38291	15446.2125
483.4754	15321.0125
487.56496	15197.2125
491.6516	15087.2125
495.73531	14966.5125
499.81612	14931.8125
503.89401	15003.1125
507.96899	15056.8125
512.04106	15024.0125
516.11023	14981.0125
520.1765	14907.0125
524.23987	14851.0125
528.30034	14812.7125
532.35792	14730.5125
536.41261	14631.4125
540.46441	14412.1125
544.51333	14390.8125
548.55936	14463.8125
552.60252	14702.8125
556.64279	14976.4125
560.6802	15180.5125
564.71473	15238.7125
568.7464	15362.1125
572.7752	15608.1125
576.80114	15877.5125
580.82422	16169.8125
584.84444	16601.4125
588.86181	17270.4125
592.87633	17860.7125
596.888	17981.9125
600.89682	17510.5125
604.9028	17396.1125
608.90594	18384.0125
612.90624	19668.4125
616.90371	18868.0125
620.89834	16408.1125
624.89015	15236.7125
628.87913	15069.1125
632.86528	15078.9125
636.84862	15035.4125
640.82913	14858.3125
644.80683	14570.5125
648.78172	14371.8125
652.75379	14381.4125
656.72306	14536.3125
660.68952	14754.8125
664.65319	14716.8125
668.61405	14513.6125
672.57211	14504.7125
676.52738	14560.2125
680.47986	14526.3125
684.42955	14463.2125
688.37646	14401.9125
692.32058	14442.2125
696.26192	14664.0125
700.20048	14857.8125
704.13626	14943.0125
708.06928	14870.3125
711.99952	14788.1125
715.927	14802.8125
719.85171	14889.1125
723.77365	14829.5125
727.69284	14694.3125
731.60928	14514.0125
735.52295	14457.3125
739.43388	14479.3125
743.34206	14487.0125
747.24749	14555.9125
751.15017	14660.2125
755.05012	14806.6125
758.94733	15114.2125
762.8418	15675.3125
766.73354	16500.8125
770.62254	17344.6125
774.50882	17589.3125
778.39237	17127.0125
782.27321	16260.6125
786.15132	15478.6125
790.02671	14963.6125
793.89938	14721.3125
797.76935	14661.3125
801.6366	14603.2125
805.50115	14541.4125
809.36299	14478.9125
813.22213	14404.8125
817.07857	14341.1125
820.93231	14321.4125
824.78336	14312.7125
828.63172	14325.1125
832.47738	14352.8125
836.32036	14389.4125
840.16066	14437.2125
843.99827	14461.5125
847.8332	14443.8125
851.66546	14393.3125
855.49504	14368.4125
859.32195	14387.8125
863.1462	14343.4125
866.96777	14319.1125
870.78668	14290.0125
874.60293	14280.3125
878.41652	14299.7125
882.22745	14351.1125
886.03573	14423.6125
889.84136	14410.1125
893.64433	14323.7125
897.44466	14270.0125
901.24235	14238.0125
905.0374	14209.5125
908.8298	14190.4125
912.61957	14182.5125
916.40671	14268.0125
920.19121	14405.6125
923.97308	14565.3125
927.75233	14662.0125
931.52895	14625.2125
935.30295	14504.8125
939.07433	14309.3125
942.84309	14193.0125
946.60924	14128.3125
950.37278	14091.4125
954.13371	14046.4125
957.89203	14028.2125
961.64774	13998.8125
965.40086	13953.8125
969.15137	13984.0125
972.89929	13953.2125
976.64461	13975.6125
980.38733	14042.7125
984.12747	14087.6125
987.86502	14175.7125
991.59999	14347.3125
995.33237	14470.3125
999.06217	14776.2125
1002.78939	15154.7125
1006.51404	15407.2125
1010.23611	15573.2125
1013.95561	15671.1125
1017.67255	15649.3125
1021.38692	15499.8125
1025.09872	15357.0125
1028.80796	15428.0125
1032.51465	15771.2125
1036.21877	16111.2125
1039.92035	16185.6125
1043.61937	16061.3125
1047.31584	15785.2125
1051.00976	15453.7125
1054.70114	15314.3125
1058.38998	15267.8125
1062.07627	15272.9125
1065.76003	15320.1125
1069.44126	15436.1125
1073.11995	15650.5125
1076.79611	15831.6125
1080.46974	15933.4125
1084.14085	16024.0125
1087.80943	16094.3125
1091.47549	16154.1125
1095.13903	16156.0125
1098.80005	15961.4125
1102.45857	15708.7125
1106.11456	15528.0125
1109.76805	15434.7125
1113.41903	15446.9125
1117.06751	15479.1125
1120.71348	15556.2125
1124.35696	15679.0125
1127.99793	15829.0125
1131.63641	15936.9125
1135.2724	15818.7125
1138.90589	15734.9125
1142.5369	15685.4125
1146.16542	15746.3125
1149.79145	15789.6125
1153.415	15802.4125
1157.03607	15919.7125
1160.65467	16210.1125
1164.27079	16697.2125
1167.88443	17344.5125
1171.49561	18072.6125
1175.10432	19028.4125
1178.71056	20250.2125
1182.31434	21393.5125
1185.91565	22013.1125
1189.51451	21891.8125
1193.11091	21445.6125
1196.70485	20765.7125
1200.29634	20223.4125
1203.88538	19778.1125
1207.47197	19479.3125
1211.05612	19179.6125
1214.63782	18863.4125
1218.21708	18494.9125
1221.79391	18203.7125
1225.36829	18015.3125
1228.94024	17861.2125
1232.50976	17643.6125
1236.07685	17431.4125
1239.6415	17267.9125
1243.20374	17281.1125
1246.76355	17416.1125
1250.32093	17684.1125
1253.8759	18022.7125
1257.42845	18388.5125
1260.97859	18820.1125
1264.52631	19263.3125
1268.07163	19726.4125
1271.61453	20207.8125
1275.15503	20720.5125
1278.69312	21154.4125
1282.22882	21555.7125
1285.76211	22041.5125
1289.29301	22579.6125
1292.82151	23373.7125
1296.34761	24313.5125
1299.87133	25464.9125
1303.39266	26837.4125
1306.9116	28146.8125
1310.42815	29209.7125
1313.94233	29659.0125
1317.45412	29321.9125
1320.96354	28490.7125
1324.47058	27681.7125
1327.97525	27053.7125
1331.47754	26604.5125
1334.97747	26280.2125
1338.47502	26087.0125
1341.97022	25822.0125
1345.46305	25497.8125
1348.95352	25396.6125
1352.44163	25672.4125
1355.92738	26508.9125
1359.41078	27898.7125
1362.89183	29008.9125
1366.37053	28695.5125
1369.84688	26645.4125
1373.32088	23991.5125
1376.79254	22146.8125
1380.26186	21426.1125
1383.72883	21334.9125
1387.19347	21276.8125
1390.65578	20978.5125
1394.11575	20790.9125
1397.57339	20788.6125
1401.0287	20952.0125
1404.48168	21154.2125
1407.93234	21161.2125
1411.38068	20941.4125
1414.82669	20589.0125
1418.27039	20100.8125
1421.71177	19568.8125
1425.15083	19123.6125
1428.58758	18876.1125
1432.02203	18996.8125
1435.45416	19388.1125
1438.88399	19804.3125
1442.31151	20111.9125
1445.73673	20212.4125
1449.15965	20322.6125
1452.58027	20285.0125
1455.9986	20161.2125
1459.41463	20155.9125
1462.82837	20372.1125
1466.23982	20723.3125
1469.64898	21079.7125
1473.05586	21394.0125
1476.46045	21534.9125
1479.86276	21521.5125
1483.26279	21443.6125
1486.66054	21365.1125
1490.05602	21471.0125
1493.44922	21675.1125
1496.84016	21910.9125
1500.22882	22221.1125
1503.61521	22717.9125
1506.99934	23386.1125
1510.38121	23914.7125
1513.76081	24103.9125
1517.13816	23663.8125
1520.51324	22905.0125
1523.88607	22146.3125
1527.25665	21760.6125
1530.62498	21613.5125
1533.99105	21469.1125
1537.35488	21234.7125
1540.71647	20953.6125
1544.07581	20590.7125
1547.4329	20232.7125
1550.78776	19912.6125
1554.14038	19685.7125
1557.49077	19646.3125
1560.83892	19547.9125
1564.18484	19534.0125
1567.52853	19560.1125
1570.86999	19781.5125
1574.20922	20013.3125
1577.54624	20216.5125
1580.88103	20256.5125
1584.2136	20361.9125
1587.54395	20840.4125
1590.87208	21707.4125
1594.19801	22840.6125
1597.52172	23979.9125
1600.84321	24284.8125
1604.16251	23462.7125
1607.47959	21883.7125
1610.79447	20193.9125
1614.10715	18725.6125
1617.41763	17599.2125
1620.7259	16903.1125
1624.03199	16584.7125
1627.33587	16636.9125
1630.63757	17003.2125
1633.93707	17784.9125
1637.23439	19025.0125
1640.52951	20824.3125
1643.82246	22997.1125
1647.11321	24820.7125
1650.40179	25301.8125
1653.68819	23807.9125
1656.97241	21115.8125
1660.25446	18547.2125
1663.53433	16671.2125
1666.81203	15567.9125
1670.08756	14906.5125
1673.36092	14468.2125
1676.63211	14245.0125
1679.90115	14000.4125
1683.16801	13865.5125
1686.43272	13754.6125
1689.69527	13651.3125
1692.95567	13545.8125
1696.2139	13499.3125
1699.46999	13439.4125
1702.72392	13394.7125
1705.97571	13424.4125
1709.22535	13425.7125
1712.47284	13464.3125
1715.71819	13477.6125
1718.96139	13462.1125
1722.20246	13424.6125
1725.44139	13397.5125
1728.67818	13368.1125
1731.91284	13293.1125
1735.14537	13252.3125
1738.37576	13199.0125
1741.60403	13141.7125
1744.83017	13091.8125
1748.05418	13101.0125
1751.27607	13068.9125
1754.49584	13033.2125
1757.71349	13004.9125
1760.92903	12978.6125
1764.14244	12933.1125
1767.35375	12956.7125
1770.56294	12957.3125
1773.77002	12960.9125
1776.97499	12948.5125
1780.17785	12955.5125
1783.37861	12975.4125
1786.57727	12964.2125
1789.77382	12954.8125
1792.96828	12948.8125
1796.16064	12915.3125
1799.3509	12874.2125
1802.53907	12904.6125
1805.72514	12850.9125
1808.90913	12846.5125
1812.09102	12810.5125
1815.27083	12810.6125
1818.44856	12808.7125
1821.6242	12771.3125
1824.79776	12741.4125
1827.96924	12748.4125
1831.13864	12730.2125
1834.30597	12730.5125
1837.47122	12730.9125
1840.6344	12704.3125
1843.7955	12711.3125
1846.95454	12693.0125
1850.11151	12706.4125
1853.26642	12714.7125
1856.41926	12749.3125
1859.57004	12726.2125
1862.71876	12733.2125
1865.86542	12703.5125
1869.01003	12700.2125
1872.15258	12673.4125
1875.29308	12654.1125
1878.43152	12668.6125
1881.56792	12636.7125
1884.70227	12617.3125
1887.83457	12603.2125
1890.96482	12609.7125
1894.09304	12589.1125
1897.21921	12612.6125
1900.34335	12586.3125
1903.46544	12582.9125
1906.58551	12560.3125
1909.70353	12546.9125
1912.81953	12540.4125
1915.93349	12528.3125
1919.04543	12517.0125
1922.15534	12503.6125
1925.26322	12479.9125
1928.36908	12496.4125
1931.47292	12448.4125
1934.57473	12430.6125
1937.67453	12408.1125
1940.77232	12370.7125
1943.86808	12346.5125
1946.96184	12295.0125
1950.05358	12254.8125
1953.14331	12216.1125
1956.23103	12205.2125
1959.31675	12204.1125
1962.40046	12172.0125
1965.48217	12147.6125
1968.56188	12122.0125
1971.63959	12074.3125
1974.7153	12043.9125
1977.78901	12023.4125
1980.86073	11998.9125
1983.93046	11946.6125
1986.99819	11905.4125
1990.06394	11880.8125
1993.1277	11840.4125
1996.18947	11841.1125
1999.24925	11801.2125
2002.30706	11774.0125
2005.36288	11747.3125
2008.41672	11696.7125
2011.46859	11688.0125
2014.51848	11641.1125
2017.56639	11622.4125
2020.61233	11612.0125
2023.6563	11581.9125
2026.6983	11580.2125
2029.73833	11565.6125
2032.7764	11542.0125
2035.8125	11531.8125
2038.84664	11475.0125
2041.87881	11487.9125
2044.90903	11467.9125
2047.93729	11453.7125
2050.96359	11422.7125
2053.98794	11407.3125
2057.01034	11457.5125
2060.03078	11419.1125
2063.04927	11416.3125
2066.06582	11424.5125
2069.08042	11435.9125
2072.09307	11401.0125
2075.10378	11358.4125
2078.11255	11406.2125
2081.11938	11423.5125
2084.12426	11398.9125
2087.12722	11386.5125
2090.12824	11395.5125
2093.12732	11413.2125
2096.12447	11389.1125
2099.11969	11411.6125
2102.11299	11420.5125
2105.10435	11417.9125
2108.09379	11414.6125
2111.08131	11451.7125
2114.0669	11440.9125
2117.05057	11439.8125
2120.03233	11474.6125
2123.01216	11472.4125
2125.99008	11516.6125
2128.96609	11496.2125
2131.94018	11514.9125
2134.91236	11527.9125
2137.88263	11541.6125
2140.851	11571.2125
2143.81746	11556.2125
2146.78201	11571.8125
2149.74466	11559.2125
2152.7054	11609.3125
2155.66425	11573.6125
2158.6212	11599.5125
2161.57625	11569.8125
2164.52941	11579.3125
2167.48067	11578.2125
2170.43004	11563.4125
2173.37752	11573.2125
2176.32311	11569.4125
2179.26681	11602.7125
2182.20863	11583.9125
2185.14856	11577.9125
2188.08661	11610.1125
2191.02278	11619.3125
2193.95707	11614.5125
2196.88948	11602.0125
2199.82001	11590.6125
2202.74867	11581.0125
2205.67545	11588.5125
2208.60037	11595.7125
2211.52341	11560.8125
2214.44458	11561.1125
2217.36388	11533.2125
2220.28132	11523.8125
2223.1969	11531.4125
2226.11061	11484.5125
2229.02246	11486.8125
2231.93245	11497.2125
2234.84058	11437.5125
2237.74686	11426.0125
2240.65128	11455.2125
2243.55385	11413.7125
2246.45456	11430.3125
2249.35343	11381.3125
2252.25044	11396.9125
2255.14561	11385.8125
2258.03893	11358.2125
2260.93041	11327.8125
2263.82004	11303.3125
2266.70783	11285.1125
2269.59378	11265.8125
2272.4779	11240.3125
2275.36017	11200.6125
2278.24061	11210.9125
2281.11922	11214.6125
2283.996	11226.2125
2286.87094	11162.0125
2289.74405	11175.0125
2292.61534	11142.1125
2295.4848	11165.1125
2298.35243	11175.0125
2301.21824	11162.1125
2304.08223	11203.4125
2306.94439	11188.8125
2309.80474	11191.4125
2312.66327	11179.4125
2315.51999	11188.3125
2318.37489	11183.9125
2321.22797	11147.5125
2324.07925	11147.4125
2326.92871	11148.9125
2329.77637	11133.7125
2332.62222	11118.8125
2335.46626	11103.1125
2338.3085	11077.1125
2341.14893	11088.1125
2343.98756	11121.6125
2346.8244	11089.0125
2349.65943	11082.2125
2352.49267	11086.8125
2355.32411	11072.9125
2358.15376	11070.3125
2360.98161	11051.9125
2363.80768	11046.7125
2366.63195	11064.9125
2369.45444	11046.3125
2372.27514	11025.3125
2375.09405	11009.2125
2377.91118	11015.2125
2380.72652	10976.1125
2383.54009	10966.8125
2386.35187	10939.5125
2389.16188	10913.9125
2391.97011	10916.7125
2394.77657	10924.1125
2397.58125	10870.0125
2400.38416	10905.0125
2403.18529	10891.5125
2405.98466	10887.1125
2408.78226	10838.5125
2411.57809	10838.9125
2414.37216	10830.7125
2417.16446	10802.3125
2419.955	10798.9125
2422.74378	10820.7125
2425.5308	10796.4125
2428.31606	10784.6125
2431.09956	10783.2125
2433.88131	10778.8125
2436.6613	10773.9125
2439.43954	10785.4125
2442.21603	10760.0125
2444.99077	10762.9125
2447.76377	10758.2125
2450.53501	10755.7125
2453.30451	10762.5125
2456.07226	10739.4125
2458.83827	10743.2125
2461.60254	10750.7125
2464.36507	10743.4125
2467.12586	10735.3125
2469.88492	10721.0125
2472.64224	10739.9125
2475.39782	10736.1125
2478.15167	10746.7125
2480.90379	10731.8125
2483.65417	10760.4125
2486.40283	10762.8125
2489.14976	10762.1125
2491.89497	10746.3125
2494.63845	10761.9125
2497.3802	10738.4125
2500.12024	10710.0125
2502.85855	10763.4125
2505.59514	10735.9125
2508.33002	10755.8125
2511.06318	10731.4125
2513.79462	10724.1125
2516.52435	10692.4125
2519.25237	10719.3125
2521.97867	10697.3125
2524.70327	10721.2125
2527.42616	10688.4125
2530.14734	10711.1125
2532.86681	10658.7125
2535.58458	10669.1125
2538.30065	10663.6125
2541.01501	10645.3125
2543.72768	10636.7125
2546.43864	10644.3125
2549.14791	10627.5125
2551.85548	10613.0125
2554.56136	10593.8125
2557.26554	10573.5125
2559.96803	10590.5125
2562.66883	10585.4125
2565.36794	10608.1125
2568.06536	10556.0125
2570.7611	10550.9125
2573.45514	10540.6125
2576.14751	10547.2125
2578.83819	10530.9125
2581.52719	10523.5125
2584.21451	10527.7125
2586.90015	10501.6125
2589.58411	10519.8125
2592.2664	10498.4125
2594.94701	10504.8125
2597.62594	10474.4125
2600.30321	10473.4125
2602.9788	10445.9125
2605.65273	10468.5125
2608.32498	10455.1125
2610.99557	10459.4125
2613.66449	10454.7125
2616.33175	10459.0125
2618.99734	10450.7125
2621.66128	10443.6125
2624.32355	10447.0125
2626.98416	10422.1125
2629.64311	10416.9125
2632.30041	10438.6125
2634.95605	10395.5125
2637.61004	10378.3125
2640.26238	10354.6125
2642.91306	10365.9125
2645.56209	10352.8125
2648.20948	10373.0125
2650.85521	10376.4125
2653.4993	10377.9125
2656.14175	10384.6125
2658.78255	10377.8125
2661.42171	10398.5125
2664.05923	10400.5125
2666.6951	10406.3125
2669.32934	10410.1125
2671.96194	10392.5125
2674.59291	10409.5125
2677.22224	10419.4125
2679.84993	10396.9125
2682.476	10394.7125
2685.10043	10371.1125
2687.72324	10363.3125
2690.34441	10362.6125
2692.96396	10381.7125
2695.58188	10374.7125
2698.19818	10408.0125
2700.81285	10402.3125
2703.4259	10364.0125
2706.03733	10387.5125
2708.64714	10380.5125
2711.25533	10394.1125
2713.86191	10384.3125
2716.46687	10429.4125
2719.07021	10426.8125
2721.67194	10457.5125
2724.27206	10441.4125
2726.87057	10446.5125
2729.46747	10490.7125
2732.06276	10475.3125
2734.65644	10442.0125
2737.24852	10458.9125
2739.83899	10433.7125
2742.42786	10457.5125
2745.01513	10415.5125
2747.60079	10437.9125
2750.18486	10441.6125
2752.76733	10428.9125
2755.3482	10424.3125
2757.92747	10432.1125
2760.50515	10409.5125
2763.08123	10431.8125
2765.65573	10403.4125
2768.22863	10378.0125
2770.79994	10377.6125
2773.36967	10392.2125
2775.9378	10395.6125
2778.50435	10378.5125
2781.06932	10368.4125
2783.6327	10384.0125
2786.1945	10368.1125
2788.75471	10362.1125
2791.31335	10330.1125
2793.87041	10338.3125
2796.42589	10285.4125
2798.97979	10323.2125
2801.53212	10297.0125
2804.08288	10283.0125
2806.63206	10258.4125
2809.17967	10233.2125
2811.72571	10218.2125
2814.27018	10204.0125
2816.81308	10195.2125
2819.35442	10195.9125
2821.89419	10169.5125
2824.43239	10168.1125
2826.96904	10141.5125
2829.50412	10153.7125
2832.03763	10139.7125
2834.56959	10162.6125
2837.1	10125.1125
2839.62884	10134.5125
2842.15613	10127.6125
2844.68186	10133.4125
2847.20604	10152.5125
2849.72867	10152.3125
2852.24974	10167.2125
2854.76927	10137.9125
2857.28724	10131.3125
2859.80367	10135.5125
2862.31855	10110.9125
2864.83189	10111.4125
2867.34368	10068.9125
2869.85393	10080.2125
2872.36264	10076.1125
2874.8698	10068.9125
2877.37543	10080.7125
2879.87952	10052.6125
2882.38207	10071.9125
2884.88308	10064.7125
2887.38256	10080.0125
2889.88051	10084.6125
2892.37692	10087.9125
2894.8718	10094.6125
2897.36515	10111.8125
2899.85698	10082.0125
2902.34727	10123.0125
2904.83604	10115.0125
2907.32328	10141.3125
2909.809	10150.8125
2912.29319	10126.2125
2914.77587	10163.6125
2917.25702	10140.9125
2919.73665	10124.6125
2922.21476	10124.3125
2924.69136	10138.6125
2927.16644	10143.4125
2929.64	10127.5125
2932.11205	10117.0125
2934.58258	10073.7125
2937.05161	10107.9125
2939.51912	10104.5125
2941.98513	10091.4125
2944.44962	10078.6125
2946.91261	10022.3125
2949.37409	10050.2125
2951.83407	10057.1125
2954.29254	10042.2125
2956.74951	10046.8125
2959.20498	10051.3125
2961.65895	10031.0125
2964.11142	10052.9125
2966.56239	10030.2125
2969.01186	10022.7125
2971.45984	10012.6125
2973.90632	10033.7125
2976.35131	10006.3125
2978.7948	9999.5125
2981.23681	9994.2125
2983.67732	9945.4125
2986.11635	9937.3125
2988.55388	9904.5125
2990.98993	9914.4125
2993.4245	9890.0125
2995.85758	9869.6125
2998.28917	9852.7125
3000.71928	9825.2125
3003.14791	9820.3125
3005.57506	9817.3125
3008.00073	9810.6125
3010.42493	9816.6125
3012.84764	9800.3125
3015.26888	9811.8125
3017.68865	9785.2125
3020.10694	9778.8125
3022.52376	9741.5125
3024.9391	9729.1125
3027.35298	9729.4125
