Data from AgNPs_FTO_APTES_UA_1uM_CRN_100uM_R6G_10uM_NaF_0.1M_Addition_RamanShift__7__16-28-49-772.txt Node

Date: Thu Jan 27 16:28:49 GMT 2022
User: TCL
Spectrometer: QEP01345
Trigger mode: 4
Integration Time (sec): 7.000000E0
Scans to average: 10
Electric dark correction enabled: true
Nonlinearity correction enabled: false
Boxcar width: 0
XAxis mode: Raman Shifts
Number of Pixels in Spectrum: 1044
>>>>>Begin Spectral Data<<<<<
46.04893	0.8125
50.45542	-0.5875
54.85868	-2.3875
59.25871	-0.9875
63.6555	44.8125
68.04907	47.6125
72.43941	49.6125
76.82654	52.9125
81.21044	52.3125
85.59113	52.5125
89.96862	57.5125
94.34289	59.1125
98.71396	62.6125
103.08183	59.3125
107.4465	67.4125
111.80798	67.5125
116.16626	65.6125
120.52136	71.8125
124.87327	73.7125
129.222	73.5125
133.56755	76.5125
137.90993	79.5125
142.24913	88.1125
146.58517	97.1125
150.91804	109.8125
155.24774	128.5125
159.57429	150.3125
163.89768	191.9125
168.21792	251.9125
172.53501	340.5125
176.84895	470.9125
181.15975	662.4125
185.46741	914.1125
189.77193	1266.2125
194.07331	1695.6125
198.37157	2198.9125
202.6667	2704.2125
206.9587	3221.1125
211.24758	3728.3125
215.53334	4218.8125
219.81599	4738.4125
224.09553	5327.3125
228.37195	5936.1125
232.64527	6634.5125
236.91549	7358.9125
241.18261	8093.5125
245.44663	8787.0125
249.70755	9450.4125
253.96539	10029.2125
258.22014	10511.8125
262.4718	10913.6125
266.72039	11170.1125
270.96589	11328.3125
275.20832	11374.0125
279.44768	11340.8125
283.68397	11260.2125
287.91719	11147.9125
292.14735	11128.5125
296.37445	11097.5125
300.59849	11100.9125
304.81948	11138.6125
309.03742	11124.7125
313.25231	11028.4125
317.46415	10828.7125
321.67296	10597.7125
325.87872	10427.7125
330.08145	10307.9125
334.28114	10303.0125
338.47781	10363.2125
342.67145	10472.3125
346.86207	10583.4125
351.04966	10742.5125
355.23424	10933.7125
359.4158	11030.2125
363.59435	11164.9125
367.76989	11252.9125
371.94243	11314.7125
376.11196	11373.5125
380.27849	11414.0125
384.44203	11477.5125
388.60257	11530.9125
392.76012	11698.9125
396.91468	11820.3125
401.06626	11977.1125
405.21485	12084.8125
409.36047	12074.7125
413.50311	11985.8125
417.64277	11894.9125
421.77947	11920.3125
425.9132	11963.4125
430.04396	12025.3125
434.17176	12098.2125
438.2966	12147.2125
442.41849	12310.8125
446.53742	12543.9125
450.6534	12830.3125
454.76644	13025.1125
458.87653	13134.1125
462.98368	13089.0125
467.08789	13031.3125
471.18916	12920.6125
475.2875	12835.7125
479.38291	12784.0125
483.4754	12745.8125
487.56496	12606.4125
491.6516	12413.6125
495.73531	12202.4125
499.81612	12110.4125
503.89401	12162.5125
507.96899	12221.9125
512.04106	12235.5125
516.11023	12161.1125
520.1765	12031.3125
524.23987	11913.1125
528.30034	11797.8125
532.35792	11693.2125
536.41261	11602.2125
540.46441	11523.6125
544.51333	11544.1125
548.55936	11679.1125
552.60252	11870.2125
556.64279	12105.5125
560.6802	12304.0125
564.71473	12417.3125
568.7464	12586.0125
572.7752	12897.1125
576.80114	13229.8125
580.82422	13550.1125
584.84444	13948.8125
588.86181	14403.2125
592.87633	14766.5125
596.888	14589.3125
600.89682	14067.4125
604.9028	13875.0125
608.90594	14332.8125
612.90624	14885.4125
616.90371	14170.5125
620.89834	12512.6125
624.89015	11746.8125
628.87913	11726.7125
632.86528	11825.4125
636.84862	11844.8125
640.82913	11707.0125
644.80683	11499.9125
648.78172	11376.4125
652.75379	11374.5125
656.72306	11456.9125
660.68952	11530.6125
664.65319	11529.7125
668.61405	11364.8125
672.57211	11327.4125
676.52738	11355.4125
680.47986	11383.1125
684.42955	11338.0125
688.37646	11288.8125
692.32058	11332.7125
696.26192	11398.1125
700.20048	11543.4125
704.13626	11629.8125
708.06928	11641.3125
711.99952	11621.2125
715.927	11619.6125
719.85171	11639.2125
723.77365	11591.9125
727.69284	11478.5125
731.60928	11360.4125
735.52295	11278.0125
739.43388	11272.4125
743.34206	11318.2125
747.24749	11385.8125
751.15017	11461.1125
755.05012	11624.6125
758.94733	11915.8125
762.8418	12317.6125
766.73354	12915.6125
770.62254	13505.4125
774.50882	13566.4125
778.39237	13087.4125
782.27321	12402.5125
786.15132	11868.9125
790.02671	11510.8125
793.89938	11340.6125
797.76935	11249.7125
801.6366	11220.4125
805.50115	11178.4125
809.36299	11145.2125
813.22213	11102.0125
817.07857	11062.6125
820.93231	11061.2125
824.78336	11010.1125
828.63172	10952.3125
832.47738	10913.9125
836.32036	10926.3125
840.16066	10883.4125
843.99827	10912.6125
847.8332	10909.7125
851.66546	10884.6125
855.49504	10897.8125
859.32195	10888.2125
863.1462	10883.4125
866.96777	10858.2125
870.78668	10857.0125
874.60293	10835.0125
878.41652	10852.6125
882.22745	10850.6125
886.03573	10898.8125
889.84136	10906.6125
893.64433	10889.8125
897.44466	10828.0125
901.24235	10826.5125
905.0374	10776.3125
908.8298	10776.5125
912.61957	10781.1125
916.40671	10874.4125
920.19121	11009.0125
923.97308	11079.1125
927.75233	11075.5125
931.52895	10934.4125
935.30295	10809.1125
939.07433	10641.6125
942.84309	10540.7125
946.60924	10467.1125
950.37278	10435.6125
954.13371	10434.4125
957.89203	10428.0125
961.64774	10446.6125
965.40086	10419.0125
969.15137	10375.3125
972.89929	10317.8125
976.64461	10277.4125
980.38733	10247.5125
984.12747	10269.1125
987.86502	10261.4125
991.59999	10327.6125
995.33237	10376.0125
999.06217	10475.9125
1002.78939	10646.4125
1006.51404	10749.3125
1010.23611	10853.3125
1013.95561	10991.5125
1017.67255	11029.1125
1021.38692	10973.0125
1025.09872	10851.3125
1028.80796	10736.2125
1032.51465	10733.5125
1036.21877	10760.6125
1039.92035	10792.9125
1043.61937	10817.8125
1047.31584	10852.1125
1051.00976	10833.5125
1054.70114	10892.3125
1058.38998	10918.6125
1062.07627	11015.6125
1065.76003	11156.9125
1069.44126	11272.3125
1073.11995	11414.1125
1076.79611	11541.3125
1080.46974	11555.2125
1084.14085	11602.0125
1087.80943	11629.4125
1091.47549	11737.7125
1095.13903	11762.1125
1098.80005	11697.6125
1102.45857	11450.4125
1106.11456	11266.8125
1109.76805	11121.8125
1113.41903	11094.0125
1117.06751	11171.8125
1120.71348	11225.3125
1124.35696	11310.1125
1127.99793	11435.3125
1131.63641	11549.8125
1135.2724	11499.2125
1138.90589	11473.7125
1142.5369	11533.6125
1146.16542	11609.5125
1149.79145	11690.2125
1153.415	11793.8125
1157.03607	11944.4125
1160.65467	12261.1125
1164.27079	12746.8125
1167.88443	13275.8125
1171.49561	13821.1125
1175.10432	14474.1125
1178.71056	15273.3125
1182.31434	16042.9125
1185.91565	16415.3125
1189.51451	16326.5125
1193.11091	16107.9125
1196.70485	15711.9125
1200.29634	15321.7125
1203.88538	15012.3125
1207.47197	14885.5125
1211.05612	14782.4125
1214.63782	14517.2125
1218.21708	14105.1125
1221.79391	13697.1125
1225.36829	13361.2125
1228.94024	13190.5125
1232.50976	13014.7125
1236.07685	12892.4125
1239.6415	12836.1125
1243.20374	12868.5125
1246.76355	12932.8125
1250.32093	13085.3125
1253.8759	13259.7125
1257.42845	13501.2125
1260.97859	13830.5125
1264.52631	14135.7125
1268.07163	14401.8125
1271.61453	14715.1125
1275.15503	15046.1125
1278.69312	15461.4125
1282.22882	15864.1125
1285.76211	16367.8125
1289.29301	17025.4125
1292.82151	17803.6125
1296.34761	18684.5125
1299.87133	19743.7125
1303.39266	20641.6125
1306.9116	21373.5125
1310.42815	21838.2125
1313.94233	22102.3125
1317.45412	21989.7125
1320.96354	21752.5125
1324.47058	21582.5125
1327.97525	21445.0125
1331.47754	21377.4125
1334.97747	21282.1125
1338.47502	21086.3125
1341.97022	20892.8125
1345.46305	20654.5125
1348.95352	20412.4125
1352.44163	20275.8125
1355.92738	20456.1125
1359.41078	20910.1125
1362.89183	21355.1125
1366.37053	21031.3125
1369.84688	19772.2125
1373.32088	17993.7125
1376.79254	16756.2125
1380.26186	16312.2125
1383.72883	16419.5125
1387.19347	16509.1125
1390.65578	16419.4125
1394.11575	16371.4125
1397.57339	16465.8125
1401.0287	16721.1125
1404.48168	16884.6125
1407.93234	16817.1125
1411.38068	16450.2125
1414.82669	15883.3125
1418.27039	15195.7125
1421.71177	14576.5125
1425.15083	14066.6125
1428.58758	13851.4125
1432.02203	13906.6125
1435.45416	14194.7125
1438.88399	14597.1125
1442.31151	14930.8125
1445.73673	15119.6125
1449.15965	15304.6125
1452.58027	15381.8125
1455.9986	15406.8125
1459.41463	15459.3125
1462.82837	15585.3125
1466.23982	15784.2125
1469.64898	15982.9125
1473.05586	16167.9125
1476.46045	16181.8125
1479.86276	16102.2125
1483.26279	15891.6125
1486.66054	15826.2125
1490.05602	15856.7125
1493.44922	16004.1125
1496.84016	16170.7125
1500.22882	16435.6125
1503.61521	16796.6125
1506.99934	17211.3125
1510.38121	17562.6125
1513.76081	17692.7125
1517.13816	17498.7125
1520.51324	17177.6125
1523.88607	16956.1125
1527.25665	16934.3125
1530.62498	16909.1125
1533.99105	16849.0125
1537.35488	16605.3125
1540.71647	16250.1125
1544.07581	15763.2125
1547.4329	15319.7125
1550.78776	14951.0125
1554.14038	14709.1125
1557.49077	14525.4125
1560.83892	14461.1125
1564.18484	14464.3125
1567.52853	14501.4125
1570.86999	14668.3125
1574.20922	14975.1125
1577.54624	15256.0125
1580.88103	15419.5125
1584.2136	15564.8125
1587.54395	15949.7125
1590.87208	16548.8125
1594.19801	17267.9125
1597.52172	17927.1125
1600.84321	17981.5125
1604.16251	17254.1125
1607.47959	16072.6125
1610.79447	14896.3125
1614.10715	13805.4125
1617.41763	12948.2125
1620.7259	12310.1125
1624.03199	11979.0125
1627.33587	11947.6125
1630.63757	12222.2125
1633.93707	12842.4125
1637.23439	13932.4125
1640.52951	15535.1125
1643.82246	17483.3125
1647.11321	19075.6125
1650.40179	19454.0125
1653.68819	18272.1125
1656.97241	16127.3125
1660.25446	13960.6125
1663.53433	12309.4125
1666.81203	11276.8125
1670.08756	10597.3125
1673.36092	10217.3125
1676.63211	9942.2125
1679.90115	9771.5125
1683.16801	9605.5125
1686.43272	9509.2125
1689.69527	9414.0125
1692.95567	9317.0125
1696.2139	9266.2125
1699.46999	9177.9125
1702.72392	9146.9125
1705.97571	9139.3125
1709.22535	9153.9125
1712.47284	9182.5125
1715.71819	9179.1125
1718.96139	9129.4125
1722.20246	9128.7125
1725.44139	9088.6125
1728.67818	9047.5125
1731.91284	9000.4125
1735.14537	8946.1125
1738.37576	8928.0125
1741.60403	8879.2125
1744.83017	8853.8125
1748.05418	8825.1125
1751.27607	8794.4125
1754.49584	8772.9125
1757.71349	8759.6125
1760.92903	8702.7125
1764.14244	8692.6125
1767.35375	8726.9125
1770.56294	8689.6125
1773.77002	8692.7125
1776.97499	8682.6125
1780.17785	8672.3125
1783.37861	8694.9125
1786.57727	8669.7125
1789.77382	8657.4125
1792.96828	8640.1125
1796.16064	8618.0125
1799.3509	8595.1125
1802.53907	8613.3125
1805.72514	8557.2125
1808.90913	8553.5125
1812.09102	8522.7125
1815.27083	8509.7125
1818.44856	8506.4125
1821.6242	8499.5125
1824.79776	8481.9125
1827.96924	8454.9125
1831.13864	8464.6125
1834.30597	8467.7125
1837.47122	8447.8125
1840.6344	8442.8125
1843.7955	8434.0125
1846.95454	8413.8125
1850.11151	8409.7125
1853.26642	8404.3125
1856.41926	8395.5125
1859.57004	8394.9125
1862.71876	8395.4125
1865.86542	8406.5125
1869.01003	8398.6125
1872.15258	8367.8125
1875.29308	8363.7125
1878.43152	8350.8125
1881.56792	8328.6125
1884.70227	8296.7125
1887.83457	8299.9125
1890.96482	8273.1125
1894.09304	8268.1125
1897.21921	8279.3125
1900.34335	8261.8125
1903.46544	8218.2125
1906.58551	8219.1125
1909.70353	8211.4125
1912.81953	8207.3125
1915.93349	8190.8125
1919.04543	8166.4125
1922.15534	8164.0125
1925.26322	8161.1125
1928.36908	8133.8125
1931.47292	8093.4125
1934.57473	8107.0125
1937.67453	8074.1125
1940.77232	8042.8125
1943.86808	8026.4125
1946.96184	8017.2125
1950.05358	7966.5125
1953.14331	7975.5125
1956.23103	7909.9125
1959.31675	7927.4125
1962.40046	7895.2125
1965.48217	7858.2125
1968.56188	7830.0125
1971.63959	7819.8125
1974.7153	7806.1125
1977.78901	7774.8125
1980.86073	7753.8125
1983.93046	7717.9125
1986.99819	7711.5125
1990.06394	7677.3125
1993.1277	7657.4125
1996.18947	7636.6125
1999.24925	7595.3125
2002.30706	7596.5125
2005.36288	7573.6125
2008.41672	7553.9125
2011.46859	7526.5125
2014.51848	7510.1125
2017.56639	7495.8125
2020.61233	7476.0125
2023.6563	7451.2125
2026.6983	7416.9125
2029.73833	7427.2125
2032.7764	7409.1125
2035.8125	7380.6125
2038.84664	7363.7125
2041.87881	7336.3125
2044.90903	7338.9125
2047.93729	7313.9125
2050.96359	7295.9125
2053.98794	7273.6125
2057.01034	7319.9125
2060.03078	7310.2125
2063.04927	7279.2125
2066.06582	7279.0125
2069.08042	7279.7125
2072.09307	7266.2125
2075.10378	7257.6125
2078.11255	7254.0125
2081.11938	7253.2125
2084.12426	7231.9125
2087.12722	7262.3125
2090.12824	7240.7125
2093.12732	7237.8125
2096.12447	7219.0125
2099.11969	7239.7125
2102.11299	7226.6125
2105.10435	7225.6125
2108.09379	7247.4125
2111.08131	7242.7125
2114.0669	7226.3125
2117.05057	7233.2125
2120.03233	7253.9125
2123.01216	7255.1125
2125.99008	7261.5125
2128.96609	7264.9125
2131.94018	7268.1125
2134.91236	7258.5125
2137.88263	7288.5125
2140.851	7273.0125
2143.81746	7285.8125
2146.78201	7286.0125
2149.74466	7260.2125
2152.7054	7270.4125
2155.66425	7264.7125
2158.6212	7254.7125
2161.57625	7254.5125
2164.52941	7226.4125
2167.48067	7264.1125
2170.43004	7266.3125
2173.37752	7243.8125
2176.32311	7250.0125
2179.26681	7259.2125
2182.20863	7257.2125
2185.14856	7255.0125
2188.08661	7237.8125
2191.02278	7267.1125
2193.95707	7226.3125
2196.88948	7236.1125
2199.82001	7216.6125
2202.74867	7214.8125
2205.67545	7201.6125
2208.60037	7177.2125
2211.52341	7170.1125
2214.44458	7156.5125
2217.36388	7136.3125
2220.28132	7136.4125
2223.1969	7113.2125
2226.11061	7111.2125
2229.02246	7110.7125
2231.93245	7118.6125
2234.84058	7099.2125
2237.74686	7079.6125
2240.65128	7064.6125
2243.55385	7047.6125
2246.45456	7043.9125
2249.35343	7007.7125
2252.25044	7013.6125
2255.14561	7004.4125
2258.03893	7000.7125
2260.93041	6965.4125
2263.82004	6933.6125
2266.70783	6921.9125
2269.59378	6915.5125
2272.4779	6889.6125
2275.36017	6890.2125
2278.24061	6892.4125
2281.11922	6846.4125
2283.996	6847.7125
2286.87094	6847.3125
2289.74405	6835.4125
2292.61534	6829.0125
2295.4848	6800.2125
2298.35243	6813.7125
2301.21824	6805.6125
2304.08223	6807.8125
2306.94439	6812.4125
2309.80474	6784.3125
2312.66327	6768.6125
2315.51999	6770.8125
2318.37489	6771.9125
2321.22797	6752.6125
2324.07925	6752.5125
2326.92871	6749.6125
2329.77637	6736.2125
2332.62222	6723.4125
2335.46626	6697.8125
2338.3085	6699.6125
2341.14893	6686.1125
2343.98756	6705.5125
2346.8244	6690.2125
2349.65943	6666.7125
2352.49267	6665.2125
2355.32411	6694.0125
2358.15376	6667.2125
2360.98161	6682.2125
2363.80768	6645.7125
2366.63195	6646.6125
2369.45444	6656.7125
2372.27514	6649.3125
2375.09405	6631.0125
2377.91118	6646.0125
2380.72652	6604.9125
2383.54009	6575.7125
2386.35187	6605.7125
2389.16188	6574.7125
2391.97011	6550.4125
2394.77657	6526.8125
2397.58125	6512.1125
2400.38416	6521.2125
2403.18529	6515.7125
2405.98466	6504.4125
2408.78226	6496.4125
2411.57809	6501.6125
2414.37216	6486.6125
2417.16446	6468.3125
2419.955	6471.0125
2422.74378	6478.0125
2425.5308	6463.8125
2428.31606	6466.6125
2431.09956	6459.0125
2433.88131	6425.4125
2436.6613	6434.1125
2439.43954	6432.3125
2442.21603	6426.3125
2444.99077	6414.0125
2447.76377	6435.3125
2450.53501	6411.7125
2453.30451	6412.0125
2456.07226	6406.7125
2458.83827	6392.3125
2461.60254	6395.2125
2464.36507	6392.8125
2467.12586	6383.4125
2469.88492	6369.6125
2472.64224	6370.6125
2475.39782	6350.4125
2478.15167	6340.9125
2480.90379	6362.9125
2483.65417	6364.5125
2486.40283	6360.9125
2489.14976	6360.7125
2491.89497	6353.1125
2494.63845	6342.9125
2497.3802	6341.6125
2500.12024	6333.4125
2502.85855	6348.1125
2505.59514	6342.3125
2508.33002	6329.2125
2511.06318	6345.4125
2513.79462	6333.7125
2516.52435	6312.6125
2519.25237	6304.7125
2521.97867	6286.7125
2524.70327	6273.5125
2527.42616	6302.9125
2530.14734	6282.2125
2532.86681	6272.6125
2535.58458	6274.5125
2538.30065	6260.4125
2541.01501	6240.4125
2543.72768	6233.6125
2546.43864	6215.5125
2549.14791	6212.6125
2551.85548	6210.4125
2554.56136	6221.0125
2557.26554	6196.3125
2559.96803	6198.2125
2562.66883	6180.4125
2565.36794	6167.1125
2568.06536	6176.6125
2570.7611	6180.7125
2573.45514	6156.7125
2576.14751	6159.4125
2578.83819	6146.1125
2581.52719	6148.9125
2584.21451	6112.3125
2586.90015	6107.3125
2589.58411	6108.0125
2592.2664	6107.9125
2594.94701	6087.9125
2597.62594	6094.7125
2600.30321	6074.2125
2602.9788	6086.1125
2605.65273	6069.1125
2608.32498	6073.7125
2610.99557	6056.6125
2613.66449	6055.7125
2616.33175	6050.1125
2618.99734	6054.4125
2621.66128	6041.9125
2624.32355	6038.5125
2626.98416	6024.3125
2629.64311	6034.2125
2632.30041	5996.5125
2634.95605	6005.0125
2637.61004	5996.9125
2640.26238	5989.4125
2642.91306	6002.3125
2645.56209	5995.6125
2648.20948	5979.6125
2650.85521	5972.5125
2653.4993	5991.6125
2656.14175	5977.9125
2658.78255	5995.2125
2661.42171	5990.9125
2664.05923	6003.5125
2666.6951	6003.6125
2669.32934	5998.2125
2671.96194	5989.0125
2674.59291	5994.0125
2677.22224	5994.9125
2679.84993	5980.3125
2682.476	5992.6125
2685.10043	5990.3125
2687.72324	5978.3125
2690.34441	5981.2125
2692.96396	5968.7125
2695.58188	5998.1125
2698.19818	5984.5125
2700.81285	5975.6125
2703.4259	5968.0125
2706.03733	5954.2125
2708.64714	5939.6125
2711.25533	5981.1125
2713.86191	5968.3125
2716.46687	5983.6125
2719.07021	5992.2125
2721.67194	5994.4125
2724.27206	6001.5125
2726.87057	6013.0125
2729.46747	6004.9125
2732.06276	6010.9125
2734.65644	5994.3125
2737.24852	5988.5125
2739.83899	5981.9125
2742.42786	6006.4125
2745.01513	5977.5125
2747.60079	5971.9125
2750.18486	5985.0125
2752.76733	5961.1125
2755.3482	5958.0125
2757.92747	5980.8125
2760.50515	5945.3125
2763.08123	5951.3125
2765.65573	5935.1125
2768.22863	5940.2125
2770.79994	5925.6125
2773.36967	5937.3125
2775.9378	5915.9125
2778.50435	5912.5125
2781.06932	5936.6125
2783.6327	5929.1125
2786.1945	5910.7125
2788.75471	5896.5125
2791.31335	5882.2125
2793.87041	5915.8125
2796.42589	5866.3125
2798.97979	5870.5125
2801.53212	5850.0125
2804.08288	5848.5125
2806.63206	5828.2125
2809.17967	5822.8125
2811.72571	5808.4125
2814.27018	5807.3125
2816.81308	5786.9125
2819.35442	5788.4125
2821.89419	5784.0125
2824.43239	5763.5125
2826.96904	5748.8125
2829.50412	5754.8125
2832.03763	5739.0125
2834.56959	5729.5125
2837.1	5730.5125
2839.62884	5751.0125
2842.15613	5754.2125
2844.68186	5768.8125
2847.20604	5769.0125
2849.72867	5774.4125
2852.24974	5755.0125
2854.76927	5777.3125
2857.28724	5741.3125
2859.80367	5730.0125
2862.31855	5723.8125
2864.83189	5712.6125
2867.34368	5715.5125
2869.85393	5720.3125
2872.36264	5705.6125
2874.8698	5686.5125
2877.37543	5692.1125
2879.87952	5702.8125
2882.38207	5693.8125
2884.88308	5675.0125
2887.38256	5668.7125
2889.88051	5680.7125
2892.37692	5675.4125
2894.8718	5672.6125
2897.36515	5694.6125
2899.85698	5700.8125
2902.34727	5713.3125
2904.83604	5715.6125
2907.32328	5710.6125
2909.809	5698.7125
2912.29319	5698.5125
2914.77587	5691.9125
2917.25702	5703.9125
2919.73665	5695.5125
2922.21476	5708.3125
2924.69136	5711.2125
2927.16644	5706.0125
2929.64	5705.4125
2932.11205	5691.4125
2934.58258	5674.0125
2937.05161	5674.5125
2939.51912	5665.2125
2941.98513	5654.5125
2944.44962	5653.3125
2946.91261	5628.8125
2949.37409	5656.9125
2951.83407	5630.0125
2954.29254	5627.6125
2956.74951	5625.8125
2959.20498	5635.0125
2961.65895	5601.1125
2964.11142	5623.8125
2966.56239	5609.7125
2969.01186	5600.5125
2971.45984	5580.8125
2973.90632	5585.9125
2976.35131	5576.0125
2978.7948	5564.8125
2981.23681	5552.3125
2983.67732	5541.5125
2986.11635	5511.6125
2988.55388	5521.3125
2990.98993	5503.8125
2993.4245	5493.4125
2995.85758	5513.8125
2998.28917	5473.5125
3000.71928	5470.0125
3003.14791	5440.5125
3005.57506	5456.6125
3008.00073	5431.1125
3010.42493	5415.9125
3012.84764	5431.2125
3015.26888	5416.3125
3017.68865	5406.1125
3020.10694	5408.8125
3022.52376	5392.9125
3024.9391	5378.2125
3027.35298	5364.5125
3029.76539	5370.2125
3032.17632	5373.0125
3034.5858	5360.1125
3036.9938	5359.0125
3039.40034	5361.1125
3041.80542	5352.8125
3044.20903	5332.8125
3046.61118	5339.0125
3049.01187	5326.0125
3051.4111	5329.3125
3053.80888	5327.4125
3056.20519	5293.8125
3058.60005	5277.1125
3060.99345	5282.7125
3063.3854	5261.0125
3065.7759	5251.6125
3068.16494	5252.6125
3070.55254	5228.5125
3072.93868	5225.8125
3075.32338	5225.7125
3077.70662	5223.7125
3080.08842	5189.3125
3082.46878	5213.4125
