Data from AgNPs_FTO_APTES_UA_1uM_CRN_500uM_R6G_10uM_NaF_0.1M_Addition_RamanShift__33__18-23-09-902.txt Node

Date: Thu Jan 27 18:23:09 GMT 2022
User: TCL
Spectrometer: QEP01345
Trigger mode: 4
Integration Time (sec): 7.000000E0
Scans to average: 10
Electric dark correction enabled: true
Nonlinearity correction enabled: false
Boxcar width: 0
XAxis mode: Raman Shifts
Number of Pixels in Spectrum: 1044
>>>>>Begin Spectral Data<<<<<
46.04893	1.075
50.45542	1.275
54.85868	-0.125
59.25871	-1.325
63.6555	34.075
68.04907	35.075
72.43941	35.875
76.82654	40.875
81.21044	40.175
85.59113	41.775
89.96862	44.175
94.34289	47.275
98.71396	49.075
103.08183	46.675
107.4465	51.375
111.80798	52.675
116.16626	50.575
120.52136	56.975
124.87327	53.675
129.222	52.675
133.56755	53.875
137.90993	57.075
142.24913	57.775
146.58517	61.675
150.91804	68.475
155.24774	75.575
159.57429	85.475
163.89768	103.475
168.21792	133.175
172.53501	171.075
176.84895	230.975
181.15975	315.275
185.46741	435.975
189.77193	595.075
194.07331	788.975
198.37157	1019.075
202.6667	1262.275
206.9587	1484.675
211.24758	1719.975
215.53334	1971.475
219.81599	2248.775
224.09553	2536.075
228.37195	2860.275
232.64527	3226.375
236.91549	3580.975
241.18261	3922.775
245.44663	4203.875
249.70755	4431.875
253.96539	4639.075
258.22014	4793.575
262.4718	4948.475
266.72039	5053.475
270.96589	5131.075
275.20832	5119.875
279.44768	5056.075
283.68397	4955.175
287.91719	4881.375
292.14735	4853.375
296.37445	4915.775
300.59849	5077.475
304.81948	5267.375
309.03742	5425.875
313.25231	5438.075
317.46415	5215.375
321.67296	4838.575
325.87872	4545.275
330.08145	4399.375
334.28114	4389.275
338.47781	4454.075
342.67145	4564.875
346.86207	4735.275
351.04966	4998.575
355.23424	5291.475
359.4158	5523.075
363.59435	5645.975
367.76989	5694.675
371.94243	5692.075
376.11196	5666.575
380.27849	5663.675
384.44203	5578.875
388.60257	5533.475
392.76012	5480.175
396.91468	5513.975
401.06626	5649.375
405.21485	5747.875
409.36047	5692.575
413.50311	5414.475
417.64277	5144.175
421.77947	4998.175
425.9132	4900.675
430.04396	4881.175
434.17176	4897.275
438.2966	4980.875
442.41849	5117.175
446.53742	5252.775
450.6534	5396.275
454.76644	5500.875
458.87653	5518.175
462.98368	5466.975
467.08789	5370.275
471.18916	5258.875
475.2875	5159.375
479.38291	5075.475
483.4754	4999.175
487.56496	4906.075
491.6516	4881.675
495.73531	4851.675
499.81612	4860.875
503.89401	4901.475
507.96899	4965.875
512.04106	5026.775
516.11023	5161.275
520.1765	5219.075
524.23987	5192.475
528.30034	5101.375
532.35792	4999.975
536.41261	4877.375
540.46441	4759.575
544.51333	4711.975
548.55936	4741.175
552.60252	4798.975
556.64279	4912.575
560.6802	4990.875
564.71473	5062.575
568.7464	5255.775
572.7752	5382.275
576.80114	5221.375
580.82422	5061.375
584.84444	4984.675
588.86181	4996.475
592.87633	5065.175
596.888	5137.275
600.89682	5251.675
604.9028	5711.875
608.90594	7091.675
612.90624	9059.075
616.90371	8955.075
620.89834	6427.075
624.89015	5128.775
628.87913	4841.975
632.86528	4856.375
636.84862	4906.375
640.82913	4893.375
644.80683	4736.575
648.78172	4588.975
652.75379	4610.575
656.72306	4791.675
660.68952	5005.575
664.65319	4954.075
668.61405	4758.575
672.57211	4627.075
676.52738	4644.375
680.47986	4679.575
684.42955	4653.775
688.37646	4618.875
692.32058	4600.275
696.26192	4650.775
700.20048	4689.575
704.13626	4729.175
708.06928	4695.775
711.99952	4637.075
715.927	4633.075
719.85171	4629.175
723.77365	4645.675
727.69284	4596.175
731.60928	4578.875
735.52295	4575.675
739.43388	4582.075
743.34206	4602.875
747.24749	4608.475
751.15017	4633.375
755.05012	4697.675
758.94733	4896.075
762.8418	5292.075
766.73354	6064.975
770.62254	6978.575
774.50882	7527.475
778.39237	7337.175
782.27321	6443.975
786.15132	5507.475
790.02671	4962.675
793.89938	4722.175
797.76935	4640.775
801.6366	4568.575
805.50115	4566.675
809.36299	4539.975
813.22213	4534.275
817.07857	4512.575
820.93231	4518.375
824.78336	4534.975
828.63172	4550.575
832.47738	4551.575
836.32036	4558.675
840.16066	4534.075
843.99827	4506.075
847.8332	4490.275
851.66546	4478.475
855.49504	4499.975
859.32195	4482.875
863.1462	4475.675
866.96777	4450.675
870.78668	4441.275
874.60293	4423.775
878.41652	4441.675
882.22745	4452.675
886.03573	4483.375
889.84136	4487.075
893.64433	4467.375
897.44466	4448.175
901.24235	4430.375
905.0374	4431.275
908.8298	4402.375
912.61957	4384.375
916.40671	4403.375
920.19121	4450.775
923.97308	4478.775
927.75233	4517.175
931.52895	4575.675
935.30295	4548.975
939.07433	4412.375
942.84309	4315.875
946.60924	4223.775
950.37278	4178.875
954.13371	4156.875
957.89203	4114.075
961.64774	4085.275
965.40086	4077.475
969.15137	4076.575
972.89929	4040.075
976.64461	4064.475
980.38733	4096.175
984.12747	4042.275
987.86502	4053.375
991.59999	4078.375
995.33237	4115.775
999.06217	4174.675
1002.78939	4232.675
1006.51404	4310.675
1010.23611	4374.075
1013.95561	4428.975
1017.67255	4406.475
1021.38692	4365.775
1025.09872	4306.675
1028.80796	4254.175
1032.51465	4251.775
1036.21877	4288.075
1039.92035	4352.975
1043.61937	4402.275
1047.31584	4369.175
1051.00976	4400.075
1054.70114	4377.175
1058.38998	4370.875
1062.07627	4380.075
1065.76003	4388.075
1069.44126	4406.675
1073.11995	4467.575
1076.79611	4533.875
1080.46974	4604.075
1084.14085	4687.875
1087.80943	4773.975
1091.47549	4798.275
1095.13903	4730.275
1098.80005	4589.275
1102.45857	4451.375
1106.11456	4391.175
1109.76805	4407.075
1113.41903	4505.775
1117.06751	4633.475
1120.71348	4813.175
1124.35696	5036.175
1127.99793	5231.375
1131.63641	5250.575
1135.2724	5002.975
1138.90589	4743.875
1142.5369	4583.575
1146.16542	4506.475
1149.79145	4442.475
1153.415	4440.375
1157.03607	4470.975
1160.65467	4535.575
1164.27079	4702.675
1167.88443	4912.775
1171.49561	5292.675
1175.10432	5903.675
1178.71056	6752.975
1182.31434	7318.575
1185.91565	7420.275
1189.51451	7191.775
1193.11091	6740.575
1196.70485	6220.475
1200.29634	5836.075
1203.88538	5562.375
1207.47197	5253.875
1211.05612	4976.875
1214.63782	4852.075
1218.21708	4817.275
1221.79391	4815.775
1225.36829	4859.175
1228.94024	4875.075
1232.50976	4854.275
1236.07685	4873.375
1239.6415	4873.775
1243.20374	4878.275
1246.76355	4892.275
1250.32093	4925.975
1253.8759	4991.475
1257.42845	5112.875
1260.97859	5260.275
1264.52631	5402.475
1268.07163	5566.275
1271.61453	5700.475
1275.15503	5776.575
1278.69312	5780.775
1282.22882	5784.675
1285.76211	5890.775
1289.29301	6065.875
1292.82151	6285.775
1296.34761	6522.875
1299.87133	6815.575
1303.39266	7280.375
1306.9116	8035.175
1310.42815	8901.975
1313.94233	9518.275
1317.45412	9402.875
1320.96354	8800.875
1324.47058	8089.975
1327.97525	7438.475
1331.47754	6998.975
1334.97747	6829.175
1338.47502	6799.675
1341.97022	6873.475
1345.46305	7092.475
1348.95352	7494.675
1352.44163	8115.375
1355.92738	9034.375
1359.41078	10376.975
1362.89183	11759.675
1366.37053	11693.275
1369.84688	9996.475
1373.32088	8145.775
1376.79254	6967.175
1380.26186	6356.575
1383.72883	6077.275
1387.19347	5869.475
1390.65578	5635.175
1394.11575	5417.075
1397.57339	5294.975
1401.0287	5310.075
1404.48168	5388.475
1407.93234	5431.475
1411.38068	5448.475
1414.82669	5426.875
1418.27039	5343.875
1421.71177	5265.175
1425.15083	5172.275
1428.58758	5119.975
1432.02203	5160.275
1435.45416	5221.575
1438.88399	5288.075
1442.31151	5306.575
1445.73673	5305.975
1449.15965	5330.275
1452.58027	5324.575
1455.9986	5271.375
1459.41463	5227.675
1462.82837	5241.675
1466.23982	5327.775
1469.64898	5473.175
1473.05586	5546.775
1476.46045	5612.975
1479.86276	5718.575
1483.26279	5794.075
1486.66054	5920.875
1490.05602	6089.875
1493.44922	6325.775
1496.84016	6685.775
1500.22882	7241.675
1503.61521	8063.575
1506.99934	9045.375
1510.38121	10023.875
1513.76081	10560.575
1517.13816	10126.075
1520.51324	8892.675
1523.88607	7604.075
1527.25665	6695.075
1530.62498	6242.875
1533.99105	5989.875
1537.35488	5826.575
1540.71647	5714.175
1544.07581	5663.375
1547.4329	5626.075
1550.78776	5616.675
1554.14038	5602.475
1557.49077	5620.675
1560.83892	5696.075
1564.18484	5823.275
1567.52853	6008.175
1570.86999	6212.275
1574.20922	6340.575
1577.54624	6389.675
1580.88103	6128.375
1584.2136	5693.175
1587.54395	5436.475
1590.87208	5425.175
1594.19801	5666.675
1597.52172	6056.675
1600.84321	6294.575
1604.16251	6137.875
1607.47959	5766.975
1610.79447	5333.875
1614.10715	4934.875
1617.41763	4593.475
1620.7259	4419.875
1624.03199	4310.175
1627.33587	4313.175
1630.63757	4372.075
1633.93707	4533.375
1637.23439	4817.275
1640.52951	5275.575
1643.82246	5924.975
1647.11321	6713.275
1650.40179	7331.475
1653.68819	7225.575
1656.97241	6340.175
1660.25446	5273.475
1663.53433	4533.475
1666.81203	4121.575
1670.08756	3874.775
1673.36092	3729.375
1676.63211	3669.475
1679.90115	3618.775
1683.16801	3558.575
1686.43272	3518.675
1689.69527	3467.875
1692.95567	3424.375
1696.2139	3379.375
1699.46999	3339.975
1702.72392	3316.075
1705.97571	3329.775
1709.22535	3352.675
1712.47284	3376.575
1715.71819	3411.675
1718.96139	3420.675
1722.20246	3409.075
1725.44139	3420.475
1728.67818	3382.475
1731.91284	3359.375
1735.14537	3320.275
1738.37576	3303.575
1741.60403	3291.675
1744.83017	3274.975
1748.05418	3262.575
1751.27607	3242.075
1754.49584	3212.475
1757.71349	3194.975
1760.92903	3180.975
1764.14244	3150.975
1767.35375	3157.875
1770.56294	3139.375
1773.77002	3128.575
1776.97499	3128.675
1780.17785	3133.475
1783.37861	3146.775
1786.57727	3138.875
1789.77382	3138.175
1792.96828	3131.475
1796.16064	3113.575
1799.3509	3110.475
1802.53907	3108.175
1805.72514	3097.975
1808.90913	3072.575
1812.09102	3073.675
1815.27083	3076.375
1818.44856	3067.075
1821.6242	3049.275
1824.79776	3042.175
1827.96924	3039.375
1831.13864	3032.675
1834.30597	3031.075
1837.47122	3025.575
1840.6344	3027.375
1843.7955	3031.375
1846.95454	3022.675
1850.11151	3005.475
1853.26642	3010.575
1856.41926	3000.975
1859.57004	3012.975
1862.71876	3009.875
1865.86542	3009.175
1869.01003	3006.875
1872.15258	2996.075
1875.29308	2980.575
1878.43152	2983.975
1881.56792	2985.175
1884.70227	2978.675
1887.83457	2983.075
1890.96482	2986.175
1894.09304	2975.775
1897.21921	2976.275
1900.34335	2956.375
1903.46544	2967.575
1906.58551	2962.675
1909.70353	2961.075
1912.81953	2956.875
1915.93349	2946.175
1919.04543	2955.375
1922.15534	2953.075
1925.26322	2944.275
1928.36908	2931.775
1931.47292	2924.675
1934.57473	2907.175
1937.67453	2906.875
1940.77232	2877.375
1943.86808	2884.275
1946.96184	2859.775
1950.05358	2854.675
1953.14331	2845.775
1956.23103	2832.775
1959.31675	2819.675
1962.40046	2819.475
1965.48217	2810.875
1968.56188	2802.075
1971.63959	2792.175
1974.7153	2779.075
1977.78901	2775.175
1980.86073	2765.675
1983.93046	2758.575
1986.99819	2745.275
1990.06394	2727.375
1993.1277	2720.675
1996.18947	2706.575
1999.24925	2710.975
2002.30706	2691.575
2005.36288	2683.975
2008.41672	2683.475
2011.46859	2678.975
2014.51848	2660.175
2017.56639	2652.075
2020.61233	2647.175
2023.6563	2646.975
2026.6983	2634.575
2029.73833	2630.575
2032.7764	2617.975
2035.8125	2619.175
2038.84664	2602.475
2041.87881	2597.175
2044.90903	2592.875
2047.93729	2581.875
2050.96359	2594.675
2053.98794	2573.675
2057.01034	2557.175
2060.03078	2573.675
2063.04927	2569.975
2066.06582	2562.275
2069.08042	2555.975
2072.09307	2562.175
2075.10378	2564.775
2078.11255	2560.675
2081.11938	2552.175
2084.12426	2544.275
2087.12722	2555.675
2090.12824	2544.575
2093.12732	2548.975
2096.12447	2544.275
2099.11969	2545.375
2102.11299	2551.375
2105.10435	2536.075
2108.09379	2543.275
2111.08131	2552.175
2114.0669	2546.875
2117.05057	2553.375
2120.03233	2547.675
2123.01216	2540.275
2125.99008	2552.675
2128.96609	2558.075
2131.94018	2550.675
2134.91236	2552.475
2137.88263	2554.875
2140.851	2556.975
2143.81746	2549.875
2146.78201	2550.575
2149.74466	2546.075
2152.7054	2541.175
2155.66425	2535.775
2158.6212	2537.775
2161.57625	2522.075
2164.52941	2540.275
2167.48067	2534.075
2170.43004	2534.875
2173.37752	2535.875
2176.32311	2526.975
2179.26681	2529.775
2182.20863	2523.075
2185.14856	2516.175
2188.08661	2525.575
2191.02278	2531.575
2193.95707	2529.775
2196.88948	2513.275
2199.82001	2503.775
2202.74867	2498.875
2205.67545	2502.775
2208.60037	2493.775
2211.52341	2495.375
2214.44458	2481.775
2217.36388	2471.175
2220.28132	2471.775
2223.1969	2474.975
2226.11061	2470.275
2229.02246	2456.175
2231.93245	2457.275
2234.84058	2436.475
2237.74686	2438.775
2240.65128	2432.175
2243.55385	2435.575
2246.45456	2429.075
2249.35343	2422.875
2252.25044	2430.875
2255.14561	2421.775
2258.03893	2420.475
2260.93041	2408.375
2263.82004	2398.275
2266.70783	2410.275
2269.59378	2407.275
2272.4779	2393.375
2275.36017	2384.175
2278.24061	2386.575
2281.11922	2373.275
2283.996	2375.275
2286.87094	2371.675
2289.74405	2365.175
2292.61534	2356.775
2295.4848	2341.575
2298.35243	2342.475
2301.21824	2334.975
2304.08223	2349.575
2306.94439	2340.175
2309.80474	2330.575
2312.66327	2325.675
2315.51999	2325.075
2318.37489	2325.175
2321.22797	2318.775
2324.07925	2318.375
2326.92871	2312.375
2329.77637	2319.275
2332.62222	2306.375
2335.46626	2301.275
2338.3085	2299.375
2341.14893	2284.675
2343.98756	2296.875
2346.8244	2288.875
2349.65943	2288.775
2352.49267	2291.875
2355.32411	2292.475
2358.15376	2292.675
2360.98161	2289.775
2363.80768	2305.175
2366.63195	2299.275
2369.45444	2304.675
2372.27514	2303.875
2375.09405	2296.375
2377.91118	2293.875
2380.72652	2280.475
2383.54009	2276.175
2386.35187	2255.475
2389.16188	2248.775
2391.97011	2235.275
2394.77657	2235.575
2397.58125	2226.075
2400.38416	2221.275
2403.18529	2218.275
2405.98466	2212.075
2408.78226	2213.775
2411.57809	2214.075
2414.37216	2188.575
2417.16446	2202.575
2419.955	2200.775
2422.74378	2202.175
2425.5308	2191.975
2428.31606	2200.375
2431.09956	2194.175
2433.88131	2189.175
2436.6613	2191.075
2439.43954	2182.475
2442.21603	2182.875
2444.99077	2179.675
2447.76377	2189.775
2450.53501	2185.375
2453.30451	2185.675
2456.07226	2193.575
2458.83827	2183.475
2461.60254	2180.675
2464.36507	2181.475
2467.12586	2168.775
2469.88492	2167.075
2472.64224	2170.875
2475.39782	2172.775
2478.15167	2160.575
2480.90379	2170.075
2483.65417	2172.675
2486.40283	2165.375
2489.14976	2183.375
2491.89497	2173.175
2494.63845	2175.775
2497.3802	2175.275
2500.12024	2164.275
2502.85855	2169.175
2505.59514	2160.775
2508.33002	2150.775
2511.06318	2150.575
2513.79462	2149.775
2516.52435	2125.975
2519.25237	2129.875
2521.97867	2110.075
2524.70327	2113.575
2527.42616	2113.075
2530.14734	2101.475
2532.86681	2099.075
2535.58458	2106.775
2538.30065	2099.375
2541.01501	2101.375
2543.72768	2083.175
2546.43864	2088.475
2549.14791	2083.675
2551.85548	2100.275
2554.56136	2079.475
2557.26554	2084.275
2559.96803	2081.575
2562.66883	2071.275
2565.36794	2075.575
2568.06536	2077.975
2570.7611	2074.875
2573.45514	2059.575
2576.14751	2056.975
2578.83819	2053.475
2581.52719	2048.375
2584.21451	2053.975
2586.90015	2036.075
2589.58411	2036.275
2592.2664	2044.075
2594.94701	2029.175
2597.62594	2031.875
2600.30321	2022.175
2602.9788	2019.775
2605.65273	2018.375
2608.32498	2015.775
2610.99557	2011.175
2613.66449	2004.975
2616.33175	2006.175
2618.99734	2002.675
2621.66128	2004.575
2624.32355	2000.075
2626.98416	1991.675
2629.64311	1993.775
2632.30041	1995.775
2634.95605	1983.075
2637.61004	1970.675
2640.26238	1973.875
2642.91306	1972.475
2645.56209	1974.975
2648.20948	1970.275
2650.85521	1968.875
2653.4993	1977.075
2656.14175	1976.375
2658.78255	1978.075
2661.42171	1981.775
2664.05923	1984.175
2666.6951	1981.175
2669.32934	1988.475
2671.96194	1985.275
2674.59291	1979.475
2677.22224	1971.775
2679.84993	1983.675
2682.476	1985.075
2685.10043	1987.275
2687.72324	1976.475
2690.34441	1976.975
2692.96396	1977.175
2695.58188	1989.475
2698.19818	1976.675
2700.81285	1999.075
2703.4259	1985.275
2706.03733	1970.475
2708.64714	1974.575
2711.25533	1982.475
2713.86191	1994.375
2716.46687	1994.475
2719.07021	1994.775
2721.67194	1987.275
2724.27206	1994.775
2726.87057	1998.575
2729.46747	2002.875
2732.06276	1992.475
2734.65644	1994.875
2737.24852	1997.575
2739.83899	1994.675
2742.42786	1987.675
2745.01513	1962.975
2747.60079	1971.875
2750.18486	1971.875
2752.76733	1959.375
2755.3482	1951.175
2757.92747	1961.175
2760.50515	1945.475
2763.08123	1955.775
2765.65573	1946.675
2768.22863	1955.575
2770.79994	1944.675
2773.36967	1933.375
2775.9378	1946.975
2778.50435	1942.375
2781.06932	1942.075
2783.6327	1942.275
2786.1945	1948.275
2788.75471	1940.975
2791.31335	1941.675
2793.87041	1929.275
2796.42589	1934.975
2798.97979	1936.875
2801.53212	1948.475
2804.08288	1936.975
2806.63206	1945.375
2809.17967	1944.275
2811.72571	1940.575
2814.27018	1939.575
2816.81308	1950.575
2819.35442	1955.175
2821.89419	1957.475
2824.43239	1957.375
2826.96904	1959.075
2829.50412	1966.275
2832.03763	1966.075
2834.56959	1992.775
2837.1	2002.675
2839.62884	2022.675
2842.15613	2054.275
2844.68186	2107.275
2847.20604	2185.275
2849.72867	2230.975
2852.24974	2252.875
2854.76927	2243.575
2857.28724	2228.375
2859.80367	2213.775
2862.31855	2212.975
2864.83189	2186.375
2867.34368	2170.075
2869.85393	2179.975
2872.36264	2187.075
2874.8698	2189.675
2877.37543	2176.575
2879.87952	2174.875
2882.38207	2160.475
2884.88308	2156.975
2887.38256	2168.375
2889.88051	2171.075
2892.37692	2168.075
2894.8718	2185.275
2897.36515	2171.775
2899.85698	2181.075
2902.34727	2183.775
2904.83604	2192.975
2907.32328	2192.875
2909.809	2184.175
2912.29319	2188.675
2914.77587	2184.875
2917.25702	2181.875
2919.73665	2180.975
2922.21476	2182.075
2924.69136	2175.675
2927.16644	2185.375
2929.64	2187.575
2932.11205	2165.275
2934.58258	2154.875
2937.05161	2142.175
2939.51912	2130.875
2941.98513	2101.675
2944.44962	2062.175
2946.91261	2033.775
2949.37409	2022.775
2951.83407	1998.675
2954.29254	1972.375
2956.74951	1972.275
2959.20498	1961.475
2961.65895	1953.775
2964.11142	1941.675
2966.56239	1928.075
2969.01186	1921.975
2971.45984	1902.675
2973.90632	1896.975
2976.35131	1887.475
2978.7948	1883.575
2981.23681	1876.175
2983.67732	1869.375
2986.11635	1850.275
2988.55388	1852.375
2990.98993	1832.075
2993.4245	1841.975
2995.85758	1829.375
2998.28917	1830.575
3000.71928	1824.075
3003.14791	1821.375
3005.57506	1819.275
3008.00073	1819.875
3010.42493	1805.475
3012.84764	1819.275
3015.26888	1818.075
3017.68865	1816.875
3020.10694	1804.075
3022.52376	1815.775
3024.9391	1796.975
3027.35298	1809.175
3029.76539	1807.475
3032.17632	1808.775
3034.5858	1797.375
3036.9938	1803.175
3039.40034	1800.275
3041.80542	1798.675
3044.20903	1802.975
3046.61118	1799.575
3049.01187	1794.475
3051.4111	1789.475
3053.80888	1800.075
3056.20519	1806.775
3058.60005	1801.075
3060.99345	1801.875
3063.3854	1797.375
3065.7759	1800.075
3068.16494	1797.675
3070.55254	1800.875
3072.93868	1805.875
3075.32338	1794.275
3077.70662	1803.575
3080.08842	1790.675
3082.46878	1793.875
3084.84769	1791.975
3087.22515	1782.175
3089.60118	1784.375
3091.97576	1789.275
3094.3489	1790.675
3096.72061	1797.975
3099.09087	1798.075
3101.4597	1789.375
3103.82709	1806.675
3106.19305	1798.975
3108.55757	1803.875
3110.92066	1811.175
3113.28232	1798.675
3115.64255	1798.375
3118.00134	1796.675
3120.35871	1801.875
3122.71466	1801.375
3125.06917	1806.375
3127.42226	1813.975
3129.77393	1820.975
3132.12417	1817.675
3134.47299	1824.375
3136.82039	1838.775
3139.16636	1841.475
3141.51092	1837.475
3143.85406	1857.775
3146.19579	1845.875
3148.53609	1861.975
3150.87499	1870.875
3153.21246	1876.675
3155.54853	1881.575
3157.88318	1878.375
3160.21642	1900.075
3162.54826	1900.575
3164.87868	1898.875
3167.2077	1900.375
3169.5353	1925.975
3171.86151	1915.775
3174.18631	1920.675
3176.5097	1920.575
3178.83169	1920.075
3181.15228	1932.975
3183.47147	1928.575
3185.78926	1933.275
3188.10565	1940.975
3190.42065	1928.975
3192.73424	1941.375
3195.04645	1946.875
3197.35725	1964.175
3199.66667	1955.375
3201.97469	1965.875
3204.28132	1972.175
3206.58656	1974.575
3208.8904	1969.275
3211.19287	1976.575
3213.49394	1986.975
3215.79363	2001.375
3218.09193	2006.475
3220.38884	1993.775
3222.68438	1974.975
3224.97853	1992.475
3227.2713	1998.075
3229.56269	2006.975
3231.8527	2006.875
3234.14133	2004.375
3236.42858	2001.575
