Data from AgNPs_FTO_APTES_UA_1uM_CRN_0uM_R6G_10uM_NaF_0.1M_Addition_RamanShift__1__11-06-49-403.txt Node

Date: Thu Jan 27 11:06:49 GMT 2022
User: TCL
Spectrometer: QEP01345
Trigger mode: 4
Integration Time (sec): 7.000000E0
Scans to average: 10
Electric dark correction enabled: true
Nonlinearity correction enabled: false
Boxcar width: 0
XAxis mode: Raman Shifts
Number of Pixels in Spectrum: 1044
>>>>>Begin Spectral Data<<<<<
46.04893	0.9125
50.45542	0.9125
54.85868	-1.3875
59.25871	-0.5875
63.6555	24.8125
68.04907	26.9125
72.43941	27.3125
76.82654	27.9125
81.21044	31.7125
85.59113	33.1125
89.96862	35.5125
94.34289	37.5125
98.71396	37.9125
103.08183	37.7125
107.4465	38.7125
111.80798	38.6125
116.16626	36.8125
120.52136	43.0125
124.87327	40.7125
129.222	39.2125
133.56755	41.7125
137.90993	42.7125
142.24913	49.2125
146.58517	53.1125
150.91804	56.2125
155.24774	66.5125
159.57429	70.0125
163.89768	90.1125
168.21792	114.9125
172.53501	150.9125
176.84895	197.9125
181.15975	267.0125
185.46741	372.9125
189.77193	517.1125
194.07331	690.6125
198.37157	906.5125
202.6667	1145.0125
206.9587	1384.2125
211.24758	1607.5125
215.53334	1834.4125
219.81599	2081.7125
224.09553	2338.3125
228.37195	2621.7125
232.64527	2914.4125
236.91549	3235.4125
241.18261	3553.8125
245.44663	3866.7125
249.70755	4151.0125
253.96539	4387.3125
258.22014	4554.4125
262.4718	4659.2125
266.72039	4681.2125
270.96589	4661.4125
275.20832	4572.1125
279.44768	4411.6125
283.68397	4252.8125
287.91719	4077.2125
292.14735	3938.9125
296.37445	3779.9125
300.59849	3665.8125
304.81948	3577.2125
309.03742	3474.8125
313.25231	3396.3125
317.46415	3309.0125
321.67296	3243.9125
325.87872	3172.1125
330.08145	3128.0125
334.28114	3086.5125
338.47781	3069.3125
342.67145	3046.8125
346.86207	3039.7125
351.04966	3047.3125
355.23424	3029.9125
359.4158	3018.9125
363.59435	3003.9125
367.76989	2993.0125
371.94243	2973.0125
376.11196	2953.6125
380.27849	2943.2125
384.44203	2922.3125
388.60257	2899.7125
392.76012	2897.5125
396.91468	2901.5125
401.06626	2891.1125
405.21485	2901.7125
409.36047	2892.6125
413.50311	2877.7125
417.64277	2863.5125
421.77947	2864.3125
425.9132	2875.4125
430.04396	2895.9125
434.17176	2927.1125
438.2966	2972.5125
442.41849	3019.4125
446.53742	3054.0125
450.6534	3091.2125
454.76644	3117.5125
458.87653	3127.9125
462.98368	3136.9125
467.08789	3134.5125
471.18916	3134.3125
475.2875	3131.5125
479.38291	3110.9125
483.4754	3097.0125
487.56496	3072.6125
491.6516	3074.8125
495.73531	3070.5125
499.81612	3042.7125
503.89401	3050.2125
507.96899	3052.5125
512.04106	3044.9125
516.11023	3064.3125
520.1765	3052.7125
524.23987	3071.5125
528.30034	3056.1125
532.35792	3057.4125
536.41261	3078.0125
540.46441	3062.5125
544.51333	3084.6125
548.55936	3096.2125
552.60252	3116.6125
556.64279	3155.2125
560.6802	3156.5125
564.71473	3163.4125
568.7464	3174.7125
572.7752	3164.1125
576.80114	3132.9125
580.82422	3097.6125
584.84444	3050.6125
588.86181	3049.5125
592.87633	3041.1125
596.888	3040.0125
600.89682	3071.9125
604.9028	3145.9125
608.90594	3297.0125
612.90624	3514.7125
616.90371	3568.7125
620.89834	3398.1125
624.89015	3267.9125
628.87913	3195.2125
632.86528	3146.4125
636.84862	3143.0125
640.82913	3120.3125
644.80683	3109.7125
648.78172	3097.3125
652.75379	3114.6125
656.72306	3155.9125
660.68952	3212.0125
664.65319	3239.6125
668.61405	3294.7125
672.57211	3377.3125
676.52738	3470.1125
680.47986	3571.7125
684.42955	3636.5125
688.37646	3662.1125
692.32058	3635.0125
696.26192	3601.6125
700.20048	3553.3125
704.13626	3526.2125
708.06928	3494.7125
711.99952	3456.9125
715.927	3433.9125
719.85171	3390.6125
723.77365	3373.0125
727.69284	3371.4125
731.60928	3393.3125
735.52295	3404.1125
739.43388	3376.3125
743.34206	3360.5125
747.24749	3324.1125
751.15017	3310.3125
755.05012	3315.3125
758.94733	3326.6125
762.8418	3361.7125
766.73354	3428.9125
770.62254	3519.6125
774.50882	3594.3125
778.39237	3580.4125
782.27321	3517.9125
786.15132	3454.2125
790.02671	3426.9125
793.89938	3425.8125
797.76935	3453.9125
801.6366	3479.5125
805.50115	3490.2125
809.36299	3511.9125
813.22213	3498.0125
817.07857	3498.7125
820.93231	3468.8125
824.78336	3437.3125
828.63172	3428.3125
832.47738	3395.6125
836.32036	3413.7125
840.16066	3372.9125
843.99827	3381.1125
847.8332	3352.7125
851.66546	3332.5125
855.49504	3307.3125
859.32195	3298.7125
863.1462	3325.2125
866.96777	3323.7125
870.78668	3323.0125
874.60293	3339.2125
878.41652	3338.6125
882.22745	3355.5125
886.03573	3400.3125
889.84136	3444.2125
893.64433	3521.8125
897.44466	3590.6125
901.24235	3676.1125
905.0374	3766.9125
908.8298	3893.8125
912.61957	4074.9125
916.40671	4274.9125
920.19121	4491.2125
923.97308	4682.3125
927.75233	4844.2125
931.52895	4874.2125
935.30295	4831.3125
939.07433	4694.1125
942.84309	4497.3125
946.60924	4317.0125
950.37278	4170.1125
954.13371	4053.6125
957.89203	3957.0125
961.64774	3888.8125
965.40086	3805.9125
969.15137	3744.9125
972.89929	3686.2125
976.64461	3625.7125
980.38733	3575.8125
984.12747	3533.8125
987.86502	3517.8125
991.59999	3528.6125
995.33237	3511.2125
999.06217	3532.5125
1002.78939	3547.3125
1006.51404	3570.3125
1010.23611	3598.2125
1013.95561	3605.7125
1017.67255	3600.8125
1021.38692	3590.0125
1025.09872	3610.4125
1028.80796	3616.4125
1032.51465	3607.9125
1036.21877	3636.1125
1039.92035	3667.9125
1043.61937	3706.9125
1047.31584	3749.1125
1051.00976	3790.5125
1054.70114	3786.4125
1058.38998	3749.0125
1062.07627	3695.9125
1065.76003	3633.2125
1069.44126	3556.9125
1073.11995	3471.9125
1076.79611	3430.1125
1080.46974	3389.3125
1084.14085	3365.1125
1087.80943	3332.8125
1091.47549	3301.8125
1095.13903	3274.1125
1098.80005	3246.9125
1102.45857	3243.4125
1106.11456	3204.1125
1109.76805	3214.6125
1113.41903	3238.6125
1117.06751	3227.6125
1120.71348	3263.9125
1124.35696	3285.8125
1127.99793	3304.6125
1131.63641	3347.9125
1135.2724	3333.2125
1138.90589	3322.9125
1142.5369	3326.5125
1146.16542	3319.5125
1149.79145	3303.0125
1153.415	3280.6125
1157.03607	3273.1125
1160.65467	3276.2125
1164.27079	3286.5125
1167.88443	3330.0125
1171.49561	3353.9125
1175.10432	3423.1125
1178.71056	3537.9125
1182.31434	3650.0125
1185.91565	3704.9125
1189.51451	3713.5125
1193.11091	3695.5125
1196.70485	3623.1125
1200.29634	3568.4125
1203.88538	3509.0125
1207.47197	3444.9125
1211.05612	3391.7125
1214.63782	3365.3125
1218.21708	3362.9125
1221.79391	3402.0125
1225.36829	3438.6125
1228.94024	3475.0125
1232.50976	3507.9125
1236.07685	3533.1125
1239.6415	3540.0125
1243.20374	3567.6125
1246.76355	3593.7125
1250.32093	3598.3125
1253.8759	3645.1125
1257.42845	3692.5125
1260.97859	3734.5125
1264.52631	3778.6125
1268.07163	3843.1125
1271.61453	3899.4125
1275.15503	3988.3125
1278.69312	4072.7125
1282.22882	4150.0125
1285.76211	4246.4125
1289.29301	4355.9125
1292.82151	4478.3125
1296.34761	4587.6125
1299.87133	4678.1125
1303.39266	4751.6125
1306.9116	4802.3125
1310.42815	4842.8125
1313.94233	4836.3125
1317.45412	4782.4125
1320.96354	4690.4125
1324.47058	4583.1125
1327.97525	4501.9125
1331.47754	4499.0125
1334.97747	4514.6125
1338.47502	4580.6125
1341.97022	4670.1125
1345.46305	4778.9125
1348.95352	4910.9125
1352.44163	5081.3125
1355.92738	5246.2125
1359.41078	5425.7125
1362.89183	5602.2125
1366.37053	5682.0125
1369.84688	5530.9125
1373.32088	5351.6125
1376.79254	5212.6125
1380.26186	5106.1125
1383.72883	5075.7125
1387.19347	5057.5125
1390.65578	5031.3125
1394.11575	5019.4125
1397.57339	5010.9125
1401.0287	4967.8125
1404.48168	4937.3125
1407.93234	4895.2125
1411.38068	4835.7125
1414.82669	4806.8125
1418.27039	4738.5125
1421.71177	4697.5125
1425.15083	4649.7125
1428.58758	4612.4125
1432.02203	4541.2125
1435.45416	4522.7125
1438.88399	4508.4125
1442.31151	4490.1125
1445.73673	4479.7125
1449.15965	4475.1125
1452.58027	4480.9125
1455.9986	4508.8125
1459.41463	4528.6125
1462.82837	4546.7125
1466.23982	4598.7125
1469.64898	4643.9125
1473.05586	4680.1125
1476.46045	4707.8125
1479.86276	4734.6125
1483.26279	4740.0125
1486.66054	4776.7125
1490.05602	4757.3125
1493.44922	4730.9125
1496.84016	4718.2125
1500.22882	4729.6125
1503.61521	4759.5125
1506.99934	4807.8125
1510.38121	4843.3125
1513.76081	4855.0125
1517.13816	4747.7125
1520.51324	4581.8125
1523.88607	4442.8125
1527.25665	4320.0125
1530.62498	4240.0125
1533.99105	4198.8125
1537.35488	4139.1125
1540.71647	4121.3125
1544.07581	4077.9125
1547.4329	4054.9125
1550.78776	4021.7125
1554.14038	4002.4125
1557.49077	3976.8125
1560.83892	3924.7125
1564.18484	3903.2125
1567.52853	3859.4125
1570.86999	3829.6125
1574.20922	3804.1125
1577.54624	3772.7125
1580.88103	3704.5125
1584.2136	3636.3125
1587.54395	3560.6125
1590.87208	3515.3125
1594.19801	3496.8125
1597.52172	3467.5125
1600.84321	3451.4125
1604.16251	3433.3125
1607.47959	3424.2125
1610.79447	3383.9125
1614.10715	3369.7125
1617.41763	3336.1125
1620.7259	3327.7125
1624.03199	3303.0125
1627.33587	3297.7125
1630.63757	3292.0125
1633.93707	3272.0125
1637.23439	3260.4125
1640.52951	3251.0125
1643.82246	3241.4125
1647.11321	3238.1125
1650.40179	3244.5125
1653.68819	3184.5125
1656.97241	3074.0125
1660.25446	2943.9125
1663.53433	2827.5125
1666.81203	2760.4125
1670.08756	2705.4125
1673.36092	2654.4125
1676.63211	2656.6125
1679.90115	2621.2125
1683.16801	2587.3125
1686.43272	2564.1125
1689.69527	2505.5125
1692.95567	2461.5125
1696.2139	2401.2125
1699.46999	2326.4125
1702.72392	2287.2125
1705.97571	2317.7125
1709.22535	2361.3125
1712.47284	2386.7125
1715.71819	2409.6125
1718.96139	2406.6125
1722.20246	2396.0125
1725.44139	2391.7125
1728.67818	2397.6125
1731.91284	2378.1125
1735.14537	2367.5125
1738.37576	2354.3125
1741.60403	2337.0125
1744.83017	2332.9125
1748.05418	2322.9125
1751.27607	2321.2125
1754.49584	2280.0125
1757.71349	2255.2125
1760.92903	2234.5125
1764.14244	2208.5125
1767.35375	2212.6125
1770.56294	2200.4125
1773.77002	2208.0125
1776.97499	2219.7125
1780.17785	2246.3125
1783.37861	2252.5125
1786.57727	2270.2125
1789.77382	2258.7125
1792.96828	2255.9125
1796.16064	2248.6125
1799.3509	2243.4125
1802.53907	2237.7125
1805.72514	2225.4125
1808.90913	2224.4125
1812.09102	2222.9125
1815.27083	2214.5125
1818.44856	2229.3125
1821.6242	2214.8125
1824.79776	2195.8125
1827.96924	2203.7125
1831.13864	2194.4125
1834.30597	2202.3125
1837.47122	2187.5125
1840.6344	2190.9125
1843.7955	2186.7125
1846.95454	2181.8125
1850.11151	2191.0125
1853.26642	2182.3125
1856.41926	2182.8125
1859.57004	2183.6125
1862.71876	2177.4125
1865.86542	2179.3125
1869.01003	2178.1125
1872.15258	2161.7125
1875.29308	2163.8125
1878.43152	2162.5125
1881.56792	2158.0125
1884.70227	2150.9125
1887.83457	2153.4125
1890.96482	2157.3125
1894.09304	2139.8125
1897.21921	2147.7125
1900.34335	2151.5125
1903.46544	2140.4125
1906.58551	2132.9125
1909.70353	2140.0125
1912.81953	2128.5125
1915.93349	2122.3125
1919.04543	2124.5125
1922.15534	2120.3125
1925.26322	2116.6125
1928.36908	2114.9125
1931.47292	2109.8125
1934.57473	2106.1125
1937.67453	2112.0125
1940.77232	2094.2125
1943.86808	2084.4125
1946.96184	2093.9125
1950.05358	2091.8125
1953.14331	2076.9125
1956.23103	2076.1125
1959.31675	2069.1125
1962.40046	2062.1125
1965.48217	2060.1125
1968.56188	2055.3125
1971.63959	2043.2125
1974.7153	2044.2125
1977.78901	2029.0125
1980.86073	2029.6125
1983.93046	2025.7125
1986.99819	2013.7125
1990.06394	2008.9125
1993.1277	2015.8125
1996.18947	1998.1125
1999.24925	1998.5125
2002.30706	1979.1125
2005.36288	1980.8125
2008.41672	1984.9125
2011.46859	1982.1125
2014.51848	1962.4125
2017.56639	1967.0125
2020.61233	1958.8125
2023.6563	1961.8125
2026.6983	1959.2125
2029.73833	1951.6125
2032.7764	1951.6125
2035.8125	1935.7125
2038.84664	1949.4125
2041.87881	1946.1125
2044.90903	1942.5125
2047.93729	1931.6125
2050.96359	1947.3125
2053.98794	1947.6125
2057.01034	1954.1125
2060.03078	1969.1125
2063.04927	1979.4125
2066.06582	1985.5125
2069.08042	1994.6125
2072.09307	2007.5125
2075.10378	2012.3125
2078.11255	2007.3125
2081.11938	2026.4125
2084.12426	2035.9125
2087.12722	2035.8125
2090.12824	2042.0125
2093.12732	2049.6125
2096.12447	2048.3125
2099.11969	2051.5125
2102.11299	2033.6125
2105.10435	2037.5125
2108.09379	2030.9125
2111.08131	2026.2125
2114.0669	2015.4125
2117.05057	2006.0125
2120.03233	1986.7125
2123.01216	1986.5125
2125.99008	1975.7125
2128.96609	1969.5125
2131.94018	1961.7125
2134.91236	1956.2125
2137.88263	1940.4125
2140.851	1935.5125
2143.81746	1926.9125
2146.78201	1927.4125
2149.74466	1911.8125
2152.7054	1907.4125
2155.66425	1906.7125
2158.6212	1918.8125
2161.57625	1907.8125
2164.52941	1909.5125
2167.48067	1892.6125
2170.43004	1902.7125
2173.37752	1895.0125
2176.32311	1897.1125
2179.26681	1892.4125
2182.20863	1897.4125
2185.14856	1896.5125
2188.08661	1895.2125
2191.02278	1897.3125
2193.95707	1893.0125
2196.88948	1880.9125
2199.82001	1881.9125
2202.74867	1881.7125
2205.67545	1884.3125
2208.60037	1880.3125
2211.52341	1878.8125
2214.44458	1867.8125
2217.36388	1860.4125
2220.28132	1866.2125
2223.1969	1864.9125
2226.11061	1859.8125
2229.02246	1858.9125
2231.93245	1844.6125
2234.84058	1856.8125
2237.74686	1842.8125
2240.65128	1839.6125
2243.55385	1841.9125
2246.45456	1826.6125
2249.35343	1826.6125
2252.25044	1833.4125
2255.14561	1826.8125
2258.03893	1820.6125
2260.93041	1800.2125
2263.82004	1805.1125
2266.70783	1810.1125
2269.59378	1797.0125
2272.4779	1793.4125
2275.36017	1801.4125
2278.24061	1788.3125
2281.11922	1790.0125
2283.996	1783.8125
2286.87094	1785.1125
2289.74405	1775.6125
2292.61534	1773.8125
2295.4848	1768.0125
2298.35243	1774.1125
2301.21824	1770.0125
2304.08223	1773.3125
2306.94439	1766.0125
2309.80474	1759.4125
2312.66327	1762.8125
2315.51999	1762.0125
2318.37489	1758.3125
2321.22797	1756.8125
2324.07925	1754.2125
2326.92871	1743.7125
2329.77637	1749.3125
2332.62222	1739.1125
2335.46626	1741.6125
2338.3085	1736.6125
2341.14893	1731.4125
2343.98756	1718.3125
2346.8244	1719.6125
2349.65943	1720.5125
2352.49267	1713.7125
2355.32411	1724.9125
2358.15376	1719.9125
2360.98161	1711.2125
2363.80768	1715.4125
2366.63195	1707.7125
2369.45444	1705.3125
2372.27514	1712.2125
2375.09405	1706.6125
2377.91118	1697.9125
2380.72652	1698.8125
2383.54009	1690.4125
2386.35187	1699.9125
2389.16188	1689.0125
2391.97011	1700.5125
2394.77657	1679.3125
2397.58125	1675.9125
2400.38416	1670.6125
2403.18529	1675.3125
2405.98466	1664.4125
2408.78226	1658.8125
2411.57809	1660.4125
2414.37216	1664.2125
2417.16446	1661.7125
2419.955	1653.3125
2422.74378	1659.0125
2425.5308	1656.8125
2428.31606	1650.9125
2431.09956	1649.2125
2433.88131	1646.6125
2436.6613	1645.1125
2439.43954	1652.4125
2442.21603	1643.7125
2444.99077	1648.6125
2447.76377	1651.0125
2450.53501	1639.8125
2453.30451	1637.6125
2456.07226	1636.8125
2458.83827	1622.4125
2461.60254	1624.1125
2464.36507	1628.8125
2467.12586	1632.7125
2469.88492	1613.9125
2472.64224	1627.8125
2475.39782	1604.2125
2478.15167	1610.7125
2480.90379	1612.7125
2483.65417	1611.2125
2486.40283	1605.5125
2489.14976	1615.6125
2491.89497	1604.4125
2494.63845	1605.9125
2497.3802	1589.1125
2500.12024	1600.2125
2502.85855	1605.0125
2505.59514	1599.0125
2508.33002	1592.3125
2511.06318	1600.1125
2513.79462	1597.8125
2516.52435	1591.3125
2519.25237	1594.9125
2521.97867	1592.8125
2524.70327	1584.6125
2527.42616	1582.3125
2530.14734	1572.5125
2532.86681	1582.0125
2535.58458	1572.9125
2538.30065	1571.7125
2541.01501	1572.5125
2543.72768	1571.6125
2546.43864	1568.4125
2549.14791	1577.1125
2551.85548	1570.1125
2554.56136	1561.9125
2557.26554	1551.4125
2559.96803	1553.0125
2562.66883	1548.5125
2565.36794	1556.7125
2568.06536	1543.6125
2570.7611	1549.6125
2573.45514	1540.2125
2576.14751	1548.7125
2578.83819	1530.7125
2581.52719	1530.6125
2584.21451	1536.4125
2586.90015	1526.8125
2589.58411	1523.8125
2592.2664	1514.9125
2594.94701	1516.9125
2597.62594	1524.3125
2600.30321	1519.0125
2602.9788	1511.9125
2605.65273	1511.9125
2608.32498	1507.5125
2610.99557	1508.3125
2613.66449	1507.3125
2616.33175	1496.1125
2618.99734	1501.8125
2621.66128	1506.1125
2624.32355	1493.0125
2626.98416	1501.1125
2629.64311	1489.6125
2632.30041	1502.5125
2634.95605	1482.9125
2637.61004	1481.5125
2640.26238	1487.8125
2642.91306	1491.5125
2645.56209	1483.7125
2648.20948	1487.1125
2650.85521	1486.2125
2653.4993	1492.3125
2656.14175	1488.2125
2658.78255	1488.1125
2661.42171	1489.9125
2664.05923	1492.7125
2666.6951	1487.8125
2669.32934	1498.2125
2671.96194	1491.5125
2674.59291	1497.2125
2677.22224	1482.2125
2679.84993	1484.5125
2682.476	1493.0125
2685.10043	1493.7125
2687.72324	1491.6125
2690.34441	1493.8125
2692.96396	1490.6125
2695.58188	1501.8125
2698.19818	1498.1125
2700.81285	1492.9125
2703.4259	1482.8125
2706.03733	1428.4125
2708.64714	1445.4125
2711.25533	1469.2125
2713.86191	1481.0125
2716.46687	1481.8125
2719.07021	1484.1125
2721.67194	1491.4125
2724.27206	1491.5125
2726.87057	1498.3125
2729.46747	1497.6125
2732.06276	1503.0125
2734.65644	1493.1125
2737.24852	1503.0125
2739.83899	1493.0125
2742.42786	1499.2125
2745.01513	1491.8125
2747.60079	1487.4125
2750.18486	1486.9125
2752.76733	1490.2125
2755.3482	1491.9125
2757.92747	1494.0125
2760.50515	1486.7125
2763.08123	1485.4125
2765.65573	1490.1125
2768.22863	1491.0125
2770.79994	1494.7125
2773.36967	1481.5125
2775.9378	1488.2125
2778.50435	1482.6125
2781.06932	1481.1125
2783.6327	1474.3125
2786.1945	1485.3125
2788.75471	1473.9125
2791.31335	1461.8125
2793.87041	1464.5125
2796.42589	1467.0125
2798.97979	1468.0125
2801.53212	1459.5125
2804.08288	1460.7125
2806.63206	1455.4125
2809.17967	1453.4125
2811.72571	1456.4125
2814.27018	1446.5125
2816.81308	1435.5125
2819.35442	1443.2125
2821.89419	1446.1125
2824.43239	1441.0125
2826.96904	1440.0125
2829.50412	1442.4125
2832.03763	1439.2125
2834.56959	1438.5125
2837.1	1444.4125
2839.62884	1434.1125
2842.15613	1424.9125
2844.68186	1436.3125
2847.20604	1442.2125
2849.72867	1443.6125
2852.24974	1439.2125
2854.76927	1435.0125
2857.28724	1418.7125
2859.80367	1432.9125
2862.31855	1452.3125
2864.83189	1451.8125
2867.34368	1464.7125
2869.85393	1471.2125
2872.36264	1478.9125
2874.8698	1477.5125
2877.37543	1489.0125
2879.87952	1500.7125
2882.38207	1503.5125
2884.88308	1520.8125
2887.38256	1524.0125
2889.88051	1528.4125
2892.37692	1527.3125
2894.8718	1546.1125
2897.36515	1553.9125
2899.85698	1564.8125
2902.34727	1569.1125
2904.83604	1579.6125
2907.32328	1592.1125
2909.809	1597.8125
2912.29319	1609.0125
2914.77587	1620.3125
2917.25702	1627.3125
2919.73665	1636.0125
2922.21476	1645.6125
2924.69136	1667.6125
2927.16644	1669.1125
2929.64	1671.3125
2932.11205	1677.1125
2934.58258	1668.1125
2937.05161	1662.1125
2939.51912	1672.8125
2941.98513	1664.5125
2944.44962	1643.9125
2946.91261	1627.0125
2949.37409	1618.4125
2951.83407	1607.3125
2954.29254	1587.7125
2956.74951	1576.6125
2959.20498	1552.1125
2961.65895	1522.9125
2964.11142	1529.5125
2966.56239	1514.2125
2969.01186	1496.3125
2971.45984	1485.3125
2973.90632	1475.7125
2976.35131	1468.8125
2978.7948	1457.3125
2981.23681	1450.2125
2983.67732	1440.7125
2986.11635	1435.8125
2988.55388	1438.3125
2990.98993	1421.2125
2993.4245	1418.0125
2995.85758	1417.2125
2998.28917	1409.6125
3000.71928	1403.4125
3003.14791	1405.7125
3005.57506	1397.4125
3008.00073	1397.0125
3010.42493	1389.4125
3012.84764	1390.6125
3015.26888	1390.2125
3017.68865	1384.7125
3020.10694	1379.7125
3022.52376	1386.8125
3024.9391	1386.3125
3027.35298	1388.7125
3029.76539	1382.9125
3032.17632	1382.2125
3034.5858	1379.6125
3036.9938	1376.7125
3039.40034	1372.6125
3041.80542	1372.6125
3044.20903	1364.6125
3046.61118	1372.2125
3049.01187	1371.9125
3051.4111	1365.6125
3053.80888	1364.1125
3056.20519	1370.1125
3058.60005	1367.0125
3060.99345	1359.6125
3063.3854	1360.9125
3065.7759	1355.9125
3068.16494	1358.0125
3070.55254	1356.2125
3072.93868	1359.2125
3075.32338	1355.9125
3077.70662	1359.8125
3080.08842	1359.5125
3082.46878	1362.0125
3084.84769	1366.9125
3087.22515	1364.8125
3089.60118	1365.6125
3091.97576	1378.2125
3094.3489	1376.7125
3096.72061	1382.2125
3099.09087	1391.2125
3101.4597	1394.0125
3103.82709	1374.2125
3106.19305	1386.8125
3108.55757	1393.7125
3110.92066	1394.9125
3113.28232	1393.4125
3115.64255	1391.2125
3118.00134	1392.0125
3120.35871	1399.3125
3122.71466	1405.2125
3125.06917	1403.9125
