Data from AgNPs_FTO_APTES_UA_1uM_CRN_10uM_R6G_50uM_NaF_0.1M_Addition_RamanShift__16__15-59-39-738.txt Node

Date: Thu Jan 27 15:59:39 GMT 2022
User: TCL
Spectrometer: QEP01345
Trigger mode: 4
Integration Time (sec): 7.000000E0
Scans to average: 10
Electric dark correction enabled: true
Nonlinearity correction enabled: false
Boxcar width: 0
XAxis mode: Raman Shifts
Number of Pixels in Spectrum: 1044
>>>>>Begin Spectral Data<<<<<
46.04893	0.425
50.45542	0.725
54.85868	-1.875
59.25871	-0.775
63.6555	43.125
68.04907	42.725
72.43941	48.725
76.82654	52.825
81.21044	52.325
85.59113	55.825
89.96862	57.525
94.34289	59.425
98.71396	59.725
103.08183	60.425
107.4465	63.825
111.80798	67.625
116.16626	64.725
120.52136	71.625
124.87327	70.125
129.222	72.525
133.56755	73.625
137.90993	79.425
142.24913	86.125
146.58517	95.925
150.91804	110.425
155.24774	123.425
159.57429	149.425
163.89768	190.625
168.21792	247.825
172.53501	331.025
176.84895	459.225
181.15975	640.825
185.46741	876.925
189.77193	1223.425
194.07331	1633.125
198.37157	2119.425
202.6667	2613.125
206.9587	3103.925
211.24758	3576.225
215.53334	4063.525
219.81599	4566.925
224.09553	5104.925
228.37195	5718.625
232.64527	6396.725
236.91549	7117.725
241.18261	7844.125
245.44663	8507.025
249.70755	9147.225
253.96539	9711.325
258.22014	10157.125
262.4718	10570.525
266.72039	10807.025
270.96589	10986.525
275.20832	11047.725
279.44768	11008.925
283.68397	10932.525
287.91719	10870.525
292.14735	10840.925
296.37445	10855.425
300.59849	10873.825
304.81948	10877.325
309.03742	10803.825
313.25231	10669.125
317.46415	10433.725
321.67296	10141.725
325.87872	9937.525
330.08145	9781.525
334.28114	9787.325
338.47781	9844.825
342.67145	9965.325
346.86207	10127.225
351.04966	10265.525
355.23424	10457.425
359.4158	10601.825
363.59435	10697.725
367.76989	10765.925
371.94243	10857.625
376.11196	10919.225
380.27849	10978.225
384.44203	11034.725
388.60257	11131.525
392.76012	11225.525
396.91468	11361.025
401.06626	11540.925
405.21485	11618.125
409.36047	11594.825
413.50311	11450.025
417.64277	11341.025
421.77947	11304.525
425.9132	11317.325
430.04396	11413.625
434.17176	11483.325
438.2966	11556.025
442.41849	11706.025
446.53742	11940.625
450.6534	12214.825
454.76644	12441.925
458.87653	12567.125
462.98368	12567.125
467.08789	12502.325
471.18916	12425.825
475.2875	12341.425
479.38291	12315.925
483.4754	12247.825
487.56496	12092.225
491.6516	11911.225
495.73531	11748.425
499.81612	11657.725
503.89401	11713.325
507.96899	11753.425
512.04106	11713.425
516.11023	11656.725
520.1765	11584.925
524.23987	11489.725
528.30034	11398.625
532.35792	11243.325
536.41261	11185.425
540.46441	11103.225
544.51333	11115.625
548.55936	11262.025
552.60252	11487.225
556.64279	11698.425
560.6802	11813.425
564.71473	11911.625
568.7464	12015.225
572.7752	12256.125
576.80114	12449.825
580.82422	12638.525
584.84444	12788.625
588.86181	12864.125
592.87633	12956.725
596.888	13022.725
600.89682	13095.725
604.9028	13381.125
608.90594	14189.525
612.90624	14981.025
616.90371	14198.625
620.89834	12364.625
624.89015	11581.825
628.87913	11588.725
632.86528	11654.425
636.84862	11647.325
640.82913	11450.025
644.80683	11244.025
648.78172	11004.625
652.75379	10952.925
656.72306	10987.225
660.68952	11149.225
664.65319	11089.725
668.61405	10935.325
672.57211	10890.225
676.52738	10907.725
680.47986	10905.625
684.42955	10892.525
688.37646	10854.225
692.32058	10877.625
696.26192	10918.325
700.20048	11030.625
704.13626	11082.325
708.06928	11098.225
711.99952	11028.125
715.927	10996.425
719.85171	11011.725
723.77365	11010.725
727.69284	10904.325
731.60928	10822.925
735.52295	10772.625
739.43388	10776.925
743.34206	10811.825
747.24749	10845.225
751.15017	10900.525
755.05012	11059.725
758.94733	11354.025
762.8418	11803.925
766.73354	12544.525
770.62254	13264.725
774.50882	13400.925
778.39237	12887.625
782.27321	12083.925
786.15132	11415.625
790.02671	11029.125
793.89938	10861.225
797.76935	10799.425
801.6366	10772.425
805.50115	10739.625
809.36299	10667.425
813.22213	10586.825
817.07857	10580.025
820.93231	10570.225
824.78336	10503.925
828.63172	10486.125
832.47738	10498.025
836.32036	10504.625
840.16066	10540.225
843.99827	10578.225
847.8332	10532.925
851.66546	10494.125
855.49504	10473.825
859.32195	10477.525
863.1462	10452.325
866.96777	10442.225
870.78668	10420.125
874.60293	10407.225
878.41652	10376.125
882.22745	10372.225
886.03573	10435.925
889.84136	10437.025
893.64433	10425.725
897.44466	10354.925
901.24235	10324.825
905.0374	10270.525
908.8298	10253.325
912.61957	10299.325
916.40671	10370.525
920.19121	10469.125
923.97308	10594.325
927.75233	10603.025
931.52895	10546.625
935.30295	10475.625
939.07433	10296.725
942.84309	10160.525
946.60924	10073.125
950.37278	10058.525
954.13371	10023.225
957.89203	9980.125
961.64774	9968.525
965.40086	9932.725
969.15137	9914.525
972.89929	9875.325
976.64461	9829.425
980.38733	9805.925
984.12747	9860.525
987.86502	9890.525
991.59999	10018.325
995.33237	10199.225
999.06217	10432.125
1002.78939	10727.425
1006.51404	10816.325
1010.23611	10848.425
1013.95561	10905.925
1017.67255	10950.025
1021.38692	10870.625
1025.09872	10776.525
1028.80796	10842.125
1032.51465	11097.725
1036.21877	11378.725
1039.92035	11422.325
1043.61937	11271.425
1047.31584	11043.225
1051.00976	10840.125
1054.70114	10753.125
1058.38998	10784.625
1062.07627	10858.125
1065.76003	10918.225
1069.44126	10955.025
1073.11995	11058.225
1076.79611	11155.425
1080.46974	11221.425
1084.14085	11260.225
1087.80943	11347.025
1091.47549	11391.725
1095.13903	11405.525
1098.80005	11331.025
1102.45857	11106.725
1106.11456	10956.825
1109.76805	10888.625
1113.41903	10909.525
1117.06751	10964.025
1120.71348	11069.625
1124.35696	11127.125
1127.99793	11246.425
1131.63641	11323.225
1135.2724	11272.625
1138.90589	11184.125
1142.5369	11151.525
1146.16542	11153.325
1149.79145	11206.825
1153.415	11276.825
1157.03607	11460.225
1160.65467	11661.625
1164.27079	12064.825
1167.88443	12602.825
1171.49561	13287.325
1175.10432	14122.825
1178.71056	15184.925
1182.31434	16176.425
1185.91565	16724.425
1189.51451	16817.925
1193.11091	16474.525
1196.70485	15908.925
1200.29634	15274.525
1203.88538	14745.725
1207.47197	14404.125
1211.05612	14074.025
1214.63782	13837.925
1218.21708	13658.525
1221.79391	13465.425
1225.36829	13327.425
1228.94024	13202.525
1232.50976	12982.925
1236.07685	12812.425
1239.6415	12714.425
1243.20374	12695.625
1246.76355	12733.525
1250.32093	12896.725
1253.8759	13134.025
1257.42845	13419.725
1260.97859	13744.125
1264.52631	14032.125
1268.07163	14347.725
1271.61453	14690.825
1275.15503	15149.625
1278.69312	15588.525
1282.22882	15975.525
1285.76211	16328.325
1289.29301	16691.825
1292.82151	17185.925
1296.34761	17933.525
1299.87133	18836.525
1303.39266	19850.325
1306.9116	20931.225
1310.42815	21986.525
1313.94233	22615.625
1317.45412	22618.225
1320.96354	22230.025
1324.47058	21888.225
1327.97525	21544.125
1331.47754	21264.325
1334.97747	21153.225
1338.47502	21123.625
1341.97022	21100.125
1345.46305	21028.025
1348.95352	20795.925
1352.44163	20526.125
1355.92738	20452.525
1359.41078	20895.325
1362.89183	21312.925
1366.37053	20945.325
1369.84688	19537.525
1373.32088	17860.725
1376.79254	16656.325
1380.26186	16110.125
1383.72883	16046.625
1387.19347	16139.525
1390.65578	16100.725
1394.11575	16055.325
1397.57339	16214.025
1401.0287	16496.125
1404.48168	16711.125
1407.93234	16690.825
1411.38068	16439.725
1414.82669	15934.625
1418.27039	15289.225
1421.71177	14684.825
1425.15083	14230.425
1428.58758	13912.625
1432.02203	13886.925
1435.45416	14095.925
1438.88399	14463.725
1442.31151	14800.425
1445.73673	15081.125
1449.15965	15338.525
1452.58027	15561.725
1455.9986	15699.325
1459.41463	15802.925
1462.82837	16021.225
1466.23982	16249.125
1469.64898	16470.725
1473.05586	16559.225
1476.46045	16542.025
1479.86276	16422.025
1483.26279	16191.425
1486.66054	16054.425
1490.05602	15973.825
1493.44922	16029.025
1496.84016	16178.425
1500.22882	16421.325
1503.61521	16861.125
1506.99934	17432.625
1510.38121	17934.125
1513.76081	18149.725
1517.13816	17868.225
1520.51324	17319.525
1523.88607	16839.525
1527.25665	16566.025
1530.62498	16442.225
1533.99105	16365.425
1537.35488	16280.925
1540.71647	16091.025
1544.07581	15830.925
1547.4329	15523.725
1550.78776	15267.925
1554.14038	15095.125
1557.49077	15020.325
1560.83892	14963.325
1564.18484	14946.525
1567.52853	14962.525
1570.86999	15025.525
1574.20922	15245.025
1577.54624	15434.525
1580.88103	15486.325
1584.2136	15529.525
1587.54395	15814.125
1590.87208	16352.325
1594.19801	17112.225
1597.52172	17982.125
1600.84321	18268.525
1604.16251	17661.325
1607.47959	16549.425
1610.79447	15364.425
1614.10715	14252.125
1617.41763	13293.225
1620.7259	12587.125
1624.03199	12125.225
1627.33587	12071.825
1630.63757	12296.825
1633.93707	12889.325
1637.23439	13861.225
1640.52951	15238.825
1643.82246	16802.425
1647.11321	18025.225
1650.40179	18306.825
1653.68819	17427.325
1656.97241	15594.425
1660.25446	13661.225
1663.53433	12148.625
1666.81203	11129.225
1670.08756	10479.525
1673.36092	10099.225
1676.63211	9837.125
1679.90115	9656.325
1683.16801	9492.725
1686.43272	9363.225
1689.69527	9277.125
1692.95567	9185.625
1696.2139	9115.825
1699.46999	9076.625
1702.72392	9017.925
1705.97571	9009.725
1709.22535	9022.925
1712.47284	9027.925
1715.71819	9016.525
1718.96139	9016.725
1722.20246	8984.325
1725.44139	8958.325
1728.67818	8914.525
1731.91284	8881.825
1735.14537	8841.725
1738.37576	8775.425
1741.60403	8744.125
1744.83017	8722.325
1748.05418	8696.525
1751.27607	8690.625
1754.49584	8664.725
1757.71349	8623.525
1760.92903	8613.825
1764.14244	8587.825
1767.35375	8597.125
1770.56294	8574.125
1773.77002	8572.825
1776.97499	8567.825
1780.17785	8547.525
1783.37861	8572.325
1786.57727	8558.425
1789.77382	8543.325
1792.96828	8544.825
1796.16064	8508.925
1799.3509	8477.425
1802.53907	8505.125
1805.72514	8483.225
1808.90913	8438.925
1812.09102	8428.125
1815.27083	8404.425
1818.44856	8417.825
1821.6242	8364.825
1824.79776	8363.525
1827.96924	8357.225
1831.13864	8366.025
1834.30597	8355.625
1837.47122	8333.225
1840.6344	8340.825
1843.7955	8334.525
1846.95454	8356.325
1850.11151	8325.825
1853.26642	8331.625
1856.41926	8338.925
1859.57004	8331.625
1862.71876	8333.625
1865.86542	8328.225
1869.01003	8318.525
1872.15258	8293.325
1875.29308	8296.425
1878.43152	8285.925
1881.56792	8275.325
1884.70227	8252.525
1887.83457	8264.025
1890.96482	8227.925
1894.09304	8252.625
1897.21921	8240.625
1900.34335	8207.325
1903.46544	8212.325
1906.58551	8218.725
1909.70353	8201.225
1912.81953	8205.525
1915.93349	8185.125
1919.04543	8178.725
1922.15534	8145.625
1925.26322	8132.825
1928.36908	8105.025
1931.47292	8096.425
1934.57473	8073.225
1937.67453	8084.925
1940.77232	8053.825
1943.86808	8023.525
1946.96184	7980.725
1950.05358	7943.425
1953.14331	7933.325
1956.23103	7903.725
1959.31675	7882.925
1962.40046	7873.225
1965.48217	7858.525
1968.56188	7831.525
1971.63959	7792.525
1974.7153	7784.425
1977.78901	7768.225
1980.86073	7758.125
1983.93046	7722.825
1986.99819	7699.325
1990.06394	7676.525
1993.1277	7638.125
1996.18947	7619.425
1999.24925	7620.225
2002.30706	7588.525
2005.36288	7556.025
2008.41672	7549.025
2011.46859	7504.825
2014.51848	7504.125
2017.56639	7492.725
2020.61233	7478.525
2023.6563	7463.325
2026.6983	7430.025
2029.73833	7413.825
2032.7764	7394.025
2035.8125	7401.225
2038.84664	7372.925
2041.87881	7404.125
2044.90903	7372.225
2047.93729	7348.625
2050.96359	7349.225
2053.98794	7335.325
2057.01034	7333.425
2060.03078	7349.925
2063.04927	7330.625
2066.06582	7338.825
2069.08042	7319.525
2072.09307	7291.625
2075.10378	7303.925
2078.11255	7312.925
2081.11938	7292.825
2084.12426	7292.425
2087.12722	7288.525
2090.12824	7281.825
2093.12732	7283.525
2096.12447	7262.025
2099.11969	7277.125
2102.11299	7270.925
2105.10435	7291.525
2108.09379	7270.925
2111.08131	7292.325
2114.0669	7277.225
2117.05057	7301.625
2120.03233	7310.525
2123.01216	7310.425
2125.99008	7324.625
2128.96609	7325.725
2131.94018	7317.625
2134.91236	7333.825
2137.88263	7337.825
2140.851	7330.625
2143.81746	7331.725
2146.78201	7337.025
2149.74466	7338.125
2152.7054	7353.125
2155.66425	7342.925
2158.6212	7347.125
2161.57625	7336.725
2164.52941	7340.125
2167.48067	7359.825
2170.43004	7332.025
2173.37752	7350.025
2176.32311	7325.125
2179.26681	7346.425
2182.20863	7341.325
2185.14856	7340.025
2188.08661	7338.225
2191.02278	7332.625
2193.95707	7343.825
2196.88948	7338.625
2199.82001	7324.625
2202.74867	7324.025
2205.67545	7328.225
2208.60037	7295.525
2211.52341	7310.325
2214.44458	7300.325
2217.36388	7284.525
2220.28132	7271.025
2223.1969	7252.925
2226.11061	7257.225
2229.02246	7238.525
2231.93245	7226.125
2234.84058	7197.725
2237.74686	7195.225
2240.65128	7174.025
2243.55385	7173.925
2246.45456	7173.625
2249.35343	7163.825
2252.25044	7126.425
2255.14561	7127.525
2258.03893	7114.325
2260.93041	7103.325
2263.82004	7103.125
2266.70783	7081.225
2269.59378	7056.325
2272.4779	7040.325
2275.36017	7034.825
2278.24061	7017.425
2281.11922	7012.625
2283.996	7008.225
2286.87094	6994.725
2289.74405	6980.225
2292.61534	6973.825
2295.4848	6941.925
2298.35243	6967.125
2301.21824	6948.025
2304.08223	6970.525
2306.94439	6952.425
2309.80474	6991.525
2312.66327	6989.325
2315.51999	6973.725
2318.37489	6969.325
2321.22797	6975.425
2324.07925	6951.825
2326.92871	6929.725
2329.77637	6939.525
2332.62222	6923.625
2335.46626	6917.325
2338.3085	6914.325
2341.14893	6915.425
2343.98756	6932.425
2346.8244	6929.225
2349.65943	6927.725
2352.49267	6912.625
2355.32411	6920.825
2358.15376	6885.725
2360.98161	6890.025
2363.80768	6898.225
2366.63195	6901.225
2369.45444	6889.225
2372.27514	6870.425
2375.09405	6873.225
2377.91118	6861.025
2380.72652	6811.225
2383.54009	6798.825
2386.35187	6793.525
2389.16188	6775.525
2391.97011	6778.525
2394.77657	6753.325
2397.58125	6742.825
2400.38416	6745.225
2403.18529	6736.425
2405.98466	6725.125
2408.78226	6720.425
2411.57809	6704.525
2414.37216	6679.825
2417.16446	6694.125
2419.955	6670.725
2422.74378	6675.625
2425.5308	6673.625
2428.31606	6678.425
2431.09956	6647.225
2433.88131	6650.125
2436.6613	6637.525
2439.43954	6661.225
2442.21603	6643.425
2444.99077	6640.225
2447.76377	6638.325
2450.53501	6639.525
2453.30451	6635.025
2456.07226	6619.225
2458.83827	6607.125
2461.60254	6617.825
2464.36507	6623.325
2467.12586	6614.125
2469.88492	6624.625
2472.64224	6606.725
2475.39782	6624.925
2478.15167	6616.225
2480.90379	6576.925
2483.65417	6624.325
2486.40283	6611.525
2489.14976	6629.925
2491.89497	6620.125
2494.63845	6620.925
2497.3802	6596.325
2500.12024	6612.725
2502.85855	6618.925
2505.59514	6589.225
2508.33002	6596.625
2511.06318	6600.325
2513.79462	6609.525
2516.52435	6582.525
2519.25237	6584.125
2521.97867	6586.925
2524.70327	6577.825
2527.42616	6566.725
2530.14734	6572.725
2532.86681	6553.625
2535.58458	6552.225
2538.30065	6552.325
2541.01501	6541.625
2543.72768	6545.325
2546.43864	6540.325
2549.14791	6506.825
2551.85548	6516.925
2554.56136	6498.125
2557.26554	6501.925
2559.96803	6482.925
2562.66883	6492.625
2565.36794	6473.125
2568.06536	6487.525
2570.7611	6487.525
2573.45514	6451.125
2576.14751	6447.025
2578.83819	6442.725
2581.52719	6473.725
2584.21451	6445.425
2586.90015	6431.625
2589.58411	6427.425
2592.2664	6446.725
2594.94701	6433.425
2597.62594	6427.725
2600.30321	6422.825
2602.9788	6419.025
2605.65273	6392.125
2608.32498	6402.525
2610.99557	6386.925
2613.66449	6405.225
2616.33175	6408.025
2618.99734	6400.825
2621.66128	6404.625
2624.32355	6419.825
2626.98416	6409.925
2629.64311	6399.725
2632.30041	6399.325
2634.95605	6400.025
2637.61004	6400.425
2640.26238	6371.725
2642.91306	6390.225
2645.56209	6387.825
2648.20948	6349.525
2650.85521	6356.025
2653.4993	6363.625
2656.14175	6363.925
2658.78255	6376.525
2661.42171	6380.325
2664.05923	6389.825
2666.6951	6412.525
2669.32934	6382.325
2671.96194	6380.125
2674.59291	6380.525
2677.22224	6364.525
2679.84993	6362.325
2682.476	6361.025
2685.10043	6355.125
2687.72324	6367.525
2690.34441	6343.925
2692.96396	6343.725
2695.58188	6347.225
2698.19818	6348.125
2700.81285	6358.725
2703.4259	6361.725
2706.03733	6362.925
2708.64714	6339.925
2711.25533	6360.425
2713.86191	6346.125
2716.46687	6358.525
2719.07021	6367.225
2721.67194	6376.925
2724.27206	6360.825
2726.87057	6385.325
2729.46747	6394.225
2732.06276	6385.625
2734.65644	6382.125
2737.24852	6386.325
2739.83899	6383.025
2742.42786	6382.225
2745.01513	6369.025
2747.60079	6350.525
2750.18486	6367.825
2752.76733	6361.725
2755.3482	6340.925
2757.92747	6353.625
2760.50515	6361.225
2763.08123	6345.925
2765.65573	6346.025
2768.22863	6338.825
2770.79994	6347.225
2773.36967	6326.225
2775.9378	6338.025
2778.50435	6333.025
2781.06932	6335.625
2783.6327	6323.725
2786.1945	6332.625
2788.75471	6336.225
2791.31335	6317.825
2793.87041	6311.325
2796.42589	6294.925
2798.97979	6301.525
2801.53212	6270.525
2804.08288	6278.625
2806.63206	6260.825
2809.17967	6232.025
2811.72571	6228.325
2814.27018	6239.625
2816.81308	6217.725
2819.35442	6217.725
2821.89419	6195.325
2824.43239	6197.125
2826.96904	6201.725
2829.50412	6190.625
2832.03763	6188.525
2834.56959	6180.825
2837.1	6175.525
2839.62884	6177.125
2842.15613	6185.625
2844.68186	6197.225
2847.20604	6181.125
2849.72867	6196.125
2852.24974	6195.025
2854.76927	6184.025
2857.28724	6182.025
2859.80367	6170.025
2862.31855	6171.825
2864.83189	6156.825
2867.34368	6158.325
2869.85393	6159.225
2872.36264	6155.925
2874.8698	6146.725
2877.37543	6154.725
2879.87952	6155.825
2882.38207	6143.425
2884.88308	6147.625
2887.38256	6157.825
2889.88051	6128.825
2892.37692	6178.025
2894.8718	6147.625
2897.36515	6165.925
2899.85698	6163.125
2902.34727	6182.925
2904.83604	6183.725
2907.32328	6213.825
2909.809	6181.525
2912.29319	6195.425
2914.77587	6201.325
2917.25702	6195.725
2919.73665	6192.725
2922.21476	6175.025
2924.69136	6188.425
2927.16644	6196.625
2929.64	6185.325
2932.11205	6176.125
2934.58258	6159.825
2937.05161	6171.025
2939.51912	6171.225
2941.98513	6183.025
2944.44962	6157.325
2946.91261	6133.825
2949.37409	6146.625
2951.83407	6119.725
2954.29254	6123.225
2956.74951	6123.525
2959.20498	6096.525
2961.65895	6102.525
2964.11142	6102.025
2966.56239	6084.725
2969.01186	6080.925
2971.45984	6077.025
2973.90632	6061.425
2976.35131	6067.025
2978.7948	6059.225
2981.23681	6053.225
2983.67732	6032.625
2986.11635	6032.225
2988.55388	5995.225
2990.98993	6003.825
2993.4245	5991.625
2995.85758	5990.125
2998.28917	5968.225
3000.71928	5958.925
3003.14791	5934.525
3005.57506	5934.925
3008.00073	5940.525
3010.42493	5923.925
3012.84764	5923.525
3015.26888	5929.325
3017.68865	5898.725
3020.10694	5905.925
3022.52376	5885.225
3024.9391	5875.125
3027.35298	5870.125
3029.76539	5863.125
3032.17632	5872.725
3034.5858	5854.825
3036.9938	5860.525
3039.40034	5865.625
3041.80542	5870.525
3044.20903	5855.425
3046.61118	5852.725
3049.01187	5837.425
3051.4111	5847.925
3053.80888	5833.325
3056.20519	5827.725
3058.60005	5803.425
3060.99345	5802.125
3063.3854	5781.125
3065.7759	5766.425
3068.16494	5771.225
3070.55254	5755.425
3072.93868	5752.325
3075.32338	5743.825
3077.70662	5745.525
3080.08842	5727.825
3082.46878	5720.025
3084.84769	5710.025
3087.22515	5721.025
3089.60118	5715.125
3091.97576	5698.525
3094.3489	5726.725
3096.72061	5716.025
3099.09087	5731.825
3101.4597	5719.725
3103.82709	5718.025
3106.19305	5715.825
3108.55757	5735.625
3110.92066	5704.125
3113.28232	5718.225
3115.64255	5680.925
3118.00134	5677.525
3120.35871	5689.525
3122.71466	5687.525
3125.06917	5672.925
3127.42226	5662.125
3129.77393	5667.225
3132.12417	5668.025
3134.47299	5655.725
3136.82039	5649.525
3139.16636	5654.325
3141.51092	5678.525
3143.85406	5668.625
3146.19579	5670.425
3148.53609	5687.625
3150.87499	5700.225
3153.21246	5694.825
3155.54853	5708.125
3157.88318	5703.425
3160.21642	5704.225
3162.54826	5708.025
3164.87868	5715.025
3167.2077	5714.125
3169.5353	5728.225
3171.86151	5734.525
3174.18631	5720.325
3176.5097	5729.925
3178.83169	5731.225
3181.15228	5710.725
3183.47147	5707.025
3185.78926	5707.925
3188.10565	5722.825
3190.42065	5710.525
3192.73424	5727.225
