Data from AgNPs_FTO_APTES_UA_1uM_CRN_10uM_R6G_20uM_NaF_0.1M_Addition_RamanShift__18__15-18-49-692.txt Node

Date: Thu Jan 27 15:18:49 GMT 2022
User: TCL
Spectrometer: QEP01345
Trigger mode: 4
Integration Time (sec): 7.000000E0
Scans to average: 10
Electric dark correction enabled: true
Nonlinearity correction enabled: false
Boxcar width: 0
XAxis mode: Raman Shifts
Number of Pixels in Spectrum: 1044
>>>>>Begin Spectral Data<<<<<
46.04893	0.2625
50.45542	0.9625
54.85868	-0.5375
59.25871	-1.0375
63.6555	43.2625
68.04907	48.0625
72.43941	49.1625
76.82654	53.7625
81.21044	52.8625
85.59113	53.2625
89.96862	57.3625
94.34289	58.4625
98.71396	63.2625
103.08183	59.0625
107.4465	67.1625
111.80798	67.8625
116.16626	66.3625
120.52136	72.2625
124.87327	74.1625
129.222	69.6625
133.56755	74.6625
137.90993	78.9625
142.24913	86.1625
146.58517	95.2625
150.91804	105.9625
155.24774	128.0625
159.57429	150.5625
163.89768	186.9625
168.21792	249.0625
172.53501	335.3625
176.84895	460.8625
181.15975	640.9625
185.46741	891.7625
189.77193	1222.6625
194.07331	1640.9625
198.37157	2103.7625
202.6667	2594.0625
206.9587	3077.5625
211.24758	3548.2625
215.53334	4017.9625
219.81599	4530.6625
224.09553	5078.7625
228.37195	5698.1625
232.64527	6373.7625
236.91549	7109.5625
241.18261	7802.9625
245.44663	8484.7625
249.70755	9097.7625
253.96539	9669.4625
258.22014	10113.6625
262.4718	10461.4625
266.72039	10753.6625
270.96589	10906.5625
275.20832	10945.7625
279.44768	10907.9625
283.68397	10823.8625
287.91719	10761.4625
292.14735	10729.3625
296.37445	10744.2625
300.59849	10815.2625
304.81948	10833.2625
309.03742	10778.5625
313.25231	10656.2625
317.46415	10413.3625
321.67296	10115.6625
325.87872	9850.5625
330.08145	9726.6625
334.28114	9692.2625
338.47781	9778.8625
342.67145	9873.0625
346.86207	10048.2625
351.04966	10229.5625
355.23424	10409.0625
359.4158	10536.1625
363.59435	10659.4625
367.76989	10752.8625
371.94243	10848.0625
376.11196	10909.2625
380.27849	10965.7625
384.44203	11031.9625
388.60257	11105.3625
392.76012	11222.1625
396.91468	11370.9625
401.06626	11510.1625
405.21485	11630.1625
409.36047	11581.5625
413.50311	11419.5625
417.64277	11316.2625
421.77947	11282.0625
425.9132	11340.2625
430.04396	11374.2625
434.17176	11471.1625
438.2966	11548.3625
442.41849	11705.1625
446.53742	11998.1625
450.6534	12307.7625
454.76644	12566.0625
458.87653	12662.6625
462.98368	12661.0625
467.08789	12540.8625
471.18916	12396.8625
475.2875	12287.3625
479.38291	12253.7625
483.4754	12178.3625
487.56496	12029.8625
491.6516	11826.4625
495.73531	11651.9625
499.81612	11569.6625
503.89401	11629.2625
507.96899	11673.9625
512.04106	11652.0625
516.11023	11559.5625
520.1765	11470.7625
524.23987	11392.4625
528.30034	11268.9625
532.35792	11152.7625
536.41261	11017.7625
540.46441	10945.5625
544.51333	10950.0625
548.55936	11088.8625
552.60252	11337.4625
556.64279	11597.1625
560.6802	11725.9625
564.71473	11803.7625
568.7464	11949.6625
572.7752	12207.6625
576.80114	12456.2625
580.82422	12669.4625
584.84444	12886.9625
588.86181	13033.8625
592.87633	13190.7625
596.888	13255.9625
600.89682	13281.7625
604.9028	13593.1625
608.90594	14476.8625
612.90624	15381.5625
616.90371	14500.8625
620.89834	12432.6625
624.89015	11584.4625
628.87913	11559.3625
632.86528	11610.8625
636.84862	11524.0625
640.82913	11316.5625
644.80683	11033.3625
648.78172	10791.9625
652.75379	10696.1625
656.72306	10798.5625
660.68952	10931.1625
664.65319	10875.9625
668.61405	10742.7625
672.57211	10673.9625
676.52738	10674.0625
680.47986	10649.4625
684.42955	10652.7625
688.37646	10607.5625
692.32058	10632.0625
696.26192	10706.8625
700.20048	10825.8625
704.13626	10891.0625
708.06928	10874.3625
711.99952	10824.3625
715.927	10787.5625
719.85171	10804.3625
723.77365	10788.0625
727.69284	10671.5625
731.60928	10581.3625
735.52295	10543.9625
739.43388	10535.8625
743.34206	10592.8625
747.24749	10598.3625
751.15017	10704.6625
755.05012	10908.2625
758.94733	11193.2625
762.8418	11684.2625
766.73354	12521.6625
770.62254	13264.4625
774.50882	13438.5625
778.39237	12846.6625
782.27321	11972.2625
786.15132	11253.5625
790.02671	10841.0625
793.89938	10662.9625
797.76935	10624.4625
801.6366	10591.2625
805.50115	10572.0625
809.36299	10495.6625
813.22213	10401.7625
817.07857	10377.3625
820.93231	10315.2625
824.78336	10269.5625
828.63172	10259.5625
832.47738	10248.1625
836.32036	10275.0625
840.16066	10338.0625
843.99827	10401.5625
847.8332	10367.8625
851.66546	10269.0625
855.49504	10249.9625
859.32195	10245.6625
863.1462	10210.8625
866.96777	10178.4625
870.78668	10166.3625
874.60293	10129.3625
878.41652	10120.3625
882.22745	10129.5625
886.03573	10188.7625
889.84136	10187.0625
893.64433	10115.7625
897.44466	10087.2625
901.24235	10041.8625
905.0374	10031.9625
908.8298	9994.6625
912.61957	10017.5625
916.40671	10148.1625
920.19121	10283.5625
923.97308	10416.8625
927.75233	10459.4625
931.52895	10408.1625
935.30295	10303.3625
939.07433	10112.5625
942.84309	9941.4625
946.60924	9859.8625
950.37278	9836.4625
954.13371	9800.7625
957.89203	9736.4625
961.64774	9725.9625
965.40086	9684.9625
969.15137	9642.4625
972.89929	9596.2625
976.64461	9553.2625
980.38733	9554.4625
984.12747	9597.2625
987.86502	9670.8625
991.59999	9823.8625
995.33237	10040.2625
999.06217	10387.1625
1002.78939	10796.5625
1006.51404	10952.1625
1010.23611	10993.6625
1013.95561	11022.8625
1017.67255	11036.3625
1021.38692	10961.7625
1025.09872	10864.7625
1028.80796	10987.3625
1032.51465	11406.5625
1036.21877	11819.7625
1039.92035	11876.9625
1043.61937	11651.1625
1047.31584	11289.2625
1051.00976	10893.3625
1054.70114	10749.1625
1058.38998	10757.0625
1062.07627	10801.0625
1065.76003	10815.7625
1069.44126	10865.2625
1073.11995	10967.5625
1076.79611	11062.5625
1080.46974	11138.4625
1084.14085	11225.6625
1087.80943	11292.1625
1091.47549	11371.3625
1095.13903	11368.6625
1098.80005	11260.7625
1102.45857	11033.7625
1106.11456	10851.0625
1109.76805	10810.0625
1113.41903	10824.0625
1117.06751	10897.7625
1120.71348	11000.5625
1124.35696	11092.5625
1127.99793	11211.2625
1131.63641	11258.1625
1135.2724	11212.6625
1138.90589	11141.6625
1142.5369	11114.8625
1146.16542	11137.1625
1149.79145	11170.7625
1153.415	11241.2625
1157.03607	11437.5625
1160.65467	11718.2625
1164.27079	12182.2625
1167.88443	12831.5625
1171.49561	13613.3625
1175.10432	14633.6625
1178.71056	15842.6625
1182.31434	17019.7625
1185.91565	17689.3625
1189.51451	17729.9625
1193.11091	17248.1625
1196.70485	16504.0625
1200.29634	15759.1625
1203.88538	15218.7625
1207.47197	14798.4625
1211.05612	14501.8625
1214.63782	14278.6625
1218.21708	14061.1625
1221.79391	13922.0625
1225.36829	13821.6625
1228.94024	13677.2625
1232.50976	13402.3625
1236.07685	13132.7625
1239.6415	12975.9625
1243.20374	12965.6625
1246.76355	13029.7625
1250.32093	13216.6625
1253.8759	13501.5625
1257.42845	13878.3625
1260.97859	14254.1625
1264.52631	14613.0625
1268.07163	15036.9625
1271.61453	15491.9625
1275.15503	16015.7625
1278.69312	16632.5625
1282.22882	17125.2625
1285.76211	17504.8625
1289.29301	17835.4625
1292.82151	18428.1625
1296.34761	19194.4625
1299.87133	20297.1625
1303.39266	21579.5625
1306.9116	23005.7625
1310.42815	24335.3625
1313.94233	25127.9625
1317.45412	25092.6625
1320.96354	24601.1625
1324.47058	23988.6625
1327.97525	23476.2625
1331.47754	23109.4625
1334.97747	22859.8625
1338.47502	22754.2625
1341.97022	22741.9625
1345.46305	22545.7625
1348.95352	22152.6625
1352.44163	21808.3625
1355.92738	21892.3625
1359.41078	22486.2625
1362.89183	23121.1625
1366.37053	22746.8625
1369.84688	21062.3625
1373.32088	19076.4625
1376.79254	17601.9625
1380.26186	16992.5625
1383.72883	16944.0625
1387.19347	17023.1625
1390.65578	16904.3625
1394.11575	16931.3625
1397.57339	17100.0625
1401.0287	17499.4625
1404.48168	17828.7625
1407.93234	17845.4625
1411.38068	17595.7625
1414.82669	17031.5625
1418.27039	16318.2625
1421.71177	15603.2625
1425.15083	15016.3625
1428.58758	14682.1625
1432.02203	14645.0625
1435.45416	14953.3625
1438.88399	15372.6625
1442.31151	15844.8625
1445.73673	16155.2625
1449.15965	16375.2625
1452.58027	16559.2625
1455.9986	16660.8625
1459.41463	16811.1625
1462.82837	17026.2625
1466.23982	17323.7625
1469.64898	17624.2625
1473.05586	17824.8625
1476.46045	17789.2625
1479.86276	17635.1625
1483.26279	17364.4625
1486.66054	17146.9625
1490.05602	17019.9625
1493.44922	17068.2625
1496.84016	17144.1625
1500.22882	17339.0625
1503.61521	17784.5625
1506.99934	18348.0625
1510.38121	18894.6625
1513.76081	19083.5625
1517.13816	18834.2625
1520.51324	18238.3625
1523.88607	17690.2625
1527.25665	17391.0625
1530.62498	17227.7625
1533.99105	17174.8625
1537.35488	17092.2625
1540.71647	16924.9625
1544.07581	16649.8625
1547.4329	16357.1625
1550.78776	16017.6625
1554.14038	15818.6625
1557.49077	15680.5625
1560.83892	15587.6625
1564.18484	15557.4625
1567.52853	15577.6625
1570.86999	15652.9625
1574.20922	15867.3625
1577.54624	16085.0625
1580.88103	16182.7625
1584.2136	16303.0625
1587.54395	16712.7625
1590.87208	17481.0625
1594.19801	18492.2625
1597.52172	19612.2625
1600.84321	20024.7625
1604.16251	19227.9625
1607.47959	17772.8625
1610.79447	16240.2625
1614.10715	14825.4625
1617.41763	13681.7625
1620.7259	12853.5625
1624.03199	12404.1625
1627.33587	12390.5625
1630.63757	12713.7625
1633.93707	13465.2625
1637.23439	14687.5625
1640.52951	16360.3625
1643.82246	18178.2625
1647.11321	19491.9625
1650.40179	19759.2625
1653.68819	18453.8625
1656.97241	16204.7625
1660.25446	14004.4625
1663.53433	12297.9625
1666.81203	11186.8625
1670.08756	10497.0625
1673.36092	10061.6625
1676.63211	9757.8625
1679.90115	9561.7625
1683.16801	9382.5625
1686.43272	9282.6625
1689.69527	9181.5625
1692.95567	9076.1625
1696.2139	9015.0625
1699.46999	8937.4625
1702.72392	8864.8625
1705.97571	8903.1625
1709.22535	8896.8625
1712.47284	8910.8625
1715.71819	8909.3625
1718.96139	8904.5625
1722.20246	8870.7625
1725.44139	8813.0625
1728.67818	8803.1625
1731.91284	8712.9625
1735.14537	8700.3625
1738.37576	8664.2625
1741.60403	8628.4625
1744.83017	8582.6625
1748.05418	8566.6625
1751.27607	8557.8625
1754.49584	8513.4625
1757.71349	8481.7625
1760.92903	8468.5625
1764.14244	8431.3625
1767.35375	8437.0625
1770.56294	8409.3625
1773.77002	8428.9625
1776.97499	8415.9625
1780.17785	8448.8625
1783.37861	8441.1625
1786.57727	8419.9625
1789.77382	8400.7625
1792.96828	8396.0625
1796.16064	8399.1625
1799.3509	8360.7625
1802.53907	8364.9625
1805.72514	8329.8625
1808.90913	8328.3625
1812.09102	8293.9625
1815.27083	8279.7625
1818.44856	8302.5625
1821.6242	8274.9625
1824.79776	8234.1625
1827.96924	8262.1625
1831.13864	8237.1625
1834.30597	8248.6625
1837.47122	8240.5625
1840.6344	8226.3625
1843.7955	8245.6625
1846.95454	8237.3625
1850.11151	8260.3625
1853.26642	8246.4625
1856.41926	8254.9625
1859.57004	8266.4625
1862.71876	8234.2625
1865.86542	8218.2625
1869.01003	8243.5625
1872.15258	8229.1625
1875.29308	8215.1625
1878.43152	8195.1625
1881.56792	8219.2625
1884.70227	8177.4625
1887.83457	8177.2625
1890.96482	8196.4625
1894.09304	8160.0625
1897.21921	8186.1625
1900.34335	8168.3625
1903.46544	8169.6625
1906.58551	8152.9625
1909.70353	8134.8625
1912.81953	8132.3625
1915.93349	8147.1625
1919.04543	8109.1625
1922.15534	8102.6625
1925.26322	8064.4625
1928.36908	8057.7625
1931.47292	8022.9625
1934.57473	8014.7625
1937.67453	7990.0625
1940.77232	7962.3625
1943.86808	7940.0625
1946.96184	7914.3625
1950.05358	7899.4625
1953.14331	7858.7625
1956.23103	7827.1625
1959.31675	7842.3625
1962.40046	7797.0625
1965.48217	7797.9625
1968.56188	7767.0625
1971.63959	7734.5625
1974.7153	7717.1625
1977.78901	7693.8625
1980.86073	7645.7625
1983.93046	7648.2625
1986.99819	7629.5625
1990.06394	7595.9625
1993.1277	7566.0625
1996.18947	7535.6625
1999.24925	7527.0625
2002.30706	7502.0625
2005.36288	7487.8625
2008.41672	7452.2625
2011.46859	7453.3625
2014.51848	7419.5625
2017.56639	7415.2625
2020.61233	7411.8625
2023.6563	7399.5625
2026.6983	7371.7625
2029.73833	7343.5625
2032.7764	7352.6625
2035.8125	7344.9625
2038.84664	7328.8625
2041.87881	7309.1625
2044.90903	7312.7625
2047.93729	7301.5625
2050.96359	7288.9625
2053.98794	7260.7625
2057.01034	7272.5625
2060.03078	7269.4625
2063.04927	7283.1625
2066.06582	7272.7625
2069.08042	7264.5625
2072.09307	7251.1625
2075.10378	7248.1625
2078.11255	7247.3625
2081.11938	7226.8625
2084.12426	7217.9625
2087.12722	7222.6625
2090.12824	7214.9625
2093.12732	7225.2625
2096.12447	7219.5625
2099.11969	7210.6625
2102.11299	7226.0625
2105.10435	7225.7625
2108.09379	7240.1625
2111.08131	7234.0625
2114.0669	7244.2625
2117.05057	7254.5625
2120.03233	7245.0625
2123.01216	7251.0625
2125.99008	7259.5625
2128.96609	7264.8625
2131.94018	7281.7625
2134.91236	7269.7625
2137.88263	7283.1625
2140.851	7283.0625
2143.81746	7299.5625
2146.78201	7299.1625
2149.74466	7294.3625
2152.7054	7303.8625
2155.66425	7287.2625
2158.6212	7299.1625
2161.57625	7303.7625
2164.52941	7297.3625
2167.48067	7277.2625
2170.43004	7303.1625
2173.37752	7282.4625
2176.32311	7297.7625
2179.26681	7318.1625
2182.20863	7303.0625
2185.14856	7301.0625
2188.08661	7300.9625
2191.02278	7301.2625
2193.95707	7289.8625
2196.88948	7306.9625
2199.82001	7305.9625
2202.74867	7300.9625
2205.67545	7300.5625
2208.60037	7303.9625
2211.52341	7290.2625
2214.44458	7278.1625
2217.36388	7274.7625
2220.28132	7255.3625
2223.1969	7255.6625
2226.11061	7251.3625
2229.02246	7240.7625
2231.93245	7225.7625
2234.84058	7192.8625
2237.74686	7193.1625
2240.65128	7187.4625
2243.55385	7171.6625
2246.45456	7167.9625
2249.35343	7153.1625
2252.25044	7127.6625
2255.14561	7131.1625
2258.03893	7124.9625
2260.93041	7106.7625
2263.82004	7091.9625
2266.70783	7073.2625
2269.59378	7055.3625
2272.4779	7039.2625
2275.36017	7026.0625
2278.24061	7015.2625
2281.11922	7007.5625
2283.996	7004.9625
2286.87094	6993.4625
2289.74405	6987.4625
2292.61534	6991.8625
2295.4848	6970.1625
2298.35243	6969.9625
2301.21824	6967.7625
2304.08223	6976.8625
2306.94439	6986.5625
2309.80474	7004.9625
2312.66327	7011.7625
2315.51999	7003.0625
2318.37489	7014.3625
2321.22797	7000.7625
2324.07925	6999.4625
2326.92871	6977.5625
2329.77637	6965.5625
2332.62222	6961.2625
2335.46626	6983.3625
2338.3085	6977.0625
2341.14893	6960.4625
2343.98756	6962.2625
2346.8244	6986.8625
2349.65943	7001.3625
2352.49267	6984.4625
2355.32411	6985.4625
2358.15376	6968.8625
2360.98161	6949.4625
2363.80768	6969.9625
2366.63195	6961.9625
2369.45444	6940.2625
2372.27514	6924.9625
2375.09405	6913.3625
2377.91118	6912.1625
2380.72652	6863.7625
2383.54009	6851.7625
2386.35187	6868.4625
2389.16188	6843.5625
2391.97011	6831.2625
2394.77657	6827.8625
2397.58125	6825.8625
2400.38416	6811.7625
2403.18529	6816.4625
2405.98466	6796.0625
2408.78226	6786.0625
2411.57809	6760.0625
2414.37216	6750.0625
2417.16446	6757.7625
2419.955	6729.1625
2422.74378	6749.1625
2425.5308	6711.6625
2428.31606	6724.1625
2431.09956	6714.2625
2433.88131	6728.2625
2436.6613	6713.4625
2439.43954	6724.9625
2442.21603	6719.1625
2444.99077	6727.8625
2447.76377	6712.7625
2450.53501	6718.7625
2453.30451	6694.8625
2456.07226	6709.0625
2458.83827	6701.5625
2461.60254	6710.3625
2464.36507	6711.0625
2467.12586	6691.9625
2469.88492	6705.4625
2472.64224	6711.5625
2475.39782	6728.6625
2478.15167	6699.1625
2480.90379	6699.3625
2483.65417	6710.4625
2486.40283	6750.9625
2489.14976	6763.7625
2491.89497	6747.4625
2494.63845	6746.7625
2497.3802	6715.2625
2500.12024	6732.1625
2502.85855	6745.7625
2505.59514	6726.5625
2508.33002	6728.6625
2511.06318	6714.5625
2513.79462	6718.5625
2516.52435	6691.9625
2519.25237	6698.0625
2521.97867	6690.3625
2524.70327	6708.9625
2527.42616	6703.9625
2530.14734	6688.0625
2532.86681	6693.5625
2535.58458	6685.0625
2538.30065	6688.3625
2541.01501	6687.9625
2543.72768	6668.0625
2546.43864	6664.1625
2549.14791	6665.8625
2551.85548	6663.5625
2554.56136	6679.0625
2557.26554	6638.0625
2559.96803	6658.8625
2562.66883	6667.2625
2565.36794	6616.7625
2568.06536	6630.0625
2570.7611	6626.0625
2573.45514	6628.0625
2576.14751	6627.9625
2578.83819	6632.2625
2581.52719	6625.9625
2584.21451	6622.7625
2586.90015	6615.7625
2589.58411	6611.6625
2592.2664	6621.8625
2594.94701	6609.6625
2597.62594	6612.1625
2600.30321	6610.8625
2602.9788	6606.5625
2605.65273	6605.5625
2608.32498	6593.7625
2610.99557	6593.5625
2613.66449	6587.8625
2616.33175	6606.4625
2618.99734	6601.9625
2621.66128	6594.5625
2624.32355	6626.9625
2626.98416	6605.6625
2629.64311	6609.8625
2632.30041	6629.6625
2634.95605	6620.1625
2637.61004	6606.9625
2640.26238	6585.6625
2642.91306	6606.8625
2645.56209	6589.2625
2648.20948	6593.4625
2650.85521	6581.3625
2653.4993	6582.6625
2656.14175	6584.9625
2658.78255	6596.9625
2661.42171	6582.7625
2664.05923	6595.0625
2666.6951	6585.0625
2669.32934	6597.0625
2671.96194	6598.7625
2674.59291	6608.6625
2677.22224	6597.7625
2679.84993	6603.3625
2682.476	6565.7625
2685.10043	6574.5625
2687.72324	6579.3625
2690.34441	6568.0625
2692.96396	6554.1625
2695.58188	6564.9625
2698.19818	6562.5625
2700.81285	6558.5625
2703.4259	6568.6625
2706.03733	6551.1625
2708.64714	6529.5625
2711.25533	6573.8625
2713.86191	6567.8625
2716.46687	6578.3625
2719.07021	6591.1625
2721.67194	6590.4625
2724.27206	6596.5625
2726.87057	6611.3625
2729.46747	6618.1625
2732.06276	6626.2625
2734.65644	6603.4625
2737.24852	6601.9625
2739.83899	6596.6625
2742.42786	6615.0625
2745.01513	6599.8625
2747.60079	6602.0625
2750.18486	6589.4625
2752.76733	6575.1625
2755.3482	6587.6625
2757.92747	6607.8625
2760.50515	6572.1625
2763.08123	6597.4625
2765.65573	6588.9625
2768.22863	6591.8625
2770.79994	6583.3625
2773.36967	6579.9625
2775.9378	6593.6625
2778.50435	6582.6625
2781.06932	6588.6625
2783.6327	6562.7625
2786.1945	6575.7625
2788.75471	6558.6625
2791.31335	6567.0625
2793.87041	6544.1625
2796.42589	6541.7625
2798.97979	6555.8625
2801.53212	6534.6625
2804.08288	6515.7625
2806.63206	6502.0625
2809.17967	6512.4625
2811.72571	6470.8625
2814.27018	6478.4625
2816.81308	6466.4625
2819.35442	6465.3625
2821.89419	6493.3625
2824.43239	6469.0625
2826.96904	6459.8625
2829.50412	6435.5625
2832.03763	6451.0625
2834.56959	6440.4625
2837.1	6432.0625
2839.62884	6438.9625
2842.15613	6430.4625
2844.68186	6446.5625
2847.20604	6451.2625
2849.72867	6456.1625
2852.24974	6462.1625
2854.76927	6444.0625
2857.28724	6422.4625
2859.80367	6432.1625
2862.31855	6424.8625
2864.83189	6422.7625
2867.34368	6401.2625
2869.85393	6412.7625
2872.36264	6429.4625
2874.8698	6419.9625
2877.37543	6415.9625
2879.87952	6407.2625
2882.38207	6413.5625
2884.88308	6422.1625
2887.38256	6426.7625
2889.88051	6430.1625
2892.37692	6410.0625
2894.8718	6427.2625
2897.36515	6420.2625
2899.85698	6425.7625
2902.34727	6451.5625
2904.83604	6462.6625
2907.32328	6486.7625
2909.809	6462.9625
2912.29319	6482.7625
2914.77587	6483.0625
2917.25702	6478.5625
2919.73665	6488.3625
2922.21476	6490.0625
2924.69136	6468.9625
2927.16644	6475.0625
2929.64	6464.4625
2932.11205	6458.5625
2934.58258	6440.8625
2937.05161	6448.8625
2939.51912	6460.3625
2941.98513	6439.7625
2944.44962	6409.1625
2946.91261	6395.1625
2949.37409	6410.1625
2951.83407	6403.9625
2954.29254	6398.6625
2956.74951	6398.2625
2959.20498	6390.0625
2961.65895	6370.7625
2964.11142	6387.4625
2966.56239	6362.0625
2969.01186	6375.1625
2971.45984	6339.6625
2973.90632	6341.4625
2976.35131	6333.2625
2978.7948	6317.3625
2981.23681	6310.8625
2983.67732	6289.1625
2986.11635	6296.6625
2988.55388	6259.4625
2990.98993	6267.9625
2993.4245	6254.9625
2995.85758	6233.7625
2998.28917	6237.5625
3000.71928	6204.8625
3003.14791	6213.3625
3005.57506	6197.3625
3008.00073	6184.7625
3010.42493	6181.2625
3012.84764	6173.3625
3015.26888	6177.7625
3017.68865	6172.5625
3020.10694	6171.5625
3022.52376	6147.9625
3024.9391	6142.5625
3027.35298	6141.1625
3029.76539	6152.7625
3032.17632	6136.1625
3034.5858	6138.4625
3036.9938	6137.8625
3039.40034	6142.8625
3041.80542	6148.9625
3044.20903	6118.0625
3046.61118	6120.4625
3049.01187	6108.9625
3051.4111	6125.7625
3053.80888	6119.8625
3056.20519	6109.7625
3058.60005	6078.2625
3060.99345	6071.4625
3063.3854	6046.4625
3065.7759	6053.7625
3068.16494	6054.3625
3070.55254	6034.7625
3072.93868	6038.0625
3075.32338	5995.2625
3077.70662	6007.8625
3080.08842	5996.4625
3082.46878	5991.7625
3084.84769	5991.9625
