Data from AgNPs_FTO_APTES_UA_1uM_CRN_100uM_R6G_10uM_NaF_0.1M_Addition_RamanShift__34__17-00-19-807.txt Node

Date: Thu Jan 27 17:00:19 GMT 2022
User: TCL
Spectrometer: QEP01345
Trigger mode: 4
Integration Time (sec): 7.000000E0
Scans to average: 10
Electric dark correction enabled: true
Nonlinearity correction enabled: false
Boxcar width: 0
XAxis mode: Raman Shifts
Number of Pixels in Spectrum: 1044
>>>>>Begin Spectral Data<<<<<
46.04893	1.025
50.45542	1.025
54.85868	-1.875
59.25871	-1.475
63.6555	43.725
68.04907	41.525
72.43941	45.725
76.82654	49.625
81.21044	50.725
85.59113	52.725
89.96862	52.325
94.34289	59.325
98.71396	61.825
103.08183	55.525
107.4465	63.825
111.80798	63.125
116.16626	64.325
120.52136	69.925
124.87327	70.225
129.222	67.425
133.56755	70.225
137.90993	74.925
142.24913	78.025
146.58517	89.325
150.91804	102.425
155.24774	117.125
159.57429	140.625
163.89768	176.325
168.21792	225.125
172.53501	310.325
176.84895	422.725
181.15975	591.525
185.46741	823.125
189.77193	1130.425
194.07331	1513.525
198.37157	1950.125
202.6667	2414.825
206.9587	2872.125
211.24758	3314.225
215.53334	3764.725
219.81599	4238.725
224.09553	4762.625
228.37195	5341.225
232.64527	5962.525
236.91549	6635.225
241.18261	7317.425
245.44663	7933.525
249.70755	8511.325
253.96539	9021.725
258.22014	9453.825
262.4718	9813.025
266.72039	10069.125
270.96589	10191.625
275.20832	10212.525
279.44768	10123.625
283.68397	10038.825
287.91719	9903.425
292.14735	9821.925
296.37445	9814.725
300.59849	9847.525
304.81948	9917.925
309.03742	9934.425
313.25231	9863.025
317.46415	9678.425
321.67296	9455.625
325.87872	9263.625
330.08145	9192.325
334.28114	9193.625
338.47781	9295.525
342.67145	9398.025
346.86207	9558.825
351.04966	9765.525
355.23424	9948.025
359.4158	10156.825
363.59435	10290.625
367.76989	10371.625
371.94243	10455.125
376.11196	10511.425
380.27849	10575.325
384.44203	10648.725
388.60257	10688.925
392.76012	10765.125
396.91468	10876.325
401.06626	11004.925
405.21485	11122.825
409.36047	11116.025
413.50311	10933.825
417.64277	10815.825
421.77947	10764.825
425.9132	10753.525
430.04396	10803.025
434.17176	10889.025
438.2966	11039.025
442.41849	11257.725
446.53742	11569.525
450.6534	11933.325
454.76644	12192.725
458.87653	12291.325
462.98368	12206.125
467.08789	12051.625
471.18916	11897.625
475.2875	11781.925
479.38291	11697.025
483.4754	11611.525
487.56496	11492.325
491.6516	11325.425
495.73531	11179.425
499.81612	11098.125
503.89401	11103.825
507.96899	11112.525
512.04106	11116.825
516.11023	11095.625
520.1765	11104.025
524.23987	11065.225
528.30034	11030.525
532.35792	10982.925
536.41261	10881.925
540.46441	10748.825
544.51333	10688.625
548.55936	10762.425
552.60252	10938.425
556.64279	11139.525
560.6802	11286.025
564.71473	11355.625
568.7464	11488.425
572.7752	11680.025
576.80114	11741.425
580.82422	11763.625
584.84444	11864.225
588.86181	12141.125
592.87633	12509.325
596.888	12814.825
600.89682	12851.025
604.9028	13106.525
608.90594	13961.925
612.90624	15034.325
616.90371	14382.725
620.89834	12380.725
624.89015	11468.625
628.87913	11371.325
632.86528	11391.825
636.84862	11342.325
640.82913	11177.525
644.80683	10934.525
648.78172	10769.125
652.75379	10754.325
656.72306	10842.025
660.68952	11021.125
664.65319	10994.825
668.61405	10824.725
672.57211	10771.225
676.52738	10794.725
680.47986	10765.725
684.42955	10742.325
688.37646	10689.425
692.32058	10724.125
696.26192	10839.125
700.20048	10919.525
704.13626	10999.725
708.06928	10949.625
711.99952	10846.725
715.927	10866.525
719.85171	10909.825
723.77365	10897.025
727.69284	10814.625
731.60928	10734.125
735.52295	10730.625
739.43388	10747.625
743.34206	10750.425
747.24749	10777.725
751.15017	10839.325
755.05012	10967.325
758.94733	11198.925
762.8418	11639.025
766.73354	12323.925
770.62254	13070.725
774.50882	13346.225
778.39237	12988.625
782.27321	12197.025
786.15132	11486.825
790.02671	11062.625
793.89938	10862.125
797.76935	10821.825
801.6366	10795.325
805.50115	10743.025
809.36299	10710.025
813.22213	10689.425
817.07857	10680.725
820.93231	10674.925
824.78336	10659.925
828.63172	10676.325
832.47738	10678.725
836.32036	10723.025
840.16066	10765.425
843.99827	10823.325
847.8332	10762.925
851.66546	10716.125
855.49504	10678.925
859.32195	10678.725
863.1462	10651.525
866.96777	10625.825
870.78668	10620.625
874.60293	10609.625
878.41652	10599.325
882.22745	10619.625
886.03573	10663.825
889.84136	10684.725
893.64433	10620.725
897.44466	10590.525
901.24235	10538.525
905.0374	10506.025
908.8298	10520.725
912.61957	10518.925
916.40671	10596.125
920.19121	10721.225
923.97308	10795.725
927.75233	10886.925
931.52895	10873.425
935.30295	10827.825
939.07433	10657.025
942.84309	10535.825
946.60924	10466.125
950.37278	10431.525
954.13371	10390.725
957.89203	10319.425
961.64774	10290.125
965.40086	10307.125
969.15137	10270.625
972.89929	10231.925
976.64461	10194.425
980.38733	10229.825
984.12747	10260.725
987.86502	10359.825
991.59999	10488.425
995.33237	10691.025
999.06217	10945.025
1002.78939	11291.825
1006.51404	11426.725
1010.23611	11458.625
1013.95561	11479.625
1017.67255	11468.025
1021.38692	11381.925
1025.09872	11308.725
1028.80796	11458.925
1032.51465	11816.025
1036.21877	12168.925
1039.92035	12222.225
1043.61937	12059.825
1047.31584	11752.425
1051.00976	11435.825
1054.70114	11250.725
1058.38998	11211.625
1062.07627	11197.425
1065.76003	11200.125
1069.44126	11236.625
1073.11995	11304.025
1076.79611	11384.625
1080.46974	11472.825
1084.14085	11545.425
1087.80943	11615.825
1091.47549	11631.925
1095.13903	11630.925
1098.80005	11500.625
1102.45857	11354.525
1106.11456	11278.825
1109.76805	11239.225
1113.41903	11327.425
1117.06751	11383.725
1120.71348	11500.525
1124.35696	11599.225
1127.99793	11731.025
1131.63641	11799.825
1135.2724	11680.525
1138.90589	11525.225
1142.5369	11469.725
1146.16542	11452.625
1149.79145	11483.325
1153.415	11546.925
1157.03607	11648.025
1160.65467	11849.325
1164.27079	12157.325
1167.88443	12626.125
1171.49561	13227.125
1175.10432	14087.925
1178.71056	15127.025
1182.31434	16059.325
1185.91565	16563.025
1189.51451	16397.425
1193.11091	15839.725
1196.70485	15179.625
1200.29634	14662.125
1203.88538	14304.425
1207.47197	14006.025
1211.05612	13716.925
1214.63782	13494.725
1218.21708	13410.225
1221.79391	13396.525
1225.36829	13390.925
1228.94024	13266.925
1232.50976	13058.425
1236.07685	12847.625
1239.6415	12716.725
1243.20374	12726.125
1246.76355	12791.425
1250.32093	12983.225
1253.8759	13201.825
1257.42845	13488.125
1260.97859	13743.225
1264.52631	14012.325
1268.07163	14293.925
1271.61453	14655.125
1275.15503	14997.925
1278.69312	15385.825
1282.22882	15694.625
1285.76211	15957.225
1289.29301	16330.325
1292.82151	16863.025
1296.34761	17542.225
1299.87133	18439.625
1303.39266	19512.725
1306.9116	20735.525
1310.42815	21817.025
1313.94233	22369.425
1317.45412	22213.825
1320.96354	21561.725
1324.47058	20840.225
1327.97525	20135.425
1331.47754	19675.325
1334.97747	19329.125
1338.47502	19171.125
1341.97022	18904.925
1345.46305	18703.125
1348.95352	18636.725
1352.44163	18863.325
1355.92738	19539.625
1359.41078	20644.325
1362.89183	21703.825
1366.37053	21559.825
1369.84688	19859.825
1373.32088	17824.525
1376.79254	16392.225
1380.26186	15857.625
1383.72883	15768.225
1387.19347	15769.925
1390.65578	15577.725
1394.11575	15469.625
1397.57339	15622.125
1401.0287	15917.525
1404.48168	16146.925
1407.93234	16190.125
1411.38068	15965.325
1414.82669	15530.225
1418.27039	15029.425
1421.71177	14541.725
1425.15083	14139.625
1428.58758	13907.325
1432.02203	13957.525
1435.45416	14198.825
1438.88399	14532.125
1442.31151	14767.025
1445.73673	14936.725
1449.15965	15084.625
1452.58027	15191.325
1455.9986	15124.425
1459.41463	15129.125
1462.82837	15220.825
1466.23982	15423.025
1469.64898	15695.125
1473.05586	15849.825
1476.46045	15909.325
1479.86276	15941.725
1483.26279	15841.025
1486.66054	15746.925
1490.05602	15714.725
1493.44922	15798.125
1496.84016	15868.725
1500.22882	16069.925
1503.61521	16461.825
1506.99934	17033.025
1510.38121	17595.725
1513.76081	17857.525
1517.13816	17560.225
1520.51324	16909.325
1523.88607	16220.625
1527.25665	15831.725
1530.62498	15664.625
1533.99105	15595.925
1537.35488	15509.925
1540.71647	15390.825
1544.07581	15165.925
1547.4329	14901.925
1550.78776	14659.425
1554.14038	14527.925
1557.49077	14442.325
1560.83892	14383.325
1564.18484	14392.225
1567.52853	14466.825
1570.86999	14612.125
1574.20922	14835.025
1577.54624	14999.125
1580.88103	15058.825
1584.2136	15050.825
1587.54395	15308.925
1590.87208	15951.625
1594.19801	16747.625
1597.52172	17582.225
1600.84321	17922.225
1604.16251	17329.125
1607.47959	16143.025
1610.79447	14844.825
1614.10715	13734.825
1617.41763	12933.625
1620.7259	12448.125
1624.03199	12260.025
1627.33587	12291.525
1630.63757	12575.025
1633.93707	13127.225
1637.23439	13943.225
1640.52951	15115.925
1643.82246	16565.525
1647.11321	17741.525
1650.40179	18094.625
1653.68819	17118.525
1656.97241	15266.425
1660.25446	13468.525
1663.53433	12169.325
1666.81203	11380.625
1670.08756	10904.325
1673.36092	10604.025
1676.63211	10425.825
1679.90115	10273.125
1683.16801	10170.625
1686.43272	10062.325
1689.69527	10001.925
1692.95567	9925.925
1696.2139	9859.825
1699.46999	9831.625
1702.72392	9786.125
1705.97571	9790.025
1709.22535	9817.325
1712.47284	9839.825
1715.71819	9866.025
1718.96139	9863.125
1722.20246	9844.525
1725.44139	9808.925
1728.67818	9754.525
1731.91284	9721.325
1735.14537	9697.925
1738.37576	9640.725
1741.60403	9639.225
1744.83017	9606.125
1748.05418	9584.525
1751.27607	9561.125
1754.49584	9535.425
1757.71349	9517.725
1760.92903	9498.925
1764.14244	9503.725
1767.35375	9484.625
1770.56294	9463.525
1773.77002	9481.125
1776.97499	9481.625
1780.17785	9485.625
1783.37861	9514.125
1786.57727	9485.225
1789.77382	9469.225
1792.96828	9467.225
1796.16064	9444.625
1799.3509	9436.325
1802.53907	9424.825
1805.72514	9393.425
1808.90913	9372.925
1812.09102	9369.725
1815.27083	9352.625
1818.44856	9337.525
1821.6242	9316.525
1824.79776	9287.925
1827.96924	9319.325
1831.13864	9288.425
1834.30597	9279.125
1837.47122	9297.425
1840.6344	9259.325
1843.7955	9275.025
1846.95454	9258.125
1850.11151	9281.725
1853.26642	9256.425
1856.41926	9255.525
1859.57004	9252.225
1862.71876	9254.425
1865.86542	9248.925
1869.01003	9268.025
1872.15258	9244.325
1875.29308	9220.525
1878.43152	9251.425
1881.56792	9229.425
1884.70227	9211.625
1887.83457	9232.725
1890.96482	9198.925
1894.09304	9197.525
1897.21921	9202.325
1900.34335	9179.225
1903.46544	9182.925
1906.58551	9185.525
1909.70353	9166.225
1912.81953	9159.725
1915.93349	9150.725
1919.04543	9136.625
1922.15534	9129.725
1925.26322	9095.525
1928.36908	9099.925
1931.47292	9070.125
1934.57473	9066.625
1937.67453	9054.925
1940.77232	9050.325
1943.86808	9012.325
1946.96184	8961.625
1950.05358	8970.625
1953.14331	8915.825
1956.23103	8919.525
1959.31675	8883.725
1962.40046	8864.225
1965.48217	8868.025
1968.56188	8829.025
1971.63959	8780.825
1974.7153	8761.825
1977.78901	8765.325
1980.86073	8732.225
1983.93046	8714.325
1986.99819	8683.425
1990.06394	8658.125
1993.1277	8639.425
1996.18947	8595.525
1999.24925	8596.125
2002.30706	8577.825
2005.36288	8568.125
2008.41672	8544.725
2011.46859	8512.825
2014.51848	8493.625
2017.56639	8495.925
2020.61233	8475.225
2023.6563	8465.725
2026.6983	8420.225
2029.73833	8433.125
2032.7764	8384.925
2035.8125	8382.925
2038.84664	8372.325
2041.87881	8359.525
2044.90903	8349.625
2047.93729	8340.025
2050.96359	8340.225
2053.98794	8313.825
2057.01034	8286.525
2060.03078	8333.425
2063.04927	8296.425
2066.06582	8315.525
2069.08042	8292.525
2072.09307	8287.125
2075.10378	8285.925
2078.11255	8287.925
2081.11938	8279.925
2084.12426	8263.025
2087.12722	8276.925
2090.12824	8269.925
2093.12732	8257.825
2096.12447	8281.025
2099.11969	8278.525
2102.11299	8277.725
2105.10435	8273.325
2108.09379	8262.425
2111.08131	8281.125
2114.0669	8293.125
2117.05057	8308.025
2120.03233	8291.225
2123.01216	8312.325
2125.99008	8326.325
2128.96609	8361.025
2131.94018	8343.125
2134.91236	8333.325
2137.88263	8381.925
2140.851	8373.425
2143.81746	8377.825
2146.78201	8384.325
2149.74466	8367.825
2152.7054	8359.425
2155.66425	8392.125
2158.6212	8374.325
2161.57625	8383.825
2164.52941	8380.825
2167.48067	8368.225
2170.43004	8376.525
2173.37752	8387.225
2176.32311	8393.625
2179.26681	8392.025
2182.20863	8377.525
2185.14856	8385.825
2188.08661	8411.425
2191.02278	8404.725
2193.95707	8380.525
2196.88948	8387.525
2199.82001	8388.025
2202.74867	8371.125
2205.67545	8388.125
2208.60037	8390.525
2211.52341	8360.725
2214.44458	8359.725
2217.36388	8359.825
2220.28132	8347.025
2223.1969	8339.525
2226.11061	8332.425
2229.02246	8309.125
2231.93245	8314.225
2234.84058	8286.425
2237.74686	8259.225
2240.65128	8269.425
2243.55385	8256.325
2246.45456	8243.725
2249.35343	8222.325
2252.25044	8230.025
2255.14561	8196.525
2258.03893	8200.125
2260.93041	8186.025
2263.82004	8158.525
2266.70783	8148.025
2269.59378	8118.125
2272.4779	8105.725
2275.36017	8095.825
2278.24061	8097.625
2281.11922	8087.225
2283.996	8096.925
2286.87094	8079.925
2289.74405	8052.125
2292.61534	8054.925
2295.4848	8045.725
2298.35243	8058.325
2301.21824	8083.825
2304.08223	8058.325
2306.94439	8079.025
2309.80474	8089.425
2312.66327	8084.225
2315.51999	8080.625
2318.37489	8049.325
2321.22797	8056.925
2324.07925	8054.625
2326.92871	8019.925
2329.77637	8013.525
2332.62222	8013.125
2335.46626	8015.625
2338.3085	8008.325
2341.14893	8009.925
2343.98756	8013.925
2346.8244	8005.125
2349.65943	8005.825
2352.49267	7990.125
2355.32411	7989.525
2358.15376	7971.625
2360.98161	7994.625
2363.80768	7971.025
2366.63195	7990.825
2369.45444	7960.725
2372.27514	7947.325
2375.09405	7941.525
2377.91118	7928.225
2380.72652	7922.225
2383.54009	7884.525
2386.35187	7894.425
2389.16188	7866.825
2391.97011	7862.525
2394.77657	7837.725
2397.58125	7841.125
2400.38416	7836.325
2403.18529	7822.025
2405.98466	7808.125
2408.78226	7814.625
2411.57809	7789.525
2414.37216	7761.825
2417.16446	7790.625
2419.955	7754.025
2422.74378	7774.425
2425.5308	7750.925
2428.31606	7763.225
2431.09956	7750.425
2433.88131	7747.925
2436.6613	7750.825
2439.43954	7742.525
2442.21603	7747.425
2444.99077	7777.225
2447.76377	7750.625
2450.53501	7744.425
2453.30451	7729.725
2456.07226	7741.825
2458.83827	7703.225
2461.60254	7717.125
2464.36507	7711.925
2467.12586	7713.225
2469.88492	7712.425
2472.64224	7711.125
2475.39782	7719.525
2478.15167	7716.925
2480.90379	7692.825
2483.65417	7715.425
2486.40283	7739.925
2489.14976	7725.225
2491.89497	7730.325
2494.63845	7716.225
2497.3802	7723.225
2500.12024	7713.225
2502.85855	7704.325
2505.59514	7709.825
2508.33002	7702.225
2511.06318	7696.525
2513.79462	7716.425
2516.52435	7677.125
2519.25237	7693.025
2521.97867	7679.325
2524.70327	7671.625
2527.42616	7668.825
2530.14734	7662.125
2532.86681	7649.725
2535.58458	7644.625
2538.30065	7646.725
2541.01501	7625.725
2543.72768	7635.525
2546.43864	7614.025
2549.14791	7623.225
2551.85548	7625.425
2554.56136	7588.825
2557.26554	7590.925
2559.96803	7604.025
2562.66883	7570.725
2565.36794	7575.825
2568.06536	7575.525
2570.7611	7580.725
2573.45514	7556.425
2576.14751	7538.525
2578.83819	7538.425
2581.52719	7561.725
2584.21451	7530.225
2586.90015	7541.625
2589.58411	7509.725
2592.2664	7543.725
2594.94701	7523.325
2597.62594	7510.725
2600.30321	7517.425
2602.9788	7509.825
2605.65273	7484.625
2608.32498	7501.425
2610.99557	7498.425
2613.66449	7476.425
2616.33175	7482.825
2618.99734	7471.925
2621.66128	7488.925
2624.32355	7468.025
2626.98416	7493.625
2629.64311	7466.625
2632.30041	7465.325
2634.95605	7457.225
2637.61004	7454.925
2640.26238	7428.125
2642.91306	7424.325
2645.56209	7416.825
2648.20948	7431.025
2650.85521	7408.825
2653.4993	7424.325
2656.14175	7402.125
2658.78255	7439.025
2661.42171	7435.725
2664.05923	7454.725
2666.6951	7453.725
2669.32934	7466.825
2671.96194	7434.025
2674.59291	7435.325
2677.22224	7438.925
2679.84993	7431.625
2682.476	7420.225
2685.10043	7420.225
2687.72324	7419.825
2690.34441	7415.925
2692.96396	7422.625
2695.58188	7404.625
2698.19818	7419.525
2700.81285	7436.425
2703.4259	7430.325
2706.03733	7409.225
2708.64714	7419.025
2711.25533	7442.125
2713.86191	7413.425
2716.46687	7443.725
2719.07021	7447.925
2721.67194	7446.425
2724.27206	7473.225
2726.87057	7485.125
2729.46747	7500.625
2732.06276	7475.025
2734.65644	7461.525
2737.24852	7470.325
2739.83899	7463.325
2742.42786	7471.825
2745.01513	7439.325
2747.60079	7457.825
2750.18486	7458.125
2752.76733	7438.525
2755.3482	7437.325
2757.92747	7441.825
2760.50515	7421.325
2763.08123	7427.125
2765.65573	7433.725
2768.22863	7429.525
2770.79994	7428.325
2773.36967	7403.225
2775.9378	7405.725
2778.50435	7420.625
2781.06932	7400.125
2783.6327	7398.225
2786.1945	7401.225
2788.75471	7393.825
2791.31335	7372.825
2793.87041	7386.925
2796.42589	7360.025
2798.97979	7358.425
2801.53212	7339.325
2804.08288	7336.125
2806.63206	7334.125
2809.17967	7304.225
2811.72571	7300.325
2814.27018	7289.825
2816.81308	7270.525
2819.35442	7282.225
2821.89419	7271.125
2824.43239	7280.225
2826.96904	7280.625
2829.50412	7275.825
2832.03763	7259.625
2834.56959	7256.525
2837.1	7257.625
2839.62884	7278.225
2842.15613	7270.525
2844.68186	7285.725
2847.20604	7311.325
2849.72867	7328.825
2852.24974	7335.025
2854.76927	7296.325
2857.28724	7300.325
2859.80367	7284.425
2862.31855	7290.425
2864.83189	7288.725
2867.34368	7275.025
2869.85393	7275.125
2872.36264	7256.925
2874.8698	7262.325
2877.37543	7271.825
2879.87952	7259.625
2882.38207	7275.525
2884.88308	7259.425
2887.38256	7261.925
2889.88051	7258.325
2892.37692	7266.725
2894.8718	7278.425
2897.36515	7281.125
2899.85698	7286.025
2902.34727	7321.925
2904.83604	7302.225
2907.32328	7319.525
2909.809	7316.225
2912.29319	7312.825
2914.77587	7334.025
2917.25702	7340.025
2919.73665	7299.125
2922.21476	7316.125
2924.69136	7298.325
2927.16644	7300.625
2929.64	7294.425
2932.11205	7300.425
2934.58258	7275.925
2937.05161	7289.725
2939.51912	7283.525
2941.98513	7295.125
2944.44962	7258.425
2946.91261	7227.525
2949.37409	7225.925
2951.83407	7227.825
2954.29254	7231.225
2956.74951	7209.125
2959.20498	7207.725
2961.65895	7220.025
2964.11142	7205.625
2966.56239	7195.025
2969.01186	7178.025
2971.45984	7179.425
2973.90632	7167.125
2976.35131	7154.925
2978.7948	7151.725
2981.23681	7148.525
2983.67732	7132.225
2986.11635	7112.925
2988.55388	7113.925
2990.98993	7105.025
2993.4245	7106.525
2995.85758	7079.825
2998.28917	7082.225
3000.71928	7061.825
3003.14791	7026.225
3005.57506	7021.525
3008.00073	7011.125
3010.42493	7033.725
3012.84764	7014.125
3015.26888	7020.525
3017.68865	7009.325
3020.10694	7000.525
3022.52376	6990.825
3024.9391	6987.925
3027.35298	6987.725
3029.76539	6979.725
3032.17632	6979.625
3034.5858	6962.225
3036.9938	6968.825
3039.40034	6967.225
3041.80542	6960.025
3044.20903	6956.125
3046.61118	6955.325
3049.01187	6936.425
3051.4111	6947.325
3053.80888	6941.525
3056.20519	6933.225
3058.60005	6897.225
3060.99345	6905.125
3063.3854	6878.225
3065.7759	6859.625
3068.16494	6864.325
3070.55254	6855.525
3072.93868	6837.325
3075.32338	6816.725
3077.70662	6826.325
3080.08842	6807.025
3082.46878	6799.025
3084.84769	6802.225
3087.22515	6806.125
3089.60118	6814.125
3091.97576	6803.325
3094.3489	6809.325
3096.72061	6825.825
3099.09087	6834.525
3101.4597	6815.125
3103.82709	6831.925
3106.19305	6809.925
3108.55757	6820.925
3110.92066	6808.425
3113.28232	6785.025
3115.64255	6790.125
3118.00134	6783.025
3120.35871	6762.225
3122.71466	6775.225
3125.06917	6768.325
3127.42226	6746.425
3129.77393	6750.825
3132.12417	6744.125
3134.47299	6758.525
3136.82039	6764.725
3139.16636	6767.025
3141.51092	6775.625
3143.85406	6786.725
3146.19579	6781.825
3148.53609	6783.125
3150.87499	6804.025
3153.21246	6803.025
3155.54853	6817.325
3157.88318	6823.925
3160.21642	6828.225
3162.54826	6834.125
3164.87868	6821.525
3167.2077	6826.525
3169.5353	6837.825
3171.86151	6840.625
3174.18631	6817.025
3176.5097	6852.725
3178.83169	6835.425
3181.15228	6836.625
3183.47147	6829.625
3185.78926	6842.525
3188.10565	6810.825
3190.42065	6827.025
3192.73424	6812.625
