Data from AgNPs_FTO_APTES_UA_1uM_CRN_5uM_R6G_10uM_NaF_0.1M_Addition_RamanShift__0__13-36-09-574.txt Node

Date: Thu Jan 27 13:36:09 GMT 2022
User: TCL
Spectrometer: QEP01345
Trigger mode: 4
Integration Time (sec): 7.000000E0
Scans to average: 10
Electric dark correction enabled: true
Nonlinearity correction enabled: false
Boxcar width: 0
XAxis mode: Raman Shifts
Number of Pixels in Spectrum: 1044
>>>>>Begin Spectral Data<<<<<
46.04893	0.125
50.45542	-0.375
54.85868	-0.375
59.25871	-1.675
63.6555	57.725
68.04907	57.125
72.43941	62.625
76.82654	67.625
81.21044	68.325
85.59113	68.225
89.96862	71.025
94.34289	75.925
98.71396	81.425
103.08183	79.725
107.4465	83.925
111.80798	84.025
116.16626	85.525
120.52136	91.725
124.87327	93.125
129.222	93.625
133.56755	98.225
137.90993	103.925
142.24913	109.925
146.58517	126.925
150.91804	142.125
155.24774	163.125
159.57429	199.025
163.89768	255.825
168.21792	331.525
172.53501	452.025
176.84895	613.625
181.15975	860.825
185.46741	1207.625
189.77193	1672.925
194.07331	2244.225
198.37157	2886.225
202.6667	3588.825
206.9587	4255.625
211.24758	4913.325
215.53334	5602.925
219.81599	6294.625
224.09553	7092.825
228.37195	7946.725
232.64527	8887.025
236.91549	9926.225
241.18261	10939.525
245.44663	11865.325
249.70755	12713.425
253.96539	13460.225
258.22014	14082.125
262.4718	14621.125
266.72039	14969.125
270.96589	15154.625
275.20832	15161.225
279.44768	15057.725
283.68397	14862.225
287.91719	14702.625
292.14735	14554.325
296.37445	14519.225
300.59849	14579.025
304.81948	14663.425
309.03742	14738.825
313.25231	14689.525
317.46415	14529.425
321.67296	14211.725
325.87872	13990.925
330.08145	13872.025
334.28114	13875.025
338.47781	13970.225
342.67145	14159.225
346.86207	14394.725
351.04966	14684.325
355.23424	15004.825
359.4158	15278.625
363.59435	15508.225
367.76989	15645.225
371.94243	15754.625
376.11196	15866.625
380.27849	15923.225
384.44203	16023.025
388.60257	16132.725
392.76012	16210.725
396.91468	16415.025
401.06626	16627.525
405.21485	16806.625
409.36047	16792.025
413.50311	16605.825
417.64277	16436.125
421.77947	16404.925
425.9132	16451.425
430.04396	16483.025
434.17176	16546.025
438.2966	16723.625
442.41849	16942.025
446.53742	17378.225
450.6534	17836.725
454.76644	18152.025
458.87653	18248.725
462.98368	18125.025
467.08789	17974.225
471.18916	17694.325
475.2875	17406.225
479.38291	17184.825
483.4754	16986.625
487.56496	16893.925
491.6516	16787.425
495.73531	16723.925
499.81612	16696.025
503.89401	16788.525
507.96899	16852.425
512.04106	16795.025
516.11023	16765.925
520.1765	16761.125
524.23987	16724.325
528.30034	16712.925
532.35792	16609.325
536.41261	16441.625
540.46441	16231.825
544.51333	16163.525
548.55936	16284.825
552.60252	16485.225
556.64279	16793.225
560.6802	16983.025
564.71473	17005.325
568.7464	17140.125
572.7752	17354.225
576.80114	17517.125
580.82422	17745.925
584.84444	18144.525
588.86181	18728.125
592.87633	19368.525
596.888	19604.825
600.89682	19327.225
604.9028	19519.025
608.90594	20945.025
612.90624	22716.825
616.90371	21868.225
620.89834	18881.725
624.89015	17487.625
628.87913	17301.625
632.86528	17251.825
636.84862	17151.125
640.82913	16868.925
644.80683	16542.025
648.78172	16312.325
652.75379	16301.925
656.72306	16530.325
660.68952	16802.725
664.65319	16766.325
668.61405	16506.525
672.57211	16481.525
676.52738	16534.625
680.47986	16511.525
684.42955	16422.725
688.37646	16368.125
692.32058	16482.625
696.26192	16705.325
700.20048	16954.025
704.13626	17007.625
708.06928	16912.825
711.99952	16792.525
715.927	16759.425
719.85171	16857.525
723.77365	16796.825
727.69284	16634.725
731.60928	16449.125
735.52295	16387.325
739.43388	16422.325
743.34206	16457.725
747.24749	16515.925
751.15017	16639.025
755.05012	16779.525
758.94733	17137.025
762.8418	17732.325
766.73354	18725.225
770.62254	19736.925
774.50882	20126.125
778.39237	19608.225
782.27321	18619.525
786.15132	17719.825
790.02671	17103.025
793.89938	16883.025
797.76935	16749.825
801.6366	16681.325
805.50115	16620.825
809.36299	16556.725
813.22213	16500.825
817.07857	16427.325
820.93231	16387.425
824.78336	16403.525
828.63172	16429.125
832.47738	16511.625
836.32036	16590.425
840.16066	16669.825
843.99827	16784.625
847.8332	16693.925
851.66546	16627.725
855.49504	16546.725
859.32195	16562.525
863.1462	16501.025
866.96777	16453.025
870.78668	16437.325
874.60293	16405.325
878.41652	16433.925
882.22745	16464.125
886.03573	16562.025
889.84136	16563.725
893.64433	16478.625
897.44466	16374.825
901.24235	16339.125
905.0374	16279.225
908.8298	16268.325
912.61957	16290.325
916.40671	16424.125
920.19121	16576.925
923.97308	16805.225
927.75233	16952.625
931.52895	17014.425
935.30295	16904.625
939.07433	16699.725
942.84309	16482.825
946.60924	16420.225
950.37278	16402.425
954.13371	16328.425
957.89203	16240.125
961.64774	16186.725
965.40086	16149.825
969.15137	16141.225
972.89929	16148.925
976.64461	16212.225
980.38733	16334.325
984.12747	16460.125
987.86502	16612.525
991.59999	16834.525
995.33237	17142.325
999.06217	17615.925
1002.78939	18133.825
1006.51404	18419.425
1010.23611	18524.925
1013.95561	18577.325
1017.67255	18530.725
1021.38692	18356.325
1025.09872	18279.425
1028.80796	18573.225
1032.51465	19326.425
1036.21877	20044.725
1039.92035	20231.125
1043.61937	19910.925
1047.31584	19329.025
1051.00976	18635.025
1054.70114	18223.825
1058.38998	18074.625
1062.07627	18023.625
1065.76003	17982.825
1069.44126	18052.025
1073.11995	18256.925
1076.79611	18519.025
1080.46974	18693.425
1084.14085	18804.225
1087.80943	18913.725
1091.47549	18943.725
1095.13903	18885.625
1098.80005	18658.825
1102.45857	18388.425
1106.11456	18162.625
1109.76805	18079.025
1113.41903	18074.425
1117.06751	18145.225
1120.71348	18267.725
1124.35696	18404.725
1127.99793	18540.425
1131.63641	18629.625
1135.2724	18493.125
1138.90589	18340.025
1142.5369	18300.225
1146.16542	18251.825
1149.79145	18282.825
1153.415	18259.125
1157.03607	18368.225
1160.65467	18590.025
1164.27079	19151.125
1167.88443	19862.025
1171.49561	20721.225
1175.10432	21830.025
1178.71056	23314.625
1182.31434	24761.325
1185.91565	25568.925
1189.51451	25511.625
1193.11091	24917.825
1196.70485	24067.125
1200.29634	23334.125
1203.88538	22804.825
1207.47197	22395.425
1211.05612	21924.525
1214.63782	21495.725
1218.21708	21259.225
1221.79391	21086.125
1225.36829	20957.925
1228.94024	20794.725
1232.50976	20458.025
1236.07685	20191.225
1239.6415	20007.425
1243.20374	20052.725
1246.76355	20255.125
1250.32093	20548.625
1253.8759	20943.025
1257.42845	21466.725
1260.97859	21965.225
1264.52631	22445.525
1268.07163	23070.525
1271.61453	23740.325
1275.15503	24344.425
1278.69312	24948.225
1282.22882	25413.125
1285.76211	25796.925
1289.29301	26263.525
1292.82151	26903.325
1296.34761	27867.725
1299.87133	29240.125
1303.39266	30932.125
1306.9116	32752.225
1310.42815	34136.325
1313.94233	34530.625
1317.45412	33953.025
1320.96354	32732.025
1324.47058	31533.725
1327.97525	30488.425
1331.47754	29741.125
1334.97747	29310.525
1338.47502	29053.725
1341.97022	28727.625
1345.46305	28485.325
1348.95352	28543.425
1352.44163	29119.925
1355.92738	30328.125
1359.41078	32202.825
1362.89183	33745.325
1366.37053	33367.925
1369.84688	30820.225
1373.32088	27743.125
1376.79254	25551.925
1380.26186	24574.025
1383.72883	24346.725
1387.19347	24168.125
1390.65578	23758.825
1394.11575	23396.925
1397.57339	23389.225
1401.0287	23455.025
1404.48168	23571.725
1407.93234	23605.625
1411.38068	23472.225
1414.82669	23182.325
1418.27039	22775.525
1421.71177	22304.125
1425.15083	21852.625
1428.58758	21667.625
1432.02203	21811.225
1435.45416	22186.025
1438.88399	22625.825
1442.31151	22843.825
1445.73673	22966.325
1449.15965	22999.725
1452.58027	22975.425
1455.9986	22769.125
1459.41463	22751.825
1462.82837	22939.625
1466.23982	23341.925
1469.64898	23793.225
1473.05586	24189.525
1476.46045	24374.925
1479.86276	24464.825
1483.26279	24433.825
1486.66054	24392.325
1490.05602	24530.025
1493.44922	24743.825
1496.84016	25096.225
1500.22882	25463.325
1503.61521	26050.625
1506.99934	26869.125
1510.38121	27600.425
1513.76081	27902.225
1517.13816	27390.225
1520.51324	26407.725
1523.88607	25438.825
1527.25665	24808.525
1530.62498	24518.125
1533.99105	24349.425
1537.35488	24078.925
1540.71647	23811.525
1544.07581	23500.225
1547.4329	23163.925
1550.78776	22930.425
1554.14038	22736.925
1557.49077	22631.725
1560.83892	22559.925
1564.18484	22514.325
1567.52853	22550.825
1570.86999	22690.625
1574.20922	22921.325
1577.54624	23111.025
1580.88103	23097.725
1584.2136	23123.125
1587.54395	23621.125
1590.87208	24726.625
1594.19801	26034.925
1597.52172	27377.425
1600.84321	27756.025
1604.16251	26815.625
1607.47959	25035.825
1610.79447	23121.125
1614.10715	21526.925
1617.41763	20300.125
1620.7259	19538.825
1624.03199	19259.225
1627.33587	19333.725
1630.63757	19784.125
1633.93707	20542.725
1637.23439	21816.525
1640.52951	23556.925
1643.82246	25697.625
1647.11321	27466.925
1650.40179	27880.725
1653.68819	26365.625
1656.97241	23587.325
1660.25446	20921.825
1663.53433	19085.625
1666.81203	17943.625
1670.08756	17254.225
1673.36092	16806.125
1676.63211	16556.625
1679.90115	16326.825
1683.16801	16198.325
1686.43272	16052.025
1689.69527	15977.025
1692.95567	15911.025
1696.2139	15796.325
1699.46999	15794.425
1702.72392	15777.725
1705.97571	15753.925
1709.22535	15808.225
1712.47284	15826.725
1715.71819	15817.825
1718.96139	15798.425
1722.20246	15775.325
1725.44139	15730.125
1728.67818	15719.425
1731.91284	15613.625
1735.14537	15555.325
1738.37576	15515.525
1741.60403	15483.325
1744.83017	15409.125
1748.05418	15374.925
1751.27607	15375.225
1754.49584	15316.325
1757.71349	15294.925
1760.92903	15275.025
1764.14244	15265.225
1767.35375	15264.425
1770.56294	15251.425
1773.77002	15274.125
1776.97499	15271.125
1780.17785	15267.425
1783.37861	15268.825
1786.57727	15289.525
1789.77382	15270.725
1792.96828	15236.025
1796.16064	15233.925
1799.3509	15195.325
1802.53907	15192.225
1805.72514	15155.525
1808.90913	15116.025
1812.09102	15116.125
1815.27083	15082.325
1818.44856	15059.025
1821.6242	15061.825
1824.79776	15050.025
1827.96924	15043.925
1831.13864	15030.825
1834.30597	15008.525
1837.47122	15024.125
1840.6344	14993.725
1843.7955	15027.325
1846.95454	15001.625
1850.11151	14985.025
1853.26642	14999.225
1856.41926	15021.125
1859.57004	15041.625
1862.71876	15019.625
1865.86542	14995.925
1869.01003	14989.725
1872.15258	14965.125
1875.29308	14981.325
1878.43152	14956.025
1881.56792	14955.725
1884.70227	14952.925
1887.83457	14933.325
1890.96482	14904.825
1894.09304	14900.725
1897.21921	14910.625
1900.34335	14901.925
1903.46544	14868.625
1906.58551	14890.425
1909.70353	14854.925
1912.81953	14838.225
1915.93349	14847.525
1919.04543	14801.925
1922.15534	14786.125
1925.26322	14791.425
1928.36908	14750.925
1931.47292	14736.025
1934.57473	14703.125
1937.67453	14713.225
1940.77232	14646.125
1943.86808	14588.225
1946.96184	14569.225
1950.05358	14501.125
1953.14331	14482.025
1956.23103	14452.025
1959.31675	14417.525
1962.40046	14416.125
1965.48217	14410.325
1968.56188	14374.325
1971.63959	14333.425
1974.7153	14290.425
1977.78901	14240.325
1980.86073	14189.025
1983.93046	14185.525
1986.99819	14112.925
1990.06394	14074.625
1993.1277	14047.425
1996.18947	14013.825
1999.24925	13990.725
2002.30706	13931.025
2005.36288	13924.825
2008.41672	13889.025
2011.46859	13843.625
2014.51848	13843.225
2017.56639	13817.825
2020.61233	13806.325
2023.6563	13768.125
2026.6983	13715.525
2029.73833	13727.425
2032.7764	13691.825
2035.8125	13712.225
2038.84664	13685.025
2041.87881	13637.725
2044.90903	13661.925
2047.93729	13613.225
2050.96359	13605.425
2053.98794	13580.625
2057.01034	13570.325
2060.03078	13575.225
2063.04927	13599.625
2066.06582	13618.625
2069.08042	13586.125
2072.09307	13567.025
2075.10378	13550.625
2078.11255	13563.125
2081.11938	13546.525
2084.12426	13520.825
2087.12722	13538.225
2090.12824	13549.125
2093.12732	13584.825
2096.12447	13537.425
2099.11969	13528.725
2102.11299	13568.925
2105.10435	13607.125
2108.09379	13601.825
2111.08131	13617.625
2114.0669	13604.525
2117.05057	13637.825
2120.03233	13659.825
2123.01216	13659.825
2125.99008	13673.225
2128.96609	13715.125
2131.94018	13714.525
2134.91236	13739.225
2137.88263	13769.525
2140.851	13743.125
2143.81746	13779.925
2146.78201	13770.425
2149.74466	13804.025
2152.7054	13799.525
2155.66425	13819.625
2158.6212	13785.025
2161.57625	13785.625
2164.52941	13792.725
2167.48067	13807.725
2170.43004	13803.025
2173.37752	13821.525
2176.32311	13798.025
2179.26681	13823.825
2182.20863	13806.325
2185.14856	13820.225
2188.08661	13861.125
2191.02278	13879.025
2193.95707	13874.725
2196.88948	13849.125
2199.82001	13867.025
2202.74867	13870.625
2205.67545	13893.325
2208.60037	13850.925
2211.52341	13831.625
2214.44458	13840.625
2217.36388	13826.925
2220.28132	13806.525
2223.1969	13778.025
2226.11061	13750.125
2229.02246	13725.125
2231.93245	13731.425
2234.84058	13688.025
2237.74686	13694.325
2240.65128	13688.325
2243.55385	13667.325
2246.45456	13658.625
2249.35343	13629.825
2252.25044	13623.125
2255.14561	13615.625
2258.03893	13582.725
2260.93041	13591.025
2263.82004	13539.325
2266.70783	13534.525
2269.59378	13509.425
2272.4779	13493.025
2275.36017	13421.925
2278.24061	13465.425
2281.11922	13437.225
2283.996	13444.725
2286.87094	13453.425
2289.74405	13410.225
2292.61534	13397.925
2295.4848	13391.125
2298.35243	13433.325
2301.21824	13422.625
2304.08223	13441.525
2306.94439	13457.025
2309.80474	13455.925
2312.66327	13470.325
2315.51999	13448.625
2318.37489	13422.325
2321.22797	13439.725
2324.07925	13436.725
2326.92871	13422.925
2329.77637	13403.225
2332.62222	13404.325
2335.46626	13379.225
2338.3085	13349.725
2341.14893	13406.025
2343.98756	13400.825
2346.8244	13417.625
2349.65943	13393.325
2352.49267	13372.625
2355.32411	13347.125
2358.15376	13355.425
2360.98161	13345.025
2363.80768	13314.625
2366.63195	13328.725
2369.45444	13292.425
2372.27514	13254.825
2375.09405	13265.925
2377.91118	13274.725
2380.72652	13220.725
2383.54009	13219.125
2386.35187	13197.225
2389.16188	13197.925
2391.97011	13179.125
2394.77657	13160.925
2397.58125	13146.825
2400.38416	13146.225
2403.18529	13096.925
2405.98466	13099.725
2408.78226	13098.325
2411.57809	13064.225
2414.37216	13054.025
2417.16446	13021.025
2419.955	13019.825
2422.74378	13039.525
2425.5308	13037.525
2428.31606	13021.325
2431.09956	12994.625
2433.88131	12986.625
2436.6613	13013.025
2439.43954	13019.925
2442.21603	12988.225
2444.99077	12993.025
2447.76377	13006.425
2450.53501	12972.325
2453.30451	12972.325
2456.07226	12978.925
2458.83827	12977.425
2461.60254	12984.525
2464.36507	12969.525
2467.12586	12953.925
2469.88492	12957.025
2472.64224	12989.825
2475.39782	12991.825
2478.15167	12982.425
2480.90379	12991.125
2483.65417	13024.025
2486.40283	13003.125
2489.14976	13024.025
2491.89497	13032.425
2494.63845	13016.425
2497.3802	12990.825
2500.12024	13007.925
2502.85855	12986.325
2505.59514	13018.225
2508.33002	12961.025
2511.06318	12963.825
2513.79462	12978.425
2516.52435	12952.725
2519.25237	12916.625
2521.97867	12951.425
2524.70327	12960.625
2527.42616	12917.325
2530.14734	12940.225
2532.86681	12937.225
2535.58458	12916.725
2538.30065	12898.225
2541.01501	12911.225
2543.72768	12884.725
2546.43864	12886.225
2549.14791	12867.425
2551.85548	12856.325
2554.56136	12841.725
2557.26554	12846.325
2559.96803	12836.325
2562.66883	12850.925
2565.36794	12852.925
2568.06536	12840.025
2570.7611	12810.525
2573.45514	12801.625
2576.14751	12800.725
2578.83819	12793.525
2581.52719	12803.825
2584.21451	12757.725
2586.90015	12782.525
2589.58411	12750.925
2592.2664	12787.525
2594.94701	12716.525
2597.62594	12731.625
2600.30321	12700.925
2602.9788	12707.425
2605.65273	12684.225
2608.32498	12683.625
2610.99557	12696.125
2613.66449	12705.525
2616.33175	12671.425
2618.99734	12686.425
2621.66128	12691.825
2624.32355	12675.125
2626.98416	12666.625
2629.64311	12642.525
2632.30041	12644.325
2634.95605	12629.525
2637.61004	12621.525
2640.26238	12587.725
2642.91306	12623.025
2645.56209	12591.725
2648.20948	12582.825
2650.85521	12555.225
2653.4993	12562.725
2656.14175	12569.925
2658.78255	12551.925
2661.42171	12575.025
2664.05923	12606.825
2666.6951	12611.125
2669.32934	12618.925
2671.96194	12629.525
2674.59291	12614.825
2677.22224	12625.925
2679.84993	12607.825
2682.476	12595.425
2685.10043	12601.225
2687.72324	12584.925
2690.34441	12575.625
2692.96396	12576.125
2695.58188	12609.625
2698.19818	12576.225
2700.81285	12584.425
2703.4259	12572.425
2706.03733	12590.025
2708.64714	12566.025
2711.25533	12603.525
2713.86191	12605.125
2716.46687	12613.525
2719.07021	12663.925
2721.67194	12643.325
2724.27206	12661.225
2726.87057	12666.525
2729.46747	12693.325
2732.06276	12682.525
2734.65644	12650.825
2737.24852	12680.125
2739.83899	12658.625
2742.42786	12675.625
2745.01513	12642.225
2747.60079	12634.725
2750.18486	12613.925
2752.76733	12610.425
2755.3482	12636.425
2757.92747	12616.225
2760.50515	12579.825
2763.08123	12605.125
2765.65573	12576.725
2768.22863	12614.225
2770.79994	12574.525
2773.36967	12577.825
2775.9378	12574.625
2778.50435	12591.625
2781.06932	12582.525
2783.6327	12580.025
2786.1945	12548.325
2788.75471	12539.725
2791.31335	12524.925
2793.87041	12504.525
2796.42589	12492.925
2798.97979	12502.925
2801.53212	12472.425
2804.08288	12433.825
2806.63206	12426.025
2809.17967	12381.725
2811.72571	12377.525
2814.27018	12336.125
2816.81308	12348.425
2819.35442	12352.625
2821.89419	12329.225
2824.43239	12338.525
2826.96904	12321.825
2829.50412	12347.525
2832.03763	12319.325
2834.56959	12302.225
2837.1	12303.025
2839.62884	12282.125
2842.15613	12282.825
2844.68186	12322.325
2847.20604	12319.425
2849.72867	12356.725
2852.24974	12306.125
2854.76927	12328.525
2857.28724	12312.125
2859.80367	12304.425
2862.31855	12308.625
2864.83189	12265.125
2867.34368	12253.525
2869.85393	12251.325
2872.36264	12251.725
2874.8698	12269.925
2877.37543	12245.625
2879.87952	12242.625
2882.38207	12223.525
2884.88308	12274.825
2887.38256	12252.025
2889.88051	12282.925
2892.37692	12256.525
2894.8718	12270.625
2897.36515	12282.325
2899.85698	12317.225
2902.34727	12326.525
2904.83604	12327.325
2907.32328	12355.525
2909.809	12345.225
2912.29319	12339.725
2914.77587	12343.925
2917.25702	12324.825
2919.73665	12317.925
2922.21476	12334.925
2924.69136	12315.025
2927.16644	12321.425
2929.64	12315.625
2932.11205	12322.525
2934.58258	12257.225
2937.05161	12302.825
2939.51912	12271.025
2941.98513	12239.425
2944.44962	12243.925
2946.91261	12200.925
2949.37409	12237.325
2951.83407	12223.025
2954.29254	12237.225
2956.74951	12208.925
2959.20498	12201.725
2961.65895	12183.625
2964.11142	12204.425
2966.56239	12171.825
2969.01186	12178.425
2971.45984	12146.025
2973.90632	12142.325
2976.35131	12150.825
2978.7948	12137.825
2981.23681	12104.325
2983.67732	12110.125
2986.11635	12060.825
2988.55388	12041.525
2990.98993	12005.525
2993.4245	12041.425
2995.85758	11986.525
2998.28917	11974.025
3000.71928	11958.025
3003.14791	11956.125
3005.57506	11929.825
3008.00073	11913.425
3010.42493	11923.325
3012.84764	11879.225
3015.26888	11887.425
3017.68865	11859.925
3020.10694	11864.525
3022.52376	11829.725
3024.9391	11852.125
3027.35298	11845.125
3029.76539	11836.425
3032.17632	11825.025
3034.5858	11794.925
3036.9938	11785.725
3039.40034	11792.825
3041.80542	11815.225
3044.20903	11774.425
3046.61118	11767.225
3049.01187	11762.025
3051.4111	11755.825
3053.80888	11751.225
3056.20519	11735.625
3058.60005	11683.725
3060.99345	11647.225
3063.3854	11635.325
3065.7759	11609.825
3068.16494	11615.125
3070.55254	11568.925
3072.93868	11567.725
3075.32338	11555.525
3077.70662	11561.325
3080.08842	11525.925
3082.46878	11534.025
3084.84769	11494.425
3087.22515	11520.225
3089.60118	11524.025
3091.97576	11492.425
3094.3489	11510.025
3096.72061	11511.025
3099.09087	11505.825
3101.4597	11532.125
3103.82709	11524.325
3106.19305	11504.925
3108.55757	11518.625
3110.92066	11491.025
3113.28232	11460.925
3115.64255	11464.225
3118.00134	11414.925
3120.35871	11424.025
3122.71466	11421.225
3125.06917	11398.525
3127.42226	11374.425
3129.77393	11360.025
