Data from AgNPs_FTO_APTES_UA_1uM_CRN_1000uM_R6G_10uM_NaF_0.1M_Addition_RamanShift__18__18-54-39-938.txt Node

Date: Thu Jan 27 18:54:39 GMT 2022
User: TCL
Spectrometer: QEP01345
Trigger mode: 4
Integration Time (sec): 7.000000E0
Scans to average: 10
Electric dark correction enabled: true
Nonlinearity correction enabled: false
Boxcar width: 0
XAxis mode: Raman Shifts
Number of Pixels in Spectrum: 1044
>>>>>Begin Spectral Data<<<<<
46.04893	-0.025
50.45542	0.475
54.85868	-0.625
59.25871	-0.725
63.6555	43.175
68.04907	44.075
72.43941	46.375
76.82654	50.075
81.21044	52.475
85.59113	54.375
89.96862	55.775
94.34289	57.975
98.71396	63.975
103.08183	59.475
107.4465	64.375
111.80798	68.675
116.16626	68.275
120.52136	72.475
124.87327	68.475
129.222	71.575
133.56755	76.275
137.90993	80.575
142.24913	87.275
146.58517	96.275
150.91804	110.075
155.24774	125.375
159.57429	151.075
163.89768	191.475
168.21792	253.175
172.53501	338.575
176.84895	461.275
181.15975	638.775
185.46741	905.675
189.77193	1242.175
194.07331	1668.475
198.37157	2160.275
202.6667	2687.275
206.9587	3217.675
211.24758	3748.275
215.53334	4258.975
219.81599	4807.175
224.09553	5417.675
228.37195	6049.375
232.64527	6746.875
236.91549	7474.775
241.18261	8157.475
245.44663	8844.875
249.70755	9418.875
253.96539	9913.875
258.22014	10294.775
262.4718	10582.075
266.72039	10802.775
270.96589	10903.775
275.20832	10884.275
279.44768	10772.475
283.68397	10624.575
287.91719	10465.075
292.14735	10386.875
296.37445	10323.175
300.59849	10362.475
304.81948	10423.675
309.03742	10389.575
313.25231	10287.375
317.46415	10056.775
321.67296	9780.775
325.87872	9532.575
330.08145	9440.175
334.28114	9425.475
338.47781	9484.175
342.67145	9605.575
346.86207	9757.175
351.04966	9944.275
355.23424	10143.075
359.4158	10343.075
363.59435	10447.975
367.76989	10550.575
371.94243	10623.475
376.11196	10668.475
380.27849	10745.075
384.44203	10822.375
388.60257	10878.675
392.76012	10925.875
396.91468	11004.375
401.06626	11139.875
405.21485	11234.975
409.36047	11224.175
413.50311	11082.575
417.64277	10926.475
421.77947	10910.675
425.9132	10934.875
430.04396	10970.875
434.17176	11033.675
438.2966	11100.375
442.41849	11257.975
446.53742	11520.475
450.6534	11788.075
454.76644	11986.475
458.87653	12058.275
462.98368	12007.375
467.08789	11886.275
471.18916	11766.375
475.2875	11620.375
479.38291	11555.275
483.4754	11500.575
487.56496	11360.575
491.6516	11232.575
495.73531	11145.775
499.81612	11075.475
503.89401	11154.975
507.96899	11209.875
512.04106	11191.675
516.11023	11212.475
520.1765	11130.575
524.23987	11068.975
528.30034	10949.175
532.35792	10862.675
536.41261	10771.475
540.46441	10670.175
544.51333	10595.675
548.55936	10666.675
552.60252	10818.975
556.64279	11047.575
560.6802	11184.575
564.71473	11309.475
568.7464	11484.775
572.7752	11722.275
576.80114	11878.775
580.82422	12014.075
584.84444	12125.475
588.86181	12391.475
592.87633	12560.575
596.888	12582.975
600.89682	12448.275
604.9028	12625.575
608.90594	13552.475
612.90624	14725.575
616.90371	14175.375
620.89834	12034.475
624.89015	10991.175
628.87913	10808.475
632.86528	10878.775
636.84862	10946.275
640.82913	10909.175
644.80683	10738.075
648.78172	10571.675
652.75379	10532.375
656.72306	10588.675
660.68952	10765.275
664.65319	10754.775
668.61405	10674.175
672.57211	10733.475
676.52738	10908.575
680.47986	11053.275
684.42955	11021.075
688.37646	10871.375
692.32058	10756.875
696.26192	10689.875
700.20048	10719.075
704.13626	10761.675
708.06928	10704.675
711.99952	10616.475
715.927	10547.575
719.85171	10568.675
723.77365	10542.175
727.69284	10527.775
731.60928	10445.875
735.52295	10423.175
739.43388	10398.075
743.34206	10400.075
747.24749	10436.475
751.15017	10479.375
755.05012	10597.775
758.94733	10821.675
762.8418	11223.275
766.73354	11952.475
770.62254	12774.275
774.50882	13142.375
778.39237	12719.775
782.27321	11839.675
786.15132	11020.675
790.02671	10546.575
793.89938	10327.975
797.76935	10239.475
801.6366	10191.475
805.50115	10164.775
809.36299	10141.575
813.22213	10029.875
817.07857	10001.675
820.93231	9963.575
824.78336	9914.375
828.63172	9887.575
832.47738	9873.875
836.32036	9867.775
840.16066	9888.675
843.99827	9870.475
847.8332	9842.375
851.66546	9840.575
855.49504	9859.075
859.32195	9872.275
863.1462	9900.375
866.96777	9925.775
870.78668	9881.475
874.60293	9862.275
878.41652	9866.675
882.22745	9859.975
886.03573	9891.575
889.84136	9938.975
893.64433	9867.175
897.44466	9838.775
901.24235	9762.675
905.0374	9702.475
908.8298	9662.575
912.61957	9648.675
916.40671	9705.375
920.19121	9815.975
923.97308	9873.275
927.75233	9958.475
931.52895	9963.375
935.30295	9878.275
939.07433	9733.275
942.84309	9552.475
946.60924	9482.175
950.37278	9372.575
954.13371	9326.675
957.89203	9286.875
961.64774	9287.975
965.40086	9241.275
969.15137	9208.675
972.89929	9158.375
976.64461	9117.875
980.38733	9086.375
984.12747	9095.275
987.86502	9147.075
991.59999	9161.775
995.33237	9256.175
999.06217	9419.475
1002.78939	9614.975
1006.51404	9727.975
1010.23611	9820.075
1013.95561	9933.675
1017.67255	9959.175
1021.38692	9901.175
1025.09872	9792.475
1028.80796	9733.275
1032.51465	9781.275
1036.21877	9853.475
1039.92035	9918.975
1043.61937	9924.475
1047.31584	9835.375
1051.00976	9805.275
1054.70114	9783.375
1058.38998	9790.675
1062.07627	9837.575
1065.76003	9912.675
1069.44126	9990.875
1073.11995	10115.275
1076.79611	10242.575
1080.46974	10242.675
1084.14085	10238.975
1087.80943	10237.675
1091.47549	10253.475
1095.13903	10261.275
1098.80005	10147.975
1102.45857	9958.675
1106.11456	9825.875
1109.76805	9751.875
1113.41903	9832.875
1117.06751	9890.275
1120.71348	10042.775
1124.35696	10184.775
1127.99793	10386.775
1131.63641	10514.575
1135.2724	10422.875
1138.90589	10260.275
1142.5369	10157.975
1146.16542	10131.475
1149.79145	10114.775
1153.415	10129.675
1157.03607	10258.875
1160.65467	10466.075
1164.27079	10864.075
1167.88443	11329.375
1171.49561	11915.175
1175.10432	12681.375
1178.71056	13722.175
1182.31434	14642.775
1185.91565	15096.175
1189.51451	15019.175
1193.11091	14592.675
1196.70485	14000.475
1200.29634	13409.275
1203.88538	12943.475
1207.47197	12598.675
1211.05612	12284.775
1214.63782	12037.575
1218.21708	11869.075
1221.79391	11762.075
1225.36829	11698.275
1228.94024	11602.375
1232.50976	11422.475
1236.07685	11268.075
1239.6415	11149.575
1243.20374	11147.975
1246.76355	11165.275
1250.32093	11271.275
1253.8759	11442.675
1257.42845	11667.975
1260.97859	11949.275
1264.52631	12231.475
1268.07163	12522.475
1271.61453	12832.275
1275.15503	13163.075
1278.69312	13470.275
1282.22882	13721.675
1285.76211	14004.075
1289.29301	14391.475
1292.82151	14954.875
1296.34761	15619.475
1299.87133	16459.475
1303.39266	17391.375
1306.9116	18443.175
1310.42815	19459.275
1313.94233	20073.775
1317.45412	20038.575
1320.96354	19564.375
1324.47058	18945.975
1327.97525	18445.275
1331.47754	18097.075
1334.97747	17900.175
1338.47502	17825.575
1341.97022	17769.275
1345.46305	17659.875
1348.95352	17659.575
1352.44163	17884.175
1355.92738	18418.875
1359.41078	19271.975
1362.89183	20124.075
1366.37053	20049.775
1369.84688	18492.375
1373.32088	16410.275
1376.79254	14886.275
1380.26186	14182.775
1383.72883	13975.575
1387.19347	13896.175
1390.65578	13741.975
1394.11575	13679.275
1397.57339	13796.075
1401.0287	14098.075
1404.48168	14349.775
1407.93234	14503.075
1411.38068	14340.075
1414.82669	14030.175
1418.27039	13626.775
1421.71177	13171.075
1425.15083	12734.075
1428.58758	12497.275
1432.02203	12476.275
1435.45416	12698.775
1438.88399	13008.575
1442.31151	13244.675
1445.73673	13386.875
1449.15965	13569.175
1452.58027	13719.675
1455.9986	13707.775
1459.41463	13752.775
1462.82837	13879.875
1466.23982	14087.275
1469.64898	14304.675
1473.05586	14428.675
1476.46045	14454.175
1479.86276	14375.675
1483.26279	14235.875
1486.66054	14173.175
1490.05602	14168.175
1493.44922	14246.675
1496.84016	14397.575
1500.22882	14670.575
1503.61521	15176.575
1506.99934	15886.575
1510.38121	16543.375
1513.76081	16777.675
1517.13816	16330.675
1520.51324	15508.375
1523.88607	14684.175
1527.25665	14176.275
1530.62498	13905.575
1533.99105	13780.875
1537.35488	13676.675
1540.71647	13546.875
1544.07581	13381.075
1547.4329	13172.775
1550.78776	12982.275
1554.14038	12840.075
1557.49077	12766.175
1560.83892	12733.575
1564.18484	12753.875
1567.52853	12837.175
1570.86999	13025.775
1574.20922	13277.275
1577.54624	13487.475
1580.88103	13495.075
1584.2136	13397.175
1587.54395	13489.575
1590.87208	13816.075
1594.19801	14474.075
1597.52172	15281.575
1600.84321	15716.875
1604.16251	15329.475
1607.47959	14350.175
1610.79447	13237.075
1614.10715	12149.675
1617.41763	11297.275
1620.7259	10653.075
1624.03199	10306.575
1627.33587	10223.075
1630.63757	10422.675
1633.93707	10912.975
1637.23439	11778.475
1640.52951	13052.675
1643.82246	14645.175
1647.11321	16074.175
1650.40179	16610.875
1653.68819	15761.075
1656.97241	13915.175
1660.25446	11994.475
1663.53433	10557.375
1666.81203	9722.975
1670.08756	9174.375
1673.36092	8859.375
1676.63211	8658.375
1679.90115	8523.975
1683.16801	8388.175
1686.43272	8281.375
1689.69527	8212.875
1692.95567	8136.275
1696.2139	8048.075
1699.46999	7985.675
1702.72392	7918.675
1705.97571	7916.975
1709.22535	7921.375
1712.47284	7913.675
1715.71819	7926.075
1718.96139	7901.375
1722.20246	7872.575
1725.44139	7836.075
1728.67818	7787.975
1731.91284	7766.875
1735.14537	7754.875
1738.37576	7691.075
1741.60403	7704.875
1744.83017	7718.775
1748.05418	7707.975
1751.27607	7725.675
1754.49584	7741.475
1757.71349	7718.375
1760.92903	7644.975
1764.14244	7610.875
1767.35375	7552.475
1770.56294	7478.275
1773.77002	7441.775
1776.97499	7428.175
1780.17785	7398.975
1783.37861	7395.575
1786.57727	7362.375
1789.77382	7361.975
1792.96828	7312.075
1796.16064	7292.875
1799.3509	7237.275
1802.53907	7220.775
1805.72514	7194.875
1808.90913	7190.375
1812.09102	7135.875
1815.27083	7139.375
1818.44856	7124.475
1821.6242	7127.375
1824.79776	7084.875
1827.96924	7079.575
1831.13864	7082.475
1834.30597	7082.675
1837.47122	7086.975
1840.6344	7046.275
1843.7955	7055.275
1846.95454	7029.475
1850.11151	7047.475
1853.26642	7036.075
1856.41926	7031.975
1859.57004	7042.875
1862.71876	7011.075
1865.86542	7030.375
1869.01003	7002.875
1872.15258	7007.775
1875.29308	6996.275
1878.43152	6982.175
1881.56792	6994.475
1884.70227	6944.175
1887.83457	6939.175
1890.96482	6937.275
1894.09304	6941.375
1897.21921	6936.075
1900.34335	6917.075
1903.46544	6919.075
1906.58551	6890.675
1909.70353	6897.375
1912.81953	6882.975
1915.93349	6877.575
1919.04543	6843.775
1922.15534	6844.675
1925.26322	6821.375
1928.36908	6796.075
1931.47292	6774.375
1934.57473	6787.975
1937.67453	6756.675
1940.77232	6738.575
1943.86808	6730.675
1946.96184	6697.175
1950.05358	6671.775
1953.14331	6652.175
1956.23103	6625.775
1959.31675	6611.375
1962.40046	6597.475
1965.48217	6573.475
1968.56188	6554.475
1971.63959	6547.075
1974.7153	6512.775
1977.78901	6500.075
1980.86073	6475.175
1983.93046	6446.275
1986.99819	6432.975
1990.06394	6428.975
1993.1277	6393.075
1996.18947	6376.575
1999.24925	6368.175
2002.30706	6349.775
2005.36288	6316.175
2008.41672	6329.075
2011.46859	6291.975
2014.51848	6281.675
2017.56639	6253.575
2020.61233	6227.675
2023.6563	6218.575
2026.6983	6198.375
2029.73833	6202.675
2032.7764	6181.875
2035.8125	6184.075
2038.84664	6148.875
2041.87881	6131.275
2044.90903	6131.175
2047.93729	6117.975
2050.96359	6099.175
2053.98794	6105.275
2057.01034	6097.575
2060.03078	6087.775
2063.04927	6079.875
2066.06582	6063.775
2069.08042	6073.675
2072.09307	6072.275
2075.10378	6046.375
2078.11255	6068.675
2081.11938	6065.375
2084.12426	6052.375
2087.12722	6028.675
2090.12824	6030.675
2093.12732	6026.875
2096.12447	6032.375
2099.11969	6037.275
2102.11299	6025.475
2105.10435	6047.175
2108.09379	6041.475
2111.08131	6044.875
2114.0669	6030.575
2117.05057	6069.075
2120.03233	6055.275
2123.01216	6049.775
2125.99008	6063.575
2128.96609	6063.075
2131.94018	6060.375
2134.91236	6073.775
2137.88263	6074.575
2140.851	6066.075
2143.81746	6083.075
2146.78201	6075.875
2149.74466	6058.175
2152.7054	6059.475
2155.66425	6047.175
2158.6212	6057.075
2161.57625	6050.575
2164.52941	6061.375
2167.48067	6038.575
2170.43004	6038.675
2173.37752	6040.475
2176.32311	6027.475
2179.26681	6042.975
2182.20863	6030.575
2185.14856	6019.375
2188.08661	6028.375
2191.02278	6038.275
2193.95707	6021.775
2196.88948	6017.775
2199.82001	6005.275
2202.74867	6004.875
2205.67545	6020.775
2208.60037	5997.675
2211.52341	5976.675
2214.44458	5975.975
2217.36388	5946.775
2220.28132	5971.675
2223.1969	5940.175
2226.11061	5938.675
2229.02246	5922.575
2231.93245	5893.975
2234.84058	5904.975
2237.74686	5883.675
2240.65128	5876.375
2243.55385	5871.175
2246.45456	5850.575
2249.35343	5850.575
2252.25044	5834.075
2255.14561	5839.175
2258.03893	5815.275
2260.93041	5810.375
2263.82004	5788.775
2266.70783	5769.275
2269.59378	5763.275
2272.4779	5753.375
2275.36017	5739.275
2278.24061	5740.375
2281.11922	5720.375
2283.996	5731.075
2286.87094	5712.575
2289.74405	5681.275
2292.61534	5686.975
2295.4848	5673.075
2298.35243	5674.475
2301.21824	5673.275
2304.08223	5676.475
2306.94439	5667.075
2309.80474	5677.575
2312.66327	5663.775
2315.51999	5644.975
2318.37489	5655.775
2321.22797	5641.475
2324.07925	5633.475
2326.92871	5631.075
2329.77637	5631.975
2332.62222	5604.775
2335.46626	5594.975
2338.3085	5593.575
2341.14893	5602.075
2343.98756	5583.575
2346.8244	5593.175
2349.65943	5577.675
2352.49267	5575.175
2355.32411	5570.675
2358.15376	5572.275
2360.98161	5581.675
2363.80768	5576.375
2366.63195	5573.075
2369.45444	5573.475
2372.27514	5557.175
2375.09405	5554.075
2377.91118	5554.075
2380.72652	5529.375
2383.54009	5502.275
2386.35187	5501.075
2389.16188	5485.575
2391.97011	5486.675
2394.77657	5467.375
2397.58125	5452.575
2400.38416	5428.875
2403.18529	5434.575
2405.98466	5426.075
2408.78226	5423.875
2411.57809	5416.975
2414.37216	5394.375
2417.16446	5400.375
2419.955	5375.375
2422.74378	5382.075
2425.5308	5392.575
2428.31606	5381.875
2431.09956	5372.575
2433.88131	5374.075
2436.6613	5361.675
2439.43954	5353.375
2442.21603	5356.275
2444.99077	5352.075
2447.76377	5370.275
2450.53501	5352.275
2453.30451	5346.275
2456.07226	5349.875
2458.83827	5338.675
2461.60254	5328.575
2464.36507	5343.275
2467.12586	5339.075
2469.88492	5332.475
2472.64224	5327.475
2475.39782	5323.775
2478.15167	5317.175
2480.90379	5321.275
2483.65417	5330.775
2486.40283	5316.875
2489.14976	5325.875
2491.89497	5307.875
2494.63845	5302.475
2497.3802	5295.075
2500.12024	5301.175
2502.85855	5302.175
2505.59514	5312.575
2508.33002	5299.175
2511.06318	5298.775
2513.79462	5277.575
2516.52435	5279.175
2519.25237	5282.775
2521.97867	5276.475
2524.70327	5252.575
2527.42616	5245.475
2530.14734	5259.075
2532.86681	5240.575
2535.58458	5238.275
2538.30065	5224.075
2541.01501	5232.275
2543.72768	5214.675
2546.43864	5209.075
2549.14791	5211.675
2551.85548	5207.975
2554.56136	5173.475
2557.26554	5180.175
2559.96803	5174.275
2562.66883	5181.375
2565.36794	5170.475
2568.06536	5156.375
2570.7611	5152.275
2573.45514	5131.275
2576.14751	5141.375
2578.83819	5133.475
2581.52719	5127.275
2584.21451	5125.475
2586.90015	5107.775
2589.58411	5106.175
2592.2664	5109.275
2594.94701	5082.175
2597.62594	5094.175
2600.30321	5079.375
2602.9788	5074.075
2605.65273	5068.275
2608.32498	5076.875
2610.99557	5063.075
2613.66449	5072.775
2616.33175	5057.275
2618.99734	5061.075
2621.66128	5044.175
2624.32355	5055.175
2626.98416	5069.375
2629.64311	5042.675
2632.30041	5035.475
2634.95605	5023.975
2637.61004	5030.275
2640.26238	5013.675
2642.91306	5025.075
2645.56209	5021.575
2648.20948	5015.175
2650.85521	5001.975
2653.4993	5001.775
2656.14175	5026.575
2658.78255	5014.275
2661.42171	5034.775
2664.05923	5036.375
2666.6951	5031.975
2669.32934	5030.175
2671.96194	5021.075
2674.59291	5033.075
2677.22224	5028.575
2679.84993	5007.875
2682.476	5009.775
2685.10043	5027.675
2687.72324	5002.475
2690.34441	5001.775
2692.96396	5015.075
2695.58188	5002.875
2698.19818	5010.975
2700.81285	5014.175
2703.4259	5025.575
2706.03733	5006.375
2708.64714	4961.975
2711.25533	5009.975
2713.86191	5004.375
2716.46687	5008.175
2719.07021	5027.075
2721.67194	5016.675
2724.27206	5028.775
2726.87057	5022.175
2729.46747	5035.275
2732.06276	5019.575
2734.65644	5012.775
2737.24852	5019.175
2739.83899	5011.275
2742.42786	5027.975
2745.01513	4999.575
2747.60079	5012.475
2750.18486	4996.575
2752.76733	4993.975
2755.3482	5003.575
2757.92747	4986.275
2760.50515	4983.875
2763.08123	4997.875
2765.65573	4980.575
2768.22863	4985.075
2770.79994	4979.675
2773.36967	4986.975
2775.9378	4979.975
2778.50435	4976.275
2781.06932	4980.375
2783.6327	4985.975
2786.1945	4966.675
2788.75471	4959.575
2791.31335	4944.375
2793.87041	4954.875
2796.42589	4925.375
2798.97979	4953.375
2801.53212	4952.575
2804.08288	4929.275
2806.63206	4942.875
2809.17967	4928.675
2811.72571	4915.275
2814.27018	4922.575
2816.81308	4895.275
2819.35442	4902.575
2821.89419	4919.075
2824.43239	4909.275
2826.96904	4891.875
2829.50412	4909.675
2832.03763	4898.075
2834.56959	4912.975
2837.1	4910.675
2839.62884	4914.075
2842.15613	4941.875
2844.68186	4954.975
2847.20604	4996.275
2849.72867	5001.175
2852.24974	5007.775
2854.76927	4997.275
2857.28724	4989.175
2859.80367	4982.475
2862.31855	4985.975
2864.83189	4993.975
2867.34368	4970.775
2869.85393	4992.575
2872.36264	4989.675
2874.8698	4982.375
2877.37543	4991.675
2879.87952	4965.775
2882.38207	4990.375
2884.88308	4990.575
2887.38256	5007.175
2889.88051	4985.875
2892.37692	5020.075
2894.8718	5017.975
2897.36515	5042.975
2899.85698	5068.875
2902.34727	5066.075
2904.83604	5080.775
2907.32328	5099.075
2909.809	5111.875
2912.29319	5113.975
2914.77587	5136.375
2917.25702	5142.475
2919.73665	5136.175
2922.21476	5131.775
2924.69136	5153.375
2927.16644	5152.675
2929.64	5153.175
2932.11205	5151.975
2934.58258	5136.675
2937.05161	5157.375
2939.51912	5158.775
2941.98513	5140.175
2944.44962	5108.175
2946.91261	5077.875
2949.37409	5079.175
2951.83407	5079.075
2954.29254	5047.475
2956.74951	5029.675
2959.20498	5023.575
2961.65895	5015.375
2964.11142	5003.275
2966.56239	4970.375
2969.01186	4941.275
2971.45984	4924.375
2973.90632	4916.875
2976.35131	4873.175
2978.7948	4878.675
2981.23681	4845.875
2983.67732	4838.975
2986.11635	4816.175
2988.55388	4791.575
2990.98993	4778.475
2993.4245	4781.575
2995.85758	4794.775
2998.28917	4778.775
3000.71928	4743.575
3003.14791	4745.375
3005.57506	4740.975
3008.00073	4730.875
3010.42493	4710.475
3012.84764	4710.475
3015.26888	4723.775
3017.68865	4690.775
3020.10694	4670.475
3022.52376	4663.975
3024.9391	4652.675
3027.35298	4656.975
3029.76539	4654.175
3032.17632	4636.475
3034.5858	4636.675
3036.9938	4632.975
3039.40034	4624.675
3041.80542	4615.175
3044.20903	4591.875
3046.61118	4615.475
3049.01187	4599.475
3051.4111	4599.475
3053.80888	4583.375
3056.20519	4580.975
3058.60005	4570.775
3060.99345	4569.075
3063.3854	4556.175
3065.7759	4541.175
3068.16494	4540.575
3070.55254	4540.175
3072.93868	4522.275
3075.32338	4514.175
3077.70662	4524.775
3080.08842	4507.575
3082.46878	4509.875
3084.84769	4517.775
3087.22515	4493.975
3089.60118	4508.875
3091.97576	4504.175
3094.3489	4515.675
3096.72061	4510.475
3099.09087	4522.375
3101.4597	4512.875
3103.82709	4512.975
3106.19305	4525.575
3108.55757	4519.575
3110.92066	4509.075
3113.28232	4494.775
3115.64255	4493.875
3118.00134	4499.375
3120.35871	4500.975
3122.71466	4510.275
3125.06917	4498.175
3127.42226	4478.275
3129.77393	4496.875
3132.12417	4486.575
3134.47299	4503.175
3136.82039	4502.175
3139.16636	4507.675
3141.51092	4515.975
3143.85406	4511.075
3146.19579	4524.275
3148.53609	4527.875
3150.87499	4525.275
3153.21246	4547.375
3155.54853	4547.375
3157.88318	4564.475
3160.21642	4560.075
3162.54826	4559.975
3164.87868	4560.975
3167.2077	4570.875
3169.5353	4573.675
3171.86151	4593.275
3174.18631	4573.375
3176.5097	4590.975
3178.83169	4583.975
3181.15228	4598.475
3183.47147	4587.075
3185.78926	4584.375
3188.10565	4596.175
3190.42065	4599.475
3192.73424	4588.575
3195.04645	4587.175
3197.35725	4589.675
3199.66667	4596.375
3201.97469	4599.275
