Data from AgNPs_FTO_APTES_UA_1uM_CRN_10uM_R6G_20uM_NaF_0.1M_Addition_RamanShift__15__15-15-19-688.txt Node

Date: Thu Jan 27 15:15:19 GMT 2022
User: TCL
Spectrometer: QEP01345
Trigger mode: 4
Integration Time (sec): 7.000000E0
Scans to average: 10
Electric dark correction enabled: true
Nonlinearity correction enabled: false
Boxcar width: 0
XAxis mode: Raman Shifts
Number of Pixels in Spectrum: 1044
>>>>>Begin Spectral Data<<<<<
46.04893	3.1375
50.45542	0.6375
54.85868	-0.4625
59.25871	-2.7625
63.6555	48.8375
68.04907	48.0375
72.43941	49.8375
76.82654	58.2375
81.21044	55.0375
85.59113	57.8375
89.96862	58.9375
94.34289	61.5375
98.71396	65.3375
103.08183	62.3375
107.4465	70.9375
111.80798	67.6375
116.16626	70.2375
120.52136	75.7375
124.87327	74.5375
129.222	74.9375
133.56755	78.9375
137.90993	85.8375
142.24913	92.2375
146.58517	98.7375
150.91804	115.0375
155.24774	133.6375
159.57429	161.8375
163.89768	201.0375
168.21792	270.0375
172.53501	361.1375
176.84895	494.1375
181.15975	685.9375
185.46741	957.9375
189.77193	1321.5375
194.07331	1768.9375
198.37157	2273.6375
202.6667	2814.3375
206.9587	3349.2375
211.24758	3859.1375
215.53334	4377.3375
219.81599	4921.5375
224.09553	5524.7375
228.37195	6174.4375
232.64527	6897.7375
236.91549	7698.6375
241.18261	8467.1375
245.44663	9211.0375
249.70755	9870.6375
253.96539	10500.9375
258.22014	10973.7375
262.4718	11398.4375
266.72039	11693.4375
270.96589	11874.6375
275.20832	11906.1375
279.44768	11861.2375
283.68397	11793.7375
287.91719	11694.1375
292.14735	11644.1375
296.37445	11663.1375
300.59849	11678.9375
304.81948	11716.0375
309.03742	11674.3375
313.25231	11558.7375
317.46415	11291.3375
321.67296	10997.7375
325.87872	10716.8375
330.08145	10608.6375
334.28114	10595.2375
338.47781	10656.3375
342.67145	10799.6375
346.86207	10935.8375
351.04966	11129.0375
355.23424	11340.8375
359.4158	11508.6375
363.59435	11639.5375
367.76989	11723.6375
371.94243	11810.8375
376.11196	11905.5375
380.27849	11945.8375
384.44203	12029.8375
388.60257	12110.7375
392.76012	12199.7375
396.91468	12337.3375
401.06626	12509.3375
405.21485	12620.0375
409.36047	12590.7375
413.50311	12416.0375
417.64277	12276.5375
421.77947	12274.8375
425.9132	12262.4375
430.04396	12346.0375
434.17176	12385.7375
438.2966	12463.9375
442.41849	12607.4375
446.53742	12878.9375
450.6534	13147.7375
454.76644	13383.7375
458.87653	13461.4375
462.98368	13490.3375
467.08789	13395.7375
471.18916	13291.9375
475.2875	13175.0375
479.38291	13136.7375
483.4754	13080.0375
487.56496	12963.8375
491.6516	12765.9375
495.73531	12625.4375
499.81612	12566.2375
503.89401	12633.8375
507.96899	12643.6375
512.04106	12654.9375
516.11023	12624.9375
520.1765	12533.8375
524.23987	12430.0375
528.30034	12308.6375
532.35792	12190.6375
536.41261	12058.2375
540.46441	11992.5375
544.51333	12003.0375
548.55936	12152.3375
552.60252	12406.2375
556.64279	12611.0375
560.6802	12769.6375
564.71473	12840.6375
568.7464	12957.7375
572.7752	13217.8375
576.80114	13415.8375
580.82422	13631.1375
584.84444	13794.4375
588.86181	13908.2375
592.87633	13986.8375
596.888	13974.3375
600.89682	13982.8375
604.9028	14308.3375
608.90594	15301.6375
612.90624	16315.7375
616.90371	15525.9375
620.89834	13469.5375
624.89015	12527.8375
628.87913	12427.2375
632.86528	12517.5375
636.84862	12463.4375
640.82913	12344.7375
644.80683	12080.8375
648.78172	11878.4375
652.75379	11818.2375
656.72306	11904.7375
660.68952	12070.7375
664.65319	12028.0375
668.61405	11868.0375
672.57211	11804.8375
676.52738	11821.5375
680.47986	11797.8375
684.42955	11776.7375
688.37646	11736.9375
692.32058	11748.9375
696.26192	11857.5375
700.20048	11960.4375
704.13626	12041.5375
708.06928	12051.1375
711.99952	11964.0375
715.927	11954.8375
719.85171	11965.8375
723.77365	11931.3375
727.69284	11861.2375
731.60928	11740.2375
735.52295	11667.3375
739.43388	11689.0375
743.34206	11732.7375
747.24749	11759.5375
751.15017	11843.8375
755.05012	11993.4375
758.94733	12291.2375
762.8418	12786.7375
766.73354	13606.0375
770.62254	14367.6375
774.50882	14607.5375
778.39237	14027.6375
782.27321	13200.9375
786.15132	12461.7375
790.02671	12024.0375
793.89938	11819.3375
797.76935	11728.4375
801.6366	11689.6375
805.50115	11638.9375
809.36299	11611.2375
813.22213	11546.0375
817.07857	11478.2375
820.93231	11445.0375
824.78336	11434.3375
828.63172	11408.1375
832.47738	11390.1375
836.32036	11403.9375
840.16066	11429.1375
843.99827	11464.6375
847.8332	11427.2375
851.66546	11377.9375
855.49504	11368.5375
859.32195	11379.2375
863.1462	11363.1375
866.96777	11332.3375
870.78668	11313.1375
874.60293	11298.2375
878.41652	11310.7375
882.22745	11327.2375
886.03573	11361.5375
889.84136	11372.1375
893.64433	11320.5375
897.44466	11295.8375
901.24235	11246.8375
905.0374	11216.0375
908.8298	11195.3375
912.61957	11189.6375
916.40671	11265.0375
920.19121	11388.9375
923.97308	11512.8375
927.75233	11523.3375
931.52895	11453.0375
935.30295	11360.3375
939.07433	11211.7375
942.84309	11054.6375
946.60924	10968.0375
950.37278	10953.8375
954.13371	10956.0375
957.89203	10880.3375
961.64774	10862.8375
965.40086	10836.2375
969.15137	10805.0375
972.89929	10776.3375
976.64461	10721.7375
980.38733	10709.1375
984.12747	10762.1375
987.86502	10820.6375
991.59999	10930.1375
995.33237	11076.7375
999.06217	11322.6375
1002.78939	11598.7375
1006.51404	11727.6375
1010.23611	11786.4375
1013.95561	11868.0375
1017.67255	11907.4375
1021.38692	11833.4375
1025.09872	11718.6375
1028.80796	11729.0375
1032.51465	11948.5375
1036.21877	12195.9375
1039.92035	12265.7375
1043.61937	12147.6375
1047.31584	11950.4375
1051.00976	11743.8375
1054.70114	11649.4375
1058.38998	11697.8375
1062.07627	11779.2375
1065.76003	11831.2375
1069.44126	11938.0375
1073.11995	12036.7375
1076.79611	12147.0375
1080.46974	12238.3375
1084.14085	12288.3375
1087.80943	12377.0375
1091.47549	12446.7375
1095.13903	12449.2375
1098.80005	12378.3375
1102.45857	12172.8375
1106.11456	11997.3375
1109.76805	11894.6375
1113.41903	11913.8375
1117.06751	11967.9375
1120.71348	12041.2375
1124.35696	12134.7375
1127.99793	12262.4375
1131.63641	12323.7375
1135.2724	12270.6375
1138.90589	12165.6375
1142.5369	12151.6375
1146.16542	12156.7375
1149.79145	12166.4375
1153.415	12248.8375
1157.03607	12357.2375
1160.65467	12629.9375
1164.27079	13009.3375
1167.88443	13582.8375
1171.49561	14280.8375
1175.10432	15197.3375
1178.71056	16281.3375
1182.31434	17330.7375
1185.91565	17944.7375
1189.51451	18045.2375
1193.11091	17706.1375
1196.70485	17043.8375
1200.29634	16365.1375
1203.88538	15853.6375
1207.47197	15454.2375
1211.05612	15132.3375
1214.63782	14876.8375
1218.21708	14610.0375
1221.79391	14425.7375
1225.36829	14306.7375
1228.94024	14162.7375
1232.50976	13947.8375
1236.07685	13799.3375
1239.6415	13683.2375
1243.20374	13697.3375
1246.76355	13761.5375
1250.32093	13901.3375
1253.8759	14140.2375
1257.42845	14476.1375
1260.97859	14809.2375
1264.52631	15132.6375
1268.07163	15486.2375
1271.61453	15869.4375
1275.15503	16281.9375
1278.69312	16752.5375
1282.22882	17106.1375
1285.76211	17425.6375
1289.29301	17805.6375
1292.82151	18335.4375
1296.34761	19021.5375
1299.87133	19917.1375
1303.39266	21010.5375
1306.9116	22119.3375
1310.42815	23208.2375
1313.94233	23788.9375
1317.45412	23795.2375
1320.96354	23365.7375
1324.47058	22992.2375
1327.97525	22656.1375
1331.47754	22433.5375
1334.97747	22300.8375
1338.47502	22292.6375
1341.97022	22290.3375
1345.46305	22253.4375
1348.95352	22050.8375
1352.44163	21852.8375
1355.92738	21901.5375
1359.41078	22397.2375
1362.89183	22953.0375
1366.37053	22598.2375
1369.84688	21061.5375
1373.32088	19164.8375
1376.79254	17798.0375
1380.26186	17218.7375
1383.72883	17105.5375
1387.19347	17106.1375
1390.65578	16973.3375
1394.11575	16950.3375
1397.57339	17001.0375
1401.0287	17198.6375
1404.48168	17420.7375
1407.93234	17429.3375
1411.38068	17243.7375
1414.82669	16778.6375
1418.27039	16225.2375
1421.71177	15655.9375
1425.15083	15143.3375
1428.58758	14923.1375
1432.02203	14904.1375
1435.45416	15140.5375
1438.88399	15497.1375
1442.31151	15810.5375
1445.73673	16033.5375
1449.15965	16261.4375
1452.58027	16427.5375
1455.9986	16501.4375
1459.41463	16617.4375
1462.82837	16796.4375
1466.23982	17102.8375
1469.64898	17306.0375
1473.05586	17478.7375
1476.46045	17503.8375
1479.86276	17365.1375
1483.26279	17177.7375
1486.66054	17057.6375
1490.05602	17054.4375
1493.44922	17180.4375
1496.84016	17400.3375
1500.22882	17738.1375
1503.61521	18335.4375
1506.99934	19012.3375
1510.38121	19642.8375
1513.76081	19832.7375
1517.13816	19466.6375
1520.51324	18779.0375
1523.88607	18133.8375
1527.25665	17698.3375
1530.62498	17533.0375
1533.99105	17438.6375
1537.35488	17294.5375
1540.71647	17079.8375
1544.07581	16855.3375
1547.4329	16501.6375
1550.78776	16270.1375
1554.14038	16074.5375
1557.49077	15967.0375
1560.83892	15942.2375
1564.18484	15955.3375
1567.52853	15980.0375
1570.86999	16099.5375
1574.20922	16275.2375
1577.54624	16464.7375
1580.88103	16493.8375
1584.2136	16483.8375
1587.54395	16720.5375
1590.87208	17260.7375
1594.19801	18048.7375
1597.52172	18887.2375
1600.84321	19226.9375
1604.16251	18611.5375
1607.47959	17488.1375
1610.79447	16281.4375
1614.10715	15118.8375
1617.41763	14141.6375
1620.7259	13398.6375
1624.03199	12962.0375
1627.33587	12875.2375
1630.63757	13130.9375
1633.93707	13747.0375
1637.23439	14741.8375
1640.52951	16175.1375
1643.82246	17787.2375
1647.11321	19099.4375
1650.40179	19443.6375
1653.68819	18491.3375
1656.97241	16547.5375
1660.25446	14542.0375
1663.53433	12955.3375
1666.81203	11943.0375
1670.08756	11257.1375
1673.36092	10850.7375
1676.63211	10592.9375
1679.90115	10394.6375
1683.16801	10243.2375
1686.43272	10136.5375
1689.69527	10040.8375
1692.95567	9951.7375
1696.2139	9876.7375
1699.46999	9803.7375
1702.72392	9746.7375
1705.97571	9759.9375
1709.22535	9781.8375
1712.47284	9800.1375
1715.71819	9790.8375
1718.96139	9772.8375
1722.20246	9762.2375
1725.44139	9715.7375
1728.67818	9666.1375
1731.91284	9598.6375
1735.14537	9560.6375
1738.37576	9518.9375
1741.60403	9470.8375
1744.83017	9440.8375
1748.05418	9433.2375
1751.27607	9407.1375
1754.49584	9378.3375
1757.71349	9325.9375
1760.92903	9316.7375
1764.14244	9302.2375
1767.35375	9297.0375
1770.56294	9292.4375
1773.77002	9256.6375
1776.97499	9289.8375
1780.17785	9265.4375
1783.37861	9269.0375
1786.57727	9268.1375
1789.77382	9261.9375
1792.96828	9269.9375
1796.16064	9250.9375
1799.3509	9203.9375
1802.53907	9198.4375
1805.72514	9174.1375
1808.90913	9157.8375
1812.09102	9142.8375
1815.27083	9119.3375
1818.44856	9105.4375
1821.6242	9087.4375
1824.79776	9076.8375
1827.96924	9079.6375
1831.13864	9078.8375
1834.30597	9060.2375
1837.47122	9070.0375
1840.6344	9061.2375
1843.7955	9064.8375
1846.95454	9041.4375
1850.11151	9055.5375
1853.26642	9048.9375
1856.41926	9042.0375
1859.57004	9062.2375
1862.71876	9048.0375
1865.86542	9014.7375
1869.01003	9007.1375
1872.15258	8998.3375
1875.29308	8986.1375
1878.43152	8984.8375
1881.56792	8980.2375
1884.70227	8956.3375
1887.83457	8978.9375
1890.96482	8952.5375
1894.09304	8930.4375
1897.21921	8915.2375
1900.34335	8930.6375
1903.46544	8911.9375
1906.58551	8901.8375
1909.70353	8859.0375
1912.81953	8882.1375
1915.93349	8880.4375
1919.04543	8821.4375
1922.15534	8800.9375
1925.26322	8795.1375
1928.36908	8796.8375
1931.47292	8760.5375
1934.57473	8750.4375
1937.67453	8728.8375
1940.77232	8694.1375
1943.86808	8642.6375
1946.96184	8656.5375
1950.05358	8609.5375
1953.14331	8587.5375
1956.23103	8544.5375
1959.31675	8546.7375
1962.40046	8525.4375
1965.48217	8491.6375
1968.56188	8467.6375
1971.63959	8446.4375
1974.7153	8412.9375
1977.78901	8391.1375
1980.86073	8364.7375
1983.93046	8356.6375
1986.99819	8311.9375
1990.06394	8304.4375
1993.1277	8275.7375
1996.18947	8209.8375
1999.24925	8207.2375
2002.30706	8191.3375
2005.36288	8175.4375
2008.41672	8155.6375
2011.46859	8126.3375
2014.51848	8105.5375
2017.56639	8091.6375
2020.61233	8055.4375
2023.6563	8038.0375
2026.6983	8024.3375
2029.73833	8011.9375
2032.7764	8002.7375
2035.8125	7996.0375
2038.84664	7962.9375
2041.87881	7952.7375
2044.90903	7956.0375
2047.93729	7932.2375
2050.96359	7928.2375
2053.98794	7914.2375
2057.01034	7899.8375
2060.03078	7888.3375
2063.04927	7883.6375
2066.06582	7917.0375
2069.08042	7880.8375
2072.09307	7879.4375
2075.10378	7880.0375
2078.11255	7873.0375
2081.11938	7846.4375
2084.12426	7845.1375
2087.12722	7849.0375
2090.12824	7862.2375
2093.12732	7852.6375
2096.12447	7850.6375
2099.11969	7837.2375
2102.11299	7857.4375
2105.10435	7876.4375
2108.09379	7858.0375
2111.08131	7876.6375
2114.0669	7841.8375
2117.05057	7880.8375
2120.03233	7877.0375
2123.01216	7872.7375
2125.99008	7881.8375
2128.96609	7882.7375
2131.94018	7872.7375
2134.91236	7895.6375
2137.88263	7893.4375
2140.851	7879.3375
2143.81746	7906.1375
2146.78201	7922.5375
2149.74466	7918.9375
2152.7054	7919.2375
2155.66425	7907.6375
2158.6212	7920.0375
2161.57625	7902.1375
2164.52941	7916.7375
2167.48067	7909.7375
2170.43004	7895.0375
2173.37752	7901.5375
2176.32311	7914.4375
2179.26681	7899.6375
2182.20863	7900.0375
2185.14856	7893.2375
2188.08661	7903.5375
2191.02278	7888.0375
2193.95707	7910.8375
2196.88948	7883.0375
2199.82001	7893.8375
2202.74867	7885.0375
2205.67545	7868.7375
2208.60037	7869.0375
2211.52341	7833.8375
2214.44458	7855.1375
2217.36388	7812.6375
2220.28132	7830.3375
2223.1969	7816.5375
2226.11061	7798.7375
2229.02246	7786.7375
2231.93245	7781.2375
2234.84058	7737.3375
2237.74686	7742.2375
2240.65128	7722.6375
2243.55385	7726.1375
2246.45456	7700.0375
2249.35343	7698.3375
2252.25044	7689.4375
2255.14561	7677.6375
2258.03893	7656.3375
2260.93041	7637.9375
2263.82004	7620.1375
2266.70783	7628.1375
2269.59378	7593.3375
2272.4779	7573.3375
2275.36017	7551.6375
2278.24061	7562.5375
2281.11922	7538.3375
2283.996	7523.3375
2286.87094	7513.9375
2289.74405	7501.2375
2292.61534	7506.8375
2295.4848	7478.5375
2298.35243	7493.1375
2301.21824	7483.0375
2304.08223	7488.9375
2306.94439	7503.8375
2309.80474	7486.4375
2312.66327	7473.3375
2315.51999	7484.6375
2318.37489	7510.5375
2321.22797	7464.2375
2324.07925	7458.3375
2326.92871	7443.2375
2329.77637	7443.1375
2332.62222	7433.9375
2335.46626	7424.7375
2338.3085	7411.3375
2341.14893	7412.0375
2343.98756	7426.3375
2346.8244	7439.7375
2349.65943	7393.5375
2352.49267	7402.1375
2355.32411	7408.9375
2358.15376	7389.6375
2360.98161	7389.0375
2363.80768	7405.8375
2366.63195	7397.1375
2369.45444	7368.7375
2372.27514	7346.6375
2375.09405	7360.8375
2377.91118	7343.7375
2380.72652	7330.0375
2383.54009	7319.5375
2386.35187	7301.5375
2389.16188	7291.1375
2391.97011	7248.5375
2394.77657	7253.3375
2397.58125	7239.8375
2400.38416	7244.2375
2403.18529	7214.5375
2405.98466	7225.3375
2408.78226	7205.6375
2411.57809	7175.3375
2414.37216	7188.7375
2417.16446	7187.7375
2419.955	7146.7375
2422.74378	7174.6375
2425.5308	7157.0375
2428.31606	7162.9375
2431.09956	7148.5375
2433.88131	7142.0375
2436.6613	7145.2375
2439.43954	7152.4375
2442.21603	7134.2375
2444.99077	7142.4375
2447.76377	7145.4375
2450.53501	7126.8375
2453.30451	7107.7375
2456.07226	7110.5375
2458.83827	7108.6375
2461.60254	7101.7375
2464.36507	7093.6375
2467.12586	7099.4375
2469.88492	7080.7375
2472.64224	7091.9375
2475.39782	7098.6375
2478.15167	7089.6375
2480.90379	7088.1375
2483.65417	7108.8375
2486.40283	7083.7375
2489.14976	7125.2375
2491.89497	7121.6375
2494.63845	7106.8375
2497.3802	7096.5375
2500.12024	7086.4375
2502.85855	7106.8375
2505.59514	7095.3375
2508.33002	7084.8375
2511.06318	7073.9375
2513.79462	7091.3375
2516.52435	7086.5375
2519.25237	7042.8375
2521.97867	7044.3375
2524.70327	7049.4375
2527.42616	7040.6375
2530.14734	7025.6375
2532.86681	7015.8375
2535.58458	7021.0375
2538.30065	7014.7375
2541.01501	7037.1375
2543.72768	7018.8375
2546.43864	6987.3375
2549.14791	6979.5375
2551.85548	6971.4375
2554.56136	6990.4375
2557.26554	6963.0375
2559.96803	6966.9375
2562.66883	6973.4375
2565.36794	6954.8375
2568.06536	6931.3375
2570.7611	6931.5375
2573.45514	6921.4375
2576.14751	6928.0375
2578.83819	6930.7375
2581.52719	6912.5375
2584.21451	6897.9375
2586.90015	6889.1375
2589.58411	6887.1375
2592.2664	6888.2375
2594.94701	6874.7375
2597.62594	6866.8375
2600.30321	6885.2375
2602.9788	6862.3375
2605.65273	6868.7375
2608.32498	6848.5375
2610.99557	6856.4375
2613.66449	6850.2375
2616.33175	6842.2375
2618.99734	6842.0375
2621.66128	6841.9375
2624.32355	6834.0375
2626.98416	6834.8375
2629.64311	6842.8375
2632.30041	6846.3375
2634.95605	6822.4375
2637.61004	6826.1375
2640.26238	6822.0375
2642.91306	6811.1375
2645.56209	6802.4375
2648.20948	6810.7375
2650.85521	6814.6375
2653.4993	6788.2375
2656.14175	6811.3375
2658.78255	6809.4375
2661.42171	6801.5375
2664.05923	6820.0375
2666.6951	6799.2375
2669.32934	6808.9375
2671.96194	6814.4375
2674.59291	6828.9375
2677.22224	6802.1375
2679.84993	6814.4375
2682.476	6776.2375
2685.10043	6786.3375
2687.72324	6779.8375
2690.34441	6798.6375
2692.96396	6792.5375
2695.58188	6768.4375
2698.19818	6779.7375
2700.81285	6787.9375
2703.4259	6763.7375
2706.03733	6777.9375
2708.64714	6763.5375
2711.25533	6798.1375
2713.86191	6784.3375
2716.46687	6800.3375
2719.07021	6796.6375
2721.67194	6825.0375
2724.27206	6806.1375
2726.87057	6808.0375
2729.46747	6817.9375
2732.06276	6827.5375
2734.65644	6821.0375
2737.24852	6815.9375
2739.83899	6793.2375
2742.42786	6804.7375
2745.01513	6798.2375
2747.60079	6776.9375
2750.18486	6807.8375
2752.76733	6777.0375
2755.3482	6770.5375
2757.92747	6772.0375
2760.50515	6756.8375
2763.08123	6776.0375
2765.65573	6751.9375
2768.22863	6756.6375
2770.79994	6743.2375
2773.36967	6756.0375
2775.9378	6752.5375
2778.50435	6747.8375
2781.06932	6742.0375
2783.6327	6764.9375
2786.1945	6730.2375
2788.75471	6724.3375
2791.31335	6715.1375
2793.87041	6694.5375
2796.42589	6702.9375
2798.97979	6679.0375
2801.53212	6672.3375
2804.08288	6673.3375
2806.63206	6634.3375
2809.17967	6629.8375
2811.72571	6629.1375
2814.27018	6612.9375
2816.81308	6613.2375
2819.35442	6615.0375
2821.89419	6593.6375
2824.43239	6594.3375
2826.96904	6578.6375
2829.50412	6593.7375
2832.03763	6563.2375
2834.56959	6557.3375
2837.1	6550.2375
2839.62884	6565.6375
2842.15613	6571.7375
2844.68186	6570.3375
2847.20604	6573.7375
2849.72867	6564.2375
2852.24974	6566.6375
2854.76927	6566.9375
2857.28724	6559.5375
2859.80367	6525.6375
2862.31855	6546.8375
2864.83189	6541.2375
2867.34368	6518.5375
2869.85393	6523.0375
2872.36264	6513.2375
2874.8698	6515.1375
2877.37543	6512.2375
2879.87952	6504.5375
2882.38207	6506.9375
2884.88308	6495.0375
2887.38256	6512.6375
2889.88051	6515.3375
2892.37692	6507.9375
2894.8718	6517.4375
2897.36515	6532.2375
2899.85698	6520.3375
2902.34727	6531.3375
2904.83604	6530.1375
2907.32328	6530.8375
2909.809	6552.0375
2912.29319	6547.9375
2914.77587	6565.8375
2917.25702	6551.4375
2919.73665	6551.3375
2922.21476	6557.7375
2924.69136	6548.5375
2927.16644	6551.2375
2929.64	6534.1375
2932.11205	6536.6375
2934.58258	6522.8375
2937.05161	6527.7375
2939.51912	6521.4375
2941.98513	6520.1375
2944.44962	6480.9375
2946.91261	6465.5375
2949.37409	6498.8375
2951.83407	6469.1375
2954.29254	6474.9375
2956.74951	6453.8375
2959.20498	6454.8375
2961.65895	6441.9375
2964.11142	6464.3375
2966.56239	6428.4375
2969.01186	6443.9375
2971.45984	6415.9375
2973.90632	6404.0375
2976.35131	6410.8375
2978.7948	6407.7375
2981.23681	6377.9375
2983.67732	6367.8375
2986.11635	6350.0375
2988.55388	6347.0375
2990.98993	6326.8375
2993.4245	6333.7375
2995.85758	6315.3375
2998.28917	6306.1375
3000.71928	6271.1375
3003.14791	6271.2375
3005.57506	6274.1375
3008.00073	6257.0375
3010.42493	6259.4375
3012.84764	6249.7375
3015.26888	6234.7375
3017.68865	6233.6375
3020.10694	6237.0375
3022.52376	6219.3375
3024.9391	6205.7375
3027.35298	6215.4375
3029.76539	6205.3375
3032.17632	6202.0375
3034.5858	6181.5375
3036.9938	6191.5375
3039.40034	6183.0375
3041.80542	6164.3375
3044.20903	6173.4375
3046.61118	6182.3375
3049.01187	6154.6375
3051.4111	6158.7375
3053.80888	6144.4375
3056.20519	6143.9375
3058.60005	6122.4375
3060.99345	6086.7375
3063.3854	6091.5375
3065.7759	6084.4375
3068.16494	6087.3375
3070.55254	6067.5375
3072.93868	6063.8375
3075.32338	6062.9375
3077.70662	6040.3375
3080.08842	6037.6375
