Data from AgNPs_FTO_APTES_UA_1uM_CRN_10uM_R6G_50uM_NaF_0.1M_Addition_RamanShift__26__16-11-19-752.txt Node

Date: Thu Jan 27 16:11:19 GMT 2022
User: TCL
Spectrometer: QEP01345
Trigger mode: 4
Integration Time (sec): 7.000000E0
Scans to average: 10
Electric dark correction enabled: true
Nonlinearity correction enabled: false
Boxcar width: 0
XAxis mode: Raman Shifts
Number of Pixels in Spectrum: 1044
>>>>>Begin Spectral Data<<<<<
46.04893	1.6
50.45542	-0.3
54.85868	-1.5
59.25871	-0.8
63.6555	43.2
68.04907	45.5
72.43941	50.9
76.82654	54.7
81.21044	53.7
85.59113	54.2
89.96862	56.5
94.34289	60.6
98.71396	61.8
103.08183	60.1
107.4465	64.1
111.80798	69.3
116.16626	65.6
120.52136	75.3
124.87327	70.5
129.222	72.1
133.56755	72.5
137.90993	78.1
142.24913	86.8
146.58517	97
150.91804	110.3
155.24774	127.1
159.57429	155
163.89768	193.6
168.21792	251.9
172.53501	340
176.84895	464.6
181.15975	651
185.46741	906.4
189.77193	1243.6
194.07331	1672.4
198.37157	2151.8
202.6667	2651.5
206.9587	3172
211.24758	3659.1
215.53334	4161.8
219.81599	4701.5
224.09553	5318.3
228.37195	5998.5
232.64527	6741
236.91549	7511
241.18261	8233.9
245.44663	8912.1
249.70755	9493
253.96539	10015.5
258.22014	10450.4
262.4718	10857.2
266.72039	11170.2
270.96589	11345.2
275.20832	11430.5
279.44768	11383.9
283.68397	11304.6
287.91719	11279.7
292.14735	11292.4
296.37445	11382
300.59849	11539.1
304.81948	11690.5
309.03742	11794.5
313.25231	11654.5
317.46415	11240.3
321.67296	10680.4
325.87872	10202
330.08145	9994.8
334.28114	9965.3
338.47781	10107.8
342.67145	10281.5
346.86207	10577.2
351.04966	10953.1
355.23424	11395.3
359.4158	11728.1
363.59435	11919.8
367.76989	12011.4
371.94243	12065.7
376.11196	12058.4
380.27849	12107.4
384.44203	12080.2
388.60257	12028.1
392.76012	12059.7
396.91468	12192.9
401.06626	12443.5
405.21485	12617
409.36047	12535.2
413.50311	12145.1
417.64277	11823.6
421.77947	11671.5
425.9132	11616.9
430.04396	11657.3
434.17176	11728
438.2966	11896.6
442.41849	12108.1
446.53742	12429
450.6534	12761.4
454.76644	13010.1
458.87653	13108.5
462.98368	13067.7
467.08789	12947.9
471.18916	12810.7
475.2875	12575.5
479.38291	12473.6
483.4754	12334.6
487.56496	12201.6
491.6516	11983.1
495.73531	11872.2
499.81612	11844.5
503.89401	11900
507.96899	11955.4
512.04106	11990.2
516.11023	12027.3
520.1765	12081.1
524.23987	12009.9
528.30034	11826
532.35792	11690.3
536.41261	11540.3
540.46441	11390.5
544.51333	11374.9
548.55936	11470.8
552.60252	11740.8
556.64279	12004.1
560.6802	12150.1
564.71473	12267.9
568.7464	12551.1
572.7752	12772.3
576.80114	12732.2
580.82422	12611.8
584.84444	12601.1
588.86181	12590.6
592.87633	12692.8
596.888	12803.2
600.89682	13038.2
604.9028	13783.6
608.90594	15850.3
612.90624	18473.2
616.90371	17844.5
620.89834	14083
624.89015	12252.5
628.87913	11987.8
632.86528	12007.7
636.84862	12023.7
640.82913	11872.1
644.80683	11505.4
648.78172	11255.9
652.75379	11223.2
656.72306	11465.1
660.68952	11799.1
664.65319	11768.7
668.61405	11491.1
672.57211	11289.1
676.52738	11305.9
680.47986	11324
684.42955	11297.7
688.37646	11262.5
692.32058	11298.6
696.26192	11385.9
700.20048	11490.2
704.13626	11578
708.06928	11542.1
711.99952	11452
715.927	11405.5
719.85171	11423.6
723.77365	11428.8
727.69284	11351.2
731.60928	11247.7
735.52295	11238.4
739.43388	11270
743.34206	11341.7
747.24749	11367.6
751.15017	11442.5
755.05012	11683.1
758.94733	12035.2
762.8418	12814.8
766.73354	14100.2
770.62254	15480.9
774.50882	16007.5
778.39237	15362
782.27321	13885.2
786.15132	12562.8
790.02671	11799.8
793.89938	11459.3
797.76935	11297.7
801.6366	11270.4
805.50115	11221.6
809.36299	11176.1
813.22213	11122.2
817.07857	11137.8
820.93231	11127.2
824.78336	11158.3
828.63172	11154
832.47738	11165.3
836.32036	11187
840.16066	11161.7
843.99827	11164.3
847.8332	11147.5
851.66546	11115.9
855.49504	11096.8
859.32195	11062.2
863.1462	11040
866.96777	10975.3
870.78668	10971.5
874.60293	10998.6
878.41652	10983.6
882.22745	11023
886.03573	11083.7
889.84136	11058.7
893.64433	11027.6
897.44466	10973
901.24235	10965.8
905.0374	10957.7
908.8298	10909.7
912.61957	10937.3
916.40671	11017.8
920.19121	11127
923.97308	11225.5
927.75233	11275.8
931.52895	11290.6
935.30295	11220.3
939.07433	10995.6
942.84309	10829.6
946.60924	10718.2
950.37278	10652.3
954.13371	10614.1
957.89203	10556.4
961.64774	10532.6
965.40086	10500.1
969.15137	10465.6
972.89929	10426.7
976.64461	10392.7
980.38733	10392.5
984.12747	10418.4
987.86502	10508
991.59999	10627.6
995.33237	10758.9
999.06217	11013.5
1002.78939	11348.2
1006.51404	11580
1010.23611	11719.5
1013.95561	11850.9
1017.67255	11863.2
1021.38692	11772.8
1025.09872	11631.2
1028.80796	11678.4
1032.51465	11917.3
1036.21877	12153.3
1039.92035	12142.8
1043.61937	12065.3
1047.31584	11829.2
1051.00976	11580.3
1054.70114	11478.2
1058.38998	11460.9
1062.07627	11529.1
1065.76003	11602.6
1069.44126	11657.8
1073.11995	11724.9
1076.79611	11795.3
1080.46974	11869.8
1084.14085	11993.3
1087.80943	12152.4
1091.47549	12242
1095.13903	12147.4
1098.80005	11935.9
1102.45857	11714.6
1106.11456	11573.1
1109.76805	11550.7
1113.41903	11681.4
1117.06751	11837.7
1120.71348	12114.6
1124.35696	12353.1
1127.99793	12582.6
1131.63641	12643.5
1135.2724	12360.9
1138.90589	12061.9
1142.5369	11894.3
1146.16542	11788.4
1149.79145	11759.9
1153.415	11813.2
1157.03607	11938.8
1160.65467	12154.8
1164.27079	12475.7
1167.88443	13029.2
1171.49561	13824.6
1175.10432	14963.1
1178.71056	16461
1182.31434	17738.6
1185.91565	18290.9
1189.51451	18183.8
1193.11091	17495.3
1196.70485	16583.7
1200.29634	15783.2
1203.88538	15162.1
1207.47197	14558.9
1211.05612	14062.4
1214.63782	13767.7
1218.21708	13625.9
1221.79391	13606.9
1225.36829	13630.4
1228.94024	13610.3
1232.50976	13520.1
1236.07685	13466.1
1239.6415	13412.7
1243.20374	13417
1246.76355	13465
1250.32093	13637.4
1253.8759	13914.7
1257.42845	14283.4
1260.97859	14593.6
1264.52631	14887.1
1268.07163	15195
1271.61453	15524.2
1275.15503	15859.9
1278.69312	16217.4
1282.22882	16484.5
1285.76211	16757.3
1289.29301	17118.9
1292.82151	17605.8
1296.34761	18203.8
1299.87133	19000.4
1303.39266	20112
1306.9116	21603.8
1310.42815	23356.1
1313.94233	24535.3
1317.45412	24591.8
1320.96354	23810.7
1324.47058	22835.6
1327.97525	21950.1
1331.47754	21400.9
1334.97747	21226.7
1338.47502	21314.7
1341.97022	21560.9
1345.46305	21706.7
1348.95352	21764.4
1352.44163	21925.8
1355.92738	22549.8
1359.41078	24118.7
1362.89183	25945.1
1366.37053	25637.6
1369.84688	22896.2
1373.32088	20010.4
1376.79254	18088.9
1380.26186	17246.8
1383.72883	16917.5
1387.19347	16765.1
1390.65578	16568.5
1394.11575	16499.6
1397.57339	16606.5
1401.0287	16872.8
1404.48168	17260.8
1407.93234	17481
1411.38068	17564.5
1414.82669	17328.5
1418.27039	16831.3
1421.71177	16231.7
1425.15083	15729.7
1428.58758	15374.6
1432.02203	15294.7
1435.45416	15383.2
1438.88399	15556.9
1442.31151	15739.3
1445.73673	15955
1449.15965	16129.5
1452.58027	16251.9
1455.9986	16304
1459.41463	16380
1462.82837	16528.5
1466.23982	16799.5
1469.64898	17050.4
1473.05586	17187.1
1476.46045	17212.8
1479.86276	17262.3
1483.26279	17316.4
1486.66054	17412.2
1490.05602	17609.3
1493.44922	17906.2
1496.84016	18309.2
1500.22882	18891.1
1503.61521	19857.9
1506.99934	21127.7
1510.38121	22447.7
1513.76081	23310.1
1517.13816	22862.8
1520.51324	21354.9
1523.88607	19709.5
1527.25665	18443.5
1530.62498	17758
1533.99105	17362.7
1537.35488	17129.5
1540.71647	16923.5
1544.07581	16812.9
1547.4329	16635.4
1550.78776	16493.4
1554.14038	16411.5
1557.49077	16469.2
1560.83892	16607.6
1564.18484	16733.7
1567.52853	16822.7
1570.86999	16935.9
1574.20922	17043.6
1577.54624	17092.3
1580.88103	16837.5
1584.2136	16504.1
1587.54395	16529.3
1590.87208	17064.5
1594.19801	17930.5
1597.52172	18982.5
1600.84321	19460.7
1604.16251	18887.1
1607.47959	17704.6
1610.79447	16440.2
1614.10715	15204.7
1617.41763	14212.1
1620.7259	13516.7
1624.03199	13154.4
1627.33587	13125.4
1630.63757	13434.8
1633.93707	14006
1637.23439	14932.9
1640.52951	16164.5
1643.82246	17558.1
1647.11321	18831.9
1650.40179	19548.9
1653.68819	18951.3
1656.97241	16993.4
1660.25446	14795.9
1663.53433	13150.9
1666.81203	12105
1670.08756	11464.8
1673.36092	11082.7
1676.63211	10831.1
1679.90115	10660.4
1683.16801	10537
1686.43272	10434.6
1689.69527	10331
1692.95567	10247.4
1696.2139	10184.5
1699.46999	10137.7
1702.72392	10107.6
1705.97571	10114.3
1709.22535	10136.5
1712.47284	10150
1715.71819	10183.5
1718.96139	10162.1
1722.20246	10138
1725.44139	10148.2
1728.67818	10098.7
1731.91284	10031.9
1735.14537	9981
1738.37576	9943
1741.60403	9900.5
1744.83017	9883
1748.05418	9855.5
1751.27607	9846.8
1754.49584	9802.9
1757.71349	9771.7
1760.92903	9749.4
1764.14244	9740.5
1767.35375	9747.9
1770.56294	9733.2
1773.77002	9743.3
1776.97499	9732
1780.17785	9745.2
1783.37861	9741.1
1786.57727	9718.8
1789.77382	9724.7
1792.96828	9708.1
1796.16064	9709
1799.3509	9696
1802.53907	9683.7
1805.72514	9667.2
1808.90913	9642.5
1812.09102	9616.8
1815.27083	9602.9
1818.44856	9592.4
1821.6242	9577.4
1824.79776	9537.1
1827.96924	9543.6
1831.13864	9548.1
1834.30597	9554.5
1837.47122	9534.2
1840.6344	9545.4
1843.7955	9523.5
1846.95454	9536.5
1850.11151	9538.7
1853.26642	9553.3
1856.41926	9566.1
1859.57004	9557.2
1862.71876	9556.1
1865.86542	9565.5
1869.01003	9566.2
1872.15258	9553.7
1875.29308	9566
1878.43152	9545.6
1881.56792	9555
1884.70227	9532.4
1887.83457	9534.5
1890.96482	9540.4
1894.09304	9535.3
1897.21921	9543.2
1900.34335	9521.4
1903.46544	9538.6
1906.58551	9531.8
1909.70353	9540.7
1912.81953	9520.1
1915.93349	9518.6
1919.04543	9515.2
1922.15534	9517.3
1925.26322	9502.2
1928.36908	9468.8
1931.47292	9444.9
1934.57473	9410.2
1937.67453	9386.1
1940.77232	9344.1
1943.86808	9303.9
1946.96184	9279.8
1950.05358	9256.8
1953.14331	9228.2
1956.23103	9186.2
1959.31675	9153.5
1962.40046	9143.9
1965.48217	9121.5
1968.56188	9088.4
1971.63959	9064.9
1974.7153	9057
1977.78901	9041.1
1980.86073	8991.2
1983.93046	8972.7
1986.99819	8947.9
1990.06394	8883.3
1993.1277	8881.4
1996.18947	8860.2
1999.24925	8841.9
2002.30706	8810.6
2005.36288	8773.7
2008.41672	8774
2011.46859	8718.3
2014.51848	8719
2017.56639	8709.3
2020.61233	8699.6
2023.6563	8678.5
2026.6983	8664.5
2029.73833	8632.1
2032.7764	8618.1
2035.8125	8597.9
2038.84664	8582.1
2041.87881	8576.8
2044.90903	8559.3
2047.93729	8563.7
2050.96359	8538
2053.98794	8508
2057.01034	8536.4
2060.03078	8503.8
2063.04927	8520.5
2066.06582	8491.9
2069.08042	8497.5
2072.09307	8471.6
2075.10378	8469.1
2078.11255	8470.3
2081.11938	8472
2084.12426	8462.4
2087.12722	8488.3
2090.12824	8473
2093.12732	8477.1
2096.12447	8447.9
2099.11969	8438.7
2102.11299	8446.2
2105.10435	8452
2108.09379	8461.2
2111.08131	8476.2
2114.0669	8474
2117.05057	8494.1
2120.03233	8492.3
2123.01216	8497.1
2125.99008	8517.5
2128.96609	8517.4
2131.94018	8514
2134.91236	8516.8
2137.88263	8517.5
2140.851	8534.3
2143.81746	8544.8
2146.78201	8543.8
2149.74466	8541.1
2152.7054	8528.6
2155.66425	8551.7
2158.6212	8524.8
2161.57625	8537.6
2164.52941	8527.2
2167.48067	8532.1
2170.43004	8513.2
2173.37752	8520.8
2176.32311	8533.4
2179.26681	8530.3
2182.20863	8518.7
2185.14856	8537.9
2188.08661	8536.3
2191.02278	8538.5
2193.95707	8526.3
2196.88948	8546.5
2199.82001	8554.1
2202.74867	8523.5
2205.67545	8537.8
2208.60037	8525.3
2211.52341	8490.1
2214.44458	8482.9
2217.36388	8476.1
2220.28132	8462.9
2223.1969	8454.3
2226.11061	8458.1
2229.02246	8438.6
2231.93245	8427.4
2234.84058	8412.9
2237.74686	8397.5
2240.65128	8387.5
2243.55385	8366.1
2246.45456	8358
2249.35343	8334.3
2252.25044	8331.7
2255.14561	8318.3
2258.03893	8323.2
2260.93041	8307.8
2263.82004	8283.1
2266.70783	8287.2
2269.59378	8246
2272.4779	8225.9
2275.36017	8217.9
2278.24061	8199.3
2281.11922	8197.4
2283.996	8192.6
2286.87094	8189.5
2289.74405	8158.7
2292.61534	8141.7
2295.4848	8139.2
2298.35243	8166.7
2301.21824	8122.2
2304.08223	8138.9
2306.94439	8144
2309.80474	8166
2312.66327	8142.4
2315.51999	8152.8
2318.37489	8159.1
2321.22797	8130.5
2324.07925	8138.8
2326.92871	8122.5
2329.77637	8121.3
2332.62222	8098.6
2335.46626	8108.1
2338.3085	8105
2341.14893	8099.5
2343.98756	8112
2346.8244	8101.2
2349.65943	8101.3
2352.49267	8110
2355.32411	8109.5
2358.15376	8085.6
2360.98161	8099.2
2363.80768	8108.7
2366.63195	8089.6
2369.45444	8064.6
2372.27514	8074.8
2375.09405	8057.5
2377.91118	8058.7
2380.72652	8022.5
2383.54009	7981.2
2386.35187	7965.1
2389.16188	7951.5
2391.97011	7948.4
2394.77657	7919.1
2397.58125	7916.2
2400.38416	7884.9
2403.18529	7887.2
2405.98466	7879.2
2408.78226	7869.9
2411.57809	7845.2
2414.37216	7850
2417.16446	7839.4
2419.955	7803.7
2422.74378	7823.7
2425.5308	7824.5
2428.31606	7804.2
2431.09956	7816.2
2433.88131	7795.1
2436.6613	7794.7
2439.43954	7787.8
2442.21603	7806.3
2444.99077	7786.7
2447.76377	7790.2
2450.53501	7798.8
2453.30451	7787.9
2456.07226	7777.3
2458.83827	7795.3
2461.60254	7774.6
2464.36507	7744
2467.12586	7757.5
2469.88492	7750.8
2472.64224	7764.7
2475.39782	7763.2
2478.15167	7757.8
2480.90379	7763.7
2483.65417	7771.4
2486.40283	7780.3
2489.14976	7778
2491.89497	7777.7
2494.63845	7790.3
2497.3802	7792.1
2500.12024	7766
2502.85855	7789.8
2505.59514	7774.2
2508.33002	7767.7
2511.06318	7744.3
2513.79462	7753.9
2516.52435	7734.2
2519.25237	7711.8
2521.97867	7716
2524.70327	7705.4
2527.42616	7713.7
2530.14734	7710.7
2532.86681	7689.9
2535.58458	7686.3
2538.30065	7669.2
2541.01501	7679.2
2543.72768	7668.8
2546.43864	7649.7
2549.14791	7663.5
2551.85548	7653.3
2554.56136	7645.9
2557.26554	7596.6
2559.96803	7632
2562.66883	7610.7
2565.36794	7602.4
2568.06536	7598.2
2570.7611	7589.1
2573.45514	7574.9
2576.14751	7578
2578.83819	7550.4
2581.52719	7569.8
2584.21451	7543.5
2586.90015	7562.8
2589.58411	7521.8
2592.2664	7553.9
2594.94701	7536.7
2597.62594	7538.9
2600.30321	7525.3
2602.9788	7525.6
2605.65273	7511.7
2608.32498	7529.5
2610.99557	7530.7
2613.66449	7514.3
2616.33175	7497.6
2618.99734	7544.6
2621.66128	7519.1
2624.32355	7529
2626.98416	7510.5
2629.64311	7537.5
2632.30041	7510
2634.95605	7494
2637.61004	7503.6
2640.26238	7478
2642.91306	7493.5
2645.56209	7472.4
2648.20948	7462.8
2650.85521	7447.4
2653.4993	7440.8
2656.14175	7460.1
2658.78255	7467.5
2661.42171	7460.2
2664.05923	7473
2666.6951	7477.9
2669.32934	7491.6
2671.96194	7496.4
2674.59291	7484.9
2677.22224	7487.6
2679.84993	7490
2682.476	7486.9
2685.10043	7486.8
2687.72324	7477.1
2690.34441	7493.6
2692.96396	7481.8
2695.58188	7475.2
2698.19818	7466.3
2700.81285	7473.5
2703.4259	7476
2706.03733	7461.2
2708.64714	7442.7
2711.25533	7478.4
2713.86191	7463.1
2716.46687	7483.1
2719.07021	7467
2721.67194	7492.3
2724.27206	7501
2726.87057	7490.1
2729.46747	7507.5
2732.06276	7497
2734.65644	7497.7
2737.24852	7492.4
2739.83899	7487.4
2742.42786	7495.2
2745.01513	7475.8
2747.60079	7484.1
2750.18486	7480.1
2752.76733	7480.6
2755.3482	7468.2
2757.92747	7459.6
2760.50515	7446.9
2763.08123	7455.4
2765.65573	7457.9
2768.22863	7457.5
2770.79994	7449.1
2773.36967	7438.7
2775.9378	7453.4
2778.50435	7416.4
2781.06932	7444.6
2783.6327	7442.9
2786.1945	7415.1
2788.75471	7419
2791.31335	7408.3
2793.87041	7399.6
2796.42589	7370.2
2798.97979	7369.7
2801.53212	7370.1
2804.08288	7349.3
2806.63206	7330.2
2809.17967	7325.1
2811.72571	7317.9
2814.27018	7305.2
2816.81308	7290.3
2819.35442	7298.9
2821.89419	7305.8
2824.43239	7297.9
2826.96904	7298.2
2829.50412	7284
2832.03763	7295.2
2834.56959	7274.2
2837.1	7266.1
2839.62884	7269.1
2842.15613	7282.6
2844.68186	7283.4
2847.20604	7301.7
2849.72867	7314.8
2852.24974	7322.4
2854.76927	7317.4
2857.28724	7305.6
2859.80367	7287.5
2862.31855	7271.4
2864.83189	7293
2867.34368	7265.5
2869.85393	7266.3
2872.36264	7267.1
2874.8698	7261.2
2877.37543	7258.7
2879.87952	7242.2
2882.38207	7237.9
2884.88308	7236.9
2887.38256	7225
2889.88051	7241.7
2892.37692	7233.9
2894.8718	7241.3
2897.36515	7242.8
2899.85698	7237
2902.34727	7282.3
2904.83604	7265.5
2907.32328	7267.9
2909.809	7289.7
2912.29319	7288.3
2914.77587	7280.7
2917.25702	7272.4
2919.73665	7272.2
2922.21476	7254.5
2924.69136	7255
2927.16644	7270.9
2929.64	7264.3
2932.11205	7257.2
2934.58258	7234.1
2937.05161	7239
2939.51912	7227.2
2941.98513	7225
2944.44962	7195.1
2946.91261	7169
2949.37409	7200.7
2951.83407	7187.4
2954.29254	7166.5
2956.74951	7161.7
2959.20498	7177.7
2961.65895	7157.6
2964.11142	7155.5
2966.56239	7140.6
2969.01186	7139.9
2971.45984	7116.6
2973.90632	7100.8
2976.35131	7088.6
2978.7948	7085
2981.23681	7076.9
2983.67732	7050.8
2986.11635	7049.6
2988.55388	7045.9
2990.98993	7020.4
2993.4245	7015.3
2995.85758	6993.1
2998.28917	6992.8
3000.71928	6980.2
3003.14791	6959.9
3005.57506	6965.8
3008.00073	6935.3
3010.42493	6914.9
3012.84764	6931.2
3015.26888	6925.5
3017.68865	6906.7
3020.10694	6904.3
3022.52376	6879.8
3024.9391	6884.7
3027.35298	6859.1
3029.76539	6857.8
3032.17632	6852.7
3034.5858	6848.6
3036.9938	6845.2
3039.40034	6850.2
3041.80542	6828.6
3044.20903	6834
3046.61118	6822.8
3049.01187	6811.2
3051.4111	6801.8
3053.80888	6806.7
3056.20519	6785.1
3058.60005	6785.3
3060.99345	6737.8
3063.3854	6728.4
3065.7759	6728
3068.16494	6697
3070.55254	6701
3072.93868	6703
3075.32338	6653.9
3077.70662	6668.4
3080.08842	6645.2
3082.46878	6640.4
3084.84769	6617.8
3087.22515	6633.1
3089.60118	6611.3
3091.97576	6611.6
3094.3489	6622.7
3096.72061	6625.4
3099.09087	6642.3
3101.4597	6618
3103.82709	6629.8
3106.19305	6616.1
3108.55757	6612.2
3110.92066	6613.2
3113.28232	6605.8
3115.64255	6575.8
3118.00134	6568.1
3120.35871	6568.2
3122.71466	6558.4
3125.06917	6548.4
3127.42226	6537.6
3129.77393	6543.5
3132.12417	6519.9
3134.47299	6531.6
3136.82039	6536.7
3139.16636	6533.2
3141.51092	6557.1
3143.85406	6535
3146.19579	6561.6
3148.53609	6548.5
3150.87499	6566.2
3153.21246	6566.1
3155.54853	6580
3157.88318	6572.9
3160.21642	6572.2
3162.54826	6575.5
3164.87868	6561.2
3167.2077	6572.4
3169.5353	6591.8
3171.86151	6577.6
3174.18631	6570.2
3176.5097	6568.9
3178.83169	6579.4
3181.15228	6580.4
3183.47147	6541.8
3185.78926	6576.6
3188.10565	6552
3190.42065	6542.2
3192.73424	6556.5
3195.04645	6542.9
3197.35725	6551.4
3199.66667	6561.7
3201.97469	6551.3
3204.28132	6570.6
3206.58656	6555
3208.8904	6575
3211.19287	6588.8
3213.49394	6594.3
3215.79363	6583.9
3218.09193	6588.4
3220.38884	6582.4
3222.68438	6571.2
3224.97853	6579.7
3227.2713	6578.6
3229.56269	6564.5
3231.8527	6607.8
3234.14133	6568
3236.42858	6552.4
3238.71446	6557.8
3240.99896	6524.1
3243.28209	6543.2
3245.56384	6535.6
3247.84423	6526
3250.12324	6528
3252.40088	6497.3
3254.67715	6516.4
3256.95205	6508
3259.22558	6516
3261.49775	6508.5
3263.76855	6499.3
3266.03799	6470.1
3268.30606	6476.9
3270.57277	6486.1
3272.83812	6445.9
3275.10211	6442.2
3277.36474	6425.7
3279.62601	6438.4
3281.88593	6422.1
3284.14448	6425.7
3286.40168	6425.1
3288.65753	6432.9
3290.91202	6444.7
3293.16516	6386.8
3295.41695	6406
3297.66738	6345.9
3299.91647	6335.9
3302.16421	6285.2
3304.4106	6263.5
3306.65564	6235.1
3308.89933	6203.4
3311.14169	6147.8
3313.38269	6103.9
3315.62236	6077.1
3317.86068	6017.8
3320.09766	5984.6
3322.3333	5937.8
3324.5676	5938.2
3326.80056	5821.4
3329.03219	5792.3
3331.26248	2.8
3333.49143	0
3335.71905	-0.7
