Data from AgNPs_FTO_APTES_UA_1uM_CRN_0uM_R6G_10uM_NaF_0.1M_Addition_RamanShift__42__11-54-39-458.txt Node

Date: Thu Jan 27 11:54:39 GMT 2022
User: TCL
Spectrometer: QEP01345
Trigger mode: 4
Integration Time (sec): 7.000000E0
Scans to average: 10
Electric dark correction enabled: true
Nonlinearity correction enabled: false
Boxcar width: 0
XAxis mode: Raman Shifts
Number of Pixels in Spectrum: 1044
>>>>>Begin Spectral Data<<<<<
46.04893	0.675
50.45542	-0.125
54.85868	-1.425
59.25871	-0.925
63.6555	54.975
68.04907	57.275
72.43941	61.175
76.82654	65.075
81.21044	62.575
85.59113	66.875
89.96862	69.875
94.34289	71.275
98.71396	75.575
103.08183	74.575
107.4465	78.075
111.80798	82.975
116.16626	81.875
120.52136	88.275
124.87327	90.975
129.222	92.075
133.56755	99.375
137.90993	104.375
142.24913	111.575
146.58517	125.775
150.91804	143.875
155.24774	169.175
159.57429	205.075
163.89768	266.675
168.21792	348.875
172.53501	470.675
176.84895	656.075
181.15975	913.075
185.46741	1276.675
189.77193	1754.375
194.07331	2355.175
198.37157	3030.075
202.6667	3765.075
206.9587	4483.575
211.24758	5174.875
215.53334	5885.075
219.81599	6641.475
224.09553	7518.975
228.37195	8439.275
232.64527	9489.975
236.91549	10592.775
241.18261	11635.875
245.44663	12610.375
249.70755	13457.075
253.96539	14183.575
258.22014	14822.075
262.4718	15368.175
266.72039	15745.675
270.96589	15982.975
275.20832	15991.575
279.44768	15862.775
283.68397	15704.075
287.91719	15577.675
292.14735	15482.475
296.37445	15535.875
300.59849	15690.775
304.81948	15902.275
309.03742	16017.875
313.25231	15918.175
317.46415	15480.475
321.67296	14901.075
325.87872	14409.575
330.08145	14177.275
334.28114	14168.875
338.47781	14302.575
342.67145	14568.675
346.86207	14885.875
351.04966	15343.575
355.23424	15881.275
359.4158	16337.275
363.59435	16656.675
367.76989	16821.375
371.94243	16899.775
376.11196	16972.875
380.27849	17022.675
384.44203	17076.075
388.60257	17077.375
392.76012	17144.175
396.91468	17386.375
401.06626	17687.375
405.21485	17973.075
409.36047	17903.075
413.50311	17547.775
417.64277	17213.075
421.77947	17105.275
425.9132	17093.275
430.04396	17175.075
434.17176	17274.275
438.2966	17463.575
442.41849	17770.075
446.53742	18299.975
450.6534	18859.475
454.76644	19335.775
458.87653	19451.075
462.98368	19331.875
467.08789	18994.875
471.18916	18581.475
475.2875	18172.575
479.38291	17936.075
483.4754	17753.375
487.56496	17581.475
491.6516	17378.075
495.73531	17250.075
499.81612	17144.275
503.89401	17314.775
507.96899	17362.075
512.04106	17366.075
516.11023	17334.975
520.1765	17367.275
524.23987	17298.375
528.30034	17135.475
532.35792	16896.975
536.41261	16632.175
540.46441	16366.475
544.51333	16266.975
548.55936	16480.275
552.60252	16773.475
556.64279	17097.275
560.6802	17310.675
564.71473	17426.075
568.7464	17723.175
572.7752	18094.975
576.80114	18271.475
580.82422	18409.575
584.84444	18594.375
588.86181	18819.075
592.87633	19214.775
596.888	19501.375
600.89682	19672.975
604.9028	20527.775
608.90594	23129.275
612.90624	26274.275
616.90371	25275.575
620.89834	20438.075
624.89015	18177.775
628.87913	17874.475
632.86528	17776.475
636.84862	17556.575
640.82913	17207.275
644.80683	16729.875
648.78172	16326.175
652.75379	16240.375
656.72306	16527.075
660.68952	16982.075
664.65319	16977.575
668.61405	16618.375
672.57211	16388.575
676.52738	16379.375
680.47986	16346.075
684.42955	16278.575
688.37646	16255.775
692.32058	16297.975
696.26192	16454.875
700.20048	16655.675
704.13626	16779.075
708.06928	16664.275
711.99952	16517.375
715.927	16451.175
719.85171	16487.975
723.77365	16419.575
727.69284	16268.575
731.60928	16091.275
735.52295	16089.875
739.43388	16151.575
743.34206	16257.375
747.24749	16340.075
751.15017	16482.475
755.05012	16751.675
758.94733	17239.075
762.8418	18209.175
766.73354	19861.875
770.62254	21602.275
774.50882	22348.175
778.39237	21482.275
782.27321	19683.675
786.15132	18058.175
790.02671	17077.375
793.89938	16644.575
797.76935	16494.975
801.6366	16421.075
805.50115	16334.975
809.36299	16222.875
813.22213	16117.975
817.07857	16101.675
820.93231	16002.275
824.78336	16026.875
828.63172	16050.775
832.47738	16112.375
836.32036	16132.675
840.16066	16258.075
843.99827	16358.475
847.8332	16312.175
851.66546	16180.775
855.49504	16106.075
859.32195	16079.075
863.1462	16009.875
866.96777	15900.775
870.78668	15863.875
874.60293	15825.675
878.41652	15862.975
882.22745	15969.175
886.03573	16021.375
889.84136	16020.275
893.64433	15939.675
897.44466	15878.675
901.24235	15804.675
905.0374	15761.775
908.8298	15696.175
912.61957	15730.075
916.40671	15860.675
920.19121	16063.075
923.97308	16375.575
927.75233	16553.275
931.52895	16617.375
935.30295	16476.075
939.07433	16136.375
942.84309	15836.475
946.60924	15716.675
950.37278	15657.275
954.13371	15547.975
957.89203	15411.175
961.64774	15308.075
965.40086	15231.975
969.15137	15178.075
972.89929	15116.075
976.64461	15123.575
980.38733	15126.775
984.12747	15215.475
987.86502	15430.975
991.59999	15723.175
995.33237	16148.575
999.06217	16858.275
1002.78939	17659.275
1006.51404	18086.275
1010.23611	18284.075
1013.95561	18380.775
1017.67255	18380.575
1021.38692	18173.375
1025.09872	18035.275
1028.80796	18377.775
1032.51465	19218.175
1036.21877	19998.675
1039.92035	20097.675
1043.61937	19587.575
1047.31584	18756.475
1051.00976	17911.575
1054.70114	17401.675
1058.38998	17213.475
1062.07627	17187.775
1065.76003	17158.775
1069.44126	17180.975
1073.11995	17331.775
1076.79611	17565.075
1080.46974	17749.575
1084.14085	17913.075
1087.80943	18166.675
1091.47549	18253.375
1095.13903	18106.875
1098.80005	17707.475
1102.45857	17326.375
1106.11456	17107.075
1109.76805	17108.075
1113.41903	17268.675
1117.06751	17444.375
1120.71348	17713.675
1124.35696	18000.775
1127.99793	18277.875
1131.63641	18409.175
1135.2724	18175.675
1138.90589	17861.175
1142.5369	17581.775
1146.16542	17454.375
1149.79145	17347.175
1153.415	17404.775
1157.03607	17547.175
1160.65467	17841.975
1164.27079	18444.875
1167.88443	19354.375
1171.49561	20742.275
1175.10432	22617.275
1178.71056	25035.375
1182.31434	27328.075
1185.91565	28596.775
1189.51451	28605.875
1193.11091	27419.375
1196.70485	25814.575
1200.29634	24239.875
1203.88538	23047.575
1207.47197	22098.475
1211.05612	21326.975
1214.63782	20908.975
1218.21708	20851.475
1221.79391	21076.275
1225.36829	21330.075
1228.94024	21307.475
1232.50976	20984.075
1236.07685	20607.875
1239.6415	20388.575
1243.20374	20195.075
1246.76355	20226.075
1250.32093	20460.275
1253.8759	20985.575
1257.42845	21650.375
1260.97859	22311.875
1264.52631	22933.475
1268.07163	23543.675
1271.61453	24313.775
1275.15503	25176.775
1278.69312	26081.675
1282.22882	26811.475
1285.76211	27357.275
1289.29301	27916.075
1292.82151	28529.775
1296.34761	29407.175
1299.87133	30814.675
1303.39266	32847.175
1306.9116	35494.875
1310.42815	38486.075
1313.94233	40444.075
1317.45412	40504.575
1320.96354	39056.375
1324.47058	37201.875
1327.97525	35450.475
1331.47754	34198.275
1334.97747	33603.375
1338.47502	33454.175
1341.97022	33629.175
1345.46305	33511.275
1348.95352	33310.675
1352.44163	33476.275
1355.92738	34600.475
1359.41078	36984.375
1362.89183	39612.475
1366.37053	39448.675
1369.84688	35803.775
1373.32088	31286.875
1376.79254	28031.975
1380.26186	26486.475
1383.72883	25866.675
1387.19347	25533.775
1390.65578	25096.775
1394.11575	24826.075
1397.57339	25045.175
1401.0287	25586.575
1404.48168	26172.375
1407.93234	26548.575
1411.38068	26708.675
1414.82669	26458.775
1418.27039	25769.075
1421.71177	24885.775
1425.15083	24115.375
1428.58758	23659.375
1432.02203	23586.575
1435.45416	23875.575
1438.88399	24196.075
1442.31151	24485.975
1445.73673	24719.775
1449.15965	24946.875
1452.58027	25015.775
1455.9986	24921.475
1459.41463	24939.875
1462.82837	25224.575
1466.23982	25745.375
1469.64898	26252.975
1473.05586	26628.475
1476.46045	26798.975
1479.86276	26888.775
1483.26279	27001.875
1486.66054	27095.075
1490.05602	27359.275
1493.44922	27804.375
1496.84016	28294.575
1500.22882	28904.275
1503.61521	29843.975
1506.99934	31233.275
1510.38121	32743.075
1513.76081	33547.775
1517.13816	32814.175
1520.51324	30899.075
1523.88607	28882.475
1527.25665	27371.475
1530.62498	26528.675
1533.99105	25953.175
1537.35488	25685.675
1540.71647	25421.175
1544.07581	25186.575
1547.4329	24900.575
1550.78776	24630.675
1554.14038	24458.175
1557.49077	24394.975
1560.83892	24421.275
1564.18484	24465.775
1567.52853	24476.675
1570.86999	24508.875
1574.20922	24680.675
1577.54624	24823.475
1580.88103	24696.575
1584.2136	24494.775
1587.54395	24897.975
1590.87208	26144.875
1594.19801	28032.875
1597.52172	30252.575
1600.84321	31263.275
1604.16251	30238.375
1607.47959	27822.075
1610.79447	25161.675
1614.10715	22745.575
1617.41763	21009.975
1620.7259	19869.975
1624.03199	19326.575
1627.33587	19356.275
1630.63757	19983.675
1633.93707	21158.375
1637.23439	22896.775
1640.52951	25109.875
1643.82246	27587.775
1647.11321	29486.375
1650.40179	29980.875
1653.68819	28352.275
1656.97241	25035.675
1660.25446	21522.175
1663.53433	18944.975
1666.81203	17355.975
1670.08756	16406.575
1673.36092	15830.175
1676.63211	15441.475
1679.90115	15151.175
1683.16801	14956.175
1686.43272	14806.775
1689.69527	14667.875
1692.95567	14604.675
1696.2139	14506.475
1699.46999	14422.675
1702.72392	14402.975
1705.97571	14399.275
1709.22535	14454.675
1712.47284	14450.075
1715.71819	14471.575
1718.96139	14442.675
1722.20246	14419.475
1725.44139	14366.275
1728.67818	14315.675
1731.91284	14215.775
1735.14537	14116.575
1738.37576	14076.175
1741.60403	14033.875
1744.83017	13968.475
1748.05418	13926.675
1751.27607	13897.975
1754.49584	13846.375
1757.71349	13828.775
1760.92903	13820.175
1764.14244	13799.175
1767.35375	13805.875
1770.56294	13805.175
1773.77002	13789.775
1776.97499	13764.975
1780.17785	13754.175
1783.37861	13785.475
1786.57727	13796.875
1789.77382	13777.775
1792.96828	13746.275
1796.16064	13730.575
1799.3509	13727.875
1802.53907	13698.775
1805.72514	13669.575
1808.90913	13655.375
1812.09102	13614.575
1815.27083	13613.775
1818.44856	13577.175
1821.6242	13575.175
1824.79776	13570.875
1827.96924	13510.675
1831.13864	13515.175
1834.30597	13549.175
1837.47122	13560.975
1840.6344	13541.175
1843.7955	13541.975
1846.95454	13556.375
1850.11151	13565.975
1853.26642	13560.475
1856.41926	13577.675
1859.57004	13574.075
1862.71876	13556.475
1865.86542	13584.675
1869.01003	13598.475
1872.15258	13579.075
1875.29308	13605.975
1878.43152	13575.875
1881.56792	13625.775
1884.70227	13610.775
1887.83457	13612.775
1890.96482	13593.175
1894.09304	13587.975
1897.21921	13616.775
1900.34335	13649.375
1903.46544	13624.475
1906.58551	13656.675
1909.70353	13636.975
1912.81953	13627.075
1915.93349	13602.875
1919.04543	13593.175
1922.15534	13555.075
1925.26322	13505.775
1928.36908	13498.375
1931.47292	13446.775
1934.57473	13393.775
1937.67453	13355.875
1940.77232	13313.275
1943.86808	13235.975
1946.96184	13162.275
1950.05358	13139.175
1953.14331	13089.675
1956.23103	13057.975
1959.31675	12993.875
1962.40046	12958.475
1965.48217	12909.775
1968.56188	12890.475
1971.63959	12832.375
1974.7153	12803.175
1977.78901	12791.575
1980.86073	12687.075
1983.93046	12704.675
1986.99819	12634.175
1990.06394	12593.075
1993.1277	12581.175
1996.18947	12528.975
1999.24925	12514.675
2002.30706	12447.475
2005.36288	12420.575
2008.41672	12413.675
2011.46859	12331.875
2014.51848	12302.175
2017.56639	12276.275
2020.61233	12263.375
2023.6563	12246.575
2026.6983	12231.775
2029.73833	12192.375
2032.7764	12168.475
2035.8125	12171.775
2038.84664	12168.575
2041.87881	12153.075
2044.90903	12134.075
2047.93729	12096.875
2050.96359	12105.275
2053.98794	12067.275
2057.01034	12076.075
2060.03078	12047.175
2063.04927	12057.575
2066.06582	12039.275
2069.08042	12051.975
2072.09307	12007.975
2075.10378	11974.875
2078.11255	12014.475
2081.11938	12006.375
2084.12426	11990.975
2087.12722	11990.675
2090.12824	11984.575
2093.12732	11972.075
2096.12447	11967.275
2099.11969	11977.575
2102.11299	11950.975
2105.10435	11973.375
2108.09379	11988.275
2111.08131	11973.275
2114.0669	11966.675
2117.05057	11991.775
2120.03233	12014.375
2123.01216	12026.075
2125.99008	12015.675
2128.96609	12009.775
2131.94018	12037.075
2134.91236	12020.975
2137.88263	12025.775
2140.851	12021.975
2143.81746	12054.975
2146.78201	12092.475
2149.74466	12084.075
2152.7054	12071.875
2155.66425	12082.875
2158.6212	12063.175
2161.57625	12082.075
2164.52941	12065.875
2167.48067	12038.375
2170.43004	12049.375
2173.37752	12042.875
2176.32311	12033.675
2179.26681	12044.675
2182.20863	12093.775
2185.14856	12083.275
2188.08661	12119.475
2191.02278	12077.975
2193.95707	12091.375
2196.88948	12110.175
2199.82001	12088.775
2202.74867	12086.475
2205.67545	12096.575
2208.60037	12084.575
2211.52341	12105.375
2214.44458	12087.675
2217.36388	12051.775
2220.28132	12065.375
2223.1969	12018.575
2226.11061	12004.975
2229.02246	12014.375
2231.93245	11982.875
2234.84058	11940.875
2237.74686	11926.375
2240.65128	11910.375
2243.55385	11909.075
2246.45456	11867.975
2249.35343	11861.575
2252.25044	11823.875
2255.14561	11838.875
2258.03893	11830.775
2260.93041	11808.175
2263.82004	11778.375
2266.70783	11741.075
2269.59378	11723.175
2272.4779	11710.575
2275.36017	11696.575
2278.24061	11658.375
2281.11922	11642.975
2283.996	11609.075
2286.87094	11598.775
2289.74405	11602.975
2292.61534	11587.975
2295.4848	11605.075
2298.35243	11622.175
2301.21824	11597.075
2304.08223	11599.475
2306.94439	11626.075
2309.80474	11649.475
2312.66327	11645.575
2315.51999	11662.775
2318.37489	11667.175
2321.22797	11641.375
2324.07925	11644.975
2326.92871	11663.575
2329.77637	11638.075
2332.62222	11636.975
2335.46626	11633.475
2338.3085	11632.475
2341.14893	11641.475
2343.98756	11669.775
2346.8244	11664.175
2349.65943	11690.975
2352.49267	11670.475
2355.32411	11686.175
2358.15376	11637.975
2360.98161	11644.775
2363.80768	11626.975
2366.63195	11620.975
2369.45444	11592.175
2372.27514	11566.175
2375.09405	11543.475
2377.91118	11499.275
2380.72652	11448.875
2383.54009	11447.775
2386.35187	11394.375
2389.16188	11409.275
2391.97011	11352.875
2394.77657	11356.175
2397.58125	11351.275
2400.38416	11320.375
2403.18529	11310.175
2405.98466	11295.175
2408.78226	11258.275
2411.57809	11244.575
2414.37216	11229.575
2417.16446	11214.175
2419.955	11189.575
2422.74378	11219.775
2425.5308	11156.675
2428.31606	11149.975
2431.09956	11139.175
2433.88131	11123.775
2436.6613	11132.675
2439.43954	11162.075
2442.21603	11132.975
2444.99077	11142.675
2447.76377	11175.775
2450.53501	11134.775
2453.30451	11142.875
2456.07226	11118.675
2458.83827	11110.075
2461.60254	11100.375
2464.36507	11132.575
2467.12586	11120.875
2469.88492	11120.875
2472.64224	11146.775
2475.39782	11147.575
2478.15167	11148.875
2480.90379	11165.175
2483.65417	11140.675
2486.40283	11169.475
2489.14976	11177.175
2491.89497	11190.475
2494.63845	11205.275
2497.3802	11188.075
2500.12024	11217.875
2502.85855	11194.975
2505.59514	11194.975
2508.33002	11171.875
2511.06318	11135.675
2513.79462	11119.175
2516.52435	11117.775
2519.25237	11108.775
2521.97867	11094.675
2524.70327	11090.475
2527.42616	11080.575
2530.14734	11050.375
2532.86681	11088.175
2535.58458	11079.775
2538.30065	11039.275
2541.01501	11094.475
2543.72768	11049.475
2546.43864	11027.575
2549.14791	11048.175
2551.85548	11030.775
2554.56136	10984.175
2557.26554	11008.575
2559.96803	10969.575
2562.66883	10983.275
2565.36794	10973.775
2568.06536	10980.675
2570.7611	10956.775
2573.45514	10973.875
2576.14751	10950.375
2578.83819	10944.075
2581.52719	10967.775
2584.21451	10970.775
2586.90015	10959.675
2589.58411	10955.875
2592.2664	10953.475
2594.94701	10961.475
2597.62594	10979.075
2600.30321	10960.075
2602.9788	10929.875
2605.65273	10938.275
2608.32498	10940.275
2610.99557	10931.375
2613.66449	10933.075
2616.33175	10939.375
2618.99734	10945.075
2621.66128	10941.675
2624.32355	10940.575
2626.98416	10930.175
2629.64311	10946.775
2632.30041	10939.275
2634.95605	10937.175
2637.61004	10915.375
2640.26238	10889.475
2642.91306	10886.675
2645.56209	10858.875
2648.20948	10832.875
2650.85521	10817.275
2653.4993	10852.775
2656.14175	10851.675
2658.78255	10866.475
2661.42171	10874.975
2664.05923	10862.575
2666.6951	10882.775
2669.32934	10902.675
2671.96194	10889.075
2674.59291	10883.275
2677.22224	10875.875
2679.84993	10895.675
2682.476	10873.875
2685.10043	10847.775
2687.72324	10836.375
2690.34441	10827.675
2692.96396	10819.975
2695.58188	10832.675
2698.19818	10830.775
2700.81285	10828.075
2703.4259	10778.375
2706.03733	10769.675
2708.64714	10770.075
2711.25533	10797.775
2713.86191	10808.175
2716.46687	10828.875
2719.07021	10808.875
2721.67194	10844.075
2724.27206	10838.675
2726.87057	10883.275
2729.46747	10848.575
2732.06276	10859.375
2734.65644	10845.275
2737.24852	10869.075
2739.83899	10860.675
2742.42786	10850.775
2745.01513	10842.875
2747.60079	10820.175
2750.18486	10812.075
2752.76733	10797.275
2755.3482	10793.575
2757.92747	10817.575
2760.50515	10817.775
2763.08123	10807.675
2765.65573	10794.975
2768.22863	10787.975
2770.79994	10791.975
2773.36967	10787.275
2775.9378	10812.775
2778.50435	10801.475
2781.06932	10791.375
2783.6327	10774.475
2786.1945	10784.975
2788.75471	10775.475
2791.31335	10793.575
2793.87041	10755.275
2796.42589	10718.175
2798.97979	10716.075
2801.53212	10702.775
2804.08288	10696.275
2806.63206	10684.275
2809.17967	10628.475
2811.72571	10621.075
2814.27018	10631.775
2816.81308	10607.675
2819.35442	10596.075
2821.89419	10566.775
2824.43239	10576.675
2826.96904	10594.675
2829.50412	10593.075
2832.03763	10574.575
2834.56959	10601.375
2837.1	10572.675
2839.62884	10601.675
2842.15613	10581.375
2844.68186	10594.375
2847.20604	10600.675
2849.72867	10638.275
2852.24974	10601.175
2854.76927	10590.575
2857.28724	10587.775
2859.80367	10562.775
2862.31855	10538.575
2864.83189	10548.775
2867.34368	10529.975
2869.85393	10541.575
2872.36264	10518.875
2874.8698	10532.475
2877.37543	10513.575
2879.87952	10534.275
2882.38207	10527.775
2884.88308	10555.175
2887.38256	10558.675
2889.88051	10534.275
2892.37692	10567.975
2894.8718	10560.275
2897.36515	10575.275
2899.85698	10591.375
2902.34727	10622.475
2904.83604	10589.175
2907.32328	10617.475
2909.809	10628.275
2912.29319	10625.475
2914.77587	10625.875
2917.25702	10620.275
2919.73665	10606.175
2922.21476	10618.275
2924.69136	10592.975
2927.16644	10580.175
2929.64	10566.575
2932.11205	10541.475
2934.58258	10526.975
2937.05161	10513.975
2939.51912	10549.375
2941.98513	10524.675
2944.44962	10493.675
2946.91261	10469.175
2949.37409	10455.875
2951.83407	10446.375
2954.29254	10440.575
2956.74951	10410.975
2959.20498	10422.075
2961.65895	10382.475
2964.11142	10395.075
2966.56239	10393.775
2969.01186	10345.575
2971.45984	10327.675
2973.90632	10302.075
2976.35131	10282.175
2978.7948	10254.675
2981.23681	10217.175
2983.67732	10210.875
2986.11635	10234.875
2988.55388	10158.875
2990.98993	10133.275
2993.4245	10105.675
2995.85758	10077.975
2998.28917	10062.175
3000.71928	10069.475
3003.14791	10032.775
3005.57506	10021.675
3008.00073	9976.575
3010.42493	9988.675
3012.84764	9993.375
3015.26888	9975.275
3017.68865	9939.075
3020.10694	9940.075
3022.52376	9943.175
3024.9391	9902.175
3027.35298	9863.575
3029.76539	9887.375
3032.17632	9880.875
3034.5858	9849.075
3036.9938	9855.375
3039.40034	9860.575
3041.80542	9869.475
3044.20903	9825.775
3046.61118	9831.775
3049.01187	9800.975
3051.4111	9816.875
3053.80888	9775.475
3056.20519	9771.175
3058.60005	9738.575
3060.99345	9728.675
3063.3854	9681.975
3065.7759	9663.375
3068.16494	9653.675
3070.55254	9593.775
3072.93868	9603.575
3075.32338	9580.875
3077.70662	9570.975
3080.08842	9573.375
3082.46878	9546.975
3084.84769	9524.975
3087.22515	9529.775
3089.60118	9520.075
3091.97576	9519.775
3094.3489	9533.475
3096.72061	9525.575
3099.09087	9522.175
3101.4597	9515.775
3103.82709	9501.075
3106.19305	9491.775
3108.55757	9488.575
3110.92066	9469.575
3113.28232	9467.875
3115.64255	9438.875
3118.00134	9407.375
3120.35871	9434.975
3122.71466	9393.275
3125.06917	9391.075
3127.42226	9387.875
3129.77393	9382.975
3132.12417	9338.175
3134.47299	9355.275
