Data from AgNPs_FTO_APTES_UA_1uM_CRN_100uM_R6G_10uM_NaF_0.1M_Addition_RamanShift__6__16-27-39-770.txt Node

Date: Thu Jan 27 16:27:39 GMT 2022
User: TCL
Spectrometer: QEP01345
Trigger mode: 4
Integration Time (sec): 7.000000E0
Scans to average: 10
Electric dark correction enabled: true
Nonlinearity correction enabled: false
Boxcar width: 0
XAxis mode: Raman Shifts
Number of Pixels in Spectrum: 1044
>>>>>Begin Spectral Data<<<<<
46.04893	0.725
50.45542	0.525
54.85868	-1.975
59.25871	-1.475
63.6555	45.125
68.04907	46.625
72.43941	49.825
76.82654	52.825
81.21044	53.425
85.59113	55.625
89.96862	56.325
94.34289	57.025
98.71396	63.425
103.08183	63.825
107.4465	68.125
111.80798	68.425
116.16626	68.025
120.52136	73.225
124.87327	73.825
129.222	71.925
133.56755	79.725
137.90993	82.225
142.24913	85.325
146.58517	97.425
150.91804	114.425
155.24774	134.125
159.57429	157.425
163.89768	200.925
168.21792	268.025
172.53501	355.925
176.84895	480.625
181.15975	676.825
185.46741	939.325
189.77193	1296.925
194.07331	1753.625
198.37157	2252.125
202.6667	2770.725
206.9587	3299.725
211.24758	3816.025
215.53334	4320.925
219.81599	4872.425
224.09553	5467.125
228.37195	6108.925
232.64527	6791.125
236.91549	7566.725
241.18261	8303.525
245.44663	9043.825
249.70755	9730.425
253.96539	10301.625
258.22014	10818.425
262.4718	11219.625
266.72039	11504.925
270.96589	11670.025
275.20832	11699.525
279.44768	11658.925
283.68397	11580.825
287.91719	11469.425
292.14735	11401.725
296.37445	11409.825
300.59849	11414.425
304.81948	11450.125
309.03742	11432.125
313.25231	11331.825
317.46415	11153.525
321.67296	10919.825
325.87872	10707.425
330.08145	10612.325
334.28114	10603.025
338.47781	10659.725
342.67145	10760.525
346.86207	10886.125
351.04966	11080.225
355.23424	11244.925
359.4158	11380.925
363.59435	11507.525
367.76989	11608.125
371.94243	11666.125
376.11196	11739.025
380.27849	11783.825
384.44203	11812.125
388.60257	11913.725
392.76012	12039.525
396.91468	12178.825
401.06626	12350.425
405.21485	12476.125
409.36047	12435.825
413.50311	12343.225
417.64277	12276.225
421.77947	12324.325
425.9132	12358.025
430.04396	12416.825
434.17176	12453.225
438.2966	12547.925
442.41849	12717.725
446.53742	12977.225
450.6534	13264.425
454.76644	13497.125
458.87653	13586.225
462.98368	13567.225
467.08789	13473.525
471.18916	13327.125
475.2875	13254.125
479.38291	13200.425
483.4754	13124.525
487.56496	12991.225
491.6516	12797.325
495.73531	12624.925
499.81612	12497.225
503.89401	12525.825
507.96899	12583.725
512.04106	12578.225
516.11023	12514.025
520.1765	12384.125
524.23987	12241.325
528.30034	12141.625
532.35792	12071.125
536.41261	11973.225
540.46441	11875.725
544.51333	11899.725
548.55936	12009.025
552.60252	12198.225
556.64279	12488.125
560.6802	12675.625
564.71473	12798.825
568.7464	12975.925
572.7752	13269.325
576.80114	13629.025
580.82422	13965.125
584.84444	14373.225
588.86181	14854.725
592.87633	15260.625
596.888	15117.525
600.89682	14529.425
604.9028	14311.625
608.90594	14786.125
612.90624	15375.925
616.90371	14672.625
620.89834	12955.425
624.89015	12152.325
628.87913	12083.325
632.86528	12171.525
636.84862	12188.425
640.82913	12063.025
644.80683	11883.825
648.78172	11748.825
652.75379	11693.925
656.72306	11783.425
660.68952	11891.125
664.65319	11845.625
668.61405	11690.225
672.57211	11672.125
676.52738	11709.425
680.47986	11737.125
684.42955	11679.325
688.37646	11635.925
692.32058	11658.625
696.26192	11763.325
700.20048	11887.925
704.13626	12004.725
708.06928	11995.325
711.99952	12010.925
715.927	11991.425
719.85171	12012.425
723.77365	11974.225
727.69284	11849.025
731.60928	11715.925
735.52295	11657.825
739.43388	11653.425
743.34206	11638.425
747.24749	11709.025
751.15017	11836.625
755.05012	12003.725
758.94733	12256.025
762.8418	12698.125
766.73354	13328.625
770.62254	13892.225
774.50882	13983.625
778.39237	13518.525
782.27321	12799.525
786.15132	12250.625
790.02671	11879.125
793.89938	11677.725
797.76935	11616.125
801.6366	11582.325
805.50115	11551.425
809.36299	11509.025
813.22213	11444.125
817.07857	11432.925
820.93231	11406.325
824.78336	11358.925
828.63172	11308.725
832.47738	11271.025
836.32036	11262.425
840.16066	11277.525
843.99827	11307.225
847.8332	11247.325
851.66546	11244.125
855.49504	11264.025
859.32195	11247.525
863.1462	11231.625
866.96777	11220.325
870.78668	11180.425
874.60293	11195.325
878.41652	11198.925
882.22745	11191.325
886.03573	11255.925
889.84136	11280.925
893.64433	11241.525
897.44466	11202.525
901.24235	11180.525
905.0374	11154.125
908.8298	11105.525
912.61957	11134.125
916.40671	11218.325
920.19121	11340.725
923.97308	11445.825
927.75233	11438.225
931.52895	11323.825
935.30295	11166.825
939.07433	11008.625
942.84309	10916.525
946.60924	10820.125
950.37278	10794.325
954.13371	10770.825
957.89203	10810.425
961.64774	10804.725
965.40086	10755.925
969.15137	10723.325
972.89929	10667.525
976.64461	10639.725
980.38733	10622.725
984.12747	10617.325
987.86502	10643.925
991.59999	10699.925
995.33237	10759.925
999.06217	10913.425
1002.78939	11080.925
1006.51404	11191.225
1010.23611	11320.425
1013.95561	11465.125
1017.67255	11467.425
1021.38692	11422.125
1025.09872	11277.225
1028.80796	11174.425
1032.51465	11188.825
1036.21877	11252.925
1039.92035	11295.425
1043.61937	11299.325
1047.31584	11276.725
1051.00976	11258.825
1054.70114	11277.925
1058.38998	11327.925
1062.07627	11443.225
1065.76003	11567.625
1069.44126	11679.825
1073.11995	11825.325
1076.79611	11923.925
1080.46974	11994.225
1084.14085	11998.425
1087.80943	12041.825
1091.47549	12130.825
1095.13903	12172.125
1098.80005	12106.225
1102.45857	11901.325
1106.11456	11668.325
1109.76805	11533.925
1113.41903	11504.825
1117.06751	11570.225
1120.71348	11639.625
1124.35696	11781.825
1127.99793	11889.925
1131.63641	11985.525
1135.2724	11962.325
1138.90589	11874.125
1142.5369	11918.025
1146.16542	12011.425
1149.79145	12136.025
1153.415	12219.525
1157.03607	12385.925
1160.65467	12698.725
1164.27079	13215.425
1167.88443	13764.225
1171.49561	14378.725
1175.10432	15036.725
1178.71056	15895.825
1182.31434	16713.425
1185.91565	17073.225
1189.51451	17008.025
1193.11091	16697.425
1196.70485	16314.225
1200.29634	15902.525
1203.88538	15619.325
1207.47197	15461.125
1211.05612	15303.925
1214.63782	15111.125
1218.21708	14702.325
1221.79391	14257.025
1225.36829	13939.925
1228.94024	13730.225
1232.50976	13551.625
1236.07685	13444.825
1239.6415	13342.325
1243.20374	13338.125
1246.76355	13424.425
1250.32093	13568.825
1253.8759	13786.325
1257.42845	14069.725
1260.97859	14369.025
1264.52631	14670.225
1268.07163	14994.425
1271.61453	15315.325
1275.15503	15672.425
1278.69312	16062.425
1282.22882	16531.325
1285.76211	17073.125
1289.29301	17729.825
1292.82151	18554.225
1296.34761	19509.425
1299.87133	20609.625
1303.39266	21563.425
1306.9116	22436.325
1310.42815	23002.525
1313.94233	23229.025
1317.45412	23119.225
1320.96354	22847.725
1324.47058	22642.325
1327.97525	22485.525
1331.47754	22374.825
1334.97747	22286.025
1338.47502	22049.725
1341.97022	21800.725
1345.46305	21475.625
1348.95352	21184.525
1352.44163	21106.125
1355.92738	21320.725
1359.41078	21915.525
1362.89183	22342.625
1366.37053	22058.525
1369.84688	20692.625
1373.32088	18839.125
1376.79254	17434.725
1380.26186	17019.425
1383.72883	17136.225
1387.19347	17259.125
1390.65578	17184.525
1394.11575	17091.225
1397.57339	17220.725
1401.0287	17462.525
1404.48168	17690.625
1407.93234	17687.625
1411.38068	17310.125
1414.82669	16685.025
1418.27039	15987.225
1421.71177	15312.925
1425.15083	14787.725
1428.58758	14506.925
1432.02203	14585.425
1435.45416	14903.525
1438.88399	15328.225
1442.31151	15702.825
1445.73673	15891.025
1449.15965	16090.425
1452.58027	16171.225
1455.9986	16204.325
1459.41463	16214.825
1462.82837	16332.125
1466.23982	16550.025
1469.64898	16783.025
1473.05586	16960.425
1476.46045	16995.625
1479.86276	16913.225
1483.26279	16724.725
1486.66054	16600.625
1490.05602	16632.925
1493.44922	16762.725
1496.84016	16927.325
1500.22882	17159.125
1503.61521	17507.125
1506.99934	17932.925
1510.38121	18249.225
1513.76081	18338.725
1517.13816	18116.625
1520.51324	17801.125
1523.88607	17564.525
1527.25665	17500.425
1530.62498	17530.025
1533.99105	17516.825
1537.35488	17308.325
1540.71647	16898.125
1544.07581	16430.425
1547.4329	15993.625
1550.78776	15598.725
1554.14038	15351.725
1557.49077	15203.825
1560.83892	15090.825
1564.18484	15035.925
1567.52853	15111.425
1570.86999	15264.925
1574.20922	15572.325
1577.54624	15902.225
1580.88103	16088.525
1584.2136	16226.125
1587.54395	16660.525
1590.87208	17346.925
1594.19801	18149.525
1597.52172	18885.925
1600.84321	19039.225
1604.16251	18198.925
1607.47959	16934.125
1610.79447	15649.425
1614.10715	14439.825
1617.41763	13470.725
1620.7259	12894.825
1624.03199	12546.325
1627.33587	12522.125
1630.63757	12810.425
1633.93707	13440.625
1637.23439	14631.825
1640.52951	16330.525
1643.82246	18396.425
1647.11321	20107.925
1650.40179	20481.725
1653.68819	19190.025
1656.97241	16872.625
1660.25446	14599.225
1663.53433	12871.325
1666.81203	11790.425
1670.08756	11078.225
1673.36092	10649.225
1676.63211	10388.925
1679.90115	10199.125
1683.16801	10033.025
1686.43272	9924.525
1689.69527	9832.825
1692.95567	9746.625
1696.2139	9678.425
1699.46999	9593.825
1702.72392	9543.725
1705.97571	9555.325
1709.22535	9554.125
1712.47284	9586.225
1715.71819	9600.425
1718.96139	9558.925
1722.20246	9544.325
1725.44139	9521.025
1728.67818	9485.125
1731.91284	9422.725
1735.14537	9384.125
1738.37576	9329.825
1741.60403	9288.825
1744.83017	9250.525
1748.05418	9223.325
1751.27607	9207.325
1754.49584	9169.525
1757.71349	9158.225
1760.92903	9123.325
1764.14244	9122.825
1767.35375	9118.325
1770.56294	9094.025
1773.77002	9096.225
1776.97499	9085.425
1780.17785	9099.225
1783.37861	9100.725
1786.57727	9080.125
1789.77382	9076.325
1792.96828	9055.625
1796.16064	9032.925
1799.3509	9004.125
1802.53907	8998.725
1805.72514	8988.825
1808.90913	8960.725
1812.09102	8932.325
1815.27083	8916.625
1818.44856	8888.025
1821.6242	8900.225
1824.79776	8869.925
1827.96924	8886.825
1831.13864	8866.125
1834.30597	8864.325
1837.47122	8861.525
1840.6344	8858.425
1843.7955	8844.125
1846.95454	8820.425
1850.11151	8819.325
1853.26642	8816.225
1856.41926	8800.225
1859.57004	8814.025
1862.71876	8802.925
1865.86542	8788.825
1869.01003	8794.525
1872.15258	8783.925
1875.29308	8766.225
1878.43152	8782.725
1881.56792	8741.725
1884.70227	8715.725
1887.83457	8698.725
1890.96482	8720.525
1894.09304	8673.925
1897.21921	8678.125
1900.34335	8663.525
1903.46544	8641.825
1906.58551	8633.325
1909.70353	8623.925
1912.81953	8611.725
1915.93349	8600.825
1919.04543	8607.425
1922.15534	8576.725
1925.26322	8542.125
1928.36908	8553.325
1931.47292	8523.625
1934.57473	8499.525
1937.67453	8486.925
1940.77232	8476.525
1943.86808	8442.325
1946.96184	8416.025
1950.05358	8397.825
1953.14331	8344.025
1956.23103	8339.825
1959.31675	8329.525
1962.40046	8291.325
1965.48217	8256.025
1968.56188	8234.525
1971.63959	8219.125
1974.7153	8199.325
1977.78901	8167.725
1980.86073	8147.325
1983.93046	8136.525
1986.99819	8081.025
1990.06394	8096.125
1993.1277	8051.625
1996.18947	8024.325
1999.24925	8015.625
2002.30706	7991.225
2005.36288	7965.125
2008.41672	7919.725
2011.46859	7926.625
2014.51848	7902.725
2017.56639	7884.225
2020.61233	7872.825
2023.6563	7849.125
2026.6983	7805.725
2029.73833	7803.725
2032.7764	7801.125
2035.8125	7787.925
2038.84664	7728.825
2041.87881	7721.525
2044.90903	7715.525
2047.93729	7691.325
2050.96359	7702.525
2053.98794	7673.025
2057.01034	7684.125
2060.03078	7696.225
2063.04927	7662.825
2066.06582	7664.125
2069.08042	7668.025
2072.09307	7638.325
2075.10378	7639.525
2078.11255	7650.925
2081.11938	7660.325
2084.12426	7639.725
2087.12722	7619.225
2090.12824	7637.725
2093.12732	7625.125
2096.12447	7620.525
2099.11969	7618.125
2102.11299	7620.225
2105.10435	7625.625
2108.09379	7621.725
2111.08131	7628.025
2114.0669	7617.325
2117.05057	7639.325
2120.03233	7645.325
2123.01216	7656.425
2125.99008	7650.525
2128.96609	7663.025
2131.94018	7666.825
2134.91236	7673.725
2137.88263	7690.625
2140.851	7674.625
2143.81746	7683.625
2146.78201	7678.225
2149.74466	7662.325
2152.7054	7687.125
2155.66425	7662.725
2158.6212	7677.325
2161.57625	7645.325
2164.52941	7649.725
2167.48067	7667.425
2170.43004	7680.225
2173.37752	7665.225
2176.32311	7651.925
2179.26681	7650.325
2182.20863	7666.425
2185.14856	7632.425
2188.08661	7668.025
2191.02278	7674.225
2193.95707	7650.425
2196.88948	7622.325
2199.82001	7645.825
2202.74867	7621.525
2205.67545	7607.825
2208.60037	7603.925
2211.52341	7579.325
2214.44458	7561.925
2217.36388	7570.125
2220.28132	7547.225
2223.1969	7544.325
2226.11061	7531.725
2229.02246	7512.525
2231.93245	7519.625
2234.84058	7502.325
2237.74686	7475.025
2240.65128	7499.925
2243.55385	7450.525
2246.45456	7466.925
2249.35343	7441.225
2252.25044	7432.925
2255.14561	7429.125
2258.03893	7411.125
2260.93041	7367.025
2263.82004	7358.425
2266.70783	7362.925
2269.59378	7320.025
2272.4779	7300.525
2275.36017	7303.625
2278.24061	7300.625
2281.11922	7291.125
2283.996	7273.925
2286.87094	7253.225
2289.74405	7223.525
2292.61534	7235.725
2295.4848	7224.025
2298.35243	7218.525
2301.21824	7230.025
2304.08223	7225.625
2306.94439	7195.225
2309.80474	7220.525
2312.66327	7227.325
2315.51999	7197.025
2318.37489	7185.325
2321.22797	7186.625
2324.07925	7187.525
2326.92871	7169.125
2329.77637	7156.125
2332.62222	7130.325
2335.46626	7104.925
2338.3085	7106.425
2341.14893	7106.325
2343.98756	7116.125
2346.8244	7102.925
2349.65943	7096.125
2352.49267	7101.025
2355.32411	7083.625
2358.15376	7093.525
2360.98161	7082.525
2363.80768	7084.725
2366.63195	7068.525
2369.45444	7072.225
2372.27514	7066.225
2375.09405	7071.625
2377.91118	7060.825
2380.72652	7053.825
2383.54009	7006.925
2386.35187	6990.825
2389.16188	6990.825
2391.97011	6973.425
2394.77657	6962.125
2397.58125	6944.925
2400.38416	6948.825
2403.18529	6918.125
2405.98466	6943.125
2408.78226	6904.125
2411.57809	6905.425
2414.37216	6905.725
2417.16446	6895.625
2419.955	6873.925
2422.74378	6878.625
2425.5308	6862.525
2428.31606	6878.525
2431.09956	6870.725
2433.88131	6840.025
2436.6613	6851.225
2439.43954	6829.025
2442.21603	6846.625
2444.99077	6855.725
2447.76377	6858.525
2450.53501	6810.925
2453.30451	6840.325
2456.07226	6803.125
2458.83827	6813.925
2461.60254	6820.725
2464.36507	6817.725
2467.12586	6799.125
2469.88492	6784.325
2472.64224	6803.525
2475.39782	6796.025
2478.15167	6778.025
2480.90379	6775.925
2483.65417	6811.225
2486.40283	6787.225
2489.14976	6786.425
2491.89497	6791.625
2494.63845	6769.025
2497.3802	6782.625
2500.12024	6776.525
2502.85855	6786.725
2505.59514	6767.625
2508.33002	6764.825
2511.06318	6755.325
2513.79462	6748.625
2516.52435	6743.625
2519.25237	6750.425
2521.97867	6715.025
2524.70327	6728.125
2527.42616	6719.425
2530.14734	6704.725
2532.86681	6693.425
2535.58458	6686.225
2538.30065	6695.725
2541.01501	6695.025
2543.72768	6668.025
2546.43864	6640.225
2549.14791	6637.525
2551.85548	6633.725
2554.56136	6645.025
2557.26554	6633.825
2559.96803	6621.825
2562.66883	6628.425
2565.36794	6608.225
2568.06536	6601.625
2570.7611	6601.925
2573.45514	6573.325
2576.14751	6582.125
2578.83819	6570.825
2581.52719	6577.925
2584.21451	6561.025
2586.90015	6565.025
2589.58411	6549.325
2592.2664	6530.825
2594.94701	6526.325
2597.62594	6514.925
2600.30321	6514.625
2602.9788	6501.925
2605.65273	6496.025
2608.32498	6507.525
2610.99557	6497.225
2613.66449	6507.925
2616.33175	6463.225
2618.99734	6457.925
2621.66128	6485.125
2624.32355	6467.525
2626.98416	6452.525
2629.64311	6458.125
2632.30041	6454.725
2634.95605	6456.025
2637.61004	6433.925
2640.26238	6430.425
2642.91306	6431.525
2645.56209	6416.625
2648.20948	6405.725
2650.85521	6401.725
2653.4993	6422.225
2656.14175	6427.625
2658.78255	6438.425
2661.42171	6432.425
2664.05923	6461.425
2666.6951	6453.225
2669.32934	6433.925
2671.96194	6415.825
2674.59291	6438.725
2677.22224	6427.525
2679.84993	6432.925
2682.476	6414.225
2685.10043	6417.825
2687.72324	6428.325
2690.34441	6409.425
2692.96396	6410.225
2695.58188	6408.625
2698.19818	6421.125
2700.81285	6421.925
2703.4259	6390.925
2706.03733	6394.425
2708.64714	6381.925
2711.25533	6428.925
2713.86191	6424.525
2716.46687	6417.225
2719.07021	6411.425
2721.67194	6453.025
2724.27206	6433.525
2726.87057	6453.425
2729.46747	6453.925
2732.06276	6437.325
2734.65644	6423.525
2737.24852	6431.925
2739.83899	6434.525
2742.42786	6436.425
2745.01513	6409.125
2747.60079	6431.725
2750.18486	6406.525
2752.76733	6412.525
2755.3482	6403.325
2757.92747	6405.725
2760.50515	6418.425
2763.08123	6380.825
2765.65573	6394.625
2768.22863	6392.725
2770.79994	6379.925
2773.36967	6380.325
2775.9378	6367.625
2778.50435	6381.725
2781.06932	6362.925
2783.6327	6361.225
2786.1945	6352.525
2788.75471	6358.125
2791.31335	6337.625
2793.87041	6336.925
2796.42589	6301.025
2798.97979	6327.825
2801.53212	6321.025
2804.08288	6292.625
2806.63206	6291.625
2809.17967	6271.425
2811.72571	6245.425
2814.27018	6255.025
2816.81308	6235.725
2819.35442	6234.825
2821.89419	6210.025
2824.43239	6227.525
2826.96904	6212.425
2829.50412	6227.525
2832.03763	6185.925
2834.56959	6200.425
2837.1	6179.525
2839.62884	6207.425
2842.15613	6181.225
2844.68186	6190.725
2847.20604	6205.325
2849.72867	6230.625
2852.24974	6196.525
2854.76927	6189.625
2857.28724	6197.125
2859.80367	6176.625
2862.31855	6173.925
2864.83189	6176.225
2867.34368	6141.525
2869.85393	6148.625
2872.36264	6147.825
2874.8698	6143.325
2877.37543	6139.425
2879.87952	6151.425
2882.38207	6134.125
2884.88308	6132.325
2887.38256	6117.025
2889.88051	6105.125
2892.37692	6134.225
2894.8718	6131.125
2897.36515	6141.025
2899.85698	6147.125
2902.34727	6157.325
2904.83604	6162.125
2907.32328	6154.625
2909.809	6147.325
2912.29319	6155.525
2914.77587	6157.825
2917.25702	6152.425
2919.73665	6143.125
2922.21476	6151.925
2924.69136	6163.025
2927.16644	6140.025
2929.64	6163.325
2932.11205	6161.425
2934.58258	6114.325
2937.05161	6143.125
2939.51912	6112.925
2941.98513	6121.025
2944.44962	6106.425
2946.91261	6079.425
2949.37409	6088.725
2951.83407	6074.125
2954.29254	6086.225
2956.74951	6068.125
2959.20498	6096.125
2961.65895	6074.525
2964.11142	6071.125
2966.56239	6070.425
2969.01186	6056.325
2971.45984	6035.925
2973.90632	6041.125
2976.35131	6014.725
2978.7948	6008.025
2981.23681	6020.025
2983.67732	5994.825
2986.11635	5980.825
2988.55388	5969.825
2990.98993	5957.325
2993.4245	5963.225
2995.85758	5944.725
2998.28917	5956.525
3000.71928	5923.925
3003.14791	5891.025
3005.57506	5900.925
3008.00073	5883.025
3010.42493	5873.625
3012.84764	5871.925
3015.26888	5882.625
3017.68865	5846.825
3020.10694	5835.525
3022.52376	5839.525
3024.9391	5841.325
3027.35298	5822.125
3029.76539	5818.525
3032.17632	5810.625
3034.5858	5799.625
3036.9938	5799.225
3039.40034	5813.725
3041.80542	5803.325
3044.20903	5781.225
3046.61118	5792.525
3049.01187	5785.625
3051.4111	5780.625
3053.80888	5768.425
3056.20519	5751.325
3058.60005	5750.325
3060.99345	5735.325
3063.3854	5711.425
3065.7759	5700.625
3068.16494	5699.225
3070.55254	5669.425
3072.93868	5669.325
3075.32338	5660.425
3077.70662	5662.425
3080.08842	5642.525
3082.46878	5622.725
3084.84769	5632.125
3087.22515	5622.125
3089.60118	5635.125
3091.97576	5629.025
3094.3489	5628.925
3096.72061	5631.025
3099.09087	5642.825
3101.4597	5605.925
3103.82709	5629.125
3106.19305	5607.625
3108.55757	5628.725
3110.92066	5610.725
3113.28232	5612.925
3115.64255	5566.325
3118.00134	5590.625
3120.35871	5563.025
3122.71466	5573.125
3125.06917	5555.325
3127.42226	5544.225
3129.77393	5551.925
3132.12417	5538.225
3134.47299	5543.725
3136.82039	5545.225
3139.16636	5563.225
3141.51092	5566.725
3143.85406	5552.225
3146.19579	5561.425
3148.53609	5560.125
3150.87499	5578.125
3153.21246	5573.025
3155.54853	5580.725
3157.88318	5579.625
3160.21642	5578.125
3162.54826	5591.725
3164.87868	5597.325
3167.2077	5581.825
3169.5353	5601.325
3171.86151	5593.525
3174.18631	5587.325
3176.5097	5579.025
3178.83169	5577.025
3181.15228	5587.625
3183.47147	5569.525
3185.78926	5566.025
3188.10565	5556.725
3190.42065	5575.125
