Data from AgNPs_FTO_APTES_UA_1uM_CRN_500uM_R6G_10uM_NaF_0.1M_Addition_RamanShift__6__17-51-39-866.txt Node

Date: Thu Jan 27 17:51:39 GMT 2022
User: TCL
Spectrometer: QEP01345
Trigger mode: 4
Integration Time (sec): 7.000000E0
Scans to average: 10
Electric dark correction enabled: true
Nonlinearity correction enabled: false
Boxcar width: 0
XAxis mode: Raman Shifts
Number of Pixels in Spectrum: 1044
>>>>>Begin Spectral Data<<<<<
46.04893	-0.225
50.45542	0.875
54.85868	-1.225
59.25871	-1.725
63.6555	42.175
68.04907	44.675
72.43941	45.675
76.82654	52.075
81.21044	51.575
85.59113	53.175
89.96862	56.375
94.34289	57.475
98.71396	62.775
103.08183	59.175
107.4465	65.975
111.80798	65.775
116.16626	65.075
120.52136	71.175
124.87327	69.575
129.222	66.875
133.56755	72.975
137.90993	74.675
142.24913	76.675
146.58517	85.975
150.91804	102.775
155.24774	114.175
159.57429	135.575
163.89768	168.275
168.21792	223.275
172.53501	297.375
176.84895	402.575
181.15975	563.675
185.46741	780.675
189.77193	1077.975
194.07331	1443.475
198.37157	1862.675
202.6667	2300.275
206.9587	2742.175
211.24758	3164.775
215.53334	3605.675
219.81599	4062.675
224.09553	4563.675
228.37195	5097.075
232.64527	5677.775
236.91549	6304.575
241.18261	6943.575
245.44663	7530.275
249.70755	8103.875
253.96539	8570.875
258.22014	8974.775
262.4718	9294.075
266.72039	9490.075
270.96589	9614.875
275.20832	9584.575
279.44768	9484.075
283.68397	9360.175
287.91719	9241.775
292.14735	9142.375
296.37445	9075.775
300.59849	9086.775
304.81948	9108.775
309.03742	9103.175
313.25231	9083.875
317.46415	8925.175
321.67296	8770.375
325.87872	8618.375
330.08145	8561.375
334.28114	8564.475
338.47781	8592.575
342.67145	8705.175
346.86207	8797.575
351.04966	8942.475
355.23424	9100.575
359.4158	9205.075
363.59435	9321.775
367.76989	9396.275
371.94243	9445.975
376.11196	9501.675
380.27849	9558.175
384.44203	9606.275
388.60257	9671.675
392.76012	9760.275
396.91468	9856.975
401.06626	9980.175
405.21485	10079.975
409.36047	10073.075
413.50311	9980.775
417.64277	9967.775
421.77947	9985.175
425.9132	10046.875
430.04396	10078.775
434.17176	10148.475
438.2966	10156.275
442.41849	10263.875
446.53742	10450.975
450.6534	10686.375
454.76644	10813.375
458.87653	10825.675
462.98368	10731.575
467.08789	10638.975
471.18916	10468.275
475.2875	10310.375
479.38291	10197.475
483.4754	10112.875
487.56496	10023.275
491.6516	9971.675
495.73531	9925.375
499.81612	9923.575
503.89401	9986.775
507.96899	10055.575
512.04106	10028.175
516.11023	9965.975
520.1765	9894.875
524.23987	9816.675
528.30034	9777.675
532.35792	9692.475
536.41261	9614.175
540.46441	9524.675
544.51333	9500.075
548.55936	9578.575
552.60252	9723.475
556.64279	9924.975
560.6802	10063.175
564.71473	10091.075
568.7464	10149.675
572.7752	10332.075
576.80114	10556.675
580.82422	10873.175
584.84444	11335.275
588.86181	11971.975
592.87633	12505.075
596.888	12407.375
600.89682	11761.875
604.9028	11426.275
608.90594	11835.075
612.90624	12568.175
616.90371	12051.075
620.89834	10502.375
624.89015	9745.075
628.87913	9638.875
632.86528	9703.175
636.84862	9743.175
640.82913	9646.375
644.80683	9480.275
648.78172	9388.575
652.75379	9412.375
656.72306	9465.675
660.68952	9557.475
664.65319	9521.675
668.61405	9381.975
672.57211	9362.975
676.52738	9434.675
680.47986	9481.675
684.42955	9423.575
688.37646	9368.775
692.32058	9363.475
696.26192	9409.775
700.20048	9511.375
704.13626	9558.075
708.06928	9570.775
711.99952	9552.175
715.927	9540.775
719.85171	9585.875
723.77365	9588.575
727.69284	9464.975
731.60928	9398.975
735.52295	9362.375
739.43388	9354.575
743.34206	9372.675
747.24749	9428.075
751.15017	9492.575
755.05012	9589.275
758.94733	9767.075
762.8418	10106.775
766.73354	10660.275
770.62254	11225.875
774.50882	11412.375
778.39237	11105.075
782.27321	10468.575
786.15132	9916.775
790.02671	9566.675
793.89938	9401.275
797.76935	9348.275
801.6366	9314.675
805.50115	9286.875
809.36299	9244.075
813.22213	9193.875
817.07857	9150.775
820.93231	9089.675
824.78336	9065.575
828.63172	9037.675
832.47738	9029.575
836.32036	9027.075
840.16066	9052.875
843.99827	9071.975
847.8332	9039.575
851.66546	9007.675
855.49504	9018.875
859.32195	9021.575
863.1462	9010.275
866.96777	8995.075
870.78668	8989.075
874.60293	9015.075
878.41652	9017.875
882.22745	9008.375
886.03573	9074.675
889.84136	9077.175
893.64433	9073.275
897.44466	9017.875
901.24235	8990.875
905.0374	8946.975
908.8298	8905.175
912.61957	8915.475
916.40671	8972.175
920.19121	9025.875
923.97308	9099.975
927.75233	9152.475
931.52895	9128.475
935.30295	9021.875
939.07433	8884.375
942.84309	8755.175
946.60924	8672.175
950.37278	8639.075
954.13371	8616.275
957.89203	8618.175
961.64774	8596.475
965.40086	8584.675
969.15137	8577.475
972.89929	8513.975
976.64461	8486.075
980.38733	8470.475
984.12747	8490.775
987.86502	8481.075
991.59999	8534.375
995.33237	8570.575
999.06217	8697.775
1002.78939	8829.775
1006.51404	8947.775
1010.23611	9058.175
1013.95561	9154.075
1017.67255	9212.575
1021.38692	9160.175
1025.09872	9054.175
1028.80796	8937.175
1032.51465	8906.375
1036.21877	8958.175
1039.92035	9011.675
1043.61937	9035.675
1047.31584	9021.775
1051.00976	9004.675
1054.70114	9010.375
1058.38998	9026.475
1062.07627	9070.175
1065.76003	9156.575
1069.44126	9242.375
1073.11995	9374.575
1076.79611	9495.775
1080.46974	9507.575
1084.14085	9496.175
1087.80943	9472.775
1091.47549	9544.375
1095.13903	9588.475
1098.80005	9479.875
1102.45857	9289.675
1106.11456	9131.275
1109.76805	9075.775
1113.41903	9081.675
1117.06751	9129.675
1120.71348	9237.175
1124.35696	9347.875
1127.99793	9498.775
1131.63641	9612.275
1135.2724	9523.975
1138.90589	9420.475
1142.5369	9392.975
1146.16542	9394.775
1149.79145	9445.775
1153.415	9464.075
1157.03607	9537.975
1160.65467	9773.275
1164.27079	10162.975
1167.88443	10611.175
1171.49561	11079.075
1175.10432	11701.975
1178.71056	12460.075
1182.31434	13239.875
1185.91565	13568.575
1189.51451	13394.775
1193.11091	12992.575
1196.70485	12535.975
1200.29634	12095.575
1203.88538	11753.575
1207.47197	11522.575
1211.05612	11347.475
1214.63782	11153.375
1218.21708	10915.675
1221.79391	10697.075
1225.36829	10614.275
1228.94024	10555.075
1232.50976	10450.975
1236.07685	10330.075
1239.6415	10194.575
1243.20374	10172.975
1246.76355	10223.675
1250.32093	10288.375
1253.8759	10416.675
1257.42845	10615.375
1260.97859	10886.475
1264.52631	11112.475
1268.07163	11352.175
1271.61453	11585.075
1275.15503	11831.575
1278.69312	12124.675
1282.22882	12454.675
1285.76211	12886.075
1289.29301	13359.375
1292.82151	13946.375
1296.34761	14590.975
1299.87133	15456.575
1303.39266	16279.375
1306.9116	17117.075
1310.42815	17788.575
1313.94233	18159.475
1317.45412	17965.875
1320.96354	17422.375
1324.47058	16849.875
1327.97525	16420.075
1331.47754	16109.975
1334.97747	15859.775
1338.47502	15644.475
1341.97022	15374.075
1345.46305	15184.875
1348.95352	15203.475
1352.44163	15584.975
1355.92738	16378.175
1359.41078	17399.875
1362.89183	18156.875
1366.37053	18089.675
1369.84688	16779.775
1373.32088	14851.675
1376.79254	13400.275
1380.26186	12827.475
1383.72883	12665.575
1387.19347	12521.275
1390.65578	12273.775
1394.11575	12164.475
1397.57339	12300.675
1401.0287	12608.275
1404.48168	12875.175
1407.93234	12913.775
1411.38068	12740.275
1414.82669	12444.075
1418.27039	12117.375
1421.71177	11699.175
1425.15083	11332.675
1428.58758	11116.475
1432.02203	11196.775
1435.45416	11421.875
1438.88399	11708.075
1442.31151	11887.175
1445.73673	11958.775
1449.15965	11961.075
1452.58027	11967.675
1455.9986	11872.575
1459.41463	11852.975
1462.82837	11953.175
1466.23982	12226.875
1469.64898	12459.275
1473.05586	12676.175
1476.46045	12801.175
1479.86276	12816.875
1483.26279	12737.075
1486.66054	12723.075
1490.05602	12841.675
1493.44922	12957.175
1496.84016	13151.975
1500.22882	13383.775
1503.61521	13781.975
1506.99934	14247.175
1510.38121	14612.075
1513.76081	14683.775
1517.13816	14249.575
1520.51324	13682.075
1523.88607	13259.575
1527.25665	12996.175
1530.62498	12945.475
1533.99105	12820.675
1537.35488	12658.475
1540.71647	12428.375
1544.07581	12197.975
1547.4329	11916.275
1550.78776	11665.075
1554.14038	11439.275
1557.49077	11286.475
1560.83892	11186.475
1564.18484	11156.675
1567.52853	11232.375
1570.86999	11368.475
1574.20922	11598.975
1577.54624	11768.175
1580.88103	11775.075
1584.2136	11759.875
1587.54395	11926.075
1590.87208	12447.875
1594.19801	13188.275
1597.52172	13981.475
1600.84321	14409.575
1604.16251	14022.075
1607.47959	13131.175
1610.79447	11959.275
1614.10715	10903.475
1617.41763	10121.075
1620.7259	9624.775
1624.03199	9361.075
1627.33587	9343.475
1630.63757	9523.675
1633.93707	9994.375
1637.23439	10794.475
1640.52951	12109.675
1643.82246	13841.275
1647.11321	15377.175
1650.40179	15805.975
1653.68819	14754.275
1656.97241	12810.475
1660.25446	10979.275
1663.53433	9708.275
1666.81203	8958.175
1670.08756	8492.475
1673.36092	8241.475
1676.63211	8039.175
1679.90115	7935.175
1683.16801	7831.075
1686.43272	7738.075
1689.69527	7685.175
1692.95567	7629.475
1696.2139	7563.175
1699.46999	7508.975
1702.72392	7455.475
1705.97571	7466.175
1709.22535	7502.075
1712.47284	7505.575
1715.71819	7529.275
1718.96139	7521.775
1722.20246	7506.475
1725.44139	7476.675
1728.67818	7438.275
1731.91284	7386.175
1735.14537	7364.375
1738.37576	7323.375
1741.60403	7321.075
1744.83017	7275.175
1748.05418	7280.475
1751.27607	7271.075
1754.49584	7251.375
1757.71349	7254.775
1760.92903	7220.175
1764.14244	7214.475
1767.35375	7196.575
1770.56294	7159.975
1773.77002	7165.475
1776.97499	7145.275
1780.17785	7153.175
1783.37861	7150.775
1786.57727	7145.675
1789.77382	7129.075
1792.96828	7127.575
1796.16064	7092.575
1799.3509	7059.875
1802.53907	7062.975
1805.72514	7036.475
1808.90913	7051.975
1812.09102	7009.575
1815.27083	7005.575
1818.44856	6988.575
1821.6242	6978.275
1824.79776	6965.675
1827.96924	6984.675
1831.13864	6964.575
1834.30597	6946.175
1837.47122	6968.275
1840.6344	6950.575
1843.7955	6947.775
1846.95454	6954.275
1850.11151	6931.675
1853.26642	6935.875
1856.41926	6938.875
1859.57004	6937.375
1862.71876	6919.675
1865.86542	6914.175
1869.01003	6912.675
1872.15258	6926.075
1875.29308	6893.575
1878.43152	6879.375
1881.56792	6859.875
1884.70227	6864.775
1887.83457	6854.375
1890.96482	6846.175
1894.09304	6846.175
1897.21921	6814.675
1900.34335	6815.375
1903.46544	6795.575
1906.58551	6814.575
1909.70353	6794.575
1912.81953	6762.375
1915.93349	6766.275
1919.04543	6752.075
1922.15534	6745.875
1925.26322	6729.375
1928.36908	6734.875
1931.47292	6705.175
1934.57473	6691.275
1937.67453	6680.675
1940.77232	6651.475
1943.86808	6614.875
1946.96184	6608.075
1950.05358	6586.675
1953.14331	6563.975
1956.23103	6551.475
1959.31675	6522.475
1962.40046	6529.875
1965.48217	6499.475
1968.56188	6465.475
1971.63959	6472.175
1974.7153	6449.575
1977.78901	6429.475
1980.86073	6409.975
1983.93046	6385.375
1986.99819	6360.075
1990.06394	6355.475
1993.1277	6328.875
1996.18947	6305.475
1999.24925	6308.975
2002.30706	6286.775
2005.36288	6264.475
2008.41672	6238.275
2011.46859	6236.075
2014.51848	6229.575
2017.56639	6204.175
2020.61233	6180.275
2023.6563	6167.075
2026.6983	6146.575
2029.73833	6147.975
2032.7764	6130.875
2035.8125	6126.975
2038.84664	6095.275
2041.87881	6089.375
2044.90903	6087.275
2047.93729	6069.575
2050.96359	6054.075
2053.98794	6051.675
2057.01034	6040.875
2060.03078	6036.175
2063.04927	6047.875
2066.06582	6055.375
2069.08042	6038.875
2072.09307	6035.475
2075.10378	6026.775
2078.11255	6036.375
2081.11938	6023.975
2084.12426	6029.775
2087.12722	6014.875
2090.12824	5996.275
2093.12732	6017.075
2096.12447	6003.175
2099.11969	5999.875
2102.11299	6014.075
2105.10435	6015.075
2108.09379	6016.775
2111.08131	6008.975
2114.0669	6015.375
2117.05057	6049.275
2120.03233	6044.775
2123.01216	6039.475
2125.99008	6041.775
2128.96609	6045.475
2131.94018	6047.275
2134.91236	6060.975
2137.88263	6068.875
2140.851	6060.875
2143.81746	6044.575
2146.78201	6058.875
2149.74466	6066.375
2152.7054	6047.675
2155.66425	6048.375
2158.6212	6050.775
2161.57625	6031.775
2164.52941	6051.675
2167.48067	6041.375
2170.43004	6043.475
2173.37752	6045.975
2176.32311	6033.075
2179.26681	6047.575
2182.20863	6023.575
2185.14856	6036.375
2188.08661	6045.975
2191.02278	6022.475
2193.95707	6048.275
2196.88948	6017.375
2199.82001	6004.075
2202.74867	6001.575
2205.67545	6015.575
2208.60037	5993.875
2211.52341	5985.775
2214.44458	5970.875
2217.36388	5953.075
2220.28132	5959.175
2223.1969	5952.775
2226.11061	5936.475
2229.02246	5946.775
2231.93245	5925.375
2234.84058	5907.975
2237.74686	5892.575
2240.65128	5906.875
2243.55385	5896.175
2246.45456	5877.575
2249.35343	5859.975
2252.25044	5856.775
2255.14561	5840.175
2258.03893	5835.575
2260.93041	5818.475
2263.82004	5788.175
2266.70783	5787.675
2269.59378	5775.175
2272.4779	5754.275
2275.36017	5761.075
2278.24061	5750.375
2281.11922	5744.475
2283.996	5721.775
2286.87094	5735.175
2289.74405	5707.475
2292.61534	5703.975
2295.4848	5707.775
2298.35243	5708.975
2301.21824	5684.975
2304.08223	5694.475
2306.94439	5680.175
2309.80474	5693.975
2312.66327	5681.975
2315.51999	5668.975
2318.37489	5673.975
2321.22797	5660.175
2324.07925	5649.375
2326.92871	5645.175
2329.77637	5642.475
2332.62222	5635.975
2335.46626	5618.875
2338.3085	5603.675
2341.14893	5610.775
2343.98756	5605.875
2346.8244	5606.175
2349.65943	5608.475
2352.49267	5584.575
2355.32411	5579.775
2358.15376	5577.875
2360.98161	5584.475
2363.80768	5597.575
2366.63195	5588.475
2369.45444	5592.775
2372.27514	5569.675
2375.09405	5558.775
2377.91118	5561.775
2380.72652	5548.875
2383.54009	5533.175
2386.35187	5519.375
2389.16188	5507.775
2391.97011	5475.675
2394.77657	5496.375
2397.58125	5470.075
2400.38416	5461.475
2403.18529	5458.675
2405.98466	5452.075
2408.78226	5445.375
2411.57809	5452.975
2414.37216	5423.075
2417.16446	5424.475
2419.955	5411.475
2422.74378	5407.475
2425.5308	5427.075
2428.31606	5427.875
2431.09956	5418.575
2433.88131	5389.075
2436.6613	5402.675
2439.43954	5385.175
2442.21603	5401.475
2444.99077	5380.075
2447.76377	5396.475
2450.53501	5376.375
2453.30451	5366.975
2456.07226	5382.575
2458.83827	5378.075
2461.60254	5386.675
2464.36507	5371.475
2467.12586	5358.875
2469.88492	5352.775
2472.64224	5357.875
2475.39782	5358.575
2478.15167	5356.175
2480.90379	5346.975
2483.65417	5345.375
2486.40283	5349.775
2489.14976	5364.175
2491.89497	5350.675
2494.63845	5344.175
2497.3802	5324.875
2500.12024	5326.575
2502.85855	5321.075
2505.59514	5333.875
2508.33002	5317.075
2511.06318	5315.175
2513.79462	5297.175
2516.52435	5301.075
2519.25237	5300.275
2521.97867	5276.875
2524.70327	5258.375
2527.42616	5261.875
2530.14734	5275.675
2532.86681	5265.175
2535.58458	5259.175
2538.30065	5244.675
2541.01501	5234.775
2543.72768	5228.475
2546.43864	5246.975
2549.14791	5223.675
2551.85548	5229.775
2554.56136	5207.075
2557.26554	5211.375
2559.96803	5192.875
2562.66883	5190.575
2565.36794	5202.275
2568.06536	5180.475
2570.7611	5183.675
2573.45514	5166.275
2576.14751	5162.975
2578.83819	5155.875
2581.52719	5138.775
2584.21451	5128.375
2586.90015	5142.275
2589.58411	5127.475
2592.2664	5140.775
2594.94701	5108.075
2597.62594	5113.975
2600.30321	5105.775
2602.9788	5096.275
2605.65273	5077.575
2608.32498	5077.875
2610.99557	5082.775
2613.66449	5078.275
2616.33175	5070.075
2618.99734	5080.675
2621.66128	5068.275
2624.32355	5053.975
2626.98416	5063.175
2629.64311	5049.375
2632.30041	5049.975
2634.95605	5019.275
2637.61004	5020.175
2640.26238	5021.375
2642.91306	5003.875
2645.56209	5011.875
2648.20948	5014.875
2650.85521	5004.975
2653.4993	5012.875
2656.14175	5025.875
2658.78255	5044.575
2661.42171	5030.275
2664.05923	5024.675
2666.6951	5021.775
2669.32934	5028.875
2671.96194	5046.275
2674.59291	5027.675
2677.22224	5032.575
2679.84993	5018.875
2682.476	5020.375
2685.10043	5036.875
2687.72324	4996.075
2690.34441	5019.675
2692.96396	5016.075
2695.58188	5032.175
2698.19818	5023.475
2700.81285	5026.775
2703.4259	5015.275
2706.03733	4995.175
2708.64714	4995.675
2711.25533	5013.975
2713.86191	5006.675
2716.46687	5018.875
2719.07021	5012.475
2721.67194	5044.375
2724.27206	5023.575
2726.87057	5035.475
2729.46747	5038.575
2732.06276	5039.175
2734.65644	5037.075
2737.24852	5045.275
2739.83899	5031.175
2742.42786	5050.475
2745.01513	5005.175
2747.60079	5009.375
2750.18486	5026.775
2752.76733	5010.875
2755.3482	5018.575
2757.92747	5006.975
2760.50515	4997.575
2763.08123	4995.275
2765.65573	4997.075
2768.22863	4984.775
2770.79994	4990.975
2773.36967	4993.675
2775.9378	4970.675
2778.50435	4984.675
2781.06932	4977.575
2783.6327	4959.075
2786.1945	4976.975
2788.75471	4967.275
2791.31335	4944.675
2793.87041	4943.175
2796.42589	4922.875
2798.97979	4930.175
2801.53212	4921.275
2804.08288	4906.275
2806.63206	4912.675
2809.17967	4878.075
2811.72571	4887.275
2814.27018	4882.575
2816.81308	4875.075
2819.35442	4859.575
2821.89419	4848.575
2824.43239	4856.575
2826.96904	4873.875
2829.50412	4856.275
2832.03763	4851.175
2834.56959	4850.375
2837.1	4847.675
2839.62884	4876.975
2842.15613	4876.075
2844.68186	4921.775
2847.20604	4941.275
2849.72867	4958.075
2852.24974	4950.275
2854.76927	4954.275
2857.28724	4925.075
2859.80367	4917.875
2862.31855	4923.375
2864.83189	4914.175
2867.34368	4898.475
2869.85393	4902.075
2872.36264	4906.275
2874.8698	4913.375
2877.37543	4904.775
2879.87952	4902.875
2882.38207	4881.775
2884.88308	4886.675
2887.38256	4891.075
2889.88051	4896.075
2892.37692	4903.175
2894.8718	4896.975
2897.36515	4922.875
2899.85698	4903.675
2902.34727	4930.575
2904.83604	4937.775
2907.32328	4956.875
2909.809	4937.875
2912.29319	4930.775
2914.77587	4947.475
2917.25702	4937.175
2919.73665	4935.975
2922.21476	4938.375
2924.69136	4942.675
2927.16644	4951.475
2929.64	4938.075
2932.11205	4943.275
2934.58258	4947.175
2937.05161	4948.175
2939.51912	4948.775
2941.98513	4918.975
2944.44962	4899.175
2946.91261	4890.775
2949.37409	4871.575
2951.83407	4883.775
2954.29254	4862.975
2956.74951	4856.475
2959.20498	4859.275
2961.65895	4814.675
2964.11142	4833.475
2966.56239	4820.075
2969.01186	4813.775
2971.45984	4795.775
2973.90632	4791.475
2976.35131	4775.875
2978.7948	4773.175
2981.23681	4767.475
2983.67732	4742.875
2986.11635	4738.275
2988.55388	4732.275
2990.98993	4700.275
2993.4245	4690.175
2995.85758	4717.675
2998.28917	4696.075
3000.71928	4679.075
3003.14791	4672.675
3005.57506	4670.975
3008.00073	4656.175
3010.42493	4641.075
3012.84764	4657.475
3015.26888	4662.675
3017.68865	4659.075
3020.10694	4629.175
3022.52376	4609.875
3024.9391	4612.775
3027.35298	4606.375
3029.76539	4616.975
3032.17632	4596.575
3034.5858	4590.175
3036.9938	4604.175
3039.40034	4584.275
3041.80542	4585.875
3044.20903	4573.475
3046.61118	4573.675
3049.01187	4583.575
3051.4111	4577.075
3053.80888	4563.075
3056.20519	4564.375
3058.60005	4556.675
3060.99345	4549.275
3063.3854	4539.075
3065.7759	4532.475
3068.16494	4527.175
3070.55254	4515.675
3072.93868	4498.575
3075.32338	4495.775
3077.70662	4510.775
3080.08842	4498.675
3082.46878	4482.775
3084.84769	4486.175
3087.22515	4489.975
3089.60118	4476.475
3091.97576	4502.175
3094.3489	4502.675
3096.72061	4496.875
3099.09087	4496.575
3101.4597	4499.775
3103.82709	4511.375
3106.19305	4488.775
3108.55757	4514.275
3110.92066	4501.275
3113.28232	4498.675
3115.64255	4477.075
3118.00134	4475.375
3120.35871	4482.175
3122.71466	4470.575
3125.06917	4474.075
3127.42226	4450.675
3129.77393	4470.875
3132.12417	4477.775
3134.47299	4459.075
3136.82039	4477.575
3139.16636	4478.175
3141.51092	4481.675
3143.85406	4475.075
3146.19579	4493.675
3148.53609	4490.775
3150.87499	4512.675
3153.21246	4521.575
3155.54853	4529.275
3157.88318	4526.075
3160.21642	4533.275
3162.54826	4536.875
3164.87868	4529.375
3167.2077	4529.875
3169.5353	4544.175
3171.86151	4543.275
3174.18631	4532.875
3176.5097	4531.775
3178.83169	4553.175
3181.15228	4544.875
3183.47147	4526.575
3185.78926	4543.975
3188.10565	4544.575
3190.42065	4549.475
3192.73424	4536.375
3195.04645	4550.875
3197.35725	4563.275
3199.66667	4547.175
3201.97469	4560.475
3204.28132	4543.375
3206.58656	4555.875
3208.8904	4546.175
3211.19287	4545.775
3213.49394	4575.875
