Data from AgNPs_FTO_APTES_UA_1uM_CRN_10uM_R6G_20uM_NaF_0.1M_Addition_RamanShift__33__15-36-19-712.txt Node

Date: Thu Jan 27 15:36:19 GMT 2022
User: TCL
Spectrometer: QEP01345
Trigger mode: 4
Integration Time (sec): 7.000000E0
Scans to average: 10
Electric dark correction enabled: true
Nonlinearity correction enabled: false
Boxcar width: 0
XAxis mode: Raman Shifts
Number of Pixels in Spectrum: 1044
>>>>>Begin Spectral Data<<<<<
46.04893	0.9625
50.45542	-0.4375
54.85868	-1.5375
59.25871	-1.2375
63.6555	43.8625
68.04907	47.8625
72.43941	50.3625
76.82654	54.9625
81.21044	53.9625
85.59113	56.7625
89.96862	56.7625
94.34289	60.3625
98.71396	66.3625
103.08183	63.0625
107.4465	66.3625
111.80798	67.2625
116.16626	64.9625
120.52136	71.8625
124.87327	75.5625
129.222	70.2625
133.56755	73.9625
137.90993	77.5625
142.24913	84.3625
146.58517	89.6625
150.91804	107.6625
155.24774	120.5625
159.57429	145.3625
163.89768	179.7625
168.21792	238.3625
172.53501	310.5625
176.84895	426.3625
181.15975	601.7625
185.46741	841.2625
189.77193	1153.3625
194.07331	1552.2625
198.37157	1991.5625
202.6667	2482.1625
206.9587	2934.1625
211.24758	3390.2625
215.53334	3845.4625
219.81599	4350.7625
224.09553	4890.1625
228.37195	5502.7625
232.64527	6139.5625
236.91549	6848.5625
241.18261	7516.1625
245.44663	8152.6625
249.70755	8722.6625
253.96539	9222.1625
258.22014	9671.0625
262.4718	10050.0625
266.72039	10317.1625
270.96589	10440.1625
275.20832	10462.5625
279.44768	10393.2625
283.68397	10282.3625
287.91719	10160.0625
292.14735	10064.2625
296.37445	10084.4625
300.59849	10143.4625
304.81948	10212.0625
309.03742	10289.2625
313.25231	10211.3625
317.46415	10036.6625
321.67296	9721.5625
325.87872	9505.0625
330.08145	9396.1625
334.28114	9394.2625
338.47781	9472.4625
342.67145	9599.6625
346.86207	9766.2625
351.04966	10026.7625
355.23424	10287.9625
359.4158	10545.8625
363.59435	10670.7625
367.76989	10783.9625
371.94243	10852.2625
376.11196	10892.5625
380.27849	10976.6625
384.44203	10996.2625
388.60257	11013.9625
392.76012	11060.6625
396.91468	11157.4625
401.06626	11340.7625
405.21485	11495.2625
409.36047	11465.0625
413.50311	11269.5625
417.64277	11074.2625
421.77947	11014.3625
425.9132	11018.8625
430.04396	11016.6625
434.17176	11106.0625
438.2966	11248.4625
442.41849	11437.2625
446.53742	11761.7625
450.6534	12148.8625
454.76644	12405.8625
458.87653	12473.2625
462.98368	12400.2625
467.08789	12254.8625
471.18916	12071.5625
475.2875	11920.0625
479.38291	11801.3625
483.4754	11704.9625
487.56496	11577.6625
491.6516	11469.4625
495.73531	11360.4625
499.81612	11281.0625
503.89401	11321.8625
507.96899	11341.3625
512.04106	11325.8625
516.11023	11323.0625
520.1765	11329.3625
524.23987	11302.3625
528.30034	11250.9625
532.35792	11149.7625
536.41261	11059.6625
540.46441	10908.7625
544.51333	10871.5625
548.55936	10955.3625
552.60252	11106.0625
556.64279	11307.1625
560.6802	11424.8625
564.71473	11514.6625
568.7464	11666.6625
572.7752	11848.6625
576.80114	11863.0625
580.82422	11866.9625
584.84444	11976.9625
588.86181	12134.3625
592.87633	12456.5625
596.888	12692.6625
600.89682	12822.9625
604.9028	13255.3625
608.90594	14467.9625
612.90624	15925.0625
616.90371	15268.1625
620.89834	12862.3625
624.89015	11768.8625
628.87913	11682.6625
632.86528	11662.5625
636.84862	11572.0625
640.82913	11355.7625
644.80683	11073.2625
648.78172	10869.7625
652.75379	10868.7625
656.72306	11015.3625
660.68952	11248.3625
664.65319	11238.4625
668.61405	11038.5625
672.57211	10958.2625
676.52738	10962.1625
680.47986	10934.7625
684.42955	10873.7625
688.37646	10867.2625
692.32058	10904.6625
696.26192	11015.6625
700.20048	11132.5625
704.13626	11180.4625
708.06928	11139.4625
711.99952	11053.9625
715.927	11043.5625
719.85171	11107.6625
723.77365	11084.9625
727.69284	10984.0625
731.60928	10866.1625
735.52295	10826.9625
739.43388	10866.3625
743.34206	10901.0625
747.24749	10928.5625
751.15017	10997.1625
755.05012	11129.5625
758.94733	11395.6625
762.8418	11849.3625
766.73354	12651.8625
770.62254	13466.7625
774.50882	13787.2625
778.39237	13441.1625
782.27321	12582.0625
786.15132	11755.7625
790.02671	11286.1625
793.89938	11097.1625
797.76935	11006.4625
801.6366	11010.6625
805.50115	10971.7625
809.36299	10910.1625
813.22213	10871.7625
817.07857	10833.3625
820.93231	10825.8625
824.78336	10836.1625
828.63172	10852.8625
832.47738	10900.4625
836.32036	10934.5625
840.16066	10966.9625
843.99827	11018.2625
847.8332	10982.4625
851.66546	10916.8625
855.49504	10889.6625
859.32195	10851.3625
863.1462	10850.4625
866.96777	10794.7625
870.78668	10791.1625
874.60293	10767.1625
878.41652	10786.8625
882.22745	10802.5625
886.03573	10863.1625
889.84136	10868.9625
893.64433	10789.7625
897.44466	10757.2625
901.24235	10702.7625
905.0374	10672.1625
908.8298	10649.7625
912.61957	10683.2625
916.40671	10752.0625
920.19121	10862.7625
923.97308	11012.2625
927.75233	11107.7625
931.52895	11136.3625
935.30295	11058.2625
939.07433	10870.7625
942.84309	10720.1625
946.60924	10662.7625
950.37278	10628.3625
954.13371	10590.8625
957.89203	10518.5625
961.64774	10481.9625
965.40086	10439.7625
969.15137	10434.6625
972.89929	10403.6625
976.64461	10411.6625
980.38733	10444.6625
984.12747	10493.9625
987.86502	10582.5625
991.59999	10736.7625
995.33237	10949.8625
999.06217	11280.1625
1002.78939	11634.4625
1006.51404	11802.1625
1010.23611	11850.1625
1013.95561	11863.6625
1017.67255	11872.5625
1021.38692	11748.4625
1025.09872	11696.5625
1028.80796	11906.8625
1032.51465	12345.1625
1036.21877	12781.8625
1039.92035	12844.3625
1043.61937	12554.6625
1047.31584	12184.4625
1051.00976	11809.3625
1054.70114	11592.1625
1058.38998	11524.8625
1062.07627	11488.1625
1065.76003	11460.1625
1069.44126	11466.4625
1073.11995	11545.6625
1076.79611	11660.7625
1080.46974	11779.6625
1084.14085	11854.2625
1087.80943	11957.9625
1091.47549	12019.9625
1095.13903	11972.5625
1098.80005	11822.4625
1102.45857	11664.4625
1106.11456	11559.1625
1109.76805	11562.5625
1113.41903	11608.9625
1117.06751	11726.6625
1120.71348	11821.7625
1124.35696	11963.3625
1127.99793	12088.9625
1131.63641	12107.2625
1135.2724	11948.6625
1138.90589	11814.9625
1142.5369	11704.7625
1146.16542	11656.7625
1149.79145	11638.1625
1153.415	11685.1625
1157.03607	11787.8625
1160.65467	11949.9625
1164.27079	12262.8625
1167.88443	12724.6625
1171.49561	13380.0625
1175.10432	14299.2625
1178.71056	15450.7625
1182.31434	16518.5625
1185.91565	17034.3625
1189.51451	16917.9625
1193.11091	16325.1625
1196.70485	15532.1625
1200.29634	14877.5625
1203.88538	14503.0625
1207.47197	14142.9625
1211.05612	13802.0625
1214.63782	13576.0625
1218.21708	13519.5625
1221.79391	13511.4625
1225.36829	13569.7625
1228.94024	13459.4625
1232.50976	13251.6625
1236.07685	13032.3625
1239.6415	12896.1625
1243.20374	12898.3625
1246.76355	13006.4625
1250.32093	13178.6625
1253.8759	13429.2625
1257.42845	13728.6625
1260.97859	14056.4625
1264.52631	14312.5625
1268.07163	14631.7625
1271.61453	15008.4625
1275.15503	15436.4625
1278.69312	15849.5625
1282.22882	16159.3625
1285.76211	16397.1625
1289.29301	16693.2625
1292.82151	17114.8625
1296.34761	17738.4625
1299.87133	18621.6625
1303.39266	19749.0625
1306.9116	21152.4625
1310.42815	22492.2625
1313.94233	23160.7625
1317.45412	22957.9625
1320.96354	22175.3625
1324.47058	21258.3625
1327.97525	20387.6625
1331.47754	19768.5625
1334.97747	19459.5625
1338.47502	19283.3625
1341.97022	19135.5625
1345.46305	19018.7625
1348.95352	18973.6625
1352.44163	19254.6625
1355.92738	20011.4625
1359.41078	21339.2625
1362.89183	22658.0625
1366.37053	22506.2625
1369.84688	20585.0625
1373.32088	18300.1625
1376.79254	16757.0625
1380.26186	16076.5625
1383.72883	15899.4625
1387.19347	15814.3625
1390.65578	15576.8625
1394.11575	15414.9625
1397.57339	15449.8625
1401.0287	15724.4625
1404.48168	15953.3625
1407.93234	16003.4625
1411.38068	15914.9625
1414.82669	15574.2625
1418.27039	15188.3625
1421.71177	14724.8625
1425.15083	14359.2625
1428.58758	14143.6625
1432.02203	14151.1625
1435.45416	14373.7625
1438.88399	14658.3625
1442.31151	14860.6625
1445.73673	15000.9625
1449.15965	15152.8625
1452.58027	15189.8625
1455.9986	15120.0625
1459.41463	15122.8625
1462.82837	15216.8625
1466.23982	15477.2625
1469.64898	15749.7625
1473.05586	15955.3625
1476.46045	16060.8625
1479.86276	16135.2625
1483.26279	16075.2625
1486.66054	16052.5625
1490.05602	16077.9625
1493.44922	16250.5625
1496.84016	16394.6625
1500.22882	16681.4625
1503.61521	17205.6625
1506.99934	17946.6625
1510.38121	18663.0625
1513.76081	18998.8625
1517.13816	18671.1625
1520.51324	17808.0625
1523.88607	16887.7625
1527.25665	16260.6625
1530.62498	15954.2625
1533.99105	15803.0625
1537.35488	15665.5625
1540.71647	15523.9625
1544.07581	15349.0625
1547.4329	15126.7625
1550.78776	14974.4625
1554.14038	14822.4625
1557.49077	14777.8625
1560.83892	14720.8625
1564.18484	14768.1625
1567.52853	14841.0625
1570.86999	15014.4625
1574.20922	15185.2625
1577.54624	15295.6625
1580.88103	15248.5625
1584.2136	15170.1625
1587.54395	15436.7625
1590.87208	16031.9625
1594.19801	16965.3625
1597.52172	17984.4625
1600.84321	18392.6625
1604.16251	17769.1625
1607.47959	16495.7625
1610.79447	15170.3625
1614.10715	13984.8625
1617.41763	13158.5625
1620.7259	12660.8625
1624.03199	12455.3625
1627.33587	12481.0625
1630.63757	12797.7625
1633.93707	13340.8625
1637.23439	14173.7625
1640.52951	15371.5625
1643.82246	16750.4625
1647.11321	17962.2625
1650.40179	18383.1625
1653.68819	17491.9625
1656.97241	15625.8625
1660.25446	13751.7625
1663.53433	12396.0625
1666.81203	11567.4625
1670.08756	11112.2625
1673.36092	10805.5625
1676.63211	10614.7625
1679.90115	10479.9625
1683.16801	10386.5625
1686.43272	10293.9625
1689.69527	10223.3625
1692.95567	10167.5625
1696.2139	10117.7625
1699.46999	10054.3625
1702.72392	10017.7625
1705.97571	10031.4625
1709.22535	10062.0625
1712.47284	10105.1625
1715.71819	10103.7625
1718.96139	10114.5625
1722.20246	10076.9625
1725.44139	10053.7625
1728.67818	10033.7625
1731.91284	9976.5625
1735.14537	9945.1625
1738.37576	9919.7625
1741.60403	9862.3625
1744.83017	9834.2625
1748.05418	9807.0625
1751.27607	9816.3625
1754.49584	9764.5625
1757.71349	9750.2625
1760.92903	9712.8625
1764.14244	9716.7625
1767.35375	9728.6625
1770.56294	9709.7625
1773.77002	9712.5625
1776.97499	9722.6625
1780.17785	9730.9625
1783.37861	9730.0625
1786.57727	9746.7625
1789.77382	9743.5625
1792.96828	9729.9625
1796.16064	9724.6625
1799.3509	9711.2625
1802.53907	9686.5625
1805.72514	9671.9625
1808.90913	9665.1625
1812.09102	9630.3625
1815.27083	9620.0625
1818.44856	9606.5625
1821.6242	9607.2625
1824.79776	9584.4625
1827.96924	9601.3625
1831.13864	9585.6625
1834.30597	9576.5625
1837.47122	9575.8625
1840.6344	9523.1625
1843.7955	9534.3625
1846.95454	9548.0625
1850.11151	9519.8625
1853.26642	9541.9625
1856.41926	9556.5625
1859.57004	9577.1625
1862.71876	9538.0625
1865.86542	9551.0625
1869.01003	9554.9625
1872.15258	9525.5625
1875.29308	9519.3625
1878.43152	9526.7625
1881.56792	9535.3625
1884.70227	9526.1625
1887.83457	9520.5625
1890.96482	9509.9625
1894.09304	9511.5625
1897.21921	9488.3625
1900.34335	9504.0625
1903.46544	9498.0625
1906.58551	9491.3625
1909.70353	9478.7625
1912.81953	9479.7625
1915.93349	9489.2625
1919.04543	9479.6625
1922.15534	9438.5625
1925.26322	9424.9625
1928.36908	9418.9625
1931.47292	9421.1625
1934.57473	9389.0625
1937.67453	9379.8625
1940.77232	9353.8625
1943.86808	9328.4625
1946.96184	9291.9625
1950.05358	9272.4625
1953.14331	9247.4625
1956.23103	9231.7625
1959.31675	9186.5625
1962.40046	9184.2625
1965.48217	9176.7625
1968.56188	9177.5625
1971.63959	9142.6625
1974.7153	9086.9625
1977.78901	9081.5625
1980.86073	9057.0625
1983.93046	9028.1625
1986.99819	8995.5625
1990.06394	8955.1625
1993.1277	8966.2625
1996.18947	8932.6625
1999.24925	8915.0625
2002.30706	8881.5625
2005.36288	8867.2625
2008.41672	8846.8625
2011.46859	8822.6625
2014.51848	8799.3625
2017.56639	8801.6625
2020.61233	8775.0625
2023.6563	8759.2625
2026.6983	8738.5625
2029.73833	8719.0625
2032.7764	8720.9625
2035.8125	8677.0625
2038.84664	8658.0625
2041.87881	8693.5625
2044.90903	8658.6625
2047.93729	8646.8625
2050.96359	8631.3625
2053.98794	8627.8625
2057.01034	8635.5625
2060.03078	8631.6625
2063.04927	8637.0625
2066.06582	8626.7625
2069.08042	8624.7625
2072.09307	8624.1625
2075.10378	8602.3625
2078.11255	8608.4625
2081.11938	8598.7625
2084.12426	8615.8625
2087.12722	8611.2625
2090.12824	8598.6625
2093.12732	8591.6625
2096.12447	8611.7625
2099.11969	8601.4625
2102.11299	8613.1625
2105.10435	8605.9625
2108.09379	8611.5625
2111.08131	8658.6625
2114.0669	8638.0625
2117.05057	8636.7625
2120.03233	8655.8625
2123.01216	8665.9625
2125.99008	8674.6625
2128.96609	8674.4625
2131.94018	8704.6625
2134.91236	8717.1625
2137.88263	8697.0625
2140.851	8725.0625
2143.81746	8734.9625
2146.78201	8729.7625
2149.74466	8751.1625
2152.7054	8749.2625
2155.66425	8752.9625
2158.6212	8746.9625
2161.57625	8742.2625
2164.52941	8751.0625
2167.48067	8755.6625
2170.43004	8740.7625
2173.37752	8761.4625
2176.32311	8738.6625
2179.26681	8753.4625
2182.20863	8744.7625
2185.14856	8767.6625
2188.08661	8775.4625
2191.02278	8772.4625
2193.95707	8749.9625
2196.88948	8765.4625
2199.82001	8765.4625
2202.74867	8762.3625
2205.67545	8774.4625
2208.60037	8745.2625
2211.52341	8731.8625
2214.44458	8738.7625
2217.36388	8755.7625
2220.28132	8733.5625
2223.1969	8717.7625
2226.11061	8713.0625
2229.02246	8708.8625
2231.93245	8696.8625
2234.84058	8675.9625
2237.74686	8639.6625
2240.65128	8646.4625
2243.55385	8623.0625
2246.45456	8612.6625
2249.35343	8607.5625
2252.25044	8606.3625
2255.14561	8600.1625
2258.03893	8585.2625
2260.93041	8554.8625
2263.82004	8548.9625
2266.70783	8543.3625
2269.59378	8525.8625
2272.4779	8512.8625
2275.36017	8463.8625
2278.24061	8486.3625
2281.11922	8485.8625
2283.996	8467.2625
2286.87094	8452.1625
2289.74405	8447.8625
2292.61534	8448.0625
2295.4848	8415.0625
2298.35243	8437.6625
2301.21824	8434.9625
2304.08223	8483.1625
2306.94439	8489.8625
2309.80474	8453.9625
2312.66327	8482.5625
2315.51999	8483.1625
2318.37489	8453.6625
2321.22797	8478.4625
2324.07925	8475.3625
2326.92871	8453.0625
2329.77637	8440.7625
2332.62222	8446.1625
2335.46626	8426.8625
2338.3085	8421.9625
2341.14893	8427.8625
2343.98756	8450.4625
2346.8244	8448.6625
2349.65943	8439.3625
2352.49267	8434.8625
2355.32411	8423.7625
2358.15376	8410.6625
2360.98161	8400.0625
2363.80768	8411.1625
2366.63195	8398.9625
2369.45444	8388.4625
2372.27514	8386.3625
2375.09405	8356.4625
2377.91118	8361.5625
2380.72652	8325.6625
2383.54009	8316.5625
2386.35187	8319.5625
2389.16188	8297.6625
2391.97011	8275.9625
2394.77657	8274.1625
2397.58125	8270.4625
2400.38416	8251.4625
2403.18529	8258.8625
2405.98466	8250.9625
2408.78226	8226.6625
2411.57809	8209.0625
2414.37216	8191.8625
2417.16446	8197.8625
2419.955	8174.7625
2422.74378	8191.4625
2425.5308	8182.8625
2428.31606	8158.4625
2431.09956	8158.0625
2433.88131	8170.3625
2436.6613	8174.6625
2439.43954	8150.5625
2442.21603	8163.8625
2444.99077	8168.6625
2447.76377	8165.8625
2450.53501	8156.7625
2453.30451	8160.3625
2456.07226	8150.4625
2458.83827	8140.7625
2461.60254	8135.3625
2464.36507	8142.3625
2467.12586	8106.9625
2469.88492	8142.3625
2472.64224	8164.0625
2475.39782	8152.6625
2478.15167	8156.3625
2480.90379	8138.1625
2483.65417	8152.0625
2486.40283	8186.7625
2489.14976	8180.3625
2491.89497	8189.7625
2494.63845	8174.2625
2497.3802	8155.3625
2500.12024	8176.2625
2502.85855	8170.2625
2505.59514	8167.5625
2508.33002	8135.6625
2511.06318	8133.9625
2513.79462	8138.2625
2516.52435	8110.6625
2519.25237	8135.0625
2521.97867	8126.3625
2524.70327	8129.9625
2527.42616	8095.8625
2530.14734	8092.8625
2532.86681	8108.6625
2535.58458	8086.0625
2538.30065	8088.6625
2541.01501	8103.9625
2543.72768	8083.9625
2546.43864	8069.1625
2549.14791	8054.5625
2551.85548	8070.7625
2554.56136	8046.9625
2557.26554	8039.2625
2559.96803	8053.9625
2562.66883	8059.3625
2565.36794	8054.9625
2568.06536	8038.1625
2570.7611	8025.5625
2573.45514	8025.8625
2576.14751	8008.3625
2578.83819	8013.5625
2581.52719	8010.7625
2584.21451	8006.3625
2586.90015	7989.8625
2589.58411	7991.2625
2592.2664	7987.6625
2594.94701	7983.2625
2597.62594	7990.2625
2600.30321	7981.5625
2602.9788	7959.9625
2605.65273	7969.3625
2608.32498	7962.6625
2610.99557	7942.2625
2613.66449	7961.2625
2616.33175	7951.0625
2618.99734	7951.6625
2621.66128	7952.7625
2624.32355	7945.6625
2626.98416	7960.9625
2629.64311	7981.9625
2632.30041	7979.8625
2634.95605	7960.3625
2637.61004	7931.7625
2640.26238	7930.0625
2642.91306	7932.3625
2645.56209	7907.1625
2648.20948	7937.9625
2650.85521	7915.4625
2653.4993	7896.6625
2656.14175	7919.5625
2658.78255	7906.0625
2661.42171	7940.8625
2664.05923	7928.3625
2666.6951	7941.3625
2669.32934	7950.1625
2671.96194	7951.6625
2674.59291	7937.3625
2677.22224	7948.1625
2679.84993	7931.0625
2682.476	7905.7625
2685.10043	7920.1625
2687.72324	7907.0625
2690.34441	7903.3625
2692.96396	7895.8625
2695.58188	7910.9625
2698.19818	7895.0625
2700.81285	7929.0625
2703.4259	7932.5625
2706.03733	7890.4625
2708.64714	7877.3625
2711.25533	7932.6625
2713.86191	7924.5625
2716.46687	7968.1625
2719.07021	7943.1625
2721.67194	7936.6625
2724.27206	7962.5625
2726.87057	7964.8625
2729.46747	7960.5625
2732.06276	7967.7625
2734.65644	7976.2625
2737.24852	7959.8625
2739.83899	7962.9625
2742.42786	7975.5625
2745.01513	7943.7625
2747.60079	7933.8625
2750.18486	7922.3625
2752.76733	7928.8625
2755.3482	7944.4625
2757.92747	7940.8625
2760.50515	7912.5625
2763.08123	7933.0625
2765.65573	7941.5625
2768.22863	7928.1625
2770.79994	7922.3625
2773.36967	7907.7625
2775.9378	7933.2625
2778.50435	7925.0625
2781.06932	7920.9625
2783.6327	7919.6625
2786.1945	7912.1625
2788.75471	7888.6625
2791.31335	7884.8625
2793.87041	7885.8625
2796.42589	7856.8625
2798.97979	7853.5625
2801.53212	7848.4625
2804.08288	7846.8625
2806.63206	7808.7625
2809.17967	7825.2625
2811.72571	7787.2625
2814.27018	7774.0625
2816.81308	7780.6625
2819.35442	7785.7625
2821.89419	7768.0625
2824.43239	7781.4625
2826.96904	7757.8625
2829.50412	7768.4625
2832.03763	7764.1625
2834.56959	7776.5625
2837.1	7763.0625
2839.62884	7778.6625
2842.15613	7773.4625
2844.68186	7786.4625
2847.20604	7775.7625
2849.72867	7816.3625
2852.24974	7813.4625
2854.76927	7801.9625
2857.28724	7787.2625
2859.80367	7794.9625
2862.31855	7752.1625
2864.83189	7772.1625
2867.34368	7733.3625
2869.85393	7769.7625
2872.36264	7735.0625
2874.8698	7762.7625
2877.37543	7757.4625
2879.87952	7778.0625
2882.38207	7764.6625
2884.88308	7764.6625
2887.38256	7765.4625
2889.88051	7758.6625
2892.37692	7771.3625
2894.8718	7766.0625
2897.36515	7784.6625
2899.85698	7783.1625
2902.34727	7808.8625
2904.83604	7788.2625
2907.32328	7850.1625
2909.809	7822.4625
2912.29319	7823.6625
2914.77587	7838.4625
2917.25702	7833.3625
2919.73665	7833.9625
2922.21476	7819.1625
2924.69136	7832.3625
2927.16644	7848.4625
2929.64	7836.7625
2932.11205	7820.1625
2934.58258	7792.7625
2937.05161	7813.3625
2939.51912	7815.7625
2941.98513	7807.5625
2944.44962	7764.6625
2946.91261	7748.6625
2949.37409	7755.6625
2951.83407	7751.8625
2954.29254	7753.7625
2956.74951	7739.1625
2959.20498	7738.6625
2961.65895	7746.7625
2964.11142	7758.5625
2966.56239	7729.4625
2969.01186	7722.4625
2971.45984	7709.7625
2973.90632	7730.0625
2976.35131	7721.0625
2978.7948	7692.2625
2981.23681	7687.6625
2983.67732	7676.7625
2986.11635	7650.7625
2988.55388	7635.4625
2990.98993	7637.5625
2993.4245	7615.6625
2995.85758	7609.6625
2998.28917	7604.1625
3000.71928	7594.0625
3003.14791	7570.4625
3005.57506	7594.4625
3008.00073	7565.3625
3010.42493	7574.9625
3012.84764	7572.6625
3015.26888	7577.3625
3017.68865	7551.6625
3020.10694	7548.2625
3022.52376	7538.5625
3024.9391	7523.7625
3027.35298	7528.7625
3029.76539	7538.4625
3032.17632	7538.1625
3034.5858	7497.6625
3036.9938	7515.0625
3039.40034	7521.8625
3041.80542	7530.5625
3044.20903	7518.4625
3046.61118	7497.6625
3049.01187	7503.9625
3051.4111	7484.0625
3053.80888	7496.8625
3056.20519	7475.1625
3058.60005	7464.2625
3060.99345	7439.4625
3063.3854	7438.0625
3065.7759	7427.9625
3068.16494	7420.5625
3070.55254	7392.9625
3072.93868	7393.6625
3075.32338	7392.3625
3077.70662	7382.1625
3080.08842	7375.4625
