Data from AgNPs_FTO_APTES_UA_1uM_CRN_0uM_R6G_10uM_NaF_0.1M_Addition_RamanShift__23__11-32-29-432.txt Node

Date: Thu Jan 27 11:32:29 GMT 2022
User: TCL
Spectrometer: QEP01345
Trigger mode: 4
Integration Time (sec): 7.000000E0
Scans to average: 10
Electric dark correction enabled: true
Nonlinearity correction enabled: false
Boxcar width: 0
XAxis mode: Raman Shifts
Number of Pixels in Spectrum: 1044
>>>>>Begin Spectral Data<<<<<
46.04893	-0.3875
50.45542	0.1125
54.85868	-0.8875
59.25871	-1.0875
63.6555	51.7125
68.04907	52.8125
72.43941	55.6125
76.82654	60.3125
81.21044	59.9125
85.59113	60.5125
89.96862	63.5125
94.34289	66.1125
98.71396	68.9125
103.08183	68.4125
107.4465	76.3125
111.80798	71.9125
116.16626	75.3125
120.52136	78.9125
124.87327	79.9125
129.222	80.0125
133.56755	85.4125
137.90993	87.3125
142.24913	98.9125
146.58517	107.8125
150.91804	122.9125
155.24774	140.0125
159.57429	168.1125
163.89768	205.6125
168.21792	278.5125
172.53501	373.4125
176.84895	510.3125
181.15975	707.5125
185.46741	992.7125
189.77193	1368.2125
194.07331	1830.7125
198.37157	2362.7125
202.6667	2940.2125
206.9587	3491.5125
211.24758	4047.7125
215.53334	4599.6125
219.81599	5176.1125
224.09553	5827.5125
228.37195	6538.9125
232.64527	7330.9125
236.91549	8153.1125
241.18261	8987.5125
245.44663	9739.5125
249.70755	10430.0125
253.96539	11024.8125
258.22014	11502.9125
262.4718	11918.7125
266.72039	12170.6125
270.96589	12305.5125
275.20832	12267.6125
279.44768	12146.2125
283.68397	11954.6125
287.91719	11779.0125
292.14735	11647.6125
296.37445	11634.8125
300.59849	11632.4125
304.81948	11747.0125
309.03742	11820.9125
313.25231	11850.9125
317.46415	11801.5125
321.67296	11655.5125
325.87872	11555.3125
330.08145	11511.4125
334.28114	11552.7125
338.47781	11663.1125
342.67145	11781.3125
346.86207	11965.1125
351.04966	12189.1125
355.23424	12412.5125
359.4158	12640.9125
363.59435	12761.9125
367.76989	12887.3125
371.94243	12946.0125
376.11196	13021.5125
380.27849	13085.2125
384.44203	13156.5125
388.60257	13233.7125
392.76012	13297.7125
396.91468	13397.9125
401.06626	13545.6125
405.21485	13715.4125
409.36047	13744.6125
413.50311	13625.2125
417.64277	13512.0125
421.77947	13502.4125
425.9132	13499.5125
430.04396	13592.9125
434.17176	13694.7125
438.2966	13875.9125
442.41849	14175.8125
446.53742	14661.0125
450.6534	15185.3125
454.76644	15549.2125
458.87653	15623.0125
462.98368	15382.7125
467.08789	15070.1125
471.18916	14750.9125
475.2875	14312.2125
479.38291	14061.9125
483.4754	13846.4125
487.56496	13788.3125
491.6516	13763.1125
495.73531	13830.8125
499.81612	13948.2125
503.89401	14092.8125
507.96899	14085.1125
512.04106	13978.9125
516.11023	13932.2125
520.1765	13950.6125
524.23987	14012.7125
528.30034	14103.2125
532.35792	14042.5125
536.41261	13904.1125
540.46441	13664.2125
544.51333	13574.6125
548.55936	13646.9125
552.60252	13781.4125
556.64279	14055.9125
560.6802	14228.8125
564.71473	14205.5125
568.7464	14107.4125
572.7752	14182.4125
576.80114	14265.0125
580.82422	14463.7125
584.84444	14868.7125
588.86181	15587.5125
592.87633	16541.7125
596.888	17154.9125
600.89682	16878.3125
604.9028	16790.9125
608.90594	17892.0125
612.90624	19313.0125
616.90371	18674.2125
620.89834	16299.3125
624.89015	15133.0125
628.87913	14955.2125
632.86528	14808.8125
636.84862	14580.8125
640.82913	14237.2125
644.80683	13938.5125
648.78172	13727.1125
652.75379	13754.6125
656.72306	13978.9125
660.68952	14295.3125
664.65319	14305.0125
668.61405	14154.4125
672.57211	14138.7125
676.52738	14223.7125
680.47986	14190.4125
684.42955	14019.3125
688.37646	14004.8125
692.32058	14135.9125
696.26192	14416.9125
700.20048	14630.5125
704.13626	14662.0125
708.06928	14463.5125
711.99952	14312.0125
715.927	14309.4125
719.85171	14435.3125
723.77365	14430.0125
727.69284	14223.1125
731.60928	14028.6125
735.52295	13991.2125
739.43388	14064.6125
743.34206	14131.7125
747.24749	14182.3125
751.15017	14208.6125
755.05012	14378.9125
758.94733	14640.4125
762.8418	15090.4125
766.73354	15841.0125
770.62254	16700.1125
774.50882	17107.7125
778.39237	16804.8125
782.27321	16068.9125
786.15132	15349.7125
790.02671	14826.4125
793.89938	14610.2125
797.76935	14537.8125
801.6366	14516.9125
805.50115	14446.8125
809.36299	14395.1125
813.22213	14291.8125
817.07857	14236.4125
820.93231	14203.6125
824.78336	14193.0125
828.63172	14246.6125
832.47738	14345.7125
836.32036	14427.9125
840.16066	14525.9125
843.99827	14658.1125
847.8332	14642.1125
851.66546	14453.1125
855.49504	14400.4125
859.32195	14399.6125
863.1462	14375.8125
866.96777	14302.3125
870.78668	14199.7125
874.60293	14236.4125
878.41652	14257.9125
882.22745	14339.5125
886.03573	14417.2125
889.84136	14434.7125
893.64433	14371.4125
897.44466	14261.9125
901.24235	14208.0125
905.0374	14148.8125
908.8298	14137.5125
912.61957	14160.3125
916.40671	14289.8125
920.19121	14444.3125
923.97308	14710.3125
927.75233	14927.6125
931.52895	15015.8125
935.30295	14954.8125
939.07433	14711.0125
942.84309	14547.4125
946.60924	14513.9125
950.37278	14461.6125
954.13371	14373.5125
957.89203	14265.2125
961.64774	14154.1125
965.40086	14117.6125
969.15137	14098.3125
972.89929	14116.5125
976.64461	14216.8125
980.38733	14317.0125
984.12747	14408.0125
987.86502	14570.5125
991.59999	14855.2125
995.33237	15182.2125
999.06217	15825.3125
1002.78939	16513.0125
1006.51404	16836.1125
1010.23611	16918.5125
1013.95561	16958.3125
1017.67255	16948.8125
1021.38692	16796.1125
1025.09872	16764.7125
1028.80796	17237.4125
1032.51465	18305.9125
1036.21877	19271.1125
1039.92035	19441.1125
1043.61937	18941.1125
1047.31584	18138.6125
1051.00976	17163.4125
1054.70114	16555.8125
1058.38998	16268.6125
1062.07627	16080.2125
1065.76003	15990.5125
1069.44126	15918.0125
1073.11995	16036.2125
1076.79611	16267.0125
1080.46974	16488.0125
1084.14085	16684.6125
1087.80943	16784.0125
1091.47549	16737.8125
1095.13903	16554.3125
1098.80005	16276.4125
1102.45857	16032.8125
1106.11456	15915.9125
1109.76805	15952.5125
1113.41903	16006.4125
1117.06751	16028.0125
1120.71348	16071.6125
1124.35696	16160.5125
1127.99793	16250.6125
1131.63641	16294.3125
1135.2724	16220.4125
1138.90589	16110.2125
1142.5369	15997.0125
1146.16542	15956.8125
1149.79145	15978.3125
1153.415	15923.3125
1157.03607	15955.7125
1160.65467	16105.6125
1164.27079	16496.1125
1167.88443	17108.4125
1171.49561	17936.0125
1175.10432	19061.4125
1178.71056	20571.2125
1182.31434	22150.8125
1185.91565	23157.7125
1189.51451	23111.2125
1193.11091	22351.7125
1196.70485	21340.2125
1200.29634	20444.8125
1203.88538	19851.7125
1207.47197	19373.1125
1211.05612	18874.0125
1214.63782	18542.3125
1218.21708	18457.0125
1221.79391	18618.2125
1225.36829	18746.5125
1228.94024	18577.9125
1232.50976	18076.4125
1236.07685	17602.6125
1239.6415	17329.7125
1243.20374	17306.8125
1246.76355	17498.7125
1250.32093	17834.2125
1253.8759	18249.3125
1257.42845	18742.0125
1260.97859	19239.8125
1264.52631	19758.0125
1268.07163	20367.5125
1271.61453	21091.8125
1275.15503	21810.1125
1278.69312	22527.6125
1282.22882	22935.5125
1285.76211	23200.7125
1289.29301	23505.4125
1292.82151	23995.1125
1296.34761	24861.6125
1299.87133	26166.9125
1303.39266	27992.8125
1306.9116	29954.2125
1310.42815	31693.7125
1313.94233	32339.4125
1317.45412	31623.2125
1320.96354	29971.3125
1324.47058	28143.4125
1327.97525	26576.3125
1331.47754	25589.9125
1334.97747	25102.3125
1338.47502	24797.4125
1341.97022	24526.6125
1345.46305	24284.3125
1348.95352	24514.7125
1352.44163	25343.3125
1355.92738	26930.3125
1359.41078	29074.9125
1362.89183	30748.1125
1366.37053	30456.4125
1369.84688	28098.7125
1373.32088	24962.2125
1376.79254	22752.3125
1380.26186	21778.9125
1383.72883	21491.2125
1387.19347	21255.5125
1390.65578	20839.4125
1394.11575	20479.4125
1397.57339	20322.8125
1401.0287	20373.4125
1404.48168	20401.1125
1407.93234	20369.3125
1411.38068	20297.1125
1414.82669	20233.4125
1418.27039	20034.1125
1421.71177	19725.9125
1425.15083	19389.6125
1428.58758	19301.6125
1432.02203	19563.6125
1435.45416	19941.4125
1438.88399	20320.5125
1442.31151	20445.4125
1445.73673	20402.4125
1449.15965	20310.9125
1452.58027	20108.4125
1455.9986	19864.3125
1459.41463	19726.4125
1462.82837	19924.4125
1466.23982	20367.1125
1469.64898	20828.9125
1473.05586	21259.0125
1476.46045	21617.6125
1479.86276	21827.4125
1483.26279	21843.2125
1486.66054	21905.3125
1490.05602	22040.5125
1493.44922	22225.7125
1496.84016	22275.1125
1500.22882	22304.3125
1503.61521	22565.7125
1506.99934	22978.1125
1510.38121	23482.8125
1513.76081	23749.9125
1517.13816	23358.3125
1520.51324	22549.3125
1523.88607	21788.6125
1527.25665	21342.3125
1530.62498	21211.8125
1533.99105	21120.7125
1537.35488	20979.4125
1540.71647	20808.4125
1544.07581	20575.4125
1547.4329	20359.3125
1550.78776	20141.4125
1554.14038	19981.2125
1557.49077	19846.8125
1560.83892	19686.4125
1564.18484	19533.9125
1567.52853	19549.1125
1570.86999	19651.1125
1574.20922	19780.1125
1577.54624	19869.0125
1580.88103	19891.1125
1584.2136	19924.2125
1587.54395	20484.3125
1590.87208	21612.9125
1594.19801	23151.5125
1597.52172	24754.1125
1600.84321	25464.6125
1604.16251	24754.3125
1607.47959	22944.6125
1610.79447	20969.2125
1614.10715	19207.3125
1617.41763	18009.6125
1620.7259	17314.5125
1624.03199	17080.3125
1627.33587	17176.0125
1630.63757	17623.3125
1633.93707	18350.0125
1637.23439	19362.6125
1640.52951	20924.2125
1643.82246	22834.3125
1647.11321	24412.9125
1650.40179	24629.4125
1653.68819	23052.6125
1656.97241	20442.6125
1660.25446	18119.5125
1663.53433	16597.0125
1666.81203	15743.1125
1670.08756	15227.2125
1673.36092	14911.4125
1676.63211	14724.2125
1679.90115	14529.4125
1683.16801	14430.2125
1686.43272	14356.3125
1689.69527	14267.7125
1692.95567	14154.2125
1696.2139	14117.7125
1699.46999	14032.5125
1702.72392	14043.4125
1705.97571	14044.4125
1709.22535	14093.2125
1712.47284	14124.3125
1715.71819	14131.8125
1718.96139	14119.4125
1722.20246	14118.9125
1725.44139	14095.8125
1728.67818	14045.5125
1731.91284	13980.8125
1735.14537	13912.0125
1738.37576	13896.1125
1741.60403	13869.1125
1744.83017	13820.0125
1748.05418	13787.4125
1751.27607	13746.3125
1754.49584	13734.8125
1757.71349	13727.6125
1760.92903	13699.0125
1764.14244	13665.5125
1767.35375	13690.3125
1770.56294	13686.7125
1773.77002	13682.9125
1776.97499	13680.1125
1780.17785	13700.4125
1783.37861	13724.9125
1786.57727	13719.2125
1789.77382	13703.5125
1792.96828	13706.4125
1796.16064	13666.2125
1799.3509	13674.2125
1802.53907	13667.9125
1805.72514	13632.2125
1808.90913	13598.1125
1812.09102	13604.6125
1815.27083	13551.3125
1818.44856	13549.4125
1821.6242	13530.6125
1824.79776	13528.0125
1827.96924	13510.9125
1831.13864	13526.5125
1834.30597	13518.0125
1837.47122	13524.1125
1840.6344	13520.7125
1843.7955	13501.7125
1846.95454	13511.7125
1850.11151	13507.5125
1853.26642	13505.2125
1856.41926	13505.9125
1859.57004	13533.8125
1862.71876	13476.7125
1865.86542	13503.4125
1869.01003	13503.7125
1872.15258	13505.6125
1875.29308	13492.1125
1878.43152	13507.3125
1881.56792	13501.9125
1884.70227	13467.8125
1887.83457	13475.1125
1890.96482	13449.0125
1894.09304	13433.5125
1897.21921	13442.6125
1900.34335	13430.2125
1903.46544	13409.6125
1906.58551	13448.8125
1909.70353	13441.1125
1912.81953	13409.9125
1915.93349	13441.2125
1919.04543	13415.8125
1922.15534	13385.8125
1925.26322	13343.1125
1928.36908	13358.0125
1931.47292	13332.0125
1934.57473	13330.3125
1937.67453	13313.3125
1940.77232	13288.2125
1943.86808	13238.2125
1946.96184	13207.6125
1950.05358	13174.7125
1953.14331	13161.0125
1956.23103	13112.8125
1959.31675	13133.4125
1962.40046	13092.9125
1965.48217	13030.4125
1968.56188	13013.3125
1971.63959	13015.6125
1974.7153	12973.3125
1977.78901	12948.3125
1980.86073	12908.6125
1983.93046	12879.7125
1986.99819	12851.9125
1990.06394	12806.0125
1993.1277	12767.6125
1996.18947	12740.5125
1999.24925	12718.8125
2002.30706	12668.2125
2005.36288	12654.0125
2008.41672	12641.3125
2011.46859	12615.6125
2014.51848	12591.5125
2017.56639	12573.9125
2020.61233	12524.5125
2023.6563	12525.3125
2026.6983	12512.6125
2029.73833	12480.6125
2032.7764	12466.4125
2035.8125	12489.9125
2038.84664	12467.5125
2041.87881	12466.8125
2044.90903	12452.8125
2047.93729	12425.9125
2050.96359	12422.2125
2053.98794	12405.5125
2057.01034	12387.6125
2060.03078	12385.9125
2063.04927	12362.0125
2066.06582	12410.3125
2069.08042	12404.4125
2072.09307	12369.9125
2075.10378	12371.4125
2078.11255	12378.9125
2081.11938	12385.7125
2084.12426	12372.9125
2087.12722	12372.7125
2090.12824	12385.9125
2093.12732	12406.7125
2096.12447	12402.9125
2099.11969	12382.6125
2102.11299	12398.6125
2105.10435	12432.7125
2108.09379	12423.5125
2111.08131	12451.2125
2114.0669	12459.2125
2117.05057	12457.2125
2120.03233	12448.7125
2123.01216	12476.6125
2125.99008	12513.0125
2128.96609	12514.8125
2131.94018	12548.4125
2134.91236	12533.0125
2137.88263	12546.2125
2140.851	12556.1125
2143.81746	12610.4125
2146.78201	12610.6125
2149.74466	12620.8125
2152.7054	12656.6125
2155.66425	12626.4125
2158.6212	12622.4125
2161.57625	12622.9125
2164.52941	12640.1125
2167.48067	12616.8125
2170.43004	12617.1125
2173.37752	12613.3125
2176.32311	12633.3125
2179.26681	12638.4125
2182.20863	12640.6125
2185.14856	12659.3125
2188.08661	12676.6125
2191.02278	12699.9125
2193.95707	12702.0125
2196.88948	12691.8125
2199.82001	12707.6125
2202.74867	12709.0125
2205.67545	12746.4125
2208.60037	12708.4125
2211.52341	12717.7125
2214.44458	12703.9125
2217.36388	12691.0125
2220.28132	12689.8125
2223.1969	12658.2125
2226.11061	12669.9125
2229.02246	12641.1125
2231.93245	12623.0125
2234.84058	12629.4125
2237.74686	12619.1125
2240.65128	12592.9125
2243.55385	12575.2125
2246.45456	12545.1125
2249.35343	12542.7125
2252.25044	12536.6125
2255.14561	12530.8125
2258.03893	12503.9125
2260.93041	12483.4125
2263.82004	12469.9125
2266.70783	12443.2125
2269.59378	12423.8125
2272.4779	12421.2125
2275.36017	12432.4125
2278.24061	12391.7125
2281.11922	12365.8125
2283.996	12389.1125
2286.87094	12366.2125
2289.74405	12359.5125
2292.61534	12358.1125
2295.4848	12394.0125
2298.35243	12360.4125
2301.21824	12389.9125
2304.08223	12420.1125
2306.94439	12434.6125
2309.80474	12410.9125
2312.66327	12458.0125
2315.51999	12462.4125
2318.37489	12477.4125
2321.22797	12464.5125
2324.07925	12456.2125
2326.92871	12485.0125
2329.77637	12476.0125
2332.62222	12454.2125
2335.46626	12443.3125
2338.3085	12413.5125
2341.14893	12468.2125
2343.98756	12463.0125
2346.8244	12441.7125
2349.65943	12432.0125
2352.49267	12431.3125
2355.32411	12413.8125
2358.15376	12414.5125
2360.98161	12389.4125
2363.80768	12366.9125
2366.63195	12367.8125
2369.45444	12337.3125
2372.27514	12351.2125
2375.09405	12318.3125
2377.91118	12288.5125
2380.72652	12245.0125
2383.54009	12259.3125
2386.35187	12258.1125
2389.16188	12225.5125
2391.97011	12224.7125
2394.77657	12215.6125
2397.58125	12211.2125
2400.38416	12197.0125
2403.18529	12172.0125
2405.98466	12147.8125
2408.78226	12131.2125
2411.57809	12119.0125
2414.37216	12094.1125
2417.16446	12086.4125
2419.955	12070.9125
2422.74378	12094.8125
2425.5308	12076.6125
2428.31606	12081.3125
2431.09956	12095.7125
2433.88131	12053.9125
2436.6613	12026.3125
2439.43954	12098.4125
2442.21603	12079.6125
2444.99077	12047.5125
2447.76377	12061.0125
2450.53501	12061.1125
2453.30451	12073.4125
2456.07226	12052.3125
2458.83827	12033.4125
2461.60254	12044.6125
2464.36507	12040.4125
2467.12586	12068.8125
2469.88492	12086.9125
2472.64224	12080.8125
2475.39782	12101.6125
2478.15167	12090.1125
2480.90379	12102.3125
2483.65417	12118.2125
2486.40283	12117.3125
2489.14976	12107.8125
2491.89497	12120.2125
2494.63845	12112.4125
2497.3802	12147.2125
2500.12024	12109.0125
2502.85855	12120.5125
2505.59514	12115.6125
2508.33002	12090.8125
2511.06318	12087.8125
2513.79462	12061.5125
2516.52435	12063.7125
2519.25237	12070.8125
2521.97867	12072.5125
2524.70327	12089.4125
2527.42616	12064.8125
2530.14734	12055.6125
2532.86681	12042.4125
2535.58458	12081.8125
2538.30065	12052.4125
2541.01501	12029.9125
2543.72768	12062.6125
2546.43864	12028.3125
2549.14791	12036.1125
2551.85548	12023.0125
2554.56136	12001.5125
2557.26554	11994.4125
2559.96803	12006.9125
2562.66883	12012.9125
2565.36794	11996.4125
2568.06536	11977.8125
2570.7611	11990.6125
2573.45514	11968.5125
2576.14751	11983.2125
2578.83819	12013.4125
2581.52719	12023.6125
2584.21451	12013.0125
2586.90015	12019.8125
2589.58411	11977.5125
2592.2664	11968.2125
2594.94701	11966.4125
2597.62594	11941.9125
2600.30321	11959.5125
2602.9788	11942.1125
2605.65273	11922.4125
2608.32498	11913.3125
2610.99557	11924.2125
2613.66449	11933.9125
2616.33175	11935.5125
2618.99734	11941.9125
2621.66128	11909.4125
2624.32355	11920.0125
2626.98416	11919.7125
2629.64311	11921.7125
2632.30041	11902.2125
2634.95605	11873.0125
2637.61004	11881.0125
2640.26238	11862.1125
2642.91306	11857.2125
2645.56209	11835.6125
2648.20948	11810.4125
2650.85521	11811.8125
2653.4993	11851.5125
2656.14175	11819.5125
2658.78255	11846.2125
2661.42171	11862.0125
2664.05923	11871.2125
2666.6951	11902.9125
2669.32934	11932.7125
2671.96194	11902.7125
2674.59291	11898.8125
2677.22224	11885.9125
2679.84993	11880.3125
2682.476	11878.1125
2685.10043	11844.1125
2687.72324	11848.2125
2690.34441	11851.5125
2692.96396	11852.2125
2695.58188	11867.7125
2698.19818	11850.8125
2700.81285	11840.2125
2703.4259	11826.3125
2706.03733	11840.5125
2708.64714	11847.2125
2711.25533	11867.0125
2713.86191	11854.1125
2716.46687	11864.9125
2719.07021	11899.7125
2721.67194	11915.2125
2724.27206	11904.5125
2726.87057	11947.2125
2729.46747	11937.6125
2732.06276	11933.0125
2734.65644	11935.2125
2737.24852	11947.1125
2739.83899	11936.1125
2742.42786	11945.4125
2745.01513	11925.4125
2747.60079	11934.9125
2750.18486	11916.3125
2752.76733	11896.6125
2755.3482	11914.6125
2757.92747	11909.5125
2760.50515	11912.7125
2763.08123	11933.5125
2765.65573	11906.6125
2768.22863	11921.6125
2770.79994	11930.2125
2773.36967	11912.3125
2775.9378	11925.6125
2778.50435	11929.0125
2781.06932	11890.5125
2783.6327	11926.4125
2786.1945	11897.8125
2788.75471	11896.0125
2791.31335	11873.3125
2793.87041	11902.9125
2796.42589	11859.5125
2798.97979	11869.2125
2801.53212	11824.8125
2804.08288	11821.2125
2806.63206	11807.5125
2809.17967	11790.4125
2811.72571	11758.3125
2814.27018	11726.8125
2816.81308	11738.0125
2819.35442	11712.5125
2821.89419	11719.2125
2824.43239	11731.1125
2826.96904	11722.2125
2829.50412	11739.6125
2832.03763	11710.2125
2834.56959	11722.9125
2837.1	11720.0125
2839.62884	11704.1125
2842.15613	11709.1125
2844.68186	11767.2125
2847.20604	11748.2125
2849.72867	11806.1125
2852.24974	11786.6125
2854.76927	11759.4125
2857.28724	11761.3125
2859.80367	11776.9125
2862.31855	11733.9125
2864.83189	11758.1125
2867.34368	11753.5125
2869.85393	11787.5125
2872.36264	11769.0125
2874.8698	11775.2125
2877.37543	11766.5125
2879.87952	11794.3125
2882.38207	11816.8125
2884.88308	11818.8125
2887.38256	11848.8125
2889.88051	11834.7125
2892.37692	11851.7125
2894.8718	11864.4125
2897.36515	11883.5125
2899.85698	11888.9125
2902.34727	11908.5125
2904.83604	11941.6125
2907.32328	11948.3125
2909.809	11919.6125
2912.29319	11925.9125
2914.77587	11942.9125
2917.25702	11913.8125
2919.73665	11910.1125
2922.21476	11902.6125
2924.69136	11896.5125
2927.16644	11893.2125
2929.64	11886.3125
2932.11205	11877.6125
2934.58258	11859.6125
2937.05161	11876.3125
2939.51912	11883.7125
2941.98513	11850.9125
2944.44962	11814.9125
2946.91261	11784.0125
2949.37409	11781.8125
2951.83407	11770.9125
2954.29254	11757.5125
2956.74951	11763.6125
2959.20498	11743.0125
2961.65895	11724.9125
2964.11142	11729.7125
2966.56239	11689.4125
2969.01186	11699.7125
2971.45984	11658.7125
2973.90632	11652.9125
2976.35131	11632.6125
2978.7948	11575.1125
2981.23681	11571.4125
2983.67732	11599.3125
2986.11635	11529.5125
2988.55388	11521.1125
2990.98993	11482.8125
2993.4245	11478.2125
2995.85758	11464.4125
2998.28917	11448.6125
3000.71928	11392.3125
3003.14791	11398.5125
3005.57506	11395.4125
3008.00073	11371.9125
3010.42493	11356.9125
3012.84764	11384.2125
3015.26888	11355.2125
3017.68865	11354.0125
3020.10694	11330.5125
3022.52376	11325.9125
3024.9391	11311.1125
