Data from AgNPs_FTO_APTES_UA_1uM_CRN_200uM_R6G_10uM_NaF_0.1M_Addition_RamanShift__10__17-16-39-826.txt Node

Date: Thu Jan 27 17:16:39 GMT 2022
User: TCL
Spectrometer: QEP01345
Trigger mode: 4
Integration Time (sec): 7.000000E0
Scans to average: 10
Electric dark correction enabled: true
Nonlinearity correction enabled: false
Boxcar width: 0
XAxis mode: Raman Shifts
Number of Pixels in Spectrum: 1044
>>>>>Begin Spectral Data<<<<<
46.04893	1.7125
50.45542	0.5125
54.85868	-0.5875
59.25871	-1.9875
63.6555	39.2125
68.04907	45.2125
72.43941	45.0125
76.82654	49.1125
81.21044	50.5125
85.59113	50.3125
89.96862	52.7125
94.34289	52.8125
98.71396	56.2125
103.08183	55.3125
107.4465	58.8125
111.80798	62.2125
116.16626	59.9125
120.52136	65.4125
124.87327	67.1125
129.222	65.9125
133.56755	70.4125
137.90993	74.3125
142.24913	77.6125
146.58517	82.9125
150.91804	95.7125
155.24774	109.0125
159.57429	129.4125
163.89768	161.8125
168.21792	210.3125
172.53501	283.2125
176.84895	385.2125
181.15975	530.0125
185.46741	749.6125
189.77193	1029.5125
194.07331	1387.8125
198.37157	1789.9125
202.6667	2235.1125
206.9587	2660.4125
211.24758	3084.4125
215.53334	3511.7125
219.81599	3928.8125
224.09553	4399.3125
228.37195	4918.7125
232.64527	5500.5125
236.91549	6107.5125
241.18261	6733.3125
245.44663	7329.3125
249.70755	7904.1125
253.96539	8363.0125
258.22014	8786.4125
262.4718	9087.7125
266.72039	9326.0125
270.96589	9394.1125
275.20832	9400.4125
279.44768	9303.2125
283.68397	9207.2125
287.91719	9087.2125
292.14735	8989.0125
296.37445	8899.8125
300.59849	8874.2125
304.81948	8885.7125
309.03742	8884.9125
313.25231	8843.5125
317.46415	8721.7125
321.67296	8563.0125
325.87872	8434.3125
330.08145	8376.5125
334.28114	8381.2125
338.47781	8428.5125
342.67145	8530.7125
346.86207	8644.4125
351.04966	8803.4125
355.23424	8940.6125
359.4158	9030.7125
363.59435	9123.7125
367.76989	9194.3125
371.94243	9246.2125
376.11196	9274.8125
380.27849	9352.0125
384.44203	9385.9125
388.60257	9435.7125
392.76012	9508.3125
396.91468	9608.2125
401.06626	9728.0125
405.21485	9852.9125
409.36047	9836.4125
413.50311	9732.9125
417.64277	9693.0125
421.77947	9659.5125
425.9132	9708.8125
430.04396	9764.6125
434.17176	9777.9125
438.2966	9833.7125
442.41849	9882.3125
446.53742	10005.2125
450.6534	10110.4125
454.76644	10221.0125
458.87653	10250.9125
462.98368	10268.6125
467.08789	10222.9125
471.18916	10144.6125
475.2875	10053.2125
479.38291	10015.5125
483.4754	9946.5125
487.56496	9857.0125
491.6516	9833.8125
495.73531	9813.3125
499.81612	9824.4125
503.89401	9871.1125
507.96899	9916.3125
512.04106	9920.8125
516.11023	9915.7125
520.1765	9884.6125
524.23987	9854.4125
528.30034	9774.7125
532.35792	9757.7125
536.41261	9693.0125
540.46441	9626.1125
544.51333	9592.8125
548.55936	9654.9125
552.60252	9778.2125
556.64279	9906.9125
560.6802	9983.3125
564.71473	9978.6125
568.7464	10034.8125
572.7752	10112.7125
576.80114	10272.3125
580.82422	10470.6125
584.84444	10771.5125
588.86181	11119.1125
592.87633	11384.5125
596.888	11347.3125
600.89682	11077.1125
604.9028	10972.5125
608.90594	11445.4125
612.90624	12153.4125
616.90371	11819.6125
620.89834	10493.6125
624.89015	9875.7125
628.87913	9799.7125
632.86528	9839.0125
636.84862	9918.4125
640.82913	9863.0125
644.80683	9734.5125
648.78172	9654.7125
652.75379	9636.8125
656.72306	9693.0125
660.68952	9788.5125
664.65319	9777.9125
668.61405	9703.7125
672.57211	9702.8125
676.52738	9727.7125
680.47986	9755.8125
684.42955	9728.2125
688.37646	9698.1125
692.32058	9673.5125
696.26192	9725.7125
700.20048	9757.3125
704.13626	9790.3125
708.06928	9821.8125
711.99952	9789.8125
715.927	9805.9125
719.85171	9778.2125
723.77365	9781.0125
727.69284	9705.9125
731.60928	9657.9125
735.52295	9645.0125
739.43388	9621.2125
743.34206	9665.3125
747.24749	9670.4125
751.15017	9707.0125
755.05012	9786.9125
758.94733	9943.4125
762.8418	10219.8125
766.73354	10677.3125
770.62254	11222.2125
774.50882	11427.9125
778.39237	11200.4125
782.27321	10681.1125
786.15132	10180.1125
790.02671	9863.9125
793.89938	9710.7125
797.76935	9636.0125
801.6366	9607.8125
805.50115	9558.5125
809.36299	9521.9125
813.22213	9495.6125
817.07857	9488.3125
820.93231	9435.9125
824.78336	9456.1125
828.63172	9430.1125
832.47738	9416.1125
836.32036	9423.7125
840.16066	9438.6125
843.99827	9420.3125
847.8332	9408.5125
851.66546	9433.7125
855.49504	9429.5125
859.32195	9422.5125
863.1462	9414.2125
866.96777	9429.4125
870.78668	9413.6125
874.60293	9423.0125
878.41652	9428.9125
882.22745	9439.1125
886.03573	9500.6125
889.84136	9504.1125
893.64433	9486.2125
897.44466	9453.1125
901.24235	9456.2125
905.0374	9410.0125
908.8298	9366.2125
912.61957	9371.0125
916.40671	9393.4125
920.19121	9453.5125
923.97308	9527.2125
927.75233	9555.3125
931.52895	9513.7125
935.30295	9466.0125
939.07433	9354.4125
942.84309	9244.1125
946.60924	9150.8125
950.37278	9141.8125
954.13371	9093.7125
957.89203	9091.6125
961.64774	9077.9125
965.40086	9089.3125
969.15137	9024.3125
972.89929	9020.4125
976.64461	8982.9125
980.38733	8950.8125
984.12747	8942.6125
987.86502	8968.8125
991.59999	8997.1125
995.33237	9011.2125
999.06217	9082.5125
1002.78939	9137.7125
1006.51404	9225.7125
1010.23611	9319.4125
1013.95561	9399.8125
1017.67255	9425.2125
1021.38692	9403.2125
1025.09872	9344.4125
1028.80796	9256.7125
1032.51465	9195.8125
1036.21877	9211.4125
1039.92035	9220.3125
1043.61937	9265.1125
1047.31584	9308.5125
1051.00976	9347.8125
1054.70114	9376.0125
1058.38998	9389.7125
1062.07627	9424.4125
1065.76003	9496.7125
1069.44126	9592.7125
1073.11995	9708.9125
1076.79611	9820.4125
1080.46974	9837.1125
1084.14085	9809.7125
1087.80943	9820.0125
1091.47549	9826.3125
1095.13903	9868.1125
1098.80005	9800.2125
1102.45857	9660.8125
1106.11456	9552.6125
1109.76805	9462.7125
1113.41903	9452.5125
1117.06751	9482.2125
1120.71348	9553.6125
1124.35696	9674.0125
1127.99793	9790.3125
1131.63641	9913.6125
1135.2724	9804.5125
1138.90589	9675.7125
1142.5369	9608.6125
1146.16542	9611.9125
1149.79145	9580.6125
1153.415	9602.2125
1157.03607	9634.3125
1160.65467	9763.3125
1164.27079	9956.9125
1167.88443	10267.1125
1171.49561	10578.0125
1175.10432	11023.2125
1178.71056	11577.7125
1182.31434	12146.8125
1185.91565	12414.7125
1189.51451	12400.5125
1193.11091	12183.8125
1196.70485	11845.0125
1200.29634	11515.6125
1203.88538	11215.5125
1207.47197	10971.5125
1211.05612	10768.1125
1214.63782	10583.8125
1218.21708	10442.5125
1221.79391	10297.0125
1225.36829	10187.0125
1228.94024	10161.2125
1232.50976	10133.3125
1236.07685	10116.4125
1239.6415	10063.7125
1243.20374	10064.3125
1246.76355	10044.8125
1250.32093	10103.6125
1253.8759	10192.2125
1257.42845	10332.8125
1260.97859	10517.7125
1264.52631	10659.8125
1268.07163	10841.4125
1271.61453	11010.5125
1275.15503	11153.9125
1278.69312	11314.1125
1282.22882	11511.7125
1285.76211	11705.5125
1289.29301	11979.6125
1292.82151	12289.0125
1296.34761	12689.8125
1299.87133	13099.1125
1303.39266	13619.1125
1306.9116	14141.4125
1310.42815	14603.7125
1313.94233	14858.9125
1317.45412	14734.4125
1320.96354	14403.2125
1324.47058	14116.9125
1327.97525	13797.0125
1331.47754	13629.6125
1334.97747	13527.7125
1338.47502	13422.8125
1341.97022	13422.7125
1345.46305	13443.7125
1348.95352	13574.0125
1352.44163	13859.2125
1355.92738	14300.8125
1359.41078	14942.3125
1362.89183	15505.2125
1366.37053	15383.8125
1369.84688	14477.3125
1373.32088	13171.0125
1376.79254	12151.7125
1380.26186	11621.4125
1383.72883	11393.5125
1387.19347	11246.2125
1390.65578	11048.5125
1394.11575	10912.0125
1397.57339	10908.7125
1401.0287	10980.4125
1404.48168	11034.1125
1407.93234	11023.2125
1411.38068	10940.6125
1414.82669	10793.2125
1418.27039	10561.3125
1421.71177	10363.0125
1425.15083	10206.1125
1428.58758	10098.0125
1432.02203	10098.0125
1435.45416	10185.3125
1438.88399	10298.0125
1442.31151	10384.6125
1445.73673	10382.0125
1449.15965	10421.4125
1452.58027	10419.0125
1455.9986	10438.4125
1459.41463	10450.2125
1462.82837	10576.3125
1466.23982	10731.3125
1469.64898	10890.7125
1473.05586	11020.9125
1476.46045	11075.4125
1479.86276	11148.7125
1483.26279	11171.1125
1486.66054	11239.2125
1490.05602	11364.8125
1493.44922	11601.7125
1496.84016	11891.8125
1500.22882	12331.0125
1503.61521	12894.1125
1506.99934	13455.9125
1510.38121	13847.2125
1513.76081	13857.4125
1517.13816	13462.0125
1520.51324	12842.8125
1523.88607	12312.9125
1527.25665	11989.0125
1530.62498	11786.3125
1533.99105	11626.9125
1537.35488	11467.6125
1540.71647	11292.3125
1544.07581	11116.2125
1547.4329	10972.5125
1550.78776	10796.6125
1554.14038	10683.3125
1557.49077	10629.6125
1560.83892	10624.8125
1564.18484	10624.6125
1567.52853	10714.6125
1570.86999	10831.6125
1574.20922	10984.5125
1577.54624	11051.6125
1580.88103	10971.4125
1584.2136	10810.5125
1587.54395	10735.1125
1590.87208	10886.4125
1594.19801	11269.4125
1597.52172	11683.6125
1600.84321	11949.3125
1604.16251	11769.1125
1607.47959	11290.4125
1610.79447	10725.5125
1614.10715	10184.9125
1617.41763	9710.5125
1620.7259	9389.0125
1624.03199	9161.0125
1627.33587	9100.5125
1630.63757	9178.9125
1633.93707	9404.0125
1637.23439	9853.9125
1640.52951	10559.1125
1643.82246	11558.8125
1647.11321	12539.6125
1650.40179	12996.9125
1653.68819	12589.9125
1656.97241	11477.2125
1660.25446	10318.6125
1663.53433	9402.6125
1666.81203	8865.3125
1670.08756	8550.7125
1673.36092	8334.3125
1676.63211	8210.4125
1679.90115	8108.3125
1683.16801	8043.6125
1686.43272	7961.1125
1689.69527	7912.7125
1692.95567	7880.0125
1696.2139	7827.6125
1699.46999	7771.2125
1702.72392	7725.9125
1705.97571	7745.5125
1709.22535	7758.8125
1712.47284	7774.6125
1715.71819	7784.0125
1718.96139	7789.8125
1722.20246	7790.8125
1725.44139	7739.1125
1728.67818	7704.0125
1731.91284	7682.3125
1735.14537	7662.9125
1738.37576	7629.2125
1741.60403	7612.1125
1744.83017	7599.3125
1748.05418	7585.5125
1751.27607	7545.9125
1754.49584	7549.1125
1757.71349	7537.9125
1760.92903	7529.3125
1764.14244	7532.4125
1767.35375	7506.6125
1770.56294	7487.6125
1773.77002	7465.3125
1776.97499	7454.4125
1780.17785	7466.7125
1783.37861	7459.2125
1786.57727	7439.1125
1789.77382	7430.8125
1792.96828	7418.9125
1796.16064	7390.1125
1799.3509	7367.3125
1802.53907	7375.5125
1805.72514	7366.9125
1808.90913	7315.9125
1812.09102	7307.8125
1815.27083	7302.7125
1818.44856	7292.6125
1821.6242	7270.6125
1824.79776	7251.6125
1827.96924	7262.0125
1831.13864	7251.3125
1834.30597	7265.6125
1837.47122	7240.8125
1840.6344	7248.9125
1843.7955	7218.3125
1846.95454	7223.6125
1850.11151	7200.6125
1853.26642	7208.3125
1856.41926	7210.3125
1859.57004	7187.7125
1862.71876	7196.6125
1865.86542	7190.0125
1869.01003	7167.4125
1872.15258	7186.6125
1875.29308	7170.3125
1878.43152	7136.5125
1881.56792	7145.9125
1884.70227	7132.8125
1887.83457	7086.8125
1890.96482	7109.6125
1894.09304	7088.1125
1897.21921	7078.9125
1900.34335	7064.9125
1903.46544	7068.7125
1906.58551	7045.9125
1909.70353	7040.7125
1912.81953	7025.2125
1915.93349	7029.7125
1919.04543	6999.9125
1922.15534	6996.0125
1925.26322	6979.1125
1928.36908	6959.2125
1931.47292	6952.8125
1934.57473	6935.0125
1937.67453	6911.8125
1940.77232	6905.3125
1943.86808	6863.4125
1946.96184	6881.7125
1950.05358	6840.3125
1953.14331	6830.9125
1956.23103	6806.8125
1959.31675	6790.0125
1962.40046	6773.6125
1965.48217	6750.2125
1968.56188	6727.2125
1971.63959	6710.8125
1974.7153	6705.0125
1977.78901	6677.1125
1980.86073	6650.6125
1983.93046	6627.8125
1986.99819	6585.9125
1990.06394	6586.9125
1993.1277	6578.5125
1996.18947	6533.2125
1999.24925	6508.7125
2002.30706	6509.7125
2005.36288	6483.2125
2008.41672	6457.0125
2011.46859	6431.5125
2014.51848	6431.4125
2017.56639	6403.1125
2020.61233	6395.3125
2023.6563	6378.6125
2026.6983	6362.1125
2029.73833	6356.3125
2032.7764	6322.4125
2035.8125	6290.3125
2038.84664	6288.0125
2041.87881	6279.6125
2044.90903	6276.1125
2047.93729	6247.5125
2050.96359	6228.4125
2053.98794	6220.9125
2057.01034	6242.1125
2060.03078	6226.3125
2063.04927	6229.1125
2066.06582	6225.6125
2069.08042	6215.9125
2072.09307	6210.1125
2075.10378	6188.9125
2078.11255	6192.3125
2081.11938	6187.1125
2084.12426	6193.6125
2087.12722	6176.3125
2090.12824	6172.0125
2093.12732	6190.4125
2096.12447	6177.5125
2099.11969	6169.4125
2102.11299	6188.5125
2105.10435	6190.8125
2108.09379	6192.1125
2111.08131	6190.4125
2114.0669	6188.1125
2117.05057	6196.2125
2120.03233	6195.4125
2123.01216	6205.8125
2125.99008	6214.9125
2128.96609	6213.2125
2131.94018	6217.4125
2134.91236	6218.2125
2137.88263	6217.5125
2140.851	6233.9125
2143.81746	6223.1125
2146.78201	6204.3125
2149.74466	6215.9125
2152.7054	6213.2125
2155.66425	6213.4125
2158.6212	6192.8125
2161.57625	6189.2125
2164.52941	6206.6125
2167.48067	6197.9125
2170.43004	6183.6125
2173.37752	6204.7125
2176.32311	6198.5125
2179.26681	6189.7125
2182.20863	6201.9125
2185.14856	6198.3125
2188.08661	6186.9125
2191.02278	6187.5125
2193.95707	6181.7125
2196.88948	6183.3125
2199.82001	6158.2125
2202.74867	6149.9125
2205.67545	6166.2125
2208.60037	6138.6125
2211.52341	6113.7125
2214.44458	6098.2125
2217.36388	6105.4125
2220.28132	6094.0125
2223.1969	6080.0125
2226.11061	6080.7125
2229.02246	6049.5125
2231.93245	6042.5125
2234.84058	6025.5125
2237.74686	6020.2125
2240.65128	6021.8125
2243.55385	6030.5125
2246.45456	6001.4125
2249.35343	5985.7125
2252.25044	5982.1125
2255.14561	5964.9125
2258.03893	5971.6125
2260.93041	5956.6125
2263.82004	5927.0125
2266.70783	5933.0125
2269.59378	5922.3125
2272.4779	5901.5125
2275.36017	5876.4125
2278.24061	5893.2125
2281.11922	5884.0125
2283.996	5846.9125
2286.87094	5823.6125
2289.74405	5835.8125
2292.61534	5811.8125
2295.4848	5804.9125
2298.35243	5812.3125
2301.21824	5810.6125
2304.08223	5790.0125
2306.94439	5801.1125
2309.80474	5790.4125
2312.66327	5768.9125
2315.51999	5764.6125
2318.37489	5758.5125
2321.22797	5764.5125
2324.07925	5760.6125
2326.92871	5735.4125
2329.77637	5734.2125
2332.62222	5721.2125
2335.46626	5704.7125
2338.3085	5702.6125
2341.14893	5679.0125
2343.98756	5679.7125
2346.8244	5667.1125
2349.65943	5664.8125
2352.49267	5666.5125
2355.32411	5668.9125
2358.15376	5646.2125
2360.98161	5649.2125
2363.80768	5662.7125
2366.63195	5659.0125
2369.45444	5657.6125
2372.27514	5635.1125
2375.09405	5628.4125
2377.91118	5627.5125
2380.72652	5617.2125
2383.54009	5600.2125
2386.35187	5594.9125
2389.16188	5566.2125
2391.97011	5562.9125
2394.77657	5544.5125
2397.58125	5522.9125
2400.38416	5521.7125
2403.18529	5518.5125
2405.98466	5496.6125
2408.78226	5513.9125
2411.57809	5496.4125
2414.37216	5495.4125
2417.16446	5493.4125
2419.955	5481.5125
2422.74378	5480.1125
2425.5308	5464.4125
2428.31606	5453.1125
2431.09956	5448.3125
2433.88131	5454.8125
2436.6613	5444.7125
2439.43954	5450.7125
2442.21603	5436.7125
2444.99077	5420.4125
2447.76377	5429.5125
2450.53501	5414.4125
2453.30451	5416.0125
2456.07226	5397.2125
2458.83827	5395.1125
2461.60254	5407.4125
2464.36507	5364.9125
2467.12586	5381.4125
2469.88492	5380.4125
2472.64224	5365.7125
2475.39782	5368.0125
2478.15167	5356.9125
2480.90379	5347.8125
2483.65417	5356.7125
2486.40283	5360.4125
2489.14976	5348.5125
2491.89497	5334.0125
2494.63845	5345.4125
2497.3802	5324.2125
2500.12024	5324.2125
2502.85855	5323.2125
2505.59514	5326.4125
2508.33002	5316.5125
2511.06318	5298.1125
2513.79462	5300.5125
2516.52435	5279.7125
2519.25237	5278.6125
2521.97867	5269.0125
2524.70327	5261.6125
2527.42616	5230.1125
2530.14734	5246.3125
2532.86681	5226.5125
2535.58458	5238.1125
2538.30065	5213.3125
2541.01501	5213.3125
2543.72768	5216.1125
2546.43864	5203.0125
2549.14791	5167.9125
2551.85548	5188.1125
2554.56136	5183.5125
2557.26554	5162.3125
2559.96803	5155.9125
2562.66883	5156.1125
2565.36794	5141.0125
2568.06536	5139.6125
2570.7611	5117.8125
2573.45514	5102.7125
2576.14751	5110.2125
2578.83819	5076.1125
2581.52719	5084.1125
2584.21451	5071.6125
2586.90015	5067.7125
2589.58411	5053.0125
2592.2664	5051.8125
2594.94701	5051.5125
2597.62594	5020.3125
2600.30321	5026.6125
2602.9788	5033.7125
2605.65273	4996.9125
2608.32498	4999.0125
2610.99557	4993.4125
2613.66449	4973.0125
2616.33175	4971.4125
2618.99734	4962.5125
2621.66128	4970.8125
2624.32355	4956.5125
2626.98416	4954.6125
2629.64311	4952.6125
2632.30041	4927.6125
2634.95605	4911.5125
2637.61004	4908.1125
2640.26238	4914.5125
2642.91306	4906.6125
2645.56209	4900.7125
2648.20948	4906.2125
2650.85521	4890.6125
2653.4993	4894.2125
2656.14175	4891.1125
2658.78255	4903.3125
2661.42171	4907.8125
2664.05923	4893.4125
2666.6951	4899.6125
2669.32934	4911.4125
2671.96194	4890.4125
2674.59291	4903.2125
2677.22224	4870.9125
2679.84993	4895.3125
2682.476	4874.4125
2685.10043	4870.4125
2687.72324	4857.2125
2690.34441	4874.2125
2692.96396	4874.9125
2695.58188	4886.4125
2698.19818	4871.4125
2700.81285	4883.1125
2703.4259	4880.1125
2706.03733	4853.0125
2708.64714	4878.0125
2711.25533	4860.8125
2713.86191	4856.8125
2716.46687	4873.4125
2719.07021	4871.0125
2721.67194	4879.9125
2724.27206	4867.1125
2726.87057	4871.9125
2729.46747	4878.0125
2732.06276	4874.1125
2734.65644	4845.2125
2737.24852	4855.3125
2739.83899	4848.5125
2742.42786	4848.0125
2745.01513	4824.5125
2747.60079	4840.9125
2750.18486	4830.0125
2752.76733	4830.6125
2755.3482	4818.2125
2757.92747	4826.7125
2760.50515	4797.8125
2763.08123	4779.7125
2765.65573	4798.4125
2768.22863	4790.5125
2770.79994	4801.9125
2773.36967	4766.6125
2775.9378	4761.4125
2778.50435	4754.8125
2781.06932	4750.7125
2783.6327	4750.7125
2786.1945	4732.0125
2788.75471	4740.7125
2791.31335	4715.1125
2793.87041	4715.9125
2796.42589	4705.3125
2798.97979	4680.0125
2801.53212	4691.7125
2804.08288	4704.5125
2806.63206	4676.0125
2809.17967	4666.9125
2811.72571	4654.3125
2814.27018	4644.1125
2816.81308	4654.1125
2819.35442	4634.5125
2821.89419	4636.3125
2824.43239	4620.1125
2826.96904	4611.4125
2829.50412	4626.2125
2832.03763	4615.6125
2834.56959	4633.6125
2837.1	4612.6125
2839.62884	4623.4125
2842.15613	4640.7125
2844.68186	4660.3125
2847.20604	4685.1125
2849.72867	4674.2125
2852.24974	4673.7125
2854.76927	4661.5125
2857.28724	4674.3125
2859.80367	4657.7125
2862.31855	4653.1125
2864.83189	4640.5125
2867.34368	4649.4125
2869.85393	4635.4125
2872.36264	4633.0125
2874.8698	4642.6125
2877.37543	4625.0125
2879.87952	4623.7125
2882.38207	4611.1125
2884.88308	4605.9125
2887.38256	4609.9125
2889.88051	4612.5125
2892.37692	4605.6125
2894.8718	4611.4125
2897.36515	4628.6125
2899.85698	4620.5125
2902.34727	4640.5125
2904.83604	4628.8125
2907.32328	4631.7125
2909.809	4630.0125
2912.29319	4648.9125
2914.77587	4631.9125
2917.25702	4625.6125
2919.73665	4634.1125
2922.21476	4626.2125
2924.69136	4626.3125
2927.16644	4633.9125
2929.64	4633.4125
2932.11205	4628.5125
2934.58258	4611.0125
2937.05161	4623.9125
2939.51912	4625.8125
2941.98513	4602.1125
2944.44962	4589.5125
2946.91261	4561.7125
2949.37409	4563.5125
2951.83407	4552.9125
2954.29254	4557.6125
2956.74951	4544.4125
2959.20498	4538.9125
2961.65895	4521.7125
2964.11142	4521.6125
2966.56239	4508.3125
2969.01186	4506.8125
2971.45984	4485.5125
2973.90632	4475.1125
2976.35131	4480.4125
2978.7948	4467.1125
2981.23681	4452.2125
2983.67732	4443.2125
2986.11635	4437.4125
2988.55388	4420.0125
2990.98993	4415.9125
2993.4245	4397.1125
2995.85758	4409.9125
2998.28917	4383.3125
3000.71928	4373.5125
3003.14791	4371.0125
3005.57506	4359.1125
3008.00073	4351.4125
3010.42493	4330.3125
3012.84764	4351.3125
3015.26888	4356.8125
3017.68865	4351.8125
3020.10694	4332.5125
3022.52376	4324.2125
3024.9391	4317.9125
3027.35298	4313.7125
3029.76539	4310.7125
3032.17632	4296.8125
3034.5858	4292.0125
3036.9938	4289.6125
3039.40034	4296.3125
3041.80542	4289.3125
3044.20903	4278.2125
3046.61118	4276.7125
3049.01187	4269.4125
3051.4111	4266.4125
3053.80888	4267.9125
3056.20519	4248.4125
3058.60005	4243.5125
3060.99345	4234.0125
3063.3854	4230.8125
3065.7759	4223.4125
3068.16494	4221.5125
3070.55254	4217.4125
3072.93868	4197.1125
3075.32338	4196.8125
3077.70662	4198.6125
3080.08842	4184.7125
3082.46878	4190.9125
3084.84769	4177.3125
3087.22515	4181.6125
3089.60118	4173.9125
3091.97576	4182.6125
3094.3489	4195.3125
3096.72061	4198.9125
3099.09087	4204.1125
3101.4597	4200.0125
3103.82709	4200.2125
3106.19305	4201.0125
