Data from AgNPs_FTO_APTES_UA_1uM_CRN_10uM_R6G_10uM_NaF_0.1M_Addition_RamanShift__28__14-48-29-657.txt Node

Date: Thu Jan 27 14:48:29 GMT 2022
User: TCL
Spectrometer: QEP01345
Trigger mode: 4
Integration Time (sec): 7.000000E0
Scans to average: 10
Electric dark correction enabled: true
Nonlinearity correction enabled: false
Boxcar width: 0
XAxis mode: Raman Shifts
Number of Pixels in Spectrum: 1044
>>>>>Begin Spectral Data<<<<<
46.04893	1.475
50.45542	0.475
54.85868	-0.225
59.25871	-2.025
63.6555	38.875
68.04907	43.475
72.43941	43.075
76.82654	48.075
81.21044	50.675
85.59113	50.675
89.96862	53.675
94.34289	54.175
98.71396	57.775
103.08183	58.175
107.4465	60.975
111.80798	60.875
116.16626	61.975
120.52136	68.875
124.87327	62.975
129.222	64.975
133.56755	69.675
137.90993	69.575
142.24913	74.975
146.58517	82.675
150.91804	97.475
155.24774	105.275
159.57429	130.375
163.89768	160.475
168.21792	202.675
172.53501	272.175
176.84895	373.275
181.15975	509.675
185.46741	710.975
189.77193	975.475
194.07331	1308.275
198.37157	1685.275
202.6667	2080.475
206.9587	2469.675
211.24758	2858.275
215.53334	3259.575
219.81599	3697.875
224.09553	4194.175
228.37195	4726.275
232.64527	5320.475
236.91549	5947.275
241.18261	6533.075
245.44663	7011.075
249.70755	7450.575
253.96539	7817.175
258.22014	8136.575
262.4718	8427.275
266.72039	8694.175
270.96589	8798.475
275.20832	8877.075
279.44768	8824.975
283.68397	8764.975
287.91719	8728.675
292.14735	8724.075
296.37445	8845.275
300.59849	9044.175
304.81948	9266.275
309.03742	9390.175
313.25231	9344.675
317.46415	8962.975
321.67296	8412.275
325.87872	7980.075
330.08145	7735.575
334.28114	7745.775
338.47781	7837.175
342.67145	8013.975
346.86207	8274.875
351.04966	8640.375
355.23424	9082.575
359.4158	9407.675
363.59435	9596.475
367.76989	9674.575
371.94243	9641.175
376.11196	9663.575
380.27849	9617.075
384.44203	9542.875
388.60257	9480.175
392.76012	9484.375
396.91468	9573.375
401.06626	9818.975
405.21485	9987.475
409.36047	9898.075
413.50311	9524.575
417.64277	9210.075
421.77947	9047.975
425.9132	8987.375
430.04396	9002.575
434.17176	9022.675
438.2966	9137.675
442.41849	9296.775
446.53742	9546.675
450.6534	9826.175
454.76644	10021.975
458.87653	10067.475
462.98368	10040.875
467.08789	9919.575
471.18916	9735.575
475.2875	9545.675
479.38291	9405.775
483.4754	9304.575
487.56496	9182.775
491.6516	9073.175
495.73531	9027.375
499.81612	9013.175
503.89401	9083.375
507.96899	9168.375
512.04106	9213.375
516.11023	9282.675
520.1765	9358.275
524.23987	9301.275
528.30034	9150.375
532.35792	8980.375
536.41261	8852.275
540.46441	8698.975
544.51333	8656.975
548.55936	8769.075
552.60252	8957.475
556.64279	9158.775
560.6802	9278.975
564.71473	9379.675
568.7464	9621.375
572.7752	9885.375
576.80114	9796.275
580.82422	9642.175
584.84444	9586.675
588.86181	9558.675
592.87633	9572.375
596.888	9648.575
600.89682	9888.375
604.9028	10694.275
608.90594	12744.075
612.90624	15386.775
616.90371	14928.275
620.89834	11265.475
624.89015	9514.175
628.87913	9186.175
632.86528	9222.575
636.84862	9282.275
640.82913	9140.275
644.80683	8846.375
648.78172	8645.475
652.75379	8636.375
656.72306	8908.675
660.68952	9232.075
664.65319	9213.775
668.61405	8934.575
672.57211	8756.075
676.52738	8723.275
680.47986	8738.375
684.42955	8706.675
688.37646	8671.175
692.32058	8716.675
696.26192	8772.875
700.20048	8878.575
704.13626	8961.075
708.06928	8938.875
711.99952	8871.275
715.927	8840.775
719.85171	8827.375
723.77365	8837.775
727.69284	8725.575
731.60928	8689.875
735.52295	8656.275
739.43388	8673.575
743.34206	8727.275
747.24749	8793.475
751.15017	8854.675
755.05012	9035.675
758.94733	9385.775
762.8418	10088.975
766.73354	11324.875
770.62254	12635.575
774.50882	13197.275
778.39237	12604.075
782.27321	11250.575
786.15132	10006.975
790.02671	9266.475
793.89938	8926.175
797.76935	8795.375
801.6366	8737.775
805.50115	8676.275
809.36299	8654.175
813.22213	8616.075
817.07857	8618.575
820.93231	8595.475
824.78336	8632.075
828.63172	8664.575
832.47738	8675.275
836.32036	8699.975
840.16066	8664.375
843.99827	8650.175
847.8332	8630.975
851.66546	8594.075
855.49504	8607.675
859.32195	8565.775
863.1462	8539.475
866.96777	8530.775
870.78668	8518.175
874.60293	8518.475
878.41652	8545.575
882.22745	8574.375
886.03573	8630.375
889.84136	8598.275
893.64433	8562.875
897.44466	8521.875
901.24235	8526.175
905.0374	8518.675
908.8298	8503.475
912.61957	8490.475
916.40671	8571.575
920.19121	8656.175
923.97308	8754.175
927.75233	8786.375
931.52895	8831.975
935.30295	8755.475
939.07433	8557.275
942.84309	8402.775
946.60924	8326.275
950.37278	8275.775
954.13371	8206.975
957.89203	8182.375
961.64774	8159.075
965.40086	8139.375
969.15137	8087.175
972.89929	8081.675
976.64461	8060.875
980.38733	8068.675
984.12747	8098.975
987.86502	8142.875
991.59999	8220.875
995.33237	8346.475
999.06217	8535.475
1002.78939	8803.175
1006.51404	9007.475
1010.23611	9174.675
1013.95561	9311.275
1017.67255	9315.575
1021.38692	9207.875
1025.09872	9117.575
1028.80796	9108.375
1032.51465	9230.575
1036.21877	9367.275
1039.92035	9409.775
1043.61937	9357.275
1047.31584	9183.575
1051.00976	9037.475
1054.70114	8951.175
1058.38998	8928.775
1062.07627	9003.875
1065.76003	9068.375
1069.44126	9121.875
1073.11995	9206.575
1076.79611	9257.675
1080.46974	9355.775
1084.14085	9472.075
1087.80943	9621.275
1091.47549	9714.475
1095.13903	9622.775
1098.80005	9398.275
1102.45857	9153.475
1106.11456	9058.175
1109.76805	9040.775
1113.41903	9122.575
1117.06751	9310.775
1120.71348	9559.375
1124.35696	9801.875
1127.99793	10044.675
1131.63641	10087.975
1135.2724	9801.175
1138.90589	9534.375
1142.5369	9372.975
1146.16542	9242.375
1149.79145	9167.075
1153.415	9187.675
1157.03607	9282.775
1160.65467	9470.875
1164.27079	9750.975
1167.88443	10172.875
1171.49561	10817.575
1175.10432	11809.375
1178.71056	13142.975
1182.31434	14225.575
1185.91565	14665.375
1189.51451	14549.175
1193.11091	13946.575
1196.70485	13058.975
1200.29634	12337.475
1203.88538	11794.975
1207.47197	11251.675
1211.05612	10768.875
1214.63782	10517.775
1218.21708	10435.875
1221.79391	10459.475
1225.36829	10546.675
1228.94024	10597.375
1232.50976	10622.175
1236.07685	10640.875
1239.6415	10633.675
1243.20374	10589.175
1246.76355	10622.775
1250.32093	10697.375
1253.8759	10928.375
1257.42845	11222.375
1260.97859	11539.775
1264.52631	11773.175
1268.07163	12041.475
1271.61453	12334.075
1275.15503	12599.675
1278.69312	12796.575
1282.22882	12990.775
1285.76211	13224.775
1289.29301	13569.575
1292.82151	13911.475
1296.34761	14279.375
1299.87133	14854.675
1303.39266	15685.575
1306.9116	16963.075
1310.42815	18514.175
1313.94233	19590.975
1317.45412	19662.575
1320.96354	18964.175
1324.47058	18049.275
1327.97525	17235.575
1331.47754	16676.975
1334.97747	16503.175
1338.47502	16544.875
1341.97022	16708.375
1345.46305	16898.675
1348.95352	17070.375
1352.44163	17484.675
1355.92738	18268.275
1359.41078	19884.875
1362.89183	21664.475
1366.37053	21525.675
1369.84688	19052.975
1373.32088	16373.075
1376.79254	14652.175
1380.26186	13800.375
1383.72883	13444.175
1387.19347	13206.575
1390.65578	12904.175
1394.11575	12695.175
1397.57339	12649.675
1401.0287	12783.875
1404.48168	13063.775
1407.93234	13297.775
1411.38068	13454.375
1414.82669	13358.375
1418.27039	13108.475
1421.71177	12731.775
1425.15083	12338.075
1428.58758	12178.575
1432.02203	12081.075
1435.45416	12148.175
1438.88399	12204.675
1442.31151	12254.975
1445.73673	12360.675
1449.15965	12461.575
1452.58027	12479.375
1455.9986	12439.075
1459.41463	12443.075
1462.82837	12522.475
1466.23982	12700.475
1469.64898	12952.175
1473.05586	13142.475
1476.46045	13223.175
1479.86276	13367.675
1483.26279	13520.475
1486.66054	13694.275
1490.05602	13970.275
1493.44922	14316.175
1496.84016	14833.775
1500.22882	15548.775
1503.61521	16537.575
1506.99934	17809.075
1510.38121	19143.775
1513.76081	19953.475
1517.13816	19525.975
1520.51324	18054.975
1523.88607	16305.075
1527.25665	15040.375
1530.62498	14218.275
1533.99105	13757.475
1537.35488	13444.475
1540.71647	13259.375
1544.07581	13141.975
1547.4329	13034.775
1550.78776	12982.375
1554.14038	12943.675
1557.49077	13018.775
1560.83892	13153.575
1564.18484	13345.775
1567.52853	13504.875
1570.86999	13598.375
1574.20922	13660.675
1577.54624	13643.375
1580.88103	13328.975
1584.2136	12910.575
1587.54395	12808.375
1590.87208	13135.775
1594.19801	13839.675
1597.52172	14674.475
1600.84321	15078.975
1604.16251	14635.375
1607.47959	13747.175
1610.79447	12750.775
1614.10715	11815.575
1617.41763	11071.075
1620.7259	10561.275
1624.03199	10332.775
1627.33587	10311.275
1630.63757	10562.375
1633.93707	11051.875
1637.23439	11777.275
1640.52951	12731.075
1643.82246	13763.775
1647.11321	14850.175
1650.40179	15508.775
1653.68819	15168.375
1656.97241	13552.575
1660.25446	11722.775
1663.53433	10346.175
1666.81203	9477.775
1670.08756	8967.675
1673.36092	8674.575
1676.63211	8495.375
1679.90115	8335.775
1683.16801	8239.375
1686.43272	8170.175
1689.69527	8093.875
1692.95567	8051.875
1696.2139	7983.775
1699.46999	7930.775
1702.72392	7931.475
1705.97571	7912.275
1709.22535	7943.975
1712.47284	7986.475
1715.71819	7987.175
1718.96139	7970.675
1722.20246	7976.575
1725.44139	7936.375
1728.67818	7921.075
1731.91284	7860.775
1735.14537	7827.875
1738.37576	7787.875
1741.60403	7764.875
1744.83017	7732.275
1748.05418	7699.975
1751.27607	7696.175
1754.49584	7668.075
1757.71349	7639.375
1760.92903	7615.575
1764.14244	7610.375
1767.35375	7637.875
1770.56294	7617.075
1773.77002	7602.375
1776.97499	7600.275
1780.17785	7620.975
1783.37861	7615.475
1786.57727	7612.675
1789.77382	7592.875
1792.96828	7593.375
1796.16064	7575.375
1799.3509	7584.575
1802.53907	7594.575
1805.72514	7566.475
1808.90913	7541.275
1812.09102	7542.675
1815.27083	7532.175
1818.44856	7505.975
1821.6242	7510.275
1824.79776	7488.575
1827.96924	7483.575
1831.13864	7481.975
1834.30597	7486.275
1837.47122	7482.875
1840.6344	7469.675
1843.7955	7476.075
1846.95454	7467.375
1850.11151	7476.175
1853.26642	7469.175
1856.41926	7499.275
1859.57004	7519.475
1862.71876	7496.575
1865.86542	7508.975
1869.01003	7514.775
1872.15258	7495.175
1875.29308	7500.675
1878.43152	7512.775
1881.56792	7510.375
1884.70227	7506.375
1887.83457	7510.475
1890.96482	7527.075
1894.09304	7538.075
1897.21921	7531.075
1900.34335	7535.875
1903.46544	7532.575
1906.58551	7524.975
1909.70353	7519.275
1912.81953	7524.375
1915.93349	7533.775
1919.04543	7507.075
1922.15534	7514.575
1925.26322	7516.075
1928.36908	7482.975
1931.47292	7475.175
1934.57473	7404.275
1937.67453	7396.375
1940.77232	7349.475
1943.86808	7333.375
1946.96184	7312.275
1950.05358	7270.075
1953.14331	7231.175
1956.23103	7205.775
1959.31675	7172.675
1962.40046	7187.775
1965.48217	7136.975
1968.56188	7131.275
1971.63959	7101.875
1974.7153	7103.275
1977.78901	7065.775
1980.86073	7041.175
1983.93046	7041.975
1986.99819	6993.075
1990.06394	6973.175
1993.1277	6954.075
1996.18947	6920.075
1999.24925	6927.075
2002.30706	6891.875
2005.36288	6882.575
2008.41672	6852.575
2011.46859	6837.475
2014.51848	6816.075
2017.56639	6813.975
2020.61233	6799.375
2023.6563	6772.175
2026.6983	6760.775
2029.73833	6730.275
2032.7764	6714.875
2035.8125	6732.175
2038.84664	6693.575
2041.87881	6687.875
2044.90903	6689.975
2047.93729	6668.975
2050.96359	6669.875
2053.98794	6649.675
2057.01034	6634.275
2060.03078	6638.575
2063.04927	6638.775
2066.06582	6629.675
2069.08042	6624.675
2072.09307	6630.275
2075.10378	6619.375
2078.11255	6605.775
2081.11938	6605.275
2084.12426	6603.875
2087.12722	6605.375
2090.12824	6599.875
2093.12732	6601.475
2096.12447	6597.375
2099.11969	6599.775
2102.11299	6599.875
2105.10435	6615.175
2108.09379	6622.375
2111.08131	6613.375
2114.0669	6620.175
2117.05057	6612.175
2120.03233	6633.175
2123.01216	6624.175
2125.99008	6619.475
2128.96609	6645.675
2131.94018	6641.175
2134.91236	6645.075
2137.88263	6643.075
2140.851	6654.475
2143.81746	6653.475
2146.78201	6665.675
2149.74466	6660.075
2152.7054	6646.075
2155.66425	6644.475
2158.6212	6659.575
2161.57625	6640.775
2164.52941	6642.975
2167.48067	6642.775
2170.43004	6641.575
2173.37752	6664.875
2176.32311	6651.275
2179.26681	6652.375
2182.20863	6641.475
2185.14856	6645.875
2188.08661	6660.275
2191.02278	6652.675
2193.95707	6657.175
2196.88948	6641.075
2199.82001	6640.675
2202.74867	6623.775
2205.67545	6630.775
2208.60037	6620.275
2211.52341	6627.475
2214.44458	6620.175
2217.36388	6603.275
2220.28132	6605.575
2223.1969	6570.175
2226.11061	6581.675
2229.02246	6556.975
2231.93245	6542.075
2234.84058	6527.475
2237.74686	6525.375
2240.65128	6519.475
2243.55385	6515.475
2246.45456	6513.775
2249.35343	6489.575
2252.25044	6501.075
2255.14561	6471.875
2258.03893	6472.475
2260.93041	6476.775
2263.82004	6441.775
2266.70783	6437.775
2269.59378	6410.575
2272.4779	6405.475
2275.36017	6394.775
2278.24061	6391.775
2281.11922	6370.675
2283.996	6365.775
2286.87094	6357.375
2289.74405	6339.075
2292.61534	6325.075
2295.4848	6317.475
2298.35243	6336.475
2301.21824	6318.575
2304.08223	6344.975
2306.94439	6327.675
2309.80474	6321.075
2312.66327	6325.775
2315.51999	6318.875
2318.37489	6334.475
2321.22797	6315.775
2324.07925	6318.375
2326.92871	6315.275
2329.77637	6292.575
2332.62222	6299.975
2335.46626	6272.275
2338.3085	6281.575
2341.14893	6283.375
2343.98756	6280.875
2346.8244	6275.675
2349.65943	6277.975
2352.49267	6294.375
2355.32411	6291.875
2358.15376	6296.075
2360.98161	6298.375
2363.80768	6285.875
2366.63195	6285.075
2369.45444	6295.975
2372.27514	6268.875
2375.09405	6266.475
2377.91118	6273.075
2380.72652	6226.075
2383.54009	6188.575
2386.35187	6194.875
2389.16188	6187.575
2391.97011	6181.575
2394.77657	6155.575
2397.58125	6135.775
2400.38416	6141.175
2403.18529	6120.875
2405.98466	6122.675
2408.78226	6108.975
2411.57809	6090.775
2414.37216	6072.875
2417.16446	6085.375
2419.955	6072.675
2422.74378	6088.675
2425.5308	6076.975
2428.31606	6063.975
2431.09956	6049.875
2433.88131	6048.475
2436.6613	6048.975
2439.43954	6045.275
2442.21603	6029.075
2444.99077	6029.775
2447.76377	6044.775
2450.53501	6042.975
2453.30451	6036.375
2456.07226	6029.075
2458.83827	6028.275
2461.60254	6014.875
2464.36507	6007.575
2467.12586	6029.675
2469.88492	6003.975
2472.64224	6029.675
2475.39782	6026.075
2478.15167	6030.575
2480.90379	6010.075
2483.65417	6025.275
2486.40283	6047.475
2489.14976	6042.475
2491.89497	6048.575
2494.63845	6032.575
2497.3802	6026.175
2500.12024	6046.575
2502.85855	6043.575
2505.59514	6016.575
2508.33002	6025.675
2511.06318	6021.975
2513.79462	6010.675
2516.52435	5972.775
2519.25237	5971.375
2521.97867	5959.075
2524.70327	5968.175
2527.42616	5935.075
2530.14734	5954.775
2532.86681	5945.075
2535.58458	5942.875
2538.30065	5932.875
2541.01501	5924.375
2543.72768	5937.275
2546.43864	5923.775
2549.14791	5919.575
2551.85548	5918.975
2554.56136	5900.275
2557.26554	5900.875
2559.96803	5882.675
2562.66883	5899.775
2565.36794	5892.675
2568.06536	5873.675
2570.7611	5874.275
2573.45514	5881.975
2576.14751	5850.175
2578.83819	5847.575
2581.52719	5858.475
2584.21451	5844.275
2586.90015	5840.575
2589.58411	5838.675
2592.2664	5834.375
2594.94701	5827.575
2597.62594	5836.975
2600.30321	5810.775
2602.9788	5806.175
2605.65273	5803.475
2608.32498	5809.075
2610.99557	5811.575
2613.66449	5822.975
2616.33175	5816.175
2618.99734	5826.075
2621.66128	5806.375
2624.32355	5810.475
2626.98416	5817.475
2629.64311	5789.075
2632.30041	5805.075
2634.95605	5781.175
2637.61004	5790.075
2640.26238	5773.075
2642.91306	5785.475
2645.56209	5763.775
2648.20948	5761.975
2650.85521	5754.575
2653.4993	5755.275
2656.14175	5764.175
2658.78255	5763.775
2661.42171	5763.575
2664.05923	5769.275
2666.6951	5779.675
2669.32934	5781.275
2671.96194	5783.575
2674.59291	5787.575
2677.22224	5774.275
2679.84993	5791.875
2682.476	5776.775
2685.10043	5780.775
2687.72324	5774.375
2690.34441	5773.875
2692.96396	5763.875
2695.58188	5779.675
2698.19818	5778.375
2700.81285	5781.775
2703.4259	5767.475
2706.03733	5760.175
2708.64714	5739.575
2711.25533	5760.275
2713.86191	5763.875
2716.46687	5783.275
2719.07021	5776.375
2721.67194	5780.875
2724.27206	5784.575
2726.87057	5795.475
2729.46747	5785.175
2732.06276	5797.475
2734.65644	5781.275
2737.24852	5782.275
2739.83899	5789.175
2742.42786	5787.575
2745.01513	5788.675
2747.60079	5768.175
2750.18486	5761.475
2752.76733	5773.475
2755.3482	5768.375
2757.92747	5764.675
2760.50515	5755.075
2763.08123	5741.775
2765.65573	5744.675
2768.22863	5740.275
2770.79994	5726.475
2773.36967	5732.575
2775.9378	5734.575
2778.50435	5731.575
2781.06932	5731.775
2783.6327	5719.775
2786.1945	5726.675
2788.75471	5708.375
2791.31335	5716.075
2793.87041	5684.375
2796.42589	5698.575
2798.97979	5685.675
2801.53212	5658.375
2804.08288	5662.175
2806.63206	5645.175
2809.17967	5641.575
2811.72571	5629.375
2814.27018	5626.175
2816.81308	5624.775
2819.35442	5631.475
2821.89419	5634.775
2824.43239	5621.375
2826.96904	5617.375
2829.50412	5639.475
2832.03763	5621.675
2834.56959	5629.175
2837.1	5615.875
2839.62884	5626.275
2842.15613	5632.375
2844.68186	5642.175
2847.20604	5679.575
2849.72867	5670.775
2852.24974	5687.975
2854.76927	5675.275
2857.28724	5668.675
2859.80367	5666.675
2862.31855	5653.975
2864.83189	5639.375
2867.34368	5630.775
2869.85393	5628.175
2872.36264	5640.775
2874.8698	5623.975
2877.37543	5632.975
2879.87952	5619.075
2882.38207	5618.475
2884.88308	5607.975
2887.38256	5630.775
2889.88051	5616.275
2892.37692	5602.675
2894.8718	5596.375
2897.36515	5613.975
2899.85698	5614.575
2902.34727	5623.275
2904.83604	5624.475
2907.32328	5637.075
2909.809	5622.075
2912.29319	5629.175
2914.77587	5638.875
2917.25702	5645.575
2919.73665	5619.475
2922.21476	5639.775
2924.69136	5635.575
2927.16644	5632.075
2929.64	5620.975
2932.11205	5619.175
2934.58258	5589.275
2937.05161	5591.775
2939.51912	5593.175
2941.98513	5564.175
2944.44962	5556.375
2946.91261	5536.975
2949.37409	5542.075
2951.83407	5525.475
2954.29254	5523.075
2956.74951	5496.275
2959.20498	5506.875
2961.65895	5497.375
2964.11142	5499.875
2966.56239	5488.075
2969.01186	5489.275
2971.45984	5455.775
2973.90632	5450.175
2976.35131	5435.875
2978.7948	5422.475
2981.23681	5419.175
2983.67732	5414.475
2986.11635	5402.175
2988.55388	5385.375
2990.98993	5378.075
2993.4245	5372.475
2995.85758	5354.275
2998.28917	5354.175
3000.71928	5338.475
3003.14791	5337.575
3005.57506	5326.075
3008.00073	5333.775
3010.42493	5320.075
3012.84764	5308.875
3015.26888	5323.475
3017.68865	5291.075
3020.10694	5291.875
3022.52376	5264.375
3024.9391	5273.075
3027.35298	5270.975
3029.76539	5267.975
3032.17632	5258.175
3034.5858	5244.075
3036.9938	5263.775
3039.40034	5246.275
3041.80542	5241.775
3044.20903	5213.075
3046.61118	5224.975
3049.01187	5214.075
3051.4111	5207.375
3053.80888	5208.775
3056.20519	5195.975
3058.60005	5175.375
3060.99345	5161.075
3063.3854	5150.875
3065.7759	5140.375
3068.16494	5122.875
3070.55254	5116.375
3072.93868	5097.575
3075.32338	5095.575
3077.70662	5096.775
3080.08842	5079.475
3082.46878	5086.975
3084.84769	5068.475
3087.22515	5069.875
3089.60118	5075.175
3091.97576	5065.975
3094.3489	5065.075
3096.72061	5063.075
3099.09087	5055.575
3101.4597	5059.475
3103.82709	5078.575
3106.19305	5059.475
3108.55757	5063.475
3110.92066	5040.075
3113.28232	5040.775
3115.64255	5032.775
3118.00134	5027.875
3120.35871	5022.275
3122.71466	5013.775
3125.06917	4998.975
3127.42226	4985.075
3129.77393	5002.475
3132.12417	4988.175
3134.47299	4999.475
3136.82039	5013.175
3139.16636	4992.675
3141.51092	5021.175
3143.85406	5004.175
3146.19579	5022.875
3148.53609	5023.575
3150.87499	5028.675
3153.21246	5038.575
3155.54853	5036.075
3157.88318	5045.275
3160.21642	5048.775
3162.54826	5044.675
3164.87868	5041.675
3167.2077	5046.975
3169.5353	5070.775
3171.86151	5048.975
3174.18631	5049.575
3176.5097	5047.875
3178.83169	5033.775
3181.15228	5027.675
3183.47147	5024.375
3185.78926	5034.375
3188.10565	5038.775
3190.42065	5040.275
3192.73424	5050.475
3195.04645	5025.375
3197.35725	5038.275
3199.66667	5031.375
3201.97469	5039.575
3204.28132	5044.375
3206.58656	5046.975
3208.8904	5054.575
3211.19287	5064.275
3213.49394	5073.175
3215.79363	5064.375
3218.09193	5062.075
