Data from AgNPs_FTO_APTES_UA_1uM_CRN_0uM_R6G_10uM_NaF_0.1M_Addition_RamanShift__41__11-53-29-457.txt Node

Date: Thu Jan 27 11:53:29 GMT 2022
User: TCL
Spectrometer: QEP01345
Trigger mode: 4
Integration Time (sec): 7.000000E0
Scans to average: 10
Electric dark correction enabled: true
Nonlinearity correction enabled: false
Boxcar width: 0
XAxis mode: Raman Shifts
Number of Pixels in Spectrum: 1044
>>>>>Begin Spectral Data<<<<<
46.04893	0.525
50.45542	0.525
54.85868	-1.075
59.25871	-2.075
63.6555	50.725
68.04907	50.825
72.43941	54.625
76.82654	55.425
81.21044	57.225
85.59113	59.725
89.96862	61.925
94.34289	63.325
98.71396	69.625
103.08183	69.625
107.4465	73.125
111.80798	71.625
116.16626	73.425
120.52136	78.325
124.87327	80.025
129.222	79.525
133.56755	85.425
137.90993	92.425
142.24913	100.925
146.58517	108.825
150.91804	130.925
155.24774	148.825
159.57429	183.025
163.89768	233.325
168.21792	304.625
172.53501	407.825
176.84895	563.325
181.15975	789.825
185.46741	1099.225
189.77193	1510.925
194.07331	2028.625
198.37157	2614.225
202.6667	3223.125
206.9587	3826.925
211.24758	4433.125
215.53334	5027.525
219.81599	5698.825
224.09553	6394.525
228.37195	7211.225
232.64527	8108.825
236.91549	9018.125
241.18261	9947.925
245.44663	10764.325
249.70755	11491.025
253.96539	12109.925
258.22014	12671.225
262.4718	13101.325
266.72039	13408.125
270.96589	13558.525
275.20832	13588.325
279.44768	13456.725
283.68397	13299.125
287.91719	13198.225
292.14735	13116.925
296.37445	13149.625
300.59849	13244.325
304.81948	13420.925
309.03742	13499.425
313.25231	13407.525
317.46415	13080.625
321.67296	12622.025
325.87872	12218.825
330.08145	12052.325
334.28114	12001.425
338.47781	12118.625
342.67145	12285.725
346.86207	12534.625
351.04966	12847.725
355.23424	13215.725
359.4158	13560.325
363.59435	13790.425
367.76989	13899.625
371.94243	13993.925
376.11196	14046.425
380.27849	14104.325
384.44203	14182.925
388.60257	14210.225
392.76012	14295.025
396.91468	14471.625
401.06626	14681.525
405.21485	14901.225
409.36047	14813.725
413.50311	14529.625
417.64277	14295.025
421.77947	14209.925
425.9132	14211.125
430.04396	14270.825
434.17176	14362.325
438.2966	14474.925
442.41849	14714.125
446.53742	15124.225
450.6534	15563.025
454.76644	15909.725
458.87653	16034.425
462.98368	15903.025
467.08789	15653.225
471.18916	15342.025
475.2875	15027.525
479.38291	14854.325
483.4754	14745.625
487.56496	14614.625
491.6516	14444.225
495.73531	14345.425
499.81612	14299.125
503.89401	14403.425
507.96899	14486.125
512.04106	14448.825
516.11023	14422.325
520.1765	14355.325
524.23987	14282.625
528.30034	14136.225
532.35792	13975.625
536.41261	13727.125
540.46441	13509.825
544.51333	13453.425
548.55936	13590.025
552.60252	13872.525
556.64279	14249.525
560.6802	14463.825
564.71473	14519.025
568.7464	14758.925
572.7752	15069.525
576.80114	15359.325
580.82422	15526.725
584.84444	15840.625
588.86181	16135.725
592.87633	16462.925
596.888	16603.325
600.89682	16547.925
604.9028	17077.225
608.90594	19035.425
612.90624	21337.825
616.90371	20354.325
620.89834	16519.325
624.89015	14738.425
628.87913	14514.825
632.86528	14502.325
636.84862	14374.025
640.82913	14099.825
644.80683	13673.925
648.78172	13335.625
652.75379	13261.225
656.72306	13468.225
660.68952	13783.625
664.65319	13764.425
668.61405	13469.325
672.57211	13309.125
676.52738	13287.425
680.47986	13303.525
684.42955	13200.825
688.37646	13132.025
692.32058	13198.025
696.26192	13321.725
700.20048	13528.925
704.13626	13611.525
708.06928	13543.025
711.99952	13453.225
715.927	13398.125
719.85171	13436.325
723.77365	13416.425
727.69284	13228.425
731.60928	13089.325
735.52295	13091.725
739.43388	13105.125
743.34206	13169.425
747.24749	13266.225
751.15017	13364.925
755.05012	13586.825
758.94733	14016.625
762.8418	14806.325
766.73354	16172.625
770.62254	17580.725
774.50882	18117.425
778.39237	17339.225
782.27321	15875.425
786.15132	14594.625
790.02671	13828.825
793.89938	13506.225
797.76935	13375.725
801.6366	13311.025
805.50115	13266.125
809.36299	13169.225
813.22213	13025.725
817.07857	12974.725
820.93231	12922.925
824.78336	12879.625
828.63172	12876.125
832.47738	12903.925
836.32036	12943.025
840.16066	13000.425
843.99827	13079.925
847.8332	13031.325
851.66546	12966.025
855.49504	12895.125
859.32195	12880.125
863.1462	12832.125
866.96777	12775.325
870.78668	12720.225
874.60293	12706.725
878.41652	12706.125
882.22745	12769.525
886.03573	12862.425
889.84136	12868.825
893.64433	12801.925
897.44466	12717.225
901.24235	12695.125
905.0374	12676.625
908.8298	12576.325
912.61957	12600.325
916.40671	12726.925
920.19121	12917.425
923.97308	13143.825
927.75233	13283.925
931.52895	13313.325
935.30295	13167.725
939.07433	12893.725
942.84309	12643.425
946.60924	12517.325
950.37278	12477.925
954.13371	12431.225
957.89203	12296.725
961.64774	12246.625
965.40086	12205.525
969.15137	12144.125
972.89929	12081.225
976.64461	12064.125
980.38733	12080.825
984.12747	12130.625
987.86502	12280.325
991.59999	12523.125
995.33237	12841.325
999.06217	13381.525
1002.78939	14053.125
1006.51404	14332.325
1010.23611	14505.425
1013.95561	14596.125
1017.67255	14574.425
1021.38692	14382.825
1025.09872	14275.425
1028.80796	14466.225
1032.51465	15107.225
1036.21877	15720.425
1039.92035	15783.425
1043.61937	15410.225
1047.31584	14809.825
1051.00976	14214.925
1054.70114	13860.625
1058.38998	13767.825
1062.07627	13784.725
1065.76003	13756.025
1069.44126	13804.125
1073.11995	13987.825
1076.79611	14221.625
1080.46974	14371.625
1084.14085	14497.025
1087.80943	14718.325
1091.47549	14799.825
1095.13903	14721.725
1098.80005	14440.225
1102.45857	14080.125
1106.11456	13837.025
1109.76805	13781.025
1113.41903	13850.825
1117.06751	13966.125
1120.71348	14178.825
1124.35696	14380.725
1127.99793	14559.125
1131.63641	14706.225
1135.2724	14605.725
1138.90589	14401.525
1142.5369	14250.725
1146.16542	14191.225
1149.79145	14202.025
1153.415	14222.525
1157.03607	14359.025
1160.65467	14657.025
1164.27079	15267.725
1167.88443	16125.125
1171.49561	17278.325
1175.10432	18886.825
1178.71056	20885.325
1182.31434	22855.025
1185.91565	23931.125
1189.51451	23875.525
1193.11091	22887.325
1196.70485	21551.025
1200.29634	20310.125
1203.88538	19378.525
1207.47197	18610.525
1211.05612	18013.825
1214.63782	17639.325
1218.21708	17449.225
1221.79391	17498.725
1225.36829	17645.925
1228.94024	17560.125
1232.50976	17197.025
1236.07685	16799.225
1239.6415	16560.725
1243.20374	16428.225
1246.76355	16466.025
1250.32093	16715.525
1253.8759	17124.425
1257.42845	17706.025
1260.97859	18299.925
1264.52631	18860.025
1268.07163	19500.125
1271.61453	20202.925
1275.15503	20998.625
1278.69312	21693.725
1282.22882	22357.325
1285.76211	22833.525
1289.29301	23331.225
1292.82151	23949.625
1296.34761	24874.125
1299.87133	26188.625
1303.39266	27991.825
1306.9116	30238.125
1310.42815	32641.325
1313.94233	34195.825
1317.45412	34272.825
1320.96354	33186.525
1324.47058	31789.625
1327.97525	30473.525
1331.47754	29524.825
1334.97747	28887.825
1338.47502	28516.425
1341.97022	28347.525
1345.46305	28020.125
1348.95352	27800.125
1352.44163	27885.725
1355.92738	28814.525
1359.41078	30764.025
1362.89183	32783.125
1366.37053	32700.925
1369.84688	29840.225
1373.32088	26110.025
1376.79254	23322.725
1380.26186	22032.325
1383.72883	21642.625
1387.19347	21438.525
1390.65578	21059.025
1394.11575	20819.125
1397.57339	21004.125
1401.0287	21441.425
1404.48168	21868.525
1407.93234	22053.625
1411.38068	21907.625
1414.82669	21462.025
1418.27039	20773.125
1421.71177	20018.025
1425.15083	19327.225
1428.58758	18910.825
1432.02203	18961.525
1435.45416	19324.125
1438.88399	19779.925
1442.31151	20178.425
1445.73673	20423.725
1449.15965	20658.125
1452.58027	20747.225
1455.9986	20686.425
1459.41463	20758.825
1462.82837	21118.525
1466.23982	21569.725
1469.64898	22121.725
1473.05586	22470.525
1476.46045	22582.125
1479.86276	22583.225
1483.26279	22387.625
1486.66054	22262.225
1490.05602	22357.125
1493.44922	22581.325
1496.84016	22857.725
1500.22882	23443.325
1503.61521	24348.225
1506.99934	25547.325
1510.38121	26694.725
1513.76081	27152.825
1517.13816	26495.625
1520.51324	24981.925
1523.88607	23472.325
1527.25665	22446.825
1530.62498	21844.025
1533.99105	21591.025
1537.35488	21298.325
1540.71647	21118.825
1544.07581	20836.125
1547.4329	20512.225
1550.78776	20180.525
1554.14038	19948.525
1557.49077	19874.425
1560.83892	19801.925
1564.18484	19834.825
1567.52853	19889.025
1570.86999	20074.025
1574.20922	20342.425
1577.54624	20519.925
1580.88103	20399.425
1584.2136	20290.825
1587.54395	20651.225
1590.87208	21794.525
1594.19801	23447.725
1597.52172	25261.225
1600.84321	26075.125
1604.16251	24978.525
1607.47959	22810.725
1610.79447	20505.725
1614.10715	18538.225
1617.41763	16991.325
1620.7259	15972.725
1624.03199	15446.525
1627.33587	15485.425
1630.63757	15989.825
1633.93707	16985.225
1637.23439	18636.425
1640.52951	20948.025
1643.82246	23533.225
1647.11321	25477.525
1650.40179	25941.125
1653.68819	24316.925
1656.97241	21085.225
1660.25446	17891.425
1663.53433	15526.825
1666.81203	14043.325
1670.08756	13149.425
1673.36092	12608.025
1676.63211	12264.125
1679.90115	11998.925
1683.16801	11809.425
1686.43272	11683.325
1689.69527	11566.125
1692.95567	11463.725
1696.2139	11382.625
1699.46999	11289.225
1702.72392	11249.225
1705.97571	11234.425
1709.22535	11276.225
1712.47284	11295.025
1715.71819	11286.125
1718.96139	11288.625
1722.20246	11257.525
1725.44139	11217.725
1728.67818	11136.625
1731.91284	11073.125
1735.14537	11006.625
1738.37576	10935.725
1741.60403	10905.725
1744.83017	10881.525
1748.05418	10818.725
1751.27607	10828.725
1754.49584	10748.025
1757.71349	10757.025
1760.92903	10728.825
1764.14244	10680.825
1767.35375	10693.425
1770.56294	10659.525
1773.77002	10670.125
1776.97499	10669.725
1780.17785	10680.725
1783.37861	10670.925
1786.57727	10694.925
1789.77382	10658.025
1792.96828	10649.825
1796.16064	10609.125
1799.3509	10599.725
1802.53907	10597.325
1805.72514	10566.125
1808.90913	10516.225
1812.09102	10513.225
1815.27083	10511.625
1818.44856	10478.225
1821.6242	10462.925
1824.79776	10446.325
1827.96924	10449.125
1831.13864	10444.925
1834.30597	10450.025
1837.47122	10434.825
1840.6344	10449.325
1843.7955	10459.125
1846.95454	10481.925
1850.11151	10481.925
1853.26642	10470.425
1856.41926	10456.025
1859.57004	10469.425
1862.71876	10463.125
1865.86542	10483.625
1869.01003	10475.125
1872.15258	10478.425
1875.29308	10497.625
1878.43152	10491.025
1881.56792	10469.125
1884.70227	10488.725
1887.83457	10481.325
1890.96482	10473.125
1894.09304	10459.725
1897.21921	10503.025
1900.34335	10486.825
1903.46544	10493.925
1906.58551	10487.225
1909.70353	10462.225
1912.81953	10464.125
1915.93349	10440.825
1919.04543	10410.325
1922.15534	10389.925
1925.26322	10371.825
1928.36908	10320.125
1931.47292	10299.425
1934.57473	10258.125
1937.67453	10207.625
1940.77232	10162.725
1943.86808	10112.125
1946.96184	10085.225
1950.05358	10035.925
1953.14331	10020.825
1956.23103	9981.025
1959.31675	9952.825
1962.40046	9922.925
1965.48217	9876.825
1968.56188	9873.825
1971.63959	9838.525
1974.7153	9793.025
1977.78901	9791.825
1980.86073	9760.025
1983.93046	9745.325
1986.99819	9690.925
1990.06394	9676.825
1993.1277	9625.025
1996.18947	9602.725
1999.24925	9575.325
2002.30706	9531.725
2005.36288	9526.125
2008.41672	9493.625
2011.46859	9470.525
2014.51848	9436.425
2017.56639	9417.825
2020.61233	9419.025
2023.6563	9402.625
2026.6983	9376.725
2029.73833	9365.125
2032.7764	9347.325
2035.8125	9364.125
2038.84664	9338.725
2041.87881	9323.125
2044.90903	9297.525
2047.93729	9280.425
2050.96359	9262.225
2053.98794	9273.325
2057.01034	9249.625
2060.03078	9245.025
2063.04927	9255.825
2066.06582	9268.425
2069.08042	9242.925
2072.09307	9239.025
2075.10378	9212.225
2078.11255	9210.825
2081.11938	9215.225
2084.12426	9214.825
2087.12722	9186.325
2090.12824	9202.125
2093.12732	9200.125
2096.12447	9205.425
2099.11969	9193.825
2102.11299	9202.525
2105.10435	9194.225
2108.09379	9196.725
2111.08131	9226.825
2114.0669	9210.825
2117.05057	9227.825
2120.03233	9230.825
2123.01216	9235.725
2125.99008	9251.425
2128.96609	9244.125
2131.94018	9264.325
2134.91236	9252.825
2137.88263	9245.325
2140.851	9261.825
2143.81746	9296.025
2146.78201	9274.325
2149.74466	9291.925
2152.7054	9297.825
2155.66425	9298.225
2158.6212	9288.425
2161.57625	9290.925
2164.52941	9300.325
2167.48067	9274.925
2170.43004	9280.625
2173.37752	9276.025
2176.32311	9277.125
2179.26681	9286.225
2182.20863	9291.725
2185.14856	9287.425
2188.08661	9298.625
2191.02278	9311.125
2193.95707	9308.625
2196.88948	9293.725
2199.82001	9301.325
2202.74867	9277.125
2205.67545	9304.025
2208.60037	9319.025
2211.52341	9297.625
2214.44458	9295.425
2217.36388	9277.225
2220.28132	9269.325
2223.1969	9250.525
2226.11061	9251.525
2229.02246	9211.225
2231.93245	9215.425
2234.84058	9182.525
2237.74686	9184.525
2240.65128	9166.325
2243.55385	9151.725
2246.45456	9136.825
2249.35343	9127.625
2252.25044	9117.325
2255.14561	9104.825
2258.03893	9099.225
2260.93041	9071.925
2263.82004	9051.625
2266.70783	9025.925
2269.59378	9014.225
2272.4779	9005.325
2275.36017	8984.425
2278.24061	8974.825
2281.11922	8952.225
2283.996	8946.625
2286.87094	8927.125
2289.74405	8915.225
2292.61534	8928.825
2295.4848	8913.025
2298.35243	8936.125
2301.21824	8924.125
2304.08223	8933.825
2306.94439	8964.025
2309.80474	8962.925
2312.66327	8960.125
2315.51999	8969.425
2318.37489	8974.325
2321.22797	8988.425
2324.07925	8971.525
2326.92871	8962.425
2329.77637	8956.125
2332.62222	8953.925
2335.46626	8944.625
2338.3085	8962.325
2341.14893	8968.325
2343.98756	8971.425
2346.8244	8987.825
2349.65943	8990.225
2352.49267	8991.225
2355.32411	8955.825
2358.15376	8964.825
2360.98161	8957.125
2363.80768	8962.425
2366.63195	8940.525
2369.45444	8946.325
2372.27514	8922.625
2375.09405	8882.925
2377.91118	8873.625
2380.72652	8830.725
2383.54009	8835.825
2386.35187	8815.025
2389.16188	8792.525
2391.97011	8765.525
2394.77657	8771.525
2397.58125	8764.025
2400.38416	8731.625
2403.18529	8729.725
2405.98466	8720.625
2408.78226	8685.425
2411.57809	8695.725
2414.37216	8642.325
2417.16446	8657.825
2419.955	8617.225
2422.74378	8636.425
2425.5308	8628.225
2428.31606	8607.325
2431.09956	8606.825
2433.88131	8591.825
2436.6613	8619.325
2439.43954	8598.425
2442.21603	8619.925
2444.99077	8610.825
2447.76377	8615.525
2450.53501	8598.725
2453.30451	8612.825
2456.07226	8596.725
2458.83827	8585.825
2461.60254	8597.625
2464.36507	8585.725
2467.12586	8599.425
2469.88492	8609.925
2472.64224	8645.725
2475.39782	8625.625
2478.15167	8643.825
2480.90379	8622.725
2483.65417	8637.825
2486.40283	8638.325
2489.14976	8642.325
2491.89497	8657.125
2494.63845	8683.025
2497.3802	8665.425
2500.12024	8672.325
2502.85855	8663.525
2505.59514	8657.025
2508.33002	8657.025
2511.06318	8627.825
2513.79462	8591.625
2516.52435	8573.625
2519.25237	8556.725
2521.97867	8579.125
2524.70327	8573.625
2527.42616	8558.025
2530.14734	8559.025
2532.86681	8566.825
2535.58458	8589.225
2538.30065	8546.625
2541.01501	8573.625
2543.72768	8587.225
2546.43864	8556.325
2549.14791	8560.725
2551.85548	8536.025
2554.56136	8543.325
2557.26554	8533.625
2559.96803	8503.425
2562.66883	8510.925
2565.36794	8520.625
2568.06536	8523.525
2570.7611	8506.325
2573.45514	8461.625
2576.14751	8508.125
2578.83819	8495.725
2581.52719	8505.525
2584.21451	8479.425
2586.90015	8485.125
2589.58411	8481.225
2592.2664	8497.425
2594.94701	8487.625
2597.62594	8484.925
2600.30321	8497.525
2602.9788	8463.725
2605.65273	8462.025
2608.32498	8455.825
2610.99557	8459.925
2613.66449	8453.925
2616.33175	8452.425
2618.99734	8476.825
2621.66128	8489.125
2624.32355	8448.725
2626.98416	8445.425
2629.64311	8483.825
2632.30041	8497.325
2634.95605	8472.525
2637.61004	8459.025
2640.26238	8434.725
2642.91306	8429.225
2645.56209	8413.725
2648.20948	8410.725
2650.85521	8399.525
2653.4993	8402.625
2656.14175	8406.625
2658.78255	8439.725
2661.42171	8422.325
2664.05923	8422.425
2666.6951	8425.225
2669.32934	8445.425
2671.96194	8445.525
2674.59291	8455.425
2677.22224	8438.825
2679.84993	8431.825
2682.476	8416.725
2685.10043	8415.025
2687.72324	8412.125
2690.34441	8401.725
2692.96396	8381.525
2695.58188	8369.625
2698.19818	8390.125
2700.81285	8381.125
2703.4259	8352.425
2706.03733	8322.025
2708.64714	8356.025
2711.25533	8370.725
2713.86191	8367.425
2716.46687	8381.025
2719.07021	8394.025
2721.67194	8411.425
2724.27206	8414.325
2726.87057	8416.725
2729.46747	8420.825
2732.06276	8390.925
2734.65644	8412.625
2737.24852	8418.525
2739.83899	8422.525
2742.42786	8409.325
2745.01513	8393.125
2747.60079	8391.525
2750.18486	8383.625
2752.76733	8359.825
2755.3482	8356.725
2757.92747	8367.325
2760.50515	8373.225
2763.08123	8362.425
2765.65573	8371.625
2768.22863	8374.825
2770.79994	8378.325
2773.36967	8378.925
2775.9378	8406.625
2778.50435	8390.825
2781.06932	8368.225
2783.6327	8392.925
2786.1945	8373.625
2788.75471	8370.125
2791.31335	8356.125
2793.87041	8342.025
2796.42589	8345.625
2798.97979	8338.125
2801.53212	8307.325
2804.08288	8330.625
2806.63206	8281.325
2809.17967	8266.425
2811.72571	8235.925
2814.27018	8235.425
2816.81308	8227.525
2819.35442	8235.925
2821.89419	8224.225
2824.43239	8224.925
2826.96904	8216.925
2829.50412	8210.225
2832.03763	8197.025
2834.56959	8202.725
2837.1	8204.625
2839.62884	8225.625
2842.15613	8222.625
2844.68186	8237.425
2847.20604	8213.725
2849.72867	8252.825
2852.24974	8233.525
2854.76927	8215.325
2857.28724	8206.725
2859.80367	8208.025
2862.31855	8192.325
2864.83189	8202.125
2867.34368	8192.025
2869.85393	8204.325
2872.36264	8183.125
2874.8698	8208.725
2877.37543	8200.625
2879.87952	8204.725
2882.38207	8212.625
2884.88308	8212.425
2887.38256	8193.925
2889.88051	8206.925
2892.37692	8209.225
2894.8718	8212.425
2897.36515	8238.025
2899.85698	8243.925
2902.34727	8256.925
2904.83604	8274.625
2907.32328	8301.725
2909.809	8295.625
2912.29319	8288.425
2914.77587	8303.525
2917.25702	8293.025
2919.73665	8271.025
2922.21476	8273.925
2924.69136	8258.425
2927.16644	8265.125
2929.64	8241.625
2932.11205	8261.625
2934.58258	8220.325
2937.05161	8209.925
2939.51912	8228.525
2941.98513	8199.225
2944.44962	8187.125
2946.91261	8146.825
2949.37409	8138.125
2951.83407	8152.525
2954.29254	8131.125
2956.74951	8134.225
2959.20498	8124.925
2961.65895	8098.725
2964.11142	8092.525
2966.56239	8082.825
2969.01186	8080.925
2971.45984	8070.525
2973.90632	8042.125
2976.35131	8043.725
2978.7948	8004.425
2981.23681	7985.725
2983.67732	7965.725
2986.11635	7940.925
2988.55388	7941.225
2990.98993	7908.625
2993.4245	7902.725
2995.85758	7862.825
2998.28917	7863.625
3000.71928	7844.725
3003.14791	7832.525
3005.57506	7811.225
3008.00073	7803.625
3010.42493	7824.025
3012.84764	7796.025
3015.26888	7789.425
3017.68865	7775.625
3020.10694	7762.925
3022.52376	7739.425
3024.9391	7739.525
3027.35298	7740.425
3029.76539	7746.225
3032.17632	7728.925
3034.5858	7700.625
3036.9938	7709.425
3039.40034	7696.025
3041.80542	7719.625
3044.20903	7693.725
3046.61118	7708.525
3049.01187	7676.225
3051.4111	7662.725
3053.80888	7662.425
3056.20519	7655.325
3058.60005	7621.025
3060.99345	7627.725
3063.3854	7599.825
3065.7759	7573.425
3068.16494	7581.525
3070.55254	7544.225
3072.93868	7544.325
3075.32338	7505.425
3077.70662	7515.125
3080.08842	7511.825
3082.46878	7506.525
3084.84769	7493.825
3087.22515	7487.825
3089.60118	7509.125
3091.97576	7471.925
3094.3489	7500.425
3096.72061	7503.325
3099.09087	7496.725
3101.4597	7487.825
3103.82709	7493.325
3106.19305	7483.925
3108.55757	7478.025
3110.92066	7460.825
3113.28232	7464.625
3115.64255	7459.225
3118.00134	7445.925
3120.35871	7416.125
3122.71466	7420.425
3125.06917	7422.725
3127.42226	7377.825
3129.77393	7393.825
3132.12417	7360.925
3134.47299	7406.725
3136.82039	7386.425
3139.16636	7392.825
3141.51092	7418.825
3143.85406	7395.125
3146.19579	7400.425
3148.53609	7407.025
3150.87499	7429.325
3153.21246	7412.725
3155.54853	7440.425
3157.88318	7413.225
3160.21642	7446.125
3162.54826	7429.725
3164.87868	7411.825
3167.2077	7407.125
3169.5353	7432.425
3171.86151	7452.025
3174.18631	7448.525
3176.5097	7463.925
3178.83169	7433.825
3181.15228	7419.025
