Data from AgNPs_FTO_APTES_UA_1uM_CRN_10uM_R6G_20uM_NaF_0.1M_Addition_RamanShift__17__15-17-39-691.txt Node

Date: Thu Jan 27 15:17:39 GMT 2022
User: TCL
Spectrometer: QEP01345
Trigger mode: 4
Integration Time (sec): 7.000000E0
Scans to average: 10
Electric dark correction enabled: true
Nonlinearity correction enabled: false
Boxcar width: 0
XAxis mode: Raman Shifts
Number of Pixels in Spectrum: 1044
>>>>>Begin Spectral Data<<<<<
46.04893	2.075
50.45542	1.275
54.85868	-1.625
59.25871	-0.925
63.6555	47.575
68.04907	44.775
72.43941	48.175
76.82654	51.875
81.21044	54.375
85.59113	54.275
89.96862	56.775
94.34289	59.375
98.71396	63.175
103.08183	59.975
107.4465	66.175
111.80798	67.675
116.16626	62.575
120.52136	71.275
124.87327	70.875
129.222	70.275
133.56755	77.675
137.90993	81.075
142.24913	84.675
146.58517	94.975
150.91804	111.375
155.24774	127.675
159.57429	151.275
163.89768	193.175
168.21792	254.375
172.53501	340.575
176.84895	462.775
181.15975	646.675
185.46741	908.275
189.77193	1246.675
194.07331	1661.675
198.37157	2154.975
202.6667	2642.975
206.9587	3151.775
211.24758	3625.775
215.53334	4117.675
219.81599	4625.875
224.09553	5189.875
228.37195	5812.475
232.64527	6497.775
236.91549	7239.575
241.18261	7977.975
245.44663	8672.775
249.70755	9292.075
253.96539	9843.675
258.22014	10300.875
262.4718	10671.875
266.72039	10967.575
270.96589	11131.875
275.20832	11167.075
279.44768	11131.075
283.68397	11042.975
287.91719	10992.775
292.14735	10963.475
296.37445	10954.975
300.59849	11008.975
304.81948	11048.775
309.03742	10999.375
313.25231	10836.675
317.46415	10585.475
321.67296	10289.275
325.87872	10020.675
330.08145	9897.675
334.28114	9914.475
338.47781	9949.875
342.67145	10037.475
346.86207	10218.175
351.04966	10427.575
355.23424	10590.675
359.4158	10749.375
363.59435	10876.875
367.76989	10975.975
371.94243	11047.175
376.11196	11102.475
380.27849	11176.375
384.44203	11249.775
388.60257	11334.475
392.76012	11420.575
396.91468	11574.375
401.06626	11735.975
405.21485	11850.375
409.36047	11814.175
413.50311	11633.975
417.64277	11541.775
421.77947	11482.475
425.9132	11526.775
430.04396	11600.175
434.17176	11669.175
438.2966	11763.175
442.41849	11943.275
446.53742	12187.775
450.6534	12506.975
454.76644	12758.375
458.87653	12877.575
462.98368	12855.675
467.08789	12755.775
471.18916	12598.575
475.2875	12497.775
479.38291	12439.975
483.4754	12393.475
487.56496	12257.075
491.6516	12021.875
495.73531	11860.775
499.81612	11763.075
503.89401	11835.775
507.96899	11875.275
512.04106	11868.875
516.11023	11789.275
520.1765	11706.375
524.23987	11591.075
528.30034	11476.775
532.35792	11357.575
536.41261	11249.875
540.46441	11140.275
544.51333	11152.375
548.55936	11338.375
552.60252	11543.375
556.64279	11795.275
560.6802	11925.175
564.71473	12019.675
568.7464	12182.675
572.7752	12426.775
576.80114	12663.475
580.82422	12882.475
584.84444	13079.875
588.86181	13233.275
592.87633	13373.575
596.888	13436.775
600.89682	13426.575
604.9028	13747.775
608.90594	14685.975
612.90624	15633.775
616.90371	14721.475
620.89834	12657.875
624.89015	11779.375
628.87913	11762.775
632.86528	11808.375
636.84862	11700.875
640.82913	11523.975
644.80683	11252.075
648.78172	11016.475
652.75379	10947.775
656.72306	11005.275
660.68952	11142.675
664.65319	11120.675
668.61405	10937.375
672.57211	10879.475
676.52738	10882.075
680.47986	10871.875
684.42955	10838.675
688.37646	10795.875
692.32058	10843.275
696.26192	10931.175
700.20048	11039.175
704.13626	11109.075
708.06928	11087.175
711.99952	11052.375
715.927	11001.975
719.85171	11004.775
723.77365	11019.975
727.69284	10910.975
731.60928	10797.075
735.52295	10756.975
739.43388	10794.275
743.34206	10796.375
747.24749	10813.975
751.15017	10924.775
755.05012	11095.575
758.94733	11390.475
762.8418	11924.275
766.73354	12744.875
770.62254	13530.975
774.50882	13695.375
778.39237	13087.475
782.27321	12215.275
786.15132	11474.175
790.02671	11057.175
793.89938	10871.875
797.76935	10840.775
801.6366	10799.075
805.50115	10772.275
809.36299	10705.575
813.22213	10626.275
817.07857	10558.975
820.93231	10533.275
824.78336	10518.575
828.63172	10478.175
832.47738	10463.875
836.32036	10481.775
840.16066	10545.575
843.99827	10606.775
847.8332	10576.275
851.66546	10489.375
855.49504	10471.675
859.32195	10439.475
863.1462	10444.075
866.96777	10408.875
870.78668	10388.375
874.60293	10379.775
878.41652	10344.875
882.22745	10367.375
886.03573	10391.675
889.84136	10405.475
893.64433	10366.475
897.44466	10314.175
901.24235	10290.775
905.0374	10219.675
908.8298	10220.975
912.61957	10241.875
916.40671	10337.575
920.19121	10490.975
923.97308	10642.575
927.75233	10668.675
931.52895	10623.075
935.30295	10506.975
939.07433	10305.075
942.84309	10150.475
946.60924	10084.375
950.37278	10070.275
954.13371	10014.675
957.89203	9986.475
961.64774	9942.775
965.40086	9917.675
969.15137	9869.375
972.89929	9794.875
976.64461	9792.375
980.38733	9764.375
984.12747	9814.675
987.86502	9904.775
991.59999	10058.275
995.33237	10262.875
999.06217	10574.675
1002.78939	10970.575
1006.51404	11112.375
1010.23611	11164.675
1013.95561	11214.875
1017.67255	11226.175
1021.38692	11149.875
1025.09872	11049.275
1028.80796	11155.475
1032.51465	11547.475
1036.21877	11939.775
1039.92035	11987.975
1043.61937	11786.975
1047.31584	11431.275
1051.00976	11125.775
1054.70114	10937.075
1058.38998	10951.475
1062.07627	11021.975
1065.76003	11021.075
1069.44126	11083.775
1073.11995	11180.575
1076.79611	11282.975
1080.46974	11370.275
1084.14085	11459.175
1087.80943	11532.675
1091.47549	11601.575
1095.13903	11597.175
1098.80005	11497.875
1102.45857	11248.975
1106.11456	11109.775
1109.76805	11039.775
1113.41903	11047.975
1117.06751	11104.575
1120.71348	11191.675
1124.35696	11322.475
1127.99793	11419.375
1131.63641	11502.575
1135.2724	11448.475
1138.90589	11396.875
1142.5369	11345.475
1146.16542	11328.675
1149.79145	11403.875
1153.415	11489.475
1157.03607	11624.075
1160.65467	11932.675
1164.27079	12359.175
1167.88443	12984.075
1171.49561	13794.175
1175.10432	14805.075
1178.71056	16018.475
1182.31434	17204.475
1185.91565	17852.075
1189.51451	17877.375
1193.11091	17412.875
1196.70485	16689.875
1200.29634	15964.875
1203.88538	15391.875
1207.47197	14992.175
1211.05612	14709.075
1214.63782	14460.775
1218.21708	14229.975
1221.79391	14089.075
1225.36829	14029.275
1228.94024	13832.275
1232.50976	13585.875
1236.07685	13318.175
1239.6415	13193.875
1243.20374	13148.975
1246.76355	13192.575
1250.32093	13428.175
1253.8759	13679.175
1257.42845	14045.975
1260.97859	14430.275
1264.52631	14783.275
1268.07163	15177.975
1271.61453	15624.175
1275.15503	16162.975
1278.69312	16715.975
1282.22882	17204.375
1285.76211	17579.175
1289.29301	17941.775
1292.82151	18473.175
1296.34761	19271.375
1299.87133	20372.375
1303.39266	21598.475
1306.9116	22975.475
1310.42815	24302.075
1313.94233	25090.875
1317.45412	25082.375
1320.96354	24553.275
1324.47058	24006.975
1327.97525	23517.975
1331.47754	23139.875
1334.97747	22902.475
1338.47502	22835.675
1341.97022	22797.375
1345.46305	22613.475
1348.95352	22292.175
1352.44163	21946.575
1355.92738	22045.775
1359.41078	22643.275
1362.89183	23282.775
1366.37053	22887.575
1369.84688	21195.375
1373.32088	19191.575
1376.79254	17746.675
1380.26186	17133.475
1383.72883	17071.075
1387.19347	17133.975
1390.65578	17038.975
1394.11575	17000.175
1397.57339	17205.775
1401.0287	17552.375
1404.48168	17853.975
1407.93234	17917.375
1411.38068	17657.875
1414.82669	17107.475
1418.27039	16393.475
1421.71177	15665.475
1425.15083	15131.575
1428.58758	14796.775
1432.02203	14793.875
1435.45416	15043.175
1438.88399	15502.175
1442.31151	15909.675
1445.73673	16184.875
1449.15965	16472.875
1452.58027	16661.375
1455.9986	16736.775
1459.41463	16896.475
1462.82837	17105.975
1466.23982	17442.375
1469.64898	17734.775
1473.05586	17868.875
1476.46045	17843.875
1479.86276	17697.375
1483.26279	17444.275
1486.66054	17237.575
1490.05602	17114.375
1493.44922	17176.075
1496.84016	17280.975
1500.22882	17530.375
1503.61521	17973.775
1506.99934	18575.975
1510.38121	19144.375
1513.76081	19362.775
1517.13816	19040.275
1520.51324	18479.475
1523.88607	17871.275
1527.25665	17511.575
1530.62498	17350.875
1533.99105	17301.075
1537.35488	17205.275
1540.71647	17057.275
1544.07581	16769.075
1547.4329	16441.775
1550.78776	16140.975
1554.14038	15922.675
1557.49077	15819.875
1560.83892	15732.675
1564.18484	15704.675
1567.52853	15748.075
1570.86999	15805.175
1574.20922	16006.375
1577.54624	16239.875
1580.88103	16315.575
1584.2136	16411.275
1587.54395	16799.875
1590.87208	17542.675
1594.19801	18512.075
1597.52172	19606.575
1600.84321	19998.575
1604.16251	19242.575
1607.47959	17836.875
1610.79447	16301.975
1614.10715	14957.775
1617.41763	13842.575
1620.7259	13020.575
1624.03199	12586.575
1627.33587	12533.775
1630.63757	12869.975
1633.93707	13607.475
1637.23439	14809.375
1640.52951	16425.175
1643.82246	18173.275
1647.11321	19529.375
1650.40179	19784.275
1653.68819	18550.275
1656.97241	16396.875
1660.25446	14172.675
1663.53433	12468.475
1666.81203	11319.175
1670.08756	10653.875
1673.36092	10231.275
1676.63211	9954.075
1679.90115	9762.175
1683.16801	9585.775
1686.43272	9465.675
1689.69527	9354.875
1692.95567	9269.075
1696.2139	9169.775
1699.46999	9103.975
1702.72392	9069.175
1705.97571	9062.675
1709.22535	9110.775
1712.47284	9086.975
1715.71819	9070.575
1718.96139	9070.675
1722.20246	9062.975
1725.44139	9013.075
1728.67818	8975.875
1731.91284	8940.975
1735.14537	8879.275
1738.37576	8846.175
1741.60403	8788.275
1744.83017	8754.675
1748.05418	8727.475
1751.27607	8723.975
1754.49584	8675.775
1757.71349	8659.175
1760.92903	8640.675
1764.14244	8625.075
1767.35375	8613.575
1770.56294	8588.875
1773.77002	8620.975
1776.97499	8599.775
1780.17785	8595.875
1783.37861	8596.675
1786.57727	8604.475
1789.77382	8570.975
1792.96828	8570.075
1796.16064	8587.675
1799.3509	8554.375
1802.53907	8554.575
1805.72514	8510.275
1808.90913	8479.175
1812.09102	8469.475
1815.27083	8467.675
1818.44856	8446.075
1821.6242	8435.775
1824.79776	8426.575
1827.96924	8425.875
1831.13864	8417.875
1834.30597	8412.175
1837.47122	8405.475
1840.6344	8412.775
1843.7955	8398.075
1846.95454	8428.275
1850.11151	8416.875
1853.26642	8412.475
1856.41926	8421.575
1859.57004	8426.675
1862.71876	8415.475
1865.86542	8411.175
1869.01003	8390.375
1872.15258	8383.775
1875.29308	8378.475
1878.43152	8356.575
1881.56792	8353.075
1884.70227	8338.275
1887.83457	8369.175
1890.96482	8355.475
1894.09304	8347.875
1897.21921	8329.175
1900.34335	8341.375
1903.46544	8335.675
1906.58551	8320.375
1909.70353	8316.975
1912.81953	8309.375
1915.93349	8281.575
1919.04543	8293.275
1922.15534	8253.475
1925.26322	8227.275
1928.36908	8209.875
1931.47292	8175.675
1934.57473	8158.175
1937.67453	8158.275
1940.77232	8132.375
1943.86808	8084.375
1946.96184	8063.575
1950.05358	8047.575
1953.14331	8029.575
1956.23103	7991.075
1959.31675	7969.275
1962.40046	7955.775
1965.48217	7927.675
1968.56188	7901.475
1971.63959	7882.175
1974.7153	7866.675
1977.78901	7853.775
1980.86073	7820.175
1983.93046	7801.475
1986.99819	7771.075
1990.06394	7734.675
1993.1277	7715.775
1996.18947	7672.075
1999.24925	7680.175
2002.30706	7647.675
2005.36288	7628.675
2008.41672	7621.375
2011.46859	7594.975
2014.51848	7545.575
2017.56639	7539.575
2020.61233	7540.275
2023.6563	7522.375
2026.6983	7501.675
2029.73833	7502.575
2032.7764	7488.875
2035.8125	7478.975
2038.84664	7453.875
2041.87881	7450.675
2044.90903	7433.775
2047.93729	7422.675
2050.96359	7401.475
2053.98794	7402.875
2057.01034	7419.675
2060.03078	7401.375
2063.04927	7422.575
2066.06582	7404.675
2069.08042	7400.875
2072.09307	7392.175
2075.10378	7383.175
2078.11255	7390.975
2081.11938	7395.775
2084.12426	7367.875
2087.12722	7376.875
2090.12824	7357.875
2093.12732	7370.675
2096.12447	7349.075
2099.11969	7338.075
2102.11299	7370.875
2105.10435	7377.075
2108.09379	7356.375
2111.08131	7360.575
2114.0669	7369.275
2117.05057	7398.575
2120.03233	7387.375
2123.01216	7378.675
2125.99008	7411.375
2128.96609	7397.475
2131.94018	7400.175
2134.91236	7420.075
2137.88263	7421.575
2140.851	7427.275
2143.81746	7433.775
2146.78201	7428.975
2149.74466	7422.575
2152.7054	7429.275
2155.66425	7445.175
2158.6212	7445.775
2161.57625	7434.175
2164.52941	7417.975
2167.48067	7445.275
2170.43004	7411.275
2173.37752	7407.075
2176.32311	7397.975
2179.26681	7427.775
2182.20863	7401.775
2185.14856	7425.175
2188.08661	7442.775
2191.02278	7425.475
2193.95707	7437.875
2196.88948	7419.675
2199.82001	7430.175
2202.74867	7436.875
2205.67545	7432.975
2208.60037	7417.975
2211.52341	7411.575
2214.44458	7390.775
2217.36388	7390.475
2220.28132	7405.975
2223.1969	7392.475
2226.11061	7356.375
2229.02246	7359.075
2231.93245	7355.575
2234.84058	7331.275
2237.74686	7302.975
2240.65128	7317.475
2243.55385	7301.775
2246.45456	7286.975
2249.35343	7245.775
2252.25044	7251.875
2255.14561	7260.575
2258.03893	7233.075
2260.93041	7220.075
2263.82004	7210.575
2266.70783	7202.775
2269.59378	7189.075
2272.4779	7157.575
2275.36017	7134.475
2278.24061	7133.575
2281.11922	7125.075
2283.996	7111.275
2286.87094	7103.475
2289.74405	7105.575
2292.61534	7084.075
2295.4848	7071.975
2298.35243	7077.975
2301.21824	7094.575
2304.08223	7101.475
2306.94439	7098.575
2309.80474	7112.475
2312.66327	7113.875
2315.51999	7113.275
2318.37489	7136.075
2321.22797	7123.175
2324.07925	7117.275
2326.92871	7079.375
2329.77637	7084.975
2332.62222	7086.475
2335.46626	7080.875
2338.3085	7075.475
2341.14893	7072.075
2343.98756	7091.375
2346.8244	7076.575
2349.65943	7081.075
2352.49267	7085.375
2355.32411	7097.375
2358.15376	7078.775
2360.98161	7062.175
2363.80768	7054.675
2366.63195	7047.975
2369.45444	7066.175
2372.27514	7028.075
2375.09405	7013.675
2377.91118	7001.475
2380.72652	6983.675
2383.54009	6978.975
2386.35187	6994.075
2389.16188	6949.675
2391.97011	6932.875
2394.77657	6926.975
2397.58125	6916.175
2400.38416	6895.875
2403.18529	6908.775
2405.98466	6895.175
2408.78226	6898.175
2411.57809	6871.075
2414.37216	6846.175
2417.16446	6859.175
2419.955	6824.375
2422.74378	6838.575
2425.5308	6810.575
2428.31606	6823.275
2431.09956	6824.075
2433.88131	6826.675
2436.6613	6826.775
2439.43954	6818.275
2442.21603	6822.275
2444.99077	6814.175
2447.76377	6815.175
2450.53501	6811.575
2453.30451	6820.775
2456.07226	6794.375
2458.83827	6800.875
2461.60254	6797.475
2464.36507	6800.575
2467.12586	6808.475
2469.88492	6796.075
2472.64224	6799.675
2475.39782	6802.375
2478.15167	6813.775
2480.90379	6809.675
2483.65417	6834.875
2486.40283	6813.575
2489.14976	6845.375
2491.89497	6831.275
2494.63845	6844.775
2497.3802	6838.575
2500.12024	6839.275
2502.85855	6839.275
2505.59514	6838.275
2508.33002	6815.575
2511.06318	6800.975
2513.79462	6794.975
2516.52435	6787.275
2519.25237	6780.575
2521.97867	6795.775
2524.70327	6805.575
2527.42616	6788.375
2530.14734	6777.575
2532.86681	6791.075
2535.58458	6788.575
2538.30065	6777.275
2541.01501	6800.275
2543.72768	6785.475
2546.43864	6761.675
2549.14791	6770.775
2551.85548	6751.275
2554.56136	6726.975
2557.26554	6739.575
2559.96803	6711.175
2562.66883	6738.775
2565.36794	6732.875
2568.06536	6727.575
2570.7611	6714.475
2573.45514	6707.775
2576.14751	6710.475
2578.83819	6706.275
2581.52719	6710.375
2584.21451	6703.475
2586.90015	6724.575
2589.58411	6680.875
2592.2664	6702.775
2594.94701	6683.975
2597.62594	6696.875
2600.30321	6680.675
2602.9788	6684.275
2605.65273	6675.575
2608.32498	6679.975
2610.99557	6670.675
2613.66449	6678.275
2616.33175	6690.375
2618.99734	6688.675
2621.66128	6698.975
2624.32355	6685.375
2626.98416	6689.775
2629.64311	6676.075
2632.30041	6692.675
2634.95605	6687.675
2637.61004	6671.975
2640.26238	6655.775
2642.91306	6679.875
2645.56209	6657.375
2648.20948	6664.475
2650.85521	6655.675
2653.4993	6646.475
2656.14175	6663.575
2658.78255	6665.575
2661.42171	6667.175
2664.05923	6679.375
2666.6951	6673.275
2669.32934	6661.975
2671.96194	6654.975
2674.59291	6665.175
2677.22224	6658.275
2679.84993	6690.875
2682.476	6652.775
2685.10043	6656.175
2687.72324	6636.175
2690.34441	6619.475
2692.96396	6663.975
2695.58188	6629.475
2698.19818	6639.475
2700.81285	6639.975
2703.4259	6639.375
2706.03733	6625.275
2708.64714	6606.475
2711.25533	6650.775
2713.86191	6641.075
2716.46687	6655.475
2719.07021	6669.275
2721.67194	6667.175
2724.27206	6687.375
2726.87057	6671.675
2729.46747	6672.575
2732.06276	6674.875
2734.65644	6681.075
2737.24852	6687.275
2739.83899	6675.675
2742.42786	6677.375
2745.01513	6658.375
2747.60079	6673.875
2750.18486	6635.175
2752.76733	6661.375
2755.3482	6650.575
2757.92747	6637.175
2760.50515	6659.075
2763.08123	6665.775
2765.65573	6627.275
2768.22863	6648.775
2770.79994	6644.075
2773.36967	6651.775
2775.9378	6653.175
2778.50435	6646.175
2781.06932	6654.675
2783.6327	6644.475
2786.1945	6646.575
2788.75471	6643.075
2791.31335	6599.075
2793.87041	6604.875
2796.42589	6585.175
2798.97979	6611.175
2801.53212	6595.275
2804.08288	6584.475
2806.63206	6562.775
2809.17967	6540.775
2811.72571	6545.875
2814.27018	6541.075
2816.81308	6526.475
2819.35442	6516.275
2821.89419	6528.875
2824.43239	6523.275
2826.96904	6516.075
2829.50412	6516.975
2832.03763	6500.675
2834.56959	6506.375
2837.1	6490.075
2839.62884	6495.575
2842.15613	6498.675
2844.68186	6515.175
2847.20604	6508.775
2849.72867	6532.075
2852.24974	6502.175
2854.76927	6509.475
2857.28724	6491.675
2859.80367	6490.075
2862.31855	6466.275
2864.83189	6474.375
2867.34368	6469.775
2869.85393	6478.975
2872.36264	6483.475
2874.8698	6472.475
2877.37543	6452.875
2879.87952	6464.175
2882.38207	6458.875
2884.88308	6466.075
2887.38256	6469.275
2889.88051	6504.975
2892.37692	6480.275
2894.8718	6472.275
2897.36515	6469.875
2899.85698	6475.975
2902.34727	6515.175
2904.83604	6515.875
2907.32328	6512.275
2909.809	6537.075
2912.29319	6529.675
2914.77587	6549.975
2917.25702	6532.575
2919.73665	6528.175
2922.21476	6529.775
2924.69136	6519.975
2927.16644	6529.975
2929.64	6520.475
2932.11205	6503.975
2934.58258	6479.775
2937.05161	6492.675
2939.51912	6491.675
2941.98513	6477.575
2944.44962	6467.875
2946.91261	6453.975
2949.37409	6475.275
2951.83407	6454.975
2954.29254	6453.575
2956.74951	6436.075
2959.20498	6444.075
2961.65895	6432.775
2964.11142	6438.575
2966.56239	6421.175
2969.01186	6423.875
2971.45984	6398.075
2973.90632	6404.475
2976.35131	6374.575
2978.7948	6361.275
2981.23681	6367.875
2983.67732	6348.375
2986.11635	6332.675
2988.55388	6322.275
2990.98993	6306.675
2993.4245	6309.875
2995.85758	6289.075
2998.28917	6268.475
3000.71928	6273.075
3003.14791	6253.175
3005.57506	6245.775
3008.00073	6251.975
3010.42493	6250.275
3012.84764	6241.375
3015.26888	6237.175
3017.68865	6213.275
3020.10694	6218.675
3022.52376	6195.675
3024.9391	6191.075
3027.35298	6199.475
3029.76539	6193.775
3032.17632	6172.775
3034.5858	6165.475
3036.9938	6164.075
3039.40034	6170.975
3041.80542	6187.475
3044.20903	6170.175
3046.61118	6175.575
3049.01187	6158.275
3051.4111	6161.575
3053.80888	6155.675
3056.20519	6133.475
3058.60005	6116.975
3060.99345	6089.975
3063.3854	6109.475
3065.7759	6064.375
3068.16494	6093.675
3070.55254	6076.675
3072.93868	6059.975
3075.32338	6051.375
3077.70662	6052.075
3080.08842	6034.775
3082.46878	6017.675
3084.84769	6030.875
3087.22515	6038.575
3089.60118	6035.375
3091.97576	6012.675
3094.3489	6028.675
3096.72061	6022.375
3099.09087	6051.575
3101.4597	6034.575
3103.82709	6015.975
3106.19305	6033.875
3108.55757	6036.075
3110.92066	6021.575
3113.28232	6006.675
3115.64255	6009.075
3118.00134	6008.775
3120.35871	6002.375
3122.71466	5975.175
3125.06917	5979.675
3127.42226	5952.675
3129.77393	5976.075
3132.12417	5956.775
3134.47299	5974.275
3136.82039	5967.175
3139.16636	5958.575
3141.51092	5977.675
3143.85406	5993.175
3146.19579	6011.975
3148.53609	5986.175
3150.87499	5999.875
3153.21246	5998.875
3155.54853	6018.775
3157.88318	6014.275
3160.21642	6018.575
3162.54826	6035.175
3164.87868	6028.275
3167.2077	6039.075
3169.5353	6039.475
3171.86151	6056.575
3174.18631	6038.775
3176.5097	6053.375
3178.83169	6050.075
3181.15228	6034.075
3183.47147	6033.475
3185.78926	6031.275
3188.10565	6028.775
3190.42065	6034.575
3192.73424	6046.975
