Data from AgNPs_FTO_APTES_UA_1uM_CRN_10uM_R6G_10uM_NaF_0.1M_Addition_RamanShift__4__14-20-29-625.txt Node

Date: Thu Jan 27 14:20:29 GMT 2022
User: TCL
Spectrometer: QEP01345
Trigger mode: 4
Integration Time (sec): 7.000000E0
Scans to average: 10
Electric dark correction enabled: true
Nonlinearity correction enabled: false
Boxcar width: 0
XAxis mode: Raman Shifts
Number of Pixels in Spectrum: 1044
>>>>>Begin Spectral Data<<<<<
46.04893	1.675
50.45542	-0.225
54.85868	-0.625
59.25871	-2.325
63.6555	47.775
68.04907	53.475
72.43941	52.575
76.82654	61.475
81.21044	59.875
85.59113	62.375
89.96862	62.675
94.34289	65.575
98.71396	67.675
103.08183	68.375
107.4465	71.475
111.80798	71.575
116.16626	74.175
120.52136	76.475
124.87327	75.675
129.222	81.475
133.56755	84.675
137.90993	90.875
142.24913	94.575
146.58517	104.275
150.91804	120.375
155.24774	139.775
159.57429	164.175
163.89768	209.975
168.21792	277.675
172.53501	379.275
176.84895	516.175
181.15975	717.175
185.46741	1001.675
189.77193	1376.375
194.07331	1853.375
198.37157	2388.275
202.6667	2947.975
206.9587	3497.375
211.24758	4031.575
215.53334	4597.675
219.81599	5167.775
224.09553	5811.875
228.37195	6519.575
232.64527	7288.275
236.91549	8097.775
241.18261	8911.275
245.44663	9678.075
249.70755	10368.875
253.96539	10987.175
258.22014	11481.675
262.4718	11929.775
266.72039	12207.575
270.96589	12357.875
275.20832	12377.375
279.44768	12300.575
283.68397	12157.675
287.91719	12068.975
292.14735	11991.775
296.37445	11938.875
300.59849	11992.175
304.81948	12048.375
309.03742	12088.875
313.25231	12039.475
317.46415	11844.875
321.67296	11588.775
325.87872	11366.675
330.08145	11263.075
334.28114	11252.775
338.47781	11309.075
342.67145	11460.675
346.86207	11636.575
351.04966	11866.575
355.23424	12099.475
359.4158	12314.575
363.59435	12462.975
367.76989	12608.775
371.94243	12675.475
376.11196	12737.175
380.27849	12807.075
384.44203	12886.975
388.60257	12980.775
392.76012	13083.575
396.91468	13258.275
401.06626	13449.075
405.21485	13621.575
409.36047	13571.475
413.50311	13403.175
417.64277	13361.075
421.77947	13356.075
425.9132	13413.975
430.04396	13457.875
434.17176	13523.075
438.2966	13594.475
442.41849	13800.475
446.53742	14151.575
450.6534	14506.575
454.76644	14831.775
458.87653	14900.575
462.98368	14818.875
467.08789	14597.775
471.18916	14402.075
475.2875	14118.475
479.38291	13954.375
483.4754	13858.475
487.56496	13719.275
491.6516	13585.875
495.73531	13494.275
499.81612	13466.175
503.89401	13575.475
507.96899	13604.575
512.04106	13582.775
516.11023	13502.675
520.1765	13396.675
524.23987	13324.375
528.30034	13239.775
532.35792	13181.675
536.41261	13030.675
540.46441	12891.475
544.51333	12855.475
548.55936	12964.175
552.60252	13160.075
556.64279	13459.775
560.6802	13651.175
564.71473	13680.675
568.7464	13814.875
572.7752	14089.275
576.80114	14349.075
580.82422	14656.175
584.84444	15148.975
588.86181	15712.375
592.87633	16200.775
596.888	16194.975
600.89682	15699.975
604.9028	15711.575
608.90594	16754.775
612.90624	18033.775
616.90371	17203.375
620.89834	14798.675
624.89015	13708.575
628.87913	13551.275
632.86528	13512.675
636.84862	13400.575
640.82913	13213.975
644.80683	12910.575
648.78172	12753.475
652.75379	12736.175
656.72306	12897.475
660.68952	13088.875
664.65319	13029.875
668.61405	12810.775
672.57211	12776.875
676.52738	12827.975
680.47986	12810.475
684.42955	12731.375
688.37646	12671.475
692.32058	12779.775
696.26192	12958.875
700.20048	13130.575
704.13626	13232.075
708.06928	13146.175
711.99952	13085.175
715.927	13084.975
719.85171	13140.675
723.77365	13123.275
727.69284	12973.675
731.60928	12798.875
735.52295	12727.275
739.43388	12733.375
743.34206	12806.575
747.24749	12860.375
751.15017	12964.875
755.05012	13143.275
758.94733	13467.475
762.8418	13998.875
766.73354	14836.075
770.62254	15627.275
774.50882	15844.675
778.39237	15328.375
782.27321	14437.475
786.15132	13707.975
790.02671	13244.675
793.89938	13046.275
797.76935	12972.575
801.6366	12939.575
805.50115	12900.275
809.36299	12803.275
813.22213	12737.575
817.07857	12655.775
820.93231	12610.375
824.78336	12579.275
828.63172	12585.075
832.47738	12613.575
836.32036	12672.275
840.16066	12765.575
843.99827	12826.775
847.8332	12796.975
851.66546	12678.175
855.49504	12660.275
859.32195	12635.575
863.1462	12611.675
866.96777	12557.775
870.78668	12518.675
874.60293	12538.075
878.41652	12526.975
882.22745	12576.975
886.03573	12618.975
889.84136	12644.675
893.64433	12594.175
897.44466	12520.375
901.24235	12464.275
905.0374	12437.575
908.8298	12412.075
912.61957	12439.875
916.40671	12536.475
920.19121	12705.775
923.97308	12911.875
927.75233	12983.175
931.52895	12959.475
935.30295	12825.375
939.07433	12631.175
942.84309	12492.675
946.60924	12435.375
950.37278	12399.175
954.13371	12355.875
957.89203	12273.475
961.64774	12222.575
965.40086	12223.275
969.15137	12207.775
972.89929	12153.575
976.64461	12164.675
980.38733	12219.475
984.12747	12283.075
987.86502	12405.775
991.59999	12557.775
995.33237	12843.175
999.06217	13213.775
1002.78939	13678.175
1006.51404	13914.375
1010.23611	14029.275
1013.95561	14098.675
1017.67255	14067.475
1021.38692	13929.275
1025.09872	13832.275
1028.80796	13969.275
1032.51465	14554.975
1036.21877	15121.275
1039.92035	15289.875
1043.61937	15087.975
1047.31584	14590.475
1051.00976	14081.475
1054.70114	13761.375
1058.38998	13600.175
1062.07627	13598.975
1065.76003	13593.775
1069.44126	13688.975
1073.11995	13840.175
1076.79611	14014.875
1080.46974	14106.175
1084.14085	14237.375
1087.80943	14336.875
1091.47549	14404.875
1095.13903	14366.875
1098.80005	14192.475
1102.45857	13931.575
1106.11456	13749.775
1109.76805	13675.775
1113.41903	13699.875
1117.06751	13759.875
1120.71348	13829.475
1124.35696	13910.375
1127.99793	14084.975
1131.63641	14184.775
1135.2724	14087.075
1138.90589	14021.975
1142.5369	14002.575
1146.16542	14024.675
1149.79145	14069.275
1153.415	14141.075
1157.03607	14272.975
1160.65467	14586.075
1164.27079	15212.675
1167.88443	15912.175
1171.49561	16730.875
1175.10432	17738.975
1178.71056	19023.475
1182.31434	20288.975
1185.91565	20997.275
1189.51451	20924.875
1193.11091	20335.175
1196.70485	19536.475
1200.29634	18886.575
1203.88538	18430.975
1207.47197	18121.275
1211.05612	17805.875
1214.63782	17464.875
1218.21708	17153.875
1221.79391	16879.075
1225.36829	16684.475
1228.94024	16495.975
1232.50976	16177.275
1236.07685	15938.075
1239.6415	15820.775
1243.20374	15818.075
1246.76355	15986.775
1250.32093	16298.275
1253.8759	16615.275
1257.42845	17050.275
1260.97859	17494.975
1264.52631	17965.875
1268.07163	18515.075
1271.61453	19099.375
1275.15503	19681.275
1278.69312	20250.775
1282.22882	20737.175
1285.76211	21150.675
1289.29301	21647.175
1292.82151	22382.975
1296.34761	23425.875
1299.87133	24858.975
1303.39266	26493.175
1306.9116	28046.875
1310.42815	29216.275
1313.94233	29548.875
1317.45412	29073.375
1320.96354	28146.475
1324.47058	27307.675
1327.97525	26649.475
1331.47754	26189.275
1334.97747	25868.675
1338.47502	25592.575
1341.97022	25209.775
1345.46305	24766.175
1348.95352	24565.375
1352.44163	24808.475
1355.92738	25694.575
1359.41078	27128.275
1362.89183	28215.375
1366.37053	27883.575
1369.84688	25729.875
1373.32088	23022.575
1376.79254	21099.975
1380.26186	20308.175
1383.72883	20209.175
1387.19347	20211.575
1390.65578	19891.875
1394.11575	19686.975
1397.57339	19764.975
1401.0287	20022.175
1404.48168	20304.375
1407.93234	20359.075
1411.38068	20194.975
1414.82669	19766.975
1418.27039	19181.575
1421.71177	18542.375
1425.15083	18039.375
1428.58758	17735.275
1432.02203	17838.575
1435.45416	18294.675
1438.88399	18804.975
1442.31151	19165.575
1445.73673	19355.175
1449.15965	19441.175
1452.58027	19394.175
1455.9986	19247.275
1459.41463	19234.075
1462.82837	19451.975
1466.23982	19849.475
1469.64898	20219.775
1473.05586	20514.175
1476.46045	20704.975
1479.86276	20699.775
1483.26279	20533.875
1486.66054	20385.775
1490.05602	20441.375
1493.44922	20630.075
1496.84016	20830.175
1500.22882	21028.975
1503.61521	21430.575
1506.99934	22004.475
1510.38121	22548.375
1513.76081	22685.675
1517.13816	22270.875
1520.51324	21549.675
1523.88607	20912.375
1527.25665	20628.675
1530.62498	20504.875
1533.99105	20450.775
1537.35488	20272.175
1540.71647	19963.975
1544.07581	19608.475
1547.4329	19212.175
1550.78776	18852.375
1554.14038	18609.275
1557.49077	18455.575
1560.83892	18349.575
1564.18484	18247.675
1567.52853	18278.475
1570.86999	18395.375
1574.20922	18638.775
1577.54624	18897.475
1580.88103	18996.275
1584.2136	19229.075
1587.54395	19811.375
1590.87208	20908.075
1594.19801	22244.175
1597.52172	23499.975
1600.84321	23898.375
1604.16251	22842.875
1607.47959	21016.475
1610.79447	19109.875
1614.10715	17517.175
1617.41763	16274.875
1620.7259	15553.275
1624.03199	15199.675
1627.33587	15268.975
1630.63757	15694.475
1633.93707	16540.075
1637.23439	17809.475
1640.52951	19741.575
1643.82246	22016.775
1647.11321	23743.575
1650.40179	24044.675
1653.68819	22396.675
1656.97241	19567.175
1660.25446	16980.275
1663.53433	15128.175
1666.81203	13966.775
1670.08756	13270.175
1673.36092	12837.875
1676.63211	12569.675
1679.90115	12355.275
1683.16801	12208.975
1686.43272	12098.375
1689.69527	11968.475
1692.95567	11893.275
1696.2139	11832.575
1699.46999	11776.675
1702.72392	11759.975
1705.97571	11744.075
1709.22535	11764.675
1712.47284	11762.575
1715.71819	11788.975
1718.96139	11749.375
1722.20246	11740.275
1725.44139	11712.775
1728.67818	11635.775
1731.91284	11596.175
1735.14537	11530.675
1738.37576	11479.275
1741.60403	11477.175
1744.83017	11406.975
1748.05418	11416.975
1751.27607	11356.375
1754.49584	11326.275
1757.71349	11327.275
1760.92903	11277.375
1764.14244	11283.175
1767.35375	11289.575
1770.56294	11266.975
1773.77002	11287.075
1776.97499	11281.175
1780.17785	11261.975
1783.37861	11285.975
1786.57727	11260.175
1789.77382	11258.075
1792.96828	11254.975
1796.16064	11218.075
1799.3509	11212.175
1802.53907	11203.775
1805.72514	11178.575
1808.90913	11156.675
1812.09102	11145.875
1815.27083	11119.675
1818.44856	11128.075
1821.6242	11109.875
1824.79776	11092.675
1827.96924	11091.275
1831.13864	11066.075
1834.30597	11072.675
1837.47122	11086.075
1840.6344	11077.775
1843.7955	11074.675
1846.95454	11087.475
1850.11151	11087.175
1853.26642	11088.375
1856.41926	11078.175
1859.57004	11102.275
1862.71876	11086.275
1865.86542	11074.575
1869.01003	11047.775
1872.15258	11021.975
1875.29308	11056.775
1878.43152	11016.875
1881.56792	11026.575
1884.70227	11024.375
1887.83457	10998.175
1890.96482	11010.375
1894.09304	10988.675
1897.21921	10974.875
1900.34335	10967.275
1903.46544	10981.275
1906.58551	10958.175
1909.70353	10939.575
1912.81953	10920.875
1915.93349	10896.675
1919.04543	10896.275
1922.15534	10868.275
1925.26322	10843.675
1928.36908	10844.875
1931.47292	10831.075
1934.57473	10812.275
1937.67453	10772.275
1940.77232	10781.575
1943.86808	10733.175
1946.96184	10708.975
1950.05358	10660.975
1953.14331	10643.075
1956.23103	10607.675
1959.31675	10573.475
1962.40046	10592.775
1965.48217	10537.375
1968.56188	10539.575
1971.63959	10506.675
1974.7153	10466.475
1977.78901	10448.575
1980.86073	10423.575
1983.93046	10407.075
1986.99819	10364.275
1990.06394	10337.275
1993.1277	10318.375
1996.18947	10268.175
1999.24925	10254.675
2002.30706	10228.675
2005.36288	10203.275
2008.41672	10174.975
2011.46859	10145.075
2014.51848	10123.875
2017.56639	10109.775
2020.61233	10109.475
2023.6563	10083.575
2026.6983	10065.375
2029.73833	10062.875
2032.7764	10052.975
2035.8125	10048.275
2038.84664	10016.375
2041.87881	10007.875
2044.90903	9986.275
2047.93729	9974.675
2050.96359	9961.475
2053.98794	9959.375
2057.01034	9946.675
2060.03078	9957.775
2063.04927	9953.475
2066.06582	9965.775
2069.08042	9955.775
2072.09307	9938.175
2075.10378	9939.175
2078.11255	9929.375
2081.11938	9905.775
2084.12426	9898.475
2087.12722	9894.975
2090.12824	9906.075
2093.12732	9893.675
2096.12447	9918.475
2099.11969	9915.975
2102.11299	9950.675
2105.10435	9945.575
2108.09379	9961.575
2111.08131	9967.175
2114.0669	9978.175
2117.05057	9977.575
2120.03233	9975.375
2123.01216	9993.775
2125.99008	10018.975
2128.96609	10013.975
2131.94018	10015.875
2134.91236	10034.275
2137.88263	10045.575
2140.851	10050.375
2143.81746	10069.775
2146.78201	10072.975
2149.74466	10081.875
2152.7054	10087.675
2155.66425	10069.875
2158.6212	10076.375
2161.57625	10064.275
2164.52941	10072.975
2167.48067	10078.875
2170.43004	10080.275
2173.37752	10086.075
2176.32311	10074.875
2179.26681	10089.775
2182.20863	10080.575
2185.14856	10059.675
2188.08661	10124.975
2191.02278	10121.475
2193.95707	10118.275
2196.88948	10122.975
2199.82001	10120.475
2202.74867	10120.375
2205.67545	10133.775
2208.60037	10118.375
2211.52341	10089.375
2214.44458	10102.275
2217.36388	10092.075
2220.28132	10080.775
2223.1969	10039.075
2226.11061	10043.375
2229.02246	10012.875
2231.93245	10018.175
2234.84058	10004.675
2237.74686	9980.475
2240.65128	9977.875
2243.55385	9973.175
2246.45456	9984.375
2249.35343	9935.475
2252.25044	9938.775
2255.14561	9940.675
2258.03893	9892.375
2260.93041	9889.375
2263.82004	9874.775
2266.70783	9865.275
2269.59378	9845.875
2272.4779	9835.675
2275.36017	9818.875
2278.24061	9811.775
2281.11922	9796.075
2283.996	9781.275
2286.87094	9782.175
2289.74405	9781.075
2292.61534	9764.875
2295.4848	9764.675
2298.35243	9791.275
2301.21824	9779.775
2304.08223	9795.275
2306.94439	9813.475
2309.80474	9812.375
2312.66327	9829.575
2315.51999	9814.575
2318.37489	9813.875
2321.22797	9825.175
2324.07925	9800.875
2326.92871	9790.475
2329.77637	9793.575
2332.62222	9778.375
2335.46626	9777.375
2338.3085	9757.475
2341.14893	9787.675
2343.98756	9765.475
2346.8244	9781.475
2349.65943	9773.375
2352.49267	9753.275
2355.32411	9751.875
2358.15376	9750.175
2360.98161	9749.875
2363.80768	9731.475
2366.63195	9738.675
2369.45444	9736.875
2372.27514	9701.775
2375.09405	9680.575
2377.91118	9669.275
2380.72652	9670.775
2383.54009	9637.575
2386.35187	9645.475
2389.16188	9597.875
2391.97011	9608.375
2394.77657	9610.875
2397.58125	9584.975
2400.38416	9583.675
2403.18529	9567.975
2405.98466	9562.075
2408.78226	9538.875
2411.57809	9547.475
2414.37216	9510.775
2417.16446	9499.175
2419.955	9504.775
2422.74378	9503.275
2425.5308	9483.075
2428.31606	9488.075
2431.09956	9515.175
2433.88131	9449.475
2436.6613	9491.075
2439.43954	9488.975
2442.21603	9482.675
2444.99077	9487.875
2447.76377	9483.775
2450.53501	9485.575
2453.30451	9492.775
2456.07226	9494.375
2458.83827	9468.475
2461.60254	9486.075
2464.36507	9467.075
2467.12586	9476.875
2469.88492	9474.675
2472.64224	9479.775
2475.39782	9513.675
2478.15167	9508.275
2480.90379	9510.275
2483.65417	9549.375
2486.40283	9515.475
2489.14976	9519.175
2491.89497	9522.075
2494.63845	9556.375
2497.3802	9524.275
2500.12024	9524.775
2502.85855	9504.775
2505.59514	9529.375
2508.33002	9511.075
2511.06318	9505.675
2513.79462	9519.675
2516.52435	9507.375
2519.25237	9506.775
2521.97867	9497.175
2524.70327	9493.175
2527.42616	9467.575
2530.14734	9490.275
2532.86681	9469.875
2535.58458	9473.975
2538.30065	9465.775
2541.01501	9461.275
2543.72768	9477.075
2546.43864	9456.375
2549.14791	9444.775
2551.85548	9437.275
2554.56136	9453.775
2557.26554	9426.275
2559.96803	9438.675
2562.66883	9446.875
2565.36794	9459.375
2568.06536	9430.875
2570.7611	9445.275
2573.45514	9429.675
2576.14751	9400.875
2578.83819	9420.475
2581.52719	9403.875
2584.21451	9407.475
2586.90015	9420.275
2589.58411	9382.975
2592.2664	9397.175
2594.94701	9371.975
2597.62594	9382.175
2600.30321	9384.475
2602.9788	9357.975
2605.65273	9396.275
2608.32498	9380.975
2610.99557	9370.375
2613.66449	9386.675
2616.33175	9380.075
2618.99734	9380.975
2621.66128	9397.475
2624.32355	9346.475
2626.98416	9382.475
2629.64311	9362.975
2632.30041	9366.475
2634.95605	9358.475
2637.61004	9329.775
2640.26238	9332.275
2642.91306	9318.375
2645.56209	9345.675
2648.20948	9322.675
2650.85521	9335.175
2653.4993	9316.375
2656.14175	9332.275
2658.78255	9310.675
2661.42171	9343.475
2664.05923	9340.975
2666.6951	9355.875
2669.32934	9343.775
2671.96194	9353.575
2674.59291	9379.475
2677.22224	9337.375
2679.84993	9384.375
2682.476	9351.975
2685.10043	9333.475
2687.72324	9314.075
2690.34441	9331.375
2692.96396	9346.475
2695.58188	9357.675
2698.19818	9338.875
2700.81285	9337.675
2703.4259	9358.875
2706.03733	9347.575
2708.64714	9337.175
2711.25533	9366.675
2713.86191	9364.175
2716.46687	9370.875
2719.07021	9395.375
2721.67194	9408.075
2724.27206	9392.775
2726.87057	9422.975
2729.46747	9415.175
2732.06276	9430.275
2734.65644	9432.975
2737.24852	9436.975
2739.83899	9412.075
2742.42786	9422.675
2745.01513	9424.475
2747.60079	9417.875
2750.18486	9408.475
2752.76733	9391.675
2755.3482	9424.475
2757.92747	9413.375
2760.50515	9396.575
2763.08123	9399.475
2765.65573	9392.575
2768.22863	9381.375
2770.79994	9405.675
2773.36967	9395.975
2775.9378	9399.775
2778.50435	9391.875
2781.06932	9368.075
2783.6327	9394.675
2786.1945	9392.675
2788.75471	9356.775
2791.31335	9380.875
2793.87041	9344.675
2796.42589	9321.075
2798.97979	9352.175
2801.53212	9343.575
2804.08288	9315.975
2806.63206	9313.975
2809.17967	9277.875
2811.72571	9266.675
2814.27018	9251.275
2816.81308	9239.975
2819.35442	9242.775
2821.89419	9246.975
2824.43239	9236.475
2826.96904	9229.675
2829.50412	9242.775
2832.03763	9226.675
2834.56959	9239.775
2837.1	9203.275
2839.62884	9224.575
2842.15613	9230.675
2844.68186	9246.475
2847.20604	9243.475
2849.72867	9266.875
2852.24974	9231.575
2854.76927	9257.375
2857.28724	9239.075
2859.80367	9222.075
2862.31855	9227.275
2864.83189	9221.075
2867.34368	9192.275
2869.85393	9208.275
2872.36264	9203.475
2874.8698	9207.375
2877.37543	9197.975
2879.87952	9198.075
2882.38207	9204.075
2884.88308	9185.075
2887.38256	9222.875
2889.88051	9212.675
2892.37692	9223.875
2894.8718	9238.675
2897.36515	9252.775
2899.85698	9260.275
2902.34727	9262.375
2904.83604	9297.275
2907.32328	9304.675
2909.809	9294.475
2912.29319	9321.075
2914.77587	9299.675
2917.25702	9295.775
2919.73665	9268.575
2922.21476	9286.775
2924.69136	9290.475
2927.16644	9295.875
2929.64	9302.975
2932.11205	9282.175
2934.58258	9269.175
2937.05161	9274.475
2939.51912	9262.675
2941.98513	9256.475
2944.44962	9229.575
2946.91261	9204.975
2949.37409	9216.475
2951.83407	9226.675
2954.29254	9228.375
2956.74951	9200.275
2959.20498	9205.575
2961.65895	9197.275
2964.11142	9241.775
2966.56239	9178.475
2969.01186	9172.975
2971.45984	9164.675
2973.90632	9190.475
2976.35131	9162.275
2978.7948	9146.875
2981.23681	9141.675
2983.67732	9139.475
2986.11635	9112.375
2988.55388	9083.775
2990.98993	9084.375
2993.4245	9050.975
2995.85758	9045.575
2998.28917	9062.875
3000.71928	9015.175
3003.14791	9006.975
3005.57506	9007.375
3008.00073	8996.175
3010.42493	8997.975
3012.84764	9006.775
3015.26888	8964.175
3017.68865	8966.475
3020.10694	8942.775
3022.52376	8940.675
3024.9391	8929.775
3027.35298	8916.775
3029.76539	8930.275
3032.17632	8944.975
3034.5858	8914.875
3036.9938	8921.575
3039.40034	8905.475
3041.80542	8923.875
3044.20903	8909.975
3046.61118	8904.875
3049.01187	8880.275
3051.4111	8899.575
3053.80888	8884.375
3056.20519	8862.075
3058.60005	8846.775
3060.99345	8824.975
3063.3854	8816.075
3065.7759	8811.475
3068.16494	8810.575
3070.55254	8775.075
3072.93868	8787.175
3075.32338	8757.375
3077.70662	8748.475
3080.08842	8749.475
3082.46878	8729.875
3084.84769	8731.575
3087.22515	8719.375
3089.60118	8724.375
3091.97576	8717.675
3094.3489	8726.075
3096.72061	8714.175
3099.09087	8737.975
3101.4597	8722.475
3103.82709	8742.275
3106.19305	8726.775
3108.55757	8728.675
3110.92066	8708.975
3113.28232	8709.075
3115.64255	8700.975
3118.00134	8685.775
3120.35871	8697.975
3122.71466	8669.175
3125.06917	8666.575
3127.42226	8649.675
3129.77393	8623.875
3132.12417	8626.575
3134.47299	8644.775
3136.82039	8629.275
3139.16636	8656.875
3141.51092	8661.075
3143.85406	8678.475
3146.19579	8646.875
3148.53609	8663.275
3150.87499	8700.975
3153.21246	8693.675
3155.54853	8689.775
3157.88318	8680.975
3160.21642	8704.775
3162.54826	8693.175
3164.87868	8681.675
3167.2077	8702.875
3169.5353	8720.275
3171.86151	8728.975
3174.18631	8718.575
