Data from AgNPs_FTO_APTES_UA_1uM_CRN_1uM_R6G_10uM_NaF_0.1M_Addition_RamanShift__10__12-23-49-491.txt Node

Date: Thu Jan 27 12:23:49 GMT 2022
User: TCL
Spectrometer: QEP01345
Trigger mode: 4
Integration Time (sec): 7.000000E0
Scans to average: 10
Electric dark correction enabled: true
Nonlinearity correction enabled: false
Boxcar width: 0
XAxis mode: Raman Shifts
Number of Pixels in Spectrum: 1044
>>>>>Begin Spectral Data<<<<<
46.04893	0.125
50.45542	0.425
54.85868	-2.375
59.25871	-0.575
63.6555	54.625
68.04907	59.225
72.43941	61.025
76.82654	65.225
81.21044	70.725
85.59113	70.325
89.96862	68.925
94.34289	77.725
98.71396	79.825
103.08183	78.525
107.4465	81.725
111.80798	83.225
116.16626	85.425
120.52136	91.725
124.87327	93.125
129.222	90.825
133.56755	97.925
137.90993	104.725
142.24913	115.425
146.58517	129.325
150.91804	145.625
155.24774	171.425
159.57429	212.825
163.89768	269.725
168.21792	358.325
172.53501	485.025
176.84895	660.825
181.15975	927.525
185.46741	1300.325
189.77193	1788.325
194.07331	2408.125
198.37157	3092.725
202.6667	3835.325
206.9587	4574.925
211.24758	5306.825
215.53334	6011.025
219.81599	6780.825
224.09553	7603.325
228.37195	8521.525
232.64527	9544.325
236.91549	10620.025
241.18261	11724.325
245.44663	12756.025
249.70755	13674.625
253.96539	14482.425
258.22014	15166.925
262.4718	15696.325
266.72039	16062.025
270.96589	16275.025
275.20832	16248.625
279.44768	16099.625
283.68397	15897.625
287.91719	15709.625
292.14735	15563.725
296.37445	15447.425
300.59849	15474.025
304.81948	15578.125
309.03742	15602.425
313.25231	15564.725
317.46415	15365.025
321.67296	15106.625
325.87872	14860.225
330.08145	14767.225
334.28114	14742.325
338.47781	14810.725
342.67145	15031.825
346.86207	15256.325
351.04966	15561.925
355.23424	15853.825
359.4158	16139.825
363.59435	16371.425
367.76989	16480.925
371.94243	16580.225
376.11196	16626.725
380.27849	16661.825
384.44203	16728.025
388.60257	16813.925
392.76012	16975.025
396.91468	17182.225
401.06626	17419.325
405.21485	17567.325
409.36047	17506.025
413.50311	17345.825
417.64277	17215.925
421.77947	17214.725
425.9132	17317.925
430.04396	17392.025
434.17176	17432.325
438.2966	17512.325
442.41849	17712.825
446.53742	17986.925
450.6534	18314.025
454.76644	18534.325
458.87653	18565.425
462.98368	18574.025
467.08789	18423.625
471.18916	18225.825
475.2875	17963.825
479.38291	17784.025
483.4754	17668.325
487.56496	17579.125
491.6516	17457.225
495.73531	17372.425
499.81612	17376.225
503.89401	17531.025
507.96899	17639.625
512.04106	17661.325
516.11023	17598.625
520.1765	17516.525
524.23987	17424.425
528.30034	17278.725
532.35792	17159.525
536.41261	16998.825
540.46441	16835.225
544.51333	16817.825
548.55936	16927.525
552.60252	17152.825
556.64279	17425.725
560.6802	17646.125
564.71473	17686.525
568.7464	17811.825
572.7752	18026.025
576.80114	18406.725
580.82422	18867.225
584.84444	19476.525
588.86181	20301.525
592.87633	21084.325
596.888	21051.325
600.89682	20274.925
604.9028	19981.025
608.90594	21116.525
612.90624	22673.025
616.90371	21797.525
620.89834	18929.125
624.89015	17549.425
628.87913	17348.825
632.86528	17485.625
636.84862	17555.525
640.82913	17360.625
644.80683	17039.125
648.78172	16805.625
652.75379	16813.025
656.72306	17022.525
660.68952	17247.025
664.65319	17162.125
668.61405	16943.325
672.57211	16869.225
676.52738	16962.625
680.47986	16941.825
684.42955	16842.525
688.37646	16762.625
692.32058	16835.925
696.26192	17011.625
700.20048	17209.125
704.13626	17301.725
708.06928	17335.625
711.99952	17276.225
715.927	17213.825
719.85171	17269.925
723.77365	17248.725
727.69284	17010.125
731.60928	16819.125
735.52295	16741.425
739.43388	16735.325
743.34206	16795.225
747.24749	16886.225
751.15017	16994.225
755.05012	17189.925
758.94733	17504.525
762.8418	18141.925
766.73354	19160.925
770.62254	20196.325
774.50882	20491.825
778.39237	19943.025
782.27321	18976.025
786.15132	18061.425
790.02671	17466.325
793.89938	17145.525
797.76935	16947.125
801.6366	16866.225
805.50115	16845.425
809.36299	16778.625
813.22213	16671.425
817.07857	16566.925
820.93231	16513.225
824.78336	16480.725
828.63172	16468.625
832.47738	16448.325
836.32036	16427.925
840.16066	16420.325
843.99827	16413.625
847.8332	16409.725
851.66546	16424.925
855.49504	16445.725
859.32195	16418.625
863.1462	16423.825
866.96777	16404.225
870.78668	16408.525
874.60293	16430.925
878.41652	16464.325
882.22745	16508.525
886.03573	16585.725
889.84136	16611.625
893.64433	16532.625
897.44466	16505.225
901.24235	16487.525
905.0374	16433.925
908.8298	16383.325
912.61957	16385.425
916.40671	16423.125
920.19121	16558.125
923.97308	16706.825
927.75233	16802.725
931.52895	16735.325
935.30295	16553.525
939.07433	16342.525
942.84309	16195.225
946.60924	16070.225
950.37278	16053.225
954.13371	16041.325
957.89203	16004.325
961.64774	15971.025
965.40086	15966.625
969.15137	15932.725
972.89929	15874.225
976.64461	15877.325
980.38733	15841.225
984.12747	15859.625
987.86502	15932.225
991.59999	15990.525
995.33237	16100.125
999.06217	16298.525
1002.78939	16553.325
1006.51404	16828.225
1010.23611	17091.025
1013.95561	17251.425
1017.67255	17294.025
1021.38692	17175.925
1025.09872	16956.425
1028.80796	16762.125
1032.51465	16683.325
1036.21877	16781.425
1039.92035	16804.025
1043.61937	16825.625
1047.31584	16823.025
1051.00976	16807.125
1054.70114	16818.425
1058.38998	16860.025
1062.07627	16948.525
1065.76003	17134.925
1069.44126	17274.725
1073.11995	17555.025
1076.79611	17843.225
1080.46974	18019.625
1084.14085	18089.625
1087.80943	18211.125
1091.47549	18302.625
1095.13903	18349.725
1098.80005	18169.425
1102.45857	17850.325
1106.11456	17557.925
1109.76805	17388.625
1113.41903	17322.625
1117.06751	17354.225
1120.71348	17463.925
1124.35696	17588.425
1127.99793	17741.325
1131.63641	17890.325
1135.2724	17804.525
1138.90589	17691.825
1142.5369	17651.525
1146.16542	17683.225
1149.79145	17721.725
1153.415	17762.525
1157.03607	17822.925
1160.65467	18073.125
1164.27079	18661.525
1167.88443	19353.925
1171.49561	20152.325
1175.10432	21158.425
1178.71056	22392.325
1182.31434	23645.925
1185.91565	24344.125
1189.51451	24406.425
1193.11091	24028.525
1196.70485	23388.525
1200.29634	22649.125
1203.88538	22079.025
1207.47197	21641.025
1211.05612	21293.525
1214.63782	20944.025
1218.21708	20505.725
1221.79391	20111.625
1225.36829	19801.125
1228.94024	19675.425
1232.50976	19534.925
1236.07685	19386.525
1239.6415	19247.625
1243.20374	19220.425
1246.76355	19328.925
1250.32093	19513.725
1253.8759	19842.025
1257.42845	20280.625
1260.97859	20796.125
1264.52631	21310.025
1268.07163	21770.425
1271.61453	22275.625
1275.15503	22648.025
1278.69312	23103.625
1282.22882	23531.725
1285.76211	24049.125
1289.29301	24663.325
1292.82151	25444.225
1296.34761	26389.025
1299.87133	27485.725
1303.39266	28699.625
1306.9116	29860.425
1310.42815	30810.925
1313.94233	31313.825
1317.45412	31179.425
1320.96354	30573.025
1324.47058	29920.625
1327.97525	29521.325
1331.47754	29247.025
1334.97747	29034.225
1338.47502	28790.525
1341.97022	28703.125
1345.46305	28599.125
1348.95352	28712.825
1352.44163	29012.725
1355.92738	29699.625
1359.41078	30894.925
1362.89183	32000.425
1366.37053	31855.425
1369.84688	29819.325
1373.32088	26852.125
1376.79254	24633.425
1380.26186	23560.125
1383.72883	23281.125
1387.19347	23172.525
1390.65578	22736.425
1394.11575	22473.025
1397.57339	22475.625
1401.0287	22715.825
1404.48168	22902.325
1407.93234	22916.625
1411.38068	22719.225
1414.82669	22287.125
1418.27039	21748.425
1421.71177	21250.525
1425.15083	20793.725
1428.58758	20622.225
1432.02203	20772.125
1435.45416	21158.825
1438.88399	21615.225
1442.31151	21835.625
1445.73673	21924.625
1449.15965	21907.925
1452.58027	21864.925
1455.9986	21769.925
1459.41463	21876.325
1462.82837	22177.925
1466.23982	22609.425
1469.64898	22914.225
1473.05586	23152.325
1476.46045	23280.925
1479.86276	23216.925
1483.26279	23143.325
1486.66054	23149.125
1490.05602	23312.225
1493.44922	23634.525
1496.84016	24062.025
1500.22882	24682.325
1503.61521	25390.025
1506.99934	26331.025
1510.38121	26995.825
1513.76081	27160.925
1517.13816	26613.625
1520.51324	25687.925
1523.88607	24863.525
1527.25665	24386.325
1530.62498	24125.625
1533.99105	23842.525
1537.35488	23461.325
1540.71647	22997.025
1544.07581	22535.625
1547.4329	22094.725
1550.78776	21735.125
1554.14038	21479.725
1557.49077	21364.225
1560.83892	21322.225
1564.18484	21342.525
1567.52853	21441.425
1570.86999	21551.125
1574.20922	21857.825
1577.54624	22051.825
1580.88103	22059.325
1584.2136	21991.525
1587.54395	22297.625
1590.87208	23113.625
1594.19801	24213.025
1597.52172	25363.425
1600.84321	25728.925
1604.16251	24883.925
1607.47959	23334.725
1610.79447	21723.225
1614.10715	20230.125
1617.41763	19014.025
1620.7259	18179.525
1624.03199	17738.725
1627.33587	17675.425
1630.63757	18067.225
1633.93707	18887.225
1637.23439	20302.525
1640.52951	22482.725
1643.82246	25223.925
1647.11321	27408.925
1650.40179	27931.425
1653.68819	26218.125
1656.97241	23108.725
1660.25446	20135.625
1663.53433	18043.525
1666.81203	16733.325
1670.08756	15996.025
1673.36092	15531.625
1676.63211	15218.225
1679.90115	14987.925
1683.16801	14820.325
1686.43272	14677.125
1689.69527	14558.325
1692.95567	14477.825
1696.2139	14395.625
1699.46999	14285.025
1702.72392	14286.925
1705.97571	14263.625
1709.22535	14293.725
1712.47284	14323.125
1715.71819	14306.225
1718.96139	14289.425
1722.20246	14247.125
1725.44139	14205.825
1728.67818	14154.325
1731.91284	14048.725
1735.14537	13996.625
1738.37576	13952.225
1741.60403	13895.625
1744.83017	13819.225
1748.05418	13804.625
1751.27607	13764.225
1754.49584	13723.625
1757.71349	13716.225
1760.92903	13689.025
1764.14244	13646.625
1767.35375	13658.225
1770.56294	13641.225
1773.77002	13609.125
1776.97499	13625.925
1780.17785	13603.425
1783.37861	13603.725
1786.57727	13622.425
1789.77382	13589.925
1792.96828	13555.225
1796.16064	13544.625
1799.3509	13491.725
1802.53907	13486.925
1805.72514	13450.325
1808.90913	13424.025
1812.09102	13407.225
1815.27083	13400.325
1818.44856	13379.425
1821.6242	13378.925
1824.79776	13341.925
1827.96924	13332.825
1831.13864	13367.125
1834.30597	13322.825
1837.47122	13342.525
1840.6344	13353.325
1843.7955	13361.025
1846.95454	13342.825
1850.11151	13343.825
1853.26642	13333.425
1856.41926	13334.125
1859.57004	13309.725
1862.71876	13277.325
1865.86542	13294.925
1869.01003	13249.525
1872.15258	13245.425
1875.29308	13202.425
1878.43152	13185.025
1881.56792	13160.125
1884.70227	13137.125
1887.83457	13102.125
1890.96482	13090.525
1894.09304	13043.725
1897.21921	13050.825
1900.34335	13042.925
1903.46544	13020.625
1906.58551	13002.125
1909.70353	12971.625
1912.81953	12954.425
1915.93349	12931.825
1919.04543	12945.125
1922.15534	12875.925
1925.26322	12846.025
1928.36908	12828.625
1931.47292	12781.425
1934.57473	12758.925
1937.67453	12704.225
1940.77232	12680.025
1943.86808	12636.125
1946.96184	12622.725
1950.05358	12608.425
1953.14331	12568.525
1956.23103	12550.625
1959.31675	12501.125
1962.40046	12480.525
1965.48217	12442.825
1968.56188	12377.425
1971.63959	12344.325
1974.7153	12333.625
1977.78901	12307.225
1980.86073	12253.225
1983.93046	12222.825
1986.99819	12175.925
1990.06394	12142.025
1993.1277	12081.525
1996.18947	12054.525
1999.24925	12051.825
2002.30706	11987.425
2005.36288	11942.125
2008.41672	11925.825
2011.46859	11882.925
2014.51848	11823.525
2017.56639	11818.725
2020.61233	11791.725
2023.6563	11769.325
2026.6983	11726.525
2029.73833	11700.325
2032.7764	11697.325
2035.8125	11675.125
2038.84664	11611.925
2041.87881	11624.225
2044.90903	11570.525
2047.93729	11564.525
2050.96359	11532.825
2053.98794	11520.225
2057.01034	11510.225
2060.03078	11501.225
2063.04927	11483.325
2066.06582	11510.025
2069.08042	11497.825
2072.09307	11480.225
2075.10378	11478.925
2078.11255	11492.125
2081.11938	11495.225
2084.12426	11472.225
2087.12722	11446.725
2090.12824	11463.525
2093.12732	11468.425
2096.12447	11460.425
2099.11969	11473.225
2102.11299	11472.125
2105.10435	11477.225
2108.09379	11486.825
2111.08131	11499.525
2114.0669	11503.325
2117.05057	11489.925
2120.03233	11492.025
2123.01216	11488.225
2125.99008	11494.125
2128.96609	11524.925
2131.94018	11506.825
2134.91236	11525.225
2137.88263	11525.725
2140.851	11507.925
2143.81746	11541.425
2146.78201	11537.625
2149.74466	11548.325
2152.7054	11528.225
2155.66425	11536.625
2158.6212	11530.925
2161.57625	11518.025
2164.52941	11526.725
2167.48067	11499.025
2170.43004	11492.925
2173.37752	11493.925
2176.32311	11490.225
2179.26681	11497.625
2182.20863	11492.525
2185.14856	11495.625
2188.08661	11499.125
2191.02278	11499.225
2193.95707	11478.525
2196.88948	11498.225
2199.82001	11487.725
2202.74867	11471.325
2205.67545	11460.325
2208.60037	11405.925
2211.52341	11399.825
2214.44458	11426.525
2217.36388	11363.125
2220.28132	11326.325
2223.1969	11330.625
2226.11061	11304.425
2229.02246	11284.625
2231.93245	11279.225
2234.84058	11255.025
2237.74686	11261.025
2240.65128	11253.025
2243.55385	11231.425
2246.45456	11210.525
2249.35343	11192.325
2252.25044	11168.225
2255.14561	11123.425
2258.03893	11136.925
2260.93041	11134.225
2263.82004	11088.725
2266.70783	11045.325
2269.59378	11004.725
2272.4779	11013.625
2275.36017	10995.725
2278.24061	10992.925
2281.11922	10941.025
2283.996	10912.925
2286.87094	10901.225
2289.74405	10916.725
2292.61534	10885.025
2295.4848	10870.525
2298.35243	10896.525
2301.21824	10850.625
2304.08223	10862.625
2306.94439	10843.125
2309.80474	10809.825
2312.66327	10832.325
2315.51999	10800.425
2318.37489	10810.125
2321.22797	10820.825
2324.07925	10764.225
2326.92871	10739.725
2329.77637	10748.425
2332.62222	10741.825
2335.46626	10681.325
2338.3085	10685.925
2341.14893	10683.725
2343.98756	10676.025
2346.8244	10685.925
2349.65943	10664.525
2352.49267	10651.625
2355.32411	10633.525
2358.15376	10652.425
2360.98161	10636.425
2363.80768	10639.225
2366.63195	10626.525
2369.45444	10643.825
2372.27514	10637.425
2375.09405	10612.825
2377.91118	10583.425
2380.72652	10571.725
2383.54009	10577.125
2386.35187	10544.725
2389.16188	10480.925
2391.97011	10472.225
2394.77657	10451.225
2397.58125	10423.325
2400.38416	10402.325
2403.18529	10401.925
2405.98466	10375.025
2408.78226	10371.125
2411.57809	10364.125
2414.37216	10327.625
2417.16446	10338.725
2419.955	10330.625
2422.74378	10324.125
2425.5308	10323.025
2428.31606	10290.525
2431.09956	10291.625
2433.88131	10273.525
2436.6613	10290.125
2439.43954	10286.125
2442.21603	10273.325
2444.99077	10274.425
2447.76377	10305.625
2450.53501	10260.425
2453.30451	10216.725
2456.07226	10222.825
2458.83827	10223.625
2461.60254	10223.825
2464.36507	10206.525
2467.12586	10216.425
2469.88492	10186.325
2472.64224	10208.225
2475.39782	10201.525
2478.15167	10193.325
2480.90379	10179.525
2483.65417	10198.125
2486.40283	10150.525
2489.14976	10176.025
2491.89497	10164.025
2494.63845	10168.825
2497.3802	10144.625
2500.12024	10148.025
2502.85855	10123.325
2505.59514	10121.125
2508.33002	10112.625
2511.06318	10093.125
2513.79462	10077.925
2516.52435	10071.525
2519.25237	10071.225
2521.97867	10042.025
2524.70327	10054.425
2527.42616	10025.625
2530.14734	10041.125
2532.86681	10025.025
2535.58458	10022.625
2538.30065	10017.025
2541.01501	10000.225
2543.72768	9989.925
2546.43864	9947.825
2549.14791	9972.325
2551.85548	9939.225
2554.56136	9919.325
2557.26554	9903.825
2559.96803	9913.825
2562.66883	9889.725
2565.36794	9867.625
2568.06536	9862.325
2570.7611	9842.825
2573.45514	9816.525
2576.14751	9825.925
2578.83819	9776.225
2581.52719	9783.525
2584.21451	9786.925
2586.90015	9777.025
2589.58411	9732.425
2592.2664	9730.025
2594.94701	9723.925
2597.62594	9701.625
2600.30321	9676.125
2602.9788	9672.925
2605.65273	9651.725
2608.32498	9643.625
2610.99557	9640.025
2613.66449	9669.325
2616.33175	9638.525
2618.99734	9605.525
2621.66128	9599.725
2624.32355	9583.525
2626.98416	9568.125
2629.64311	9574.925
2632.30041	9565.125
2634.95605	9543.325
2637.61004	9521.025
2640.26238	9523.425
2642.91306	9502.525
2645.56209	9502.725
2648.20948	9506.225
2650.85521	9510.325
2653.4993	9513.825
2656.14175	9534.425
2658.78255	9534.125
2661.42171	9519.125
2664.05923	9542.725
2666.6951	9552.825
2669.32934	9566.625
2671.96194	9529.125
2674.59291	9530.625
2677.22224	9526.025
2679.84993	9526.625
2682.476	9527.325
2685.10043	9517.825
2687.72324	9503.225
2690.34441	9503.425
2692.96396	9513.825
2695.58188	9496.325
2698.19818	9502.925
2700.81285	9510.825
2703.4259	9486.125
2706.03733	9463.025
2708.64714	9473.025
2711.25533	9497.825
2713.86191	9502.925
2716.46687	9511.225
2719.07021	9505.825
2721.67194	9509.825
2724.27206	9503.125
2726.87057	9522.325
2729.46747	9518.425
2732.06276	9498.925
2734.65644	9498.325
2737.24852	9497.825
2739.83899	9479.125
2742.42786	9495.225
2745.01513	9468.725
2747.60079	9458.225
2750.18486	9451.225
2752.76733	9429.625
2755.3482	9423.225
2757.92747	9450.525
2760.50515	9430.725
2763.08123	9401.525
2765.65573	9401.725
2768.22863	9404.925
2770.79994	9387.725
2773.36967	9391.325
2775.9378	9366.525
2778.50435	9361.225
2781.06932	9351.525
2783.6327	9338.525
2786.1945	9353.525
2788.75471	9315.225
2791.31335	9302.625
2793.87041	9311.225
2796.42589	9254.725
2798.97979	9280.725
2801.53212	9262.125
2804.08288	9262.425
2806.63206	9213.225
2809.17967	9174.225
2811.72571	9170.125
2814.27018	9160.225
2816.81308	9131.625
2819.35442	9134.025
2821.89419	9103.525
2824.43239	9068.825
2826.96904	9120.125
2829.50412	9085.325
2832.03763	9067.125
2834.56959	9067.025
2837.1	9075.725
2839.62884	9070.125
2842.15613	9061.425
2844.68186	9079.425
2847.20604	9105.725
2849.72867	9064.925
2852.24974	9069.125
2854.76927	9072.325
2857.28724	9018.725
2859.80367	9021.225
2862.31855	9019.725
2864.83189	9022.825
2867.34368	8995.525
2869.85393	9002.425
2872.36264	8971.525
2874.8698	8977.825
2877.37543	8987.725
2879.87952	8958.725
2882.38207	8982.725
2884.88308	8989.425
2887.38256	8976.725
2889.88051	9011.325
2892.37692	8967.625
2894.8718	8995.325
2897.36515	8980.525
2899.85698	8999.525
2902.34727	8997.825
2904.83604	8993.725
2907.32328	9023.325
2909.809	8994.125
2912.29319	8987.925
2914.77587	8998.525
2917.25702	8982.225
2919.73665	8964.625
2922.21476	8978.525
2924.69136	8977.625
2927.16644	8968.625
2929.64	8974.825
2932.11205	8992.725
2934.58258	8912.625
2937.05161	8953.025
2939.51912	8928.525
2941.98513	8938.625
2944.44962	8895.325
2946.91261	8885.925
2949.37409	8882.525
2951.83407	8859.525
2954.29254	8842.525
2956.74951	8843.425
2959.20498	8844.825
2961.65895	8819.925
2964.11142	8837.125
2966.56239	8808.825
2969.01186	8824.825
2971.45984	8791.625
2973.90632	8773.625
2976.35131	8750.425
2978.7948	8734.825
2981.23681	8683.525
2983.67732	8690.325
2986.11635	8664.125
2988.55388	8657.625
2990.98993	8625.325
2993.4245	8602.425
2995.85758	8564.125
2998.28917	8577.725
3000.71928	8552.225
3003.14791	8528.025
3005.57506	8543.625
3008.00073	8498.225
3010.42493	8489.025
3012.84764	8497.425
3015.26888	8485.425
3017.68865	8484.725
3020.10694	8446.825
3022.52376	8430.625
3024.9391	8418.625
3027.35298	8402.725
3029.76539	8387.125
3032.17632	8397.725
3034.5858	8376.825
3036.9938	8366.225
3039.40034	8340.525
3041.80542	8351.525
3044.20903	8336.925
3046.61118	8331.225
3049.01187	8314.125
3051.4111	8300.325
3053.80888	8274.925
3056.20519	8291.525
3058.60005	8253.025
3060.99345	8221.525
3063.3854	8219.325
3065.7759	8187.925
3068.16494	8196.225
3070.55254	8188.425
3072.93868	8145.025
3075.32338	8114.925
3077.70662	8125.625
3080.08842	8101.125
3082.46878	8074.125
3084.84769	8072.825
3087.22515	8070.625
3089.60118	8079.125
3091.97576	8082.525
3094.3489	8099.625
3096.72061	8070.925
3099.09087	8047.325
3101.4597	8066.925
3103.82709	8073.525
3106.19305	8027.625
3108.55757	8043.025
3110.92066	8018.225
3113.28232	8004.025
3115.64255	7998.525
3118.00134	7988.825
3120.35871	7960.825
3122.71466	7951.625
3125.06917	7952.525
3127.42226	7926.025
3129.77393	7912.225
3132.12417	7927.825
3134.47299	7887.725
3136.82039	7874.925
3139.16636	7900.225
3141.51092	7911.025
3143.85406	7911.325
3146.19579	7921.525
3148.53609	7943.225
3150.87499	7947.625
3153.21246	7955.225
3155.54853	7934.525
