Data from AgNPs_FTO_APTES_UA_1uM_CRN_10uM_R6G_10uM_NaF_0.1M_Addition_RamanShift__34__14-55-29-665.txt Node

Date: Thu Jan 27 14:55:29 GMT 2022
User: TCL
Spectrometer: QEP01345
Trigger mode: 4
Integration Time (sec): 7.000000E0
Scans to average: 10
Electric dark correction enabled: true
Nonlinearity correction enabled: false
Boxcar width: 0
XAxis mode: Raman Shifts
Number of Pixels in Spectrum: 1044
>>>>>Begin Spectral Data<<<<<
46.04893	1.75
50.45542	0.55
54.85868	-0.45
59.25871	-1.05
63.6555	14.05
68.04907	15.85
72.43941	17.45
76.82654	18.05
81.21044	17.65
85.59113	16.95
89.96862	18.25
94.34289	19.95
98.71396	18.45
103.08183	17.75
107.4465	22.25
111.80798	22.15
116.16626	19.55
120.52136	27.45
124.87327	23.95
129.222	21.35
133.56755	23.85
137.90993	26.85
142.24913	29.15
146.58517	32.75
150.91804	35.15
155.24774	39.85
159.57429	51.45
163.89768	62.05
168.21792	85.45
172.53501	110.55
176.84895	156.65
181.15975	219.95
185.46741	304.35
189.77193	421.05
194.07331	567.75
198.37157	728.45
202.6667	910.05
206.9587	1081.45
211.24758	1240.15
215.53334	1402.35
219.81599	1589.95
224.09553	1781.05
228.37195	2005.15
232.64527	2240.45
236.91549	2483.45
241.18261	2739.25
245.44663	2980.65
249.70755	3203.35
253.96539	3403.85
258.22014	3573.35
262.4718	3706.05
266.72039	3801.75
270.96589	3853.25
275.20832	3872.65
279.44768	3834.75
283.68397	3797.15
287.91719	3757.55
292.14735	3725.55
296.37445	3698.35
300.59849	3712.85
304.81948	3748.65
309.03742	3760.85
313.25231	3746.55
317.46415	3676.75
321.67296	3591.55
325.87872	3515.65
330.08145	3486.95
334.28114	3501.85
338.47781	3523.05
342.67145	3587.75
346.86207	3632.35
351.04966	3728.35
355.23424	3807.35
359.4158	3887.65
363.59435	3955.85
367.76989	3990.55
371.94243	4019.95
376.11196	4040.35
380.27849	4074.95
384.44203	4096.25
388.60257	4126.85
392.76012	4165.45
396.91468	4245.95
401.06626	4320.05
405.21485	4419.85
409.36047	4475.85
413.50311	4562.65
417.64277	4694.95
421.77947	4977.95
425.9132	5347.25
430.04396	5622.65
434.17176	5651.85
438.2966	5450.95
442.41849	5161.35
446.53742	5031.95
450.6534	5060.95
454.76644	5067.75
458.87653	5017.55
462.98368	4885.15
467.08789	4770.35
471.18916	4667.95
475.2875	4625.85
479.38291	4657.45
483.4754	4718.35
487.56496	4773.45
491.6516	4809.85
495.73531	4804.75
499.81612	4700.15
503.89401	4622.05
507.96899	4549.05
512.04106	4475.65
516.11023	4462.15
520.1765	4430.85
524.23987	4403.85
528.30034	4383.65
532.35792	4344.25
536.41261	4318.85
540.46441	4261.85
544.51333	4248.55
548.55936	4273.05
552.60252	4304.45
556.64279	4346.75
560.6802	4381.25
564.71473	4394.55
568.7464	4419.45
572.7752	4472.95
576.80114	4489.75
580.82422	4531.55
584.84444	4575.95
588.86181	4659.95
592.87633	4796.65
596.888	4925.45
600.89682	5016.95
604.9028	5169.15
608.90594	5528.15
612.90624	5890.05
616.90371	5625.85
620.89834	4865.35
624.89015	4501.65
628.87913	4453.25
632.86528	4415.65
636.84862	4356.75
640.82913	4270.15
644.80683	4205.85
648.78172	4135.35
652.75379	4128.35
656.72306	4169.55
660.68952	4239.85
664.65319	4240.05
668.61405	4178.15
672.57211	4172.15
676.52738	4176.75
680.47986	4198.95
684.42955	4243.85
688.37646	4318.85
692.32058	4463.25
696.26192	4723.25
700.20048	5046.85
704.13626	5349.45
708.06928	5438.15
711.99952	5310.45
715.927	5062.55
719.85171	4834.25
723.77365	4643.05
727.69284	4480.15
731.60928	4418.85
735.52295	4389.75
739.43388	4386.55
743.34206	4348.75
747.24749	4304.05
751.15017	4282.65
755.05012	4308.65
758.94733	4373.15
762.8418	4510.35
766.73354	4723.45
770.62254	4979.75
774.50882	5041.85
778.39237	4946.95
782.27321	4706.15
786.15132	4471.25
790.02671	4333.05
793.89938	4281.95
797.76935	4271.35
801.6366	4261.65
805.50115	4268.75
809.36299	4265.15
813.22213	4243.25
817.07857	4236.85
820.93231	4239.45
824.78336	4234.65
828.63172	4234.35
832.47738	4249.85
836.32036	4261.65
840.16066	4279.95
843.99827	4299.05
847.8332	4271.15
851.66546	4241.35
855.49504	4217.95
859.32195	4217.35
863.1462	4191.25
866.96777	4179.05
870.78668	4167.75
874.60293	4154.25
878.41652	4157.65
882.22745	4175.95
886.03573	4199.85
889.84136	4203.45
893.64433	4173.95
897.44466	4144.05
901.24235	4143.45
905.0374	4122.35
908.8298	4124.85
912.61957	4159.85
916.40671	4183.75
920.19121	4203.05
923.97308	4235.05
927.75233	4256.65
931.52895	4266.75
935.30295	4258.45
939.07433	4188.75
942.84309	4141.15
946.60924	4119.65
950.37278	4099.95
954.13371	4079.35
957.89203	4039.85
961.64774	4024.65
965.40086	4002.75
969.15137	4001.75
972.89929	3983.25
976.64461	3997.45
980.38733	3989.55
984.12747	4020.85
987.86502	4056.95
991.59999	4117.05
995.33237	4202.25
999.06217	4319.25
1002.78939	4442.05
1006.51404	4472.45
1010.23611	4482.45
1013.95561	4517.95
1017.67255	4503.65
1021.38692	4465.45
1025.09872	4449.75
1028.80796	4552.55
1032.51465	4748.55
1036.21877	4901.55
1039.92035	4917.15
1043.61937	4809.75
1047.31584	4667.65
1051.00976	4515.35
1054.70114	4431.65
1058.38998	4391.65
1062.07627	4397.15
1065.76003	4394.65
1069.44126	4390.45
1073.11995	4428.65
1076.79611	4482.15
1080.46974	4523.75
1084.14085	4577.15
1087.80943	4627.75
1091.47549	4630.05
1095.13903	4637.85
1098.80005	4586.15
1102.45857	4558.35
1106.11456	4534.15
1109.76805	4541.55
1113.41903	4572.95
1117.06751	4585.95
1120.71348	4609.65
1124.35696	4637.65
1127.99793	4655.95
1131.63641	4651.65
1135.2724	4591.65
1138.90589	4529.45
1142.5369	4480.25
1146.16542	4452.65
1149.79145	4439.15
1153.415	4449.55
1157.03607	4466.85
1160.65467	4514.65
1164.27079	4587.15
1167.88443	4752.05
1171.49561	4938.55
1175.10432	5236.35
1178.71056	5602.85
1182.31434	5942.25
1185.91565	6118.05
1189.51451	6097.85
1193.11091	5917.85
1196.70485	5676.35
1200.29634	5486.25
1203.88538	5340.95
1207.47197	5235.55
1211.05612	5151.65
1214.63782	5108.75
1218.21708	5101.25
1221.79391	5149.15
1225.36829	5215.25
1228.94024	5221.05
1232.50976	5173.15
1236.07685	5150.85
1239.6415	5181.45
1243.20374	5296.65
1246.76355	5498.85
1250.32093	5714.85
1253.8759	5953.35
1257.42845	6188.65
1260.97859	6339.95
1264.52631	6450.15
1268.07163	6491.15
1271.61453	6525.95
1275.15503	6483.75
1278.69312	6455.75
1282.22882	6425.75
1285.76211	6378.45
1289.29301	6348.55
1292.82151	6357.25
1296.34761	6450.25
1299.87133	6673.05
1303.39266	7013.35
1306.9116	7440.45
1310.42815	7842.75
1313.94233	8054.45
1317.45412	7965.25
1320.96354	7687.15
1324.47058	7525.55
1327.97525	7491.75
1331.47754	6884.65
1334.97747	6638.05
1338.47502	6607.65
1341.97022	6544.05
1345.46305	6499.25
1348.95352	6490.25
1352.44163	6608.15
1355.92738	6861.45
1359.41078	7324.85
1362.89183	7734.55
1366.37053	7707.05
1369.84688	7135.35
1373.32088	6517.85
1376.79254	6179.95
1380.26186	6218.25
1383.72883	6552.55
1387.19347	6924.45
1390.65578	6872.05
1394.11575	6417.35
1397.57339	5998.95
1401.0287	5772.75
1404.48168	5683.55
1407.93234	5613.65
1411.38068	5519.05
1414.82669	5423.15
1418.27039	5292.85
1421.71177	5162.95
1425.15083	5048.65
1428.58758	4994.35
1432.02203	5008.85
1435.45416	5071.85
1438.88399	5143.85
1442.31151	5204.45
1445.73673	5464.45
1449.15965	5610.55
1452.58027	5301.35
1455.9986	5201.65
1459.41463	5190.15
1462.82837	5220.85
1466.23982	5308.15
1469.64898	5402.55
1473.05586	5487.55
1476.46045	5518.45
1479.86276	5553.35
1483.26279	5534.75
1486.66054	5545.05
1490.05602	5558.15
1493.44922	5617.65
1496.84016	5670.65
1500.22882	5751.45
1503.61521	5901.65
1506.99934	6082.45
1510.38121	6323.75
1513.76081	6403.65
1517.13816	6324.55
1520.51324	6059.95
1523.88607	5782.65
1527.25665	5596.65
1530.62498	5500.05
1533.99105	5472.45
1537.35488	5421.25
1540.71647	5397.85
1544.07581	5351.85
1547.4329	5301.55
1550.78776	5257.15
1554.14038	5219.65
1557.49077	5223.15
1560.83892	5227.15
1564.18484	5212.25
1567.52853	5260.75
1570.86999	5305.35
1574.20922	5347.35
1577.54624	5399.95
1580.88103	5400.25
1584.2136	5411.35
1587.54395	5555.85
1590.87208	5812.25
1594.19801	6234.85
1597.52172	6650.85
1600.84321	6825.65
1604.16251	6623.65
1607.47959	6190.65
1610.79447	5725.15
1614.10715	5366.95
1617.41763	5160.65
1620.7259	5072.15
1624.03199	5119.05
1627.33587	5260.65
1630.63757	5520.55
1633.93707	5901.45
1637.23439	6374.95
1640.52951	7007.15
1643.82246	7718.55
1647.11321	8393.45
1650.40179	8944.95
1653.68819	9247.05
1656.97241	8898.55
1660.25446	8330.35
1663.53433	7843.15
1666.81203	7345.25
1670.08756	6769.05
1673.36092	6174.35
1676.63211	5647.65
1679.90115	5310.05
1683.16801	5215.25
1686.43272	5224.85
1689.69527	5540.85
1692.95567	6413.45
1696.2139	7876.55
1699.46999	9333.85
1702.72392	9526.35
1705.97571	8228.85
1709.22535	6616.15
1712.47284	5507.15
1715.71819	4880.15
1718.96139	4557.35
1722.20246	4361.35
1725.44139	4268.45
1728.67818	4192.85
1731.91284	4178.45
1735.14537	4211.95
1738.37576	4265.75
1741.60403	4373.05
1744.83017	4524.15
1748.05418	4760.75
1751.27607	5194.55
1754.49584	5930.95
1757.71349	6871.05
1760.92903	7376.45
1764.14244	7315.65
1767.35375	7206.65
1770.56294	7237.95
1773.77002	6830.15
1776.97499	5921.45
1780.17785	5092.25
1783.37861	4529.25
1786.57727	4219.95
1789.77382	4047.35
1792.96828	3910.45
1796.16064	3833.95
1799.3509	3768.25
1802.53907	3729.15
1805.72514	3691.65
1808.90913	3655.85
1812.09102	3667.25
1815.27083	3625.25
1818.44856	3584.55
1821.6242	3572.95
1824.79776	3551.65
1827.96924	3557.25
1831.13864	3535.15
1834.30597	3525.95
1837.47122	3525.85
1840.6344	3524.65
1843.7955	3517.85
1846.95454	3510.95
1850.11151	3502.15
1853.26642	3505.05
1856.41926	3511.95
1859.57004	3508.35
1862.71876	3492.65
1865.86542	3500.05
1869.01003	3496.65
1872.15258	3495.85
1875.29308	3485.95
1878.43152	3485.85
1881.56792	3475.85
1884.70227	3471.55
1887.83457	3476.05
1890.96482	3481.45
1894.09304	3478.35
1897.21921	3461.95
1900.34335	3468.75
1903.46544	3466.75
1906.58551	3474.55
1909.70353	3468.25
1912.81953	3470.55
1915.93349	3453.05
1919.04543	3461.85
1922.15534	3449.65
1925.26322	3439.55
1928.36908	3435.45
1931.47292	3435.95
1934.57473	3438.65
1937.67453	3426.95
1940.77232	3419.25
1943.86808	3423.55
1946.96184	3396.65
1950.05358	3395.05
1953.14331	3380.95
1956.23103	3371.45
1959.31675	3369.05
1962.40046	3352.35
1965.48217	3347.85
1968.56188	3340.15
1971.63959	3330.25
1974.7153	3318.35
1977.78901	3319.35
1980.86073	3283.05
1983.93046	3303.25
1986.99819	3267.65
1990.06394	3279.95
1993.1277	3262.55
1996.18947	3247.55
1999.24925	3262.05
2002.30706	3235.55
2005.36288	3244.35
2008.41672	3244.85
2011.46859	3212.45
2014.51848	3201.65
2017.56639	3217.25
2020.61233	3205.05
2023.6563	3209.85
2026.6983	3190.65
2029.73833	3196.25
2032.7764	3175.75
2035.8125	3177.65
2038.84664	3161.35
2041.87881	3165.15
2044.90903	3169.85
2047.93729	3151.25
2050.96359	3174.95
2053.98794	3257.05
2057.01034	3213.25
2060.03078	3185.55
2063.04927	3165.85
2066.06582	3162.55
2069.08042	3164.95
2072.09307	3143.85
2075.10378	3148.95
2078.11255	3134.75
2081.11938	3154.75
2084.12426	3139.25
2087.12722	3137.95
2090.12824	3141.05
2093.12732	3151.95
2096.12447	3130.85
2099.11969	3139.15
2102.11299	3139.25
2105.10435	3145.55
2108.09379	3150.25
2111.08131	3150.95
2114.0669	3150.25
2117.05057	3176.05
2120.03233	3164.55
2123.01216	3164.85
2125.99008	3168.25
2128.96609	3166.85
2131.94018	3176.45
2134.91236	3171.55
2137.88263	3177.25
2140.851	3174.05
2143.81746	3181.95
2146.78201	3187.05
2149.74466	3187.15
2152.7054	3186.35
2155.66425	3190.75
2158.6212	3185.15
2161.57625	3185.15
2164.52941	3173.55
2167.48067	3180.95
2170.43004	3188.25
2173.37752	3192.85
2176.32311	3198.15
2179.26681	3194.75
2182.20863	3183.15
2185.14856	3194.15
2188.08661	3185.65
2191.02278	3191.25
2193.95707	3187.65
2196.88948	3177.65
2199.82001	3181.75
2202.74867	3192.75
2205.67545	3194.85
2208.60037	3185.75
2211.52341	3183.25
2214.44458	3189.05
2217.36388	3169.35
2220.28132	3178.15
2223.1969	3174.85
2226.11061	3177.25
2229.02246	3164.65
2231.93245	3170.75
2234.84058	3144.75
2237.74686	3147.15
2240.65128	3152.55
2243.55385	3139.15
2246.45456	3139.25
2249.35343	3145.05
2252.25044	3142.45
2255.14561	3166.65
2258.03893	3334.65
2260.93041	3714.15
2263.82004	3425.25
2266.70783	3272.45
2269.59378	3180.05
2272.4779	3131.05
2275.36017	3114.45
2278.24061	3087.05
2281.11922	3089.25
2283.996	3101.85
2286.87094	3086.15
2289.74405	3083.85
2292.61534	3082.45
2295.4848	3084.45
2298.35243	3097.15
2301.21824	3078.15
2304.08223	3102.55
2306.94439	3114.85
2309.80474	3108.25
2312.66327	3120.35
2315.51999	3128.55
2318.37489	3137.45
2321.22797	3131.15
2324.07925	3155.15
2326.92871	3157.65
2329.77637	3172.85
2332.62222	3184.85
2335.46626	3179.05
2338.3085	3206.85
2341.14893	3195.65
2343.98756	3209.05
2346.8244	3184.35
2349.65943	3172.05
2352.49267	3142.05
2355.32411	3148.85
2358.15376	3115.85
2360.98161	3101.45
2363.80768	3097.05
2366.63195	3086.75
2369.45444	3081.05
2372.27514	3068.15
2375.09405	3057.95
2377.91118	3058.45
2380.72652	3036.15
2383.54009	3020.75
2386.35187	3031.65
2389.16188	3018.95
2391.97011	3024.95
2394.77657	3037.95
2397.58125	3035.65
2400.38416	3029.55
2403.18529	3034.45
2405.98466	3043.65
2408.78226	3047.75
2411.57809	3050.25
2414.37216	3050.35
2417.16446	3038.75
2419.955	3024.05
2422.74378	3015.75
2425.5308	3008.05
2428.31606	3000.05
2431.09956	2991.15
2433.88131	2974.55
2436.6613	2984.75
2439.43954	2972.95
2442.21603	2978.05
2444.99077	2961.85
2447.76377	2965.05
2450.53501	2964.45
2453.30451	2968.15
2456.07226	2953.35
2458.83827	2960.55
2461.60254	2951.85
2464.36507	2965.65
2467.12586	2968.15
2469.88492	2975.45
2472.64224	3017.25
2475.39782	3268.45
2478.15167	3404.25
2480.90379	3170.85
2483.65417	3079.55
2486.40283	3058.05
2489.14976	3041.65
2491.89497	3035.45
2494.63845	3366.65
2497.3802	3475.75
2500.12024	3192.05
2502.85855	3093.45
2505.59514	3059.45
2508.33002	3019.35
2511.06318	2987.05
2513.79462	2968.25
2516.52435	2953.25
2519.25237	2968.15
2521.97867	2968.55
2524.70327	2961.35
2527.42616	2965.05
2530.14734	2952.15
2532.86681	2952.65
2535.58458	2949.45
2538.30065	2941.95
2541.01501	2944.55
2543.72768	2932.35
2546.43864	2948.25
2549.14791	2934.65
2551.85548	2925.55
2554.56136	2922.55
2557.26554	2927.15
2559.96803	2935.95
2562.66883	2915.35
2565.36794	2930.85
2568.06536	2920.85
2570.7611	2906.45
2573.45514	2914.15
2576.14751	2919.35
2578.83819	2904.75
2581.52719	2906.35
2584.21451	2917.15
2586.90015	2924.15
2589.58411	2920.65
2592.2664	2918.95
2594.94701	2901.75
2597.62594	2913.75
2600.30321	2912.55
2602.9788	2903.85
2605.65273	2902.25
2608.32498	2892.95
2610.99557	2901.95
2613.66449	2891.55
2616.33175	2903.05
2618.99734	2883.25
2621.66128	2905.45
2624.32355	2918.75
2626.98416	2909.75
2629.64311	2900.55
2632.30041	2898.05
2634.95605	2890.75
2637.61004	2870.85
2640.26238	2879.55
2642.91306	2880.35
2645.56209	2901.55
2648.20948	2961.75
2650.85521	2924.75
2653.4993	2895.55
2656.14175	2881.65
2658.78255	2884.55
2661.42171	2877.95
2664.05923	2871.35
2666.6951	2871.45
2669.32934	2879.55
2671.96194	2868.65
2674.59291	2880.85
2677.22224	2873.45
2679.84993	2884.55
2682.476	2884.75
2685.10043	2880.15
2687.72324	2876.85
2690.34441	2877.85
2692.96396	2869.95
2695.58188	2881.05
2698.19818	2898.25
2700.81285	2957.55
2703.4259	3609.55
2706.03733	5126.55
2708.64714	4177.25
2711.25533	3547.75
2713.86191	3323.45
2716.46687	3230.25
2719.07021	3099.45
2721.67194	2968.05
2724.27206	2932.05
2726.87057	2912.15
2729.46747	2901.15
2732.06276	2903.65
2734.65644	2891.95
2737.24852	2893.25
2739.83899	2893.85
2742.42786	2891.25
2745.01513	2886.75
2747.60079	2887.65
2750.18486	2888.65
2752.76733	2891.55
2755.3482	2887.65
2757.92747	2895.35
2760.50515	2888.35
2763.08123	2872.35
2765.65573	2885.95
2768.22863	2889.95
2770.79994	2866.05
2773.36967	2877.25
2775.9378	2881.45
2778.50435	2887.95
2781.06932	2881.65
2783.6327	2869.95
2786.1945	2880.45
2788.75471	2878.35
2791.31335	2874.05
2793.87041	2869.35
2796.42589	2864.75
2798.97979	2863.35
2801.53212	2870.25
2804.08288	2850.05
2806.63206	2858.75
2809.17967	2842.85
2811.72571	2839.05
2814.27018	2829.05
2816.81308	2830.05
2819.35442	2820.75
2821.89419	2834.35
2824.43239	2842.45
2826.96904	2830.55
2829.50412	2833.95
2832.03763	2823.15
2834.56959	2837.95
2837.1	2828.75
2839.62884	2826.25
2842.15613	2827.15
2844.68186	2838.45
2847.20604	2834.35
2849.72867	2846.45
2852.24974	2875.55
2854.76927	3166.05
2857.28724	3543.35
2859.80367	3219.45
2862.31855	3049.15
2864.83189	3007.05
2867.34368	2956.45
2869.85393	2926.35
2872.36264	2874.05
2874.8698	2854.95
2877.37543	2826.25
2879.87952	2822.85
2882.38207	2822.45
2884.88308	2814.95
2887.38256	2817.95
2889.88051	2825.85
2892.37692	2831.45
2894.8718	2827.85
2897.36515	2839.15
2899.85698	2829.05
2902.34727	2842.45
2904.83604	2830.05
2907.32328	2841.35
2909.809	2842.75
2912.29319	2854.35
2914.77587	2841.25
2917.25702	2854.55
2919.73665	2833.55
2922.21476	2845.45
2924.69136	2855.35
2927.16644	2851.85
2929.64	2834.45
2932.11205	2839.25
2934.58258	2825.45
2937.05161	2840.75
2939.51912	2822.25
2941.98513	2823.55
2944.44962	2815.75
2946.91261	2801.45
2949.37409	2818.05
2951.83407	2810.35
2954.29254	2810.05
2956.74951	2800.05
2959.20498	2812.45
2961.65895	2814.55
2964.11142	2827.15
2966.56239	2808.15
2969.01186	2819.45
2971.45984	2799.45
2973.90632	2807.25
2976.35131	2793.95
2978.7948	2796.75
2981.23681	2781.05
2983.67732	2779.25
2986.11635	2777.55
2988.55388	2778.95
2990.98993	2772.85
2993.4245	2779.25
2995.85758	2775.05
2998.28917	2764.05
3000.71928	2773.55
3003.14791	2758.95
3005.57506	2747.65
3008.00073	2753.15
3010.42493	2759.95
3012.84764	2758.55
3015.26888	2746.65
3017.68865	2756.85
3020.10694	2750.85
3022.52376	2742.65
3024.9391	2737.15
3027.35298	2736.95
3029.76539	2737.65
3032.17632	2722.65
3034.5858	2740.65
3036.9938	2733.95
3039.40034	2728.45
3041.80542	2730.85
3044.20903	2725.25
3046.61118	2724.55
3049.01187	2725.05
3051.4111	2733.05
3053.80888	2728.95
3056.20519	2718.65
3058.60005	2707.75
3060.99345	2693.35
3063.3854	2698.45
3065.7759	2697.35
3068.16494	2703.55
3070.55254	2695.45
3072.93868	2709.35
3075.32338	2701.55
3077.70662	2693.75
3080.08842	2682.45
3082.46878	2688.65
3084.84769	2685.95
3087.22515	2671.55
3089.60118	2673.45
3091.97576	2678.85
3094.3489	2676.05
3096.72061	2682.25
3099.09087	2695.35
3101.4597	2678.95
3103.82709	2682.25
3106.19305	2696.35
3108.55757	2679.25
3110.92066	2681.45
3113.28232	2678.05
3115.64255	2662.25
3118.00134	2684.75
3120.35871	2670.25
3122.71466	2682.65
3125.06917	2671.75
3127.42226	2646.55
3129.77393	2671.95
3132.12417	2664.05
3134.47299	2663.55
3136.82039	2667.85
3139.16636	2672.75
3141.51092	2667.25
3143.85406	2684.45
3146.19579	2669.25
3148.53609	2667.65
3150.87499	2682.25
3153.21246	2689.45
3155.54853	2687.55
3157.88318	2681.25
3160.21642	2690.45
3162.54826	2682.75
3164.87868	2680.85
3167.2077	2683.55
3169.5353	2691.45
3171.86151	2706.55
3174.18631	2691.75
3176.5097	2703.05
3178.83169	2691.45
3181.15228	2687.75
3183.47147	2688.95
3185.78926	2697.05
3188.10565	2694.75
3190.42065	2681.35
3192.73424	2684.85
3195.04645	2689.65
3197.35725	2688.95
3199.66667	2684.95
3201.97469	2689.95
3204.28132	2694.45
3206.58656	2694.65
3208.8904	2704.75
3211.19287	2702.65
3213.49394	2712.05
3215.79363	2720.95
3218.09193	2751.45
3220.38884	3046.35
3222.68438	3394.65
3224.97853	3054.05
3227.2713	2914.25
3229.56269	2851.05
3231.8527	2821.95
3234.14133	2808.55
3236.42858	2774.85
3238.71446	2756.45
3240.99896	2712.45
3243.28209	2711.05
3245.56384	2696.05
3247.84423	2698.55
3250.12324	2693.15
3252.40088	2698.75
3254.67715	2687.05
3256.95205	2689.85
3259.22558	2698.65
3261.49775	2698.65
3263.76855	2685.35
3266.03799	2680.15
3268.30606	2680.85
3270.57277	2696.95
3272.83812	2678.55
3275.10211	2681.05
3277.36474	2675.35
3279.62601	2675.55
3281.88593	2671.25
3284.14448	2677.35
3286.40168	2680.45
3288.65753	2684.85
3290.91202	2682.65
3293.16516	2665.35
3295.41695	2672.45
3297.66738	2659.65
3299.91647	2651.95
3302.16421	2632.75
3304.4106	2624.35
3306.65564	2618.25
3308.89933	2620.45
3311.14169	2698.25
3313.38269	2879.55
3315.62236	2743.65
3317.86068	2637.55
3320.09766	2595.65
3322.3333	2595.75
3324.5676	2793.25
3326.80056	3186.15
3329.03219	2930.65
3331.26248	0.45
3333.49143	-0.65
3335.71905	-0.65
