Data from AgNPs_FTO_APTES_UA_1uM_CRN_200uM_R6G_10uM_NaF_0.1M_Addition_RamanShift__31__17-41-09-854.txt Node

Date: Thu Jan 27 17:41:09 GMT 2022
User: TCL
Spectrometer: QEP01345
Trigger mode: 4
Integration Time (sec): 7.000000E0
Scans to average: 10
Electric dark correction enabled: true
Nonlinearity correction enabled: false
Boxcar width: 0
XAxis mode: Raman Shifts
Number of Pixels in Spectrum: 1044
>>>>>Begin Spectral Data<<<<<
46.04893	0.85
50.45542	1.55
54.85868	-1.05
59.25871	-0.45
63.6555	30.45
68.04907	32.45
72.43941	35.55
76.82654	39.05
81.21044	38.85
85.59113	40.35
89.96862	40.55
94.34289	45.05
98.71396	46.65
103.08183	45.15
107.4465	49.15
111.80798	48.35
116.16626	49.05
120.52136	53.85
124.87327	49.15
129.222	48.15
133.56755	48.95
137.90993	50.65
142.24913	48.95
146.58517	54.95
150.91804	59.85
155.24774	65.45
159.57429	73.35
163.89768	84.75
168.21792	108.25
172.53501	143.75
176.84895	192.45
181.15975	256.25
185.46741	348.55
189.77193	473.15
194.07331	629.25
198.37157	809.65
202.6667	1006.05
206.9587	1188.95
211.24758	1377.05
215.53334	1573.95
219.81599	1785.35
224.09553	2031.15
228.37195	2299.65
232.64527	2578.35
236.91549	2870.75
241.18261	3148.75
245.44663	3352.95
249.70755	3533.25
253.96539	3673.45
258.22014	3802.15
262.4718	3903.55
266.72039	3979.25
270.96589	4025.55
275.20832	4016.55
279.44768	3972.75
283.68397	3907.05
287.91719	3852.55
292.14735	3848.15
296.37445	3904.05
300.59849	4053.95
304.81948	4254.65
309.03742	4399.65
313.25231	4397.65
317.46415	4197.25
321.67296	3867.95
325.87872	3611.55
330.08145	3460.25
334.28114	3462.35
338.47781	3515.85
342.67145	3630.75
346.86207	3808.55
351.04966	4040.95
355.23424	4315.85
359.4158	4527.05
363.59435	4622.25
367.76989	4636.85
371.94243	4607.65
376.11196	4572.85
380.27849	4565.65
384.44203	4496.05
388.60257	4415.15
392.76012	4371.15
396.91468	4420.55
401.06626	4548.25
405.21485	4646.15
409.36047	4589.85
413.50311	4319.55
417.64277	4078.55
421.77947	3944.95
425.9132	3863.85
430.04396	3834.75
434.17176	3835.25
438.2966	3885.75
442.41849	3978.55
446.53742	4077.85
450.6534	4191.25
454.76644	4247.65
458.87653	4268.45
462.98368	4223.35
467.08789	4165.65
471.18916	4096.15
475.2875	3996.85
479.38291	3939.15
483.4754	3874.15
487.56496	3832.45
491.6516	3810.65
495.73531	3808.35
499.81612	3820.15
503.89401	3865.55
507.96899	3921.75
512.04106	3983.85
516.11023	4084.55
520.1765	4156.45
524.23987	4121.95
528.30034	4055.65
532.35792	3919.15
536.41261	3843.65
540.46441	3730.55
544.51333	3692.65
548.55936	3694.75
552.60252	3762.85
556.64279	3852.25
560.6802	3901.05
564.71473	3972.15
568.7464	4146.25
572.7752	4236.75
576.80114	4120.15
580.82422	3942.75
584.84444	3866.25
588.86181	3856.75
592.87633	3867.25
596.888	3895.05
600.89682	4030.45
604.9028	4463.45
608.90594	5694.95
612.90624	7471.45
616.90371	7430.75
620.89834	5228.85
624.89015	4094.15
628.87913	3852.25
632.86528	3839.25
636.84862	3900.95
640.82913	3892.85
644.80683	3749.55
648.78172	3653.55
652.75379	3660.15
656.72306	3839.85
660.68952	4043.85
664.65319	4015.05
668.61405	3813.75
672.57211	3694.05
676.52738	3688.95
680.47986	3723.55
684.42955	3723.85
688.37646	3678.95
692.32058	3684.55
696.26192	3697.05
700.20048	3729.65
704.13626	3768.35
708.06928	3744.05
711.99952	3706.25
715.927	3672.85
719.85171	3666.05
723.77365	3685.35
727.69284	3656.75
731.60928	3640.95
735.52295	3636.25
739.43388	3647.85
743.34206	3644.65
747.24749	3658.45
751.15017	3686.45
755.05012	3753.35
758.94733	3926.25
762.8418	4320.35
766.73354	4987.05
770.62254	5771.85
774.50882	6236.55
778.39237	6077.15
782.27321	5291.95
786.15132	4461.75
790.02671	3974.05
793.89938	3796.45
797.76935	3707.95
801.6366	3671.65
805.50115	3647.55
809.36299	3629.65
813.22213	3621.35
817.07857	3601.15
820.93231	3609.05
824.78336	3628.35
828.63172	3640.65
832.47738	3644.85
836.32036	3655.15
840.16066	3624.15
843.99827	3615.35
847.8332	3588.05
851.66546	3578.75
855.49504	3583.25
859.32195	3582.15
863.1462	3551.75
866.96777	3561.85
870.78668	3538.95
874.60293	3544.85
878.41652	3544.15
882.22745	3563.35
886.03573	3602.55
889.84136	3587.55
893.64433	3567.95
897.44466	3539.45
901.24235	3551.25
905.0374	3532.95
908.8298	3511.85
912.61957	3500.65
916.40671	3523.05
920.19121	3529.75
923.97308	3600.15
927.75233	3630.55
931.52895	3662.75
935.30295	3651.95
939.07433	3547.65
942.84309	3428.55
946.60924	3353.95
950.37278	3329.25
954.13371	3299.55
957.89203	3270.55
961.64774	3260.75
965.40086	3252.15
969.15137	3238.15
972.89929	3232.85
976.64461	3230.05
980.38733	3222.55
984.12747	3228.65
987.86502	3229.75
991.59999	3227.75
995.33237	3258.85
999.06217	3303.75
1002.78939	3357.55
1006.51404	3396.75
1010.23611	3469.05
1013.95561	3509.05
1017.67255	3512.95
1021.38692	3490.55
1025.09872	3421.55
1028.80796	3406.45
1032.51465	3400.95
1036.21877	3444.75
1039.92035	3501.25
1043.61937	3542.25
1047.31584	3547.15
1051.00976	3542.45
1054.70114	3517.65
1058.38998	3508.75
1062.07627	3533.35
1065.76003	3541.05
1069.44126	3554.75
1073.11995	3590.05
1076.79611	3652.65
1080.46974	3725.65
1084.14085	3792.15
1087.80943	3874.75
1091.47549	3890.55
1095.13903	3825.45
1098.80005	3695.05
1102.45857	3573.15
1106.11456	3519.75
1109.76805	3533.05
1113.41903	3606.95
1117.06751	3731.45
1120.71348	3894.05
1124.35696	4107.15
1127.99793	4267.95
1131.63641	4285.35
1135.2724	4038.25
1138.90589	3819.05
1142.5369	3669.85
1146.16542	3592.75
1149.79145	3533.65
1153.415	3526.65
1157.03607	3557.95
1160.65467	3615.65
1164.27079	3730.15
1167.88443	3910.45
1171.49561	4224.85
1175.10432	4751.85
1178.71056	5450.65
1182.31434	5881.45
1185.91565	5882.85
1189.51451	5625.85
1193.11091	5271.45
1196.70485	4849.35
1200.29634	4550.25
1203.88538	4352.35
1207.47197	4100.95
1211.05612	3878.65
1214.63782	3771.95
1218.21708	3732.25
1221.79391	3742.35
1225.36829	3759.05
1228.94024	3798.85
1232.50976	3839.35
1236.07685	3855.85
1239.6415	3848.25
1243.20374	3862.45
1246.76355	3888.05
1250.32093	3905.75
1253.8759	3957.85
1257.42845	4047.15
1260.97859	4147.25
1264.52631	4274.55
1268.07163	4385.75
1271.61453	4509.05
1275.15503	4573.45
1278.69312	4576.95
1282.22882	4570.25
1285.76211	4632.75
1289.29301	4768.55
1292.82151	4928.65
1296.34761	5076.15
1299.87133	5286.15
1303.39266	5687.55
1306.9116	6294.45
1310.42815	7046.35
1313.94233	7521.95
1317.45412	7361.95
1320.96354	6780.85
1324.47058	6143.75
1327.97525	5645.25
1331.47754	5344.75
1334.97747	5235.45
1338.47502	5231.35
1341.97022	5325.85
1345.46305	5552.15
1348.95352	5951.25
1352.44163	6554.35
1355.92738	7339.35
1359.41078	8465.15
1362.89183	9556.95
1366.37053	9353.35
1369.84688	7910.85
1373.32088	6445.65
1376.79254	5491.45
1380.26186	4990.85
1383.72883	4726.95
1387.19347	4511.65
1390.65578	4297.15
1394.11575	4126.15
1397.57339	4017.75
1401.0287	4006.75
1404.48168	4003.45
1407.93234	4035.05
1411.38068	4058.65
1414.82669	4062.05
1418.27039	4061.15
1421.71177	4043.25
1425.15083	4011.15
1428.58758	3992.15
1432.02203	4002.25
1435.45416	4060.85
1438.88399	4071.65
1442.31151	4052.75
1445.73673	4032.75
1449.15965	4033.45
1452.58027	4025.55
1455.9986	3969.15
1459.41463	3962.35
1462.82837	3970.45
1466.23982	4025.05
1469.64898	4092.25
1473.05586	4154.15
1476.46045	4194.25
1479.86276	4269.35
1483.26279	4387.85
1486.66054	4538.05
1490.05602	4693.45
1493.44922	4946.15
1496.84016	5351.15
1500.22882	5959.15
1503.61521	6765.95
1506.99934	7600.15
1510.38121	8453.55
1513.76081	8894.15
1517.13816	8466.15
1520.51324	7347.25
1523.88607	6178.75
1527.25665	5376.05
1530.62498	4942.15
1533.99105	4696.95
1537.35488	4555.95
1540.71647	4468.35
1544.07581	4406.95
1547.4329	4408.75
1550.78776	4410.85
1554.14038	4443.95
1557.49077	4470.35
1560.83892	4579.95
1564.18484	4699.65
1567.52853	4871.65
1570.86999	5032.55
1574.20922	5138.25
1577.54624	5136.55
1580.88103	4874.95
1584.2136	4485.85
1587.54395	4211.85
1590.87208	4163.25
1594.19801	4319.65
1597.52172	4598.85
1600.84321	4729.85
1604.16251	4599.95
1607.47959	4339.65
1610.79447	4107.05
1614.10715	3846.85
1617.41763	3635.35
1620.7259	3497.25
1624.03199	3439.75
1627.33587	3437.75
1630.63757	3483.45
1633.93707	3580.65
1637.23439	3783.25
1640.52951	4082.65
1643.82246	4534.85
1647.11321	5131.05
1650.40179	5665.55
1653.68819	5653.25
1656.97241	4980.75
1660.25446	4184.95
1663.53433	3611.05
1666.81203	3278.55
1670.08756	3105.05
1673.36092	3017.45
1676.63211	2944.45
1679.90115	2918.15
1683.16801	2867.75
1686.43272	2838.35
1689.69527	2795.85
1692.95567	2757.45
1696.2139	2730.65
1699.46999	2689.15
1702.72392	2650.15
1705.97571	2666.95
1709.22535	2700.45
1712.47284	2729.55
1715.71819	2745.15
1718.96139	2760.35
1722.20246	2757.25
1725.44139	2758.55
1728.67818	2755.55
1731.91284	2707.95
1735.14537	2688.25
1738.37576	2665.85
1741.60403	2647.25
1744.83017	2628.55
1748.05418	2615.35
1751.27607	2610.45
1754.49584	2588.55
1757.71349	2564.25
1760.92903	2522.25
1764.14244	2534.05
1767.35375	2531.25
1770.56294	2510.45
1773.77002	2503.95
1776.97499	2499.25
1780.17785	2514.35
1783.37861	2519.05
1786.57727	2517.65
1789.77382	2524.75
1792.96828	2498.65
1796.16064	2505.85
1799.3509	2498.15
1802.53907	2496.95
1805.72514	2484.25
1808.90913	2473.25
1812.09102	2471.05
1815.27083	2471.95
1818.44856	2452.05
1821.6242	2444.05
1824.79776	2444.55
1827.96924	2444.35
1831.13864	2429.95
1834.30597	2434.45
1837.47122	2433.05
1840.6344	2418.55
1843.7955	2426.35
1846.95454	2416.45
1850.11151	2425.65
1853.26642	2419.15
1856.41926	2403.85
1859.57004	2422.95
1862.71876	2410.15
1865.86542	2414.65
1869.01003	2411.95
1872.15258	2402.45
1875.29308	2405.05
1878.43152	2397.35
1881.56792	2395.65
1884.70227	2396.25
1887.83457	2397.55
1890.96482	2389.45
1894.09304	2389.75
1897.21921	2386.25
1900.34335	2386.85
1903.46544	2381.15
1906.58551	2379.45
1909.70353	2384.85
1912.81953	2390.35
1915.93349	2374.35
1919.04543	2378.65
1922.15534	2377.45
1925.26322	2364.75
1928.36908	2355.25
1931.47292	2352.75
1934.57473	2336.65
1937.67453	2327.65
1940.77232	2325.65
1943.86808	2314.35
1946.96184	2297.55
1950.05358	2294.05
1953.14331	2279.35
1956.23103	2264.15
1959.31675	2268.45
1962.40046	2257.75
1965.48217	2252.75
1968.56188	2246.65
1971.63959	2250.65
1974.7153	2235.65
1977.78901	2223.85
1980.86073	2224.55
1983.93046	2214.75
1986.99819	2201.45
1990.06394	2198.75
1993.1277	2187.25
1996.18947	2173.75
1999.24925	2161.55
2002.30706	2161.15
2005.36288	2159.35
2008.41672	2146.45
2011.46859	2150.75
2014.51848	2130.55
2017.56639	2124.65
2020.61233	2129.65
2023.6563	2121.35
2026.6983	2112.25
2029.73833	2100.05
2032.7764	2094.15
2035.8125	2093.45
2038.84664	2090.55
2041.87881	2079.95
2044.90903	2079.15
2047.93729	2082.75
2050.96359	2073.75
2053.98794	2061.45
2057.01034	2068.95
2060.03078	2063.65
2063.04927	2061.65
2066.06582	2053.05
2069.08042	2065.55
2072.09307	2050.75
2075.10378	2055.95
2078.11255	2038.95
2081.11938	2042.35
2084.12426	2046.85
2087.12722	2037.65
2090.12824	2034.45
2093.12732	2035.55
2096.12447	2038.15
2099.11969	2042.65
2102.11299	2034.35
2105.10435	2040.95
2108.09379	2042.15
2111.08131	2043.35
2114.0669	2044.85
2117.05057	2048.85
2120.03233	2047.25
2123.01216	2050.75
2125.99008	2054.75
2128.96609	2044.25
2131.94018	2049.55
2134.91236	2059.75
2137.88263	2049.35
2140.851	2048.15
2143.81746	2051.25
2146.78201	2038.35
2149.74466	2043.45
2152.7054	2047.65
2155.66425	2036.85
2158.6212	2046.75
2161.57625	2029.75
2164.52941	2036.15
2167.48067	2044.45
2170.43004	2028.75
2173.37752	2033.05
2176.32311	2024.55
2179.26681	2023.65
2182.20863	2022.35
2185.14856	2028.45
2188.08661	2033.25
2191.02278	2024.55
2193.95707	2015.95
2196.88948	2018.95
2199.82001	2014.85
2202.74867	2003.75
2205.67545	2005.65
2208.60037	2002.55
2211.52341	1996.65
2214.44458	1992.45
2217.36388	1992.15
2220.28132	1984.25
2223.1969	1976.35
2226.11061	1976.65
2229.02246	1974.85
2231.93245	1967.35
2234.84058	1967.45
2237.74686	1964.65
2240.65128	1966.15
2243.55385	1950.45
2246.45456	1951.35
2249.35343	1950.55
2252.25044	1949.05
2255.14561	1946.95
2258.03893	1941.35
2260.93041	1928.45
2263.82004	1933.25
2266.70783	1941.45
2269.59378	1923.75
2272.4779	1922.25
2275.36017	1914.85
2278.24061	1917.05
2281.11922	1914.95
2283.996	1908.95
2286.87094	1899.65
2289.74405	1898.75
2292.61534	1895.95
2295.4848	1886.75
2298.35243	1888.15
2301.21824	1874.65
2304.08223	1875.55
2306.94439	1872.95
2309.80474	1874.15
2312.66327	1881.65
2315.51999	1870.25
2318.37489	1866.25
2321.22797	1858.45
2324.07925	1867.25
2326.92871	1855.75
2329.77637	1859.45
2332.62222	1862.25
2335.46626	1841.05
2338.3085	1846.65
2341.14893	1847.15
2343.98756	1848.55
2346.8244	1840.45
2349.65943	1845.85
2352.49267	1842.05
2355.32411	1851.55
2358.15376	1845.75
2360.98161	1855.75
2363.80768	1849.15
2366.63195	1858.85
2369.45444	1854.75
2372.27514	1859.95
2375.09405	1854.15
2377.91118	1850.15
2380.72652	1826.05
2383.54009	1834.95
2386.35187	1828.95
2389.16188	1816.55
2391.97011	1800.35
2394.77657	1795.05
2397.58125	1789.65
2400.38416	1791.15
2403.18529	1777.35
2405.98466	1782.55
2408.78226	1782.35
2411.57809	1773.85
2414.37216	1760.05
2417.16446	1772.05
2419.955	1761.65
2422.74378	1763.95
2425.5308	1765.25
2428.31606	1777.15
2431.09956	1765.45
2433.88131	1756.65
2436.6613	1757.65
2439.43954	1763.15
2442.21603	1766.75
2444.99077	1758.65
2447.76377	1764.25
2450.53501	1762.75
2453.30451	1756.95
2456.07226	1751.55
2458.83827	1752.65
2461.60254	1753.85
2464.36507	1751.85
2467.12586	1751.15
2469.88492	1755.55
2472.64224	1750.55
2475.39782	1745.55
2478.15167	1745.35
2480.90379	1745.25
2483.65417	1750.35
2486.40283	1751.85
2489.14976	1749.35
2491.89497	1760.75
2494.63845	1751.45
2497.3802	1748.15
2500.12024	1739.65
2502.85855	1734.45
2505.59514	1742.85
2508.33002	1728.45
2511.06318	1731.45
2513.79462	1729.25
2516.52435	1717.85
2519.25237	1711.15
2521.97867	1700.15
2524.70327	1695.75
2527.42616	1698.95
2530.14734	1696.85
2532.86681	1696.95
2535.58458	1684.25
2538.30065	1688.25
2541.01501	1684.35
2543.72768	1683.65
2546.43864	1672.05
2549.14791	1684.75
2551.85548	1679.75
2554.56136	1681.05
2557.26554	1673.75
2559.96803	1675.75
2562.66883	1669.75
2565.36794	1668.55
2568.06536	1677.35
2570.7611	1667.65
2573.45514	1657.15
2576.14751	1648.05
2578.83819	1648.35
2581.52719	1645.75
2584.21451	1644.15
2586.90015	1639.25
2589.58411	1640.65
2592.2664	1643.25
2594.94701	1630.75
2597.62594	1637.75
2600.30321	1619.45
2602.9788	1617.55
2605.65273	1628.45
2608.32498	1611.35
2610.99557	1619.85
2613.66449	1615.55
2616.33175	1611.55
2618.99734	1613.35
2621.66128	1627.45
2624.32355	1610.45
2626.98416	1605.05
2629.64311	1609.25
2632.30041	1601.15
2634.95605	1600.55
2637.61004	1600.05
2640.26238	1591.05
2642.91306	1603.05
2645.56209	1594.45
2648.20948	1580.95
2650.85521	1582.25
2653.4993	1591.55
2656.14175	1586.75
2658.78255	1587.15
2661.42171	1595.15
2664.05923	1588.75
2666.6951	1592.25
2669.32934	1590.05
2671.96194	1589.25
2674.59291	1606.95
2677.22224	1593.45
2679.84993	1591.35
2682.476	1597.45
2685.10043	1593.95
2687.72324	1586.15
2690.34441	1592.35
2692.96396	1593.65
2695.58188	1597.75
2698.19818	1599.15
2700.81285	1602.05
2703.4259	1608.35
2706.03733	1594.05
2708.64714	1589.85
2711.25533	1612.25
2713.86191	1601.15
2716.46687	1617.65
2719.07021	1615.45
2721.67194	1624.05
2724.27206	1617.55
2726.87057	1614.65
2729.46747	1625.75
2732.06276	1621.75
2734.65644	1604.65
2737.24852	1610.15
2739.83899	1614.65
2742.42786	1602.75
2745.01513	1594.55
2747.60079	1587.15
2750.18486	1589.35
2752.76733	1578.95
2755.3482	1578.25
2757.92747	1587.45
2760.50515	1575.95
2763.08123	1570.35
2765.65573	1570.65
2768.22863	1570.75
2770.79994	1561.95
2773.36967	1563.15
2775.9378	1574.55
2778.50435	1568.65
2781.06932	1556.75
2783.6327	1568.95
2786.1945	1569.45
2788.75471	1571.75
2791.31335	1568.35
2793.87041	1570.95
2796.42589	1572.75
2798.97979	1574.75
2801.53212	1568.65
2804.08288	1567.55
2806.63206	1569.15
2809.17967	1573.65
2811.72571	1587.15
2814.27018	1590.85
2816.81308	1596.55
2819.35442	1596.35
2821.89419	1596.85
2824.43239	1600.85
2826.96904	1616.75
2829.50412	1616.15
2832.03763	1612.55
2834.56959	1628.35
2837.1	1634.75
2839.62884	1655.65
2842.15613	1706.65
2844.68186	1761.75
2847.20604	1839.85
2849.72867	1886.85
2852.24974	1913.35
2854.76927	1913.65
2857.28724	1887.45
2859.80367	1872.25
2862.31855	1864.85
2864.83189	1851.35
2867.34368	1832.35
2869.85393	1839.15
2872.36264	1830.45
2874.8698	1837.55
2877.37543	1839.55
2879.87952	1831.85
2882.38207	1833.05
2884.88308	1811.15
2887.38256	1816.35
2889.88051	1817.45
2892.37692	1821.85
2894.8718	1832.65
2897.36515	1839.75
2899.85698	1839.85
2902.34727	1840.35
2904.83604	1846.65
2907.32328	1837.45
2909.809	1843.05
2912.29319	1843.55
2914.77587	1834.95
2917.25702	1832.15
2919.73665	1824.05
2922.21476	1825.85
2924.69136	1835.45
2927.16644	1819.15
2929.64	1820.95
2932.11205	1823.15
2934.58258	1799.35
2937.05161	1797.95
2939.51912	1779.95
2941.98513	1760.55
2944.44962	1718.95
2946.91261	1684.35
2949.37409	1663.35
2951.83407	1635.85
2954.29254	1629.65
2956.74951	1612.85
2959.20498	1610.35
2961.65895	1586.45
2964.11142	1587.25
2966.56239	1578.55
2969.01186	1569.15
2971.45984	1553.15
2973.90632	1553.35
2976.35131	1532.35
2978.7948	1535.65
2981.23681	1523.95
2983.67732	1523.85
2986.11635	1515.95
2988.55388	1514.25
2990.98993	1500.45
2993.4245	1489.15
2995.85758	1491.05
2998.28917	1489.65
3000.71928	1483.55
3003.14791	1483.45
3005.57506	1486.95
3008.00073	1489.65
3010.42493	1463.25
3012.84764	1470.65
3015.26888	1469.85
3017.68865	1474.25
3020.10694	1468.85
3022.52376	1467.75
3024.9391	1463.85
3027.35298	1475.25
3029.76539	1474.15
3032.17632	1477.25
3034.5858	1458.85
3036.9938	1476.15
3039.40034	1467.05
3041.80542	1469.55
3044.20903	1462.45
3046.61118	1462.95
3049.01187	1472.95
3051.4111	1467.65
3053.80888	1467.15
3056.20519	1470.85
3058.60005	1462.25
3060.99345	1467.85
3063.3854	1467.85
3065.7759	1463.75
3068.16494	1474.15
3070.55254	1481.25
3072.93868	1483.75
3075.32338	1475.75
3077.70662	1469.05
3080.08842	1471.45
3082.46878	1473.75
3084.84769	1475.05
3087.22515	1471.95
3089.60118	1470.35
3091.97576	1467.15
3094.3489	1481.65
3096.72061	1480.75
3099.09087	1480.65
3101.4597	1469.05
3103.82709	1481.55
3106.19305	1482.95
3108.55757	1484.55
3110.92066	1496.25
3113.28232	1492.45
3115.64255	1482.45
3118.00134	1492.75
3120.35871	1499.35
3122.71466	1505.65
3125.06917	1502.75
3127.42226	1494.35
3129.77393	1507.55
3132.12417	1514.95
3134.47299	1516.25
3136.82039	1524.35
3139.16636	1536.15
3141.51092	1546.65
3143.85406	1546.85
3146.19579	1546.45
3148.53609	1550.85
3150.87499	1559.75
3153.21246	1574.75
3155.54853	1582.35
3157.88318	1585.15
3160.21642	1590.75
3162.54826	1592.95
3164.87868	1592.75
3167.2077	1602.45
3169.5353	1606.65
3171.86151	1611.35
3174.18631	1624.25
3176.5097	1624.35
3178.83169	1630.25
3181.15228	1629.95
3183.47147	1637.45
3185.78926	1635.25
3188.10565	1643.35
3190.42065	1647.55
3192.73424	1646.95
3195.04645	1659.65
3197.35725	1664.65
3199.66667	1672.35
3201.97469	1678.25
3204.28132	1668.15
3206.58656	1685.35
3208.8904	1693.05
3211.19287	1696.25
3213.49394	1690.35
3215.79363	1707.35
3218.09193	1704.65
3220.38884	1703.05
3222.68438	1701.65
3224.97853	1707.45
3227.2713	1706.85
3229.56269	1711.75
3231.8527	1712.55
3234.14133	1708.25
3236.42858	1709.75
3238.71446	1712.25
3240.99896	1712.15
3243.28209	1709.15
3245.56384	1708.65
3247.84423	1707.45
3250.12324	1710.15
3252.40088	1703.15
3254.67715	1711.15
3256.95205	1712.45
3259.22558	1708.25
3261.49775	1709.95
3263.76855	1706.45
3266.03799	1701.85
3268.30606	1706.05
3270.57277	1706.25
3272.83812	1697.45
3275.10211	1688.85
3277.36474	1690.45
3279.62601	1694.65
3281.88593	1691.65
3284.14448	1698.15
3286.40168	1697.45
3288.65753	1703.95
3290.91202	1703.65
3293.16516	1681.45
3295.41695	1689.85
3297.66738	1682.05
3299.91647	1672.45
3302.16421	1667.25
3304.4106	1658.65
3306.65564	1649.45
3308.89933	1639.55
3311.14169	1634.25
3313.38269	1621.05
3315.62236	1604.75
3317.86068	1597.65
3320.09766	1590.05
3322.3333	1576.15
3324.5676	1572.55
3326.80056	1539.55
3329.03219	1533.85
3331.26248	0.05
3333.49143	-0.05
3335.71905	-0.65
