Data from AgNPs_FTO_APTES_UA_1uM_CRN_5uM_R6G_10uM_NaF_0.1M_Addition_RamanShift__31__14-12-19-616.txt Node

Date: Thu Jan 27 14:12:19 GMT 2022
User: TCL
Spectrometer: QEP01345
Trigger mode: 4
Integration Time (sec): 7.000000E0
Scans to average: 10
Electric dark correction enabled: true
Nonlinearity correction enabled: false
Boxcar width: 0
XAxis mode: Raman Shifts
Number of Pixels in Spectrum: 1044
>>>>>Begin Spectral Data<<<<<
46.04893	1.1125
50.45542	1.2125
54.85868	0.2125
59.25871	-0.0875
63.6555	32.0125
68.04907	36.2125
72.43941	39.0125
76.82654	34.9125
81.21044	42.0125
85.59113	42.5125
89.96862	42.8125
94.34289	48.0125
98.71396	46.5125
103.08183	49.3125
107.4465	50.2125
111.80798	52.7125
116.16626	49.3125
120.52136	52.7125
124.87327	53.8125
129.222	50.2125
133.56755	53.8125
137.90993	55.9125
142.24913	54.8125
146.58517	61.3125
150.91804	70.8125
155.24774	75.2125
159.57429	83.6125
163.89768	106.7125
168.21792	129.4125
172.53501	173.2125
176.84895	229.5125
181.15975	314.6125
185.46741	427.1125
189.77193	589.5125
194.07331	786.5125
198.37157	1012.8125
202.6667	1241.8125
206.9587	1479.0125
211.24758	1710.8125
215.53334	1962.3125
219.81599	2241.1125
224.09553	2568.8125
228.37195	2931.4125
232.64527	3312.4125
236.91549	3697.7125
241.18261	4024.2125
245.44663	4256.2125
249.70755	4441.6125
253.96539	4599.8125
258.22014	4748.9125
262.4718	4900.2125
266.72039	5036.0125
270.96589	5108.9125
275.20832	5139.2125
279.44768	5089.5125
283.68397	5027.4125
287.91719	4981.4125
292.14735	4991.0125
296.37445	5121.6125
300.59849	5355.1125
304.81948	5669.6125
309.03742	5907.3125
313.25231	5913.1125
317.46415	5606.4125
321.67296	5079.6125
325.87872	4622.0125
330.08145	4400.3125
334.28114	4375.0125
338.47781	4464.1125
342.67145	4620.3125
346.86207	4864.5125
351.04966	5233.8125
355.23424	5662.8125
359.4158	5977.7125
363.59435	6120.0125
367.76989	6140.1125
371.94243	6099.8125
376.11196	6035.4125
380.27849	5974.4125
384.44203	5883.9125
388.60257	5758.9125
392.76012	5685.8125
396.91468	5725.8125
401.06626	5908.5125
405.21485	6052.9125
409.36047	5903.8125
413.50311	5519.5125
417.64277	5161.8125
421.77947	4924.5125
425.9132	4843.0125
430.04396	4814.2125
434.17176	4837.1125
438.2966	4889.5125
442.41849	5001.0125
446.53742	5173.2125
450.6534	5328.0125
454.76644	5422.0125
458.87653	5440.1125
462.98368	5380.1125
467.08789	5265.1125
471.18916	5141.0125
475.2875	4986.2125
479.38291	4901.3125
483.4754	4796.4125
487.56496	4726.0125
491.6516	4685.4125
495.73531	4690.2125
499.81612	4711.9125
503.89401	4774.7125
507.96899	4861.0125
512.04106	4952.3125
516.11023	5051.8125
520.1765	5160.0125
524.23987	5117.4125
528.30034	5000.3125
532.35792	4848.7125
536.41261	4710.3125
540.46441	4562.0125
544.51333	4511.3125
548.55936	4535.1125
552.60252	4646.7125
556.64279	4789.9125
560.6802	4888.0125
564.71473	4958.0125
568.7464	5206.3125
572.7752	5383.3125
576.80114	5202.9125
580.82422	4958.8125
584.84444	4875.0125
588.86181	4818.5125
592.87633	4808.3125
596.888	4847.2125
600.89682	5067.4125
604.9028	5782.4125
608.90594	7747.1125
612.90624	10468.6125
616.90371	10314.9125
620.89834	6833.7125
624.89015	5081.1125
628.87913	4722.5125
632.86528	4745.4125
636.84862	4863.7125
640.82913	4821.9125
644.80683	4573.7125
648.78172	4410.4125
652.75379	4450.5125
656.72306	4682.6125
660.68952	5008.9125
664.65319	4968.7125
668.61405	4632.3125
672.57211	4458.2125
676.52738	4443.4125
680.47986	4438.1125
684.42955	4398.5125
688.37646	4351.5125
692.32058	4366.4125
696.26192	4418.3125
700.20048	4475.2125
704.13626	4544.8125
708.06928	4529.6125
711.99952	4494.2125
715.927	4464.5125
719.85171	4475.7125
723.77365	4479.1125
727.69284	4439.7125
731.60928	4385.1125
735.52295	4368.1125
739.43388	4394.3125
743.34206	4424.7125
747.24749	4436.6125
751.15017	4483.3125
755.05012	4584.5125
758.94733	4840.6125
762.8418	5446.5125
766.73354	6568.2125
770.62254	7768.3125
774.50882	8422.7125
778.39237	8059.6125
782.27321	6890.4125
786.15132	5668.3125
790.02671	4938.7125
793.89938	4645.3125
797.76935	4510.1125
801.6366	4452.6125
805.50115	4406.1125
809.36299	4380.3125
813.22213	4338.8125
817.07857	4351.8125
820.93231	4323.9125
824.78336	4375.9125
828.63172	4400.8125
832.47738	4416.3125
836.32036	4379.2125
840.16066	4346.0125
843.99827	4307.6125
847.8332	4280.1125
851.66546	4293.9125
855.49504	4283.2125
859.32195	4280.2125
863.1462	4255.3125
866.96777	4235.9125
870.78668	4241.3125
874.60293	4248.2125
878.41652	4264.8125
882.22745	4285.4125
886.03573	4327.2125
889.84136	4303.7125
893.64433	4262.5125
897.44466	4260.1125
901.24235	4275.0125
905.0374	4258.4125
908.8298	4237.7125
912.61957	4235.9125
916.40671	4247.7125
920.19121	4276.8125
923.97308	4339.2125
927.75233	4387.1125
931.52895	4437.5125
935.30295	4401.9125
939.07433	4257.5125
942.84309	4131.4125
946.60924	4041.2125
950.37278	4003.6125
954.13371	3982.4125
957.89203	3955.7125
961.64774	3945.1125
965.40086	3933.0125
969.15137	3923.3125
972.89929	3909.5125
976.64461	3907.5125
980.38733	3893.1125
984.12747	3904.9125
987.86502	3910.8125
991.59999	3940.3125
995.33237	3962.8125
999.06217	4048.0125
1002.78939	4138.6125
1006.51404	4251.3125
1010.23611	4369.0125
1013.95561	4459.6125
1017.67255	4434.4125
1021.38692	4365.3125
1025.09872	4294.4125
1028.80796	4225.4125
1032.51465	4213.4125
1036.21877	4265.7125
1039.92035	4337.5125
1043.61937	4351.2125
1047.31584	4349.5125
1051.00976	4334.9125
1054.70114	4320.4125
1058.38998	4314.7125
1062.07627	4313.4125
1065.76003	4343.5125
1069.44126	4381.9125
1073.11995	4429.5125
1076.79611	4499.5125
1080.46974	4582.7125
1084.14085	4731.8125
1087.80943	4897.0125
1091.47549	4967.9125
1095.13903	4865.1125
1098.80005	4659.5125
1102.45857	4475.5125
1106.11456	4396.1125
1109.76805	4416.9125
1113.41903	4528.3125
1117.06751	4698.7125
1120.71348	4931.3125
1124.35696	5208.3125
1127.99793	5463.5125
1131.63641	5475.3125
1135.2724	5167.5125
1138.90589	4828.8125
1142.5369	4667.8125
1146.16542	4554.7125
1149.79145	4475.7125
1153.415	4455.8125
1157.03607	4504.2125
1160.65467	4616.6125
1164.27079	4775.1125
1167.88443	5050.9125
1171.49561	5531.8125
1175.10432	6322.4125
1178.71056	7446.1125
1182.31434	8180.0125
1185.91565	8320.6125
1189.51451	8008.7125
1193.11091	7404.8125
1196.70485	6689.4125
1200.29634	6183.9125
1203.88538	5842.5125
1207.47197	5440.7125
1211.05612	5092.5125
1214.63782	4878.3125
1218.21708	4827.6125
1221.79391	4817.7125
1225.36829	4862.8125
1228.94024	4921.6125
1232.50976	4980.6125
1236.07685	5023.4125
1239.6415	5019.6125
1243.20374	5021.2125
1246.76355	5037.6125
1250.32093	5092.1125
1253.8759	5189.4125
1257.42845	5341.9125
1260.97859	5526.0125
1264.52631	5729.5125
1268.07163	5912.2125
1271.61453	6090.4125
1275.15503	6214.8125
1278.69312	6278.2125
1282.22882	6261.3125
1285.76211	6387.1125
1289.29301	6604.9125
1292.82151	6836.8125
1296.34761	7056.3125
1299.87133	7397.9125
1303.39266	7985.2125
1306.9116	9003.6125
1310.42815	10276.4125
1313.94233	11144.4125
1317.45412	11032.1125
1320.96354	10193.5125
1324.47058	9207.7125
1327.97525	8362.7125
1331.47754	7843.4125
1334.97747	7612.8125
1338.47502	7569.1125
1341.97022	7724.6125
1345.46305	8034.8125
1348.95352	8577.1125
1352.44163	9356.4125
1355.92738	10456.8125
1359.41078	12177.6125
1362.89183	14086.4125
1366.37053	14005.4125
1369.84688	11687.1125
1373.32088	9277.5125
1376.79254	7746.5125
1380.26186	6991.3125
1383.72883	6643.3125
1387.19347	6381.5125
1390.65578	6060.7125
1394.11575	5790.9125
1397.57339	5652.5125
1401.0287	5641.2125
1404.48168	5719.2125
1407.93234	5825.5125
1411.38068	5894.3125
1414.82669	5924.7125
1418.27039	5835.4125
1421.71177	5757.0125
1425.15083	5647.2125
1428.58758	5569.6125
1432.02203	5544.7125
1435.45416	5592.1125
1438.88399	5636.2125
1442.31151	5597.6125
1445.73673	5636.1125
1449.15965	5657.8125
1452.58027	5643.3125
1455.9986	5575.0125
1459.41463	5554.0125
1462.82837	5611.5125
1466.23982	5692.3125
1469.64898	5834.6125
1473.05586	5949.4125
1476.46045	6004.3125
1479.86276	6126.0125
1483.26279	6286.4125
1486.66054	6485.9125
1490.05602	6736.6125
1493.44922	7096.5125
1496.84016	7682.0125
1500.22882	8570.1125
1503.61521	9759.6125
1506.99934	11174.8125
1510.38121	12615.0125
1513.76081	13494.0125
1517.13816	13013.0125
1520.51324	11339.8125
1523.88607	9451.5125
1527.25665	8099.3125
1530.62498	7309.2125
1533.99105	6865.5125
1537.35488	6549.3125
1540.71647	6350.3125
1544.07581	6262.7125
1547.4329	6218.0125
1550.78776	6220.5125
1554.14038	6224.3125
1557.49077	6310.1125
1560.83892	6463.4125
1564.18484	6694.6125
1567.52853	6974.7125
1570.86999	7191.2125
1574.20922	7330.9125
1577.54624	7308.1125
1580.88103	6936.8125
1584.2136	6361.6125
1587.54395	6015.6125
1590.87208	6039.0125
1594.19801	6324.5125
1597.52172	6805.2125
1600.84321	7015.2125
1604.16251	6772.3125
1607.47959	6303.5125
1610.79447	5850.5125
1614.10715	5397.2125
1617.41763	5025.4125
1620.7259	4796.8125
1624.03199	4676.9125
1627.33587	4681.9125
1630.63757	4772.2125
1633.93707	5006.3125
1637.23439	5382.8125
1640.52951	5938.3125
1643.82246	6694.0125
1647.11321	7666.6125
1650.40179	8516.5125
1653.68819	8544.9125
1656.97241	7449.8125
1660.25446	6052.9125
1663.53433	5037.9125
1666.81203	4446.1125
1670.08756	4119.9125
1673.36092	3944.8125
1676.63211	3829.6125
1679.90115	3759.4125
1683.16801	3689.3125
1686.43272	3641.8125
1689.69527	3602.6125
1692.95567	3574.1125
1696.2139	3539.0125
1699.46999	3502.6125
1702.72392	3476.8125
1705.97571	3484.6125
1709.22535	3518.4125
1712.47284	3535.8125
1715.71819	3551.3125
1718.96139	3563.4125
1722.20246	3548.6125
1725.44139	3557.5125
1728.67818	3513.2125
1731.91284	3475.2125
1735.14537	3453.7125
1738.37576	3428.3125
1741.60403	3397.8125
1744.83017	3380.2125
1748.05418	3365.9125
1751.27607	3358.3125
1754.49584	3327.7125
1757.71349	3320.8125
1760.92903	3303.4125
1764.14244	3287.4125
1767.35375	3280.4125
1770.56294	3277.9125
1773.77002	3268.0125
1776.97499	3268.4125
1780.17785	3280.4125
1783.37861	3264.5125
1786.57727	3264.7125
1789.77382	3277.0125
1792.96828	3261.5125
1796.16064	3250.0125
1799.3509	3253.9125
1802.53907	3247.2125
1805.72514	3230.3125
1808.90913	3229.7125
1812.09102	3223.2125
1815.27083	3209.1125
1818.44856	3207.8125
1821.6242	3187.1125
1824.79776	3190.7125
1827.96924	3182.8125
1831.13864	3179.7125
1834.30597	3177.6125
1837.47122	3166.1125
1840.6344	3162.3125
1843.7955	3170.5125
1846.95454	3161.2125
1850.11151	3159.7125
1853.26642	3158.4125
1856.41926	3154.5125
1859.57004	3166.6125
1862.71876	3173.8125
1865.86542	3161.2125
1869.01003	3175.8125
1872.15258	3168.8125
1875.29308	3170.6125
1878.43152	3169.8125
1881.56792	3177.5125
1884.70227	3175.3125
1887.83457	3174.3125
1890.96482	3183.8125
1894.09304	3181.9125
1897.21921	3178.2125
1900.34335	3180.9125
1903.46544	3172.5125
1906.58551	3180.1125
1909.70353	3169.1125
1912.81953	3175.9125
1915.93349	3174.4125
1919.04543	3157.6125
1922.15534	3156.4125
1925.26322	3157.2125
1928.36908	3132.6125
1931.47292	3115.1125
1934.57473	3103.4125
1937.67453	3106.9125
1940.77232	3066.9125
1943.86808	3056.3125
1946.96184	3030.6125
1950.05358	3022.3125
1953.14331	3016.2125
1956.23103	2995.5125
1959.31675	2997.6125
1962.40046	2987.1125
1965.48217	2980.7125
1968.56188	2958.3125
1971.63959	2939.8125
1974.7153	2942.0125
1977.78901	2938.0125
1980.86073	2914.9125
1983.93046	2908.1125
1986.99819	2905.5125
1990.06394	2878.8125
1993.1277	2876.2125
1996.18947	2868.3125
1999.24925	2866.1125
2002.30706	2851.5125
2005.36288	2843.4125
2008.41672	2821.8125
2011.46859	2825.8125
2014.51848	2813.8125
2017.56639	2810.6125
2020.61233	2796.0125
2023.6563	2796.1125
2026.6983	2789.0125
2029.73833	2772.1125
2032.7764	2761.4125
2035.8125	2758.1125
2038.84664	2753.7125
2041.87881	2740.1125
2044.90903	2738.5125
2047.93729	2724.3125
2050.96359	2725.8125
2053.98794	2724.2125
2057.01034	2712.4125
2060.03078	2711.8125
2063.04927	2712.3125
2066.06582	2704.8125
2069.08042	2707.9125
2072.09307	2704.3125
2075.10378	2694.5125
2078.11255	2698.5125
2081.11938	2687.4125
2084.12426	2687.7125
2087.12722	2688.9125
2090.12824	2685.2125
2093.12732	2684.0125
2096.12447	2678.6125
2099.11969	2694.6125
2102.11299	2679.4125
2105.10435	2680.5125
2108.09379	2687.4125
2111.08131	2691.2125
2114.0669	2682.4125
2117.05057	2686.2125
2120.03233	2679.4125
2123.01216	2680.7125
2125.99008	2695.1125
2128.96609	2697.2125
2131.94018	2695.4125
2134.91236	2696.4125
2137.88263	2679.5125
2140.851	2686.3125
2143.81746	2689.2125
2146.78201	2687.6125
2149.74466	2674.1125
2152.7054	2686.2125
2155.66425	2678.4125
2158.6212	2672.4125
2161.57625	2662.4125
2164.52941	2676.9125
2167.48067	2675.2125
2170.43004	2674.7125
2173.37752	2665.7125
2176.32311	2676.7125
2179.26681	2674.7125
2182.20863	2657.6125
2185.14856	2669.9125
2188.08661	2660.9125
2191.02278	2662.5125
2193.95707	2671.5125
2196.88948	2650.3125
2199.82001	2659.8125
2202.74867	2649.3125
2205.67545	2644.3125
2208.60037	2656.6125
2211.52341	2631.7125
2214.44458	2621.9125
2217.36388	2626.3125
2220.28132	2623.2125
2223.1969	2607.4125
2226.11061	2599.2125
2229.02246	2590.4125
2231.93245	2583.7125
2234.84058	2587.2125
2237.74686	2574.5125
2240.65128	2561.4125
2243.55385	2574.2125
2246.45456	2566.4125
2249.35343	2567.7125
2252.25044	2562.0125
2255.14561	2562.4125
2258.03893	2556.7125
2260.93041	2548.1125
2263.82004	2550.9125
2266.70783	2555.1125
2269.59378	2543.9125
2272.4779	2543.9125
2275.36017	2532.5125
2278.24061	2523.9125
2281.11922	2510.0125
2283.996	2517.6125
2286.87094	2509.6125
2289.74405	2505.1125
2292.61534	2488.4125
2295.4848	2489.1125
2298.35243	2489.2125
2301.21824	2472.6125
2304.08223	2479.0125
2306.94439	2475.4125
2309.80474	2475.4125
2312.66327	2468.7125
2315.51999	2473.6125
2318.37489	2468.1125
2321.22797	2456.1125
2324.07925	2465.0125
2326.92871	2465.6125
2329.77637	2455.1125
2332.62222	2461.8125
2335.46626	2448.9125
2338.3085	2437.7125
2341.14893	2448.5125
2343.98756	2443.6125
2346.8244	2438.5125
2349.65943	2441.4125
2352.49267	2436.3125
2355.32411	2436.8125
2358.15376	2453.5125
2360.98161	2453.9125
2363.80768	2466.4125
2366.63195	2464.3125
2369.45444	2462.0125
2372.27514	2464.7125
2375.09405	2466.2125
2377.91118	2451.2125
2380.72652	2443.7125
2383.54009	2417.7125
2386.35187	2411.5125
2389.16188	2407.6125
2391.97011	2394.0125
2394.77657	2385.7125
2397.58125	2389.3125
2400.38416	2375.8125
2403.18529	2350.4125
2405.98466	2353.5125
2408.78226	2365.0125
2411.57809	2352.3125
2414.37216	2334.0125
2417.16446	2339.3125
2419.955	2335.3125
2422.74378	2347.2125
2425.5308	2344.4125
2428.31606	2343.5125
2431.09956	2342.4125
2433.88131	2331.2125
2436.6613	2335.0125
2439.43954	2332.7125
2442.21603	2327.1125
2444.99077	2335.1125
2447.76377	2339.3125
2450.53501	2333.4125
2453.30451	2333.5125
2456.07226	2326.4125
2458.83827	2325.2125
2461.60254	2324.0125
2464.36507	2327.8125
2467.12586	2322.5125
2469.88492	2326.2125
2472.64224	2323.7125
2475.39782	2324.2125
2478.15167	2315.2125
2480.90379	2322.2125
2483.65417	2329.7125
2486.40283	2342.7125
2489.14976	2348.2125
2491.89497	2347.7125
2494.63845	2345.0125
2497.3802	2334.6125
2500.12024	2324.1125
2502.85855	2334.7125
2505.59514	2321.8125
2508.33002	2317.5125
2511.06318	2312.4125
2513.79462	2302.6125
2516.52435	2283.3125
2519.25237	2276.0125
2521.97867	2269.8125
2524.70327	2261.9125
2527.42616	2253.9125
2530.14734	2245.1125
2532.86681	2249.6125
2535.58458	2233.4125
2538.30065	2243.8125
2541.01501	2237.3125
2543.72768	2254.9125
2546.43864	2247.0125
2549.14791	2244.8125
2551.85548	2252.3125
2554.56136	2244.7125
2557.26554	2239.2125
2559.96803	2246.9125
2562.66883	2237.5125
2565.36794	2236.9125
2568.06536	2220.7125
2570.7611	2222.2125
2573.45514	2215.6125
2576.14751	2214.4125
2578.83819	2195.1125
2581.52719	2200.0125
2584.21451	2189.4125
2586.90015	2199.0125
2589.58411	2197.0125
2592.2664	2190.8125
2594.94701	2185.7125
2597.62594	2179.7125
2600.30321	2179.7125
2602.9788	2182.4125
2605.65273	2178.7125
2608.32498	2181.3125
2610.99557	2175.0125
2613.66449	2175.1125
2616.33175	2172.3125
2618.99734	2167.7125
2621.66128	2177.9125
2624.32355	2156.8125
2626.98416	2174.3125
2629.64311	2161.8125
2632.30041	2157.8125
2634.95605	2152.6125
2637.61004	2139.8125
2640.26238	2132.6125
2642.91306	2137.4125
2645.56209	2133.4125
2648.20948	2132.4125
2650.85521	2137.3125
2653.4993	2130.5125
2656.14175	2136.1125
2658.78255	2129.8125
2661.42171	2140.9125
2664.05923	2130.7125
2666.6951	2141.4125
2669.32934	2144.0125
2671.96194	2145.5125
2674.59291	2162.2125
2677.22224	2149.8125
2679.84993	2152.9125
2682.476	2142.1125
2685.10043	2140.3125
2687.72324	2140.3125
2690.34441	2146.5125
2692.96396	2140.2125
2695.58188	2145.6125
2698.19818	2146.2125
2700.81285	2141.1125
2703.4259	2149.7125
2706.03733	2144.2125
2708.64714	2137.7125
2711.25533	2147.9125
2713.86191	2146.7125
2716.46687	2161.2125
2719.07021	2154.1125
2721.67194	2155.8125
2724.27206	2159.6125
2726.87057	2150.9125
2729.46747	2155.8125
2732.06276	2160.5125
2734.65644	2155.1125
2737.24852	2144.7125
2739.83899	2147.5125
2742.42786	2149.6125
2745.01513	2120.5125
2747.60079	2128.7125
2750.18486	2132.3125
2752.76733	2125.2125
2755.3482	2118.5125
2757.92747	2129.2125
2760.50515	2103.5125
2763.08123	2117.2125
2765.65573	2113.4125
2768.22863	2105.0125
2770.79994	2101.0125
2773.36967	2093.8125
2775.9378	2092.5125
2778.50435	2093.4125
2781.06932	2094.8125
2783.6327	2088.7125
2786.1945	2101.8125
2788.75471	2097.4125
2791.31335	2091.1125
2793.87041	2082.5125
2796.42589	2090.3125
2798.97979	2083.3125
2801.53212	2084.6125
2804.08288	2086.6125
2806.63206	2083.7125
2809.17967	2083.0125
2811.72571	2081.5125
2814.27018	2077.8125
2816.81308	2092.5125
2819.35442	2087.7125
2821.89419	2094.5125
2824.43239	2086.3125
2826.96904	2093.5125
2829.50412	2107.3125
2832.03763	2109.8125
2834.56959	2112.4125
2837.1	2099.0125
2839.62884	2104.8125
2842.15613	2127.8125
2844.68186	2151.3125
2847.20604	2180.6125
2849.72867	2214.5125
2852.24974	2215.6125
2854.76927	2213.8125
2857.28724	2186.9125
2859.80367	2202.4125
2862.31855	2189.0125
2864.83189	2188.5125
2867.34368	2179.8125
2869.85393	2182.3125
2872.36264	2180.6125
2874.8698	2183.1125
2877.37543	2168.3125
2879.87952	2182.7125
2882.38207	2174.9125
2884.88308	2175.6125
2887.38256	2168.0125
2889.88051	2163.3125
2892.37692	2157.6125
2894.8718	2168.9125
2897.36515	2170.2125
2899.85698	2164.8125
2902.34727	2166.8125
2904.83604	2176.5125
2907.32328	2170.9125
2909.809	2173.1125
2912.29319	2176.0125
2914.77587	2177.3125
2917.25702	2171.7125
2919.73665	2155.9125
2922.21476	2161.8125
2924.69136	2160.9125
2927.16644	2166.2125
2929.64	2161.6125
2932.11205	2154.1125
2934.58258	2155.0125
2937.05161	2135.5125
2939.51912	2131.0125
2941.98513	2112.7125
2944.44962	2096.2125
2946.91261	2077.8125
2949.37409	2063.1125
2951.83407	2062.7125
2954.29254	2042.8125
2956.74951	2040.5125
2959.20498	2047.8125
2961.65895	2038.9125
2964.11142	2032.3125
2966.56239	2024.4125
2969.01186	2026.3125
2971.45984	2010.2125
2973.90632	2009.7125
2976.35131	1999.5125
2978.7948	2006.8125
2981.23681	1995.9125
2983.67732	1990.1125
2986.11635	1988.9125
2988.55388	1979.8125
2990.98993	1961.3125
2993.4245	1967.4125
2995.85758	1956.0125
2998.28917	1952.7125
3000.71928	1947.5125
3003.14791	1954.5125
3005.57506	1956.9125
3008.00073	1945.7125
3010.42493	1937.3125
3012.84764	1938.3125
3015.26888	1942.3125
3017.68865	1937.3125
3020.10694	1934.5125
3022.52376	1919.4125
3024.9391	1925.1125
3027.35298	1921.8125
3029.76539	1929.1125
3032.17632	1929.3125
3034.5858	1923.6125
3036.9938	1923.9125
3039.40034	1915.9125
3041.80542	1916.3125
3044.20903	1916.7125
3046.61118	1916.1125
3049.01187	1915.4125
3051.4111	1913.2125
3053.80888	1908.0125
3056.20519	1909.2125
3058.60005	1902.2125
3060.99345	1893.9125
3063.3854	1898.4125
3065.7759	1891.3125
3068.16494	1893.3125
3070.55254	1882.6125
3072.93868	1900.4125
3075.32338	1887.1125
3077.70662	1868.2125
3080.08842	1882.7125
3082.46878	1874.0125
3084.84769	1872.7125
3087.22515	1873.2125
3089.60118	1864.4125
3091.97576	1869.6125
3094.3489	1875.7125
3096.72061	1871.9125
3099.09087	1866.4125
3101.4597	1864.5125
3103.82709	1877.0125
3106.19305	1879.5125
3108.55757	1880.2125
3110.92066	1870.8125
3113.28232	1877.3125
3115.64255	1873.5125
3118.00134	1877.4125
3120.35871	1878.8125
3122.71466	1869.3125
