Data from AgNPs_FTO_APTES_UA_1uM_CRN_10uM_R6G_10uM_NaF_0.1M_Addition_RamanShift__3__14-19-19-623.txt Node

Date: Thu Jan 27 14:19:19 GMT 2022
User: TCL
Spectrometer: QEP01345
Trigger mode: 4
Integration Time (sec): 7.000000E0
Scans to average: 10
Electric dark correction enabled: true
Nonlinearity correction enabled: false
Boxcar width: 0
XAxis mode: Raman Shifts
Number of Pixels in Spectrum: 1044
>>>>>Begin Spectral Data<<<<<
46.04893	1.8
50.45542	0.6
54.85868	-2
59.25871	-1.7
63.6555	49.7
68.04907	49.2
72.43941	51.1
76.82654	56.3
81.21044	60.8
85.59113	59
89.96862	62.3
94.34289	65.5
98.71396	70.1
103.08183	66.6
107.4465	69
111.80798	73.9
116.16626	73.2
120.52136	83.2
124.87327	77.6
129.222	73.8
133.56755	84.6
137.90993	89.2
142.24913	96.8
146.58517	104.7
150.91804	120.2
155.24774	140.2
159.57429	167.7
163.89768	216.3
168.21792	281.6
172.53501	376.8
176.84895	518.6
181.15975	726.6
185.46741	1006.5
189.77193	1395.5
194.07331	1861.7
198.37157	2412.2
202.6667	2971.1
206.9587	3528.5
211.24758	4089.1
215.53334	4628.5
219.81599	5235.6
224.09553	5878.1
228.37195	6589.1
232.64527	7371
236.91549	8197.1
241.18261	9034.1
245.44663	9810.6
249.70755	10493.2
253.96539	11126.3
258.22014	11628.5
262.4718	12042.6
266.72039	12383.8
270.96589	12521.7
275.20832	12527
279.44768	12427.2
283.68397	12294.7
287.91719	12195.9
292.14735	12107.8
296.37445	12046.4
300.59849	12132.4
304.81948	12205
309.03742	12230.2
313.25231	12160.1
317.46415	11959.8
321.67296	11730.1
325.87872	11531.7
330.08145	11395.4
334.28114	11393.7
338.47781	11436
342.67145	11585.8
346.86207	11769.9
351.04966	12018.8
355.23424	12240
359.4158	12479.4
363.59435	12631.6
367.76989	12786
371.94243	12852.7
376.11196	12909.5
380.27849	12977.5
384.44203	13062.6
388.60257	13137.5
392.76012	13274.2
396.91468	13411.9
401.06626	13643.1
405.21485	13769.4
409.36047	13741.4
413.50311	13612.8
417.64277	13502.2
421.77947	13526.4
425.9132	13512.7
430.04396	13598.1
434.17176	13654
438.2966	13719.2
442.41849	13929.9
446.53742	14306.3
450.6534	14702.5
454.76644	15014.9
458.87653	15049
462.98368	14984.5
467.08789	14794.8
471.18916	14539.5
475.2875	14275
479.38291	14153.8
483.4754	13994.9
487.56496	13870.7
491.6516	13745.1
495.73531	13675.8
499.81612	13647.6
503.89401	13740.5
507.96899	13799.6
512.04106	13722.1
516.11023	13658.5
520.1765	13601.2
524.23987	13515
528.30034	13474.3
532.35792	13370.6
536.41261	13244.9
540.46441	13079.1
544.51333	13017.4
548.55936	13151.4
552.60252	13361.2
556.64279	13638.1
560.6802	13829.2
564.71473	13889.8
568.7464	14017.8
572.7752	14260
576.80114	14520.8
580.82422	14821.3
584.84444	15245.3
588.86181	15789.5
592.87633	16267.6
596.888	16302.3
600.89682	15858.3
604.9028	15902.1
608.90594	17027.6
612.90624	18345.8
616.90371	17515.6
620.89834	15075.2
624.89015	13947
628.87913	13770.9
632.86528	13771
636.84862	13647.8
640.82913	13438.4
644.80683	13155.8
648.78172	12984.1
652.75379	12976.6
656.72306	13132.3
660.68952	13331.8
664.65319	13285.6
668.61405	13053.9
672.57211	13015.2
676.52738	13055.1
680.47986	13062.6
684.42955	12985.3
688.37646	12936.2
692.32058	13029.8
696.26192	13195.4
700.20048	13400
704.13626	13508.9
708.06928	13408
711.99952	13312.9
715.927	13308.6
719.85171	13395.5
723.77365	13354.7
727.69284	13205.9
731.60928	13050.4
735.52295	12978.9
739.43388	13016.7
743.34206	13041
747.24749	13111.7
751.15017	13200.3
755.05012	13395.1
758.94733	13689.2
762.8418	14246.9
766.73354	15070.1
770.62254	15900.2
774.50882	16140.4
778.39237	15610.1
782.27321	14755.5
786.15132	13984.8
790.02671	13539.5
793.89938	13288.5
797.76935	13225.4
801.6366	13191.5
805.50115	13117.2
809.36299	13087.2
813.22213	12955.1
817.07857	12904
820.93231	12903.2
824.78336	12877.5
828.63172	12874.2
832.47738	12883.3
836.32036	12946.8
840.16066	13062.6
843.99827	13135.7
847.8332	13086.3
851.66546	12991.3
855.49504	12935.3
859.32195	12897.7
863.1462	12929.5
866.96777	12854
870.78668	12819.2
874.60293	12833.1
878.41652	12819.5
882.22745	12858
886.03573	12950.1
889.84136	12941.5
893.64433	12873.7
897.44466	12804.3
901.24235	12774.5
905.0374	12704.2
908.8298	12679.4
912.61957	12716.8
916.40671	12836.6
920.19121	13016.2
923.97308	13175.3
927.75233	13292.9
931.52895	13249.6
935.30295	13150.3
939.07433	12958.1
942.84309	12795.8
946.60924	12698.2
950.37278	12701.6
954.13371	12651.1
957.89203	12551
961.64774	12517.1
965.40086	12518.7
969.15137	12496
972.89929	12500.1
976.64461	12489
980.38733	12508.5
984.12747	12599.2
987.86502	12715.6
991.59999	12908.9
995.33237	13181.9
999.06217	13603.5
1002.78939	14060.6
1006.51404	14285.1
1010.23611	14391.7
1013.95561	14445.8
1017.67255	14400.6
1021.38692	14313
1025.09872	14186.5
1028.80796	14360.9
1032.51465	14943.7
1036.21877	15584.1
1039.92035	15741.7
1043.61937	15476
1047.31584	15011
1051.00976	14435.5
1054.70114	14102.3
1058.38998	13962.6
1062.07627	13919.7
1065.76003	13943.8
1069.44126	14014
1073.11995	14161.1
1076.79611	14326.9
1080.46974	14425.2
1084.14085	14566.1
1087.80943	14668.1
1091.47549	14726.8
1095.13903	14694.8
1098.80005	14518.4
1102.45857	14265.9
1106.11456	14105.4
1109.76805	14049.3
1113.41903	14027.5
1117.06751	14089.8
1120.71348	14162
1124.35696	14285.2
1127.99793	14413.9
1131.63641	14518.3
1135.2724	14424.8
1138.90589	14345.6
1142.5369	14308.5
1146.16542	14328.8
1149.79145	14366.2
1153.415	14392.5
1157.03607	14545.5
1160.65467	14878.7
1164.27079	15453.4
1167.88443	16179.2
1171.49561	16961
1175.10432	17974.7
1178.71056	19286.5
1182.31434	20586.5
1185.91565	21265.6
1189.51451	21185.3
1193.11091	20600
1196.70485	19834.5
1200.29634	19167.4
1203.88538	18687.7
1207.47197	18372.6
1211.05612	18044.2
1214.63782	17677.3
1218.21708	17365.5
1221.79391	17146.4
1225.36829	16979.3
1228.94024	16770.9
1232.50976	16456.2
1236.07685	16204.5
1239.6415	16098.6
1243.20374	16127.8
1246.76355	16306.2
1250.32093	16539.3
1253.8759	16932
1257.42845	17368.7
1260.97859	17846.3
1264.52631	18284.7
1268.07163	18813.1
1271.61453	19370.2
1275.15503	19979.9
1278.69312	20565.9
1282.22882	20988.8
1285.76211	21411.1
1289.29301	21905.6
1292.82151	22608.1
1296.34761	23633.2
1299.87133	25029.7
1303.39266	26677.4
1306.9116	28248.4
1310.42815	29494.5
1313.94233	29841
1317.45412	29302
1320.96354	28376.6
1324.47058	27454.9
1327.97525	26734.4
1331.47754	26252.7
1334.97747	25920.7
1338.47502	25633
1341.97022	25236.4
1345.46305	24866.1
1348.95352	24688.5
1352.44163	24961.9
1355.92738	25853
1359.41078	27396.5
1362.89183	28498
1366.37053	28167.3
1369.84688	25979
1373.32088	23286.5
1376.79254	21290.4
1380.26186	20539.1
1383.72883	20419.6
1387.19347	20372.9
1390.65578	20054
1394.11575	19863.4
1397.57339	19919.6
1401.0287	20183.6
1404.48168	20381.5
1407.93234	20480.4
1411.38068	20283.4
1414.82669	19878.5
1418.27039	19354.8
1421.71177	18751
1425.15083	18197.3
1428.58758	17981.2
1432.02203	18096.7
1435.45416	18486
1438.88399	18999.5
1442.31151	19368.4
1445.73673	19530.4
1449.15965	19597.7
1452.58027	19539.9
1455.9986	19432.2
1459.41463	19408.5
1462.82837	19570.7
1466.23982	19968.4
1469.64898	20354.9
1473.05586	20698.5
1476.46045	20852.4
1479.86276	20871.8
1483.26279	20713.4
1486.66054	20623.6
1490.05602	20684.6
1493.44922	20875.9
1496.84016	21062.3
1500.22882	21294
1503.61521	21721.1
1506.99934	22329.6
1510.38121	22865.6
1513.76081	23084.7
1517.13816	22650.3
1520.51324	21908.5
1523.88607	21221.6
1527.25665	20848
1530.62498	20706.1
1533.99105	20640.3
1537.35488	20444.4
1540.71647	20158.6
1544.07581	19798.3
1547.4329	19406.6
1550.78776	19127.6
1554.14038	18900.3
1557.49077	18754.8
1560.83892	18631.7
1564.18484	18525.8
1567.52853	18560.2
1570.86999	18695.6
1574.20922	18906.1
1577.54624	19133.4
1580.88103	19241.6
1584.2136	19419.2
1587.54395	20062.1
1590.87208	21110.4
1594.19801	22414.6
1597.52172	23613.8
1600.84321	24007.6
1604.16251	23021.3
1607.47959	21238.6
1610.79447	19395.2
1614.10715	17764.5
1617.41763	16581
1620.7259	15816.1
1624.03199	15521.1
1627.33587	15581
1630.63757	16023.6
1633.93707	16853.3
1637.23439	18106.1
1640.52951	19982.7
1643.82246	22105
1647.11321	23848.8
1650.40179	24134.7
1653.68819	22557.9
1656.97241	19818.1
1660.25446	17232.6
1663.53433	15409.6
1666.81203	14272.7
1670.08756	13590.7
1673.36092	13190.7
1676.63211	12897.3
1679.90115	12687.9
1683.16801	12541.6
1686.43272	12429.4
1689.69527	12329.5
1692.95567	12256.2
1696.2139	12219.1
1699.46999	12130.6
1702.72392	12097.8
1705.97571	12108.1
1709.22535	12134.8
1712.47284	12165.5
1715.71819	12175.5
1718.96139	12128.6
1722.20246	12097.9
1725.44139	12078
1728.67818	12031.2
1731.91284	11964
1735.14537	11951.8
1738.37576	11881
1741.60403	11828.7
1744.83017	11771.2
1748.05418	11758.3
1751.27607	11718.4
1754.49584	11681.4
1757.71349	11687.8
1760.92903	11670.3
1764.14244	11612.4
1767.35375	11656.1
1770.56294	11641.9
1773.77002	11647.5
1776.97499	11653.8
1780.17785	11651.8
1783.37861	11647.8
1786.57727	11647.9
1789.77382	11631.1
1792.96828	11614.7
1796.16064	11616.3
1799.3509	11594.4
1802.53907	11596.2
1805.72514	11548.6
1808.90913	11521.2
1812.09102	11524.7
1815.27083	11535.4
1818.44856	11505.8
1821.6242	11463.5
1824.79776	11465.8
1827.96924	11459.7
1831.13864	11455.1
1834.30597	11453.1
1837.47122	11456
1840.6344	11438.8
1843.7955	11455.3
1846.95454	11472.5
1850.11151	11446.4
1853.26642	11423.9
1856.41926	11435.8
1859.57004	11477.9
1862.71876	11450.9
1865.86542	11453.4
1869.01003	11432
1872.15258	11425.8
1875.29308	11413.3
1878.43152	11403.8
1881.56792	11410.8
1884.70227	11380.4
1887.83457	11370.2
1890.96482	11382.3
1894.09304	11354
1897.21921	11338.8
1900.34335	11335.4
1903.46544	11326.6
1906.58551	11314.9
1909.70353	11315
1912.81953	11305.5
1915.93349	11293.4
1919.04543	11266.8
1922.15534	11248.9
1925.26322	11247.2
1928.36908	11223.5
1931.47292	11229.3
1934.57473	11172.6
1937.67453	11168
1940.77232	11146
1943.86808	11123.2
1946.96184	11071.6
1950.05358	11047.5
1953.14331	11012.9
1956.23103	10983.8
1959.31675	10972.9
1962.40046	10960
1965.48217	10921.8
1968.56188	10893.8
1971.63959	10881.4
1974.7153	10856.3
1977.78901	10825.9
1980.86073	10784.3
1983.93046	10752.3
1986.99819	10726.8
1990.06394	10710.6
1993.1277	10677.7
1996.18947	10626.8
1999.24925	10612.2
2002.30706	10577
2005.36288	10596.2
2008.41672	10552
2011.46859	10524.1
2014.51848	10500.4
2017.56639	10477.9
2020.61233	10490.2
2023.6563	10436.7
2026.6983	10437.8
2029.73833	10424.9
2032.7764	10421.4
2035.8125	10389.8
2038.84664	10380.1
2041.87881	10378.1
2044.90903	10368.3
2047.93729	10324
2050.96359	10334.5
2053.98794	10310.8
2057.01034	10312.6
2060.03078	10309.9
2063.04927	10341.5
2066.06582	10323.7
2069.08042	10315.7
2072.09307	10276.7
2075.10378	10291.9
2078.11255	10279.5
2081.11938	10256.1
2084.12426	10285.9
2087.12722	10276
2090.12824	10274.8
2093.12732	10292.7
2096.12447	10289.8
2099.11969	10304.1
2102.11299	10295.2
2105.10435	10281.6
2108.09379	10301
2111.08131	10309.2
2114.0669	10311.5
2117.05057	10340.8
2120.03233	10338.5
2123.01216	10341
2125.99008	10372.8
2128.96609	10398.5
2131.94018	10401.3
2134.91236	10402.8
2137.88263	10429.3
2140.851	10434.5
2143.81746	10463.1
2146.78201	10460.1
2149.74466	10481.7
2152.7054	10465.4
2155.66425	10459.3
2158.6212	10464.2
2161.57625	10457.6
2164.52941	10450.3
2167.48067	10474.3
2170.43004	10461.7
2173.37752	10475.4
2176.32311	10489.6
2179.26681	10461.8
2182.20863	10484.5
2185.14856	10477.3
2188.08661	10506.2
2191.02278	10528.2
2193.95707	10498.8
2196.88948	10502.1
2199.82001	10511.2
2202.74867	10514
2205.67545	10519.1
2208.60037	10512.4
2211.52341	10505.5
2214.44458	10490.6
2217.36388	10474.8
2220.28132	10449.3
2223.1969	10450
2226.11061	10427.3
2229.02246	10409.7
2231.93245	10395.4
2234.84058	10383
2237.74686	10379
2240.65128	10367.4
2243.55385	10354.3
2246.45456	10338
2249.35343	10330.2
2252.25044	10299.7
2255.14561	10299
2258.03893	10312.1
2260.93041	10275.9
2263.82004	10248.5
2266.70783	10243.6
2269.59378	10214.2
2272.4779	10212.4
2275.36017	10187.4
2278.24061	10188.8
2281.11922	10173.6
2283.996	10201.7
2286.87094	10177.8
2289.74405	10153.3
2292.61534	10123.6
2295.4848	10145.9
2298.35243	10191.1
2301.21824	10178.8
2304.08223	10206.9
2306.94439	10207.8
2309.80474	10209.1
2312.66327	10219.3
2315.51999	10195.8
2318.37489	10200.7
2321.22797	10195
2324.07925	10184.8
2326.92871	10187.5
2329.77637	10160.7
2332.62222	10164.8
2335.46626	10144.1
2338.3085	10120.9
2341.14893	10140.1
2343.98756	10163.9
2346.8244	10151.6
2349.65943	10134.9
2352.49267	10149.7
2355.32411	10150
2358.15376	10130
2360.98161	10127.1
2363.80768	10129.1
2366.63195	10113.7
2369.45444	10099.7
2372.27514	10067.6
2375.09405	10074.8
2377.91118	10066.1
2380.72652	10033.3
2383.54009	10037.3
2386.35187	10006.7
2389.16188	9996.5
2391.97011	9982.8
2394.77657	9978.4
2397.58125	9966.9
2400.38416	9956.9
2403.18529	9949.8
2405.98466	9937
2408.78226	9926.9
2411.57809	9889.8
2414.37216	9883.5
2417.16446	9898.4
2419.955	9880.6
2422.74378	9893.8
2425.5308	9887.2
2428.31606	9873.9
2431.09956	9866.7
2433.88131	9862.6
2436.6613	9874.5
2439.43954	9866.2
2442.21603	9892.3
2444.99077	9864.7
2447.76377	9873.3
2450.53501	9853.6
2453.30451	9842.8
2456.07226	9874.2
2458.83827	9846.9
2461.60254	9870.5
2464.36507	9882.2
2467.12586	9869.6
2469.88492	9846.3
2472.64224	9882.4
2475.39782	9875.9
2478.15167	9888
2480.90379	9879.6
2483.65417	9899.1
2486.40283	9906.2
2489.14976	9912.3
2491.89497	9911.8
2494.63845	9912.2
2497.3802	9922.8
2500.12024	9933.6
2502.85855	9919.9
2505.59514	9903.7
2508.33002	9913.9
2511.06318	9895.5
2513.79462	9902.7
2516.52435	9868.5
2519.25237	9878.6
2521.97867	9876.4
2524.70327	9870.4
2527.42616	9881
2530.14734	9866.4
2532.86681	9875.2
2535.58458	9815.3
2538.30065	9856.1
2541.01501	9832.2
2543.72768	9836
2546.43864	9822.4
2549.14791	9837.4
2551.85548	9812.4
2554.56136	9804.7
2557.26554	9789.8
2559.96803	9816.7
2562.66883	9807.9
2565.36794	9827.5
2568.06536	9782.4
2570.7611	9791.3
2573.45514	9803.9
2576.14751	9789.4
2578.83819	9793.9
2581.52719	9776.4
2584.21451	9759.8
2586.90015	9789.5
2589.58411	9764.8
2592.2664	9805.6
2594.94701	9744.6
2597.62594	9761.4
2600.30321	9739
2602.9788	9738.9
2605.65273	9753.4
2608.32498	9751.8
2610.99557	9753.8
2613.66449	9747.3
2616.33175	9744.2
2618.99734	9738.2
2621.66128	9762.7
2624.32355	9732
2626.98416	9757.3
2629.64311	9738.7
2632.30041	9744.5
2634.95605	9723.5
2637.61004	9708.8
2640.26238	9691.2
2642.91306	9695.8
2645.56209	9696.6
2648.20948	9682
2650.85521	9681.5
2653.4993	9663.9
2656.14175	9686.5
2658.78255	9702.1
2661.42171	9721.1
2664.05923	9734.3
2666.6951	9721
2669.32934	9730
2671.96194	9734.7
2674.59291	9737.4
2677.22224	9722
2679.84993	9724.5
2682.476	9724.8
2685.10043	9719.5
2687.72324	9701.3
2690.34441	9690
2692.96396	9722.6
2695.58188	9706.6
2698.19818	9684.6
2700.81285	9731.4
2703.4259	9690.9
2706.03733	9690.4
2708.64714	9682.1
2711.25533	9718.4
2713.86191	9743.5
2716.46687	9752.4
2719.07021	9771.1
2721.67194	9781.1
2724.27206	9782.4
2726.87057	9802.5
2729.46747	9794.8
2732.06276	9805.3
2734.65644	9796.5
2737.24852	9780.4
2739.83899	9786.7
2742.42786	9819.5
2745.01513	9795.6
2747.60079	9786.3
2750.18486	9775
2752.76733	9778.8
2755.3482	9783.7
2757.92747	9782.9
2760.50515	9767.3
2763.08123	9760.5
2765.65573	9768.1
2768.22863	9775.7
2770.79994	9760.7
2773.36967	9766.4
2775.9378	9774
2778.50435	9788
2781.06932	9751.2
2783.6327	9751.3
2786.1945	9740.9
2788.75471	9741.7
2791.31335	9742.3
2793.87041	9721.8
2796.42589	9710.6
2798.97979	9707.5
2801.53212	9699.1
2804.08288	9695.6
2806.63206	9672.2
2809.17967	9657.7
2811.72571	9630.4
2814.27018	9633.1
2816.81308	9617.2
2819.35442	9630.9
2821.89419	9615.5
2824.43239	9618.7
2826.96904	9590.5
2829.50412	9631.2
2832.03763	9612.1
2834.56959	9618.1
2837.1	9570.7
2839.62884	9577.4
2842.15613	9606
2844.68186	9601.2
2847.20604	9594.4
2849.72867	9614.3
2852.24974	9610.8
2854.76927	9598.8
2857.28724	9616.3
2859.80367	9596.7
2862.31855	9588.2
2864.83189	9587.4
2867.34368	9574.7
2869.85393	9566.7
2872.36264	9580.5
2874.8698	9581.8
2877.37543	9566.6
2879.87952	9576.8
2882.38207	9573.6
2884.88308	9562.8
2887.38256	9601.3
2889.88051	9596.2
2892.37692	9614.9
2894.8718	9588.5
2897.36515	9594.6
2899.85698	9620
2902.34727	9653.7
2904.83604	9641.4
2907.32328	9671.4
2909.809	9659.4
2912.29319	9665.4
2914.77587	9665.6
2917.25702	9652.3
2919.73665	9647.1
2922.21476	9676.3
2924.69136	9665.8
2927.16644	9674.2
2929.64	9649.2
2932.11205	9666.9
2934.58258	9630.5
2937.05161	9642.4
2939.51912	9641.1
2941.98513	9626.4
2944.44962	9608.3
2946.91261	9578.8
2949.37409	9621
2951.83407	9604.2
2954.29254	9587.4
2956.74951	9577.5
2959.20498	9590.6
2961.65895	9563.5
2964.11142	9581.9
2966.56239	9561.9
2969.01186	9549.3
2971.45984	9554.2
2973.90632	9547
2976.35131	9528.5
2978.7948	9524.5
2981.23681	9490.5
2983.67732	9507
2986.11635	9462
2988.55388	9443.7
2990.98993	9450.7
2993.4245	9426.8
2995.85758	9418.9
2998.28917	9417.8
3000.71928	9397.9
3003.14791	9377.6
3005.57506	9377.2
3008.00073	9359
3010.42493	9383.9
3012.84764	9363.6
3015.26888	9348.9
3017.68865	9344.7
3020.10694	9320.9
3022.52376	9325.4
3024.9391	9297.5
3027.35298	9305.2
3029.76539	9291.1
3032.17632	9297.7
3034.5858	9294.2
3036.9938	9288.3
3039.40034	9301.4
3041.80542	9280
3044.20903	9288.9
3046.61118	9257.4
3049.01187	9270.5
3051.4111	9276.2
3053.80888	9238.7
3056.20519	9247.7
3058.60005	9207.9
3060.99345	9207.1
3063.3854	9164.3
3065.7759	9145
3068.16494	9179.1
3070.55254	9158.6
3072.93868	9137.8
3075.32338	9103.4
3077.70662	9105.2
3080.08842	9078.2
3082.46878	9094.1
3084.84769	9076
3087.22515	9086.6
3089.60118	9088.8
3091.97576	9076.8
3094.3489	9085.2
3096.72061	9099
3099.09087	9084.7
3101.4597	9082.7
3103.82709	9096.3
3106.19305	9094.5
3108.55757	9111
3110.92066	9056.5
3113.28232	9063.6
3115.64255	9047.3
3118.00134	9057.3
3120.35871	9034.6
3122.71466	9035.9
3125.06917	9028.7
3127.42226	8999.7
3129.77393	8994.6
3132.12417	8983.9
3134.47299	9002.9
3136.82039	9006.1
3139.16636	9028.3
3141.51092	9025.3
3143.85406	9014.6
3146.19579	9026.3
3148.53609	9049.8
3150.87499	9054.9
3153.21246	9053.7
3155.54853	9056.3
3157.88318	9077.5
3160.21642	9073.1
3162.54826	9067.6
3164.87868	9061.8
3167.2077	9059.5
3169.5353	9077.3
3171.86151	9093.7
3174.18631	9067.8
3176.5097	9072.8
3178.83169	9056.8
3181.15228	9055.1
3183.47147	9058
3185.78926	9070.2
3188.10565	9029.8
3190.42065	9045.8
3192.73424	9045.4
3195.04645	9029.2
3197.35725	9031.8
3199.66667	9042
3201.97469	9055.6
3204.28132	9029.2
3206.58656	9058.5
3208.8904	9082.8
3211.19287	9087.8
3213.49394	9092.7
3215.79363	9100.3
3218.09193	9087.4
3220.38884	9083.1
3222.68438	9111.7
3224.97853	9089.5
3227.2713	9111
3229.56269	9070.1
3231.8527	9082.6
3234.14133	9068.1
3236.42858	9044.3
3238.71446	9067.2
3240.99896	9063
3243.28209	9038.5
3245.56384	9035.7
3247.84423	9033.9
3250.12324	9007.2
3252.40088	9009
3254.67715	8994.6
3256.95205	9007.5
3259.22558	9030.6
3261.49775	9024.1
3263.76855	9001.1
3266.03799	8996.6
3268.30606	8983.1
3270.57277	8973.4
3272.83812	8960
3275.10211	8929.7
3277.36474	8909.7
3279.62601	8945.7
3281.88593	8905
3284.14448	8942.7
3286.40168	8913.7
3288.65753	8946.7
3290.91202	8941.1
3293.16516	8898.9
3295.41695	8880.3
3297.66738	8819.2
3299.91647	8797.6
3302.16421	8726.2
3304.4106	8729.6
3306.65564	8681.6
3308.89933	8644.9
3311.14169	8559.9
3313.38269	8529.3
3315.62236	8437
3317.86068	8389.5
3320.09766	8318.7
3322.3333	8303.3
3324.5676	8265.4
3326.80056	8146.5
3329.03219	8104.1
3331.26248	3.2
3333.49143	-0.5
3335.71905	-0.8
