Data from AgNPs_FTO_APTES_UA_1uM_CRN_1uM_R6G_10uM_NaF_0.1M_Addition_RamanShift__29__12-45-59-517.txt Node

Date: Thu Jan 27 12:45:59 GMT 2022
User: TCL
Spectrometer: QEP01345
Trigger mode: 4
Integration Time (sec): 7.000000E0
Scans to average: 10
Electric dark correction enabled: true
Nonlinearity correction enabled: false
Boxcar width: 0
XAxis mode: Raman Shifts
Number of Pixels in Spectrum: 1044
>>>>>Begin Spectral Data<<<<<
46.04893	1.125
50.45542	0.525
54.85868	-1.075
59.25871	-1.575
63.6555	35.625
68.04907	41.125
72.43941	45.625
76.82654	47.125
81.21044	48.325
85.59113	47.425
89.96862	50.325
94.34289	51.925
98.71396	53.625
103.08183	56.325
107.4465	59.525
111.80798	59.325
116.16626	57.025
120.52136	65.425
124.87327	62.825
129.222	57.225
133.56755	64.925
137.90993	67.225
142.24913	69.125
146.58517	71.025
150.91804	83.125
155.24774	91.825
159.57429	108.725
163.89768	134.325
168.21792	170.025
172.53501	222.325
176.84895	301.425
181.15975	416.025
185.46741	570.025
189.77193	779.425
194.07331	1044.325
198.37157	1345.725
202.6667	1660.325
206.9587	1970.925
211.24758	2281.125
215.53334	2599.925
219.81599	2951.425
224.09553	3333.325
228.37195	3779.725
232.64527	4247.725
236.91549	4727.725
241.18261	5170.425
245.44663	5562.725
249.70755	5899.725
253.96539	6204.725
258.22014	6463.625
262.4718	6693.225
266.72039	6895.925
270.96589	6997.925
275.20832	7006.025
279.44768	6967.925
283.68397	6880.925
287.91719	6827.625
292.14735	6832.425
296.37445	6891.625
300.59849	7003.425
304.81948	7205.125
309.03742	7345.125
313.25231	7310.325
317.46415	7066.025
321.67296	6658.625
325.87872	6339.625
330.08145	6179.725
334.28114	6190.525
338.47781	6281.525
342.67145	6421.225
346.86207	6645.925
351.04966	6968.025
355.23424	7332.325
359.4158	7633.625
363.59435	7788.625
367.76989	7816.125
371.94243	7823.925
376.11196	7786.025
380.27849	7789.525
384.44203	7738.725
388.60257	7693.825
392.76012	7674.025
396.91468	7778.725
401.06626	7998.625
405.21485	8157.825
409.36047	8117.425
413.50311	7849.025
417.64277	7593.625
421.77947	7462.125
425.9132	7397.225
430.04396	7399.225
434.17176	7440.925
438.2966	7573.525
442.41849	7770.325
446.53742	8015.325
450.6534	8298.725
454.76644	8458.025
458.87653	8484.425
462.98368	8390.625
467.08789	8258.825
471.18916	8059.225
475.2875	7864.725
479.38291	7735.525
483.4754	7653.125
487.56496	7578.025
491.6516	7506.725
495.73531	7460.625
499.81612	7449.225
503.89401	7513.825
507.96899	7572.625
512.04106	7609.625
516.11023	7698.325
520.1765	7739.225
524.23987	7719.525
528.30034	7624.525
532.35792	7504.425
536.41261	7376.825
540.46441	7246.625
544.51333	7202.925
548.55936	7256.225
552.60252	7402.325
556.64279	7519.425
560.6802	7600.125
564.71473	7653.225
568.7464	7856.025
572.7752	8072.825
576.80114	8019.125
580.82422	7929.525
584.84444	7934.625
588.86181	7958.925
592.87633	8023.225
596.888	8137.625
600.89682	8337.525
604.9028	8955.425
608.90594	10525.625
612.90624	12583.425
616.90371	12230.225
620.89834	9428.925
624.89015	8027.125
628.87913	7737.325
632.86528	7722.725
636.84862	7734.125
640.82913	7647.925
644.80683	7421.625
648.78172	7272.725
652.75379	7293.125
656.72306	7551.725
660.68952	7836.025
664.65319	7828.525
668.61405	7546.025
672.57211	7416.625
676.52738	7400.025
680.47986	7404.225
684.42955	7353.325
688.37646	7337.925
692.32058	7371.925
696.26192	7438.925
700.20048	7520.525
704.13626	7566.625
708.06928	7561.725
711.99952	7485.925
715.927	7446.025
719.85171	7468.625
723.77365	7427.525
727.69284	7351.825
731.60928	7298.125
735.52295	7310.325
739.43388	7348.825
743.34206	7409.325
747.24749	7447.925
751.15017	7530.925
755.05012	7671.425
758.94733	7914.325
762.8418	8454.825
766.73354	9360.625
770.62254	10319.825
774.50882	10841.225
778.39237	10464.925
782.27321	9484.625
786.15132	8474.225
790.02671	7878.825
793.89938	7610.425
797.76935	7521.425
801.6366	7434.925
805.50115	7395.525
809.36299	7370.225
813.22213	7328.325
817.07857	7333.425
820.93231	7316.925
824.78336	7359.825
828.63172	7397.325
832.47738	7410.625
836.32036	7437.625
840.16066	7398.325
843.99827	7390.225
847.8332	7359.325
851.66546	7349.225
855.49504	7332.925
859.32195	7321.225
863.1462	7307.325
866.96777	7258.125
870.78668	7292.625
874.60293	7288.225
878.41652	7316.425
882.22745	7340.625
886.03573	7386.725
889.84136	7359.825
893.64433	7335.825
897.44466	7328.825
901.24235	7303.125
905.0374	7303.825
908.8298	7282.925
912.61957	7301.625
916.40671	7310.025
920.19121	7381.525
923.97308	7475.025
927.75233	7511.625
931.52895	7554.425
935.30295	7508.625
939.07433	7342.125
942.84309	7220.025
946.60924	7127.425
950.37278	7096.925
954.13371	7067.525
957.89203	7026.125
961.64774	7028.925
965.40086	7018.725
969.15137	6978.325
972.89929	6962.925
976.64461	6956.025
980.38733	6950.825
984.12747	6967.925
987.86502	7020.725
991.59999	7074.225
995.33237	7158.325
999.06217	7337.325
1002.78939	7554.525
1006.51404	7734.825
1010.23611	7886.825
1013.95561	7978.425
1017.67255	7995.525
1021.38692	7896.625
1025.09872	7757.225
1028.80796	7701.525
1032.51465	7762.525
1036.21877	7835.725
1039.92035	7918.825
1043.61937	7895.125
1047.31584	7785.625
1051.00976	7676.825
1054.70114	7633.125
1058.38998	7616.225
1062.07627	7643.125
1065.76003	7707.625
1069.44126	7733.725
1073.11995	7829.025
1076.79611	7886.425
1080.46974	7946.125
1084.14085	8044.625
1087.80943	8160.925
1091.47549	8216.925
1095.13903	8128.225
1098.80005	7892.725
1102.45857	7712.725
1106.11456	7601.825
1109.76805	7594.325
1113.41903	7689.025
1117.06751	7833.425
1120.71348	8030.125
1124.35696	8262.425
1127.99793	8473.825
1131.63641	8490.825
1135.2724	8270.925
1138.90589	8014.425
1142.5369	7859.325
1146.16542	7776.825
1149.79145	7724.125
1153.415	7720.725
1157.03607	7789.925
1160.65467	7931.225
1164.27079	8120.525
1167.88443	8424.025
1171.49561	8921.725
1175.10432	9729.725
1178.71056	10804.225
1182.31434	11685.925
1185.91565	12068.225
1189.51451	12066.425
1193.11091	11584.625
1196.70485	10813.325
1200.29634	10141.925
1203.88538	9646.725
1207.47197	9128.725
1211.05612	8750.925
1214.63782	8580.025
1218.21708	8552.625
1221.79391	8616.425
1225.36829	8756.925
1228.94024	8884.125
1232.50976	8981.325
1236.07685	9046.325
1239.6415	9015.125
1243.20374	8959.025
1246.76355	8939.225
1250.32093	8963.625
1253.8759	9139.225
1257.42845	9357.825
1260.97859	9593.225
1264.52631	9838.025
1268.07163	10049.025
1271.61453	10283.625
1275.15503	10472.625
1278.69312	10608.325
1282.22882	10764.525
1285.76211	10999.125
1289.29301	11266.025
1292.82151	11583.325
1296.34761	11830.025
1299.87133	12206.625
1303.39266	12766.725
1306.9116	13730.125
1310.42815	14894.125
1313.94233	15778.225
1317.45412	15811.525
1320.96354	15298.925
1324.47058	14585.325
1327.97525	13995.525
1331.47754	13638.525
1334.97747	13495.425
1338.47502	13516.725
1341.97022	13595.325
1345.46305	13725.225
1348.95352	13979.125
1352.44163	14407.325
1355.92738	15124.525
1359.41078	16368.925
1362.89183	17635.725
1366.37053	17422.825
1369.84688	15571.525
1373.32088	13536.925
1376.79254	12170.425
1380.26186	11502.525
1383.72883	11193.825
1387.19347	10948.925
1390.65578	10652.525
1394.11575	10373.025
1397.57339	10285.225
1401.0287	10366.825
1404.48168	10615.425
1407.93234	10896.825
1411.38068	11075.125
1414.82669	11100.925
1418.27039	10865.725
1421.71177	10542.625
1425.15083	10353.625
1428.58758	10251.525
1432.02203	10291.425
1435.45416	10353.125
1438.88399	10376.025
1442.31151	10370.025
1445.73673	10381.025
1449.15965	10390.825
1452.58027	10325.025
1455.9986	10240.325
1459.41463	10188.025
1462.82837	10258.825
1466.23982	10377.125
1469.64898	10523.525
1473.05586	10631.125
1476.46045	10737.225
1479.86276	10845.625
1483.26279	10991.925
1486.66054	11200.125
1490.05602	11442.925
1493.44922	11800.225
1496.84016	12221.725
1500.22882	12835.025
1503.61521	13613.925
1506.99934	14524.825
1510.38121	15433.725
1513.76081	15965.825
1517.13816	15526.425
1520.51324	14285.525
1523.88607	12991.225
1527.25665	12058.925
1530.62498	11534.025
1533.99105	11196.625
1537.35488	10967.925
1540.71647	10849.625
1544.07581	10794.625
1547.4329	10705.725
1550.78776	10584.725
1554.14038	10516.925
1557.49077	10485.325
1560.83892	10576.025
1564.18484	10664.625
1567.52853	10787.625
1570.86999	10881.925
1574.20922	10982.225
1577.54624	10922.325
1580.88103	10663.525
1584.2136	10340.925
1587.54395	10263.025
1590.87208	10579.625
1594.19801	11226.825
1597.52172	11977.825
1600.84321	12410.825
1604.16251	12197.325
1607.47959	11489.225
1610.79447	10572.425
1614.10715	9701.925
1617.41763	9075.525
1620.7259	8716.025
1624.03199	8524.425
1627.33587	8531.925
1630.63757	8748.625
1633.93707	9162.125
1637.23439	9772.625
1640.52951	10574.325
1643.82246	11442.325
1647.11321	12211.725
1650.40179	12514.425
1653.68819	12099.625
1656.97241	10774.825
1660.25446	9371.025
1663.53433	8378.625
1666.81203	7773.025
1670.08756	7399.625
1673.36092	7211.925
1676.63211	7074.025
1679.90115	6985.025
1683.16801	6895.725
1686.43272	6838.325
1689.69527	6808.425
1692.95567	6753.725
1696.2139	6708.325
1699.46999	6676.725
1702.72392	6632.225
1705.97571	6645.525
1709.22535	6690.125
1712.47284	6715.925
1715.71819	6761.625
1718.96139	6735.925
1722.20246	6727.925
1725.44139	6714.225
1728.67818	6701.125
1731.91284	6653.725
1735.14537	6598.225
1738.37576	6551.025
1741.60403	6566.325
1744.83017	6491.225
1748.05418	6510.625
1751.27607	6461.225
1754.49584	6440.425
1757.71349	6438.925
1760.92903	6414.225
1764.14244	6407.425
1767.35375	6395.225
1770.56294	6394.525
1773.77002	6388.025
1776.97499	6391.325
1780.17785	6393.125
1783.37861	6400.525
1786.57727	6405.425
1789.77382	6400.225
1792.96828	6390.325
1796.16064	6383.225
1799.3509	6392.625
1802.53907	6377.825
1805.72514	6361.325
1808.90913	6363.725
1812.09102	6342.925
1815.27083	6334.025
1818.44856	6327.325
1821.6242	6324.625
1824.79776	6299.925
1827.96924	6295.325
1831.13864	6302.725
1834.30597	6294.825
1837.47122	6287.625
1840.6344	6284.125
1843.7955	6277.725
1846.95454	6295.825
1850.11151	6289.725
1853.26642	6291.125
1856.41926	6303.725
1859.57004	6314.725
1862.71876	6302.525
1865.86542	6317.325
1869.01003	6316.925
1872.15258	6323.325
1875.29308	6323.825
1878.43152	6339.825
1881.56792	6337.025
1884.70227	6335.225
1887.83457	6346.325
1890.96482	6331.325
1894.09304	6327.425
1897.21921	6339.725
1900.34335	6351.825
1903.46544	6346.925
1906.58551	6358.725
1909.70353	6362.125
1912.81953	6343.425
1915.93349	6337.825
1919.04543	6330.325
1922.15534	6326.325
1925.26322	6316.625
1928.36908	6288.025
1931.47292	6258.625
1934.57473	6239.325
1937.67453	6206.725
1940.77232	6182.425
1943.86808	6141.925
1946.96184	6139.925
1950.05358	6088.225
1953.14331	6068.425
1956.23103	6050.225
1959.31675	6012.925
1962.40046	5989.125
1965.48217	5963.225
1968.56188	5956.325
1971.63959	5929.225
1974.7153	5931.525
1977.78901	5906.925
1980.86073	5869.625
1983.93046	5879.725
1986.99819	5849.225
1990.06394	5817.225
1993.1277	5802.125
1996.18947	5797.025
1999.24925	5769.725
2002.30706	5742.825
2005.36288	5721.625
2008.41672	5718.725
2011.46859	5710.125
2014.51848	5679.725
2017.56639	5671.525
2020.61233	5643.625
2023.6563	5651.225
2026.6983	5633.825
2029.73833	5616.725
2032.7764	5608.425
2035.8125	5586.925
2038.84664	5568.325
2041.87881	5577.525
2044.90903	5552.025
2047.93729	5534.325
2050.96359	5539.725
2053.98794	5505.425
2057.01034	5527.925
2060.03078	5498.025
2063.04927	5507.325
2066.06582	5506.825
2069.08042	5494.425
2072.09307	5483.225
2075.10378	5489.425
2078.11255	5485.125
2081.11938	5474.525
2084.12426	5484.225
2087.12722	5473.925
2090.12824	5475.125
2093.12732	5486.625
2096.12447	5471.225
2099.11969	5467.725
2102.11299	5463.225
2105.10435	5458.225
2108.09379	5466.025
2111.08131	5465.925
2114.0669	5469.325
2117.05057	5470.525
2120.03233	5447.325
2123.01216	5479.525
2125.99008	5495.725
2128.96609	5486.825
2131.94018	5481.625
2134.91236	5493.825
2137.88263	5488.525
2140.851	5488.225
2143.81746	5488.325
2146.78201	5486.425
2149.74466	5493.825
2152.7054	5484.125
2155.66425	5465.025
2158.6212	5484.225
2161.57625	5471.625
2164.52941	5461.425
2167.48067	5456.925
2170.43004	5455.725
2173.37752	5471.625
2176.32311	5456.625
2179.26681	5455.825
2182.20863	5459.425
2185.14856	5454.425
2188.08661	5463.525
2191.02278	5454.825
2193.95707	5439.325
2196.88948	5439.525
2199.82001	5444.725
2202.74867	5439.825
2205.67545	5440.625
2208.60037	5415.325
2211.52341	5415.325
2214.44458	5406.625
2217.36388	5379.925
2220.28132	5386.025
2223.1969	5357.425
2226.11061	5359.725
2229.02246	5344.625
2231.93245	5332.625
2234.84058	5326.625
2237.74686	5315.925
2240.65128	5311.225
2243.55385	5314.525
2246.45456	5298.325
2249.35343	5280.625
2252.25044	5283.225
2255.14561	5296.025
2258.03893	5275.825
2260.93041	5259.425
2263.82004	5247.625
2266.70783	5236.525
2269.59378	5225.825
2272.4779	5222.525
2275.36017	5198.525
2278.24061	5200.525
2281.11922	5183.125
2283.996	5180.525
2286.87094	5165.225
2289.74405	5163.525
2292.61534	5133.625
2295.4848	5148.725
2298.35243	5142.725
2301.21824	5122.925
2304.08223	5118.425
2306.94439	5117.325
2309.80474	5125.125
2312.66327	5114.625
2315.51999	5107.725
2318.37489	5108.525
2321.22797	5106.325
2324.07925	5105.225
2326.92871	5088.225
2329.77637	5084.525
2332.62222	5061.825
2335.46626	5062.025
2338.3085	5076.225
2341.14893	5057.225
2343.98756	5068.825
2346.8244	5042.325
2349.65943	5048.925
2352.49267	5058.125
2355.32411	5062.525
2358.15376	5055.025
2360.98161	5050.525
2363.80768	5064.825
2366.63195	5039.425
2369.45444	5036.025
2372.27514	5046.125
2375.09405	5025.325
2377.91118	5017.325
2380.72652	5004.525
2383.54009	4978.025
2386.35187	4982.225
2389.16188	4950.125
2391.97011	4938.525
2394.77657	4947.725
2397.58125	4924.325
2400.38416	4917.125
2403.18529	4902.725
2405.98466	4892.325
2408.78226	4888.125
2411.57809	4874.925
2414.37216	4881.425
2417.16446	4868.225
2419.955	4851.825
2422.74378	4849.625
2425.5308	4850.125
2428.31606	4846.625
2431.09956	4839.325
2433.88131	4818.525
2436.6613	4833.925
2439.43954	4826.925
2442.21603	4817.025
2444.99077	4818.225
2447.76377	4828.425
2450.53501	4824.425
2453.30451	4831.625
2456.07226	4808.625
2458.83827	4800.425
2461.60254	4808.325
2464.36507	4796.125
2467.12586	4794.025
2469.88492	4792.725
2472.64224	4809.125
2475.39782	4792.825
2478.15167	4785.925
2480.90379	4794.025
2483.65417	4794.025
2486.40283	4799.725
2489.14976	4797.825
2491.89497	4798.325
2494.63845	4790.025
2497.3802	4793.925
2500.12024	4791.425
2502.85855	4782.025
2505.59514	4780.425
2508.33002	4770.925
2511.06318	4771.025
2513.79462	4750.425
2516.52435	4747.125
2519.25237	4726.025
2521.97867	4736.325
2524.70327	4712.025
2527.42616	4695.925
2530.14734	4710.825
2532.86681	4693.025
2535.58458	4697.225
2538.30065	4685.825
2541.01501	4703.325
2543.72768	4689.525
2546.43864	4680.725
2549.14791	4666.825
2551.85548	4667.225
2554.56136	4659.625
2557.26554	4663.225
2559.96803	4656.325
2562.66883	4638.125
2565.36794	4633.725
2568.06536	4617.725
2570.7611	4617.525
2573.45514	4607.325
2576.14751	4607.925
2578.83819	4609.525
2581.52719	4604.125
2584.21451	4605.725
2586.90015	4602.325
2589.58411	4596.025
2592.2664	4576.925
2594.94701	4587.825
2597.62594	4576.125
2600.30321	4563.625
2602.9788	4569.125
2605.65273	4556.825
2608.32498	4557.125
2610.99557	4551.125
2613.66449	4548.325
2616.33175	4540.925
2618.99734	4552.225
2621.66128	4540.625
2624.32355	4519.825
2626.98416	4530.625
2629.64311	4522.325
2632.30041	4538.925
2634.95605	4524.925
2637.61004	4511.725
2640.26238	4498.825
2642.91306	4505.225
2645.56209	4502.025
2648.20948	4481.225
2650.85521	4485.625
2653.4993	4497.025
2656.14175	4483.925
2658.78255	4494.425
2661.42171	4483.925
2664.05923	4503.625
2666.6951	4502.425
2669.32934	4506.725
2671.96194	4480.225
2674.59291	4511.925
2677.22224	4504.625
2679.84993	4499.525
2682.476	4497.125
2685.10043	4509.225
2687.72324	4498.025
2690.34441	4505.925
2692.96396	4498.925
2695.58188	4509.225
2698.19818	4498.425
2700.81285	4491.325
2703.4259	4509.125
2706.03733	4489.625
2708.64714	4483.425
2711.25533	4500.825
2713.86191	4502.025
2716.46687	4501.125
2719.07021	4490.025
2721.67194	4505.225
2724.27206	4508.525
2726.87057	4520.125
2729.46747	4510.025
2732.06276	4506.425
2734.65644	4504.725
2737.24852	4494.225
2739.83899	4485.825
2742.42786	4494.125
2745.01513	4478.825
2747.60079	4490.525
2750.18486	4478.925
2752.76733	4461.625
2755.3482	4472.225
2757.92747	4465.425
2760.50515	4443.425
2763.08123	4455.025
2765.65573	4444.425
2768.22863	4445.725
2770.79994	4448.725
2773.36967	4455.125
2775.9378	4439.825
2778.50435	4442.825
2781.06932	4450.425
2783.6327	4430.125
2786.1945	4436.425
2788.75471	4428.325
2791.31335	4427.525
2793.87041	4411.125
2796.42589	4411.525
2798.97979	4410.125
2801.53212	4406.225
2804.08288	4399.625
2806.63206	4394.825
2809.17967	4382.925
2811.72571	4376.125
2814.27018	4390.825
2816.81308	4383.225
2819.35442	4385.125
2821.89419	4371.925
2824.43239	4374.025
2826.96904	4384.025
2829.50412	4383.625
2832.03763	4380.725
2834.56959	4387.825
2837.1	4396.725
2839.62884	4397.125
2842.15613	4421.625
2844.68186	4454.925
2847.20604	4499.025
2849.72867	4503.625
2852.24974	4532.425
2854.76927	4531.725
2857.28724	4492.825
2859.80367	4499.825
2862.31855	4486.525
2864.83189	4466.525
2867.34368	4457.025
2869.85393	4459.925
2872.36264	4447.025
2874.8698	4444.925
2877.37543	4418.525
2879.87952	4424.725
2882.38207	4422.325
2884.88308	4433.225
2887.38256	4424.925
2889.88051	4414.725
2892.37692	4415.225
2894.8718	4412.525
2897.36515	4435.325
2899.85698	4427.625
2902.34727	4439.225
2904.83604	4418.025
2907.32328	4434.325
2909.809	4414.425
2912.29319	4425.525
2914.77587	4411.625
2917.25702	4413.125
2919.73665	4415.725
2922.21476	4399.625
2924.69136	4398.825
2927.16644	4410.025
2929.64	4382.425
2932.11205	4376.825
2934.58258	4359.025
2937.05161	4370.925
2939.51912	4363.425
2941.98513	4340.425
2944.44962	4318.625
2946.91261	4278.925
2949.37409	4254.825
2951.83407	4244.625
2954.29254	4235.425
2956.74951	4225.825
2959.20498	4213.125
2961.65895	4216.725
2964.11142	4212.325
2966.56239	4184.125
2969.01186	4183.525
2971.45984	4163.925
2973.90632	4157.225
2976.35131	4142.825
2978.7948	4124.425
2981.23681	4116.625
2983.67732	4111.725
2986.11635	4085.225
2988.55388	4081.525
2990.98993	4072.525
2993.4245	4058.325
2995.85758	4038.925
2998.28917	4035.025
3000.71928	4012.625
3003.14791	4023.025
3005.57506	4006.525
3008.00073	3998.825
3010.42493	3982.225
3012.84764	3988.125
3015.26888	3991.125
3017.68865	3971.025
3020.10694	3967.025
3022.52376	3951.825
3024.9391	3953.725
3027.35298	3942.425
3029.76539	3953.225
3032.17632	3933.925
3034.5858	3935.125
3036.9938	3932.925
3039.40034	3919.225
3041.80542	3915.625
3044.20903	3926.925
3046.61118	3910.525
3049.01187	3907.525
3051.4111	3909.425
3053.80888	3893.025
3056.20519	3887.525
3058.60005	3869.725
3060.99345	3854.125
3063.3854	3851.625
3065.7759	3840.025
3068.16494	3828.725
3070.55254	3824.425
3072.93868	3820.425
3075.32338	3809.325
3077.70662	3810.225
3080.08842	3792.525
3082.46878	3786.925
3084.84769	3780.325
3087.22515	3775.625
3089.60118	3782.525
3091.97576	3783.625
3094.3489	3764.725
3096.72061	3770.325
3099.09087	3777.125
3101.4597	3762.025
3103.82709	3764.625
3106.19305	3776.125
3108.55757	3769.625
3110.92066	3760.325
3113.28232	3753.825
3115.64255	3739.625
3118.00134	3752.425
3120.35871	3735.325
3122.71466	3740.225
3125.06917	3737.925
3127.42226	3710.325
3129.77393	3732.425
3132.12417	3726.225
3134.47299	3726.325
3136.82039	3724.625
3139.16636	3721.525
3141.51092	3724.425
3143.85406	3739.825
3146.19579	3739.625
3148.53609	3742.525
3150.87499	3754.025
3153.21246	3743.825
3155.54853	3741.925
3157.88318	3758.925
3160.21642	3760.525
3162.54826	3754.825
3164.87868	3763.325
3167.2077	3760.425
3169.5353	3749.825
3171.86151	3749.925
3174.18631	3763.125
3176.5097	3768.225
3178.83169	3757.225
3181.15228	3754.325
3183.47147	3750.225
3185.78926	3756.625
3188.10565	3760.425
3190.42065	3754.925
3192.73424	3752.325
3195.04645	3738.925
3197.35725	3765.325
3199.66667	3758.825
3201.97469	3744.525
3204.28132	3766.125
3206.58656	3763.825
3208.8904	3766.025
3211.19287	3778.025
3213.49394	3779.725
3215.79363	3786.525
3218.09193	3790.925
3220.38884	3789.325
3222.68438	3788.825
