Data from AgNPs_FTO_APTES_UA_1uM_CRN_0uM_R6G_10uM_NaF_0.1M_Addition_RamanShift__45__11-58-09-462.txt Node

Date: Thu Jan 27 11:58:09 GMT 2022
User: TCL
Spectrometer: QEP01345
Trigger mode: 4
Integration Time (sec): 7.000000E0
Scans to average: 10
Electric dark correction enabled: true
Nonlinearity correction enabled: false
Boxcar width: 0
XAxis mode: Raman Shifts
Number of Pixels in Spectrum: 1044
>>>>>Begin Spectral Data<<<<<
46.04893	1.275
50.45542	-0.325
54.85868	-1.225
59.25871	-2.025
63.6555	54.575
68.04907	57.775
72.43941	60.175
76.82654	64.575
81.21044	64.175
85.59113	66.575
89.96862	69.075
94.34289	71.875
98.71396	75.475
103.08183	75.275
107.4465	79.075
111.80798	78.875
116.16626	79.875
120.52136	91.175
124.87327	88.775
129.222	89.175
133.56755	96.375
137.90993	101.275
142.24913	108.775
146.58517	120.775
150.91804	142.075
155.24774	166.775
159.57429	201.675
163.89768	258.275
168.21792	339.175
172.53501	455.375
176.84895	625.875
181.15975	874.775
185.46741	1222.975
189.77193	1692.175
194.07331	2272.075
198.37157	2905.975
202.6667	3594.775
206.9587	4296.175
211.24758	4959.375
215.53334	5665.475
219.81599	6388.475
224.09553	7219.975
228.37195	8164.575
232.64527	9152.275
236.91549	10189.975
241.18261	11235.575
245.44663	12123.175
249.70755	12904.075
253.96539	13598.675
258.22014	14183.575
262.4718	14716.975
266.72039	15084.175
270.96589	15298.575
275.20832	15312.675
279.44768	15181.775
283.68397	15015.275
287.91719	14864.675
292.14735	14855.875
296.37445	14892.375
300.59849	15070.375
304.81948	15330.575
309.03742	15500.775
313.25231	15423.075
317.46415	15023.175
321.67296	14372.275
325.87872	13828.675
330.08145	13564.475
334.28114	13617.975
338.47781	13738.675
342.67145	13983.975
346.86207	14333.075
351.04966	14824.475
355.23424	15387.075
359.4158	15892.875
363.59435	16177.675
367.76989	16347.075
371.94243	16404.175
376.11196	16428.775
380.27849	16470.775
384.44203	16490.775
388.60257	16473.475
392.76012	16503.375
396.91468	16708.675
401.06626	17068.475
405.21485	17340.975
409.36047	17242.175
413.50311	16847.875
417.64277	16478.775
421.77947	16325.175
425.9132	16287.575
430.04396	16360.375
434.17176	16485.475
438.2966	16684.075
442.41849	17038.475
446.53742	17607.575
450.6534	18175.775
454.76644	18656.875
458.87653	18775.275
462.98368	18625.975
467.08789	18274.275
471.18916	17836.875
475.2875	17391.675
479.38291	17151.675
483.4754	16947.775
487.56496	16755.275
491.6516	16563.275
495.73531	16338.075
499.81612	16298.875
503.89401	16376.775
507.96899	16468.575
512.04106	16540.275
516.11023	16574.075
520.1765	16590.575
524.23987	16511.275
528.30034	16367.275
532.35792	16113.875
536.41261	15875.975
540.46441	15597.375
544.51333	15523.675
548.55936	15656.175
552.60252	15959.275
556.64279	16305.575
560.6802	16487.275
564.71473	16611.175
568.7464	16972.775
572.7752	17407.375
576.80114	17474.375
580.82422	17489.775
584.84444	17668.475
588.86181	17892.275
592.87633	18353.975
596.888	18719.075
600.89682	18966.875
604.9028	19830.075
608.90594	22466.575
612.90624	25820.575
616.90371	24857.075
620.89834	19772.875
624.89015	17380.075
628.87913	16984.975
632.86528	16928.175
636.84862	16723.175
640.82913	16381.475
644.80683	15882.275
648.78172	15467.375
652.75379	15438.575
656.72306	15745.975
660.68952	16246.075
664.65319	16208.575
668.61405	15802.975
672.57211	15559.975
676.52738	15529.375
680.47986	15525.175
684.42955	15453.775
688.37646	15402.775
692.32058	15478.375
696.26192	15586.375
700.20048	15740.875
704.13626	15848.275
708.06928	15765.075
711.99952	15605.875
715.927	15556.675
719.85171	15591.075
723.77365	15549.475
727.69284	15381.175
731.60928	15225.875
735.52295	15239.175
739.43388	15287.075
743.34206	15432.875
747.24749	15488.975
751.15017	15657.475
755.05012	15887.475
758.94733	16394.775
762.8418	17345.975
766.73354	19038.775
770.62254	20869.575
774.50882	21677.775
778.39237	20777.975
782.27321	18970.375
786.15132	17253.075
790.02671	16201.875
793.89938	15743.475
797.76935	15571.775
801.6366	15490.375
805.50115	15453.375
809.36299	15335.875
813.22213	15221.675
817.07857	15187.675
820.93231	15195.775
824.78336	15179.675
828.63172	15233.575
832.47738	15296.575
836.32036	15327.675
840.16066	15382.575
843.99827	15461.375
847.8332	15400.975
851.66546	15321.475
855.49504	15238.875
859.32195	15232.775
863.1462	15126.375
866.96777	15015.175
870.78668	14964.675
874.60293	14973.175
878.41652	14988.375
882.22745	15044.475
886.03573	15131.475
889.84136	15113.375
893.64433	15038.175
897.44466	14963.675
901.24235	14930.275
905.0374	14888.075
908.8298	14855.975
912.61957	14876.475
916.40671	14984.975
920.19121	15208.575
923.97308	15408.175
927.75233	15624.575
931.52895	15728.575
935.30295	15585.875
939.07433	15221.275
942.84309	14908.975
946.60924	14795.275
950.37278	14709.875
954.13371	14644.075
957.89203	14480.475
961.64774	14431.775
965.40086	14353.375
969.15137	14238.775
972.89929	14216.675
976.64461	14179.175
980.38733	14231.175
984.12747	14297.475
987.86502	14516.975
991.59999	14779.275
995.33237	15171.175
999.06217	15842.575
1002.78939	16639.175
1006.51404	17093.575
1010.23611	17311.175
1013.95561	17431.175
1017.67255	17416.675
1021.38692	17203.975
1025.09872	17016.675
1028.80796	17272.975
1032.51465	18060.575
1036.21877	18778.375
1039.92035	18852.175
1043.61937	18390.475
1047.31584	17618.275
1051.00976	16825.175
1054.70114	16370.075
1058.38998	16167.275
1062.07627	16101.775
1065.76003	16065.875
1069.44126	16119.275
1073.11995	16240.675
1076.79611	16490.875
1080.46974	16627.275
1084.14085	16807.975
1087.80943	17053.175
1091.47549	17162.175
1095.13903	17017.375
1098.80005	16639.675
1102.45857	16257.275
1106.11456	16030.175
1109.76805	16066.175
1113.41903	16216.375
1117.06751	16438.575
1120.71348	16739.975
1124.35696	17038.675
1127.99793	17335.775
1131.63641	17471.475
1135.2724	17179.375
1138.90589	16806.175
1142.5369	16544.775
1146.16542	16380.175
1149.79145	16323.375
1153.415	16371.175
1157.03607	16508.975
1160.65467	16785.975
1164.27079	17347.075
1167.88443	18201.275
1171.49561	19500.175
1175.10432	21430.675
1178.71056	23874.175
1182.31434	26192.375
1185.91565	27400.575
1189.51451	27324.375
1193.11091	26105.575
1196.70485	24463.575
1200.29634	22915.075
1203.88538	21743.575
1207.47197	20771.175
1211.05612	19988.175
1214.63782	19625.175
1218.21708	19601.875
1221.79391	19834.075
1225.36829	20116.475
1228.94024	20132.975
1232.50976	19805.675
1236.07685	19471.375
1239.6415	19196.175
1243.20374	19069.575
1246.76355	19058.675
1250.32093	19279.575
1253.8759	19737.475
1257.42845	20424.475
1260.97859	21101.875
1264.52631	21665.275
1268.07163	22268.375
1271.61453	22980.875
1275.15503	23781.775
1278.69312	24537.275
1282.22882	25225.175
1285.76211	25821.575
1289.29301	26427.375
1292.82151	27100.675
1296.34761	28048.375
1299.87133	29363.275
1303.39266	31263.375
1306.9116	33834.275
1310.42815	36775.075
1313.94233	38811.975
1317.45412	38865.175
1320.96354	37465.875
1324.47058	35534.275
1327.97525	33790.975
1331.47754	32643.375
1334.97747	31989.075
1338.47502	31847.175
1341.97022	31931.475
1345.46305	31851.375
1348.95352	31778.375
1352.44163	32065.875
1355.92738	33271.875
1359.41078	35840.575
1362.89183	38686.275
1366.37053	38612.075
1369.84688	34837.275
1373.32088	30163.275
1376.79254	26885.975
1380.26186	25309.775
1383.72883	24752.675
1387.19347	24388.275
1390.65578	23956.875
1394.11575	23708.375
1397.57339	23887.975
1401.0287	24445.775
1404.48168	25016.775
1407.93234	25435.075
1411.38068	25548.375
1414.82669	25388.775
1418.27039	24621.975
1421.71177	23763.475
1425.15083	22973.075
1428.58758	22558.775
1432.02203	22502.775
1435.45416	22818.575
1438.88399	23137.775
1442.31151	23401.275
1445.73673	23626.575
1449.15965	23824.775
1452.58027	23875.275
1455.9986	23729.475
1459.41463	23703.175
1462.82837	23950.175
1466.23982	24439.975
1469.64898	24938.575
1473.05586	25234.075
1476.46045	25349.175
1479.86276	25541.475
1483.26279	25618.475
1486.66054	25738.275
1490.05602	26054.575
1493.44922	26462.575
1496.84016	26928.875
1500.22882	27617.875
1503.61521	28566.675
1506.99934	30031.475
1510.38121	31669.175
1513.76081	32584.475
1517.13816	31923.475
1520.51324	29985.875
1523.88607	27784.775
1527.25665	26210.675
1530.62498	25283.675
1533.99105	24712.575
1537.35488	24361.475
1540.71647	24110.075
1544.07581	23885.675
1547.4329	23605.575
1550.78776	23305.875
1554.14038	23089.975
1557.49077	23033.575
1560.83892	23070.775
1564.18484	23130.275
1567.52853	23182.175
1570.86999	23247.875
1574.20922	23419.475
1577.54624	23573.775
1580.88103	23358.875
1584.2136	23109.975
1587.54395	23462.675
1590.87208	24665.375
1594.19801	26585.675
1597.52172	28838.875
1600.84321	29926.575
1604.16251	28975.275
1607.47959	26531.575
1610.79447	23835.575
1614.10715	21484.875
1617.41763	19726.975
1620.7259	18606.175
1624.03199	18128.575
1627.33587	18196.775
1630.63757	18809.375
1633.93707	19990.675
1637.23439	21660.975
1640.52951	23900.575
1643.82246	26331.875
1647.11321	28342.175
1650.40179	28901.975
1653.68819	27361.475
1656.97241	24007.575
1660.25446	20516.475
1663.53433	17939.675
1666.81203	16314.475
1670.08756	15368.875
1673.36092	14799.375
1676.63211	14440.075
1679.90115	14180.675
1683.16801	13968.475
1686.43272	13814.575
1689.69527	13709.475
1692.95567	13620.975
1696.2139	13532.975
1699.46999	13446.175
1702.72392	13394.275
1705.97571	13433.775
1709.22535	13465.175
1712.47284	13514.775
1715.71819	13497.975
1718.96139	13491.175
1722.20246	13446.775
1725.44139	13396.975
1728.67818	13332.575
1731.91284	13238.675
1735.14537	13153.675
1738.37576	13110.775
1741.60403	13078.375
1744.83017	13026.875
1748.05418	12992.375
1751.27607	12938.675
1754.49584	12918.275
1757.71349	12908.175
1760.92903	12851.475
1764.14244	12860.375
1767.35375	12860.875
1770.56294	12863.575
1773.77002	12842.275
1776.97499	12816.175
1780.17785	12837.675
1783.37861	12840.975
1786.57727	12827.975
1789.77382	12830.975
1792.96828	12818.975
1796.16064	12825.475
1799.3509	12797.475
1802.53907	12774.475
1805.72514	12744.075
1808.90913	12712.475
1812.09102	12686.275
1815.27083	12671.775
1818.44856	12638.175
1821.6242	12604.175
1824.79776	12626.975
1827.96924	12608.575
1831.13864	12599.075
1834.30597	12585.175
1837.47122	12581.175
1840.6344	12586.275
1843.7955	12574.375
1846.95454	12600.575
1850.11151	12617.975
1853.26642	12608.975
1856.41926	12603.775
1859.57004	12626.275
1862.71876	12635.075
1865.86542	12632.875
1869.01003	12634.575
1872.15258	12650.775
1875.29308	12658.375
1878.43152	12653.975
1881.56792	12637.275
1884.70227	12692.175
1887.83457	12673.675
1890.96482	12686.975
1894.09304	12642.075
1897.21921	12685.175
1900.34335	12692.475
1903.46544	12693.575
1906.58551	12707.575
1909.70353	12691.475
1912.81953	12693.975
1915.93349	12675.575
1919.04543	12658.575
1922.15534	12655.275
1925.26322	12594.075
1928.36908	12563.875
1931.47292	12551.475
1934.57473	12490.875
1937.67453	12462.775
1940.77232	12372.175
1943.86808	12329.475
1946.96184	12256.875
1950.05358	12210.775
1953.14331	12169.775
1956.23103	12143.375
1959.31675	12112.075
1962.40046	12060.475
1965.48217	12049.875
1968.56188	11961.975
1971.63959	11976.475
1974.7153	11916.475
1977.78901	11859.375
1980.86073	11838.575
1983.93046	11816.175
1986.99819	11739.975
1990.06394	11717.575
1993.1277	11674.275
1996.18947	11638.875
1999.24925	11629.275
2002.30706	11585.975
2005.36288	11542.175
2008.41672	11517.075
2011.46859	11477.875
2014.51848	11460.275
2017.56639	11428.675
2020.61233	11390.875
2023.6563	11399.375
2026.6983	11341.275
2029.73833	11344.875
2032.7764	11349.175
2035.8125	11316.375
2038.84664	11319.875
2041.87881	11314.775
2044.90903	11273.775
2047.93729	11253.175
2050.96359	11234.375
2053.98794	11222.675
2057.01034	11195.575
2060.03078	11215.575
2063.04927	11181.275
2066.06582	11209.175
2069.08042	11161.675
2072.09307	11135.475
2075.10378	11137.875
2078.11255	11146.275
2081.11938	11155.975
2084.12426	11135.275
2087.12722	11156.075
2090.12824	11128.475
2093.12732	11121.675
2096.12447	11085.775
2099.11969	11111.575
2102.11299	11118.075
2105.10435	11109.675
2108.09379	11130.775
2111.08131	11090.575
2114.0669	11136.775
2117.05057	11094.975
2120.03233	11123.675
2123.01216	11144.175
2125.99008	11140.475
2128.96609	11122.875
2131.94018	11162.075
2134.91236	11152.675
2137.88263	11146.475
2140.851	11154.775
2143.81746	11177.275
2146.78201	11175.875
2149.74466	11204.975
2152.7054	11204.775
2155.66425	11201.275
2158.6212	11197.775
2161.57625	11171.175
2164.52941	11180.775
2167.48067	11139.175
2170.43004	11150.075
2173.37752	11152.075
2176.32311	11161.375
2179.26681	11170.075
2182.20863	11170.675
2185.14856	11178.875
2188.08661	11185.475
2191.02278	11200.475
2193.95707	11203.775
2196.88948	11192.875
2199.82001	11187.975
2202.74867	11175.275
2205.67545	11207.975
2208.60037	11205.775
2211.52341	11194.875
2214.44458	11207.775
2217.36388	11170.375
2220.28132	11161.775
2223.1969	11135.575
2226.11061	11111.275
2229.02246	11104.575
2231.93245	11098.975
2234.84058	11062.175
2237.74686	11066.075
2240.65128	11039.375
2243.55385	10993.075
2246.45456	10998.475
2249.35343	10969.275
2252.25044	10972.475
2255.14561	10944.875
2258.03893	10938.775
2260.93041	10920.175
2263.82004	10888.975
2266.70783	10865.175
2269.59378	10842.775
2272.4779	10809.275
2275.36017	10812.475
2278.24061	10760.575
2281.11922	10782.675
2283.996	10736.775
2286.87094	10733.575
2289.74405	10703.775
2292.61534	10717.975
2295.4848	10723.775
2298.35243	10710.175
2301.21824	10711.575
2304.08223	10744.675
2306.94439	10757.875
2309.80474	10764.675
2312.66327	10792.975
2315.51999	10745.975
2318.37489	10770.275
2321.22797	10767.575
2324.07925	10767.375
2326.92871	10739.775
2329.77637	10748.375
2332.62222	10748.875
2335.46626	10718.575
2338.3085	10744.275
2341.14893	10762.475
2343.98756	10776.875
2346.8244	10772.875
2349.65943	10795.875
2352.49267	10792.075
2355.32411	10789.275
2358.15376	10755.575
2360.98161	10771.775
2363.80768	10736.575
2366.63195	10733.375
2369.45444	10697.475
2372.27514	10688.975
2375.09405	10659.975
2377.91118	10634.975
2380.72652	10578.075
2383.54009	10555.075
2386.35187	10540.875
2389.16188	10516.675
2391.97011	10496.175
2394.77657	10479.075
2397.58125	10472.875
2400.38416	10462.175
2403.18529	10447.875
2405.98466	10409.475
2408.78226	10397.575
2411.57809	10372.775
2414.37216	10346.975
2417.16446	10345.675
2419.955	10325.175
2422.74378	10316.775
2425.5308	10283.675
2428.31606	10286.075
2431.09956	10260.775
2433.88131	10252.975
2436.6613	10274.875
2439.43954	10240.575
2442.21603	10278.375
2444.99077	10254.575
2447.76377	10294.275
2450.53501	10251.775
2453.30451	10273.675
2456.07226	10257.075
2458.83827	10250.175
2461.60254	10236.075
2464.36507	10237.875
2467.12586	10260.975
2469.88492	10246.175
2472.64224	10278.875
2475.39782	10262.175
2478.15167	10267.475
2480.90379	10295.675
2483.65417	10299.075
2486.40283	10296.075
2489.14976	10313.675
2491.89497	10321.775
2494.63845	10338.775
2497.3802	10318.075
2500.12024	10340.975
2502.85855	10336.975
2505.59514	10306.375
2508.33002	10303.175
2511.06318	10279.975
2513.79462	10270.575
2516.52435	10235.375
2519.25237	10235.275
2521.97867	10221.075
2524.70327	10226.575
2527.42616	10207.675
2530.14734	10193.575
2532.86681	10191.275
2535.58458	10193.475
2538.30065	10166.775
2541.01501	10206.175
2543.72768	10170.875
2546.43864	10185.175
2549.14791	10165.275
2551.85548	10164.375
2554.56136	10134.075
2557.26554	10134.075
2559.96803	10124.375
2562.66883	10112.175
2565.36794	10134.075
2568.06536	10091.075
2570.7611	10118.675
2573.45514	10105.475
2576.14751	10097.975
2578.83819	10093.075
2581.52719	10127.475
2584.21451	10105.275
2586.90015	10125.775
2589.58411	10108.875
2592.2664	10103.375
2594.94701	10090.775
2597.62594	10084.275
2600.30321	10100.375
2602.9788	10081.875
2605.65273	10042.275
2608.32498	10067.575
2610.99557	10063.575
2613.66449	10061.975
2616.33175	10092.075
2618.99734	10056.675
2621.66128	10065.675
2624.32355	10073.975
2626.98416	10078.175
2629.64311	10095.675
2632.30041	10110.775
2634.95605	10064.875
2637.61004	10046.775
2640.26238	10036.175
2642.91306	10034.575
2645.56209	10019.275
2648.20948	10005.275
2650.85521	9982.675
2653.4993	9996.675
2656.14175	9995.975
2658.78255	9993.875
2661.42171	10017.075
2664.05923	10021.675
2666.6951	10030.675
2669.32934	10037.475
2671.96194	10040.175
2674.59291	10044.575
2677.22224	10045.575
2679.84993	10046.075
2682.476	10016.575
2685.10043	10018.475
2687.72324	9976.475
2690.34441	9981.475
2692.96396	9991.875
2695.58188	9973.275
2698.19818	9956.875
2700.81285	9959.275
2703.4259	9948.975
2706.03733	9931.775
2708.64714	9939.975
2711.25533	9956.375
2713.86191	9946.175
2716.46687	9963.875
2719.07021	9958.075
2721.67194	9987.975
2724.27206	9976.975
2726.87057	10015.875
2729.46747	9993.575
2732.06276	9997.775
2734.65644	9998.075
2737.24852	10005.475
2739.83899	9993.875
2742.42786	9988.075
2745.01513	9968.075
2747.60079	9967.975
2750.18486	9957.075
2752.76733	9944.275
2755.3482	9945.275
2757.92747	9961.575
2760.50515	9958.475
2763.08123	9963.375
2765.65573	9940.875
2768.22863	9946.675
2770.79994	9942.175
2773.36967	9950.375
2775.9378	9949.775
2778.50435	9957.275
2781.06932	9937.175
2783.6327	9931.775
2786.1945	9950.775
2788.75471	9922.975
2791.31335	9931.075
2793.87041	9908.775
2796.42589	9898.075
2798.97979	9864.375
2801.53212	9853.475
2804.08288	9849.075
2806.63206	9835.275
2809.17967	9808.075
2811.72571	9803.975
2814.27018	9780.275
2816.81308	9783.275
2819.35442	9799.675
2821.89419	9759.575
2824.43239	9751.275
2826.96904	9756.675
2829.50412	9790.275
2832.03763	9728.875
2834.56959	9768.375
2837.1	9755.675
2839.62884	9764.175
2842.15613	9748.575
2844.68186	9784.775
2847.20604	9783.975
2849.72867	9790.275
2852.24974	9790.175
2854.76927	9783.375
2857.28724	9760.975
2859.80367	9753.775
2862.31855	9735.775
2864.83189	9735.075
2867.34368	9747.475
2869.85393	9718.675
2872.36264	9742.475
2874.8698	9730.375
2877.37543	9736.775
2879.87952	9726.975
2882.38207	9746.075
2884.88308	9751.575
2887.38256	9725.675
2889.88051	9722.575
2892.37692	9740.975
2894.8718	9731.475
2897.36515	9771.675
2899.85698	9768.475
2902.34727	9767.775
2904.83604	9786.675
2907.32328	9777.775
2909.809	9778.075
2912.29319	9797.375
2914.77587	9784.175
2917.25702	9792.775
2919.73665	9750.475
2922.21476	9783.175
2924.69136	9756.375
2927.16644	9754.775
2929.64	9704.175
2932.11205	9722.375
2934.58258	9700.875
2937.05161	9699.575
2939.51912	9692.075
2941.98513	9683.475
2944.44962	9665.175
2946.91261	9609.675
2949.37409	9619.075
2951.83407	9586.275
2954.29254	9582.675
2956.74951	9585.475
2959.20498	9582.475
2961.65895	9570.675
2964.11142	9552.475
2966.56239	9533.175
2969.01186	9512.275
2971.45984	9501.775
2973.90632	9464.275
2976.35131	9456.675
2978.7948	9419.275
2981.23681	9391.975
2983.67732	9373.675
2986.11635	9339.475
2988.55388	9331.375
2990.98993	9302.275
2993.4245	9271.775
2995.85758	9272.075
2998.28917	9223.775
3000.71928	9225.175
3003.14791	9215.475
3005.57506	9214.975
3008.00073	9163.675
3010.42493	9192.975
3012.84764	9167.075
3015.26888	9152.875
3017.68865	9101.075
3020.10694	9113.375
3022.52376	9085.375
3024.9391	9102.575
3027.35298	9094.075
3029.76539	9080.975
3032.17632	9064.375
3034.5858	9053.175
3036.9938	9043.075
3039.40034	9027.775
3041.80542	9026.275
3044.20903	8999.375
3046.61118	9009.175
3049.01187	8978.975
3051.4111	8968.875
3053.80888	8962.275
3056.20519	8967.775
3058.60005	8914.075
3060.99345	8908.275
3063.3854	8875.575
3065.7759	8840.475
3068.16494	8829.375
3070.55254	8826.975
3072.93868	8787.575
3075.32338	8767.375
3077.70662	8752.775
3080.08842	8762.875
3082.46878	8730.375
3084.84769	8705.675
3087.22515	8716.875
3089.60118	8708.175
3091.97576	8715.175
3094.3489	8718.275
3096.72061	8714.575
3099.09087	8705.675
3101.4597	8709.875
3103.82709	8701.575
3106.19305	8683.775
3108.55757	8675.175
3110.92066	8664.275
3113.28232	8645.575
3115.64255	8628.475
3118.00134	8616.575
3120.35871	8583.575
3122.71466	8586.775
3125.06917	8591.375
3127.42226	8557.775
3129.77393	8568.375
3132.12417	8549.875
3134.47299	8564.475
3136.82039	8535.075
3139.16636	8558.375
3141.51092	8562.975
3143.85406	8560.475
3146.19579	8571.075
3148.53609	8535.575
3150.87499	8557.275
