Data from AgNPs_FTO_APTES_UA_1uM_CRN_10uM_R6G_20uM_NaF_0.1M_Addition_RamanShift__16__15-16-29-689.txt Node

Date: Thu Jan 27 15:16:29 GMT 2022
User: TCL
Spectrometer: QEP01345
Trigger mode: 4
Integration Time (sec): 7.000000E0
Scans to average: 10
Electric dark correction enabled: true
Nonlinearity correction enabled: false
Boxcar width: 0
XAxis mode: Raman Shifts
Number of Pixels in Spectrum: 1044
>>>>>Begin Spectral Data<<<<<
46.04893	1.8375
50.45542	0.2375
54.85868	-1.9625
59.25871	-2.8625
63.6555	46.4375
68.04907	48.8375
72.43941	51.7375
76.82654	54.6375
81.21044	54.8375
85.59113	54.5375
89.96862	60.0375
94.34289	61.6375
98.71396	67.7375
103.08183	63.7375
107.4465	68.0375
111.80798	72.1375
116.16626	68.2375
120.52136	74.6375
124.87327	77.3375
129.222	73.2375
133.56755	79.6375
137.90993	80.9375
142.24913	89.3375
146.58517	99.4375
150.91804	113.6375
155.24774	132.6375
159.57429	159.1375
163.89768	197.6375
168.21792	263.4375
172.53501	350.3375
176.84895	481.0375
181.15975	669.7375
185.46741	924.5375
189.77193	1277.5375
194.07331	1705.3375
198.37157	2205.8375
202.6667	2723.0375
206.9587	3246.8375
211.24758	3712.4375
215.53334	4212.7375
219.81599	4761.8375
224.09553	5324.3375
228.37195	5960.0375
232.64527	6678.7375
236.91549	7436.9375
241.18261	8195.1375
245.44663	8899.9375
249.70755	9545.7375
253.96539	10114.7375
258.22014	10564.1375
262.4718	10987.4375
266.72039	11261.6375
270.96589	11443.0375
275.20832	11483.6375
279.44768	11439.5375
283.68397	11356.9375
287.91719	11297.8375
292.14735	11242.9375
296.37445	11217.4375
300.59849	11298.5375
304.81948	11333.6375
309.03742	11289.3375
313.25231	11150.6375
317.46415	10886.0375
321.67296	10582.0375
325.87872	10322.9375
330.08145	10177.6375
334.28114	10186.7375
338.47781	10232.3375
342.67145	10350.6375
346.86207	10508.7375
351.04966	10724.9375
355.23424	10901.1375
359.4158	11070.8375
363.59435	11214.5375
367.76989	11322.3375
371.94243	11377.4375
376.11196	11442.5375
380.27849	11491.3375
384.44203	11581.0375
388.60257	11629.6375
392.76012	11763.9375
396.91468	11875.7375
401.06626	12084.3375
405.21485	12162.8375
409.36047	12130.2375
413.50311	11938.6375
417.64277	11825.3375
421.77947	11789.9375
425.9132	11837.8375
430.04396	11899.4375
434.17176	11950.9375
438.2966	12069.8375
442.41849	12224.0375
446.53742	12448.6375
450.6534	12762.3375
454.76644	13025.7375
458.87653	13139.3375
462.98368	13133.5375
467.08789	13040.0375
471.18916	12928.1375
475.2875	12772.6375
479.38291	12734.0375
483.4754	12659.3375
487.56496	12527.6375
491.6516	12331.4375
495.73531	12174.1375
499.81612	12106.7375
503.89401	12162.1375
507.96899	12206.6375
512.04106	12176.0375
516.11023	12086.5375
520.1765	12014.1375
524.23987	11898.4375
528.30034	11785.1375
532.35792	11665.8375
536.41261	11557.5375
540.46441	11461.5375
544.51333	11493.7375
548.55936	11635.3375
552.60252	11854.4375
556.64279	12125.3375
560.6802	12276.6375
564.71473	12331.4375
568.7464	12465.9375
572.7752	12686.6375
576.80114	12948.9375
580.82422	13155.2375
584.84444	13382.9375
588.86181	13496.0375
592.87633	13622.7375
596.888	13665.5375
600.89682	13699.8375
604.9028	14023.8375
608.90594	15012.1375
612.90624	15957.2375
616.90371	15097.6375
620.89834	12988.7375
624.89015	12101.9375
628.87913	12040.1375
632.86528	12092.8375
636.84862	12014.9375
640.82913	11845.2375
644.80683	11576.9375
648.78172	11317.6375
652.75379	11248.9375
656.72306	11337.0375
660.68952	11489.8375
664.65319	11438.3375
668.61405	11273.9375
672.57211	11222.8375
676.52738	11196.9375
680.47986	11202.9375
684.42955	11184.6375
688.37646	11163.9375
692.32058	11172.9375
696.26192	11258.3375
700.20048	11381.2375
704.13626	11462.1375
708.06928	11410.4375
711.99952	11377.2375
715.927	11324.6375
719.85171	11364.7375
723.77365	11309.6375
727.69284	11218.4375
731.60928	11121.3375
735.52295	11063.3375
739.43388	11085.3375
743.34206	11113.7375
747.24749	11160.7375
751.15017	11238.1375
755.05012	11432.1375
758.94733	11732.0375
762.8418	12274.2375
766.73354	13126.0375
770.62254	13854.4375
774.50882	14021.0375
778.39237	13468.6375
782.27321	12542.9375
786.15132	11819.0375
790.02671	11411.9375
793.89938	11228.5375
797.76935	11155.4375
801.6366	11139.6375
805.50115	11091.2375
809.36299	11024.5375
813.22213	10928.1375
817.07857	10905.7375
820.93231	10839.4375
824.78336	10818.5375
828.63172	10769.5375
832.47738	10784.1375
836.32036	10802.6375
840.16066	10841.4375
843.99827	10894.7375
847.8332	10878.0375
851.66546	10801.2375
855.49504	10805.7375
859.32195	10773.0375
863.1462	10762.9375
866.96777	10724.1375
870.78668	10699.8375
874.60293	10667.8375
878.41652	10678.7375
882.22745	10688.6375
886.03573	10736.2375
889.84136	10724.4375
893.64433	10686.0375
897.44466	10658.5375
901.24235	10591.2375
905.0374	10568.9375
908.8298	10542.2375
912.61957	10551.2375
916.40671	10662.8375
920.19121	10789.9375
923.97308	10930.9375
927.75233	10964.3375
931.52895	10914.1375
935.30295	10794.2375
939.07433	10627.1375
942.84309	10448.1375
946.60924	10382.7375
950.37278	10352.8375
954.13371	10325.8375
957.89203	10274.6375
961.64774	10231.6375
965.40086	10233.3375
969.15137	10186.9375
972.89929	10120.1375
976.64461	10086.7375
980.38733	10088.2375
984.12747	10148.5375
987.86502	10221.2375
991.59999	10364.4375
995.33237	10538.6375
999.06217	10852.1375
1002.78939	11189.4375
1006.51404	11363.1375
1010.23611	11423.6375
1013.95561	11476.7375
1017.67255	11487.0375
1021.38692	11389.1375
1025.09872	11321.3375
1028.80796	11398.4375
1032.51465	11734.9375
1036.21877	12093.3375
1039.92035	12151.4375
1043.61937	11962.3375
1047.31584	11652.2375
1051.00976	11347.8375
1054.70114	11205.0375
1058.38998	11219.8375
1062.07627	11274.2375
1065.76003	11323.4375
1069.44126	11383.9375
1073.11995	11505.2375
1076.79611	11623.9375
1080.46974	11686.3375
1084.14085	11749.6375
1087.80943	11845.7375
1091.47549	11903.4375
1095.13903	11931.6375
1098.80005	11799.0375
1102.45857	11580.2375
1106.11456	11415.2375
1109.76805	11342.4375
1113.41903	11363.6375
1117.06751	11412.3375
1120.71348	11519.5375
1124.35696	11618.5375
1127.99793	11742.8375
1131.63641	11824.5375
1135.2724	11751.2375
1138.90589	11683.5375
1142.5369	11618.9375
1146.16542	11649.8375
1149.79145	11692.5375
1153.415	11758.8375
1157.03607	11918.9375
1160.65467	12200.2375
1164.27079	12631.4375
1167.88443	13220.8375
1171.49561	14039.4375
1175.10432	14991.1375
1178.71056	16225.2375
1182.31434	17387.7375
1185.91565	18048.6375
1189.51451	18078.8375
1193.11091	17608.8375
1196.70485	16890.0375
1200.29634	16199.6375
1203.88538	15602.9375
1207.47197	15187.8375
1211.05612	14887.1375
1214.63782	14631.6375
1218.21708	14409.4375
1221.79391	14256.6375
1225.36829	14169.8375
1228.94024	14005.5375
1232.50976	13763.3375
1236.07685	13551.5375
1239.6415	13445.8375
1243.20374	13391.8375
1246.76355	13460.9375
1250.32093	13631.6375
1253.8759	13881.8375
1257.42845	14246.2375
1260.97859	14624.1375
1264.52631	14972.8375
1268.07163	15351.2375
1271.61453	15817.3375
1275.15503	16291.8375
1278.69312	16835.8375
1282.22882	17286.6375
1285.76211	17656.3375
1289.29301	18001.3375
1292.82151	18585.1375
1296.34761	19327.9375
1299.87133	20367.6375
1303.39266	21559.3375
1306.9116	22910.1375
1310.42815	24144.5375
1313.94233	24925.6375
1317.45412	24882.6375
1320.96354	24391.4375
1324.47058	23890.0375
1327.97525	23427.7375
1331.47754	23115.1375
1334.97747	22892.2375
1338.47502	22846.8375
1341.97022	22812.4375
1345.46305	22667.1375
1348.95352	22403.3375
1352.44163	22091.3375
1355.92738	22133.8375
1359.41078	22723.6375
1362.89183	23330.3375
1366.37053	22965.3375
1369.84688	21290.1375
1373.32088	19294.4375
1376.79254	17876.3375
1380.26186	17259.5375
1383.72883	17164.6375
1387.19347	17250.3375
1390.65578	17122.8375
1394.11575	17099.3375
1397.57339	17273.7375
1401.0287	17562.9375
1404.48168	17843.9375
1407.93234	17861.8375
1411.38068	17629.5375
1414.82669	17110.3375
1418.27039	16450.8375
1421.71177	15804.2375
1425.15083	15227.7375
1428.58758	14953.5375
1432.02203	14917.6375
1435.45416	15185.2375
1438.88399	15597.2375
1442.31151	15975.7375
1445.73673	16280.2375
1449.15965	16514.6375
1452.58027	16703.0375
1455.9986	16812.0375
1459.41463	16917.6375
1462.82837	17189.6375
1466.23982	17451.9375
1469.64898	17735.8375
1473.05586	17886.8375
1476.46045	17868.2375
1479.86276	17722.5375
1483.26279	17481.6375
1486.66054	17290.6375
1490.05602	17254.8375
1493.44922	17325.8375
1496.84016	17440.9375
1500.22882	17737.5375
1503.61521	18227.5375
1506.99934	18881.1375
1510.38121	19491.0375
1513.76081	19657.4375
1517.13816	19354.4375
1520.51324	18717.6375
1523.88607	18055.9375
1527.25665	17679.2375
1530.62498	17519.4375
1533.99105	17436.3375
1537.35488	17340.2375
1540.71647	17154.6375
1544.07581	16886.5375
1547.4329	16585.8375
1550.78776	16316.6375
1554.14038	16103.0375
1557.49077	15995.2375
1560.83892	15924.8375
1564.18484	15903.0375
1567.52853	15936.7375
1570.86999	16026.4375
1574.20922	16221.9375
1577.54624	16421.9375
1580.88103	16443.8375
1584.2136	16552.7375
1587.54395	16902.3375
1590.87208	17568.1375
1594.19801	18484.1375
1597.52172	19517.3375
1600.84321	19894.3375
1604.16251	19191.6375
1607.47959	17843.9375
1610.79447	16433.2375
1614.10715	15102.6375
1617.41763	14003.4375
1620.7259	13209.3375
1624.03199	12774.2375
1627.33587	12720.8375
1630.63757	13007.2375
1633.93707	13758.8375
1637.23439	14876.2375
1640.52951	16481.4375
1643.82246	18209.0375
1647.11321	19536.9375
1650.40179	19794.7375
1653.68819	18608.8375
1656.97241	16495.6375
1660.25446	14359.9375
1663.53433	12698.3375
1666.81203	11611.1375
1670.08756	10914.4375
1673.36092	10449.3375
1676.63211	10179.4375
1679.90115	10000.7375
1683.16801	9814.6375
1686.43272	9705.7375
1689.69527	9629.7375
1692.95567	9520.8375
1696.2139	9441.6375
1699.46999	9356.0375
1702.72392	9339.1375
1705.97571	9310.2375
1709.22535	9320.3375
1712.47284	9351.9375
1715.71819	9355.8375
1718.96139	9314.4375
1722.20246	9310.7375
1725.44139	9265.7375
1728.67818	9220.3375
1731.91284	9162.3375
1735.14537	9128.8375
1738.37576	9086.5375
1741.60403	9043.6375
1744.83017	9000.5375
1748.05418	8984.5375
1751.27607	8962.0375
1754.49584	8932.2375
1757.71349	8911.9375
1760.92903	8874.3375
1764.14244	8857.9375
1767.35375	8867.6375
1770.56294	8832.4375
1773.77002	8850.7375
1776.97499	8832.6375
1780.17785	8868.4375
1783.37861	8855.4375
1786.57727	8839.3375
1789.77382	8819.6375
1792.96828	8804.9375
1796.16064	8792.7375
1799.3509	8771.4375
1802.53907	8787.9375
1805.72514	8754.5375
1808.90913	8714.9375
1812.09102	8712.0375
1815.27083	8688.3375
1818.44856	8699.6375
1821.6242	8663.9375
1824.79776	8662.6375
1827.96924	8648.6375
1831.13864	8655.3375
1834.30597	8637.7375
1837.47122	8632.4375
1840.6344	8642.1375
1843.7955	8653.3375
1846.95454	8648.8375
1850.11151	8660.8375
1853.26642	8650.9375
1856.41926	8660.8375
1859.57004	8664.7375
1862.71876	8642.6375
1865.86542	8617.2375
1869.01003	8627.1375
1872.15258	8606.4375
1875.29308	8604.0375
1878.43152	8583.6375
1881.56792	8595.7375
1884.70227	8585.9375
1887.83457	8584.4375
1890.96482	8568.8375
1894.09304	8549.5375
1897.21921	8551.5375
1900.34335	8556.3375
1903.46544	8556.1375
1906.58551	8558.9375
1909.70353	8539.4375
1912.81953	8521.2375
1915.93349	8512.1375
1919.04543	8465.6375
1922.15534	8455.2375
1925.26322	8437.9375
1928.36908	8438.3375
1931.47292	8420.9375
1934.57473	8390.8375
1937.67453	8374.0375
1940.77232	8348.6375
1943.86808	8289.1375
1946.96184	8279.4375
1950.05358	8252.4375
1953.14331	8228.5375
1956.23103	8193.1375
1959.31675	8188.4375
1962.40046	8158.0375
1965.48217	8157.9375
1968.56188	8126.6375
1971.63959	8119.2375
1974.7153	8062.3375
1977.78901	8050.8375
1980.86073	8037.2375
1983.93046	8017.0375
1986.99819	7965.4375
1990.06394	7944.4375
1993.1277	7914.8375
1996.18947	7899.8375
1999.24925	7875.8375
2002.30706	7849.5375
2005.36288	7834.2375
2008.41672	7828.7375
2011.46859	7803.0375
2014.51848	7762.6375
2017.56639	7753.8375
2020.61233	7739.6375
2023.6563	7721.7375
2026.6983	7696.6375
2029.73833	7700.0375
2032.7764	7684.1375
2035.8125	7666.0375
2038.84664	7649.9375
2041.87881	7647.2375
2044.90903	7639.8375
2047.93729	7620.2375
2050.96359	7621.3375
2053.98794	7597.1375
2057.01034	7609.7375
2060.03078	7591.6375
2063.04927	7589.1375
2066.06582	7591.6375
2069.08042	7587.2375
2072.09307	7590.8375
2075.10378	7578.8375
2078.11255	7551.3375
2081.11938	7558.7375
2084.12426	7555.5375
2087.12722	7557.8375
2090.12824	7553.9375
2093.12732	7536.3375
2096.12447	7532.9375
2099.11969	7547.7375
2102.11299	7547.1375
2105.10435	7554.4375
2108.09379	7566.7375
2111.08131	7571.1375
2114.0669	7574.5375
2117.05057	7566.3375
2120.03233	7569.0375
2123.01216	7575.7375
2125.99008	7589.9375
2128.96609	7596.5375
2131.94018	7593.8375
2134.91236	7596.6375
2137.88263	7614.9375
2140.851	7626.6375
2143.81746	7609.3375
2146.78201	7602.2375
2149.74466	7619.0375
2152.7054	7611.8375
2155.66425	7621.3375
2158.6212	7618.7375
2161.57625	7645.5375
2164.52941	7615.8375
2167.48067	7587.6375
2170.43004	7611.6375
2173.37752	7599.8375
2176.32311	7610.2375
2179.26681	7631.1375
2182.20863	7611.7375
2185.14856	7613.5375
2188.08661	7636.6375
2191.02278	7635.3375
2193.95707	7620.1375
2196.88948	7611.2375
2199.82001	7625.8375
2202.74867	7620.7375
2205.67545	7617.1375
2208.60037	7597.1375
2211.52341	7585.0375
2214.44458	7580.0375
2217.36388	7575.7375
2220.28132	7585.9375
2223.1969	7547.0375
2226.11061	7574.6375
2229.02246	7523.3375
2231.93245	7524.9375
2234.84058	7499.3375
2237.74686	7487.7375
2240.65128	7488.1375
2243.55385	7475.4375
2246.45456	7464.5375
2249.35343	7456.0375
2252.25044	7429.8375
2255.14561	7433.2375
2258.03893	7409.7375
2260.93041	7395.1375
2263.82004	7367.3375
2266.70783	7351.0375
2269.59378	7330.8375
2272.4779	7322.9375
2275.36017	7306.7375
2278.24061	7296.4375
2281.11922	7319.8375
2283.996	7290.2375
2286.87094	7303.3375
2289.74405	7266.6375
2292.61534	7262.6375
2295.4848	7249.1375
2298.35243	7278.1375
2301.21824	7243.6375
2304.08223	7283.0375
2306.94439	7291.5375
2309.80474	7290.2375
2312.66327	7287.3375
2315.51999	7271.8375
2318.37489	7280.2375
2321.22797	7269.8375
2324.07925	7269.3375
2326.92871	7245.2375
2329.77637	7246.7375
2332.62222	7221.9375
2335.46626	7240.4375
2338.3085	7210.4375
2341.14893	7226.6375
2343.98756	7220.5375
2346.8244	7228.8375
2349.65943	7241.2375
2352.49267	7236.5375
2355.32411	7234.0375
2358.15376	7216.8375
2360.98161	7219.5375
2363.80768	7201.6375
2366.63195	7207.3375
2369.45444	7200.1375
2372.27514	7181.6375
2375.09405	7159.6375
2377.91118	7159.4375
2380.72652	7140.6375
2383.54009	7106.2375
2386.35187	7113.0375
2389.16188	7093.1375
2391.97011	7097.5375
2394.77657	7084.6375
2397.58125	7071.5375
2400.38416	7077.7375
2403.18529	7052.1375
2405.98466	7038.1375
2408.78226	7023.1375
2411.57809	7000.9375
2414.37216	6990.4375
2417.16446	7010.1375
2419.955	6995.5375
2422.74378	6994.8375
2425.5308	6988.7375
2428.31606	6967.3375
2431.09956	6965.3375
2433.88131	6954.9375
2436.6613	6949.7375
2439.43954	6945.8375
2442.21603	6971.8375
2444.99077	6956.4375
2447.76377	6970.0375
2450.53501	6956.7375
2453.30451	6947.6375
2456.07226	6949.9375
2458.83827	6934.4375
2461.60254	6942.8375
2464.36507	6943.2375
2467.12586	6937.9375
2469.88492	6927.4375
2472.64224	6923.1375
2475.39782	6936.9375
2478.15167	6926.8375
2480.90379	6944.4375
2483.65417	6952.9375
2486.40283	6951.6375
2489.14976	6969.4375
2491.89497	6965.3375
2494.63845	6971.2375
2497.3802	6969.1375
2500.12024	6957.7375
2502.85855	6961.6375
2505.59514	6964.5375
2508.33002	6955.6375
2511.06318	6944.5375
2513.79462	6934.5375
2516.52435	6914.6375
2519.25237	6943.2375
2521.97867	6916.0375
2524.70327	6926.7375
2527.42616	6908.3375
2530.14734	6907.5375
2532.86681	6891.7375
2535.58458	6907.2375
2538.30065	6913.2375
2541.01501	6891.3375
2543.72768	6868.8375
2546.43864	6904.7375
2549.14791	6875.5375
2551.85548	6875.4375
2554.56136	6843.9375
2557.26554	6839.1375
2559.96803	6856.0375
2562.66883	6842.0375
2565.36794	6825.8375
2568.06536	6810.0375
2570.7611	6823.1375
2573.45514	6819.9375
2576.14751	6813.9375
2578.83819	6795.5375
2581.52719	6825.6375
2584.21451	6813.5375
2586.90015	6814.9375
2589.58411	6775.8375
2592.2664	6801.3375
2594.94701	6803.3375
2597.62594	6795.2375
2600.30321	6785.7375
2602.9788	6787.8375
2605.65273	6793.5375
2608.32498	6782.3375
2610.99557	6784.0375
2613.66449	6801.5375
2616.33175	6770.8375
2618.99734	6772.6375
2621.66128	6768.7375
2624.32355	6791.0375
2626.98416	6787.8375
2629.64311	6786.2375
2632.30041	6788.6375
2634.95605	6781.2375
2637.61004	6765.0375
2640.26238	6770.4375
2642.91306	6763.0375
2645.56209	6759.4375
2648.20948	6737.9375
2650.85521	6741.0375
2653.4993	6756.5375
2656.14175	6751.6375
2658.78255	6755.5375
2661.42171	6740.5375
2664.05923	6753.2375
2666.6951	6772.9375
2669.32934	6768.0375
2671.96194	6766.4375
2674.59291	6751.9375
2677.22224	6767.5375
2679.84993	6769.9375
2682.476	6749.7375
2685.10043	6763.7375
2687.72324	6738.0375
2690.34441	6741.5375
2692.96396	6721.3375
2695.58188	6741.7375
2698.19818	6728.0375
2700.81285	6734.6375
2703.4259	6733.4375
2706.03733	6701.4375
2708.64714	6688.3375
2711.25533	6732.0375
2713.86191	6762.1375
2716.46687	6752.3375
2719.07021	6755.3375
2721.67194	6754.2375
2724.27206	6758.6375
2726.87057	6770.0375
2729.46747	6771.0375
2732.06276	6783.6375
2734.65644	6765.8375
2737.24852	6768.7375
2739.83899	6761.4375
2742.42786	6778.7375
2745.01513	6764.6375
2747.60079	6748.6375
2750.18486	6768.4375
2752.76733	6748.3375
2755.3482	6729.5375
2757.92747	6742.6375
2760.50515	6720.4375
2763.08123	6738.5375
2765.65573	6747.9375
2768.22863	6732.3375
2770.79994	6726.4375
2773.36967	6716.2375
2775.9378	6730.4375
2778.50435	6714.4375
2781.06932	6716.6375
2783.6327	6729.8375
2786.1945	6724.0375
2788.75471	6705.2375
2791.31335	6713.5375
2793.87041	6687.7375
2796.42589	6684.0375
2798.97979	6676.2375
2801.53212	6672.9375
2804.08288	6670.1375
2806.63206	6634.6375
2809.17967	6622.5375
2811.72571	6610.7375
2814.27018	6615.2375
2816.81308	6594.8375
2819.35442	6596.1375
2821.89419	6586.2375
2824.43239	6602.4375
2826.96904	6578.4375
2829.50412	6578.4375
2832.03763	6585.3375
2834.56959	6585.0375
2837.1	6578.6375
2839.62884	6572.3375
2842.15613	6554.8375
2844.68186	6585.2375
2847.20604	6576.3375
2849.72867	6573.4375
2852.24974	6591.3375
2854.76927	6564.0375
2857.28724	6554.6375
2859.80367	6556.5375
2862.31855	6539.1375
2864.83189	6529.7375
2867.34368	6538.7375
2869.85393	6525.7375
2872.36264	6526.7375
2874.8698	6515.5375
2877.37543	6530.1375
2879.87952	6540.1375
2882.38207	6516.7375
2884.88308	6538.6375
2887.38256	6527.2375
2889.88051	6534.2375
2892.37692	6543.3375
2894.8718	6528.0375
2897.36515	6551.4375
2899.85698	6548.8375
2902.34727	6576.0375
2904.83604	6559.0375
2907.32328	6582.1375
2909.809	6563.2375
2912.29319	6594.0375
2914.77587	6587.5375
2917.25702	6596.4375
2919.73665	6582.8375
2922.21476	6586.8375
2924.69136	6581.3375
2927.16644	6591.0375
2929.64	6558.1375
2932.11205	6586.8375
2934.58258	6555.4375
2937.05161	6567.5375
2939.51912	6559.7375
2941.98513	6532.2375
2944.44962	6518.2375
2946.91261	6506.7375
2949.37409	6509.3375
2951.83407	6515.3375
2954.29254	6509.2375
2956.74951	6490.3375
2959.20498	6518.9375
2961.65895	6449.3375
2964.11142	6491.8375
2966.56239	6477.1375
2969.01186	6457.5375
2971.45984	6451.9375
2973.90632	6468.2375
2976.35131	6460.7375
2978.7948	6436.1375
2981.23681	6419.2375
2983.67732	6406.4375
2986.11635	6392.4375
2988.55388	6365.9375
2990.98993	6361.2375
2993.4245	6375.1375
2995.85758	6326.8375
2998.28917	6329.6375
3000.71928	6342.7375
3003.14791	6301.6375
3005.57506	6314.2375
3008.00073	6304.6375
3010.42493	6306.7375
3012.84764	6297.6375
3015.26888	6291.2375
3017.68865	6277.0375
3020.10694	6268.3375
3022.52376	6247.7375
3024.9391	6235.1375
3027.35298	6235.7375
3029.76539	6242.8375
3032.17632	6249.5375
3034.5858	6250.1375
3036.9938	6249.4375
3039.40034	6236.5375
3041.80542	6230.7375
3044.20903	6225.3375
3046.61118	6202.9375
3049.01187	6197.4375
3051.4111	6210.0375
3053.80888	6202.1375
3056.20519	6193.0375
3058.60005	6170.1375
3060.99345	6158.4375
3063.3854	6133.3375
3065.7759	6147.3375
3068.16494	6141.1375
3070.55254	6116.2375
3072.93868	6119.5375
3075.32338	6091.1375
3077.70662	6090.4375
3080.08842	6049.9375
3082.46878	6081.6375
