Data from AgNPs_FTO_APTES_UA_1uM_CRN_5uM_R6G_10uM_NaF_0.1M_Addition_RamanShift__8__13-45-29-585.txt Node

Date: Thu Jan 27 13:45:29 GMT 2022
User: TCL
Spectrometer: QEP01345
Trigger mode: 4
Integration Time (sec): 7.000000E0
Scans to average: 10
Electric dark correction enabled: true
Nonlinearity correction enabled: false
Boxcar width: 0
XAxis mode: Raman Shifts
Number of Pixels in Spectrum: 1044
>>>>>Begin Spectral Data<<<<<
46.04893	1.6125
50.45542	1.2125
54.85868	-0.5875
59.25871	-2.5875
63.6555	54.1125
68.04907	57.5125
72.43941	57.4125
76.82654	63.8125
81.21044	65.5125
85.59113	63.7125
89.96862	69.2125
94.34289	72.1125
98.71396	74.1125
103.08183	74.4125
107.4465	77.8125
111.80798	79.5125
116.16626	80.8125
120.52136	86.5125
124.87327	89.4125
129.222	88.7125
133.56755	94.0125
137.90993	100.8125
142.24913	110.0125
146.58517	122.1125
150.91804	137.1125
155.24774	164.2125
159.57429	196.4125
163.89768	255.6125
168.21792	339.1125
172.53501	461.0125
176.84895	626.6125
181.15975	874.9125
185.46741	1219.9125
189.77193	1679.5125
194.07331	2260.5125
198.37157	2916.0125
202.6667	3596.2125
206.9587	4286.0125
211.24758	4948.8125
215.53334	5614.4125
219.81599	6318.1125
224.09553	7097.1125
228.37195	7949.7125
232.64527	8887.8125
236.91549	9885.5125
241.18261	10876.0125
245.44663	11819.3125
249.70755	12691.6125
253.96539	13460.2125
258.22014	14078.3125
262.4718	14619.3125
266.72039	14995.7125
270.96589	15182.2125
275.20832	15188.0125
279.44768	15123.4125
283.68397	14955.1125
287.91719	14794.4125
292.14735	14664.8125
296.37445	14632.1125
300.59849	14621.8125
304.81948	14697.1125
309.03742	14725.0125
313.25231	14652.6125
317.46415	14434.7125
321.67296	14197.2125
325.87872	13963.7125
330.08145	13858.4125
334.28114	13828.8125
338.47781	13912.3125
342.67145	14085.7125
346.86207	14284.6125
351.04966	14522.0125
355.23424	14812.6125
359.4158	15027.0125
363.59435	15208.6125
367.76989	15317.2125
371.94243	15436.7125
376.11196	15514.8125
380.27849	15522.2125
384.44203	15622.3125
388.60257	15698.7125
392.76012	15854.6125
396.91468	16051.2125
401.06626	16307.1125
405.21485	16458.1125
409.36047	16397.2125
413.50311	16243.2125
417.64277	16220.7125
421.77947	16218.7125
425.9132	16306.1125
430.04396	16379.3125
434.17176	16440.3125
438.2966	16520.9125
442.41849	16652.4125
446.53742	16974.0125
450.6534	17317.7125
454.76644	17550.4125
458.87653	17652.3125
462.98368	17590.7125
467.08789	17436.6125
471.18916	17266.1125
475.2875	16992.8125
479.38291	16824.3125
483.4754	16704.7125
487.56496	16598.0125
491.6516	16419.6125
495.73531	16313.0125
499.81612	16242.5125
503.89401	16370.5125
507.96899	16449.0125
512.04106	16480.9125
516.11023	16393.0125
520.1765	16270.1125
524.23987	16122.0125
528.30034	16004.7125
532.35792	15852.6125
536.41261	15713.8125
540.46441	15579.8125
544.51333	15562.4125
548.55936	15682.4125
552.60252	15918.2125
556.64279	16200.3125
560.6802	16411.8125
564.71473	16503.1125
568.7464	16669.3125
572.7752	16982.8125
576.80114	17441.7125
580.82422	17944.7125
584.84444	18604.9125
588.86181	19381.7125
592.87633	20070.7125
596.888	19965.5125
600.89682	19157.8125
604.9028	18812.4125
608.90594	19643.5125
612.90624	20756.1125
616.90371	19790.1125
620.89834	17332.3125
624.89015	16126.5125
628.87913	15986.0125
632.86528	16124.6125
636.84862	16116.9125
640.82913	15927.8125
644.80683	15624.2125
648.78172	15441.4125
652.75379	15432.8125
656.72306	15606.5125
660.68952	15804.9125
664.65319	15715.0125
668.61405	15479.6125
672.57211	15443.9125
676.52738	15489.8125
680.47986	15497.9125
684.42955	15397.8125
688.37646	15338.7125
692.32058	15400.1125
696.26192	15587.2125
700.20048	15787.0125
704.13626	15881.2125
708.06928	15874.8125
711.99952	15854.2125
715.927	15827.9125
719.85171	15865.3125
723.77365	15853.4125
727.69284	15629.1125
731.60928	15402.3125
735.52295	15316.8125
739.43388	15353.7125
743.34206	15357.0125
747.24749	15445.6125
751.15017	15566.0125
755.05012	15790.1125
758.94733	16141.1125
762.8418	16721.5125
766.73354	17610.9125
770.62254	18496.5125
774.50882	18648.6125
778.39237	18044.3125
782.27321	17139.6125
786.15132	16308.7125
790.02671	15791.3125
793.89938	15560.7125
797.76935	15437.0125
801.6366	15368.4125
805.50115	15341.2125
809.36299	15255.8125
813.22213	15168.7125
817.07857	15110.7125
820.93231	15053.8125
824.78336	15005.5125
828.63172	14950.0125
832.47738	14945.5125
836.32036	14955.1125
840.16066	14926.8125
843.99827	14928.7125
847.8332	14908.9125
851.66546	14895.2125
855.49504	14888.3125
859.32195	14925.2125
863.1462	14882.6125
866.96777	14896.9125
870.78668	14835.6125
874.60293	14887.1125
878.41652	14892.8125
882.22745	14928.7125
886.03573	15003.2125
889.84136	14988.9125
893.64433	14951.9125
897.44466	14892.5125
901.24235	14815.2125
905.0374	14784.1125
908.8298	14763.4125
912.61957	14770.5125
916.40671	14859.1125
920.19121	15051.1125
923.97308	15172.1125
927.75233	15179.4125
931.52895	15092.4125
935.30295	14904.7125
939.07433	14693.7125
942.84309	14540.2125
946.60924	14470.4125
950.37278	14415.3125
954.13371	14407.7125
957.89203	14355.8125
961.64774	14382.9125
965.40086	14360.1125
969.15137	14345.0125
972.89929	14295.5125
976.64461	14261.8125
980.38733	14234.9125
984.12747	14258.7125
987.86502	14301.2125
991.59999	14363.4125
995.33237	14492.5125
999.06217	14680.6125
1002.78939	14948.2125
1006.51404	15223.2125
1010.23611	15410.8125
1013.95561	15610.5125
1017.67255	15587.1125
1021.38692	15470.2125
1025.09872	15243.6125
1028.80796	15115.0125
1032.51465	15136.0125
1036.21877	15213.2125
1039.92035	15295.9125
1043.61937	15290.6125
1047.31584	15255.9125
1051.00976	15191.9125
1054.70114	15182.1125
1058.38998	15244.8125
1062.07627	15338.6125
1065.76003	15494.4125
1069.44126	15641.5125
1073.11995	15878.2125
1076.79611	16083.1125
1080.46974	16204.0125
1084.14085	16277.3125
1087.80943	16360.8125
1091.47549	16475.3125
1095.13903	16539.6125
1098.80005	16391.2125
1102.45857	16047.3125
1106.11456	15799.8125
1109.76805	15622.7125
1113.41903	15579.6125
1117.06751	15626.7125
1120.71348	15718.4125
1124.35696	15872.5125
1127.99793	16026.0125
1131.63641	16111.5125
1135.2724	16068.0125
1138.90589	15980.2125
1142.5369	16004.4125
1146.16542	16087.8125
1149.79145	16151.7125
1153.415	16217.6125
1157.03607	16339.0125
1160.65467	16690.0125
1164.27079	17301.7125
1167.88443	18026.8125
1171.49561	18820.6125
1175.10432	19728.0125
1178.71056	20879.1125
1182.31434	22062.4125
1185.91565	22613.1125
1189.51451	22624.0125
1193.11091	22280.2125
1196.70485	21712.2125
1200.29634	20989.7125
1203.88538	20534.5125
1207.47197	20257.7125
1211.05612	20048.8125
1214.63782	19764.0125
1218.21708	19253.3125
1221.79391	18786.1125
1225.36829	18414.5125
1228.94024	18242.6125
1232.50976	18102.8125
1236.07685	17911.8125
1239.6415	17831.6125
1243.20374	17804.8125
1246.76355	17907.3125
1250.32093	18125.2125
1253.8759	18382.7125
1257.42845	18811.2125
1260.97859	19311.6125
1264.52631	19782.2125
1268.07163	20239.2125
1271.61453	20693.7125
1275.15503	21103.9125
1278.69312	21567.2125
1282.22882	22037.5125
1285.76211	22680.5125
1289.29301	23358.7125
1292.82151	24235.7125
1296.34761	25324.3125
1299.87133	26613.3125
1303.39266	27911.9125
1306.9116	29038.4125
1310.42815	29966.4125
1313.94233	30314.7125
1317.45412	30056.1125
1320.96354	29552.4125
1324.47058	29101.4125
1327.97525	28813.6125
1331.47754	28660.6125
1334.97747	28547.4125
1338.47502	28319.2125
1341.97022	28059.2125
1345.46305	27829.5125
1348.95352	27602.5125
1352.44163	27645.9125
1355.92738	28093.8125
1359.41078	29113.8125
1362.89183	29995.4125
1366.37053	29769.3125
1369.84688	27858.3125
1373.32088	25130.5125
1376.79254	23116.6125
1380.26186	22328.3125
1383.72883	22255.5125
1387.19347	22281.3125
1390.65578	22016.3125
1394.11575	21763.8125
1397.57339	21863.1125
1401.0287	22130.4125
1404.48168	22428.6125
1407.93234	22448.6125
1411.38068	22162.1125
1414.82669	21647.2125
1418.27039	20963.8125
1421.71177	20299.3125
1425.15083	19678.8125
1428.58758	19488.3125
1432.02203	19622.4125
1435.45416	20069.6125
1438.88399	20597.5125
1442.31151	20930.1125
1445.73673	21089.9125
1449.15965	21190.1125
1452.58027	21146.9125
1455.9986	21036.3125
1459.41463	21103.6125
1462.82837	21358.7125
1466.23982	21720.4125
1469.64898	22099.7125
1473.05586	22297.9125
1476.46045	22395.2125
1479.86276	22328.8125
1483.26279	22144.3125
1486.66054	22023.6125
1490.05602	22120.6125
1493.44922	22361.0125
1496.84016	22661.6125
1500.22882	23109.7125
1503.61521	23676.9125
1506.99934	24340.2125
1510.38121	24852.9125
1513.76081	24953.8125
1517.13816	24514.1125
1520.51324	23847.1125
1523.88607	23375.0125
1527.25665	23091.1125
1530.62498	23009.0125
1533.99105	22870.1125
1537.35488	22566.8125
1540.71647	22118.5125
1544.07581	21577.7125
1547.4329	21072.6125
1550.78776	20628.5125
1554.14038	20351.8125
1557.49077	20187.3125
1560.83892	20079.6125
1564.18484	20004.9125
1567.52853	20054.8125
1570.86999	20194.0125
1574.20922	20508.5125
1577.54624	20797.3125
1580.88103	20885.9125
1584.2136	21026.8125
1587.54395	21540.5125
1590.87208	22457.2125
1594.19801	23681.9125
1597.52172	24833.9125
1600.84321	25169.0125
1604.16251	24173.0125
1607.47959	22481.0125
1610.79447	20713.4125
1614.10715	19164.8125
1617.41763	17859.5125
1620.7259	17011.0125
1624.03199	16543.9125
1627.33587	16546.3125
1630.63757	16896.4125
1633.93707	17799.7125
1637.23439	19275.9125
1640.52951	21562.4125
1643.82246	24282.6125
1647.11321	26426.6125
1650.40179	26891.2125
1653.68819	25085.6125
1656.97241	21923.7125
1660.25446	18962.7125
1663.53433	16832.6125
1666.81203	15512.1125
1670.08756	14677.4125
1673.36092	14167.1125
1676.63211	13842.1125
1679.90115	13612.9125
1683.16801	13419.4125
1686.43272	13290.0125
1689.69527	13172.2125
1692.95567	13082.8125
1696.2139	13006.3125
1699.46999	12933.3125
1702.72392	12846.1125
1705.97571	12854.6125
1709.22535	12871.6125
1712.47284	12867.6125
1715.71819	12863.9125
1718.96139	12838.6125
1722.20246	12816.8125
1725.44139	12798.5125
1728.67818	12716.4125
1731.91284	12642.0125
1735.14537	12561.2125
1738.37576	12519.3125
1741.60403	12459.6125
1744.83017	12426.5125
1748.05418	12404.3125
1751.27607	12370.4125
1754.49584	12323.2125
1757.71349	12307.3125
1760.92903	12266.3125
1764.14244	12271.9125
1767.35375	12256.9125
1770.56294	12245.0125
1773.77002	12246.3125
1776.97499	12238.4125
1780.17785	12208.3125
1783.37861	12224.6125
1786.57727	12179.0125
1789.77382	12190.4125
1792.96828	12175.2125
1796.16064	12131.6125
1799.3509	12118.8125
1802.53907	12073.5125
1805.72514	12055.8125
1808.90913	12020.2125
1812.09102	11994.2125
1815.27083	11970.8125
1818.44856	11946.9125
1821.6242	11953.8125
1824.79776	11938.8125
1827.96924	11926.9125
1831.13864	11925.8125
1834.30597	11918.4125
1837.47122	11919.9125
1840.6344	11925.2125
1843.7955	11898.8125
1846.95454	11905.0125
1850.11151	11888.9125
1853.26642	11884.1125
1856.41926	11891.9125
1859.57004	11897.7125
1862.71876	11883.0125
1865.86542	11859.6125
1869.01003	11815.6125
1872.15258	11811.5125
1875.29308	11806.8125
1878.43152	11775.2125
1881.56792	11761.4125
1884.70227	11728.4125
1887.83457	11718.2125
1890.96482	11718.3125
1894.09304	11693.9125
1897.21921	11679.3125
1900.34335	11660.1125
1903.46544	11652.6125
1906.58551	11639.0125
1909.70353	11628.8125
1912.81953	11582.0125
1915.93349	11580.3125
1919.04543	11545.3125
1922.15534	11506.9125
1925.26322	11506.4125
1928.36908	11478.1125
1931.47292	11433.2125
1934.57473	11400.0125
1937.67453	11396.8125
1940.77232	11400.6125
1943.86808	11338.2125
1946.96184	11328.0125
1950.05358	11263.5125
1953.14331	11238.2125
1956.23103	11216.3125
1959.31675	11197.2125
1962.40046	11172.1125
1965.48217	11165.5125
1968.56188	11077.6125
1971.63959	11057.1125
1974.7153	10999.2125
1977.78901	10989.9125
1980.86073	10944.9125
1983.93046	10909.6125
1986.99819	10880.9125
1990.06394	10857.2125
1993.1277	10836.4125
1996.18947	10786.4125
1999.24925	10751.3125
2002.30706	10724.1125
2005.36288	10689.6125
2008.41672	10682.9125
2011.46859	10646.0125
2014.51848	10604.1125
2017.56639	10592.8125
2020.61233	10580.1125
2023.6563	10571.2125
2026.6983	10530.5125
2029.73833	10494.4125
2032.7764	10454.8125
2035.8125	10460.6125
2038.84664	10396.0125
2041.87881	10422.8125
2044.90903	10392.6125
2047.93729	10336.8125
2050.96359	10347.2125
2053.98794	10318.4125
2057.01034	10306.9125
2060.03078	10309.7125
2063.04927	10295.6125
2066.06582	10306.2125
2069.08042	10310.8125
2072.09307	10286.3125
2075.10378	10278.6125
2078.11255	10282.1125
2081.11938	10266.0125
2084.12426	10251.9125
2087.12722	10259.7125
2090.12824	10256.8125
2093.12732	10224.1125
2096.12447	10247.8125
2099.11969	10251.8125
2102.11299	10258.8125
2105.10435	10261.4125
2108.09379	10271.3125
2111.08131	10270.7125
2114.0669	10267.1125
2117.05057	10305.5125
2120.03233	10288.1125
2123.01216	10311.4125
2125.99008	10290.9125
2128.96609	10276.3125
2131.94018	10330.0125
2134.91236	10316.6125
2137.88263	10331.6125
2140.851	10351.2125
2143.81746	10328.9125
2146.78201	10334.2125
2149.74466	10338.7125
2152.7054	10336.7125
2155.66425	10346.3125
2158.6212	10327.3125
2161.57625	10297.8125
2164.52941	10315.3125
2167.48067	10292.4125
2170.43004	10299.1125
2173.37752	10307.8125
2176.32311	10300.7125
2179.26681	10296.6125
2182.20863	10294.9125
2185.14856	10304.7125
2188.08661	10308.8125
2191.02278	10286.4125
2193.95707	10277.9125
2196.88948	10282.1125
2199.82001	10279.9125
2202.74867	10258.4125
2205.67545	10246.1125
2208.60037	10243.5125
2211.52341	10218.0125
2214.44458	10205.6125
2217.36388	10186.0125
2220.28132	10143.0125
2223.1969	10141.4125
2226.11061	10117.6125
2229.02246	10110.1125
2231.93245	10102.3125
2234.84058	10090.2125
2237.74686	10050.3125
2240.65128	10069.3125
2243.55385	10052.5125
2246.45456	10051.4125
2249.35343	10025.7125
2252.25044	9999.6125
2255.14561	9960.5125
2258.03893	9959.0125
2260.93041	9933.7125
2263.82004	9910.4125
2266.70783	9883.9125
2269.59378	9865.7125
2272.4779	9835.9125
2275.36017	9838.4125
2278.24061	9822.8125
2281.11922	9823.3125
2283.996	9808.2125
2286.87094	9790.9125
2289.74405	9756.8125
2292.61534	9744.1125
2295.4848	9721.0125
2298.35243	9720.2125
2301.21824	9703.0125
2304.08223	9696.3125
2306.94439	9707.8125
2309.80474	9712.0125
2312.66327	9692.6125
2315.51999	9698.5125
2318.37489	9698.1125
2321.22797	9670.1125
2324.07925	9666.2125
2326.92871	9635.4125
2329.77637	9623.7125
2332.62222	9620.8125
2335.46626	9587.6125
2338.3085	9576.4125
2341.14893	9578.1125
2343.98756	9590.5125
2346.8244	9565.5125
2349.65943	9578.7125
2352.49267	9560.3125
2355.32411	9552.9125
2358.15376	9555.4125
2360.98161	9536.2125
2363.80768	9542.6125
2366.63195	9556.4125
2369.45444	9516.6125
2372.27514	9499.5125
2375.09405	9503.1125
2377.91118	9477.7125
2380.72652	9466.1125
2383.54009	9431.7125
2386.35187	9438.2125
2389.16188	9422.0125
2391.97011	9388.6125
2394.77657	9366.5125
2397.58125	9359.1125
2400.38416	9339.9125
2403.18529	9315.9125
2405.98466	9343.6125
2408.78226	9285.4125
2411.57809	9290.9125
2414.37216	9293.0125
2417.16446	9256.2125
2419.955	9266.1125
2422.74378	9278.5125
2425.5308	9243.6125
2428.31606	9259.3125
2431.09956	9231.0125
2433.88131	9232.0125
2436.6613	9235.1125
2439.43954	9240.7125
2442.21603	9227.2125
2444.99077	9205.2125
2447.76377	9204.8125
2450.53501	9191.9125
2453.30451	9195.8125
2456.07226	9192.6125
2458.83827	9168.4125
2461.60254	9168.2125
2464.36507	9170.3125
2467.12586	9174.1125
2469.88492	9138.8125
2472.64224	9155.6125
2475.39782	9145.3125
2478.15167	9151.4125
2480.90379	9139.1125
2483.65417	9146.9125
2486.40283	9139.2125
2489.14976	9140.6125
2491.89497	9127.9125
2494.63845	9142.5125
2497.3802	9107.6125
2500.12024	9116.1125
2502.85855	9080.5125
2505.59514	9105.7125
2508.33002	9109.7125
2511.06318	9103.5125
2513.79462	9086.2125
2516.52435	9073.3125
2519.25237	9075.4125
2521.97867	9052.6125
2524.70327	9046.8125
2527.42616	9046.0125
2530.14734	9046.3125
2532.86681	9033.9125
2535.58458	9020.3125
2538.30065	8986.2125
2541.01501	9002.8125
2543.72768	8986.1125
2546.43864	8979.9125
2549.14791	8986.1125
2551.85548	8961.8125
2554.56136	8956.9125
2557.26554	8919.2125
2559.96803	8927.6125
2562.66883	8911.3125
2565.36794	8929.0125
2568.06536	8904.9125
2570.7611	8872.0125
2573.45514	8873.6125
2576.14751	8852.2125
2578.83819	8833.2125
2581.52719	8824.5125
2584.21451	8817.9125
2586.90015	8807.8125
2589.58411	8805.1125
2592.2664	8787.4125
2594.94701	8774.4125
2597.62594	8763.0125
2600.30321	8770.8125
2602.9788	8742.1125
2605.65273	8757.0125
2608.32498	8761.4125
2610.99557	8755.0125
2613.66449	8750.1125
2616.33175	8739.0125
2618.99734	8720.1125
2621.66128	8698.6125
2624.32355	8711.0125
2626.98416	8685.1125
2629.64311	8662.0125
2632.30041	8687.6125
2634.95605	8656.1125
2637.61004	8660.4125
2640.26238	8642.4125
2642.91306	8636.9125
2645.56209	8650.2125
2648.20948	8633.3125
2650.85521	8623.9125
2653.4993	8634.7125
2656.14175	8642.1125
2658.78255	8665.4125
2661.42171	8665.5125
2664.05923	8659.5125
2666.6951	8646.0125
2669.32934	8636.2125
2671.96194	8633.8125
2674.59291	8648.6125
2677.22224	8671.8125
2679.84993	8655.7125
2682.476	8651.3125
2685.10043	8637.8125
2687.72324	8636.7125
2690.34441	8614.6125
2692.96396	8641.9125
2695.58188	8620.0125
2698.19818	8626.0125
2700.81285	8635.0125
2703.4259	8608.3125
2706.03733	8615.0125
2708.64714	8605.5125
2711.25533	8625.7125
2713.86191	8627.3125
2716.46687	8633.7125
2719.07021	8658.3125
2721.67194	8657.3125
2724.27206	8642.4125
2726.87057	8668.7125
2729.46747	8662.3125
2732.06276	8670.2125
2734.65644	8661.5125
2737.24852	8663.4125
2739.83899	8640.5125
2742.42786	8653.4125
2745.01513	8590.7125
2747.60079	8626.0125
2750.18486	8622.8125
2752.76733	8604.3125
2755.3482	8589.9125
2757.92747	8592.3125
2760.50515	8586.5125
2763.08123	8580.7125
2765.65573	8567.5125
2768.22863	8572.4125
2770.79994	8557.6125
2773.36967	8551.0125
2775.9378	8579.0125
2778.50435	8530.5125
2781.06932	8518.7125
2783.6327	8538.8125
2786.1945	8525.0125
2788.75471	8507.4125
2791.31335	8489.1125
2793.87041	8465.5125
2796.42589	8468.2125
2798.97979	8477.2125
2801.53212	8444.4125
2804.08288	8433.4125
2806.63206	8418.2125
2809.17967	8393.8125
2811.72571	8373.6125
2814.27018	8338.8125
2816.81308	8334.0125
2819.35442	8338.4125
2821.89419	8328.5125
2824.43239	8312.4125
2826.96904	8309.9125
2829.50412	8320.2125
2832.03763	8280.2125
2834.56959	8306.0125
2837.1	8274.8125
2839.62884	8293.3125
2842.15613	8269.3125
2844.68186	8300.1125
2847.20604	8309.6125
2849.72867	8305.2125
2852.24974	8297.3125
2854.76927	8279.3125
2857.28724	8274.6125
2859.80367	8264.4125
2862.31855	8251.2125
2864.83189	8224.3125
2867.34368	8212.2125
2869.85393	8222.6125
2872.36264	8198.9125
2874.8698	8206.3125
2877.37543	8185.0125
2879.87952	8192.0125
2882.38207	8180.4125
2884.88308	8185.6125
2887.38256	8191.3125
2889.88051	8173.3125
2892.37692	8180.3125
2894.8718	8179.0125
2897.36515	8199.1125
2899.85698	8182.3125
2902.34727	8201.6125
2904.83604	8202.2125
2907.32328	8212.3125
2909.809	8204.9125
2912.29319	8210.9125
2914.77587	8203.8125
2917.25702	8186.0125
2919.73665	8190.0125
2922.21476	8183.3125
2924.69136	8195.6125
2927.16644	8198.0125
2929.64	8190.9125
2932.11205	8203.4125
2934.58258	8171.5125
2937.05161	8152.2125
2939.51912	8156.3125
2941.98513	8133.7125
2944.44962	8110.7125
2946.91261	8084.8125
2949.37409	8096.3125
2951.83407	8085.9125
2954.29254	8100.8125
2956.74951	8079.5125
2959.20498	8064.7125
2961.65895	8057.2125
2964.11142	8082.5125
2966.56239	8038.8125
2969.01186	8044.4125
2971.45984	8029.8125
2973.90632	8023.6125
2976.35131	7998.6125
2978.7948	8007.8125
2981.23681	7973.2125
2983.67732	7969.4125
2986.11635	7944.3125
2988.55388	7916.9125
2990.98993	7897.1125
2993.4245	7861.4125
2995.85758	7865.5125
2998.28917	7847.3125
3000.71928	7845.7125
3003.14791	7814.2125
3005.57506	7814.4125
3008.00073	7792.0125
3010.42493	7784.3125
3012.84764	7775.9125
3015.26888	7776.8125
3017.68865	7741.1125
3020.10694	7758.5125
3022.52376	7734.6125
3024.9391	7728.7125
3027.35298	7699.7125
3029.76539	7717.9125
3032.17632	7707.6125
3034.5858	7688.4125
3036.9938	7673.2125
3039.40034	7666.8125
3041.80542	7666.7125
3044.20903	7665.1125
3046.61118	7650.3125
3049.01187	7630.3125
3051.4111	7648.2125
3053.80888	7629.2125
3056.20519	7597.0125
3058.60005	7561.6125
