Data from AgNPs_FTO_APTES_UA_1uM_CRN_100uM_R6G_10uM_NaF_0.1M_Addition_RamanShift__26__16-50-59-797.txt Node

Date: Thu Jan 27 16:50:59 GMT 2022
User: TCL
Spectrometer: QEP01345
Trigger mode: 4
Integration Time (sec): 7.000000E0
Scans to average: 10
Electric dark correction enabled: true
Nonlinearity correction enabled: false
Boxcar width: 0
XAxis mode: Raman Shifts
Number of Pixels in Spectrum: 1044
>>>>>Begin Spectral Data<<<<<
46.04893	0.2875
50.45542	0.2875
54.85868	-2.6125
59.25871	-1.3125
63.6555	45.0875
68.04907	47.7875
72.43941	51.8875
76.82654	57.0875
81.21044	56.1875
85.59113	56.1875
89.96862	59.9875
94.34289	65.5875
98.71396	67.2875
103.08183	65.6875
107.4465	72.9875
111.80798	67.6875
116.16626	70.0875
120.52136	76.7875
124.87327	77.6875
129.222	75.8875
133.56755	81.8875
137.90993	85.0875
142.24913	95.6875
146.58517	104.4875
150.91804	116.0875
155.24774	137.1875
159.57429	165.0875
163.89768	211.4875
168.21792	274.9875
172.53501	372.2875
176.84895	513.0875
181.15975	717.2875
185.46741	995.2875
189.77193	1381.8875
194.07331	1834.7875
198.37157	2377.6875
202.6667	2947.9875
206.9587	3519.2875
211.24758	4063.4875
215.53334	4613.1875
219.81599	5210.4875
224.09553	5893.4875
228.37195	6640.2875
232.64527	7437.7875
236.91549	8321.9875
241.18261	9135.3875
245.44663	9865.6875
249.70755	10519.2875
253.96539	11089.9875
258.22014	11592.2875
262.4718	12034.3875
266.72039	12360.6875
270.96589	12551.5875
275.20832	12613.1875
279.44768	12602.2875
283.68397	12473.9875
287.91719	12437.2875
292.14735	12420.7875
296.37445	12527.2875
300.59849	12711.3875
304.81948	12915.8875
309.03742	13020.1875
313.25231	12864.3875
317.46415	12423.8875
321.67296	11778.4875
325.87872	11287.2875
330.08145	11036.1875
334.28114	11043.8875
338.47781	11196.5875
342.67145	11398.9875
346.86207	11684.7875
351.04966	12109.0875
355.23424	12614.3875
359.4158	13014.5875
363.59435	13217.0875
367.76989	13338.0875
371.94243	13394.7875
376.11196	13413.3875
380.27849	13421.9875
384.44203	13427.7875
388.60257	13377.9875
392.76012	13409.7875
396.91468	13504.0875
401.06626	13780.4875
405.21485	13994.1875
409.36047	13898.1875
413.50311	13459.2875
417.64277	13067.7875
421.77947	12929.7875
425.9132	12872.7875
430.04396	12923.2875
434.17176	13001.1875
438.2966	13170.0875
442.41849	13418.0875
446.53742	13786.6875
450.6534	14138.7875
454.76644	14405.2875
458.87653	14541.0875
462.98368	14469.5875
467.08789	14326.2875
471.18916	14127.2875
475.2875	13969.0875
479.38291	13863.6875
483.4754	13706.5875
487.56496	13528.5875
491.6516	13302.9875
495.73531	13174.1875
499.81612	13116.4875
503.89401	13188.9875
507.96899	13238.4875
512.04106	13288.4875
516.11023	13362.4875
520.1765	13408.3875
524.23987	13321.6875
528.30034	13186.0875
532.35792	13002.9875
536.41261	12830.1875
540.46441	12671.2875
544.51333	12623.7875
548.55936	12767.7875
552.60252	13000.6875
556.64279	13273.1875
560.6802	13455.4875
564.71473	13562.4875
568.7464	13880.2875
572.7752	14167.6875
576.80114	14098.1875
580.82422	13931.4875
584.84444	13860.3875
588.86181	13892.2875
592.87633	14026.0875
596.888	14161.7875
600.89682	14360.1875
604.9028	15208.4875
608.90594	17395.7875
612.90624	20366.0875
616.90371	19771.6875
620.89834	15555.4875
624.89015	13598.7875
628.87913	13293.6875
632.86528	13308.8875
636.84862	13324.0875
640.82913	13145.7875
644.80683	12766.4875
648.78172	12520.2875
652.75379	12510.9875
656.72306	12736.7875
660.68952	13129.1875
664.65319	13095.5875
668.61405	12751.7875
672.57211	12585.1875
676.52738	12565.4875
680.47986	12580.9875
684.42955	12554.8875
688.37646	12533.5875
692.32058	12557.4875
696.26192	12635.4875
700.20048	12748.6875
704.13626	12819.3875
708.06928	12804.7875
711.99952	12702.6875
715.927	12663.3875
719.85171	12705.7875
723.77365	12680.8875
727.69284	12623.2875
731.60928	12536.8875
735.52295	12505.3875
739.43388	12507.1875
743.34206	12553.6875
747.24749	12613.7875
751.15017	12713.6875
755.05012	12908.1875
758.94733	13330.4875
762.8418	14117.6875
766.73354	15483.5875
770.62254	16964.5875
774.50882	17647.8875
778.39237	17025.1875
782.27321	15386.3875
786.15132	13942.9875
790.02671	13107.6875
793.89938	12713.7875
797.76935	12551.5875
801.6366	12493.5875
805.50115	12454.2875
809.36299	12420.4875
813.22213	12379.3875
817.07857	12355.9875
820.93231	12399.7875
824.78336	12370.4875
828.63172	12382.9875
832.47738	12416.3875
836.32036	12414.9875
840.16066	12412.4875
843.99827	12398.3875
847.8332	12386.1875
851.66546	12346.5875
855.49504	12300.4875
859.32195	12301.8875
863.1462	12270.3875
866.96777	12214.9875
870.78668	12194.4875
874.60293	12214.3875
878.41652	12219.0875
882.22745	12258.1875
886.03573	12301.8875
889.84136	12298.5875
893.64433	12237.4875
897.44466	12160.4875
901.24235	12174.5875
905.0374	12163.7875
908.8298	12122.7875
912.61957	12157.2875
916.40671	12233.2875
920.19121	12325.9875
923.97308	12416.8875
927.75233	12449.8875
931.52895	12499.0875
935.30295	12431.5875
939.07433	12194.3875
942.84309	12011.5875
946.60924	11897.2875
950.37278	11819.4875
954.13371	11764.3875
957.89203	11726.1875
961.64774	11707.0875
965.40086	11679.3875
969.15137	11604.0875
972.89929	11563.4875
976.64461	11549.1875
980.38733	11544.2875
984.12747	11536.5875
987.86502	11649.3875
991.59999	11748.1875
995.33237	11940.8875
999.06217	12221.6875
1002.78939	12522.4875
1006.51404	12737.4875
1010.23611	12897.1875
1013.95561	13004.9875
1017.67255	13056.8875
1021.38692	12920.9875
1025.09872	12804.4875
1028.80796	12824.0875
1032.51465	13023.8875
1036.21877	13223.4875
1039.92035	13278.0875
1043.61937	13161.9875
1047.31584	12919.9875
1051.00976	12709.4875
1054.70114	12636.0875
1058.38998	12626.5875
1062.07627	12698.3875
1065.76003	12753.0875
1069.44126	12832.3875
1073.11995	12900.5875
1076.79611	12961.0875
1080.46974	13033.3875
1084.14085	13138.7875
1087.80943	13344.2875
1091.47549	13426.6875
1095.13903	13368.3875
1098.80005	13133.9875
1102.45857	12871.1875
1106.11456	12734.8875
1109.76805	12734.1875
1113.41903	12893.2875
1117.06751	13110.5875
1120.71348	13366.4875
1124.35696	13636.0875
1127.99793	13882.9875
1131.63641	13948.6875
1135.2724	13634.9875
1138.90589	13295.1875
1142.5369	13075.0875
1146.16542	12979.4875
1149.79145	12915.1875
1153.415	12972.6875
1157.03607	13075.6875
1160.65467	13315.6875
1164.27079	13668.1875
1167.88443	14214.2875
1171.49561	15043.0875
1175.10432	16280.6875
1178.71056	17864.7875
1182.31434	19190.8875
1185.91565	19743.7875
1189.51451	19607.4875
1193.11091	18933.8875
1196.70485	17936.5875
1200.29634	17145.5875
1203.88538	16479.8875
1207.47197	15846.4875
1211.05612	15335.2875
1214.63782	14986.2875
1218.21708	14863.8875
1221.79391	14833.7875
1225.36829	14798.5875
1228.94024	14773.0875
1232.50976	14678.3875
1236.07685	14592.1875
1239.6415	14559.6875
1243.20374	14568.3875
1246.76355	14647.9875
1250.32093	14844.3875
1253.8759	15112.0875
1257.42845	15471.5875
1260.97859	15832.3875
1264.52631	16137.0875
1268.07163	16456.0875
1271.61453	16785.9875
1275.15503	17115.9875
1278.69312	17474.1875
1282.22882	17714.8875
1285.76211	18008.1875
1289.29301	18413.3875
1292.82151	18943.7875
1296.34761	19568.6875
1299.87133	20425.6875
1303.39266	21610.7875
1306.9116	23212.5875
1310.42815	25060.2875
1313.94233	26299.4875
1317.45412	26323.6875
1320.96354	25460.2875
1324.47058	24402.5875
1327.97525	23441.9875
1331.47754	22876.2875
1334.97747	22663.1875
1338.47502	22765.8875
1341.97022	23079.7875
1345.46305	23258.0875
1348.95352	23333.5875
1352.44163	23516.3875
1355.92738	24259.4875
1359.41078	25975.1875
1362.89183	27937.2875
1366.37053	27624.5875
1369.84688	24650.9875
1373.32088	21445.1875
1376.79254	19445.0875
1380.26186	18523.2875
1383.72883	18171.4875
1387.19347	18078.0875
1390.65578	17852.4875
1394.11575	17772.0875
1397.57339	17878.7875
1401.0287	18200.8875
1404.48168	18593.5875
1407.93234	18832.9875
1411.38068	18949.4875
1414.82669	18679.3875
1418.27039	18156.2875
1421.71177	17512.6875
1425.15083	16925.6875
1428.58758	16597.5875
1432.02203	16530.1875
1435.45416	16644.9875
1438.88399	16811.8875
1442.31151	16981.5875
1445.73673	17123.4875
1449.15965	17351.1875
1452.58027	17494.5875
1455.9986	17546.3875
1459.41463	17620.4875
1462.82837	17792.3875
1466.23982	18083.8875
1469.64898	18323.5875
1473.05586	18453.9875
1476.46045	18492.1875
1479.86276	18536.2875
1483.26279	18586.9875
1486.66054	18670.5875
1490.05602	18910.8875
1493.44922	19183.8875
1496.84016	19617.5875
1500.22882	20260.2875
1503.61521	21317.3875
1506.99934	22721.4875
1510.38121	24248.6875
1513.76081	25144.7875
1517.13816	24634.5875
1520.51324	22947.4875
1523.88607	21078.1875
1527.25665	19750.1875
1530.62498	18963.6875
1533.99105	18525.1875
1537.35488	18292.9875
1540.71647	18132.7875
1544.07581	17944.5875
1547.4329	17815.7875
1550.78776	17681.3875
1554.14038	17614.6875
1557.49077	17669.9875
1560.83892	17788.0875
1564.18484	17969.4875
1567.52853	18115.4875
1570.86999	18229.8875
1574.20922	18379.0875
1577.54624	18437.6875
1580.88103	18132.8875
1584.2136	17778.7875
1587.54395	17790.2875
1590.87208	18294.8875
1594.19801	19248.5875
1597.52172	20338.5875
1600.84321	20861.4875
1604.16251	20267.9875
1607.47959	19058.6875
1610.79447	17700.1875
1614.10715	16361.5875
1617.41763	15312.2875
1620.7259	14636.6875
1624.03199	14213.0875
1627.33587	14178.5875
1630.63757	14495.2875
1633.93707	15089.2875
1637.23439	16047.0875
1640.52951	17311.6875
1643.82246	18784.9875
1647.11321	20255.5875
1650.40179	21013.2875
1653.68819	20376.2875
1656.97241	18348.5875
1660.25446	15993.3875
1663.53433	14235.0875
1666.81203	13140.4875
1670.08756	12490.0875
1673.36092	12109.8875
1676.63211	11839.5875
1679.90115	11642.7875
1683.16801	11521.3875
1686.43272	11388.4875
1689.69527	11297.7875
1692.95567	11210.8875
1696.2139	11164.3875
1699.46999	11111.3875
1702.72392	11057.8875
1705.97571	11068.8875
1709.22535	11092.8875
1712.47284	11117.5875
1715.71819	11148.2875
1718.96139	11141.5875
1722.20246	11123.6875
1725.44139	11074.8875
1728.67818	11050.2875
1731.91284	10982.3875
1735.14537	10909.7875
1738.37576	10889.4875
1741.60403	10871.5875
1744.83017	10843.2875
1748.05418	10803.3875
1751.27607	10800.2875
1754.49584	10735.1875
1757.71349	10738.4875
1760.92903	10719.2875
1764.14244	10691.5875
1767.35375	10697.8875
1770.56294	10727.3875
1773.77002	10682.7875
1776.97499	10649.1875
1780.17785	10681.9875
1783.37861	10667.9875
1786.57727	10648.3875
1789.77382	10658.7875
1792.96828	10635.2875
1796.16064	10629.2875
1799.3509	10613.1875
1802.53907	10600.2875
1805.72514	10587.8875
1808.90913	10563.2875
1812.09102	10544.9875
1815.27083	10511.4875
1818.44856	10516.9875
1821.6242	10476.2875
1824.79776	10491.0875
1827.96924	10475.4875
1831.13864	10461.6875
1834.30597	10461.2875
1837.47122	10468.1875
1840.6344	10460.4875
1843.7955	10465.4875
1846.95454	10431.1875
1850.11151	10451.2875
1853.26642	10450.9875
1856.41926	10427.3875
1859.57004	10483.8875
1862.71876	10448.7875
1865.86542	10461.8875
1869.01003	10460.1875
1872.15258	10465.7875
1875.29308	10459.4875
1878.43152	10448.1875
1881.56792	10453.7875
1884.70227	10437.2875
1887.83457	10444.4875
1890.96482	10462.4875
1894.09304	10439.8875
1897.21921	10432.8875
1900.34335	10397.3875
1903.46544	10424.0875
1906.58551	10432.1875
1909.70353	10401.2875
1912.81953	10411.2875
1915.93349	10389.0875
1919.04543	10397.8875
1922.15534	10387.8875
1925.26322	10387.6875
1928.36908	10340.4875
1931.47292	10306.9875
1934.57473	10291.7875
1937.67453	10285.3875
1940.77232	10244.7875
1943.86808	10194.4875
1946.96184	10174.8875
1950.05358	10131.2875
1953.14331	10094.9875
1956.23103	10076.7875
1959.31675	10046.8875
1962.40046	10024.2875
1965.48217	9971.1875
1968.56188	9961.9875
1971.63959	9923.6875
1974.7153	9916.3875
1977.78901	9885.3875
1980.86073	9844.6875
1983.93046	9824.5875
1986.99819	9804.9875
1990.06394	9759.6875
1993.1277	9713.2875
1996.18947	9706.0875
1999.24925	9687.3875
2002.30706	9675.2875
2005.36288	9626.2875
2008.41672	9614.2875
2011.46859	9589.2875
2014.51848	9566.3875
2017.56639	9537.9875
2020.61233	9520.1875
2023.6563	9494.4875
2026.6983	9474.1875
2029.73833	9463.0875
2032.7764	9447.4875
2035.8125	9429.5875
2038.84664	9418.1875
2041.87881	9398.4875
2044.90903	9381.7875
2047.93729	9347.0875
2050.96359	9341.1875
2053.98794	9338.7875
2057.01034	9340.3875
2060.03078	9322.4875
2063.04927	9333.1875
2066.06582	9308.1875
2069.08042	9328.9875
2072.09307	9305.8875
2075.10378	9291.5875
2078.11255	9306.4875
2081.11938	9300.5875
2084.12426	9267.1875
2087.12722	9262.2875
2090.12824	9250.8875
2093.12732	9277.3875
2096.12447	9253.6875
2099.11969	9225.7875
2102.11299	9264.0875
2105.10435	9274.7875
2108.09379	9275.2875
2111.08131	9280.6875
2114.0669	9268.8875
2117.05057	9290.9875
2120.03233	9292.0875
2123.01216	9322.7875
2125.99008	9307.6875
2128.96609	9329.7875
2131.94018	9328.1875
2134.91236	9340.7875
2137.88263	9356.8875
2140.851	9347.9875
2143.81746	9346.6875
2146.78201	9372.9875
2149.74466	9371.2875
2152.7054	9375.0875
2155.66425	9355.0875
2158.6212	9378.1875
2161.57625	9343.4875
2164.52941	9349.1875
2167.48067	9352.2875
2170.43004	9351.8875
2173.37752	9339.8875
2176.32311	9354.4875
2179.26681	9371.4875
2182.20863	9360.4875
2185.14856	9341.4875
2188.08661	9364.5875
2191.02278	9378.4875
2193.95707	9346.4875
2196.88948	9352.1875
2199.82001	9346.3875
2202.74867	9320.1875
2205.67545	9330.8875
2208.60037	9323.4875
2211.52341	9306.6875
2214.44458	9308.9875
2217.36388	9281.6875
2220.28132	9266.3875
2223.1969	9254.2875
2226.11061	9255.3875
2229.02246	9213.2875
2231.93245	9227.4875
2234.84058	9191.8875
2237.74686	9186.7875
2240.65128	9162.5875
2243.55385	9142.3875
2246.45456	9155.7875
2249.35343	9134.3875
2252.25044	9115.9875
2255.14561	9109.9875
2258.03893	9093.3875
2260.93041	9100.6875
2263.82004	9087.0875
2266.70783	9080.2875
2269.59378	9028.8875
2272.4779	9002.6875
2275.36017	8995.1875
2278.24061	9005.0875
2281.11922	8963.4875
2283.996	8957.4875
2286.87094	8921.5875
2289.74405	8935.2875
2292.61534	8919.8875
2295.4848	8912.5875
2298.35243	8907.0875
2301.21824	8921.4875
2304.08223	8908.8875
2306.94439	8922.2875
2309.80474	8924.4875
2312.66327	8906.5875
2315.51999	8900.6875
2318.37489	8917.3875
2321.22797	8879.0875
2324.07925	8903.9875
2326.92871	8864.8875
2329.77637	8885.8875
2332.62222	8834.4875
2335.46626	8862.9875
2338.3085	8856.1875
2341.14893	8851.9875
2343.98756	8849.1875
2346.8244	8863.7875
2349.65943	8842.8875
2352.49267	8839.8875
2355.32411	8863.4875
2358.15376	8843.0875
2360.98161	8859.2875
2363.80768	8817.9875
2366.63195	8852.6875
2369.45444	8824.9875
2372.27514	8816.3875
2375.09405	8803.4875
2377.91118	8788.0875
2380.72652	8752.7875
2383.54009	8721.8875
2386.35187	8729.2875
2389.16188	8697.9875
2391.97011	8669.2875
2394.77657	8669.3875
2397.58125	8644.7875
2400.38416	8641.0875
2403.18529	8631.3875
2405.98466	8617.1875
2408.78226	8592.2875
2411.57809	8570.1875
2414.37216	8561.9875
2417.16446	8574.1875
2419.955	8543.2875
2422.74378	8559.3875
2425.5308	8543.8875
2428.31606	8533.2875
2431.09956	8520.0875
2433.88131	8534.5875
2436.6613	8526.2875
2439.43954	8503.5875
2442.21603	8503.7875
2444.99077	8488.9875
2447.76377	8510.1875
2450.53501	8512.4875
2453.30451	8496.9875
2456.07226	8488.8875
2458.83827	8480.4875
2461.60254	8472.8875
2464.36507	8475.6875
2467.12586	8467.6875
2469.88492	8462.3875
2472.64224	8480.5875
2475.39782	8453.2875
2478.15167	8453.0875
2480.90379	8447.4875
2483.65417	8467.0875
2486.40283	8496.0875
2489.14976	8496.6875
2491.89497	8495.7875
2494.63845	8485.2875
2497.3802	8489.1875
2500.12024	8473.4875
2502.85855	8495.0875
2505.59514	8483.9875
2508.33002	8488.7875
2511.06318	8454.5875
2513.79462	8438.7875
2516.52435	8415.8875
2519.25237	8416.6875
2521.97867	8418.3875
2524.70327	8398.4875
2527.42616	8378.4875
2530.14734	8367.3875
2532.86681	8386.8875
2535.58458	8367.7875
2538.30065	8333.9875
2541.01501	8364.4875
2543.72768	8357.4875
2546.43864	8320.3875
2549.14791	8333.7875
2551.85548	8328.0875
2554.56136	8290.5875
2557.26554	8299.2875
2559.96803	8295.2875
2562.66883	8281.4875
2565.36794	8292.7875
2568.06536	8271.6875
2570.7611	8249.0875
2573.45514	8250.6875
2576.14751	8231.3875
2578.83819	8233.8875
2581.52719	8240.1875
2584.21451	8221.4875
2586.90015	8227.9875
2589.58411	8203.6875
2592.2664	8201.6875
2594.94701	8213.0875
2597.62594	8191.1875
2600.30321	8200.1875
2602.9788	8179.4875
2605.65273	8170.5875
2608.32498	8172.3875
2610.99557	8169.6875
2613.66449	8155.7875
2616.33175	8161.4875
2618.99734	8172.2875
2621.66128	8179.0875
2624.32355	8153.7875
2626.98416	8163.0875
2629.64311	8154.7875
2632.30041	8163.1875
2634.95605	8119.9875
2637.61004	8099.6875
2640.26238	8128.5875
2642.91306	8111.4875
2645.56209	8091.2875
2648.20948	8091.8875
2650.85521	8098.2875
2653.4993	8099.3875
2656.14175	8091.1875
2658.78255	8106.3875
2661.42171	8128.8875
2664.05923	8126.3875
2666.6951	8126.4875
2669.32934	8107.1875
2671.96194	8103.5875
2674.59291	8130.3875
2677.22224	8098.0875
2679.84993	8122.7875
2682.476	8104.4875
2685.10043	8116.9875
2687.72324	8082.9875
2690.34441	8095.2875
2692.96396	8109.1875
2695.58188	8105.6875
2698.19818	8100.7875
2700.81285	8106.9875
2703.4259	8090.0875
2706.03733	8101.9875
2708.64714	8073.4875
2711.25533	8100.4875
2713.86191	8103.2875
2716.46687	8104.6875
2719.07021	8133.9875
2721.67194	8125.9875
2724.27206	8116.1875
2726.87057	8140.4875
2729.46747	8137.9875
2732.06276	8137.0875
2734.65644	8112.2875
2737.24852	8114.6875
2739.83899	8123.6875
2742.42786	8126.1875
2745.01513	8095.4875
2747.60079	8105.6875
2750.18486	8119.3875
2752.76733	8101.0875
2755.3482	8084.5875
2757.92747	8102.8875
2760.50515	8092.2875
2763.08123	8080.4875
2765.65573	8075.8875
2768.22863	8074.3875
2770.79994	8068.8875
2773.36967	8067.6875
2775.9378	8051.6875
2778.50435	8050.5875
2781.06932	8037.1875
2783.6327	8052.8875
2786.1945	8065.9875
2788.75471	8020.2875
2791.31335	8006.1875
2793.87041	7996.1875
2796.42589	7980.4875
2798.97979	7976.9875
2801.53212	7966.9875
2804.08288	7966.5875
2806.63206	7951.2875
2809.17967	7918.8875
2811.72571	7916.3875
2814.27018	7911.8875
2816.81308	7898.6875
2819.35442	7892.8875
2821.89419	7888.3875
2824.43239	7914.1875
2826.96904	7885.7875
2829.50412	7896.3875
2832.03763	7884.3875
2834.56959	7889.4875
2837.1	7879.8875
2839.62884	7873.5875
2842.15613	7858.5875
2844.68186	7905.2875
2847.20604	7920.7875
2849.72867	7935.7875
2852.24974	7906.8875
2854.76927	7910.1875
2857.28724	7895.7875
2859.80367	7895.3875
2862.31855	7857.6875
2864.83189	7857.2875
2867.34368	7846.5875
2869.85393	7865.0875
2872.36264	7861.3875
2874.8698	7864.8875
2877.37543	7852.6875
2879.87952	7831.5875
2882.38207	7856.6875
2884.88308	7844.5875
2887.38256	7827.0875
2889.88051	7832.2875
2892.37692	7842.3875
2894.8718	7833.7875
2897.36515	7866.1875
2899.85698	7849.0875
2902.34727	7873.7875
2904.83604	7874.7875
2907.32328	7891.6875
2909.809	7889.1875
2912.29319	7891.3875
2914.77587	7899.5875
2917.25702	7897.3875
2919.73665	7893.1875
2922.21476	7871.8875
2924.69136	7870.8875
2927.16644	7855.1875
2929.64	7884.3875
2932.11205	7860.0875
2934.58258	7829.8875
2937.05161	7821.8875
2939.51912	7822.8875
2941.98513	7820.9875
2944.44962	7811.0875
2946.91261	7767.6875
2949.37409	7776.7875
2951.83407	7779.7875
2954.29254	7769.3875
2956.74951	7744.1875
2959.20498	7762.6875
2961.65895	7749.8875
2964.11142	7728.2875
2966.56239	7699.9875
2969.01186	7708.9875
2971.45984	7702.9875
2973.90632	7684.9875
2976.35131	7667.8875
2978.7948	7677.0875
2981.23681	7649.0875
2983.67732	7634.6875
2986.11635	7635.4875
2988.55388	7593.8875
2990.98993	7593.7875
2993.4245	7581.3875
2995.85758	7571.4875
2998.28917	7563.1875
3000.71928	7532.7875
3003.14791	7509.3875
3005.57506	7518.8875
3008.00073	7521.2875
3010.42493	7512.2875
3012.84764	7492.3875
3015.26888	7501.5875
3017.68865	7501.0875
3020.10694	7449.2875
3022.52376	7450.2875
3024.9391	7419.0875
3027.35298	7436.9875
3029.76539	7436.9875
3032.17632	7417.2875
3034.5858	7419.8875
3036.9938	7413.6875
3039.40034	7429.2875
3041.80542	7406.4875
3044.20903	7381.3875
3046.61118	7380.3875
3049.01187	7377.0875
3051.4111	7361.2875
3053.80888	7358.6875
3056.20519	7350.4875
3058.60005	7325.6875
3060.99345	7304.5875
3063.3854	7271.3875
3065.7759	7275.2875
3068.16494	7253.0875
3070.55254	7244.6875
