Data from AgNPs_FTO_APTES_UA_1uM_CRN_0uM_R6G_10uM_NaF_0.1M_Addition_RamanShift__22__11-31-19-431.txt Node

Date: Thu Jan 27 11:31:19 GMT 2022
User: TCL
Spectrometer: QEP01345
Trigger mode: 4
Integration Time (sec): 7.000000E0
Scans to average: 10
Electric dark correction enabled: true
Nonlinearity correction enabled: false
Boxcar width: 0
XAxis mode: Raman Shifts
Number of Pixels in Spectrum: 1044
>>>>>Begin Spectral Data<<<<<
46.04893	-0.0875
50.45542	0.0125
54.85868	-1.7875
59.25871	-0.7875
63.6555	48.3125
68.04907	48.9125
72.43941	53.4125
76.82654	55.3125
81.21044	58.4125
85.59113	62.0125
89.96862	58.7125
94.34289	61.6125
98.71396	66.3125
103.08183	64.3125
107.4465	70.5125
111.80798	68.4125
116.16626	70.2125
120.52136	78.0125
124.87327	75.9125
129.222	71.9125
133.56755	78.6125
137.90993	81.8125
142.24913	88.6125
146.58517	95.9125
150.91804	105.8125
155.24774	123.4125
159.57429	153.1125
163.89768	192.9125
168.21792	246.3125
172.53501	326.6125
176.84895	454.0125
181.15975	631.6125
185.46741	878.0125
189.77193	1205.7125
194.07331	1614.2125
198.37157	2103.1125
202.6667	2595.0125
206.9587	3093.4125
211.24758	3564.5125
215.53334	4064.2125
219.81599	4587.3125
224.09553	5141.6125
228.37195	5772.8125
232.64527	6460.9125
236.91549	7195.3125
241.18261	7942.5125
245.44663	8590.9125
249.70755	9227.6125
253.96539	9742.9125
258.22014	10187.8125
262.4718	10567.3125
266.72039	10790.6125
270.96589	10897.8125
275.20832	10898.1125
279.44768	10761.7125
283.68397	10601.4125
287.91719	10433.3125
292.14735	10309.9125
296.37445	10257.8125
300.59849	10295.0125
304.81948	10364.2125
309.03742	10445.6125
313.25231	10465.2125
317.46415	10384.5125
321.67296	10245.6125
325.87872	10143.0125
330.08145	10137.0125
334.28114	10185.3125
338.47781	10276.0125
342.67145	10391.4125
346.86207	10505.1125
351.04966	10719.2125
355.23424	10917.0125
359.4158	11092.0125
363.59435	11229.6125
367.76989	11340.4125
371.94243	11438.5125
376.11196	11524.5125
380.27849	11572.7125
384.44203	11638.1125
388.60257	11681.2125
392.76012	11739.9125
396.91468	11816.1125
401.06626	11954.3125
405.21485	12082.0125
409.36047	12108.2125
413.50311	11994.5125
417.64277	11907.6125
421.77947	11848.5125
425.9132	11898.8125
430.04396	11938.4125
434.17176	12055.3125
438.2966	12226.0125
442.41849	12491.9125
446.53742	12918.5125
450.6534	13396.0125
454.76644	13749.2125
458.87653	13791.1125
462.98368	13623.9125
467.08789	13322.8125
471.18916	12997.6125
475.2875	12708.5125
479.38291	12458.0125
483.4754	12340.8125
487.56496	12295.8125
491.6516	12288.6125
495.73531	12324.3125
499.81612	12405.4125
503.89401	12484.1125
507.96899	12501.4125
512.04106	12425.2125
516.11023	12390.9125
520.1765	12450.9125
524.23987	12518.2125
528.30034	12542.0125
532.35792	12484.5125
536.41261	12372.4125
540.46441	12195.1125
544.51333	12117.2125
548.55936	12190.2125
552.60252	12317.4125
556.64279	12504.4125
560.6802	12627.2125
564.71473	12571.2125
568.7464	12497.2125
572.7752	12529.4125
576.80114	12551.0125
580.82422	12634.2125
584.84444	12894.9125
588.86181	13368.1125
592.87633	14154.9125
596.888	14728.0125
600.89682	14670.7125
604.9028	14813.1125
608.90594	15859.2125
612.90624	17104.0125
616.90371	16573.0125
620.89834	14540.8125
624.89015	13576.3125
628.87913	13454.9125
632.86528	13315.8125
636.84862	13035.1125
640.82913	12739.2125
644.80683	12471.1125
648.78172	12316.0125
652.75379	12305.6125
656.72306	12533.4125
660.68952	12815.7125
664.65319	12809.6125
668.61405	12695.2125
672.57211	12735.7125
676.52738	12759.5125
680.47986	12713.4125
684.42955	12561.1125
688.37646	12539.8125
692.32058	12686.1125
696.26192	12909.9125
700.20048	13080.0125
704.13626	13111.1125
708.06928	12900.5125
711.99952	12758.2125
715.927	12780.2125
719.85171	12899.4125
723.77365	12883.1125
727.69284	12727.5125
731.60928	12607.8125
735.52295	12524.1125
739.43388	12587.9125
743.34206	12668.2125
747.24749	12676.4125
751.15017	12747.8125
755.05012	12859.5125
758.94733	13053.2125
762.8418	13430.7125
766.73354	14083.7125
770.62254	14801.9125
774.50882	15197.5125
778.39237	15004.8125
782.27321	14356.2125
786.15132	13692.4125
790.02671	13262.6125
793.89938	13083.3125
797.76935	13042.8125
801.6366	12990.6125
805.50115	12954.6125
809.36299	12907.4125
813.22213	12828.3125
817.07857	12780.6125
820.93231	12765.7125
824.78336	12758.9125
828.63172	12807.4125
832.47738	12898.9125
836.32036	12997.1125
840.16066	13100.6125
843.99827	13218.8125
847.8332	13171.4125
851.66546	13023.5125
855.49504	12954.4125
859.32195	12940.5125
863.1462	12913.3125
866.96777	12865.2125
870.78668	12803.8125
874.60293	12746.9125
878.41652	12805.9125
882.22745	12885.9125
886.03573	12971.9125
889.84136	13002.8125
893.64433	12911.8125
897.44466	12827.0125
901.24235	12752.8125
905.0374	12717.0125
908.8298	12699.5125
912.61957	12733.7125
916.40671	12842.2125
920.19121	13004.1125
923.97308	13225.6125
927.75233	13434.1125
931.52895	13532.6125
935.30295	13485.9125
939.07433	13274.8125
942.84309	13065.4125
946.60924	13056.6125
950.37278	13051.1125
954.13371	12955.2125
957.89203	12828.6125
961.64774	12735.0125
965.40086	12688.7125
969.15137	12659.6125
972.89929	12674.0125
976.64461	12713.2125
980.38733	12803.7125
984.12747	12885.9125
987.86502	13049.3125
991.59999	13307.4125
995.33237	13623.3125
999.06217	14187.6125
1002.78939	14799.9125
1006.51404	15059.7125
1010.23611	15034.4125
1013.95561	15076.5125
1017.67255	15080.1125
1021.38692	14963.9125
1025.09872	15017.1125
1028.80796	15460.9125
1032.51465	16465.8125
1036.21877	17315.1125
1039.92035	17466.3125
1043.61937	16978.4125
1047.31584	16186.4125
1051.00976	15308.1125
1054.70114	14768.9125
1058.38998	14560.9125
1062.07627	14423.6125
1065.76003	14294.1125
1069.44126	14180.2125
1073.11995	14247.6125
1076.79611	14451.4125
1080.46974	14639.4125
1084.14085	14787.3125
1087.80943	14889.9125
1091.47549	14848.8125
1095.13903	14666.3125
1098.80005	14411.6125
1102.45857	14233.8125
1106.11456	14154.8125
1109.76805	14204.0125
1113.41903	14279.0125
1117.06751	14306.7125
1120.71348	14361.2125
1124.35696	14441.7125
1127.99793	14494.2125
1131.63641	14526.4125
1135.2724	14456.7125
1138.90589	14311.4125
1142.5369	14187.9125
1146.16542	14138.9125
1149.79145	14102.6125
1153.415	14088.5125
1157.03607	14110.9125
1160.65467	14194.4125
1164.27079	14448.7125
1167.88443	14921.3125
1171.49561	15606.3125
1175.10432	16611.2125
1178.71056	17893.1125
1182.31434	19294.8125
1185.91565	20150.4125
1189.51451	20222.7125
1193.11091	19460.8125
1196.70485	18531.0125
1200.29634	17700.1125
1203.88538	17122.7125
1207.47197	16679.9125
1211.05612	16262.3125
1214.63782	16012.7125
1218.21708	16033.5125
1221.79391	16255.6125
1225.36829	16506.4125
1228.94024	16299.4125
1232.50976	15886.6125
1236.07685	15436.9125
1239.6415	15200.5125
1243.20374	15171.7125
1246.76355	15314.2125
1250.32093	15590.9125
1253.8759	15939.4125
1257.42845	16369.9125
1260.97859	16788.3125
1264.52631	17181.9125
1268.07163	17669.0125
1271.61453	18239.7125
1275.15503	18845.1125
1278.69312	19409.4125
1282.22882	19780.1125
1285.76211	20011.8125
1289.29301	20181.7125
1292.82151	20499.4125
1296.34761	21098.2125
1299.87133	22099.2125
1303.39266	23592.9125
1306.9116	25357.9125
1310.42815	27024.8125
1313.94233	27703.5125
1317.45412	27130.0125
1320.96354	25685.9125
1324.47058	24022.1125
1327.97525	22576.8125
1331.47754	21628.3125
1334.97747	21166.4125
1338.47502	21025.9125
1341.97022	20902.6125
1345.46305	20792.0125
1348.95352	21006.4125
1352.44163	21702.9125
1355.92738	23066.6125
1359.41078	24949.1125
1362.89183	26408.9125
1366.37053	26129.0125
1369.84688	24017.5125
1373.32088	21419.2125
1376.79254	19594.2125
1380.26186	18746.6125
1383.72883	18479.6125
1387.19347	18310.0125
1390.65578	17890.3125
1394.11575	17555.4125
1397.57339	17406.2125
1401.0287	17428.6125
1404.48168	17449.4125
1407.93234	17395.6125
1411.38068	17381.1125
1414.82669	17338.6125
1418.27039	17237.6125
1421.71177	16990.2125
1425.15083	16772.3125
1428.58758	16698.1125
1432.02203	16889.1125
1435.45416	17192.5125
1438.88399	17423.9125
1442.31151	17511.7125
1445.73673	17447.6125
1449.15965	17400.9125
1452.58027	17243.3125
1455.9986	17018.5125
1459.41463	16883.2125
1462.82837	17027.1125
1466.23982	17376.7125
1469.64898	17758.4125
1473.05586	18170.4125
1476.46045	18446.2125
1479.86276	18675.4125
1483.26279	18736.7125
1486.66054	18775.5125
1490.05602	18906.8125
1493.44922	19057.5125
1496.84016	19076.7125
1500.22882	19132.5125
1503.61521	19349.9125
1506.99934	19743.2125
1510.38121	20197.7125
1513.76081	20405.3125
1517.13816	20110.6125
1520.51324	19410.3125
1523.88607	18753.3125
1527.25665	18306.9125
1530.62498	18108.7125
1533.99105	18000.4125
1537.35488	17956.5125
1540.71647	17844.7125
1544.07581	17720.0125
1547.4329	17546.5125
1550.78776	17396.5125
1554.14038	17286.4125
1557.49077	17184.9125
1560.83892	17019.7125
1564.18484	16927.2125
1567.52853	16932.5125
1570.86999	17002.6125
1574.20922	17133.6125
1577.54624	17183.2125
1580.88103	17135.1125
1584.2136	17115.4125
1587.54395	17516.2125
1590.87208	18401.4125
1594.19801	19672.6125
1597.52172	21034.0125
1600.84321	21808.5125
1604.16251	21321.4125
1607.47959	19830.5125
1610.79447	18176.5125
1614.10715	16746.6125
1617.41763	15733.8125
1620.7259	15185.0125
1624.03199	14953.8125
1627.33587	15082.6125
1630.63757	15452.3125
1633.93707	15951.4125
1637.23439	16783.6125
1640.52951	17936.4125
1643.82246	19311.2125
1647.11321	20511.3125
1650.40179	20648.2125
1653.68819	19460.8125
1656.97241	17484.3125
1660.25446	15691.9125
1663.53433	14536.2125
1666.81203	13851.9125
1670.08756	13461.0125
1673.36092	13235.6125
1676.63211	13077.5125
1679.90115	12940.5125
1683.16801	12865.3125
1686.43272	12786.5125
1689.69527	12713.2125
1692.95567	12655.9125
1696.2139	12609.3125
1699.46999	12535.7125
1702.72392	12541.7125
1705.97571	12515.9125
1709.22535	12598.8125
1712.47284	12614.8125
1715.71819	12648.5125
1718.96139	12628.1125
1722.20246	12616.1125
1725.44139	12604.9125
1728.67818	12541.1125
1731.91284	12505.0125
1735.14537	12449.4125
1738.37576	12414.2125
1741.60403	12417.9125
1744.83017	12345.2125
1748.05418	12339.4125
1751.27607	12327.0125
1754.49584	12272.8125
1757.71349	12270.1125
1760.92903	12258.9125
1764.14244	12230.1125
1767.35375	12279.0125
1770.56294	12250.6125
1773.77002	12240.1125
1776.97499	12237.1125
1780.17785	12287.4125
1783.37861	12294.9125
1786.57727	12279.2125
1789.77382	12307.5125
1792.96828	12305.6125
1796.16064	12273.3125
1799.3509	12265.6125
1802.53907	12251.0125
1805.72514	12215.1125
1808.90913	12209.8125
1812.09102	12199.8125
1815.27083	12174.0125
1818.44856	12166.9125
1821.6242	12137.0125
1824.79776	12133.1125
1827.96924	12127.3125
1831.13864	12112.2125
1834.30597	12107.4125
1837.47122	12107.7125
1840.6344	12097.3125
1843.7955	12092.8125
1846.95454	12100.3125
1850.11151	12107.6125
1853.26642	12122.8125
1856.41926	12098.8125
1859.57004	12103.7125
1862.71876	12099.2125
1865.86542	12106.4125
1869.01003	12108.2125
1872.15258	12085.5125
1875.29308	12077.3125
1878.43152	12083.5125
1881.56792	12067.5125
1884.70227	12075.5125
1887.83457	12072.9125
1890.96482	12037.9125
1894.09304	12048.7125
1897.21921	12062.5125
1900.34335	12039.8125
1903.46544	12047.8125
1906.58551	12043.0125
1909.70353	12064.6125
1912.81953	12028.6125
1915.93349	12056.6125
1919.04543	12018.3125
1922.15534	11991.5125
1925.26322	11992.6125
1928.36908	11976.5125
1931.47292	11966.0125
1934.57473	11937.6125
1937.67453	11923.5125
1940.77232	11923.6125
1943.86808	11885.1125
1946.96184	11874.3125
1950.05358	11844.7125
1953.14331	11810.8125
1956.23103	11794.0125
1959.31675	11757.2125
1962.40046	11719.1125
1965.48217	11726.2125
1968.56188	11704.6125
1971.63959	11642.9125
1974.7153	11653.6125
1977.78901	11624.9125
1980.86073	11576.4125
1983.93046	11540.9125
1986.99819	11534.4125
1990.06394	11473.3125
1993.1277	11454.1125
1996.18947	11436.2125
1999.24925	11410.4125
2002.30706	11366.2125
2005.36288	11344.3125
2008.41672	11360.7125
2011.46859	11299.8125
2014.51848	11264.5125
2017.56639	11249.0125
2020.61233	11257.5125
2023.6563	11223.2125
2026.6983	11196.6125
2029.73833	11195.6125
2032.7764	11178.8125
2035.8125	11156.7125
2038.84664	11167.3125
2041.87881	11181.0125
2044.90903	11169.3125
2047.93729	11148.0125
2050.96359	11130.8125
2053.98794	11119.0125
2057.01034	11114.9125
2060.03078	11092.5125
2063.04927	11107.5125
2066.06582	11128.2125
2069.08042	11117.2125
2072.09307	11090.8125
2075.10378	11099.2125
2078.11255	11106.0125
2081.11938	11085.5125
2084.12426	11093.2125
2087.12722	11110.5125
2090.12824	11089.2125
2093.12732	11110.6125
2096.12447	11106.5125
2099.11969	11116.1125
2102.11299	11133.2125
2105.10435	11144.2125
2108.09379	11154.7125
2111.08131	11177.9125
2114.0669	11171.7125
2117.05057	11184.9125
2120.03233	11162.5125
2123.01216	11191.2125
2125.99008	11190.3125
2128.96609	11225.9125
2131.94018	11249.8125
2134.91236	11244.8125
2137.88263	11234.4125
2140.851	11269.0125
2143.81746	11319.1125
2146.78201	11316.7125
2149.74466	11327.3125
2152.7054	11314.6125
2155.66425	11302.9125
2158.6212	11331.7125
2161.57625	11346.9125
2164.52941	11337.9125
2167.48067	11309.0125
2170.43004	11317.7125
2173.37752	11340.8125
2176.32311	11334.4125
2179.26681	11336.6125
2182.20863	11351.9125
2185.14856	11372.2125
2188.08661	11384.1125
2191.02278	11392.4125
2193.95707	11377.0125
2196.88948	11404.4125
2199.82001	11382.3125
2202.74867	11390.9125
2205.67545	11422.8125
2208.60037	11389.3125
2211.52341	11419.1125
2214.44458	11408.0125
2217.36388	11392.8125
2220.28132	11395.1125
2223.1969	11388.3125
2226.11061	11370.7125
2229.02246	11333.5125
2231.93245	11353.2125
2234.84058	11292.4125
2237.74686	11303.4125
2240.65128	11300.5125
2243.55385	11280.6125
2246.45456	11226.2125
2249.35343	11253.0125
2252.25044	11248.4125
2255.14561	11263.5125
2258.03893	11214.9125
2260.93041	11196.8125
2263.82004	11196.7125
2266.70783	11143.7125
2269.59378	11159.2125
2272.4779	11154.7125
2275.36017	11113.3125
2278.24061	11094.8125
2281.11922	11097.0125
2283.996	11086.0125
2286.87094	11102.2125
2289.74405	11069.0125
2292.61534	11095.3125
2295.4848	11092.8125
2298.35243	11120.5125
2301.21824	11113.4125
2304.08223	11138.2125
2306.94439	11155.2125
2309.80474	11152.4125
2312.66327	11164.6125
2315.51999	11160.7125
2318.37489	11204.7125
2321.22797	11184.5125
2324.07925	11182.9125
2326.92871	11141.1125
2329.77637	11194.1125
2332.62222	11148.3125
2335.46626	11164.7125
2338.3085	11143.9125
2341.14893	11175.0125
2343.98756	11160.8125
2346.8244	11167.0125
2349.65943	11164.3125
2352.49267	11160.2125
2355.32411	11153.4125
2358.15376	11121.7125
2360.98161	11105.2125
2363.80768	11076.8125
2366.63195	11094.0125
2369.45444	11084.6125
2372.27514	11069.2125
2375.09405	11046.9125
2377.91118	11005.3125
2380.72652	10992.9125
2383.54009	10980.3125
2386.35187	10976.6125
2389.16188	10954.7125
2391.97011	10955.7125
2394.77657	10932.7125
2397.58125	10919.7125
2400.38416	10950.0125
2403.18529	10916.3125
2405.98466	10872.1125
2408.78226	10884.8125
2411.57809	10847.5125
2414.37216	10836.4125
2417.16446	10853.8125
2419.955	10812.4125
2422.74378	10820.7125
2425.5308	10809.5125
2428.31606	10790.2125
2431.09956	10773.3125
2433.88131	10777.1125
2436.6613	10777.5125
2439.43954	10814.4125
2442.21603	10786.4125
2444.99077	10765.7125
2447.76377	10793.8125
2450.53501	10790.7125
2453.30451	10817.1125
2456.07226	10781.0125
2458.83827	10756.0125
2461.60254	10780.0125
2464.36507	10767.8125
2467.12586	10767.3125
2469.88492	10802.5125
2472.64224	10810.8125
2475.39782	10792.7125
2478.15167	10799.9125
2480.90379	10803.1125
2483.65417	10813.0125
2486.40283	10831.6125
2489.14976	10848.5125
2491.89497	10842.9125
2494.63845	10844.0125
2497.3802	10844.3125
2500.12024	10815.8125
2502.85855	10850.1125
2505.59514	10826.9125
2508.33002	10827.7125
2511.06318	10800.3125
2513.79462	10795.1125
2516.52435	10783.1125
2519.25237	10785.0125
2521.97867	10744.4125
2524.70327	10812.0125
2527.42616	10771.6125
2530.14734	10774.4125
2532.86681	10770.4125
2535.58458	10779.9125
2538.30065	10755.8125
2541.01501	10790.4125
2543.72768	10765.7125
2546.43864	10754.0125
2549.14791	10746.6125
2551.85548	10722.4125
2554.56136	10735.1125
2557.26554	10717.0125
2559.96803	10702.1125
2562.66883	10717.3125
2565.36794	10711.9125
2568.06536	10690.2125
2570.7611	10698.7125
2573.45514	10707.4125
2576.14751	10696.3125
2578.83819	10701.3125
2581.52719	10695.5125
2584.21451	10700.0125
2586.90015	10680.5125
2589.58411	10671.0125
2592.2664	10675.1125
2594.94701	10654.6125
2597.62594	10655.2125
2600.30321	10657.7125
2602.9788	10666.6125
2605.65273	10620.2125
2608.32498	10633.6125
2610.99557	10614.7125
2613.66449	10643.6125
2616.33175	10642.7125
2618.99734	10642.7125
2621.66128	10627.3125
2624.32355	10636.0125
2626.98416	10616.4125
2629.64311	10622.0125
2632.30041	10634.1125
2634.95605	10624.7125
2637.61004	10598.2125
2640.26238	10591.0125
2642.91306	10554.6125
2645.56209	10533.8125
2648.20948	10538.0125
2650.85521	10543.4125
2653.4993	10526.3125
2656.14175	10553.5125
2658.78255	10564.5125
2661.42171	10546.4125
2664.05923	10556.8125
2666.6951	10603.6125
2669.32934	10618.4125
2671.96194	10592.4125
2674.59291	10582.7125
2677.22224	10594.2125
2679.84993	10602.4125
2682.476	10580.2125
2685.10043	10563.0125
2687.72324	10530.3125
2690.34441	10531.3125
2692.96396	10573.5125
2695.58188	10566.0125
2698.19818	10557.5125
2700.81285	10523.7125
2703.4259	10530.2125
2706.03733	10510.7125
2708.64714	10538.5125
2711.25533	10566.4125
2713.86191	10552.5125
2716.46687	10587.5125
2719.07021	10589.3125
2721.67194	10614.4125
2724.27206	10609.5125
2726.87057	10642.7125
2729.46747	10631.2125
2732.06276	10641.0125
2734.65644	10633.9125
2737.24852	10618.8125
2739.83899	10614.0125
2742.42786	10652.9125
2745.01513	10624.5125
2747.60079	10604.9125
2750.18486	10608.7125
2752.76733	10597.1125
2755.3482	10614.6125
2757.92747	10615.3125
2760.50515	10613.2125
2763.08123	10597.1125
2765.65573	10587.1125
2768.22863	10610.1125
2770.79994	10586.5125
2773.36967	10631.0125
2775.9378	10620.2125
2778.50435	10590.7125
2781.06932	10627.8125
2783.6327	10598.0125
2786.1945	10612.8125
2788.75471	10596.0125
2791.31335	10572.5125
2793.87041	10588.4125
2796.42589	10545.4125
2798.97979	10560.5125
2801.53212	10533.9125
2804.08288	10530.6125
2806.63206	10499.9125
2809.17967	10491.0125
2811.72571	10471.5125
2814.27018	10461.8125
2816.81308	10448.5125
2819.35442	10465.7125
2821.89419	10431.7125
2824.43239	10460.6125
2826.96904	10444.4125
2829.50412	10466.7125
2832.03763	10438.0125
2834.56959	10465.1125
2837.1	10454.4125
2839.62884	10450.6125
2842.15613	10454.8125
2844.68186	10484.4125
2847.20604	10497.1125
2849.72867	10511.3125
2852.24974	10534.6125
2854.76927	10536.9125
2857.28724	10513.6125
2859.80367	10510.8125
2862.31855	10507.7125
2864.83189	10527.4125
2867.34368	10504.8125
2869.85393	10526.8125
2872.36264	10497.0125
2874.8698	10537.8125
2877.37543	10537.4125
2879.87952	10527.9125
2882.38207	10580.0125
2884.88308	10569.3125
2887.38256	10588.2125
2889.88051	10577.7125
2892.37692	10602.8125
2894.8718	10596.3125
2897.36515	10614.7125
2899.85698	10623.5125
2902.34727	10653.1125
2904.83604	10660.1125
2907.32328	10677.3125
2909.809	10647.4125
2912.29319	10654.1125
2914.77587	10669.2125
2917.25702	10663.4125
2919.73665	10655.3125
2922.21476	10658.1125
2924.69136	10662.7125
2927.16644	10651.7125
2929.64	10642.6125
2932.11205	10630.6125
2934.58258	10596.6125
2937.05161	10602.6125
2939.51912	10596.9125
2941.98513	10597.3125
2944.44962	10564.7125
2946.91261	10521.9125
2949.37409	10537.3125
2951.83407	10516.2125
2954.29254	10497.1125
2956.74951	10470.6125
2959.20498	10472.6125
2961.65895	10473.2125
2964.11142	10452.8125
2966.56239	10430.7125
2969.01186	10423.0125
2971.45984	10405.9125
2973.90632	10412.4125
2976.35131	10369.6125
2978.7948	10330.5125
2981.23681	10320.3125
2983.67732	10347.0125
2986.11635	10285.6125
2988.55388	10259.7125
2990.98993	10257.7125
2993.4245	10228.5125
2995.85758	10223.1125
2998.28917	10184.0125
3000.71928	10171.4125
3003.14791	10155.7125
3005.57506	10151.4125
3008.00073	10121.8125
3010.42493	10139.9125
3012.84764	10131.5125
3015.26888	10117.0125
3017.68865	10122.1125
3020.10694	10119.1125
3022.52376	10098.1125
3024.9391	10104.0125
3027.35298	10085.9125
