Data from AgNPs_FTO_APTES_UA_1uM_CRN_0uM_R6G_10uM_NaF_0.1M_Addition_RamanShift__39__11-51-09-454.txt Node

Date: Thu Jan 27 11:51:09 GMT 2022
User: TCL
Spectrometer: QEP01345
Trigger mode: 4
Integration Time (sec): 7.000000E0
Scans to average: 10
Electric dark correction enabled: true
Nonlinearity correction enabled: false
Boxcar width: 0
XAxis mode: Raman Shifts
Number of Pixels in Spectrum: 1044
>>>>>Begin Spectral Data<<<<<
46.04893	0.9125
50.45542	-0.6875
54.85868	0.0125
59.25871	-1.5875
63.6555	49.1125
68.04907	49.0125
72.43941	54.3125
76.82654	56.1125
81.21044	57.6125
85.59113	59.4125
89.96862	58.2125
94.34289	64.1125
98.71396	67.1125
103.08183	67.2125
107.4465	70.7125
111.80798	74.5125
116.16626	72.5125
120.52136	80.2125
124.87327	77.9125
129.222	79.3125
133.56755	83.7125
137.90993	92.4125
142.24913	97.6125
146.58517	105.5125
150.91804	124.5125
155.24774	144.3125
159.57429	178.9125
163.89768	227.4125
168.21792	297.2125
172.53501	401.1125
176.84895	548.7125
181.15975	770.5125
185.46741	1071.9125
189.77193	1471.5125
194.07331	1973.0125
198.37157	2547.2125
202.6667	3133.4125
206.9587	3731.9125
211.24758	4308.3125
215.53334	4898.7125
219.81599	5547.0125
224.09553	6240.4125
228.37195	7041.8125
232.64527	7876.3125
236.91549	8780.3125
241.18261	9687.8125
245.44663	10480.2125
249.70755	11213.0125
253.96539	11801.5125
258.22014	12310.5125
262.4718	12766.1125
266.72039	13036.3125
270.96589	13206.3125
275.20832	13203.7125
279.44768	13071.8125
283.68397	12941.6125
287.91719	12789.4125
292.14735	12747.7125
296.37445	12772.4125
300.59849	12843.3125
304.81948	12991.7125
309.03742	13054.9125
313.25231	12989.9125
317.46415	12706.8125
321.67296	12265.7125
325.87872	11878.4125
330.08145	11693.3125
334.28114	11645.8125
338.47781	11750.0125
342.67145	11913.4125
346.86207	12153.1125
351.04966	12450.0125
355.23424	12800.8125
359.4158	13108.6125
363.59435	13277.3125
367.76989	13428.5125
371.94243	13526.5125
376.11196	13558.1125
380.27849	13634.9125
384.44203	13704.7125
388.60257	13771.1125
392.76012	13838.1125
396.91468	13999.0125
401.06626	14218.2125
405.21485	14412.4125
409.36047	14294.1125
413.50311	14052.6125
417.64277	13824.5125
421.77947	13741.1125
425.9132	13737.4125
430.04396	13784.8125
434.17176	13824.3125
438.2966	13944.0125
442.41849	14153.9125
446.53742	14527.5125
450.6534	14958.4125
454.76644	15275.9125
458.87653	15374.9125
462.98368	15252.8125
467.08789	15005.7125
471.18916	14734.7125
475.2875	14480.7125
479.38291	14347.4125
483.4754	14234.8125
487.56496	14115.3125
491.6516	13939.3125
495.73531	13842.3125
499.81612	13813.5125
503.89401	13922.4125
507.96899	13999.4125
512.04106	13974.7125
516.11023	13935.6125
520.1765	13876.8125
524.23987	13792.7125
528.30034	13654.9125
532.35792	13459.8125
536.41261	13251.4125
540.46441	13081.1125
544.51333	12998.8125
548.55936	13102.8125
552.60252	13418.2125
556.64279	13753.7125
560.6802	13957.9125
564.71473	14021.6125
568.7464	14218.0125
572.7752	14553.9125
576.80114	14820.2125
580.82422	15089.1125
584.84444	15384.5125
588.86181	15688.9125
592.87633	15964.4125
596.888	16052.6125
600.89682	15943.7125
604.9028	16445.2125
608.90594	18266.1125
612.90624	20394.9125
616.90371	19447.1125
620.89834	15828.7125
624.89015	14112.4125
628.87913	13918.6125
632.86528	13924.8125
636.84862	13810.7125
640.82913	13559.2125
644.80683	13193.5125
648.78172	12867.9125
652.75379	12811.7125
656.72306	13002.5125
660.68952	13306.3125
664.65319	13247.1125
668.61405	12950.6125
672.57211	12808.6125
676.52738	12834.5125
680.47986	12836.4125
684.42955	12727.3125
688.37646	12641.0125
692.32058	12704.4125
696.26192	12856.3125
700.20048	13042.1125
704.13626	13133.6125
708.06928	13063.0125
711.99952	12956.8125
715.927	12933.5125
719.85171	13006.5125
723.77365	12955.8125
727.69284	12810.3125
731.60928	12667.7125
735.52295	12590.5125
739.43388	12638.7125
743.34206	12699.1125
747.24749	12800.4125
751.15017	12889.0125
755.05012	13115.0125
758.94733	13512.9125
762.8418	14266.7125
766.73354	15519.3125
770.62254	16945.1125
774.50882	17386.0125
778.39237	16637.1125
782.27321	15259.5125
786.15132	14086.1125
790.02671	13352.5125
793.89938	13010.4125
797.76935	12904.7125
801.6366	12861.0125
805.50115	12793.0125
809.36299	12682.2125
813.22213	12556.7125
817.07857	12471.7125
820.93231	12448.6125
824.78336	12382.3125
828.63172	12397.3125
832.47738	12388.4125
836.32036	12425.6125
840.16066	12455.6125
843.99827	12541.0125
847.8332	12529.6125
851.66546	12437.2125
855.49504	12391.1125
859.32195	12369.7125
863.1462	12354.6125
866.96777	12302.0125
870.78668	12266.0125
874.60293	12283.6125
878.41652	12288.0125
882.22745	12339.9125
886.03573	12382.7125
889.84136	12404.2125
893.64433	12336.6125
897.44466	12284.2125
901.24235	12227.9125
905.0374	12191.5125
908.8298	12157.3125
912.61957	12154.0125
916.40671	12231.7125
920.19121	12400.7125
923.97308	12615.7125
927.75233	12779.8125
931.52895	12782.7125
935.30295	12648.8125
939.07433	12363.2125
942.84309	12105.7125
946.60924	11997.7125
950.37278	11976.4125
954.13371	11940.1125
957.89203	11843.8125
961.64774	11790.5125
965.40086	11741.6125
969.15137	11697.7125
972.89929	11677.4125
976.64461	11637.7125
980.38733	11658.0125
984.12747	11697.9125
987.86502	11828.0125
991.59999	12011.4125
995.33237	12314.6125
999.06217	12778.9125
1002.78939	13301.5125
1006.51404	13607.1125
1010.23611	13752.1125
1013.95561	13847.3125
1017.67255	13849.9125
1021.38692	13673.4125
1025.09872	13521.1125
1028.80796	13639.1125
1032.51465	14110.3125
1036.21877	14606.5125
1039.92035	14684.0125
1043.61937	14399.0125
1047.31584	13938.9125
1051.00976	13451.9125
1054.70114	13177.9125
1058.38998	13136.6125
1062.07627	13147.9125
1065.76003	13178.9125
1069.44126	13259.9125
1073.11995	13455.6125
1076.79611	13694.2125
1080.46974	13826.5125
1084.14085	13981.3125
1087.80943	14148.3125
1091.47549	14277.3125
1095.13903	14240.0125
1098.80005	13947.0125
1102.45857	13607.5125
1106.11456	13340.0125
1109.76805	13250.2125
1113.41903	13299.9125
1117.06751	13397.3125
1120.71348	13567.3125
1124.35696	13749.0125
1127.99793	13952.0125
1131.63641	14129.7125
1135.2724	14009.0125
1138.90589	13834.0125
1142.5369	13699.1125
1146.16542	13668.7125
1149.79145	13644.9125
1153.415	13686.6125
1157.03607	13818.2125
1160.65467	14120.0125
1164.27079	14708.5125
1167.88443	15556.5125
1171.49561	16617.5125
1175.10432	18123.7125
1178.71056	19997.4125
1182.31434	21854.1125
1185.91565	22830.6125
1189.51451	22713.7125
1193.11091	21913.6125
1196.70485	20670.9125
1200.29634	19500.4125
1203.88538	18617.7125
1207.47197	17951.4125
1211.05612	17413.8125
1214.63782	17014.0125
1218.21708	16810.5125
1221.79391	16744.7125
1225.36829	16836.7125
1228.94024	16773.1125
1232.50976	16436.2125
1236.07685	16085.3125
1239.6415	15824.2125
1243.20374	15730.5125
1246.76355	15767.5125
1250.32093	16025.1125
1253.8759	16409.4125
1257.42845	16927.7125
1260.97859	17511.9125
1264.52631	18035.4125
1268.07163	18654.5125
1271.61453	19345.2125
1275.15503	20039.3125
1278.69312	20738.9125
1282.22882	21284.5125
1285.76211	21747.4125
1289.29301	22188.2125
1292.82151	22760.0125
1296.34761	23696.4125
1299.87133	24954.1125
1303.39266	26612.6125
1306.9116	28653.2125
1310.42815	30833.8125
1313.94233	32233.1125
1317.45412	32304.9125
1320.96354	31366.5125
1324.47058	30188.1125
1327.97525	29085.9125
1331.47754	28264.1125
1334.97747	27656.5125
1338.47502	27325.2125
1341.97022	27041.3125
1345.46305	26766.6125
1348.95352	26513.7125
1352.44163	26618.0125
1355.92738	27479.6125
1359.41078	29254.6125
1362.89183	31016.6125
1366.37053	30995.9125
1369.84688	28366.0125
1373.32088	24847.4125
1376.79254	22252.0125
1380.26186	21048.5125
1383.72883	20712.0125
1387.19347	20464.8125
1390.65578	20056.2125
1394.11575	19929.1125
1397.57339	20024.5125
1401.0287	20400.2125
1404.48168	20788.6125
1407.93234	20939.8125
1411.38068	20741.7125
1414.82669	20263.1125
1418.27039	19601.7125
1421.71177	18872.6125
1425.15083	18280.1125
1428.58758	17940.2125
1432.02203	17959.4125
1435.45416	18364.0125
1438.88399	18831.9125
1442.31151	19230.7125
1445.73673	19479.9125
1449.15965	19685.4125
1452.58027	19830.4125
1455.9986	19784.7125
1459.41463	19838.8125
1462.82837	20216.0125
1466.23982	20712.9125
1469.64898	21202.5125
1473.05586	21475.2125
1476.46045	21632.9125
1479.86276	21546.8125
1483.26279	21318.8125
1486.66054	21214.2125
1490.05602	21234.2125
1493.44922	21412.2125
1496.84016	21759.1125
1500.22882	22350.3125
1503.61521	23265.0125
1506.99934	24493.4125
1510.38121	25563.0125
1513.76081	25962.9125
1517.13816	25274.5125
1520.51324	23823.8125
1523.88607	22374.0125
1527.25665	21400.7125
1530.62498	20844.9125
1533.99105	20576.2125
1537.35488	20361.4125
1540.71647	20128.0125
1544.07581	19813.1125
1547.4329	19508.2125
1550.78776	19228.0125
1554.14038	19032.4125
1557.49077	18925.6125
1560.83892	18870.3125
1564.18484	18881.4125
1567.52853	18982.6125
1570.86999	19160.9125
1574.20922	19486.4125
1577.54624	19604.6125
1580.88103	19544.6125
1584.2136	19372.5125
1587.54395	19697.9125
1590.87208	20695.9125
1594.19801	22208.1125
1597.52172	23919.9125
1600.84321	24622.5125
1604.16251	23584.1125
1607.47959	21594.6125
1610.79447	19451.6125
1614.10715	17626.8125
1617.41763	16171.4125
1620.7259	15214.6125
1624.03199	14736.8125
1627.33587	14697.5125
1630.63757	15180.4125
1633.93707	16115.9125
1637.23439	17679.7125
1640.52951	19922.6125
1643.82246	22528.9125
1647.11321	24612.9125
1650.40179	25032.8125
1653.68819	23446.0125
1656.97241	20370.6125
1660.25446	17217.8125
1663.53433	14928.1125
1666.81203	13502.1125
1670.08756	12623.9125
1673.36092	12087.7125
1676.63211	11759.0125
1679.90115	11495.1125
1683.16801	11316.5125
1686.43272	11186.3125
1689.69527	11071.6125
1692.95567	10955.9125
1696.2139	10876.9125
1699.46999	10781.2125
1702.72392	10717.2125
1705.97571	10761.1125
1709.22535	10797.8125
1712.47284	10805.0125
1715.71819	10822.9125
1718.96139	10795.4125
1722.20246	10756.0125
1725.44139	10706.3125
1728.67818	10646.5125
1731.91284	10586.9125
1735.14537	10504.1125
1738.37576	10471.2125
1741.60403	10404.3125
1744.83017	10372.0125
1748.05418	10350.3125
1751.27607	10314.9125
1754.49584	10279.0125
1757.71349	10258.1125
1760.92903	10224.8125
1764.14244	10219.4125
1767.35375	10203.1125
1770.56294	10178.2125
1773.77002	10174.2125
1776.97499	10163.5125
1780.17785	10190.6125
1783.37861	10191.3125
1786.57727	10177.7125
1789.77382	10183.2125
1792.96828	10159.0125
1796.16064	10143.9125
1799.3509	10109.0125
1802.53907	10098.0125
1805.72514	10077.7125
1808.90913	10055.4125
1812.09102	10017.4125
1815.27083	10022.6125
1818.44856	10000.4125
1821.6242	9970.4125
1824.79776	9990.6125
1827.96924	9957.2125
1831.13864	9962.3125
1834.30597	9961.6125
1837.47122	9955.1125
1840.6344	9966.5125
1843.7955	9975.0125
1846.95454	9990.9125
1850.11151	9976.6125
1853.26642	9989.6125
1856.41926	9979.0125
1859.57004	9990.8125
1862.71876	9980.2125
1865.86542	9994.2125
1869.01003	9996.8125
1872.15258	9982.1125
1875.29308	9989.5125
1878.43152	9984.6125
1881.56792	9982.3125
1884.70227	9981.7125
1887.83457	9980.3125
1890.96482	9976.2125
1894.09304	9955.2125
1897.21921	9937.2125
1900.34335	9949.4125
1903.46544	9963.7125
1906.58551	9946.1125
1909.70353	9940.5125
1912.81953	9930.0125
1915.93349	9914.6125
1919.04543	9873.9125
1922.15534	9848.0125
1925.26322	9841.2125
1928.36908	9792.4125
1931.47292	9761.4125
1934.57473	9719.7125
1937.67453	9676.7125
1940.77232	9648.6125
1943.86808	9615.8125
1946.96184	9565.4125
1950.05358	9534.3125
1953.14331	9513.7125
1956.23103	9477.8125
1959.31675	9455.6125
1962.40046	9434.3125
1965.48217	9398.1125
1968.56188	9361.2125
1971.63959	9347.4125
1974.7153	9300.1125
1977.78901	9283.4125
1980.86073	9263.1125
1983.93046	9224.9125
1986.99819	9212.6125
1990.06394	9188.2125
1993.1277	9140.2125
1996.18947	9115.9125
1999.24925	9085.5125
2002.30706	9043.8125
2005.36288	9048.7125
2008.41672	9020.8125
2011.46859	8974.2125
2014.51848	8976.6125
2017.56639	8941.7125
2020.61233	8929.7125
2023.6563	8917.0125
2026.6983	8881.0125
2029.73833	8878.7125
2032.7764	8874.7125
2035.8125	8894.1125
2038.84664	8850.5125
2041.87881	8874.7125
2044.90903	8814.1125
2047.93729	8799.9125
2050.96359	8807.3125
2053.98794	8781.4125
2057.01034	8778.4125
2060.03078	8760.1125
2063.04927	8758.3125
2066.06582	8783.6125
2069.08042	8776.3125
2072.09307	8746.1125
2075.10378	8755.4125
2078.11255	8741.7125
2081.11938	8738.0125
2084.12426	8719.2125
2087.12722	8743.9125
2090.12824	8729.5125
2093.12732	8729.0125
2096.12447	8726.2125
2099.11969	8741.1125
2102.11299	8742.5125
2105.10435	8733.6125
2108.09379	8736.6125
2111.08131	8750.6125
2114.0669	8741.9125
2117.05057	8740.2125
2120.03233	8758.8125
2123.01216	8776.4125
2125.99008	8768.8125
2128.96609	8788.6125
2131.94018	8766.8125
2134.91236	8784.2125
2137.88263	8775.4125
2140.851	8779.8125
2143.81746	8801.0125
2146.78201	8819.8125
2149.74466	8812.9125
2152.7054	8825.6125
2155.66425	8804.7125
2158.6212	8826.0125
2161.57625	8831.7125
2164.52941	8804.1125
2167.48067	8796.1125
2170.43004	8800.0125
2173.37752	8775.6125
2176.32311	8814.4125
2179.26681	8806.0125
2182.20863	8807.9125
2185.14856	8802.7125
2188.08661	8828.3125
2191.02278	8818.7125
2193.95707	8833.2125
2196.88948	8826.0125
2199.82001	8820.1125
2202.74867	8824.5125
2205.67545	8813.2125
2208.60037	8831.3125
2211.52341	8818.0125
2214.44458	8801.2125
2217.36388	8768.5125
2220.28132	8757.3125
2223.1969	8765.9125
2226.11061	8750.6125
2229.02246	8740.6125
2231.93245	8714.9125
2234.84058	8701.1125
2237.74686	8701.3125
2240.65128	8681.6125
2243.55385	8670.8125
2246.45456	8665.8125
2249.35343	8650.9125
2252.25044	8635.6125
2255.14561	8626.7125
2258.03893	8601.7125
2260.93041	8593.7125
2263.82004	8555.1125
2266.70783	8532.1125
2269.59378	8556.0125
2272.4779	8517.2125
2275.36017	8507.3125
2278.24061	8497.9125
2281.11922	8505.2125
2283.996	8472.6125
2286.87094	8456.6125
2289.74405	8436.1125
2292.61534	8436.2125
2295.4848	8434.3125
2298.35243	8456.5125
2301.21824	8451.8125
2304.08223	8452.2125
2306.94439	8460.8125
2309.80474	8454.1125
2312.66327	8489.0125
2315.51999	8482.0125
2318.37489	8489.1125
2321.22797	8495.9125
2324.07925	8475.7125
2326.92871	8466.7125
2329.77637	8467.8125
2332.62222	8467.1125
2335.46626	8434.7125
2338.3085	8454.2125
2341.14893	8459.3125
2343.98756	8463.3125
2346.8244	8458.6125
2349.65943	8464.9125
2352.49267	8462.2125
2355.32411	8462.3125
2358.15376	8478.8125
2360.98161	8476.4125
2363.80768	8457.8125
2366.63195	8443.5125
2369.45444	8443.9125
2372.27514	8437.1125
2375.09405	8394.0125
2377.91118	8372.7125
2380.72652	8360.4125
2383.54009	8322.9125
2386.35187	8321.7125
2389.16188	8286.5125
2391.97011	8285.6125
2394.77657	8248.5125
2397.58125	8260.6125
2400.38416	8248.5125
2403.18529	8241.2125
2405.98466	8211.8125
2408.78226	8213.4125
2411.57809	8204.9125
2414.37216	8179.7125
2417.16446	8154.8125
2419.955	8163.8125
2422.74378	8156.9125
2425.5308	8168.1125
2428.31606	8126.9125
2431.09956	8148.1125
2433.88131	8126.7125
2436.6613	8133.0125
2439.43954	8131.4125
2442.21603	8143.8125
2444.99077	8125.5125
2447.76377	8118.9125
2450.53501	8129.4125
2453.30451	8137.4125
2456.07226	8112.4125
2458.83827	8125.4125
2461.60254	8123.2125
2464.36507	8113.4125
2467.12586	8105.7125
2469.88492	8142.4125
2472.64224	8137.6125
2475.39782	8147.4125
2478.15167	8150.7125
2480.90379	8149.0125
2483.65417	8163.9125
2486.40283	8161.1125
2489.14976	8165.5125
2491.89497	8167.4125
2494.63845	8185.1125
2497.3802	8171.5125
2500.12024	8181.1125
2502.85855	8175.4125
2505.59514	8175.1125
2508.33002	8150.9125
2511.06318	8141.7125
2513.79462	8101.3125
2516.52435	8096.7125
2519.25237	8107.6125
2521.97867	8107.8125
2524.70327	8111.2125
2527.42616	8090.3125
2530.14734	8077.1125
2532.86681	8086.3125
2535.58458	8103.7125
2538.30065	8102.1125
2541.01501	8087.3125
2543.72768	8075.2125
2546.43864	8069.2125
2549.14791	8065.0125
2551.85548	8076.6125
2554.56136	8029.1125
2557.26554	8062.2125
2559.96803	8042.5125
2562.66883	8033.2125
2565.36794	8037.0125
2568.06536	8015.5125
2570.7611	8000.1125
2573.45514	8005.4125
2576.14751	8008.8125
2578.83819	7993.0125
2581.52719	8012.4125
2584.21451	8020.3125
2586.90015	8011.9125
2589.58411	8003.2125
2592.2664	7991.9125
2594.94701	8000.0125
2597.62594	7992.8125
2600.30321	7966.9125
2602.9788	7963.6125
2605.65273	7947.9125
2608.32498	7959.6125
2610.99557	7952.5125
2613.66449	7972.8125
2616.33175	7959.1125
2618.99734	7978.1125
2621.66128	7970.1125
2624.32355	7945.0125
2626.98416	7955.7125
2629.64311	7952.8125
2632.30041	7964.1125
2634.95605	7968.0125
2637.61004	7933.2125
2640.26238	7926.8125
2642.91306	7914.6125
2645.56209	7924.1125
2648.20948	7928.0125
2650.85521	7903.1125
2653.4993	7898.3125
2656.14175	7914.2125
2658.78255	7913.0125
2661.42171	7921.2125
2664.05923	7935.3125
2666.6951	7915.1125
2669.32934	7945.4125
2671.96194	7946.1125
2674.59291	7945.7125
2677.22224	7952.1125
2679.84993	7936.7125
2682.476	7897.9125
2685.10043	7908.6125
2687.72324	7903.4125
2690.34441	7902.3125
2692.96396	7901.4125
2695.58188	7887.7125
2698.19818	7871.1125
2700.81285	7888.7125
2703.4259	7867.7125
2706.03733	7839.8125
2708.64714	7822.6125
2711.25533	7882.6125
2713.86191	7870.2125
2716.46687	7910.7125
2719.07021	7904.7125
2721.67194	7912.7125
2724.27206	7891.3125
2726.87057	7912.7125
2729.46747	7935.4125
2732.06276	7925.6125
2734.65644	7918.9125
2737.24852	7920.6125
2739.83899	7898.4125
2742.42786	7911.4125
2745.01513	7894.8125
2747.60079	7894.1125
2750.18486	7867.6125
2752.76733	7863.0125
2755.3482	7882.6125
2757.92747	7897.4125
2760.50515	7876.3125
2763.08123	7869.3125
2765.65573	7868.6125
2768.22863	7872.0125
2770.79994	7876.8125
2773.36967	7870.5125
2775.9378	7874.9125
2778.50435	7902.7125
2781.06932	7856.4125
2783.6327	7869.7125
2786.1945	7867.6125
2788.75471	7865.2125
2791.31335	7848.0125
2793.87041	7839.1125
2796.42589	7829.5125
2798.97979	7833.7125
2801.53212	7816.2125
2804.08288	7811.9125
2806.63206	7801.5125
2809.17967	7763.8125
2811.72571	7754.1125
2814.27018	7748.3125
2816.81308	7729.3125
2819.35442	7719.1125
2821.89419	7731.8125
2824.43239	7713.9125
2826.96904	7712.1125
2829.50412	7720.6125
2832.03763	7719.0125
2834.56959	7716.8125
2837.1	7698.9125
2839.62884	7687.5125
2842.15613	7701.4125
2844.68186	7707.8125
2847.20604	7737.3125
2849.72867	7714.7125
2852.24974	7717.5125
2854.76927	7711.0125
2857.28724	7703.3125
2859.80367	7698.4125
2862.31855	7696.0125
2864.83189	7688.9125
2867.34368	7685.2125
2869.85393	7694.5125
2872.36264	7688.0125
2874.8698	7684.3125
2877.37543	7687.5125
2879.87952	7695.0125
2882.38207	7709.2125
2884.88308	7729.1125
2887.38256	7693.9125
2889.88051	7716.9125
2892.37692	7713.2125
2894.8718	7735.2125
2897.36515	7738.1125
2899.85698	7735.1125
2902.34727	7764.8125
2904.83604	7754.1125
2907.32328	7790.1125
2909.809	7776.9125
2912.29319	7772.7125
2914.77587	7793.1125
2917.25702	7785.9125
2919.73665	7781.8125
2922.21476	7767.4125
2924.69136	7748.8125
2927.16644	7748.4125
2929.64	7737.5125
2932.11205	7753.4125
2934.58258	7702.9125
2937.05161	7716.5125
2939.51912	7727.1125
2941.98513	7700.6125
2944.44962	7678.8125
2946.91261	7663.2125
2949.37409	7657.3125
2951.83407	7660.2125
2954.29254	7628.8125
2956.74951	7626.2125
2959.20498	7618.0125
2961.65895	7634.9125
2964.11142	7620.9125
2966.56239	7619.2125
2969.01186	7589.5125
2971.45984	7563.6125
2973.90632	7562.2125
2976.35131	7536.6125
2978.7948	7514.1125
2981.23681	7480.8125
2983.67732	7473.4125
2986.11635	7478.7125
2988.55388	7443.6125
2990.98993	7417.5125
2993.4245	7405.4125
2995.85758	7395.1125
2998.28917	7376.2125
3000.71928	7340.4125
3003.14791	7362.4125
3005.57506	7346.6125
3008.00073	7325.8125
3010.42493	7342.2125
3012.84764	7316.3125
3015.26888	7316.6125
3017.68865	7272.5125
3020.10694	7272.6125
3022.52376	7263.8125
3024.9391	7266.7125
3027.35298	7255.1125
3029.76539	7279.1125
3032.17632	7248.5125
3034.5858	7234.8125
3036.9938	7243.2125
3039.40034	7260.2125
3041.80542	7241.7125
3044.20903	7215.3125
3046.61118	7208.9125
3049.01187	7211.9125
3051.4111	7212.6125
3053.80888	7181.8125
3056.20519	7173.4125
3058.60005	7158.9125
3060.99345	7161.2125
3063.3854	7135.4125
3065.7759	7108.0125
3068.16494	7130.0125
3070.55254	7080.8125
3072.93868	7081.8125
3075.32338	7075.4125
