Data from AgNPs_FTO_APTES_UA_1uM_CRN_10uM_R6G_10uM_NaF_0.1M_Addition_RamanShift__5__14-21-39-626.txt Node

Date: Thu Jan 27 14:21:39 GMT 2022
User: TCL
Spectrometer: QEP01345
Trigger mode: 4
Integration Time (sec): 7.000000E0
Scans to average: 10
Electric dark correction enabled: true
Nonlinearity correction enabled: false
Boxcar width: 0
XAxis mode: Raman Shifts
Number of Pixels in Spectrum: 1044
>>>>>Begin Spectral Data<<<<<
46.04893	0.475
50.45542	0.975
54.85868	-1.425
59.25871	-2.425
63.6555	50.175
68.04907	53.375
72.43941	54.975
76.82654	58.275
81.21044	57.875
85.59113	60.075
89.96862	61.375
94.34289	64.475
98.71396	67.975
103.08183	69.175
107.4465	72.075
111.80798	72.275
116.16626	73.775
120.52136	79.975
124.87327	78.875
129.222	77.575
133.56755	80.975
137.90993	86.575
142.24913	97.475
146.58517	110.075
150.91804	119.875
155.24774	139.175
159.57429	167.175
163.89768	212.875
168.21792	282.875
172.53501	375.075
176.84895	521.375
181.15975	726.375
185.46741	1003.875
189.77193	1398.775
194.07331	1849.875
198.37157	2409.675
202.6667	2975.475
206.9587	3527.775
211.24758	4076.975
215.53334	4612.975
219.81599	5212.675
224.09553	5857.275
228.37195	6572.475
232.64527	7348.075
236.91549	8183.675
241.18261	8991.175
245.44663	9749.075
249.70755	10443.075
253.96539	11065.775
258.22014	11579.475
262.4718	12007.775
266.72039	12322.475
270.96589	12468.575
275.20832	12473.275
279.44768	12407.375
283.68397	12283.375
287.91719	12159.175
292.14735	12060.175
296.37445	12054.575
300.59849	12090.975
304.81948	12154.475
309.03742	12192.775
313.25231	12128.075
317.46415	11930.575
321.67296	11689.775
325.87872	11481.975
330.08145	11365.675
334.28114	11349.175
338.47781	11417.475
342.67145	11531.475
346.86207	11727.075
351.04966	11948.175
355.23424	12165.375
359.4158	12387.775
363.59435	12539.675
367.76989	12663.075
371.94243	12778.575
376.11196	12838.775
380.27849	12886.675
384.44203	12971.475
388.60257	13070.075
392.76012	13170.875
396.91468	13329.875
401.06626	13529.575
405.21485	13676.475
409.36047	13639.775
413.50311	13501.175
417.64277	13402.875
421.77947	13447.575
425.9132	13472.175
430.04396	13570.075
434.17176	13633.075
438.2966	13697.975
442.41849	13916.275
446.53742	14229.575
450.6534	14603.575
454.76644	14894.875
458.87653	14978.475
462.98368	14847.375
467.08789	14679.875
471.18916	14461.775
475.2875	14227.375
479.38291	14048.875
483.4754	13948.175
487.56496	13847.975
491.6516	13700.975
495.73531	13566.975
499.81612	13562.275
503.89401	13637.875
507.96899	13682.675
512.04106	13673.175
516.11023	13583.975
520.1765	13466.075
524.23987	13409.275
528.30034	13318.475
532.35792	13215.275
536.41261	13073.275
540.46441	12935.775
544.51333	12899.975
548.55936	12982.375
552.60252	13230.775
556.64279	13515.775
560.6802	13695.775
564.71473	13748.275
568.7464	13916.275
572.7752	14170.075
576.80114	14486.275
580.82422	14810.075
584.84444	15297.575
588.86181	15914.475
592.87633	16365.775
596.888	16323.475
600.89682	15824.475
604.9028	15760.875
608.90594	16789.975
612.90624	17983.475
616.90371	17120.775
620.89834	14779.175
624.89015	13704.975
628.87913	13526.475
632.86528	13518.175
636.84862	13415.475
640.82913	13218.275
644.80683	12924.275
648.78172	12778.475
652.75379	12750.975
656.72306	12922.675
660.68952	13097.575
664.65319	13036.475
668.61405	12822.375
672.57211	12786.475
676.52738	12838.175
680.47986	12833.875
684.42955	12757.475
688.37646	12685.675
692.32058	12776.475
696.26192	12986.475
700.20048	13153.375
704.13626	13244.575
708.06928	13191.975
711.99952	13091.975
715.927	13118.475
719.85171	13170.375
723.77365	13134.775
727.69284	12958.275
731.60928	12815.275
735.52295	12736.475
739.43388	12761.675
743.34206	12797.175
747.24749	12866.775
751.15017	12978.475
755.05012	13161.875
758.94733	13471.775
762.8418	13998.475
766.73354	14814.375
770.62254	15628.175
774.50882	15820.575
778.39237	15288.775
782.27321	14394.575
786.15132	13666.775
790.02671	13215.075
793.89938	13000.675
797.76935	12919.175
801.6366	12892.975
805.50115	12850.175
809.36299	12793.375
813.22213	12707.975
817.07857	12616.375
820.93231	12587.975
824.78336	12582.575
828.63172	12526.075
832.47738	12564.375
836.32036	12594.375
840.16066	12718.575
843.99827	12759.475
847.8332	12717.875
851.66546	12621.775
855.49504	12577.075
859.32195	12561.075
863.1462	12552.275
866.96777	12509.175
870.78668	12480.675
874.60293	12452.275
878.41652	12489.275
882.22745	12508.975
886.03573	12572.875
889.84136	12606.975
893.64433	12545.975
897.44466	12466.675
901.24235	12406.275
905.0374	12359.375
908.8298	12382.175
912.61957	12384.575
916.40671	12466.675
920.19121	12655.875
923.97308	12836.375
927.75233	12912.075
931.52895	12880.275
935.30295	12739.375
939.07433	12546.475
942.84309	12404.075
946.60924	12332.675
950.37278	12293.575
954.13371	12290.175
957.89203	12202.775
961.64774	12183.975
965.40086	12164.375
969.15137	12168.275
972.89929	12123.875
976.64461	12094.575
980.38733	12150.675
984.12747	12185.975
987.86502	12302.575
991.59999	12464.475
995.33237	12698.075
999.06217	13059.275
1002.78939	13493.075
1006.51404	13756.275
1010.23611	13872.375
1013.95561	13939.675
1017.67255	13911.475
1021.38692	13789.375
1025.09872	13671.875
1028.80796	13797.275
1032.51465	14298.975
1036.21877	14830.475
1039.92035	14962.275
1043.61937	14738.875
1047.31584	14359.275
1051.00976	13873.075
1054.70114	13589.175
1058.38998	13489.775
1062.07627	13456.975
1065.76003	13479.775
1069.44126	13560.575
1073.11995	13731.375
1076.79611	13915.675
1080.46974	14037.175
1084.14085	14131.475
1087.80943	14250.175
1091.47549	14308.575
1095.13903	14270.775
1098.80005	14118.375
1102.45857	13845.375
1106.11456	13638.775
1109.76805	13577.575
1113.41903	13590.575
1117.06751	13623.575
1120.71348	13718.875
1124.35696	13808.075
1127.99793	13957.175
1131.63641	14054.075
1135.2724	13990.775
1138.90589	13922.275
1142.5369	13934.075
1146.16542	13970.775
1149.79145	14000.275
1153.415	14045.275
1157.03607	14185.275
1160.65467	14542.775
1164.27079	15114.275
1167.88443	15864.875
1171.49561	16708.775
1175.10432	17642.075
1178.71056	18919.375
1182.31434	20184.275
1185.91565	20880.175
1189.51451	20791.775
1193.11091	20227.775
1196.70485	19515.375
1200.29634	18799.875
1203.88538	18378.675
1207.47197	18068.275
1211.05612	17740.975
1214.63782	17457.175
1218.21708	17086.775
1221.79391	16827.275
1225.36829	16587.075
1228.94024	16378.275
1232.50976	16097.175
1236.07685	15843.375
1239.6415	15741.875
1243.20374	15775.475
1246.76355	15913.175
1250.32093	16161.275
1253.8759	16517.575
1257.42845	16940.575
1260.97859	17414.675
1264.52631	17892.175
1268.07163	18362.375
1271.61453	18948.175
1275.15503	19500.775
1278.69312	20118.075
1282.22882	20550.175
1285.76211	21013.775
1289.29301	21513.475
1292.82151	22301.775
1296.34761	23377.375
1299.87133	24775.575
1303.39266	26388.075
1306.9116	27884.975
1310.42815	29050.575
1313.94233	29391.975
1317.45412	28901.375
1320.96354	28046.475
1324.47058	27290.575
1327.97525	26652.275
1331.47754	26220.975
1334.97747	25961.775
1338.47502	25701.575
1341.97022	25286.375
1345.46305	24851.875
1348.95352	24618.075
1352.44163	24770.575
1355.92738	25610.675
1359.41078	27036.775
1362.89183	28082.775
1366.37053	27730.375
1369.84688	25629.175
1373.32088	22951.175
1376.79254	21027.075
1380.26186	20227.975
1383.72883	20164.575
1387.19347	20166.375
1390.65578	19883.075
1394.11575	19710.875
1397.57339	19783.575
1401.0287	20036.075
1404.48168	20338.675
1407.93234	20401.875
1411.38068	20186.275
1414.82669	19784.075
1418.27039	19166.475
1421.71177	18503.275
1425.15083	17925.875
1428.58758	17653.375
1432.02203	17758.475
1435.45416	18254.175
1438.88399	18770.175
1442.31151	19131.175
1445.73673	19309.775
1449.15965	19382.575
1452.58027	19342.875
1455.9986	19223.275
1459.41463	19201.475
1462.82837	19422.575
1466.23982	19824.675
1469.64898	20209.375
1473.05586	20518.575
1476.46045	20629.975
1479.86276	20607.175
1483.26279	20443.275
1486.66054	20339.075
1490.05602	20371.075
1493.44922	20532.975
1496.84016	20704.475
1500.22882	20941.075
1503.61521	21334.775
1506.99934	21907.475
1510.38121	22392.275
1513.76081	22511.875
1517.13816	22109.775
1520.51324	21436.575
1523.88607	20836.575
1527.25665	20586.975
1530.62498	20549.275
1533.99105	20452.475
1537.35488	20288.875
1540.71647	19968.375
1544.07581	19577.475
1547.4329	19171.175
1550.78776	18794.375
1554.14038	18541.175
1557.49077	18391.475
1560.83892	18249.875
1564.18484	18116.475
1567.52853	18154.875
1570.86999	18295.575
1574.20922	18548.375
1577.54624	18799.075
1580.88103	18914.875
1584.2136	19122.475
1587.54395	19767.475
1590.87208	20846.475
1594.19801	22180.075
1597.52172	23418.075
1600.84321	23775.875
1604.16251	22738.175
1607.47959	20905.875
1610.79447	19045.475
1614.10715	17397.975
1617.41763	16188.475
1620.7259	15389.375
1624.03199	15026.375
1627.33587	15106.675
1630.63757	15552.875
1633.93707	16401.875
1637.23439	17716.775
1640.52951	19719.675
1643.82246	21994.075
1647.11321	23844.475
1650.40179	24141.875
1653.68819	22399.275
1656.97241	19580.775
1660.25446	16899.275
1663.53433	15016.875
1666.81203	13805.175
1670.08756	13112.575
1673.36092	12661.775
1676.63211	12380.675
1679.90115	12188.875
1683.16801	12011.675
1686.43272	11889.475
1689.69527	11817.875
1692.95567	11694.275
1696.2139	11668.075
1699.46999	11603.275
1702.72392	11563.075
1705.97571	11551.175
1709.22535	11574.775
1712.47284	11571.975
1715.71819	11582.175
1718.96139	11588.175
1722.20246	11539.475
1725.44139	11502.275
1728.67818	11464.275
1731.91284	11404.475
1735.14537	11353.175
1738.37576	11269.675
1741.60403	11240.675
1744.83017	11233.675
1748.05418	11204.575
1751.27607	11164.075
1754.49584	11158.775
1757.71349	11123.775
1760.92903	11104.775
1764.14244	11065.275
1767.35375	11071.975
1770.56294	11066.275
1773.77002	11083.175
1776.97499	11061.875
1780.17785	11078.975
1783.37861	11068.675
1786.57727	11060.975
1789.77382	11057.175
1792.96828	11041.775
1796.16064	11013.775
1799.3509	11004.375
1802.53907	10991.375
1805.72514	10966.875
1808.90913	10953.275
1812.09102	10923.975
1815.27083	10906.075
1818.44856	10916.375
1821.6242	10881.575
1824.79776	10881.475
1827.96924	10878.475
1831.13864	10863.875
1834.30597	10908.775
1837.47122	10852.175
1840.6344	10872.575
1843.7955	10881.375
1846.95454	10860.275
1850.11151	10865.975
1853.26642	10883.775
1856.41926	10875.675
1859.57004	10885.075
1862.71876	10850.275
1865.86542	10850.275
1869.01003	10830.475
1872.15258	10832.975
1875.29308	10824.575
1878.43152	10816.175
1881.56792	10790.175
1884.70227	10775.675
1887.83457	10789.175
1890.96482	10759.675
1894.09304	10754.875
1897.21921	10739.575
1900.34335	10741.575
1903.46544	10747.975
1906.58551	10731.975
1909.70353	10705.075
1912.81953	10711.775
1915.93349	10675.975
1919.04543	10657.575
1922.15534	10636.275
1925.26322	10663.975
1928.36908	10614.575
1931.47292	10593.975
1934.57473	10592.575
1937.67453	10576.075
1940.77232	10546.575
1943.86808	10519.175
1946.96184	10454.375
1950.05358	10437.875
1953.14331	10422.275
1956.23103	10387.775
1959.31675	10384.475
1962.40046	10367.975
1965.48217	10350.475
1968.56188	10310.175
1971.63959	10271.075
1974.7153	10238.775
1977.78901	10247.575
1980.86073	10206.575
1983.93046	10162.875
1986.99819	10148.475
1990.06394	10123.875
1993.1277	10079.575
1996.18947	10049.675
1999.24925	10044.375
2002.30706	9981.575
2005.36288	9981.975
2008.41672	9940.275
2011.46859	9909.775
2014.51848	9908.675
2017.56639	9897.275
2020.61233	9869.675
2023.6563	9859.075
2026.6983	9860.975
2029.73833	9823.575
2032.7764	9821.975
2035.8125	9793.475
2038.84664	9789.375
2041.87881	9773.775
2044.90903	9777.275
2047.93729	9765.775
2050.96359	9770.375
2053.98794	9727.275
2057.01034	9721.575
2060.03078	9729.675
2063.04927	9729.775
2066.06582	9742.175
2069.08042	9732.675
2072.09307	9706.975
2075.10378	9704.475
2078.11255	9699.275
2081.11938	9691.175
2084.12426	9689.075
2087.12722	9680.675
2090.12824	9696.475
2093.12732	9704.375
2096.12447	9679.875
2099.11969	9682.175
2102.11299	9699.675
2105.10435	9709.275
2108.09379	9716.375
2111.08131	9716.075
2114.0669	9733.675
2117.05057	9730.875
2120.03233	9753.075
2123.01216	9741.275
2125.99008	9769.975
2128.96609	9778.775
2131.94018	9782.975
2134.91236	9782.575
2137.88263	9807.775
2140.851	9808.275
2143.81746	9820.875
2146.78201	9812.375
2149.74466	9854.975
2152.7054	9840.475
2155.66425	9833.875
2158.6212	9849.975
2161.57625	9821.575
2164.52941	9843.075
2167.48067	9816.775
2170.43004	9816.275
2173.37752	9826.475
2176.32311	9839.375
2179.26681	9827.175
2182.20863	9851.375
2185.14856	9839.975
2188.08661	9865.675
2191.02278	9873.075
2193.95707	9859.475
2196.88948	9869.575
2199.82001	9870.175
2202.74867	9864.775
2205.67545	9864.975
2208.60037	9848.975
2211.52341	9834.275
2214.44458	9841.675
2217.36388	9816.175
2220.28132	9797.075
2223.1969	9800.475
2226.11061	9801.275
2229.02246	9758.175
2231.93245	9774.175
2234.84058	9753.275
2237.74686	9725.075
2240.65128	9741.775
2243.55385	9726.375
2246.45456	9710.375
2249.35343	9674.975
2252.25044	9687.575
2255.14561	9662.175
2258.03893	9654.375
2260.93041	9630.075
2263.82004	9635.375
2266.70783	9588.975
2269.59378	9594.375
2272.4779	9576.075
2275.36017	9573.975
2278.24061	9536.975
2281.11922	9550.675
2283.996	9545.275
2286.87094	9517.675
2289.74405	9517.975
2292.61534	9494.075
2295.4848	9510.775
2298.35243	9523.375
2301.21824	9533.475
2304.08223	9538.175
2306.94439	9544.075
2309.80474	9562.575
2312.66327	9538.175
2315.51999	9533.475
2318.37489	9534.675
2321.22797	9530.075
2324.07925	9532.175
2326.92871	9518.775
2329.77637	9530.675
2332.62222	9490.075
2335.46626	9519.175
2338.3085	9501.475
2341.14893	9522.275
2343.98756	9496.475
2346.8244	9505.675
2349.65943	9499.575
2352.49267	9490.675
2355.32411	9476.975
2358.15376	9483.975
2360.98161	9492.275
2363.80768	9464.075
2366.63195	9471.775
2369.45444	9438.375
2372.27514	9414.175
2375.09405	9417.775
2377.91118	9396.875
2380.72652	9372.575
2383.54009	9358.275
2386.35187	9383.975
2389.16188	9356.375
2391.97011	9349.575
2394.77657	9345.475
2397.58125	9325.275
2400.38416	9324.775
2403.18529	9293.775
2405.98466	9282.375
2408.78226	9251.575
2411.57809	9253.575
2414.37216	9256.475
2417.16446	9250.375
2419.955	9230.775
2422.74378	9238.075
2425.5308	9233.775
2428.31606	9238.775
2431.09956	9221.975
2433.88131	9198.475
2436.6613	9214.775
2439.43954	9195.875
2442.21603	9210.175
2444.99077	9212.775
2447.76377	9225.475
2450.53501	9210.575
2453.30451	9230.875
2456.07226	9195.375
2458.83827	9196.675
2461.60254	9219.575
2464.36507	9211.275
2467.12586	9211.875
2469.88492	9213.375
2472.64224	9217.075
2475.39782	9219.475
2478.15167	9236.475
2480.90379	9236.275
2483.65417	9222.475
2486.40283	9256.875
2489.14976	9252.875
2491.89497	9260.175
2494.63845	9255.375
2497.3802	9238.275
2500.12024	9250.275
2502.85855	9235.375
2505.59514	9243.375
2508.33002	9216.875
2511.06318	9230.075
2513.79462	9224.975
2516.52435	9229.275
2519.25237	9215.875
2521.97867	9194.775
2524.70327	9232.775
2527.42616	9180.575
2530.14734	9198.375
2532.86681	9224.075
2535.58458	9198.475
2538.30065	9176.375
2541.01501	9172.175
2543.72768	9191.575
2546.43864	9156.975
2549.14791	9165.475
2551.85548	9162.275
2554.56136	9158.275
2557.26554	9137.275
2559.96803	9144.675
2562.66883	9167.275
2565.36794	9152.675
2568.06536	9142.975
2570.7611	9103.175
2573.45514	9118.375
2576.14751	9117.675
2578.83819	9123.475
2581.52719	9111.375
2584.21451	9125.175
2586.90015	9116.275
2589.58411	9104.075
2592.2664	9121.275
2594.94701	9094.475
2597.62594	9107.175
2600.30321	9070.375
2602.9788	9070.275
2605.65273	9083.875
2608.32498	9081.775
2610.99557	9083.175
2613.66449	9081.875
2616.33175	9075.575
2618.99734	9072.475
2621.66128	9086.975
2624.32355	9066.575
2626.98416	9095.175
2629.64311	9072.175
2632.30041	9076.375
2634.95605	9043.775
2637.61004	9058.175
2640.26238	9030.175
2642.91306	9024.175
2645.56209	9036.575
2648.20948	9045.975
2650.85521	9031.375
2653.4993	9018.875
2656.14175	9035.875
2658.78255	9034.975
2661.42171	9048.175
2664.05923	9058.075
2666.6951	9073.775
2669.32934	9079.975
2671.96194	9042.875
2674.59291	9051.775
2677.22224	9058.175
2679.84993	9084.075
2682.476	9052.375
2685.10043	9059.375
2687.72324	9043.275
2690.34441	9043.575
2692.96396	9040.375
2695.58188	9038.175
2698.19818	9046.275
2700.81285	9050.275
2703.4259	9040.175
2706.03733	9043.975
2708.64714	9017.875
2711.25533	9053.675
2713.86191	9070.975
2716.46687	9095.975
2719.07021	9088.775
2721.67194	9090.175
2724.27206	9079.975
2726.87057	9143.075
2729.46747	9156.475
2732.06276	9141.375
2734.65644	9129.975
2737.24852	9133.775
2739.83899	9107.575
2742.42786	9130.975
2745.01513	9109.275
2747.60079	9121.375
2750.18486	9115.375
2752.76733	9115.375
2755.3482	9121.275
2757.92747	9119.975
2760.50515	9105.875
2763.08123	9088.975
2765.65573	9094.775
2768.22863	9080.075
2770.79994	9097.275
2773.36967	9110.075
2775.9378	9110.275
2778.50435	9098.575
2781.06932	9082.075
2783.6327	9074.375
2786.1945	9103.775
2788.75471	9085.175
2791.31335	9063.475
2793.87041	9054.775
2796.42589	9063.075
2798.97979	9052.775
2801.53212	9018.475
2804.08288	9018.375
2806.63206	8982.575
2809.17967	8988.475
2811.72571	8955.875
2814.27018	8970.575
2816.81308	8965.675
2819.35442	8949.675
2821.89419	8940.175
2824.43239	8949.875
2826.96904	8941.675
2829.50412	8934.775
2832.03763	8932.075
2834.56959	8930.175
2837.1	8922.975
2839.62884	8929.275
2842.15613	8912.775
2844.68186	8931.075
2847.20604	8952.775
2849.72867	8954.075
2852.24974	8968.575
2854.76927	8943.675
2857.28724	8948.575
2859.80367	8923.675
2862.31855	8925.875
2864.83189	8922.675
2867.34368	8908.075
2869.85393	8916.275
2872.36264	8925.175
2874.8698	8918.675
2877.37543	8903.875
2879.87952	8896.275
2882.38207	8914.475
2884.88308	8895.175
2887.38256	8912.175
2889.88051	8908.175
2892.37692	8933.975
2894.8718	8920.675
2897.36515	8927.575
2899.85698	8949.375
2902.34727	8965.475
2904.83604	8977.975
2907.32328	9000.775
2909.809	8969.575
2912.29319	8980.075
2914.77587	8982.575
2917.25702	8997.175
2919.73665	8986.575
2922.21476	8995.975
2924.69136	8997.775
2927.16644	8995.375
2929.64	8969.875
2932.11205	8982.675
2934.58258	8951.975
2937.05161	8966.775
2939.51912	8959.575
2941.98513	8952.675
2944.44962	8924.975
2946.91261	8899.875
2949.37409	8926.475
2951.83407	8948.675
2954.29254	8901.875
2956.74951	8899.775
2959.20498	8901.375
2961.65895	8904.175
2964.11142	8901.275
2966.56239	8886.075
2969.01186	8873.575
2971.45984	8869.875
2973.90632	8880.075
2976.35131	8856.475
2978.7948	8833.675
2981.23681	8835.475
2983.67732	8822.175
2986.11635	8796.475
2988.55388	8786.375
2990.98993	8770.475
2993.4245	8743.175
2995.85758	8746.875
2998.28917	8731.075
3000.71928	8718.175
3003.14791	8716.075
3005.57506	8697.875
3008.00073	8669.575
3010.42493	8677.675
3012.84764	8682.975
3015.26888	8667.075
3017.68865	8674.575
3020.10694	8637.175
3022.52376	8621.275
3024.9391	8630.975
3027.35298	8611.275
3029.76539	8607.075
3032.17632	8620.075
3034.5858	8606.975
3036.9938	8585.075
3039.40034	8595.375
3041.80542	8621.175
3044.20903	8578.175
3046.61118	8579.275
3049.01187	8557.975
3051.4111	8594.175
3053.80888	8576.375
3056.20519	8557.675
3058.60005	8542.175
3060.99345	8518.175
3063.3854	8479.175
3065.7759	8473.175
3068.16494	8490.075
3070.55254	8443.075
3072.93868	8459.675
3075.32338	8456.075
3077.70662	8431.175
3080.08842	8412.775
3082.46878	8407.175
3084.84769	8404.975
3087.22515	8397.175
3089.60118	8392.675
3091.97576	8422.075
3094.3489	8405.975
3096.72061	8424.475
3099.09087	8426.875
3101.4597	8423.775
3103.82709	8414.975
3106.19305	8399.675
3108.55757	8416.175
3110.92066	8395.575
3113.28232	8371.075
3115.64255	8374.675
3118.00134	8355.675
3120.35871	8358.575
3122.71466	8361.475
3125.06917	8321.975
3127.42226	8317.775
3129.77393	8306.775
3132.12417	8322.575
3134.47299	8303.575
3136.82039	8307.975
3139.16636	8335.475
3141.51092	8337.575
3143.85406	8360.275
3146.19579	8349.775
3148.53609	8368.375
3150.87499	8392.075
3153.21246	8371.575
3155.54853	8365.675
3157.88318	8358.375
3160.21642	8380.975
3162.54826	8367.475
3164.87868	8378.775
3167.2077	8404.375
3169.5353	8387.475
3171.86151	8395.375
3174.18631	8385.675
3176.5097	8378.975
3178.83169	8380.875
