Data from AgNPs_FTO_APTES_UA_1uM_CRN_100uM_R6G_10uM_NaF_0.1M_Addition_RamanShift__20__16-43-59-789.txt Node

Date: Thu Jan 27 16:43:59 GMT 2022
User: TCL
Spectrometer: QEP01345
Trigger mode: 4
Integration Time (sec): 7.000000E0
Scans to average: 10
Electric dark correction enabled: true
Nonlinearity correction enabled: false
Boxcar width: 0
XAxis mode: Raman Shifts
Number of Pixels in Spectrum: 1044
>>>>>Begin Spectral Data<<<<<
46.04893	0.325
50.45542	-0.475
54.85868	-1.775
59.25871	-0.675
63.6555	44.625
68.04907	44.725
72.43941	50.125
76.82654	50.725
81.21044	51.125
85.59113	52.725
89.96862	56.625
94.34289	55.825
98.71396	62.225
103.08183	58.925
107.4465	66.425
111.80798	67.425
116.16626	66.125
120.52136	71.225
124.87327	70.425
129.222	73.525
133.56755	76.525
137.90993	78.325
142.24913	84.325
146.58517	91.425
150.91804	105.425
155.24774	124.725
159.57429	144.425
163.89768	187.725
168.21792	246.225
172.53501	332.925
176.84895	454.525
181.15975	632.225
185.46741	880.425
189.77193	1219.125
194.07331	1627.525
198.37157	2099.025
202.6667	2591.525
206.9587	3094.725
211.24758	3554.225
215.53334	4040.625
219.81599	4533.625
224.09553	5099.125
228.37195	5688.325
232.64527	6363.825
236.91549	7063.325
241.18261	7785.625
245.44663	8477.525
249.70755	9085.825
253.96539	9651.825
258.22014	10105.625
262.4718	10515.025
266.72039	10789.925
270.96589	10943.125
275.20832	11002.025
279.44768	10989.825
283.68397	10922.725
287.91719	10885.725
292.14735	10853.325
296.37445	10886.925
300.59849	10890.025
304.81948	10922.825
309.03742	10856.825
313.25231	10684.625
317.46415	10410.325
321.67296	10096.825
325.87872	9881.325
330.08145	9779.725
334.28114	9777.625
338.47781	9840.225
342.67145	9938.025
346.86207	10092.325
351.04966	10285.425
355.23424	10475.125
359.4158	10649.625
363.59435	10735.625
367.76989	10837.625
371.94243	10930.125
376.11196	11004.525
380.27849	11069.925
384.44203	11120.525
388.60257	11239.725
392.76012	11340.125
396.91468	11471.325
401.06626	11629.725
405.21485	11732.725
409.36047	11767.425
413.50311	11607.925
417.64277	11502.225
421.77947	11486.425
425.9132	11530.425
430.04396	11601.025
434.17176	11708.325
438.2966	11809.425
442.41849	11997.725
446.53742	12222.625
450.6534	12564.425
454.76644	12817.225
458.87653	12944.125
462.98368	12952.725
467.08789	12871.325
471.18916	12758.625
475.2875	12682.025
479.38291	12660.725
483.4754	12616.025
487.56496	12471.425
491.6516	12262.425
495.73531	12051.025
499.81612	11949.425
503.89401	11970.225
507.96899	11990.825
512.04106	11989.325
516.11023	11916.825
520.1765	11828.025
524.23987	11717.425
528.30034	11606.625
532.35792	11543.025
536.41261	11458.225
540.46441	11380.625
544.51333	11418.125
548.55936	11528.125
552.60252	11763.125
556.64279	11979.125
560.6802	12140.525
564.71473	12260.725
568.7464	12405.125
572.7752	12601.525
576.80114	12779.325
580.82422	12957.025
584.84444	13069.525
588.86181	13192.425
592.87633	13340.725
596.888	13414.825
600.89682	13545.625
604.9028	13814.925
608.90594	14577.025
612.90624	15387.725
616.90371	14586.925
620.89834	12757.625
624.89015	12003.725
628.87913	12004.425
632.86528	12039.725
636.84862	12028.425
640.82913	11915.025
644.80683	11639.925
648.78172	11417.125
652.75379	11327.225
656.72306	11390.525
660.68952	11519.625
664.65319	11504.425
668.61405	11374.125
672.57211	11303.725
676.52738	11322.525
680.47986	11368.325
684.42955	11343.425
688.37646	11302.125
692.32058	11316.425
696.26192	11379.525
700.20048	11492.725
704.13626	11543.725
708.06928	11508.725
711.99952	11480.125
715.927	11444.525
719.85171	11462.525
723.77365	11441.625
727.69284	11389.925
731.60928	11275.925
735.52295	11272.025
739.43388	11294.825
743.34206	11299.125
747.24749	11322.725
751.15017	11430.825
755.05012	11579.825
758.94733	11898.425
762.8418	12348.725
766.73354	13059.025
770.62254	13777.525
774.50882	13901.625
778.39237	13380.525
782.27321	12522.825
786.15132	11886.525
790.02671	11522.625
793.89938	11310.225
797.76935	11273.025
801.6366	11229.125
805.50115	11224.625
809.36299	11214.025
813.22213	11122.525
817.07857	11122.925
820.93231	11079.225
824.78336	11069.725
828.63172	11059.825
832.47738	11059.125
836.32036	11050.825
840.16066	11109.825
843.99827	11151.025
847.8332	11115.425
851.66546	11067.825
855.49504	11049.425
859.32195	11046.325
863.1462	11021.325
866.96777	10995.725
870.78668	10958.525
874.60293	10966.725
878.41652	10937.225
882.22745	10958.325
886.03573	10989.025
889.84136	11015.525
893.64433	10981.525
897.44466	10923.725
901.24235	10884.525
905.0374	10861.925
908.8298	10811.525
912.61957	10869.525
916.40671	10952.725
920.19121	11095.625
923.97308	11208.325
927.75233	11211.925
931.52895	11174.125
935.30295	11057.625
939.07433	10911.725
942.84309	10799.525
946.60924	10695.625
950.37278	10649.825
954.13371	10634.425
957.89203	10600.125
961.64774	10565.525
965.40086	10537.525
969.15137	10491.125
972.89929	10435.725
976.64461	10403.625
980.38733	10403.825
984.12747	10438.525
987.86502	10491.025
991.59999	10644.125
995.33237	10822.825
999.06217	11084.425
1002.78939	11371.325
1006.51404	11498.425
1010.23611	11574.125
1013.95561	11642.825
1017.67255	11657.125
1021.38692	11597.925
1025.09872	11525.225
1028.80796	11607.525
1032.51465	11902.625
1036.21877	12153.225
1039.92035	12224.925
1043.61937	12071.325
1047.31584	11807.925
1051.00976	11529.025
1054.70114	11431.725
1058.38998	11462.225
1062.07627	11505.525
1065.76003	11593.025
1069.44126	11647.225
1073.11995	11735.025
1076.79611	11789.725
1080.46974	11852.825
1084.14085	11879.525
1087.80943	11929.625
1091.47549	12006.925
1095.13903	12010.625
1098.80005	11894.725
1102.45857	11733.625
1106.11456	11589.325
1109.76805	11553.125
1113.41903	11595.225
1117.06751	11654.925
1120.71348	11776.025
1124.35696	11893.525
1127.99793	11985.925
1131.63641	12057.825
1135.2724	12022.325
1138.90589	11907.125
1142.5369	11848.925
1146.16542	11870.425
1149.79145	11897.925
1153.415	11996.825
1157.03607	12155.725
1160.65467	12407.425
1164.27079	12802.025
1167.88443	13367.925
1171.49561	14091.525
1175.10432	14940.825
1178.71056	15977.025
1182.31434	16995.325
1185.91565	17572.625
1189.51451	17647.925
1193.11091	17304.825
1196.70485	16745.825
1200.29634	16121.325
1203.88538	15612.725
1207.47197	15258.825
1211.05612	15007.725
1214.63782	14730.925
1218.21708	14527.325
1221.79391	14335.025
1225.36829	14234.125
1228.94024	14070.125
1232.50976	13867.425
1236.07685	13686.025
1239.6415	13592.225
1243.20374	13561.425
1246.76355	13619.425
1250.32093	13811.125
1253.8759	14035.325
1257.42845	14390.925
1260.97859	14677.525
1264.52631	14958.025
1268.07163	15283.125
1271.61453	15642.625
1275.15503	16067.125
1278.69312	16543.325
1282.22882	16956.925
1285.76211	17346.725
1289.29301	17762.325
1292.82151	18355.525
1296.34761	19129.625
1299.87133	20138.825
1303.39266	21211.325
1306.9116	22412.325
1310.42815	23516.625
1313.94233	24172.325
1317.45412	24162.725
1320.96354	23816.425
1324.47058	23359.325
1327.97525	23022.825
1331.47754	22746.725
1334.97747	22689.525
1338.47502	22733.525
1341.97022	22781.025
1345.46305	22669.025
1348.95352	22288.825
1352.44163	21890.625
1355.92738	21793.925
1359.41078	22194.625
1362.89183	22683.725
1366.37053	22300.025
1369.84688	20800.425
1373.32088	19043.125
1376.79254	17792.425
1380.26186	17262.025
1383.72883	17226.925
1387.19347	17335.625
1390.65578	17346.625
1394.11575	17405.425
1397.57339	17671.425
1401.0287	18048.925
1404.48168	18400.225
1407.93234	18523.225
1411.38068	18320.425
1414.82669	17840.825
1418.27039	17128.225
1421.71177	16381.425
1425.15083	15739.425
1428.58758	15366.925
1432.02203	15270.825
1435.45416	15514.425
1438.88399	15860.625
1442.31151	16186.925
1445.73673	16510.825
1449.15965	16774.325
1452.58027	17028.625
1455.9986	17191.725
1459.41463	17289.525
1462.82837	17500.025
1466.23982	17735.825
1469.64898	17984.325
1473.05586	18098.025
1476.46045	18060.925
1479.86276	17920.725
1483.26279	17732.425
1486.66054	17555.725
1490.05602	17469.325
1493.44922	17499.325
1496.84016	17554.825
1500.22882	17653.325
1503.61521	17958.225
1506.99934	18431.825
1510.38121	18936.825
1513.76081	19192.425
1517.13816	18941.725
1520.51324	18467.625
1523.88607	17979.825
1527.25665	17671.625
1530.62498	17602.125
1533.99105	17517.025
1537.35488	17458.425
1540.71647	17312.725
1544.07581	17065.325
1547.4329	16781.625
1550.78776	16566.325
1554.14038	16379.325
1557.49077	16247.725
1560.83892	16230.025
1564.18484	16204.025
1567.52853	16208.125
1570.86999	16271.925
1574.20922	16458.525
1577.54624	16676.725
1580.88103	16758.725
1584.2136	16887.425
1587.54395	17299.425
1590.87208	17937.325
1594.19801	18848.225
1597.52172	19758.625
1600.84321	20096.125
1604.16251	19451.725
1607.47959	18134.325
1610.79447	16827.425
1614.10715	15555.825
1617.41763	14466.325
1620.7259	13736.525
1624.03199	13307.725
1627.33587	13266.325
1630.63757	13535.425
1633.93707	14189.125
1637.23439	15210.725
1640.52951	16594.725
1643.82246	18116.325
1647.11321	19324.925
1650.40179	19582.325
1653.68819	18615.025
1656.97241	16755.925
1660.25446	14810.825
1663.53433	13260.325
1666.81203	12220.125
1670.08756	11540.825
1673.36092	11121.625
1676.63211	10879.825
1679.90115	10678.925
1683.16801	10523.925
1686.43272	10396.925
1689.69527	10281.125
1692.95567	10214.925
1696.2139	10132.425
1699.46999	10060.025
1702.72392	10003.425
1705.97571	10004.225
1709.22535	10029.625
1712.47284	10052.525
1715.71819	10060.725
1718.96139	10036.925
1722.20246	10020.325
1725.44139	10002.025
1728.67818	9951.625
1731.91284	9884.325
1735.14537	9860.025
1738.37576	9851.625
1741.60403	9804.225
1744.83017	9796.725
1748.05418	9748.125
1751.27607	9757.425
1754.49584	9703.925
1757.71349	9697.925
1760.92903	9640.725
1764.14244	9628.925
1767.35375	9636.525
1770.56294	9601.825
1773.77002	9597.225
1776.97499	9598.025
1780.17785	9607.525
1783.37861	9625.025
1786.57727	9607.325
1789.77382	9623.425
1792.96828	9592.225
1796.16064	9577.925
1799.3509	9567.225
1802.53907	9577.725
1805.72514	9526.525
1808.90913	9494.525
1812.09102	9487.425
1815.27083	9486.925
1818.44856	9468.025
1821.6242	9444.125
1824.79776	9433.125
1827.96924	9456.125
1831.13864	9431.025
1834.30597	9421.925
1837.47122	9434.825
1840.6344	9427.725
1843.7955	9430.625
1846.95454	9406.025
1850.11151	9413.025
1853.26642	9395.725
1856.41926	9435.025
1859.57004	9435.225
1862.71876	9404.625
1865.86542	9402.125
1869.01003	9391.625
1872.15258	9408.425
1875.29308	9425.925
1878.43152	9399.625
1881.56792	9391.625
1884.70227	9366.225
1887.83457	9392.625
1890.96482	9381.025
1894.09304	9370.825
1897.21921	9344.225
1900.34335	9350.925
1903.46544	9353.725
1906.58551	9342.025
1909.70353	9336.225
1912.81953	9333.725
1915.93349	9313.525
1919.04543	9298.525
1922.15534	9266.725
1925.26322	9275.625
1928.36908	9270.725
1931.47292	9238.225
1934.57473	9208.325
1937.67453	9192.725
1940.77232	9188.125
1943.86808	9149.325
1946.96184	9121.725
1950.05358	9086.825
1953.14331	9095.725
1956.23103	9029.725
1959.31675	9006.825
1962.40046	8979.825
1965.48217	8963.125
1968.56188	8937.125
1971.63959	8946.425
1974.7153	8912.225
1977.78901	8880.425
1980.86073	8847.225
1983.93046	8831.525
1986.99819	8823.525
1990.06394	8754.125
1993.1277	8756.125
1996.18947	8713.925
1999.24925	8704.325
2002.30706	8685.225
2005.36288	8673.525
2008.41672	8650.925
2011.46859	8614.525
2014.51848	8595.525
2017.56639	8577.925
2020.61233	8550.325
2023.6563	8543.925
2026.6983	8521.825
2029.73833	8533.325
2032.7764	8513.125
2035.8125	8496.325
2038.84664	8475.925
2041.87881	8454.625
2044.90903	8446.425
2047.93729	8453.525
2050.96359	8427.225
2053.98794	8406.625
2057.01034	8434.025
2060.03078	8427.425
2063.04927	8413.225
2066.06582	8404.625
2069.08042	8397.025
2072.09307	8388.125
2075.10378	8388.925
2078.11255	8388.625
2081.11938	8383.425
2084.12426	8385.225
2087.12722	8380.225
2090.12824	8366.525
2093.12732	8362.625
2096.12447	8372.225
2099.11969	8360.525
2102.11299	8371.725
2105.10435	8368.925
2108.09379	8370.025
2111.08131	8389.425
2114.0669	8414.025
2117.05057	8398.625
2120.03233	8396.725
2123.01216	8414.725
2125.99008	8427.125
2128.96609	8441.725
2131.94018	8434.825
2134.91236	8438.925
2137.88263	8483.025
2140.851	8461.525
2143.81746	8449.925
2146.78201	8469.625
2149.74466	8467.825
2152.7054	8460.025
2155.66425	8484.725
2158.6212	8477.225
2161.57625	8467.225
2164.52941	8466.425
2167.48067	8471.025
2170.43004	8465.225
2173.37752	8482.325
2176.32311	8470.625
2179.26681	8459.225
2182.20863	8496.525
2185.14856	8472.825
2188.08661	8486.325
2191.02278	8503.025
2193.95707	8491.925
2196.88948	8485.025
2199.82001	8494.925
2202.74867	8462.925
2205.67545	8483.925
2208.60037	8477.925
2211.52341	8451.025
2214.44458	8430.225
2217.36388	8458.925
2220.28132	8434.225
2223.1969	8408.325
2226.11061	8427.025
2229.02246	8405.125
2231.93245	8386.225
2234.84058	8364.025
2237.74686	8344.425
2240.65128	8338.725
2243.55385	8339.725
2246.45456	8325.925
2249.35343	8303.625
2252.25044	8276.125
2255.14561	8279.525
2258.03893	8275.125
2260.93041	8253.525
2263.82004	8234.025
2266.70783	8227.225
2269.59378	8203.625
2272.4779	8197.325
2275.36017	8181.825
2278.24061	8175.425
2281.11922	8166.925
2283.996	8164.925
2286.87094	8154.725
2289.74405	8132.725
2292.61534	8115.125
2295.4848	8093.125
2298.35243	8109.425
2301.21824	8098.425
2304.08223	8134.525
2306.94439	8126.025
2309.80474	8133.025
2312.66327	8127.125
2315.51999	8118.125
2318.37489	8133.425
2321.22797	8122.025
2324.07925	8094.225
2326.92871	8086.125
2329.77637	8077.725
2332.62222	8096.925
2335.46626	8075.225
2338.3085	8056.925
2341.14893	8069.825
2343.98756	8068.425
2346.8244	8078.925
2349.65943	8076.125
2352.49267	8081.125
2355.32411	8092.725
2358.15376	8068.625
2360.98161	8062.525
2363.80768	8064.925
2366.63195	8035.225
2369.45444	8034.625
2372.27514	8034.325
2375.09405	8012.625
2377.91118	7995.525
2380.72652	7991.125
2383.54009	7965.725
2386.35187	7966.225
2389.16188	7932.625
2391.97011	7935.325
2394.77657	7912.325
2397.58125	7892.925
2400.38416	7910.725
2403.18529	7891.425
2405.98466	7878.625
2408.78226	7863.225
2411.57809	7856.125
2414.37216	7821.525
2417.16446	7840.525
2419.955	7811.325
2422.74378	7818.225
2425.5308	7826.125
2428.31606	7818.725
2431.09956	7809.225
2433.88131	7797.125
2436.6613	7806.525
2439.43954	7790.225
2442.21603	7814.325
2444.99077	7794.025
2447.76377	7806.925
2450.53501	7789.225
2453.30451	7782.225
2456.07226	7775.125
2458.83827	7776.825
2461.60254	7762.425
2464.36507	7768.225
2467.12586	7761.725
2469.88492	7764.425
2472.64224	7761.025
2475.39782	7769.525
2478.15167	7744.725
2480.90379	7776.425
2483.65417	7777.725
2486.40283	7797.325
2489.14976	7798.425
2491.89497	7768.825
2494.63845	7783.225
2497.3802	7773.425
2500.12024	7786.225
2502.85855	7791.925
2505.59514	7776.425
2508.33002	7776.225
2511.06318	7771.125
2513.79462	7767.225
2516.52435	7771.025
2519.25237	7757.125
2521.97867	7760.625
2524.70327	7733.025
2527.42616	7723.025
2530.14734	7745.425
2532.86681	7725.125
2535.58458	7712.325
2538.30065	7709.525
2541.01501	7723.625
2543.72768	7694.225
2546.43864	7699.825
2549.14791	7682.125
2551.85548	7685.525
2554.56136	7673.325
2557.26554	7665.425
2559.96803	7660.425
2562.66883	7648.825
2565.36794	7645.825
2568.06536	7631.725
2570.7611	7637.625
2573.45514	7641.925
2576.14751	7619.925
2578.83819	7636.725
2581.52719	7628.625
2584.21451	7601.825
2586.90015	7604.925
2589.58411	7606.725
2592.2664	7611.125
2594.94701	7585.025
2597.62594	7594.125
2600.30321	7597.725
2602.9788	7587.025
2605.65273	7577.125
2608.32498	7569.525
2610.99557	7574.825
2613.66449	7572.225
2616.33175	7563.325
2618.99734	7593.725
2621.66128	7582.125
2624.32355	7582.125
2626.98416	7577.425
2629.64311	7597.625
2632.30041	7585.825
2634.95605	7562.325
2637.61004	7547.225
2640.26238	7550.725
2642.91306	7548.825
2645.56209	7546.725
2648.20948	7554.025
2650.85521	7517.025
2653.4993	7535.125
2656.14175	7537.025
2658.78255	7555.625
2661.42171	7533.425
2664.05923	7568.725
2666.6951	7550.725
2669.32934	7566.225
2671.96194	7552.525
2674.59291	7579.825
2677.22224	7564.125
2679.84993	7549.525
2682.476	7533.325
2685.10043	7525.025
2687.72324	7535.025
2690.34441	7537.725
2692.96396	7540.625
2695.58188	7550.425
2698.19818	7537.625
2700.81285	7545.925
2703.4259	7518.725
2706.03733	7515.425
2708.64714	7506.425
2711.25533	7561.625
2713.86191	7542.425
2716.46687	7563.225
2719.07021	7555.325
2721.67194	7567.725
2724.27206	7548.325
2726.87057	7596.625
2729.46747	7592.325
2732.06276	7592.025
2734.65644	7578.025
2737.24852	7568.625
2739.83899	7576.025
2742.42786	7582.225
2745.01513	7556.825
2747.60079	7543.925
2750.18486	7561.125
2752.76733	7565.825
2755.3482	7557.425
2757.92747	7556.425
2760.50515	7560.225
2763.08123	7557.125
2765.65573	7560.425
2768.22863	7573.625
2770.79994	7536.925
2773.36967	7550.925
2775.9378	7548.525
2778.50435	7541.125
2781.06932	7540.225
2783.6327	7533.425
2786.1945	7546.025
2788.75471	7523.525
2791.31335	7514.825
2793.87041	7523.025
2796.42589	7489.725
2798.97979	7510.625
2801.53212	7484.125
2804.08288	7487.025
2806.63206	7468.325
2809.17967	7443.625
2811.72571	7446.125
2814.27018	7424.625
2816.81308	7417.825
2819.35442	7426.625
2821.89419	7414.625
2824.43239	7404.425
2826.96904	7399.825
2829.50412	7377.925
2832.03763	7389.825
2834.56959	7374.525
2837.1	7375.625
2839.62884	7399.225
2842.15613	7382.325
2844.68186	7397.725
2847.20604	7425.125
2849.72867	7395.925
2852.24974	7379.225
2854.76927	7397.325
2857.28724	7375.625
2859.80367	7379.325
2862.31855	7384.425
2864.83189	7380.025
2867.34368	7368.125
2869.85393	7360.925
2872.36264	7357.725
2874.8698	7349.225
2877.37543	7346.025
2879.87952	7352.625
2882.38207	7350.425
2884.88308	7354.025
2887.38256	7361.025
2889.88051	7357.025
2892.37692	7351.925
2894.8718	7382.025
2897.36515	7406.825
2899.85698	7373.525
2902.34727	7388.025
2904.83604	7413.725
2907.32328	7428.825
2909.809	7434.125
2912.29319	7436.225
2914.77587	7456.025
2917.25702	7432.325
2919.73665	7424.925
2922.21476	7433.025
2924.69136	7421.825
2927.16644	7427.125
2929.64	7424.225
2932.11205	7427.725
2934.58258	7385.725
2937.05161	7413.025
2939.51912	7422.525
2941.98513	7400.325
2944.44962	7373.825
2946.91261	7367.425
2949.37409	7368.025
2951.83407	7368.825
2954.29254	7367.425
2956.74951	7342.525
2959.20498	7363.725
2961.65895	7345.025
2964.11142	7335.225
2966.56239	7333.525
2969.01186	7322.725
2971.45984	7289.125
2973.90632	7301.225
2976.35131	7287.525
2978.7948	7294.625
2981.23681	7266.225
2983.67732	7249.525
2986.11635	7242.225
2988.55388	7231.425
2990.98993	7230.425
2993.4245	7217.325
2995.85758	7214.525
2998.28917	7193.425
3000.71928	7183.025
3003.14791	7159.925
3005.57506	7165.825
3008.00073	7135.525
3010.42493	7136.325
3012.84764	7126.425
3015.26888	7127.725
3017.68865	7096.025
3020.10694	7107.025
3022.52376	7078.225
3024.9391	7096.525
3027.35298	7075.325
3029.76539	7084.325
3032.17632	7083.725
3034.5858	7059.325
3036.9938	7066.625
3039.40034	7059.825
3041.80542	7068.525
3044.20903	7061.725
3046.61118	7052.825
3049.01187	7044.525
3051.4111	7047.325
3053.80888	7033.125
3056.20519	7029.925
3058.60005	7013.025
3060.99345	6977.925
3063.3854	6959.725
3065.7759	6956.225
3068.16494	6937.325
3070.55254	6927.025
3072.93868	6909.725
3075.32338	6911.025
3077.70662	6894.325
3080.08842	6887.125
3082.46878	6876.025
3084.84769	6864.825
3087.22515	6865.925
3089.60118	6875.625
3091.97576	6883.725
3094.3489	6872.225
3096.72061	6903.425
3099.09087	6899.325
3101.4597	6869.625
3103.82709	6885.825
3106.19305	6878.725
3108.55757	6886.025
3110.92066	6888.125
3113.28232	6871.325
3115.64255	6845.425
3118.00134	6841.025
3120.35871	6853.025
3122.71466	6823.425
3125.06917	6820.725
3127.42226	6817.625
3129.77393	6804.625
3132.12417	6819.525
3134.47299	6821.125
3136.82039	6821.925
3139.16636	6791.825
3141.51092	6812.625
3143.85406	6819.825
3146.19579	6828.125
3148.53609	6837.725
3150.87499	6859.325
3153.21246	6870.825
3155.54853	6859.725
3157.88318	6877.225
3160.21642	6859.125
3162.54826	6884.325
3164.87868	6863.625
3167.2077	6878.925
3169.5353	6905.725
3171.86151	6893.225
3174.18631	6899.925
3176.5097	6890.025
3178.83169	6887.125
3181.15228	6862.825
3183.47147	6875.425
3185.78926	6873.825
3188.10565	6866.525
3190.42065	6864.725
