Data from AgNPs_FTO_APTES_UA_1uM_CRN_0uM_R6G_10uM_NaF_0.1M_Addition_RamanShift__7__11-13-49-411.txt Node

Date: Thu Jan 27 11:13:49 GMT 2022
User: TCL
Spectrometer: QEP01345
Trigger mode: 4
Integration Time (sec): 7.000000E0
Scans to average: 10
Electric dark correction enabled: true
Nonlinearity correction enabled: false
Boxcar width: 0
XAxis mode: Raman Shifts
Number of Pixels in Spectrum: 1044
>>>>>Begin Spectral Data<<<<<
46.04893	-0.425
50.45542	0.875
54.85868	-0.825
59.25871	0.275
63.6555	29.575
68.04907	32.175
72.43941	32.675
76.82654	33.075
81.21044	34.575
85.59113	36.675
89.96862	38.275
94.34289	37.775
98.71396	41.775
103.08183	37.175
107.4465	43.275
111.80798	44.975
116.16626	45.175
120.52136	52.875
124.87327	45.475
129.222	43.075
133.56755	48.075
137.90993	45.675
142.24913	50.175
146.58517	58.075
150.91804	67.275
155.24774	75.375
159.57429	85.975
163.89768	107.675
168.21792	138.775
172.53501	185.375
176.84895	248.075
181.15975	337.975
185.46741	464.575
189.77193	641.875
194.07331	865.075
198.37157	1118.075
202.6667	1388.875
206.9587	1649.375
211.24758	1913.775
215.53334	2159.275
219.81599	2431.175
224.09553	2707.975
228.37195	3017.175
232.64527	3340.975
236.91549	3697.775
241.18261	4027.175
245.44663	4365.675
249.70755	4659.975
253.96539	4943.275
258.22014	5159.575
262.4718	5332.875
266.72039	5417.275
270.96589	5473.175
275.20832	5452.275
279.44768	5366.375
283.68397	5263.875
287.91719	5148.075
292.14735	5076.075
296.37445	5023.375
300.59849	5049.275
304.81948	5097.875
309.03742	5135.175
313.25231	5124.675
317.46415	5003.275
321.67296	4879.775
325.87872	4759.675
330.08145	4710.875
334.28114	4704.275
338.47781	4724.175
342.67145	4791.475
346.86207	4861.875
351.04966	4977.075
355.23424	5118.675
359.4158	5224.775
363.59435	5316.175
367.76989	5358.975
371.94243	5374.775
376.11196	5396.675
380.27849	5419.975
384.44203	5418.375
388.60257	5398.775
392.76012	5370.275
396.91468	5388.575
401.06626	5450.975
405.21485	5483.575
409.36047	5463.375
413.50311	5354.375
417.64277	5236.675
421.77947	5155.675
425.9132	5122.575
430.04396	5130.775
434.17176	5155.175
438.2966	5180.275
442.41849	5271.475
446.53742	5346.075
450.6534	5398.675
454.76644	5445.475
458.87653	5474.375
462.98368	5452.975
467.08789	5427.875
471.18916	5402.675
475.2875	5385.175
479.38291	5336.675
483.4754	5306.975
487.56496	5279.175
491.6516	5280.775
495.73531	5284.775
499.81612	5289.775
503.89401	5331.975
507.96899	5348.175
512.04106	5400.175
516.11023	5452.575
520.1765	5474.975
524.23987	5494.175
528.30034	5466.575
532.35792	5401.175
536.41261	5379.975
540.46441	5318.075
544.51333	5306.075
548.55936	5295.975
552.60252	5341.875
556.64279	5385.575
560.6802	5389.275
564.71473	5395.875
568.7464	5430.775
572.7752	5482.775
576.80114	5395.475
580.82422	5322.975
584.84444	5276.175
588.86181	5292.375
592.87633	5309.775
596.888	5339.875
600.89682	5409.875
604.9028	5597.475
608.90594	6195.575
612.90624	7107.175
616.90371	7177.175
620.89834	6101.775
624.89015	5452.875
628.87913	5316.475
632.86528	5306.075
636.84862	5361.575
640.82913	5357.275
644.80683	5289.575
648.78172	5222.975
652.75379	5228.875
656.72306	5288.075
660.68952	5394.375
664.65319	5435.075
668.61405	5332.575
672.57211	5271.975
676.52738	5279.975
680.47986	5293.975
684.42955	5296.375
688.37646	5275.575
692.32058	5228.975
696.26192	5205.475
700.20048	5209.775
704.13626	5206.375
708.06928	5179.075
711.99952	5196.675
715.927	5206.275
719.85171	5228.975
723.77365	5252.475
727.69284	5256.175
731.60928	5236.175
735.52295	5242.975
739.43388	5223.475
743.34206	5230.075
747.24749	5225.175
751.15017	5230.675
755.05012	5246.875
758.94733	5272.575
762.8418	5408.675
766.73354	5744.975
770.62254	6160.075
774.50882	6418.875
778.39237	6350.575
782.27321	5945.875
786.15132	5536.775
790.02671	5306.575
793.89938	5181.275
797.76935	5132.275
801.6366	5138.175
805.50115	5112.375
809.36299	5090.175
813.22213	5036.675
817.07857	5013.675
820.93231	4984.075
824.78336	4972.075
828.63172	4970.375
832.47738	4990.375
836.32036	5002.975
840.16066	4971.775
843.99827	4961.375
847.8332	4938.975
851.66546	4933.375
855.49504	4904.675
859.32195	4898.475
863.1462	4868.575
866.96777	4864.375
870.78668	4855.775
874.60293	4836.975
878.41652	4825.375
882.22745	4815.475
886.03573	4841.575
889.84136	4841.475
893.64433	4842.875
897.44466	4849.275
901.24235	4868.675
905.0374	4859.775
908.8298	4866.375
912.61957	4894.975
916.40671	4947.975
920.19121	4986.875
923.97308	5035.275
927.75233	5085.775
931.52895	5108.575
935.30295	5111.875
939.07433	5035.175
942.84309	4961.075
946.60924	4924.475
950.37278	4884.875
954.13371	4820.775
957.89203	4780.575
961.64774	4733.475
965.40086	4709.775
969.15137	4673.275
972.89929	4623.775
976.64461	4622.075
980.38733	4610.275
984.12747	4599.575
987.86502	4606.375
991.59999	4613.675
995.33237	4629.575
999.06217	4670.575
1002.78939	4713.475
1006.51404	4739.475
1010.23611	4778.475
1013.95561	4798.875
1017.67255	4782.775
1021.38692	4771.775
1025.09872	4743.375
1028.80796	4695.875
1032.51465	4674.875
1036.21877	4662.475
1039.92035	4646.775
1043.61937	4663.375
1047.31584	4681.475
1051.00976	4695.375
1054.70114	4712.175
1058.38998	4688.375
1062.07627	4674.475
1065.76003	4664.975
1069.44126	4623.675
1073.11995	4614.275
1076.79611	4615.775
1080.46974	4620.675
1084.14085	4639.575
1087.80943	4664.075
1091.47549	4664.775
1095.13903	4625.675
1098.80005	4532.875
1102.45857	4457.275
1106.11456	4404.875
1109.76805	4403.175
1113.41903	4430.175
1117.06751	4483.075
1120.71348	4548.775
1124.35696	4623.675
1127.99793	4680.375
1131.63641	4709.175
1135.2724	4629.275
1138.90589	4494.275
1142.5369	4391.575
1146.16542	4325.775
1149.79145	4262.775
1153.415	4232.575
1157.03607	4211.775
1160.65467	4241.475
1164.27079	4285.975
1167.88443	4396.375
1171.49561	4568.175
1175.10432	4852.575
1178.71056	5250.175
1182.31434	5616.375
1185.91565	5731.575
1189.51451	5636.175
1193.11091	5425.375
1196.70485	5189.075
1200.29634	4950.475
1203.88538	4779.075
1207.47197	4568.675
1211.05612	4394.575
1214.63782	4303.975
1218.21708	4260.675
1221.79391	4277.675
1225.36829	4315.775
1228.94024	4355.375
1232.50976	4349.275
1236.07685	4325.675
1239.6415	4301.275
1243.20374	4295.275
1246.76355	4282.775
1250.32093	4271.775
1253.8759	4292.475
1257.42845	4313.675
1260.97859	4362.475
1264.52631	4435.275
1268.07163	4505.675
1271.61453	4574.175
1275.15503	4633.275
1278.69312	4670.675
1282.22882	4688.475
1285.76211	4722.975
1289.29301	4813.075
1292.82151	4900.275
1296.34761	5023.175
1299.87133	5138.675
1303.39266	5322.075
1306.9116	5609.375
1310.42815	5988.575
1313.94233	6222.175
1317.45412	6134.975
1320.96354	5784.675
1324.47058	5397.275
1327.97525	5095.075
1331.47754	4923.675
1334.97747	4865.075
1338.47502	4888.875
1341.97022	4950.175
1345.46305	5085.275
1348.95352	5339.275
1352.44163	5701.175
1355.92738	6163.775
1359.41078	6798.175
1362.89183	7519.375
1366.37053	7671.275
1369.84688	6919.275
1373.32088	5986.075
1376.79254	5374.475
1380.26186	5043.475
1383.72883	4895.475
1387.19347	4797.075
1390.65578	4704.875
1394.11575	4602.675
1397.57339	4515.575
1401.0287	4488.175
1404.48168	4451.475
1407.93234	4408.975
1411.38068	4376.675
1414.82669	4382.075
1418.27039	4352.275
1421.71177	4339.775
1425.15083	4327.575
1428.58758	4281.775
1432.02203	4276.475
1435.45416	4296.575
1438.88399	4300.975
1442.31151	4298.675
1445.73673	4280.975
1449.15965	4265.775
1452.58027	4238.675
1455.9986	4182.575
1459.41463	4164.375
1462.82837	4149.375
1466.23982	4189.675
1469.64898	4224.575
1473.05586	4246.475
1476.46045	4275.975
1479.86276	4326.175
1483.26279	4321.275
1486.66054	4369.275
1490.05602	4457.775
1493.44922	4530.175
1496.84016	4696.375
1500.22882	4974.675
1503.61521	5396.575
1506.99934	5928.875
1510.38121	6451.475
1513.76081	6706.975
1517.13816	6466.375
1520.51324	5839.975
1523.88607	5197.075
1527.25665	4754.875
1530.62498	4497.175
1533.99105	4371.475
1537.35488	4280.375
1540.71647	4219.875
1544.07581	4175.575
1547.4329	4173.175
1550.78776	4161.775
1554.14038	4185.775
1557.49077	4235.475
1560.83892	4275.075
1564.18484	4317.075
1567.52853	4390.475
1570.86999	4485.875
1574.20922	4571.975
1577.54624	4623.375
1580.88103	4497.775
1584.2136	4270.675
1587.54395	4079.175
1590.87208	3977.175
1594.19801	4000.875
1597.52172	4076.775
1600.84321	4160.575
1604.16251	4119.975
1607.47959	4004.075
1610.79447	3876.875
1614.10715	3741.075
1617.41763	3659.475
1620.7259	3578.875
1624.03199	3533.875
1627.33587	3514.375
1630.63757	3539.775
1633.93707	3568.875
1637.23439	3632.175
1640.52951	3764.475
1643.82246	3973.675
1647.11321	4278.475
1650.40179	4546.275
1653.68819	4545.075
1656.97241	4188.675
1660.25446	3727.875
1663.53433	3398.375
1666.81203	3220.575
1670.08756	3088.175
1673.36092	3033.575
1676.63211	2991.475
1679.90115	2931.775
1683.16801	2896.575
1686.43272	2866.275
1689.69527	2826.075
1692.95567	2768.475
1696.2139	2704.975
1699.46999	2630.375
1702.72392	2593.175
1705.97571	2629.475
1709.22535	2666.675
1712.47284	2701.475
1715.71819	2707.075
1718.96139	2713.875
1722.20246	2706.975
1725.44139	2699.975
1728.67818	2677.175
1731.91284	2662.175
1735.14537	2632.775
1738.37576	2626.575
1741.60403	2603.175
1744.83017	2589.775
1748.05418	2566.675
1751.27607	2542.375
1754.49584	2512.975
1757.71349	2475.175
1760.92903	2442.975
1764.14244	2414.975
1767.35375	2424.875
1770.56294	2396.175
1773.77002	2407.275
1776.97499	2422.575
1780.17785	2432.275
1783.37861	2457.375
1786.57727	2449.975
1789.77382	2448.975
1792.96828	2441.075
1796.16064	2447.175
1799.3509	2424.875
1802.53907	2421.175
1805.72514	2405.775
1808.90913	2409.675
1812.09102	2395.275
1815.27083	2379.575
1818.44856	2376.775
1821.6242	2360.975
1824.79776	2360.575
1827.96924	2349.275
1831.13864	2344.375
1834.30597	2339.275
1837.47122	2341.375
1840.6344	2331.775
1843.7955	2334.575
1846.95454	2322.375
1850.11151	2311.275
1853.26642	2311.075
1856.41926	2303.975
1859.57004	2299.975
1862.71876	2300.575
1865.86542	2290.075
1869.01003	2293.875
1872.15258	2289.975
1875.29308	2272.675
1878.43152	2278.675
1881.56792	2274.175
1884.70227	2266.075
1887.83457	2244.875
1890.96482	2252.575
1894.09304	2254.275
1897.21921	2227.575
1900.34335	2238.075
1903.46544	2229.975
1906.58551	2228.975
1909.70353	2223.275
1912.81953	2215.275
1915.93349	2206.075
1919.04543	2209.675
1922.15534	2201.275
1925.26322	2198.075
1928.36908	2189.575
1931.47292	2177.275
1934.57473	2162.375
1937.67453	2154.475
1940.77232	2146.275
1943.86808	2131.275
1946.96184	2127.975
1950.05358	2124.075
1953.14331	2113.175
1956.23103	2107.575
1959.31675	2102.675
1962.40046	2095.975
1965.48217	2088.575
1968.56188	2062.775
1971.63959	2077.075
1974.7153	2070.175
1977.78901	2054.575
1980.86073	2045.775
1983.93046	2039.275
1986.99819	2030.475
1990.06394	2015.175
1993.1277	2003.775
1996.18947	2003.975
1999.24925	1987.875
2002.30706	1982.475
2005.36288	1974.875
2008.41672	1970.775
2011.46859	1958.375
2014.51848	1955.175
2017.56639	1942.875
2020.61233	1938.675
2023.6563	1930.175
2026.6983	1915.475
2029.73833	1916.275
2032.7764	1899.575
2035.8125	1894.575
2038.84664	1894.675
2041.87881	1886.675
2044.90903	1887.275
2047.93729	1882.375
2050.96359	1865.175
2053.98794	1864.775
2057.01034	1854.775
2060.03078	1855.675
2063.04927	1856.075
2066.06582	1860.275
2069.08042	1852.675
2072.09307	1838.175
2075.10378	1838.275
2078.11255	1849.875
2081.11938	1844.775
2084.12426	1838.775
2087.12722	1833.575
2090.12824	1835.375
2093.12732	1830.175
2096.12447	1822.275
2099.11969	1822.375
2102.11299	1829.175
2105.10435	1825.275
2108.09379	1819.275
2111.08131	1814.275
2114.0669	1822.175
2117.05057	1815.875
2120.03233	1822.175
2123.01216	1808.975
2125.99008	1813.475
2128.96609	1812.775
2131.94018	1819.675
2134.91236	1801.075
2137.88263	1811.075
2140.851	1805.575
2143.81746	1805.075
2146.78201	1800.475
2149.74466	1807.375
2152.7054	1794.075
2155.66425	1796.375
2158.6212	1787.575
2161.57625	1788.675
2164.52941	1792.475
2167.48067	1789.775
2170.43004	1786.575
2173.37752	1776.275
2176.32311	1774.675
2179.26681	1771.575
2182.20863	1771.575
2185.14856	1764.675
2188.08661	1768.075
2191.02278	1765.875
2193.95707	1766.975
2196.88948	1762.275
2199.82001	1751.875
2202.74867	1745.275
2205.67545	1744.275
2208.60037	1738.075
2211.52341	1735.375
2214.44458	1732.575
2217.36388	1717.475
2220.28132	1717.675
2223.1969	1705.675
2226.11061	1704.275
2229.02246	1697.275
2231.93245	1682.775
2234.84058	1687.575
2237.74686	1682.875
2240.65128	1680.575
2243.55385	1675.075
2246.45456	1669.575
2249.35343	1663.675
2252.25044	1665.275
2255.14561	1660.575
2258.03893	1646.575
2260.93041	1640.275
2263.82004	1635.875
2266.70783	1642.175
2269.59378	1630.175
2272.4779	1621.175
2275.36017	1630.075
2278.24061	1614.875
2281.11922	1621.975
2283.996	1608.775
2286.87094	1609.675
2289.74405	1599.075
2292.61534	1574.975
2295.4848	1589.375
2298.35243	1594.775
2301.21824	1585.575
2304.08223	1578.975
2306.94439	1573.175
2309.80474	1569.575
2312.66327	1576.175
2315.51999	1559.775
2318.37489	1567.875
2321.22797	1552.075
2324.07925	1553.075
2326.92871	1542.675
2329.77637	1552.875
2332.62222	1541.675
2335.46626	1529.775
2338.3085	1532.775
2341.14893	1537.075
2343.98756	1521.375
2346.8244	1518.375
2349.65943	1522.575
2352.49267	1515.875
2355.32411	1516.775
2358.15376	1507.875
2360.98161	1522.375
2363.80768	1511.275
2366.63195	1519.375
2369.45444	1521.675
2372.27514	1514.375
2375.09405	1509.675
2377.91118	1503.175
2380.72652	1489.875
2383.54009	1478.975
2386.35187	1481.375
2389.16188	1479.075
2391.97011	1475.175
2394.77657	1475.275
2397.58125	1455.475
2400.38416	1454.175
2403.18529	1454.175
2405.98466	1442.375
2408.78226	1440.675
2411.57809	1447.975
2414.37216	1433.375
2417.16446	1426.475
2419.955	1424.275
2422.74378	1428.575
2425.5308	1419.775
2428.31606	1422.375
2431.09956	1419.875
2433.88131	1419.275
2436.6613	1415.975
2439.43954	1421.875
2442.21603	1412.675
2444.99077	1408.775
2447.76377	1402.675
2450.53501	1398.075
2453.30451	1401.175
2456.07226	1385.475
2458.83827	1388.375
2461.60254	1385.775
2464.36507	1384.375
2467.12586	1387.075
2469.88492	1384.575
2472.64224	1381.275
2475.39782	1371.075
2478.15167	1365.075
2480.90379	1360.575
2483.65417	1368.075
2486.40283	1360.875
2489.14976	1372.375
2491.89497	1367.375
2494.63845	1347.875
2497.3802	1347.775
2500.12024	1344.575
2502.85855	1353.775
2505.59514	1346.575
2508.33002	1345.275
2511.06318	1350.875
2513.79462	1338.975
2516.52435	1328.275
2519.25237	1330.775
2521.97867	1328.875
2524.70327	1316.275
2527.42616	1310.075
2530.14734	1307.875
2532.86681	1302.075
2535.58458	1300.275
2538.30065	1298.975
2541.01501	1301.675
2543.72768	1307.175
2546.43864	1299.375
2549.14791	1297.075
2551.85548	1292.775
2554.56136	1285.875
2557.26554	1288.475
2559.96803	1278.575
2562.66883	1278.875
2565.36794	1275.775
2568.06536	1265.975
2570.7611	1271.275
2573.45514	1259.775
2576.14751	1258.275
2578.83819	1265.275
2581.52719	1257.275
2584.21451	1251.375
2586.90015	1251.375
2589.58411	1245.175
2592.2664	1247.175
2594.94701	1242.875
2597.62594	1242.275
2600.30321	1230.275
2602.9788	1230.675
2605.65273	1228.375
2608.32498	1229.775
2610.99557	1224.575
2613.66449	1225.975
2616.33175	1221.875
2618.99734	1216.975
2621.66128	1215.075
2624.32355	1209.775
2626.98416	1217.475
2629.64311	1204.575
2632.30041	1205.975
2634.95605	1212.375
2637.61004	1201.175
2640.26238	1194.175
2642.91306	1197.675
2645.56209	1193.075
2648.20948	1193.375
2650.85521	1193.575
2653.4993	1196.175
2656.14175	1198.575
2658.78255	1206.375
2661.42171	1202.375
2664.05923	1210.575
2666.6951	1195.575
2669.32934	1210.275
2671.96194	1197.375
2674.59291	1202.575
2677.22224	1195.375
2679.84993	1198.475
2682.476	1196.275
2685.10043	1199.875
2687.72324	1196.675
2690.34441	1193.775
2692.96396	1192.775
2695.58188	1202.775
2698.19818	1204.275
2700.81285	1198.275
2703.4259	1186.175
2706.03733	1139.675
2708.64714	1157.275
2711.25533	1190.775
2713.86191	1197.375
2716.46687	1215.075
2719.07021	1217.375
2721.67194	1229.875
2724.27206	1234.075
2726.87057	1254.075
2729.46747	1239.575
2732.06276	1247.875
2734.65644	1259.075
2737.24852	1262.375
2739.83899	1260.175
2742.42786	1272.875
2745.01513	1254.775
2747.60079	1276.875
2750.18486	1268.675
2752.76733	1276.975
2755.3482	1281.475
2757.92747	1288.275
2760.50515	1276.575
2763.08123	1274.975
2765.65573	1278.075
2768.22863	1283.875
2770.79994	1275.975
2773.36967	1278.975
2775.9378	1280.475
2778.50435	1275.975
2781.06932	1277.975
2783.6327	1279.875
2786.1945	1281.975
2788.75471	1287.175
2791.31335	1279.675
2793.87041	1279.175
2796.42589	1283.475
2798.97979	1283.175
2801.53212	1287.475
2804.08288	1282.175
2806.63206	1289.375
2809.17967	1282.375
2811.72571	1276.575
2814.27018	1266.675
2816.81308	1276.475
2819.35442	1277.675
2821.89419	1279.375
2824.43239	1274.075
2826.96904	1274.375
2829.50412	1278.475
2832.03763	1277.475
2834.56959	1278.075
2837.1	1267.175
2839.62884	1280.175
2842.15613	1283.375
2844.68186	1303.275
2847.20604	1318.075
2849.72867	1342.075
2852.24974	1348.675
2854.76927	1340.875
2857.28724	1337.175
2859.80367	1355.375
2862.31855	1368.375
2864.83189	1378.575
2867.34368	1376.775
2869.85393	1397.575
2872.36264	1403.475
2874.8698	1400.975
2877.37543	1404.275
2879.87952	1417.275
2882.38207	1427.075
2884.88308	1422.875
2887.38256	1431.375
2889.88051	1424.275
2892.37692	1424.975
2894.8718	1417.475
2897.36515	1425.675
2899.85698	1419.175
2902.34727	1428.275
2904.83604	1426.875
2907.32328	1425.075
2909.809	1427.675
2912.29319	1439.175
2914.77587	1441.275
2917.25702	1436.475
2919.73665	1439.475
2922.21476	1450.475
2924.69136	1455.075
2927.16644	1446.275
2929.64	1444.875
2932.11205	1435.075
2934.58258	1425.075
2937.05161	1424.175
2939.51912	1409.575
2941.98513	1390.475
2944.44962	1368.975
2946.91261	1347.175
2949.37409	1330.875
2951.83407	1303.175
2954.29254	1291.775
2956.74951	1265.275
2959.20498	1249.975
2961.65895	1221.775
2964.11142	1211.375
2966.56239	1199.775
2969.01186	1178.775
2971.45984	1167.375
2973.90632	1148.475
2976.35131	1140.975
2978.7948	1132.275
2981.23681	1120.075
2983.67732	1113.375
2986.11635	1097.575
2988.55388	1090.375
2990.98993	1087.675
2993.4245	1072.175
2995.85758	1069.675
2998.28917	1067.075
3000.71928	1057.275
3003.14791	1051.575
3005.57506	1052.375
3008.00073	1048.575
3010.42493	1041.875
3012.84764	1047.275
3015.26888	1036.575
3017.68865	1044.275
3020.10694	1041.975
3022.52376	1031.575
3024.9391	1034.975
3027.35298	1022.775
3029.76539	1031.275
3032.17632	1025.275
3034.5858	1018.275
3036.9938	1031.775
3039.40034	1022.275
3041.80542	1021.275
3044.20903	1019.875
3046.61118	1015.575
3049.01187	1014.575
3051.4111	1016.175
3053.80888	1019.175
3056.20519	1013.475
3058.60005	1008.075
3060.99345	1014.975
3063.3854	1016.575
3065.7759	1022.075
3068.16494	1019.575
3070.55254	1014.175
3072.93868	1016.275
3075.32338	1017.675
3077.70662	1022.875
3080.08842	1020.475
3082.46878	1029.175
3084.84769	1032.075
3087.22515	1026.675
3089.60118	1030.275
3091.97576	1032.475
3094.3489	1042.075
3096.72061	1046.975
3099.09087	1043.375
3101.4597	1050.875
3103.82709	1044.875
3106.19305	1054.575
3108.55757	1058.975
3110.92066	1057.475
3113.28232	1055.775
3115.64255	1054.075
3118.00134	1057.875
3120.35871	1064.775
3122.71466	1073.175
3125.06917	1073.975
3127.42226	1080.875
3129.77393	1083.175
3132.12417	1089.575
3134.47299	1079.175
3136.82039	1087.375
3139.16636	1100.175
3141.51092	1105.375
3143.85406	1110.275
3146.19579	1116.375
3148.53609	1118.875
3150.87499	1127.875
3153.21246	1137.875
3155.54853	1135.275
3157.88318	1150.675
3160.21642	1154.575
3162.54826	1150.375
3164.87868	1159.475
3167.2077	1165.475
3169.5353	1166.175
3171.86151	1179.075
3174.18631	1176.575
3176.5097	1175.075
3178.83169	1180.875
3181.15228	1180.175
3183.47147	1188.875
3185.78926	1188.975
3188.10565	1195.475
3190.42065	1196.375
3192.73424	1193.875
3195.04645	1203.775
3197.35725	1206.175
3199.66667	1214.175
3201.97469	1221.375
3204.28132	1220.475
3206.58656	1232.075
3208.8904	1226.775
3211.19287	1229.275
3213.49394	1234.175
3215.79363	1240.175
3218.09193	1248.275
3220.38884	1237.775
3222.68438	1229.175
3224.97853	1225.475
3227.2713	1240.575
3229.56269	1237.875
3231.8527	1250.675
3234.14133	1249.775
3236.42858	1258.975
