Data from AgNPs_FTO_APTES_UA_1uM_CRN_1uM_R6G_10uM_NaF_0.1M_Addition_RamanShift__5__12-17-59-484.txt Node

Date: Thu Jan 27 12:17:59 GMT 2022
User: TCL
Spectrometer: QEP01345
Trigger mode: 4
Integration Time (sec): 7.000000E0
Scans to average: 10
Electric dark correction enabled: true
Nonlinearity correction enabled: false
Boxcar width: 0
XAxis mode: Raman Shifts
Number of Pixels in Spectrum: 1044
>>>>>Begin Spectral Data<<<<<
46.04893	-0.725
50.45542	-0.325
54.85868	-1.425
59.25871	-1.825
63.6555	56.875
68.04907	62.975
72.43941	61.275
76.82654	63.275
81.21044	70.175
85.59113	67.375
89.96862	73.875
94.34289	72.175
98.71396	78.975
103.08183	78.775
107.4465	82.775
111.80798	84.075
116.16626	85.975
120.52136	92.775
124.87327	87.875
129.222	90.475
133.56755	95.775
137.90993	104.475
142.24913	114.375
146.58517	125.175
150.91804	144.575
155.24774	169.475
159.57429	203.275
163.89768	257.675
168.21792	341.975
172.53501	457.475
176.84895	627.675
181.15975	878.875
185.46741	1225.075
189.77193	1691.675
194.07331	2271.375
198.37157	2932.475
202.6667	3621.075
206.9587	4301.175
211.24758	4972.075
215.53334	5658.875
219.81599	6390.475
224.09553	7187.275
228.37195	8057.875
232.64527	9040.675
236.91549	10069.975
241.18261	11101.175
245.44663	12039.675
249.70755	12891.975
253.96539	13584.475
258.22014	14203.875
262.4718	14696.875
266.72039	15044.575
270.96589	15175.475
275.20832	15167.175
279.44768	15020.775
283.68397	14823.775
287.91719	14652.775
292.14735	14506.175
296.37445	14478.575
300.59849	14533.475
304.81948	14622.975
309.03742	14704.575
313.25231	14686.775
317.46415	14488.975
321.67296	14189.075
325.87872	13991.275
330.08145	13847.775
334.28114	13857.575
338.47781	13956.675
342.67145	14118.475
346.86207	14343.975
351.04966	14665.675
355.23424	14976.475
359.4158	15251.375
363.59435	15522.475
367.76989	15662.275
371.94243	15778.375
376.11196	15860.975
380.27849	15943.775
384.44203	16021.475
388.60257	16113.075
392.76012	16232.675
396.91468	16422.175
401.06626	16662.975
405.21485	16833.775
409.36047	16774.475
413.50311	16603.075
417.64277	16515.975
421.77947	16564.375
425.9132	16602.975
430.04396	16713.175
434.17176	16751.775
438.2966	16863.075
442.41849	17095.275
446.53742	17535.675
450.6534	18051.375
454.76644	18358.775
458.87653	18428.975
462.98368	18266.675
467.08789	17979.575
471.18916	17607.575
475.2875	17236.075
479.38291	16942.075
483.4754	16797.475
487.56496	16694.075
491.6516	16619.275
495.73531	16638.475
499.81612	16668.775
503.89401	16861.275
507.96899	16909.875
512.04106	16828.175
516.11023	16763.275
520.1765	16721.375
524.23987	16658.175
528.30034	16579.375
532.35792	16448.675
536.41261	16229.075
540.46441	15995.075
544.51333	15901.975
548.55936	15998.475
552.60252	16312.975
556.64279	16644.475
560.6802	16849.975
564.71473	16909.275
568.7464	16964.975
572.7752	17206.675
576.80114	17479.175
580.82422	17947.575
584.84444	18592.775
588.86181	19478.675
592.87633	20314.875
596.888	20380.575
600.89682	19738.275
604.9028	19695.875
608.90594	21306.075
612.90624	23201.575
616.90371	22212.875
620.89834	18911.675
624.89015	17380.875
628.87913	17171.575
632.86528	17122.775
636.84862	16860.775
640.82913	16521.075
644.80683	16120.575
648.78172	15911.075
652.75379	15933.775
656.72306	16125.375
660.68952	16470.575
664.65319	16379.675
668.61405	16047.875
672.57211	16052.275
676.52738	16159.175
680.47986	16115.475
684.42955	15978.575
688.37646	15912.875
692.32058	16042.075
696.26192	16340.575
700.20048	16654.675
704.13626	16723.175
708.06928	16585.875
711.99952	16423.075
715.927	16384.875
719.85171	16525.175
723.77365	16525.375
727.69284	16250.075
731.60928	16010.575
735.52295	15930.175
739.43388	15969.875
743.34206	16065.775
747.24749	16144.175
751.15017	16271.275
755.05012	16474.875
758.94733	16860.275
762.8418	17500.875
766.73354	18583.475
770.62254	19649.875
774.50882	20084.075
778.39237	19494.475
782.27321	18437.675
786.15132	17450.875
790.02671	16866.875
793.89938	16581.275
797.76935	16447.975
801.6366	16421.075
805.50115	16357.075
809.36299	16244.875
813.22213	16117.275
817.07857	16003.175
820.93231	15914.075
824.78336	15883.075
828.63172	15934.975
832.47738	15972.175
836.32036	16061.975
840.16066	16253.575
843.99827	16378.775
847.8332	16304.275
851.66546	16150.775
855.49504	16049.275
859.32195	16047.775
863.1462	16004.275
866.96777	15918.775
870.78668	15867.175
874.60293	15843.175
878.41652	15877.575
882.22745	15989.975
886.03573	16045.275
889.84136	16076.975
893.64433	15984.375
897.44466	15908.575
901.24235	15837.075
905.0374	15785.975
908.8298	15761.975
912.61957	15786.575
916.40671	15898.175
920.19121	16155.975
923.97308	16429.675
927.75233	16640.675
931.52895	16688.175
935.30295	16552.775
939.07433	16300.775
942.84309	16050.975
946.60924	15961.975
950.37278	15927.675
954.13371	15839.775
957.89203	15731.275
961.64774	15630.775
965.40086	15608.275
969.15137	15600.375
972.89929	15584.075
976.64461	15648.675
980.38733	15746.575
984.12747	15848.775
987.86502	16049.675
991.59999	16315.275
995.33237	16728.275
999.06217	17448.675
1002.78939	18262.175
1006.51404	18634.375
1010.23611	18727.775
1013.95561	18792.075
1017.67255	18686.475
1021.38692	18451.175
1025.09872	18343.975
1028.80796	18790.275
1032.51465	19898.875
1036.21877	21025.075
1039.92035	21316.775
1043.61937	20828.275
1047.31584	19945.075
1051.00976	18883.875
1054.70114	18177.575
1058.38998	17881.375
1062.07627	17781.075
1065.76003	17708.075
1069.44126	17763.875
1073.11995	17967.975
1076.79611	18282.875
1080.46974	18545.675
1084.14085	18687.175
1087.80943	18811.375
1091.47549	18849.075
1095.13903	18750.075
1098.80005	18458.975
1102.45857	18099.475
1106.11456	17865.675
1109.76805	17805.175
1113.41903	17749.775
1117.06751	17790.075
1120.71348	17854.075
1124.35696	17973.775
1127.99793	18114.375
1131.63641	18265.975
1135.2724	18226.675
1138.90589	18077.975
1142.5369	18043.375
1146.16542	18031.575
1149.79145	18043.275
1153.415	18065.375
1157.03607	18191.275
1160.65467	18565.575
1164.27079	19313.575
1167.88443	20274.575
1171.49561	21346.775
1175.10432	22728.775
1178.71056	24604.275
1182.31434	26501.175
1185.91565	27569.075
1189.51451	27493.875
1193.11091	26579.575
1196.70485	25410.075
1200.29634	24387.675
1203.88538	23748.875
1207.47197	23285.775
1211.05612	22810.075
1214.63782	22305.075
1218.21708	21920.375
1221.79391	21729.475
1225.36829	21568.175
1228.94024	21285.075
1232.50976	20827.675
1236.07685	20385.575
1239.6415	20128.875
1243.20374	20121.175
1246.76355	20365.075
1250.32093	20825.775
1253.8759	21368.775
1257.42845	22053.075
1260.97859	22730.575
1264.52631	23498.275
1268.07163	24325.275
1271.61453	25264.775
1275.15503	26224.075
1278.69312	27059.475
1282.22882	27551.875
1285.76211	28015.175
1289.29301	28531.775
1292.82151	29360.275
1296.34761	30642.075
1299.87133	32558.575
1303.39266	34888.975
1306.9116	37329.775
1310.42815	39070.675
1313.94233	39496.475
1317.45412	38543.975
1320.96354	36854.975
1324.47058	35229.075
1327.97525	33971.375
1331.47754	33173.075
1334.97747	32592.375
1338.47502	32044.575
1341.97022	31416.375
1345.46305	30899.975
1348.95352	30778.675
1352.44163	31449.675
1355.92738	33115.775
1359.41078	35626.375
1362.89183	37442.075
1366.37053	37117.975
1369.84688	34158.375
1373.32088	30151.575
1376.79254	27289.975
1380.26186	26073.875
1383.72883	25801.375
1387.19347	25624.875
1390.65578	25125.975
1394.11575	24775.575
1397.57339	24746.775
1401.0287	25011.175
1404.48168	25225.575
1407.93234	25269.175
1411.38068	25081.875
1414.82669	24700.375
1418.27039	24188.275
1421.71177	23536.175
1425.15083	22999.275
1428.58758	22794.075
1432.02203	23092.275
1435.45416	23724.575
1438.88399	24359.575
1442.31151	24704.675
1445.73673	24751.075
1449.15965	24684.575
1452.58027	24491.775
1455.9986	24266.875
1459.41463	24204.675
1462.82837	24560.375
1466.23982	25076.875
1469.64898	25660.875
1473.05586	26088.775
1476.46045	26359.975
1479.86276	26342.075
1483.26279	26187.775
1486.66054	26113.275
1490.05602	26219.675
1493.44922	26479.375
1496.84016	26688.475
1500.22882	26926.975
1503.61521	27478.975
1506.99934	28191.175
1510.38121	28899.375
1513.76081	29120.675
1517.13816	28538.375
1520.51324	27500.875
1523.88607	26571.275
1527.25665	26124.075
1530.62498	25943.075
1533.99105	25863.575
1537.35488	25556.975
1540.71647	25179.575
1544.07581	24788.075
1547.4329	24351.575
1550.78776	24006.375
1554.14038	23725.475
1557.49077	23542.775
1560.83892	23336.475
1564.18484	23169.875
1567.52853	23143.175
1570.86999	23253.375
1574.20922	23601.275
1577.54624	23847.775
1580.88103	23945.975
1584.2136	24179.975
1587.54395	25038.775
1590.87208	26686.975
1594.19801	28671.675
1597.52172	30540.075
1600.84321	31061.875
1604.16251	29650.575
1607.47959	27040.175
1610.79447	24358.275
1614.10715	22191.275
1617.41763	20523.975
1620.7259	19634.275
1624.03199	19261.975
1627.33587	19442.475
1630.63757	20098.075
1633.93707	21199.375
1637.23439	22895.475
1640.52951	25364.975
1643.82246	28282.775
1647.11321	30519.775
1650.40179	30754.675
1653.68819	28374.975
1656.97241	24648.875
1660.25446	21226.075
1663.53433	18930.875
1666.81203	17595.575
1670.08756	16792.375
1673.36092	16312.375
1676.63211	15986.975
1679.90115	15764.675
1683.16801	15562.475
1686.43272	15453.775
1689.69527	15331.875
1692.95567	15251.375
1696.2139	15167.475
1699.46999	15101.375
1702.72392	15039.175
1705.97571	15069.275
1709.22535	15092.475
1712.47284	15111.275
1715.71819	15114.175
1718.96139	15114.875
1722.20246	15051.075
1725.44139	14987.175
1728.67818	14948.275
1731.91284	14857.275
1735.14537	14790.575
1738.37576	14775.575
1741.60403	14700.675
1744.83017	14638.775
1748.05418	14618.675
1751.27607	14572.275
1754.49584	14558.275
1757.71349	14530.475
1760.92903	14501.075
1764.14244	14484.675
1767.35375	14494.175
1770.56294	14465.375
1773.77002	14478.675
1776.97499	14499.675
1780.17785	14451.675
1783.37861	14501.975
1786.57727	14469.975
1789.77382	14468.375
1792.96828	14452.875
1796.16064	14426.075
1799.3509	14413.075
1802.53907	14386.575
1805.72514	14373.975
1808.90913	14326.775
1812.09102	14316.975
1815.27083	14319.375
1818.44856	14277.675
1821.6242	14290.075
1824.79776	14275.275
1827.96924	14268.375
1831.13864	14263.175
1834.30597	14250.975
1837.47122	14271.075
1840.6344	14288.575
1843.7955	14316.675
1846.95454	14264.375
1850.11151	14285.975
1853.26642	14287.275
1856.41926	14256.675
1859.57004	14297.775
1862.71876	14286.975
1865.86542	14265.775
1869.01003	14253.675
1872.15258	14257.075
1875.29308	14250.975
1878.43152	14228.175
1881.56792	14238.075
1884.70227	14218.475
1887.83457	14198.975
1890.96482	14181.875
1894.09304	14119.775
1897.21921	14140.675
1900.34335	14151.275
1903.46544	14129.175
1906.58551	14119.375
1909.70353	14094.475
1912.81953	14079.375
1915.93349	14066.175
1919.04543	14040.375
1922.15534	14051.175
1925.26322	14004.275
1928.36908	13950.975
1931.47292	13932.475
1934.57473	13927.175
1937.67453	13885.575
1940.77232	13855.875
1943.86808	13791.375
1946.96184	13783.075
1950.05358	13728.275
1953.14331	13689.175
1956.23103	13667.275
1959.31675	13669.675
1962.40046	13624.875
1965.48217	13588.675
1968.56188	13565.075
1971.63959	13523.875
1974.7153	13500.575
1977.78901	13457.075
1980.86073	13425.775
1983.93046	13400.975
1986.99819	13339.475
1990.06394	13314.275
1993.1277	13275.075
1996.18947	13236.975
1999.24925	13238.675
2002.30706	13184.575
2005.36288	13149.175
2008.41672	13133.875
2011.46859	13087.675
2014.51848	13060.075
2017.56639	13015.775
2020.61233	13000.775
2023.6563	13017.675
2026.6983	12979.775
2029.73833	12943.275
2032.7764	12968.875
2035.8125	12938.075
2038.84664	12933.475
2041.87881	12896.675
2044.90903	12904.675
2047.93729	12874.175
2050.96359	12836.875
2053.98794	12844.875
2057.01034	12850.775
2060.03078	12842.675
2063.04927	12828.375
2066.06582	12832.875
2069.08042	12830.775
2072.09307	12827.175
2075.10378	12804.075
2078.11255	12807.775
2081.11938	12817.675
2084.12426	12805.975
2087.12722	12786.175
2090.12824	12812.575
2093.12732	12793.475
2096.12447	12815.575
2099.11969	12811.675
2102.11299	12802.975
2105.10435	12837.375
2108.09379	12837.275
2111.08131	12833.475
2114.0669	12829.275
2117.05057	12860.575
2120.03233	12855.175
2123.01216	12863.575
2125.99008	12891.075
2128.96609	12897.775
2131.94018	12927.175
2134.91236	12942.275
2137.88263	12949.175
2140.851	12955.675
2143.81746	12984.175
2146.78201	13005.375
2149.74466	12995.475
2152.7054	13026.275
2155.66425	12999.875
2158.6212	13016.975
2161.57625	13006.375
2164.52941	13030.375
2167.48067	12972.675
2170.43004	13003.675
2173.37752	12994.875
2176.32311	13004.175
2179.26681	13025.875
2182.20863	13032.275
2185.14856	13031.075
2188.08661	13048.575
2191.02278	13072.975
2193.95707	13080.075
2196.88948	13083.375
2199.82001	13077.375
2202.74867	13076.875
2205.67545	13066.375
2208.60037	13067.575
2211.52341	13071.575
2214.44458	13069.675
2217.36388	13011.475
2220.28132	13026.975
2223.1969	12984.075
2226.11061	12955.275
2229.02246	12979.175
2231.93245	12953.475
2234.84058	12947.275
2237.74686	12934.475
2240.65128	12924.375
2243.55385	12910.975
2246.45456	12883.475
2249.35343	12876.775
2252.25044	12846.875
2255.14561	12832.775
2258.03893	12839.175
2260.93041	12800.275
2263.82004	12773.575
2266.70783	12756.675
2269.59378	12721.275
2272.4779	12704.275
2275.36017	12684.175
2278.24061	12674.175
2281.11922	12658.775
2283.996	12682.475
2286.87094	12652.875
2289.74405	12638.975
2292.61534	12649.875
2295.4848	12651.075
2298.35243	12679.975
2301.21824	12670.675
2304.08223	12701.475
2306.94439	12687.275
2309.80474	12748.575
2312.66327	12724.275
2315.51999	12738.275
2318.37489	12741.675
2321.22797	12755.375
2324.07925	12756.575
2326.92871	12757.875
2329.77637	12736.175
2332.62222	12699.175
2335.46626	12735.475
2338.3085	12714.575
2341.14893	12690.875
2343.98756	12740.675
2346.8244	12716.575
2349.65943	12724.075
2352.49267	12709.075
2355.32411	12700.675
2358.15376	12677.675
2360.98161	12668.975
2363.80768	12629.775
2366.63195	12636.875
2369.45444	12645.875
2372.27514	12604.275
2375.09405	12574.875
2377.91118	12556.675
2380.72652	12532.375
2383.54009	12506.075
2386.35187	12508.775
2389.16188	12486.075
2391.97011	12473.575
2394.77657	12435.775
2397.58125	12451.075
2400.38416	12434.575
2403.18529	12400.875
2405.98466	12388.575
2408.78226	12386.075
2411.57809	12372.475
2414.37216	12346.975
2417.16446	12326.575
2419.955	12303.775
2422.74378	12326.075
2425.5308	12303.775
2428.31606	12275.475
2431.09956	12298.975
2433.88131	12251.975
2436.6613	12286.675
2439.43954	12286.475
2442.21603	12302.675
2444.99077	12286.875
2447.76377	12296.075
2450.53501	12294.875
2453.30451	12289.175
2456.07226	12290.275
2458.83827	12261.475
2461.60254	12297.275
2464.36507	12317.875
2467.12586	12284.775
2469.88492	12301.075
2472.64224	12329.175
2475.39782	12345.975
2478.15167	12340.675
2480.90379	12335.475
2483.65417	12358.675
2486.40283	12348.275
2489.14976	12376.075
2491.89497	12374.375
2494.63845	12383.175
2497.3802	12356.875
2500.12024	12347.375
2502.85855	12345.075
2505.59514	12327.375
2508.33002	12347.075
2511.06318	12329.475
2513.79462	12315.575
2516.52435	12302.475
2519.25237	12309.675
2521.97867	12328.375
2524.70327	12320.575
2527.42616	12304.175
2530.14734	12295.575
2532.86681	12317.375
2535.58458	12308.175
2538.30065	12292.975
2541.01501	12290.275
2543.72768	12299.475
2546.43864	12293.275
2549.14791	12272.575
2551.85548	12281.775
2554.56136	12270.375
2557.26554	12239.775
2559.96803	12258.775
2562.66883	12243.775
2565.36794	12244.075
2568.06536	12260.775
2570.7611	12242.675
2573.45514	12244.175
2576.14751	12238.275
2578.83819	12213.075
2581.52719	12234.375
2584.21451	12237.075
2586.90015	12232.275
2589.58411	12199.175
2592.2664	12208.175
2594.94701	12185.275
2597.62594	12195.575
2600.30321	12195.775
2602.9788	12169.675
2605.65273	12156.375
2608.32498	12158.775
2610.99557	12172.575
2613.66449	12187.375
2616.33175	12166.775
2618.99734	12172.475
2621.66128	12176.175
2624.32355	12115.475
2626.98416	12146.475
2629.64311	12130.675
2632.30041	12178.775
2634.95605	12124.175
2637.61004	12104.875
2640.26238	12095.175
2642.91306	12072.075
2645.56209	12072.775
2648.20948	12086.775
2650.85521	12065.575
2653.4993	12081.175
2656.14175	12081.975
2658.78255	12107.775
2661.42171	12085.675
2664.05923	12127.875
2666.6951	12159.075
2669.32934	12159.075
2671.96194	12133.075
2674.59291	12135.475
2677.22224	12121.775
2679.84993	12138.675
2682.476	12112.275
2685.10043	12110.475
2687.72324	12089.875
2690.34441	12096.875
2692.96396	12087.375
2695.58188	12059.975
2698.19818	12089.275
2700.81285	12066.275
2703.4259	12062.975
2706.03733	12084.775
2708.64714	12054.475
2711.25533	12066.475
2713.86191	12106.975
2716.46687	12136.875
2719.07021	12122.775
2721.67194	12124.075
2724.27206	12147.375
2726.87057	12174.175
2729.46747	12156.675
2732.06276	12172.775
2734.65644	12151.975
2737.24852	12170.275
2739.83899	12158.475
2742.42786	12160.175
2745.01513	12181.975
2747.60079	12134.875
2750.18486	12118.175
2752.76733	12123.175
2755.3482	12148.175
2757.92747	12144.075
2760.50515	12142.575
2763.08123	12150.875
2765.65573	12131.975
2768.22863	12148.675
2770.79994	12148.375
2773.36967	12128.875
2775.9378	12145.875
2778.50435	12148.775
2781.06932	12152.575
2783.6327	12153.675
2786.1945	12133.875
2788.75471	12089.575
2791.31335	12103.775
2793.87041	12098.775
2796.42589	12099.675
2798.97979	12084.075
2801.53212	12066.775
2804.08288	12060.575
2806.63206	12016.475
2809.17967	12004.275
2811.72571	11986.375
2814.27018	11971.875
2816.81308	11952.875
2819.35442	11932.775
2821.89419	11936.475
2824.43239	11891.175
2826.96904	11913.275
2829.50412	11917.375
2832.03763	11877.875
2834.56959	11940.675
2837.1	11916.475
2839.62884	11919.575
2842.15613	11914.475
2844.68186	11949.375
2847.20604	11937.575
2849.72867	11964.275
2852.24974	11946.275
2854.76927	11925.375
2857.28724	11904.075
2859.80367	11916.775
2862.31855	11902.475
2864.83189	11905.275
2867.34368	11884.375
2869.85393	11917.275
2872.36264	11910.575
2874.8698	11906.475
2877.37543	11919.775
2879.87952	11897.275
2882.38207	11954.475
2884.88308	11949.175
2887.38256	11966.475
2889.88051	11981.375
2892.37692	11980.075
2894.8718	11988.475
2897.36515	12017.675
2899.85698	12036.975
2902.34727	12050.175
2904.83604	12054.075
2907.32328	12079.075
2909.809	12059.775
2912.29319	12076.875
2914.77587	12066.575
2917.25702	12073.975
2919.73665	12062.175
2922.21476	12048.975
2924.69136	12035.675
2927.16644	12034.475
2929.64	12007.575
2932.11205	12014.075
2934.58258	11967.175
2937.05161	11990.575
2939.51912	12001.375
2941.98513	11984.075
2944.44962	11967.875
2946.91261	11924.375
2949.37409	11939.375
2951.83407	11888.375
2954.29254	11910.275
2956.74951	11911.275
2959.20498	11891.875
2961.65895	11879.375
2964.11142	11911.175
2966.56239	11873.775
2969.01186	11863.875
2971.45984	11834.775
2973.90632	11833.775
2976.35131	11810.375
2978.7948	11787.575
2981.23681	11752.775
2983.67732	11739.575
2986.11635	11706.875
2988.55388	11704.675
2990.98993	11667.675
2993.4245	11615.275
2995.85758	11611.375
2998.28917	11588.375
3000.71928	11564.875
3003.14791	11544.675
3005.57506	11562.175
3008.00073	11551.075
3010.42493	11533.075
3012.84764	11552.475
3015.26888	11522.675
3017.68865	11494.275
3020.10694	11483.475
3022.52376	11471.375
3024.9391	11458.275
3027.35298	11478.875
3029.76539	11467.975
3032.17632	11462.675
3034.5858	11421.075
3036.9938	11419.475
3039.40034	11398.075
3041.80542	11438.775
3044.20903	11393.875
3046.61118	11399.075
3049.01187	11381.575
3051.4111	11391.075
3053.80888	11374.275
3056.20519	11355.375
3058.60005	11322.675
3060.99345	11323.575
3063.3854	11281.375
3065.7759	11286.275
3068.16494	11269.975
3070.55254	11247.575
3072.93868	11242.875
3075.32338	11190.275
3077.70662	11174.175
3080.08842	11187.675
3082.46878	11194.075
3084.84769	11156.075
3087.22515	11164.575
3089.60118	11151.075
3091.97576	11159.475
3094.3489	11175.875
3096.72061	11186.575
3099.09087	11187.675
3101.4597	11171.075
3103.82709	11178.675
3106.19305	11184.275
3108.55757	11163.075
3110.92066	11143.575
3113.28232	11146.975
3115.64255	11109.875
3118.00134	11095.575
3120.35871	11102.375
3122.71466	11092.075
3125.06917	11085.075
3127.42226	11065.675
3129.77393	11049.275
