Data from AgNPs_FTO_APTES_UA_1uM_CRN_5uM_R6G_10uM_NaF_0.1M_Addition_RamanShift__27__14-07-39-610.txt Node

Date: Thu Jan 27 14:07:39 GMT 2022
User: TCL
Spectrometer: QEP01345
Trigger mode: 4
Integration Time (sec): 7.000000E0
Scans to average: 10
Electric dark correction enabled: true
Nonlinearity correction enabled: false
Boxcar width: 0
XAxis mode: Raman Shifts
Number of Pixels in Spectrum: 1044
>>>>>Begin Spectral Data<<<<<
46.04893	1.525
50.45542	-0.175
54.85868	-0.975
59.25871	-0.775
63.6555	44.525
68.04907	47.125
72.43941	48.625
76.82654	50.825
81.21044	52.925
85.59113	55.825
89.96862	55.425
94.34289	59.525
98.71396	66.025
103.08183	63.225
107.4465	64.225
111.80798	67.625
116.16626	64.025
120.52136	72.125
124.87327	72.125
129.222	74.325
133.56755	75.025
137.90993	77.325
142.24913	85.825
146.58517	91.325
150.91804	101.825
155.24774	118.825
159.57429	140.825
163.89768	181.025
168.21792	235.325
172.53501	310.425
176.84895	422.725
181.15975	587.625
185.46741	818.825
189.77193	1115.025
194.07331	1502.425
198.37157	1927.825
202.6667	2377.225
206.9587	2830.125
211.24758	3282.025
215.53334	3752.725
219.81599	4257.825
224.09553	4840.425
228.37195	5471.225
232.64527	6156.825
236.91549	6882.625
241.18261	7543.725
245.44663	8114.925
249.70755	8554.425
253.96539	8992.825
258.22014	9367.525
262.4718	9699.325
266.72039	9986.625
270.96589	10144.325
275.20832	10215.425
279.44768	10136.025
283.68397	10079.125
287.91719	9998.925
292.14735	10023.425
296.37445	10115.025
300.59849	10388.225
304.81948	10668.625
309.03742	10862.825
313.25231	10789.325
317.46415	10353.625
321.67296	9699.725
325.87872	9160.925
330.08145	8900.825
334.28114	8878.325
338.47781	9004.325
342.67145	9208.225
346.86207	9517.625
351.04966	9996.825
355.23424	10507.325
359.4158	10922.425
363.59435	11122.725
367.76989	11240.625
371.94243	11243.325
376.11196	11206.825
380.27849	11188.025
384.44203	11100.325
388.60257	11017.925
392.76012	11004.425
396.91468	11108.825
401.06626	11408.225
405.21485	11620.225
409.36047	11488.925
413.50311	11072.925
417.64277	10645.025
421.77947	10437.925
425.9132	10365.825
430.04396	10367.525
434.17176	10430.625
438.2966	10547.125
442.41849	10765.425
446.53742	11074.225
450.6534	11376.025
454.76644	11626.325
458.87653	11707.625
462.98368	11695.025
467.08789	11511.925
471.18916	11290.125
475.2875	11038.925
479.38291	10829.925
483.4754	10725.025
487.56496	10569.125
491.6516	10463.825
495.73531	10409.925
499.81612	10383.625
503.89401	10479.325
507.96899	10578.125
512.04106	10640.225
516.11023	10716.825
520.1765	10786.225
524.23987	10739.625
528.30034	10577.325
532.35792	10375.525
536.41261	10212.225
540.46441	10029.825
544.51333	9979.025
548.55936	10084.225
552.60252	10305.825
556.64279	10558.825
560.6802	10706.525
564.71473	10793.725
568.7464	11136.825
572.7752	11384.925
576.80114	11300.225
580.82422	11111.725
584.84444	11070.325
588.86181	11023.225
592.87633	11066.925
596.888	11187.525
600.89682	11481.125
604.9028	12455.225
608.90594	14939.325
612.90624	18223.625
616.90371	17665.825
620.89834	13197.525
624.89015	11060.825
628.87913	10667.525
632.86528	10674.525
636.84862	10717.525
640.82913	10556.225
644.80683	10184.125
648.78172	9934.825
652.75379	9945.025
656.72306	10250.125
660.68952	10693.725
664.65319	10653.025
668.61405	10282.825
672.57211	10062.725
676.52738	10032.325
680.47986	10061.625
684.42955	10017.125
688.37646	9979.425
692.32058	9997.625
696.26192	10097.025
700.20048	10206.725
704.13626	10272.325
708.06928	10271.225
711.99952	10178.625
715.927	10156.725
719.85171	10151.625
723.77365	10135.125
727.69284	10018.625
731.60928	9965.825
735.52295	9926.825
739.43388	9969.925
743.34206	10033.825
747.24749	10065.625
751.15017	10208.625
755.05012	10407.725
758.94733	10798.925
762.8418	11638.825
766.73354	13082.825
770.62254	14672.825
774.50882	15377.325
778.39237	14678.425
782.27321	13101.325
786.15132	11579.125
790.02671	10692.925
793.89938	10285.025
797.76935	10137.625
801.6366	10042.125
805.50115	10004.925
809.36299	9949.725
813.22213	9903.625
817.07857	9889.425
820.93231	9915.925
824.78336	9937.025
828.63172	9981.025
832.47738	10005.325
836.32036	10003.225
840.16066	10010.425
843.99827	9960.525
847.8332	9938.025
851.66546	9918.725
855.49504	9896.925
859.32195	9875.525
863.1462	9830.925
866.96777	9796.225
870.78668	9787.625
874.60293	9814.425
878.41652	9825.925
882.22745	9848.025
886.03573	9915.225
889.84136	9883.225
893.64433	9854.225
897.44466	9823.325
901.24235	9815.525
905.0374	9810.825
908.8298	9778.625
912.61957	9778.725
916.40671	9864.325
920.19121	9941.925
923.97308	10088.125
927.75233	10168.825
931.52895	10209.525
935.30295	10140.025
939.07433	9921.125
942.84309	9726.325
946.60924	9596.125
950.37278	9556.425
954.13371	9484.825
957.89203	9435.025
961.64774	9406.325
965.40086	9366.225
969.15137	9339.825
972.89929	9320.825
976.64461	9285.925
980.38733	9306.725
984.12747	9373.925
987.86502	9428.325
991.59999	9511.425
995.33237	9690.425
999.06217	9911.325
1002.78939	10251.925
1006.51404	10526.825
1010.23611	10743.725
1013.95561	10907.525
1017.67255	10926.425
1021.38692	10794.025
1025.09872	10700.425
1028.80796	10697.025
1032.51465	10876.825
1036.21877	11086.125
1039.92035	11098.925
1043.61937	10975.225
1047.31584	10779.525
1051.00976	10527.525
1054.70114	10399.625
1058.38998	10399.125
1062.07627	10407.425
1065.76003	10472.925
1069.44126	10547.025
1073.11995	10648.325
1076.79611	10733.025
1080.46974	10822.025
1084.14085	10954.125
1087.80943	11177.225
1091.47549	11274.125
1095.13903	11190.925
1098.80005	10906.625
1102.45857	10612.525
1106.11456	10481.125
1109.76805	10462.725
1113.41903	10603.025
1117.06751	10822.325
1120.71348	11131.225
1124.35696	11411.125
1127.99793	11686.525
1131.63641	11772.725
1135.2724	11436.425
1138.90589	11078.925
1142.5369	10861.725
1146.16542	10714.825
1149.79145	10626.225
1153.415	10653.425
1157.03607	10776.925
1160.65467	10955.825
1164.27079	11283.325
1167.88443	11805.325
1171.49561	12593.625
1175.10432	13801.125
1178.71056	15445.725
1182.31434	16794.525
1185.91565	17347.525
1189.51451	17219.125
1193.11091	16396.625
1196.70485	15342.725
1200.29634	14425.125
1203.88538	13761.025
1207.47197	13114.825
1211.05612	12565.325
1214.63782	12230.825
1218.21708	12168.525
1221.79391	12182.925
1225.36829	12302.725
1228.94024	12390.625
1232.50976	12409.425
1236.07685	12422.425
1239.6415	12353.725
1243.20374	12340.325
1246.76355	12349.425
1250.32093	12476.525
1253.8759	12712.225
1257.42845	13077.825
1260.97859	13438.025
1264.52631	13780.525
1268.07163	14097.525
1271.61453	14421.925
1275.15503	14787.725
1278.69312	15086.225
1282.22882	15288.725
1285.76211	15596.125
1289.29301	15972.825
1292.82151	16421.125
1296.34761	16875.625
1299.87133	17526.125
1303.39266	18622.925
1306.9116	20163.525
1310.42815	22086.925
1313.94233	23392.225
1317.45412	23480.525
1320.96354	22562.125
1324.47058	21413.525
1327.97525	20347.125
1331.47754	19663.725
1334.97747	19405.925
1338.47502	19442.425
1341.97022	19609.125
1345.46305	19836.525
1348.95352	20068.625
1352.44163	20590.925
1355.92738	21616.025
1359.41078	23578.525
1362.89183	25871.625
1366.37053	25730.425
1369.84688	22686.125
1373.32088	19411.125
1376.79254	17277.225
1380.26186	16218.625
1383.72883	15770.325
1387.19347	15464.525
1390.65578	15095.025
1394.11575	14853.225
1397.57339	14806.525
1401.0287	15021.625
1404.48168	15303.725
1407.93234	15592.125
1411.38068	15807.525
1414.82669	15775.625
1418.27039	15426.625
1421.71177	14992.925
1425.15083	14597.325
1428.58758	14313.725
1432.02203	14260.225
1435.45416	14318.625
1438.88399	14426.025
1442.31151	14505.825
1445.73673	14575.925
1449.15965	14708.025
1452.58027	14722.625
1455.9986	14665.925
1459.41463	14654.425
1462.82837	14736.525
1466.23982	14971.825
1469.64898	15222.525
1473.05586	15439.125
1476.46045	15547.125
1479.86276	15733.125
1483.26279	15907.325
1486.66054	16146.425
1490.05602	16427.825
1493.44922	16871.625
1496.84016	17452.225
1500.22882	18289.025
1503.61521	19508.325
1506.99934	21009.325
1510.38121	22669.525
1513.76081	23672.625
1517.13816	23150.425
1520.51324	21313.725
1523.88607	19211.125
1527.25665	17675.225
1530.62498	16674.025
1533.99105	16097.925
1537.35488	15725.825
1540.71647	15499.625
1544.07581	15369.025
1547.4329	15231.525
1550.78776	15153.425
1554.14038	15113.325
1557.49077	15193.425
1560.83892	15368.725
1564.18484	15622.725
1567.52853	15771.925
1570.86999	15888.825
1574.20922	15984.725
1577.54624	15983.225
1580.88103	15602.825
1584.2136	15138.625
1587.54395	15021.625
1590.87208	15478.625
1594.19801	16354.425
1597.52172	17399.325
1600.84321	17890.025
1604.16251	17372.925
1607.47959	16263.825
1610.79447	15018.525
1614.10715	13884.325
1617.41763	12963.225
1620.7259	12365.525
1624.03199	12088.425
1627.33587	12070.125
1630.63757	12385.925
1633.93707	13009.325
1637.23439	13902.025
1640.52951	15072.325
1643.82246	16378.025
1647.11321	17624.325
1650.40179	18377.525
1653.68819	17953.825
1656.97241	16037.525
1660.25446	13810.025
1663.53433	12132.325
1666.81203	11095.725
1670.08756	10489.725
1673.36092	10123.825
1676.63211	9888.425
1679.90115	9728.225
1683.16801	9605.725
1686.43272	9512.625
1689.69527	9436.425
1692.95567	9372.025
1696.2139	9318.225
1699.46999	9275.225
1702.72392	9225.425
1705.97571	9270.825
1709.22535	9275.425
1712.47284	9314.225
1715.71819	9337.325
1718.96139	9326.725
1722.20246	9311.825
1725.44139	9282.625
1728.67818	9227.225
1731.91284	9179.025
1735.14537	9139.525
1738.37576	9105.325
1741.60403	9054.725
1744.83017	9032.825
1748.05418	9000.725
1751.27607	8991.825
1754.49584	8955.625
1757.71349	8933.025
1760.92903	8926.325
1764.14244	8917.625
1767.35375	8916.525
1770.56294	8913.825
1773.77002	8892.025
1776.97499	8886.625
1780.17785	8881.225
1783.37861	8892.125
1786.57727	8905.725
1789.77382	8898.025
1792.96828	8875.225
1796.16064	8874.425
1799.3509	8854.025
1802.53907	8870.525
1805.72514	8855.525
1808.90913	8800.525
1812.09102	8791.225
1815.27083	8797.825
1818.44856	8762.025
1821.6242	8750.825
1824.79776	8753.025
1827.96924	8747.025
1831.13864	8726.425
1834.30597	8748.925
1837.47122	8741.325
1840.6344	8743.725
1843.7955	8760.925
1846.95454	8725.625
1850.11151	8754.825
1853.26642	8746.325
1856.41926	8752.925
1859.57004	8779.325
1862.71876	8768.425
1865.86542	8770.225
1869.01003	8798.725
1872.15258	8785.425
1875.29308	8778.525
1878.43152	8783.225
1881.56792	8834.525
1884.70227	8787.425
1887.83457	8814.925
1890.96482	8804.925
1894.09304	8826.525
1897.21921	8822.525
1900.34335	8810.525
1903.46544	8842.225
1906.58551	8849.525
1909.70353	8820.725
1912.81953	8830.525
1915.93349	8821.825
1919.04543	8798.525
1922.15534	8793.125
1925.26322	8800.425
1928.36908	8746.825
1931.47292	8722.825
1934.57473	8694.825
1937.67453	8669.925
1940.77232	8607.825
1943.86808	8583.225
1946.96184	8535.325
1950.05358	8496.125
1953.14331	8471.325
1956.23103	8419.725
1959.31675	8408.825
1962.40046	8402.225
1965.48217	8389.925
1968.56188	8333.425
1971.63959	8313.225
1974.7153	8311.725
1977.78901	8272.525
1980.86073	8248.125
1983.93046	8233.525
1986.99819	8187.325
1990.06394	8164.625
1993.1277	8154.725
1996.18947	8112.025
1999.24925	8088.225
2002.30706	8058.025
2005.36288	8054.425
2008.41672	8045.825
2011.46859	8023.625
2014.51848	7980.525
2017.56639	7949.025
2020.61233	7981.325
2023.6563	7950.925
2026.6983	7940.325
2029.73833	7915.125
2032.7764	7894.225
2035.8125	7890.625
2038.84664	7866.725
2041.87881	7848.225
2044.90903	7832.525
2047.93729	7811.925
2050.96359	7839.125
2053.98794	7809.625
2057.01034	7789.625
2060.03078	7797.825
2063.04927	7772.825
2066.06582	7779.425
2069.08042	7783.025
2072.09307	7756.225
2075.10378	7758.125
2078.11255	7737.225
2081.11938	7752.925
2084.12426	7746.825
2087.12722	7746.525
2090.12824	7754.725
2093.12732	7748.225
2096.12447	7732.925
2099.11969	7727.625
2102.11299	7738.525
2105.10435	7751.225
2108.09379	7744.825
2111.08131	7770.325
2114.0669	7747.025
2117.05057	7765.325
2120.03233	7778.625
2123.01216	7768.825
2125.99008	7778.425
2128.96609	7794.825
2131.94018	7788.525
2134.91236	7809.825
2137.88263	7805.425
2140.851	7808.625
2143.81746	7804.525
2146.78201	7820.225
2149.74466	7829.625
2152.7054	7818.225
2155.66425	7823.825
2158.6212	7810.825
2161.57625	7807.125
2164.52941	7803.325
2167.48067	7775.625
2170.43004	7791.225
2173.37752	7803.125
2176.32311	7795.625
2179.26681	7816.925
2182.20863	7813.225
2185.14856	7818.625
2188.08661	7826.625
2191.02278	7811.225
2193.95707	7804.325
2196.88948	7816.125
2199.82001	7801.625
2202.74867	7812.525
2205.67545	7805.125
2208.60037	7805.125
2211.52341	7773.225
2214.44458	7771.725
2217.36388	7753.025
2220.28132	7750.625
2223.1969	7740.225
2226.11061	7731.725
2229.02246	7705.825
2231.93245	7712.425
2234.84058	7673.625
2237.74686	7669.325
2240.65128	7674.025
2243.55385	7646.625
2246.45456	7640.025
2249.35343	7638.025
2252.25044	7629.525
2255.14561	7627.625
2258.03893	7609.425
2260.93041	7594.525
2263.82004	7612.825
2266.70783	7589.925
2269.59378	7551.225
2272.4779	7541.025
2275.36017	7514.825
2278.24061	7518.325
2281.11922	7515.125
2283.996	7483.325
2286.87094	7477.525
2289.74405	7475.125
2292.61534	7453.925
2295.4848	7436.225
2298.35243	7469.925
2301.21824	7430.725
2304.08223	7460.625
2306.94439	7458.725
2309.80474	7469.125
2312.66327	7449.425
2315.51999	7458.725
2318.37489	7451.525
2321.22797	7423.125
2324.07925	7442.225
2326.92871	7445.225
2329.77637	7414.325
2332.62222	7419.525
2335.46626	7409.725
2338.3085	7403.825
2341.14893	7400.425
2343.98756	7408.525
2346.8244	7402.925
2349.65943	7399.725
2352.49267	7403.825
2355.32411	7433.325
2358.15376	7396.925
2360.98161	7411.425
2363.80768	7408.925
2366.63195	7417.325
2369.45444	7408.325
2372.27514	7394.025
2375.09405	7365.425
2377.91118	7354.225
2380.72652	7348.625
2383.54009	7324.225
2386.35187	7320.725
2389.16188	7279.925
2391.97011	7269.425
2394.77657	7265.625
2397.58125	7232.325
2400.38416	7245.525
2403.18529	7207.225
2405.98466	7196.325
2408.78226	7212.225
2411.57809	7173.525
2414.37216	7167.825
2417.16446	7172.025
2419.955	7153.325
2422.74378	7144.325
2425.5308	7157.625
2428.31606	7137.325
2431.09956	7138.425
2433.88131	7112.025
2436.6613	7138.225
2439.43954	7137.725
2442.21603	7111.925
2444.99077	7102.325
2447.76377	7117.425
2450.53501	7109.425
2453.30451	7117.825
2456.07226	7117.225
2458.83827	7105.725
2461.60254	7110.825
2464.36507	7090.825
2467.12586	7096.225
2469.88492	7090.725
2472.64224	7085.225
2475.39782	7100.325
2478.15167	7078.025
2480.90379	7097.625
2483.65417	7118.725
2486.40283	7106.625
2489.14976	7132.125
2491.89497	7126.025
2494.63845	7136.125
2497.3802	7137.725
2500.12024	7132.025
2502.85855	7127.625
2505.59514	7133.825
2508.33002	7101.825
2511.06318	7109.125
2513.79462	7085.325
2516.52435	7071.725
2519.25237	7046.225
2521.97867	7076.825
2524.70327	7048.225
2527.42616	7016.025
2530.14734	7009.925
2532.86681	7007.725
2535.58458	7013.425
2538.30065	7001.925
2541.01501	7002.425
2543.72768	7010.625
2546.43864	7015.225
2549.14791	7007.625
2551.85548	6992.725
2554.56136	6982.525
2557.26554	6966.825
2559.96803	6961.425
2562.66883	6957.625
2565.36794	6952.025
2568.06536	6932.325
2570.7611	6943.225
2573.45514	6919.425
2576.14751	6917.325
2578.83819	6925.525
2581.52719	6915.225
2584.21451	6890.125
2586.90015	6888.625
2589.58411	6897.925
2592.2664	6898.225
2594.94701	6897.625
2597.62594	6897.025
2600.30321	6880.125
2602.9788	6878.925
2605.65273	6885.225
2608.32498	6863.425
2610.99557	6858.125
2613.66449	6881.325
2616.33175	6869.925
2618.99734	6872.225
2621.66128	6895.325
2624.32355	6872.425
2626.98416	6876.725
2629.64311	6869.125
2632.30041	6870.225
2634.95605	6870.425
2637.61004	6858.125
2640.26238	6825.225
2642.91306	6836.025
2645.56209	6827.525
2648.20948	6821.325
2650.85521	6798.025
2653.4993	6807.425
2656.14175	6807.725
2658.78255	6800.825
2661.42171	6801.125
2664.05923	6832.125
2666.6951	6812.225
2669.32934	6823.925
2671.96194	6834.325
2674.59291	6853.725
2677.22224	6855.525
2679.84993	6846.525
2682.476	6827.525
2685.10043	6840.625
2687.72324	6852.225
2690.34441	6822.825
2692.96396	6830.125
2695.58188	6851.125
2698.19818	6823.025
2700.81285	6820.825
2703.4259	6831.825
2706.03733	6816.025
2708.64714	6804.325
2711.25533	6833.625
2713.86191	6837.625
2716.46687	6853.925
2719.07021	6842.325
2721.67194	6851.625
2724.27206	6833.825
2726.87057	6853.425
2729.46747	6857.925
2732.06276	6864.125
2734.65644	6835.725
2737.24852	6846.325
2739.83899	6827.125
2742.42786	6856.825
2745.01513	6828.225
2747.60079	6806.825
2750.18486	6837.925
2752.76733	6818.625
2755.3482	6812.225
2757.92747	6831.925
2760.50515	6808.325
2763.08123	6798.825
2765.65573	6791.125
2768.22863	6810.925
2770.79994	6782.025
2773.36967	6787.725
2775.9378	6789.525
2778.50435	6783.925
2781.06932	6771.425
2783.6327	6780.025
2786.1945	6767.025
2788.75471	6748.925
2791.31335	6735.425
2793.87041	6739.825
2796.42589	6746.825
2798.97979	6735.825
2801.53212	6712.325
2804.08288	6716.125
2806.63206	6710.425
2809.17967	6676.225
2811.72571	6657.025
2814.27018	6684.925
2816.81308	6665.225
2819.35442	6657.225
2821.89419	6683.425
2824.43239	6675.425
2826.96904	6664.325
2829.50412	6672.725
2832.03763	6657.825
2834.56959	6669.825
2837.1	6650.825
2839.62884	6678.825
2842.15613	6671.625
2844.68186	6693.925
2847.20604	6694.125
2849.72867	6725.125
2852.24974	6733.625
2854.76927	6704.725
2857.28724	6704.925
2859.80367	6691.925
2862.31855	6677.125
2864.83189	6675.825
2867.34368	6659.825
2869.85393	6651.525
2872.36264	6652.925
2874.8698	6663.425
2877.37543	6653.025
2879.87952	6650.725
2882.38207	6641.725
2884.88308	6641.725
2887.38256	6656.925
2889.88051	6624.025
2892.37692	6641.625
2894.8718	6623.125
2897.36515	6646.725
2899.85698	6648.925
2902.34727	6653.725
2904.83604	6659.725
2907.32328	6674.525
2909.809	6666.025
2912.29319	6677.025
2914.77587	6694.825
2917.25702	6672.825
2919.73665	6662.425
2922.21476	6676.425
2924.69136	6662.125
2927.16644	6644.825
2929.64	6655.425
2932.11205	6662.025
2934.58258	6616.225
2937.05161	6627.325
2939.51912	6627.325
2941.98513	6586.425
2944.44962	6559.125
2946.91261	6562.625
2949.37409	6576.525
2951.83407	6549.225
2954.29254	6537.525
2956.74951	6521.025
2959.20498	6538.025
2961.65895	6511.825
2964.11142	6523.325
2966.56239	6498.825
2969.01186	6491.625
2971.45984	6467.825
2973.90632	6470.125
2976.35131	6460.225
2978.7948	6448.825
2981.23681	6435.125
2983.67732	6429.525
2986.11635	6408.125
2988.55388	6397.325
2990.98993	6353.925
2993.4245	6370.925
2995.85758	6359.525
2998.28917	6341.625
3000.71928	6342.725
3003.14791	6316.425
3005.57506	6330.925
3008.00073	6298.525
3010.42493	6291.225
3012.84764	6297.325
3015.26888	6293.625
3017.68865	6286.725
3020.10694	6257.625
3022.52376	6261.525
3024.9391	6262.825
3027.35298	6229.025
3029.76539	6228.725
3032.17632	6224.425
3034.5858	6207.525
3036.9938	6213.625
3039.40034	6203.425
3041.80542	6215.625
3044.20903	6196.925
3046.61118	6206.125
3049.01187	6178.725
3051.4111	6186.325
3053.80888	6167.025
3056.20519	6144.125
3058.60005	6119.125
3060.99345	6103.625
3063.3854	6099.625
3065.7759	6082.325
3068.16494	6076.625
3070.55254	6060.425
3072.93868	6052.325
3075.32338	6021.525
3077.70662	6029.825
3080.08842	6000.925
3082.46878	6014.825
3084.84769	5988.725
3087.22515	5988.025
3089.60118	5976.825
3091.97576	5989.725
3094.3489	5987.125
3096.72061	6001.625
3099.09087	5997.525
3101.4597	5989.525
3103.82709	5976.125
3106.19305	5982.125
3108.55757	5988.625
3110.92066	5986.625
3113.28232	5955.325
3115.64255	5940.325
3118.00134	5930.925
3120.35871	5926.125
3122.71466	5925.425
3125.06917	5917.025
3127.42226	5883.225
3129.77393	5879.725
3132.12417	5890.625
3134.47299	5901.125
3136.82039	5886.025
3139.16636	5902.725
3141.51092	5908.125
3143.85406	5903.425
3146.19579	5903.025
3148.53609	5916.725
3150.87499	5916.125
3153.21246	5927.025
3155.54853	5939.525
3157.88318	5929.125
3160.21642	5933.025
3162.54826	5932.325
3164.87868	5947.725
3167.2077	5921.625
3169.5353	5929.525
3171.86151	5921.525
3174.18631	5931.525
3176.5097	5924.125
3178.83169	5912.325
3181.15228	5927.425
3183.47147	5908.725
3185.78926	5911.625
3188.10565	5913.925
3190.42065	5910.825
3192.73424	5890.125
3195.04645	5917.125
3197.35725	5919.625
3199.66667	5912.725
