Data from AgNPs_FTO_APTES_UA_1uM_CRN_1uM_R6G_10uM_NaF_0.1M_Addition_RamanShift__2__12-14-29-481.txt Node

Date: Thu Jan 27 12:14:29 GMT 2022
User: TCL
Spectrometer: QEP01345
Trigger mode: 4
Integration Time (sec): 7.000000E0
Scans to average: 10
Electric dark correction enabled: true
Nonlinearity correction enabled: false
Boxcar width: 0
XAxis mode: Raman Shifts
Number of Pixels in Spectrum: 1044
>>>>>Begin Spectral Data<<<<<
46.04893	0.175
50.45542	-0.425
54.85868	-2.325
59.25871	-1.325
63.6555	56.575
68.04907	63.975
72.43941	64.575
76.82654	65.875
81.21044	69.575
85.59113	73.275
89.96862	74.875
94.34289	75.175
98.71396	81.075
103.08183	79.975
107.4465	83.975
111.80798	86.975
116.16626	87.275
120.52136	93.775
124.87327	91.075
129.222	95.575
133.56755	100.275
137.90993	109.475
142.24913	119.175
146.58517	129.075
150.91804	149.375
155.24774	172.975
159.57429	204.575
163.89768	265.275
168.21792	348.975
172.53501	466.575
176.84895	642.275
181.15975	891.275
185.46741	1253.375
189.77193	1736.475
194.07331	2312.175
198.37157	2998.175
202.6667	3696.775
206.9587	4403.875
211.24758	5095.075
215.53334	5805.875
219.81599	6551.975
224.09553	7367.875
228.37195	8266.575
232.64527	9278.275
236.91549	10328.975
241.18261	11400.175
245.44663	12356.175
249.70755	13216.675
253.96539	13960.375
258.22014	14622.975
262.4718	15097.275
266.72039	15479.675
270.96589	15645.875
275.20832	15606.175
279.44768	15429.675
283.68397	15219.975
287.91719	14987.175
292.14735	14852.175
296.37445	14810.275
300.59849	14886.575
304.81948	15021.975
309.03742	15087.675
313.25231	15100.375
317.46415	14888.075
321.67296	14589.575
325.87872	14389.375
330.08145	14253.675
334.28114	14281.175
338.47781	14376.475
342.67145	14571.475
346.86207	14841.875
351.04966	15107.975
355.23424	15487.175
359.4158	15778.675
363.59435	16015.875
367.76989	16202.975
371.94243	16291.575
376.11196	16374.875
380.27849	16430.275
384.44203	16527.775
388.60257	16601.975
392.76012	16724.375
396.91468	16869.875
401.06626	17116.275
405.21485	17311.875
409.36047	17268.475
413.50311	17066.775
417.64277	16901.875
421.77947	16903.075
425.9132	16898.575
430.04396	16978.675
434.17176	17012.875
438.2966	17124.975
442.41849	17389.375
446.53742	17857.975
450.6534	18335.475
454.76644	18689.975
458.87653	18712.475
462.98368	18529.075
467.08789	18274.375
471.18916	17948.475
475.2875	17597.475
479.38291	17277.575
483.4754	17150.875
487.56496	17065.175
491.6516	17020.275
495.73531	17004.175
499.81612	17088.375
503.89401	17236.075
507.96899	17319.475
512.04106	17232.375
516.11023	17163.475
520.1765	17169.575
524.23987	17153.375
528.30034	17100.975
532.35792	17023.775
536.41261	16797.975
540.46441	16579.175
544.51333	16483.275
548.55936	16550.075
552.60252	16780.875
556.64279	17139.175
560.6802	17333.575
564.71473	17335.975
568.7464	17362.175
572.7752	17536.075
576.80114	17706.475
580.82422	18002.675
584.84444	18553.675
588.86181	19313.575
592.87633	20101.975
596.888	20352.375
600.89682	19855.675
604.9028	19917.275
608.90594	21662.875
612.90624	23787.475
616.90371	22941.375
620.89834	19560.175
624.89015	17989.375
628.87913	17783.575
632.86528	17712.675
636.84862	17500.775
640.82913	17185.775
644.80683	16773.575
648.78172	16545.075
652.75379	16570.475
656.72306	16788.075
660.68952	17132.875
664.65319	17094.275
668.61405	16792.975
672.57211	16757.275
676.52738	16839.575
680.47986	16803.975
684.42955	16618.175
688.37646	16575.375
692.32058	16711.475
696.26192	16993.275
700.20048	17297.475
704.13626	17372.175
708.06928	17229.375
711.99952	17042.475
715.927	17034.075
719.85171	17147.275
723.77365	17138.275
727.69284	16902.175
731.60928	16690.875
735.52295	16615.975
739.43388	16637.875
743.34206	16740.475
747.24749	16818.275
751.15017	16895.975
755.05012	17071.575
758.94733	17443.575
762.8418	18046.175
766.73354	19136.275
770.62254	20267.175
774.50882	20766.575
778.39237	20353.375
782.27321	19276.075
786.15132	18279.275
790.02671	17594.875
793.89938	17297.875
797.76935	17168.875
801.6366	17104.075
805.50115	17009.775
809.36299	16910.175
813.22213	16802.875
817.07857	16687.775
820.93231	16611.075
824.78336	16602.375
828.63172	16656.975
832.47738	16702.875
836.32036	16849.975
840.16066	16998.275
843.99827	17116.575
847.8332	17073.875
851.66546	16888.275
855.49504	16851.575
859.32195	16821.075
863.1462	16777.975
866.96777	16702.475
870.78668	16671.475
874.60293	16651.875
878.41652	16679.075
882.22745	16752.775
886.03573	16868.575
889.84136	16893.575
893.64433	16779.175
897.44466	16679.175
901.24235	16631.075
905.0374	16558.475
908.8298	16541.275
912.61957	16556.375
916.40671	16631.075
920.19121	16846.675
923.97308	17066.775
927.75233	17308.475
931.52895	17384.075
935.30295	17294.275
939.07433	17084.075
942.84309	16840.075
946.60924	16742.375
950.37278	16699.475
954.13371	16634.575
957.89203	16499.875
961.64774	16401.775
965.40086	16392.875
969.15137	16380.075
972.89929	16364.075
976.64461	16451.875
980.38733	16562.875
984.12747	16662.875
987.86502	16841.275
991.59999	17134.275
995.33237	17530.775
999.06217	18148.375
1002.78939	18828.475
1006.51404	19132.375
1010.23611	19209.175
1013.95561	19221.575
1017.67255	19219.475
1021.38692	19014.575
1025.09872	18925.975
1028.80796	19317.775
1032.51465	20280.375
1036.21877	21258.775
1039.92035	21532.375
1043.61937	21109.775
1047.31584	20292.375
1051.00976	19352.675
1054.70114	18777.675
1058.38998	18551.175
1062.07627	18457.775
1065.76003	18420.875
1069.44126	18424.675
1073.11995	18648.075
1076.79611	18970.675
1080.46974	19205.375
1084.14085	19347.175
1087.80943	19539.575
1091.47549	19541.475
1095.13903	19417.475
1098.80005	19108.975
1102.45857	18778.475
1106.11456	18582.175
1109.76805	18506.875
1113.41903	18512.175
1117.06751	18539.575
1120.71348	18601.475
1124.35696	18736.875
1127.99793	18908.575
1131.63641	19018.075
1135.2724	18887.975
1138.90589	18716.675
1142.5369	18646.075
1146.16542	18568.375
1149.79145	18548.575
1153.415	18515.675
1157.03607	18600.575
1160.65467	18893.475
1164.27079	19508.875
1167.88443	20301.675
1171.49561	21337.175
1175.10432	22649.775
1178.71056	24407.475
1182.31434	26242.375
1185.91565	27247.875
1189.51451	27108.575
1193.11091	26236.575
1196.70485	25132.375
1200.29634	24170.675
1203.88538	23456.375
1207.47197	22969.675
1211.05612	22413.175
1214.63782	21983.375
1218.21708	21662.075
1221.79391	21559.675
1225.36829	21574.175
1228.94024	21308.475
1232.50976	20903.875
1236.07685	20499.375
1239.6415	20283.775
1243.20374	20284.175
1246.76355	20469.875
1250.32093	20887.475
1253.8759	21364.575
1257.42845	21966.875
1260.97859	22578.775
1264.52631	23271.575
1268.07163	23974.175
1271.61453	24857.675
1275.15503	25691.675
1278.69312	26402.275
1282.22882	26780.475
1285.76211	27118.975
1289.29301	27490.175
1292.82151	28123.075
1296.34761	29151.075
1299.87133	30750.175
1303.39266	32802.075
1306.9116	35060.475
1310.42815	36833.075
1313.94233	37424.275
1317.45412	36580.975
1320.96354	34920.775
1324.47058	33252.975
1327.97525	31925.675
1331.47754	31014.875
1334.97747	30420.575
1338.47502	29972.175
1341.97022	29581.875
1345.46305	29271.575
1348.95352	29517.475
1352.44163	30327.575
1355.92738	32039.375
1359.41078	34425.875
1362.89183	36295.075
1366.37053	35965.175
1369.84688	33080.875
1373.32088	29290.575
1376.79254	26587.875
1380.26186	25356.375
1383.72883	24997.875
1387.19347	24723.175
1390.65578	24228.275
1394.11575	23833.575
1397.57339	23705.875
1401.0287	23829.575
1404.48168	23947.275
1407.93234	23912.475
1411.38068	23865.375
1414.82669	23643.575
1418.27039	23310.675
1421.71177	22902.775
1425.15083	22496.375
1428.58758	22323.875
1432.02203	22637.375
1435.45416	23129.075
1438.88399	23580.475
1442.31151	23791.975
1445.73673	23810.075
1449.15965	23726.875
1452.58027	23565.275
1455.9986	23304.375
1459.41463	23273.075
1462.82837	23544.175
1466.23982	24029.075
1469.64898	24508.875
1473.05586	24874.975
1476.46045	25186.375
1479.86276	25255.475
1483.26279	25237.575
1486.66054	25207.375
1490.05602	25446.875
1493.44922	25743.575
1496.84016	26031.475
1500.22882	26392.975
1503.61521	27061.875
1506.99934	28033.275
1510.38121	28891.175
1513.76081	29212.275
1517.13816	28539.475
1520.51324	27374.275
1523.88607	26188.275
1527.25665	25440.575
1530.62498	25131.575
1533.99105	24903.475
1537.35488	24595.775
1540.71647	24250.275
1544.07581	23906.475
1547.4329	23629.475
1550.78776	23327.875
1554.14038	23187.075
1557.49077	23008.375
1560.83892	22921.975
1564.18484	22818.375
1567.52853	22885.475
1570.86999	23034.375
1574.20922	23343.375
1577.54624	23507.875
1580.88103	23483.575
1584.2136	23472.175
1587.54395	24031.875
1590.87208	25311.975
1594.19801	27015.575
1597.52172	28597.575
1600.84321	29145.975
1604.16251	28098.875
1607.47959	25980.075
1610.79447	23770.575
1614.10715	21808.775
1617.41763	20471.875
1620.7259	19650.575
1624.03199	19345.175
1627.33587	19475.975
1630.63757	20016.775
1633.93707	20938.275
1637.23439	22311.375
1640.52951	24341.875
1643.82246	26853.475
1647.11321	28929.675
1650.40179	29354.875
1653.68819	27472.775
1656.97241	24223.675
1660.25446	21211.875
1663.53433	19154.075
1666.81203	17988.475
1670.08756	17278.975
1673.36092	16850.775
1676.63211	16565.075
1679.90115	16332.075
1683.16801	16179.875
1686.43272	16088.975
1689.69527	15984.975
1692.95567	15905.075
1696.2139	15817.375
1699.46999	15771.575
1702.72392	15730.575
1705.97571	15737.975
1709.22535	15784.375
1712.47284	15800.775
1715.71819	15832.675
1718.96139	15813.775
1722.20246	15777.375
1725.44139	15759.275
1728.67818	15666.675
1731.91284	15597.075
1735.14537	15508.075
1738.37576	15477.575
1741.60403	15446.975
1744.83017	15393.875
1748.05418	15348.775
1751.27607	15318.675
1754.49584	15302.475
1757.71349	15256.775
1760.92903	15283.275
1764.14244	15233.275
1767.35375	15206.175
1770.56294	15191.375
1773.77002	15222.975
1776.97499	15195.775
1780.17785	15192.275
1783.37861	15209.875
1786.57727	15217.575
1789.77382	15203.275
1792.96828	15191.575
1796.16064	15191.975
1799.3509	15151.675
1802.53907	15150.575
1805.72514	15132.275
1808.90913	15074.575
1812.09102	15066.275
1815.27083	15047.775
1818.44856	14998.075
1821.6242	15008.375
1824.79776	14992.775
1827.96924	14967.475
1831.13864	15000.875
1834.30597	14962.075
1837.47122	14957.675
1840.6344	14998.075
1843.7955	14969.575
1846.95454	15006.475
1850.11151	14979.875
1853.26642	14989.475
1856.41926	14970.675
1859.57004	15002.075
1862.71876	14958.375
1865.86542	14956.875
1869.01003	14981.775
1872.15258	14943.475
1875.29308	14961.075
1878.43152	14935.675
1881.56792	14926.675
1884.70227	14893.375
1887.83457	14905.875
1890.96482	14875.175
1894.09304	14855.275
1897.21921	14816.875
1900.34335	14818.875
1903.46544	14843.975
1906.58551	14845.775
1909.70353	14823.475
1912.81953	14778.375
1915.93349	14764.275
1919.04543	14766.975
1922.15534	14723.975
1925.26322	14693.875
1928.36908	14674.475
1931.47292	14666.175
1934.57473	14626.775
1937.67453	14591.375
1940.77232	14584.375
1943.86808	14500.175
1946.96184	14469.375
1950.05358	14460.775
1953.14331	14422.975
1956.23103	14397.775
1959.31675	14356.375
1962.40046	14328.175
1965.48217	14308.575
1968.56188	14238.375
1971.63959	14239.375
1974.7153	14196.775
1977.78901	14178.175
1980.86073	14117.075
1983.93046	14084.975
1986.99819	14032.075
1990.06394	13994.275
1993.1277	13952.475
1996.18947	13934.775
1999.24925	13902.475
2002.30706	13869.675
2005.36288	13822.575
2008.41672	13775.975
2011.46859	13752.075
2014.51848	13737.875
2017.56639	13691.675
2020.61233	13674.475
2023.6563	13649.275
2026.6983	13651.275
2029.73833	13603.775
2032.7764	13606.975
2035.8125	13584.575
2038.84664	13566.475
2041.87881	13572.575
2044.90903	13511.875
2047.93729	13492.775
2050.96359	13485.475
2053.98794	13497.775
2057.01034	13472.275
2060.03078	13472.175
2063.04927	13472.875
2066.06582	13491.775
2069.08042	13479.575
2072.09307	13461.175
2075.10378	13459.875
2078.11255	13447.275
2081.11938	13463.075
2084.12426	13443.975
2087.12722	13447.675
2090.12824	13412.975
2093.12732	13431.275
2096.12447	13476.175
2099.11969	13440.975
2102.11299	13461.075
2105.10435	13504.075
2108.09379	13489.175
2111.08131	13478.275
2114.0669	13484.475
2117.05057	13508.875
2120.03233	13505.975
2123.01216	13533.275
2125.99008	13546.775
2128.96609	13552.275
2131.94018	13582.375
2134.91236	13580.275
2137.88263	13594.275
2140.851	13636.575
2143.81746	13626.275
2146.78201	13671.675
2149.74466	13659.875
2152.7054	13672.375
2155.66425	13659.575
2158.6212	13654.575
2161.57625	13637.975
2164.52941	13668.575
2167.48067	13618.775
2170.43004	13635.575
2173.37752	13660.675
2176.32311	13666.775
2179.26681	13666.975
2182.20863	13674.375
2185.14856	13691.175
2188.08661	13679.275
2191.02278	13703.375
2193.95707	13707.975
2196.88948	13717.275
2199.82001	13717.575
2202.74867	13719.175
2205.67545	13731.975
2208.60037	13686.075
2211.52341	13672.075
2214.44458	13722.375
2217.36388	13675.975
2220.28132	13669.875
2223.1969	13629.675
2226.11061	13633.275
2229.02246	13598.475
2231.93245	13598.975
2234.84058	13563.175
2237.74686	13560.275
2240.65128	13540.075
2243.55385	13504.075
2246.45456	13520.775
2249.35343	13507.775
2252.25044	13472.575
2255.14561	13448.575
2258.03893	13435.575
2260.93041	13431.275
2263.82004	13407.075
2266.70783	13399.975
2269.59378	13340.575
2272.4779	13335.475
2275.36017	13302.875
2278.24061	13305.075
2281.11922	13283.475
2283.996	13272.275
2286.87094	13247.375
2289.74405	13247.975
2292.61534	13264.175
2295.4848	13237.275
2298.35243	13297.675
2301.21824	13271.075
2304.08223	13297.275
2306.94439	13319.275
2309.80474	13304.275
2312.66327	13307.675
2315.51999	13336.675
2318.37489	13327.075
2321.22797	13323.875
2324.07925	13296.075
2326.92871	13284.375
2329.77637	13324.775
2332.62222	13286.375
2335.46626	13262.975
2338.3085	13270.975
2341.14893	13249.575
2343.98756	13273.575
2346.8244	13306.275
2349.65943	13270.575
2352.49267	13241.975
2355.32411	13242.175
2358.15376	13247.575
2360.98161	13220.575
2363.80768	13192.775
2366.63195	13197.175
2369.45444	13166.175
2372.27514	13177.275
2375.09405	13138.875
2377.91118	13101.975
2380.72652	13094.875
2383.54009	13067.475
2386.35187	13078.975
2389.16188	13041.275
2391.97011	13018.275
2394.77657	12995.175
2397.58125	12985.575
2400.38416	12990.075
2403.18529	12956.375
2405.98466	12926.975
2408.78226	12885.575
2411.57809	12896.975
2414.37216	12898.275
2417.16446	12895.575
2419.955	12836.175
2422.74378	12844.875
2425.5308	12846.475
2428.31606	12858.075
2431.09956	12814.375
2433.88131	12810.475
2436.6613	12836.175
2439.43954	12854.475
2442.21603	12843.275
2444.99077	12814.275
2447.76377	12840.875
2450.53501	12843.475
2453.30451	12819.375
2456.07226	12786.375
2458.83827	12803.475
2461.60254	12833.075
2464.36507	12844.775
2467.12586	12806.475
2469.88492	12833.375
2472.64224	12842.975
2475.39782	12858.675
2478.15167	12859.575
2480.90379	12831.975
2483.65417	12863.575
2486.40283	12839.575
2489.14976	12860.875
2491.89497	12872.375
2494.63845	12894.575
2497.3802	12879.575
2500.12024	12860.675
2502.85855	12832.975
2505.59514	12808.975
2508.33002	12854.075
2511.06318	12831.375
2513.79462	12805.475
2516.52435	12791.075
2519.25237	12790.875
2521.97867	12786.875
2524.70327	12787.775
2527.42616	12752.375
2530.14734	12773.475
2532.86681	12774.975
2535.58458	12784.275
2538.30065	12741.575
2541.01501	12757.575
2543.72768	12731.775
2546.43864	12754.675
2549.14791	12747.075
2551.85548	12714.075
2554.56136	12695.175
2557.26554	12711.775
2559.96803	12684.075
2562.66883	12663.975
2565.36794	12707.375
2568.06536	12668.175
2570.7611	12699.675
2573.45514	12680.475
2576.14751	12637.275
2578.83819	12655.575
2581.52719	12677.875
2584.21451	12694.975
2586.90015	12651.775
2589.58411	12638.775
2592.2664	12601.575
2594.94701	12604.275
2597.62594	12589.875
2600.30321	12595.975
2602.9788	12583.275
2605.65273	12542.275
2608.32498	12558.775
2610.99557	12556.375
2613.66449	12542.075
2616.33175	12560.075
2618.99734	12564.275
2621.66128	12560.575
2624.32355	12509.375
2626.98416	12536.675
2629.64311	12528.075
2632.30041	12509.675
2634.95605	12488.675
2637.61004	12455.075
2640.26238	12451.475
2642.91306	12438.975
2645.56209	12431.575
2648.20948	12440.275
2650.85521	12444.675
2653.4993	12441.875
2656.14175	12460.975
2658.78255	12475.975
2661.42171	12461.675
2664.05923	12494.275
2666.6951	12481.675
2669.32934	12491.475
2671.96194	12483.275
2674.59291	12500.075
2677.22224	12505.075
2679.84993	12503.375
2682.476	12477.275
2685.10043	12477.475
2687.72324	12449.475
2690.34441	12436.975
2692.96396	12447.775
2695.58188	12447.775
2698.19818	12437.275
2700.81285	12458.975
2703.4259	12410.275
2706.03733	12433.175
2708.64714	12414.375
2711.25533	12451.675
2713.86191	12473.675
2716.46687	12512.875
2719.07021	12485.375
2721.67194	12500.775
2724.27206	12497.275
2726.87057	12546.075
2729.46747	12517.975
2732.06276	12513.375
2734.65644	12522.775
2737.24852	12518.375
2739.83899	12521.175
2742.42786	12516.075
2745.01513	12470.975
2747.60079	12498.875
2750.18486	12489.075
2752.76733	12486.775
2755.3482	12486.675
2757.92747	12499.575
2760.50515	12482.975
2763.08123	12476.475
2765.65573	12482.975
2768.22863	12464.575
2770.79994	12464.875
2773.36967	12471.175
2775.9378	12465.275
2778.50435	12481.975
2781.06932	12456.275
2783.6327	12443.475
2786.1945	12473.675
2788.75471	12445.875
2791.31335	12436.575
2793.87041	12422.375
2796.42589	12384.675
2798.97979	12403.775
2801.53212	12365.875
2804.08288	12349.375
2806.63206	12326.575
2809.17967	12304.975
2811.72571	12295.675
2814.27018	12296.075
2816.81308	12244.175
2819.35442	12231.475
2821.89419	12228.375
2824.43239	12211.475
2826.96904	12244.975
2829.50412	12232.875
2832.03763	12212.875
2834.56959	12232.875
2837.1	12217.875
2839.62884	12252.275
2842.15613	12216.275
2844.68186	12230.775
2847.20604	12243.975
2849.72867	12212.275
2852.24974	12231.675
2854.76927	12238.975
2857.28724	12231.875
2859.80367	12241.875
2862.31855	12225.575
2864.83189	12201.275
2867.34368	12199.375
2869.85393	12219.575
2872.36264	12208.575
2874.8698	12202.975
2877.37543	12201.775
2879.87952	12233.275
2882.38207	12232.475
2884.88308	12219.875
2887.38256	12280.075
2889.88051	12242.975
2892.37692	12267.175
2894.8718	12278.575
2897.36515	12297.275
2899.85698	12294.075
2902.34727	12319.975
2904.83604	12339.575
2907.32328	12379.175
2909.809	12325.575
2912.29319	12351.175
2914.77587	12327.175
2917.25702	12335.575
2919.73665	12315.475
2922.21476	12315.575
2924.69136	12307.575
2927.16644	12306.275
2929.64	12294.775
2932.11205	12290.675
2934.58258	12247.875
2937.05161	12262.375
2939.51912	12265.075
2941.98513	12261.375
2944.44962	12235.575
2946.91261	12189.775
2949.37409	12222.675
2951.83407	12181.075
2954.29254	12196.575
2956.74951	12169.975
2959.20498	12164.375
2961.65895	12177.975
2964.11142	12150.675
2966.56239	12148.175
2969.01186	12118.575
2971.45984	12121.475
2973.90632	12115.975
2976.35131	12072.575
2978.7948	12041.075
2981.23681	12023.875
2983.67732	12045.575
2986.11635	12017.175
2988.55388	11961.275
2990.98993	11919.875
2993.4245	11903.175
2995.85758	11896.875
2998.28917	11880.075
3000.71928	11852.775
3003.14791	11837.075
3005.57506	11829.375
3008.00073	11794.275
3010.42493	11819.075
3012.84764	11792.775
3015.26888	11784.075
3017.68865	11767.375
3020.10694	11750.875
3022.52376	11733.175
3024.9391	11742.475
3027.35298	11729.875
3029.76539	11728.175
3032.17632	11749.175
3034.5858	11693.975
3036.9938	11687.075
3039.40034	11687.175
3041.80542	11711.775
3044.20903	11667.175
3046.61118	11663.575
3049.01187	11641.675
3051.4111	11630.575
3053.80888	11625.875
3056.20519	11601.575
3058.60005	11587.875
3060.99345	11579.075
3063.3854	11568.075
3065.7759	11525.175
3068.16494	11525.375
3070.55254	11483.775
3072.93868	11487.875
3075.32338	11443.875
3077.70662	11463.475
3080.08842	11449.975
3082.46878	11432.375
3084.84769	11429.475
3087.22515	11415.775
3089.60118	11441.975
3091.97576	11430.975
3094.3489	11437.375
3096.72061	11440.075
3099.09087	11433.375
3101.4597	11432.275
3103.82709	11427.375
3106.19305	11419.975
3108.55757	11443.075
3110.92066	11395.275
3113.28232	11386.775
3115.64255	11385.175
3118.00134	11353.275
3120.35871	11360.875
3122.71466	11329.175
3125.06917	11336.575
3127.42226	11304.975
3129.77393	11311.575
