Data from AgNPs_FTO_APTES_UA_1uM_CRN_500uM_R6G_10uM_NaF_0.1M_Addition_RamanShift__8__17-53-59-868.txt Node

Date: Thu Jan 27 17:53:59 GMT 2022
User: TCL
Spectrometer: QEP01345
Trigger mode: 4
Integration Time (sec): 7.000000E0
Scans to average: 10
Electric dark correction enabled: true
Nonlinearity correction enabled: false
Boxcar width: 0
XAxis mode: Raman Shifts
Number of Pixels in Spectrum: 1044
>>>>>Begin Spectral Data<<<<<
46.04893	0.425
50.45542	1.325
54.85868	-1.575
59.25871	-1.075
63.6555	43.725
68.04907	43.125
72.43941	50.425
76.82654	49.725
81.21044	50.925
85.59113	53.425
89.96862	56.525
94.34289	60.925
98.71396	63.525
103.08183	58.625
107.4465	66.925
111.80798	65.525
116.16626	66.825
120.52136	69.625
124.87327	70.825
129.222	69.125
133.56755	72.125
137.90993	76.925
142.24913	80.725
146.58517	87.025
150.91804	100.125
155.24774	114.925
159.57429	133.025
163.89768	168.825
168.21792	221.425
172.53501	296.925
176.84895	404.225
181.15975	563.125
185.46741	779.325
189.77193	1078.925
194.07331	1440.225
198.37157	1851.725
202.6667	2290.725
206.9587	2728.825
211.24758	3161.925
215.53334	3584.525
219.81599	4040.425
224.09553	4527.825
228.37195	5053.225
232.64527	5646.225
236.91549	6266.325
241.18261	6896.625
245.44663	7505.425
249.70755	8050.825
253.96539	8544.725
258.22014	8941.525
262.4718	9252.125
266.72039	9455.425
270.96589	9537.225
275.20832	9538.025
279.44768	9469.025
283.68397	9363.025
287.91719	9243.325
292.14735	9134.325
296.37445	9103.625
300.59849	9076.725
304.81948	9104.425
309.03742	9112.025
313.25231	9046.925
317.46415	8919.825
321.67296	8732.625
325.87872	8568.125
330.08145	8523.425
334.28114	8487.325
338.47781	8557.125
342.67145	8652.225
346.86207	8752.325
351.04966	8897.225
355.23424	9028.525
359.4158	9167.225
363.59435	9268.925
367.76989	9330.125
371.94243	9396.325
376.11196	9423.325
380.27849	9474.825
384.44203	9534.725
388.60257	9605.025
392.76012	9681.025
396.91468	9762.725
401.06626	9893.425
405.21485	9980.525
409.36047	10000.025
413.50311	9900.425
417.64277	9888.125
421.77947	9881.525
425.9132	9951.625
430.04396	10036.825
434.17176	10081.825
438.2966	10070.025
442.41849	10149.525
446.53742	10330.125
450.6534	10520.225
454.76644	10640.925
458.87653	10638.025
462.98368	10591.925
467.08789	10477.925
471.18916	10355.025
475.2875	10241.325
479.38291	10127.025
483.4754	10058.825
487.56496	9982.625
491.6516	9924.625
495.73531	9864.025
499.81612	9868.325
503.89401	9942.925
507.96899	10008.025
512.04106	9985.525
516.11023	9928.625
520.1765	9861.725
524.23987	9770.925
528.30034	9703.425
532.35792	9644.925
536.41261	9568.825
540.46441	9471.125
544.51333	9460.825
548.55936	9544.225
552.60252	9683.525
556.64279	9826.425
560.6802	9977.025
564.71473	10037.425
568.7464	10082.425
572.7752	10277.625
576.80114	10500.725
580.82422	10807.525
584.84444	11280.825
588.86181	11864.025
592.87633	12349.225
596.888	12216.625
600.89682	11617.725
604.9028	11257.625
608.90594	11665.625
612.90624	12359.325
616.90371	11870.225
620.89834	10380.925
624.89015	9668.925
628.87913	9556.925
632.86528	9645.525
636.84862	9673.925
640.82913	9573.125
644.80683	9436.125
648.78172	9327.325
652.75379	9364.925
656.72306	9416.625
660.68952	9511.025
664.65319	9474.425
668.61405	9370.425
672.57211	9333.525
676.52738	9405.925
680.47986	9467.925
684.42955	9428.825
688.37646	9369.625
692.32058	9337.225
696.26192	9379.625
700.20048	9450.625
704.13626	9509.325
708.06928	9532.325
711.99952	9503.225
715.927	9531.625
719.85171	9544.025
723.77365	9494.225
727.69284	9413.625
731.60928	9318.325
735.52295	9299.125
739.43388	9306.325
743.34206	9311.025
747.24749	9348.225
751.15017	9427.325
755.05012	9525.325
758.94733	9710.525
762.8418	10000.925
766.73354	10542.825
770.62254	11110.525
774.50882	11287.425
778.39237	10995.225
782.27321	10424.025
786.15132	9856.225
790.02671	9514.325
793.89938	9342.925
797.76935	9288.725
801.6366	9271.525
805.50115	9247.625
809.36299	9205.625
813.22213	9126.425
817.07857	9071.725
820.93231	9033.525
824.78336	9015.525
828.63172	8974.825
832.47738	8980.225
836.32036	8959.925
840.16066	8977.225
843.99827	8958.725
847.8332	8923.525
851.66546	8953.325
855.49504	8946.725
859.32195	8943.925
863.1462	8935.125
866.96777	8937.325
870.78668	8939.325
874.60293	8932.925
878.41652	8944.425
882.22745	8955.225
886.03573	8981.025
889.84136	9017.725
893.64433	9013.425
897.44466	8963.925
901.24235	8920.725
905.0374	8911.525
908.8298	8873.125
912.61957	8864.725
916.40671	8908.525
920.19121	8959.625
923.97308	9058.225
927.75233	9073.625
931.52895	9046.325
935.30295	8937.925
939.07433	8778.725
942.84309	8665.325
946.60924	8602.625
950.37278	8564.025
954.13371	8547.025
957.89203	8531.625
961.64774	8534.525
965.40086	8525.625
969.15137	8485.225
972.89929	8448.325
976.64461	8408.625
980.38733	8409.825
984.12747	8406.925
987.86502	8391.625
991.59999	8408.525
995.33237	8458.525
999.06217	8552.325
1002.78939	8642.125
1006.51404	8740.025
1010.23611	8856.725
1013.95561	8987.525
1017.67255	9006.125
1021.38692	8968.225
1025.09872	8881.125
1028.80796	8753.525
1032.51465	8691.225
1036.21877	8685.725
1039.92035	8713.425
1043.61937	8761.425
1047.31584	8790.325
1051.00976	8824.825
1054.70114	8831.125
1058.38998	8874.425
1062.07627	8916.925
1065.76003	9038.325
1069.44126	9120.025
1073.11995	9268.525
1076.79611	9359.825
1080.46974	9379.625
1084.14085	9369.325
1087.80943	9356.325
1091.47549	9404.025
1095.13903	9442.925
1098.80005	9351.725
1102.45857	9184.125
1106.11456	9031.825
1109.76805	8948.325
1113.41903	8953.625
1117.06751	8980.925
1120.71348	9108.225
1124.35696	9221.925
1127.99793	9344.125
1131.63641	9482.225
1135.2724	9384.725
1138.90589	9271.925
1142.5369	9263.625
1146.16542	9279.325
1149.79145	9292.425
1153.415	9337.025
1157.03607	9426.725
1160.65467	9617.625
1164.27079	9963.725
1167.88443	10400.425
1171.49561	10841.125
1175.10432	11382.925
1178.71056	12123.225
1182.31434	12812.625
1185.91565	13156.825
1189.51451	13026.925
1193.11091	12687.725
1196.70485	12277.425
1200.29634	11815.025
1203.88538	11488.925
1207.47197	11317.925
1211.05612	11144.125
1214.63782	10913.725
1218.21708	10701.625
1221.79391	10444.225
1225.36829	10325.325
1228.94024	10304.125
1232.50976	10225.225
1236.07685	10115.725
1239.6415	10042.125
1243.20374	9988.225
1246.76355	10007.425
1250.32093	10089.025
1253.8759	10202.225
1257.42845	10402.625
1260.97859	10641.625
1264.52631	10860.825
1268.07163	11081.625
1271.61453	11280.425
1275.15503	11498.025
1278.69312	11758.625
1282.22882	12073.025
1285.76211	12441.625
1289.29301	12934.825
1292.82151	13458.025
1296.34761	14082.025
1299.87133	14859.725
1303.39266	15613.725
1306.9116	16367.925
1310.42815	16947.925
1313.94233	17240.325
1317.45412	17079.625
1320.96354	16594.525
1324.47058	16149.225
1327.97525	15784.425
1331.47754	15574.625
1334.97747	15412.025
1338.47502	15203.525
1341.97022	15006.725
1345.46305	14868.525
1348.95352	14912.825
1352.44163	15256.025
1355.92738	15889.425
1359.41078	16757.925
1362.89183	17444.525
1366.37053	17383.625
1369.84688	16151.925
1373.32088	14322.725
1376.79254	12994.725
1380.26186	12430.925
1383.72883	12288.325
1387.19347	12136.725
1390.65578	11918.625
1394.11575	11826.125
1397.57339	11930.325
1401.0287	12214.125
1404.48168	12439.525
1407.93234	12453.925
1411.38068	12299.325
1414.82669	11979.125
1418.27039	11629.325
1421.71177	11240.425
1425.15083	10910.625
1428.58758	10719.025
1432.02203	10771.425
1435.45416	10993.125
1438.88399	11256.125
1442.31151	11411.325
1445.73673	11458.125
1449.15965	11495.625
1452.58027	11496.425
1455.9986	11443.525
1459.41463	11436.925
1462.82837	11566.125
1466.23982	11818.225
1469.64898	12064.025
1473.05586	12233.625
1476.46045	12293.825
1479.86276	12291.125
1483.26279	12236.125
1486.66054	12237.325
1490.05602	12342.825
1493.44922	12486.225
1496.84016	12680.625
1500.22882	12956.825
1503.61521	13397.625
1506.99934	13875.925
1510.38121	14269.325
1513.76081	14276.425
1517.13816	13912.625
1520.51324	13360.625
1523.88607	12961.125
1527.25665	12738.425
1530.62498	12640.125
1533.99105	12521.625
1537.35488	12355.425
1540.71647	12127.325
1544.07581	11863.625
1547.4329	11623.125
1550.78776	11354.025
1554.14038	11123.225
1557.49077	10986.725
1560.83892	10921.625
1564.18484	10888.725
1567.52853	10950.625
1570.86999	11075.025
1574.20922	11294.825
1577.54624	11467.425
1580.88103	11472.625
1584.2136	11444.725
1587.54395	11605.225
1590.87208	12009.225
1594.19801	12661.225
1597.52172	13429.825
1600.84321	13807.225
1604.16251	13434.625
1607.47959	12544.625
1610.79447	11522.425
1614.10715	10583.625
1617.41763	9864.025
1620.7259	9398.825
1624.03199	9124.325
1627.33587	9051.925
1630.63757	9237.525
1633.93707	9641.125
1637.23439	10415.125
1640.52951	11636.425
1643.82246	13226.925
1647.11321	14681.425
1650.40179	15126.025
1653.68819	14152.625
1656.97241	12336.525
1660.25446	10634.625
1663.53433	9419.925
1666.81203	8702.625
1670.08756	8270.325
1673.36092	7997.625
1676.63211	7870.425
1679.90115	7701.125
1683.16801	7623.225
1686.43272	7530.925
1689.69527	7460.725
1692.95567	7394.425
1696.2139	7340.725
1699.46999	7275.525
1702.72392	7253.725
1705.97571	7252.925
1709.22535	7276.225
1712.47284	7285.925
1715.71819	7298.225
1718.96139	7293.825
1722.20246	7277.025
1725.44139	7235.925
1728.67818	7208.025
1731.91284	7176.225
1735.14537	7141.025
1738.37576	7120.725
1741.60403	7084.525
1744.83017	7079.325
1748.05418	7046.425
1751.27607	7058.225
1754.49584	7039.025
1757.71349	7039.425
1760.92903	7007.625
1764.14244	7001.825
1767.35375	6975.425
1770.56294	6950.625
1773.77002	6937.025
1776.97499	6925.025
1780.17785	6917.025
1783.37861	6938.725
1786.57727	6915.325
1789.77382	6890.025
1792.96828	6903.225
1796.16064	6867.225
1799.3509	6846.225
1802.53907	6825.125
1805.72514	6838.025
1808.90913	6800.525
1812.09102	6793.425
1815.27083	6771.825
1818.44856	6760.325
1821.6242	6753.325
1824.79776	6719.225
1827.96924	6717.625
1831.13864	6738.625
1834.30597	6723.325
1837.47122	6714.425
1840.6344	6714.925
1843.7955	6711.525
1846.95454	6701.525
1850.11151	6685.025
1853.26642	6710.425
1856.41926	6682.425
1859.57004	6700.525
1862.71876	6685.525
1865.86542	6661.825
1869.01003	6662.825
1872.15258	6658.625
1875.29308	6638.125
1878.43152	6637.025
1881.56792	6633.225
1884.70227	6615.125
1887.83457	6592.625
1890.96482	6609.125
1894.09304	6583.225
1897.21921	6578.125
1900.34335	6559.725
1903.46544	6552.625
1906.58551	6544.225
1909.70353	6540.625
1912.81953	6533.625
1915.93349	6494.925
1919.04543	6480.525
1922.15534	6488.425
1925.26322	6484.225
1928.36908	6447.125
1931.47292	6414.525
1934.57473	6420.725
1937.67453	6401.625
1940.77232	6373.925
1943.86808	6365.025
1946.96184	6363.525
1950.05358	6336.025
1953.14331	6322.825
1956.23103	6299.025
1959.31675	6300.125
1962.40046	6268.325
1965.48217	6244.325
1968.56188	6227.425
1971.63959	6210.025
1974.7153	6179.325
1977.78901	6152.125
1980.86073	6148.625
1983.93046	6134.925
1986.99819	6124.225
1990.06394	6100.125
1993.1277	6079.025
1996.18947	6058.925
1999.24925	6037.125
2002.30706	6024.825
2005.36288	6012.225
2008.41672	5976.325
2011.46859	5977.025
2014.51848	5963.425
2017.56639	5960.825
2020.61233	5911.325
2023.6563	5920.325
2026.6983	5900.825
2029.73833	5885.725
2032.7764	5889.925
2035.8125	5856.025
2038.84664	5841.025
2041.87881	5837.925
2044.90903	5816.425
2047.93729	5791.325
2050.96359	5810.525
2053.98794	5793.425
2057.01034	5775.125
2060.03078	5783.225
2063.04927	5771.725
2066.06582	5764.325
2069.08042	5768.025
2072.09307	5765.525
2075.10378	5751.225
2078.11255	5755.525
2081.11938	5761.125
2084.12426	5747.325
2087.12722	5744.025
2090.12824	5735.925
2093.12732	5740.225
2096.12447	5737.125
2099.11969	5729.425
2102.11299	5727.925
2105.10435	5736.325
2108.09379	5733.425
2111.08131	5740.725
2114.0669	5739.025
2117.05057	5738.925
2120.03233	5733.125
2123.01216	5745.525
2125.99008	5757.425
2128.96609	5772.325
2131.94018	5760.425
2134.91236	5779.625
2137.88263	5771.625
2140.851	5758.125
2143.81746	5770.025
2146.78201	5770.925
2149.74466	5743.925
2152.7054	5760.825
2155.66425	5752.325
2158.6212	5751.325
2161.57625	5724.725
2164.52941	5741.025
2167.48067	5747.125
2170.43004	5741.025
2173.37752	5725.525
2176.32311	5737.125
2179.26681	5752.325
2182.20863	5721.625
2185.14856	5750.225
2188.08661	5751.625
2191.02278	5750.325
2193.95707	5725.925
2196.88948	5722.825
2199.82001	5703.725
2202.74867	5703.325
2205.67545	5680.925
2208.60037	5672.525
2211.52341	5670.425
2214.44458	5666.425
2217.36388	5656.125
2220.28132	5646.325
2223.1969	5635.725
2226.11061	5628.125
2229.02246	5617.525
2231.93245	5605.625
2234.84058	5610.925
2237.74686	5594.225
2240.65128	5589.225
2243.55385	5568.225
2246.45456	5554.525
2249.35343	5545.125
2252.25044	5539.725
2255.14561	5532.025
2258.03893	5522.525
2260.93041	5511.625
2263.82004	5502.125
2266.70783	5481.625
2269.59378	5473.025
2272.4779	5448.525
2275.36017	5439.225
2278.24061	5433.125
2281.11922	5439.325
2283.996	5421.625
2286.87094	5412.625
2289.74405	5395.925
2292.61534	5378.325
2295.4848	5375.225
2298.35243	5376.825
2301.21824	5377.525
2304.08223	5382.825
2306.94439	5369.525
2309.80474	5372.825
2312.66327	5342.425
2315.51999	5352.225
2318.37489	5323.725
2321.22797	5327.625
2324.07925	5314.525
2326.92871	5302.725
2329.77637	5304.625
2332.62222	5296.025
2335.46626	5300.625
2338.3085	5285.525
2341.14893	5289.725
2343.98756	5277.025
2346.8244	5245.825
2349.65943	5258.225
2352.49267	5246.425
2355.32411	5261.025
2358.15376	5252.525
2360.98161	5260.025
2363.80768	5245.025
2366.63195	5242.625
2369.45444	5241.325
2372.27514	5245.425
2375.09405	5244.025
2377.91118	5225.225
2380.72652	5210.725
2383.54009	5190.525
2386.35187	5180.425
2389.16188	5157.225
2391.97011	5157.925
2394.77657	5149.125
2397.58125	5136.825
2400.38416	5140.225
2403.18529	5129.025
2405.98466	5119.925
2408.78226	5118.625
2411.57809	5109.625
2414.37216	5094.825
2417.16446	5082.725
2419.955	5099.925
2422.74378	5084.325
2425.5308	5093.025
2428.31606	5081.425
2431.09956	5070.925
2433.88131	5061.725
2436.6613	5046.625
2439.43954	5044.125
2442.21603	5057.625
2444.99077	5058.525
2447.76377	5055.825
2450.53501	5036.825
2453.30451	5023.325
2456.07226	5036.725
2458.83827	5019.425
2461.60254	5020.925
2464.36507	5029.225
2467.12586	5017.325
2469.88492	4994.025
2472.64224	5008.125
2475.39782	5003.325
2478.15167	4988.925
2480.90379	4999.325
2483.65417	5005.725
2486.40283	4990.025
2489.14976	4986.425
2491.89497	4980.725
2494.63845	4976.925
2497.3802	4972.125
2500.12024	4987.825
2502.85855	4957.925
2505.59514	4960.125
2508.33002	4949.525
2511.06318	4959.225
2513.79462	4941.925
2516.52435	4946.225
2519.25237	4933.725
2521.97867	4910.725
2524.70327	4922.825
2527.42616	4917.425
2530.14734	4914.825
2532.86681	4905.225
2535.58458	4890.225
2538.30065	4892.025
2541.01501	4882.525
2543.72768	4874.925
2546.43864	4882.025
2549.14791	4862.825
2551.85548	4837.425
2554.56136	4852.925
2557.26554	4843.625
2559.96803	4841.925
2562.66883	4822.025
2565.36794	4818.325
2568.06536	4813.925
2570.7611	4797.125
2573.45514	4800.225
2576.14751	4786.925
2578.83819	4791.325
2581.52719	4776.225
2584.21451	4763.125
2586.90015	4764.925
2589.58411	4751.625
2592.2664	4762.125
2594.94701	4740.925
2597.62594	4735.025
2600.30321	4725.525
2602.9788	4711.625
2605.65273	4709.825
2608.32498	4703.025
2610.99557	4712.525
2613.66449	4696.925
2616.33175	4704.325
2618.99734	4685.625
2621.66128	4669.225
2624.32355	4673.725
2626.98416	4688.125
2629.64311	4677.425
2632.30041	4664.425
2634.95605	4648.825
2637.61004	4630.125
2640.26238	4645.825
2642.91306	4626.625
2645.56209	4638.325
2648.20948	4629.525
2650.85521	4616.225
2653.4993	4632.625
2656.14175	4641.525
2658.78255	4644.425
2661.42171	4636.825
2664.05923	4652.425
2666.6951	4655.625
2669.32934	4640.825
2671.96194	4643.225
2674.59291	4634.125
2677.22224	4629.325
2679.84993	4618.325
2682.476	4627.025
2685.10043	4627.425
2687.72324	4626.625
2690.34441	4639.425
2692.96396	4629.425
2695.58188	4628.325
2698.19818	4633.325
2700.81285	4634.025
2703.4259	4623.825
2706.03733	4608.925
2708.64714	4615.925
2711.25533	4627.825
2713.86191	4601.525
2716.46687	4626.225
2719.07021	4609.025
2721.67194	4626.425
2724.27206	4628.525
2726.87057	4633.425
2729.46747	4635.025
2732.06276	4632.325
2734.65644	4627.125
2737.24852	4646.425
2739.83899	4630.425
2742.42786	4612.125
2745.01513	4600.225
2747.60079	4606.625
2750.18486	4605.425
2752.76733	4598.325
2755.3482	4591.325
2757.92747	4581.825
2760.50515	4590.025
2763.08123	4581.625
2765.65573	4590.525
2768.22863	4587.225
2770.79994	4565.325
2773.36967	4575.725
2775.9378	4565.225
2778.50435	4557.825
2781.06932	4548.925
2783.6327	4540.025
2786.1945	4547.625
2788.75471	4539.625
2791.31335	4517.725
2793.87041	4520.925
2796.42589	4521.625
2798.97979	4522.525
2801.53212	4508.425
2804.08288	4520.925
2806.63206	4485.325
2809.17967	4470.325
2811.72571	4481.725
2814.27018	4453.625
2816.81308	4460.925
2819.35442	4442.625
2821.89419	4446.925
2824.43239	4451.325
2826.96904	4451.025
2829.50412	4446.325
2832.03763	4414.625
2834.56959	4418.025
2837.1	4454.925
2839.62884	4434.925
2842.15613	4460.925
2844.68186	4501.325
2847.20604	4513.125
2849.72867	4531.225
2852.24974	4515.925
2854.76927	4525.525
2857.28724	4510.325
2859.80367	4502.625
2862.31855	4491.125
2864.83189	4493.125
2867.34368	4481.925
2869.85393	4489.225
2872.36264	4474.925
2874.8698	4475.325
2877.37543	4471.225
2879.87952	4476.525
2882.38207	4449.425
2884.88308	4456.825
2887.38256	4471.425
2889.88051	4465.325
2892.37692	4464.625
2894.8718	4475.825
2897.36515	4481.325
2899.85698	4484.825
2902.34727	4492.925
2904.83604	4486.325
2907.32328	4502.625
2909.809	4485.325
2912.29319	4497.625
2914.77587	4492.525
2917.25702	4506.725
2919.73665	4509.125
2922.21476	4499.925
2924.69136	4487.125
2927.16644	4493.525
2929.64	4498.525
2932.11205	4501.025
2934.58258	4481.125
2937.05161	4512.225
2939.51912	4504.625
2941.98513	4478.525
2944.44962	4455.325
2946.91261	4446.425
2949.37409	4455.025
2951.83407	4423.125
2954.29254	4413.125
2956.74951	4406.025
2959.20498	4417.825
2961.65895	4391.625
2964.11142	4389.925
2966.56239	4383.025
2969.01186	4367.125
2971.45984	4354.725
2973.90632	4346.125
2976.35131	4319.525
2978.7948	4312.325
2981.23681	4318.025
2983.67732	4302.025
2986.11635	4283.225
2988.55388	4268.025
2990.98993	4273.425
2993.4245	4243.925
2995.85758	4237.725
2998.28917	4255.825
3000.71928	4230.325
3003.14791	4212.125
3005.57506	4213.825
3008.00073	4211.425
3010.42493	4197.525
3012.84764	4205.025
3015.26888	4192.025
3017.68865	4194.725
3020.10694	4184.525
3022.52376	4176.225
3024.9391	4174.125
3027.35298	4148.525
3029.76539	4160.525
3032.17632	4151.625
3034.5858	4150.725
3036.9938	4149.225
3039.40034	4143.725
3041.80542	4152.025
3044.20903	4127.825
3046.61118	4124.925
3049.01187	4129.525
3051.4111	4124.325
3053.80888	4122.625
3056.20519	4108.225
3058.60005	4096.025
3060.99345	4113.525
3063.3854	4097.325
3065.7759	4080.225
3068.16494	4073.325
3070.55254	4064.425
3072.93868	4066.725
3075.32338	4046.225
3077.70662	4052.625
3080.08842	4042.625
3082.46878	4037.025
3084.84769	4055.125
3087.22515	4048.225
3089.60118	4053.925
3091.97576	4046.625
3094.3489	4049.725
3096.72061	4058.725
3099.09087	4064.525
3101.4597	4054.625
3103.82709	4053.625
3106.19305	4062.925
3108.55757	4055.725
3110.92066	4043.925
3113.28232	4057.325
3115.64255	4033.525
3118.00134	4049.925
3120.35871	4022.025
3122.71466	4023.125
3125.06917	4026.025
3127.42226	4025.125
3129.77393	4031.725
3132.12417	4012.725
3134.47299	4037.625
3136.82039	4037.825
3139.16636	4042.325
3141.51092	4043.225
3143.85406	4055.025
3146.19579	4041.925
3148.53609	4061.625
3150.87499	4065.625
3153.21246	4069.825
3155.54853	4083.625
3157.88318	4090.825
3160.21642	4084.025
3162.54826	4075.025
3164.87868	4096.425
3167.2077	4084.125
3169.5353	4095.525
3171.86151	4103.525
3174.18631	4098.925
3176.5097	4106.125
3178.83169	4103.625
3181.15228	4096.125
3183.47147	4096.725
3185.78926	4089.725
3188.10565	4093.425
3190.42065	4095.425
3192.73424	4102.325
3195.04645	4090.625
3197.35725	4111.625
3199.66667	4092.425
3201.97469	4096.525
3204.28132	4114.025
3206.58656	4098.025
3208.8904	4117.925
3211.19287	4126.625
3213.49394	4123.025
3215.79363	4125.225
