Data from AgNPs_FTO_APTES_UA_1uM_CRN_0uM_R6G_10uM_NaF_0.1M_Addition_RamanShift__10__11-17-19-415.txt Node

Date: Thu Jan 27 11:17:19 GMT 2022
User: TCL
Spectrometer: QEP01345
Trigger mode: 4
Integration Time (sec): 7.000000E0
Scans to average: 10
Electric dark correction enabled: true
Nonlinearity correction enabled: false
Boxcar width: 0
XAxis mode: Raman Shifts
Number of Pixels in Spectrum: 1044
>>>>>Begin Spectral Data<<<<<
46.04893	0.15
50.45542	1.55
54.85868	-0.75
59.25871	-0.05
63.6555	29.15
68.04907	31.25
72.43941	34.75
76.82654	36.45
81.21044	39.35
85.59113	35.95
89.96862	39.25
94.34289	42.35
98.71396	42.35
103.08183	42.45
107.4465	45.45
111.80798	43.35
116.16626	46.15
120.52136	50.25
124.87327	48.55
129.222	47.95
133.56755	49.95
137.90993	52.55
142.24913	54.95
146.58517	60.75
150.91804	68.65
155.24774	75.75
159.57429	90.05
163.89768	114.95
168.21792	146.95
172.53501	190.35
176.84895	256.15
181.15975	348.15
185.46741	484.55
189.77193	662.25
194.07331	884.35
198.37157	1149.85
202.6667	1420.85
206.9587	1697.55
211.24758	1955.95
215.53334	2222.35
219.81599	2477.55
224.09553	2777.05
228.37195	3082.75
232.64527	3438.65
236.91549	3812.35
241.18261	4162.65
245.44663	4505.85
249.70755	4827.65
253.96539	5121.45
258.22014	5358.65
262.4718	5537.35
266.72039	5624.15
270.96589	5688.25
275.20832	5672.95
279.44768	5576.55
283.68397	5474.25
287.91719	5366.05
292.14735	5288.15
296.37445	5250.25
300.59849	5255.85
304.81948	5314.55
309.03742	5344.85
313.25231	5334.05
317.46415	5248.45
321.67296	5093.95
325.87872	4983.55
330.08145	4927.25
334.28114	4933.25
338.47781	4955.85
342.67145	5012.45
346.86207	5091.05
351.04966	5203.75
355.23424	5356.55
359.4158	5493.85
363.59435	5569.15
367.76989	5621.15
371.94243	5655.55
376.11196	5660.35
380.27849	5676.95
384.44203	5687.25
388.60257	5664.75
392.76012	5669.65
396.91468	5677.85
401.06626	5725.25
405.21485	5791.85
409.36047	5749.35
413.50311	5633.55
417.64277	5531.25
421.77947	5450.85
425.9132	5427.65
430.04396	5419.95
434.17176	5438.15
438.2966	5504.95
442.41849	5569.75
446.53742	5637.25
450.6534	5718.85
454.76644	5771.65
458.87653	5789.75
462.98368	5776.15
467.08789	5744.45
471.18916	5716.45
475.2875	5669.55
479.38291	5630.65
483.4754	5613.05
487.56496	5569.85
491.6516	5570.95
495.73531	5554.65
499.81612	5575.45
503.89401	5603.75
507.96899	5614.55
512.04106	5683.15
516.11023	5736.35
520.1765	5775.95
524.23987	5783.75
528.30034	5739.75
532.35792	5697.55
536.41261	5661.55
540.46441	5613.05
544.51333	5597.05
548.55936	5579.65
552.60252	5600.25
556.64279	5643.55
560.6802	5670.15
564.71473	5674.85
568.7464	5698.45
572.7752	5732.85
576.80114	5666.55
580.82422	5561.55
584.84444	5537.65
588.86181	5548.85
592.87633	5599.35
596.888	5654.55
600.89682	5723.35
604.9028	5915.05
608.90594	6506.65
612.90624	7431.55
616.90371	7511.15
620.89834	6388.45
624.89015	5724.55
628.87913	5591.25
632.86528	5593.55
636.84862	5634.55
640.82913	5639.95
644.80683	5558.25
648.78172	5497.45
652.75379	5486.25
656.72306	5547.85
660.68952	5657.35
664.65319	5657.45
668.61405	5554.55
672.57211	5507.25
676.52738	5522.25
680.47986	5523.55
684.42955	5511.85
688.37646	5487.25
692.32058	5439.65
696.26192	5442.25
700.20048	5445.15
704.13626	5447.45
708.06928	5427.85
711.99952	5441.75
715.927	5451.85
719.85171	5476.55
723.77365	5477.05
727.69284	5476.95
731.60928	5461.35
735.52295	5438.75
739.43388	5437.95
743.34206	5475.15
747.24749	5458.45
751.15017	5459.85
755.05012	5471.55
758.94733	5508.85
762.8418	5656.85
766.73354	5972.45
770.62254	6400.15
774.50882	6695.95
778.39237	6605.95
782.27321	6166.25
786.15132	5780.75
790.02671	5497.15
793.89938	5388.55
797.76935	5342.35
801.6366	5324.65
805.50115	5314.45
809.36299	5299.15
813.22213	5244.25
817.07857	5227.55
820.93231	5199.75
824.78336	5185.65
828.63172	5174.95
832.47738	5184.65
836.32036	5202.25
840.16066	5181.35
843.99827	5186.35
847.8332	5164.05
851.66546	5155.75
855.49504	5122.15
859.32195	5125.45
863.1462	5091.85
866.96777	5087.85
870.78668	5069.05
874.60293	5059.15
878.41652	5041.85
882.22745	5059.15
886.03573	5055.15
889.84136	5048.75
893.64433	5057.25
897.44466	5049.75
901.24235	5028.55
905.0374	5040.25
908.8298	5052.35
912.61957	5064.75
916.40671	5094.35
920.19121	5132.55
923.97308	5164.15
927.75233	5203.95
931.52895	5230.75
935.30295	5199.95
939.07433	5150.75
942.84309	5078.25
946.60924	5029.45
950.37278	5009.75
954.13371	4955.95
957.89203	4922.45
961.64774	4865.95
965.40086	4822.85
969.15137	4805.65
972.89929	4781.55
976.64461	4748.75
980.38733	4745.45
984.12747	4735.35
987.86502	4727.75
991.59999	4758.65
995.33237	4764.25
999.06217	4816.25
1002.78939	4848.15
1006.51404	4879.85
1010.23611	4893.35
1013.95561	4935.55
1017.67255	4934.95
1021.38692	4899.45
1025.09872	4874.15
1028.80796	4836.95
1032.51465	4811.35
1036.21877	4800.55
1039.92035	4779.75
1043.61937	4777.05
1047.31584	4796.45
1051.00976	4829.55
1054.70114	4827.75
1058.38998	4810.45
1062.07627	4806.25
1065.76003	4787.55
1069.44126	4779.85
1073.11995	4737.65
1076.79611	4751.25
1080.46974	4756.35
1084.14085	4784.05
1087.80943	4834.55
1091.47549	4801.05
1095.13903	4781.05
1098.80005	4664.65
1102.45857	4591.75
1106.11456	4550.35
1109.76805	4526.45
1113.41903	4571.35
1117.06751	4625.95
1120.71348	4706.35
1124.35696	4769.05
1127.99793	4854.25
1131.63641	4888.25
1135.2724	4799.65
1138.90589	4629.85
1142.5369	4529.05
1146.16542	4446.45
1149.79145	4414.55
1153.415	4355.45
1157.03607	4354.25
1160.65467	4359.75
1164.27079	4420.65
1167.88443	4534.25
1171.49561	4689.55
1175.10432	4980.55
1178.71056	5394.85
1182.31434	5765.15
1185.91565	5923.55
1189.51451	5826.45
1193.11091	5589.35
1196.70485	5330.75
1200.29634	5083.35
1203.88538	4905.55
1207.47197	4705.75
1211.05612	4516.45
1214.63782	4416.15
1218.21708	4397.65
1221.79391	4394.05
1225.36829	4427.15
1228.94024	4468.35
1232.50976	4446.25
1236.07685	4428.05
1239.6415	4409.45
1243.20374	4402.85
1246.76355	4380.95
1250.32093	4370.55
1253.8759	4397.15
1257.42845	4410.75
1260.97859	4447.15
1264.52631	4508.75
1268.07163	4584.85
1271.61453	4664.55
1275.15503	4698.05
1278.69312	4737.75
1282.22882	4754.45
1285.76211	4796.45
1289.29301	4874.75
1292.82151	4986.85
1296.34761	5077.95
1299.87133	5194.55
1303.39266	5396.75
1306.9116	5689.35
1310.42815	6071.25
1313.94233	6296.85
1317.45412	6217.15
1320.96354	5870.35
1324.47058	5453.25
1327.97525	5126.45
1331.47754	4970.85
1334.97747	4943.75
1338.47502	4982.05
1341.97022	5035.65
1345.46305	5137.25
1348.95352	5375.25
1352.44163	5727.75
1355.92738	6228.55
1359.41078	6883.35
1362.89183	7623.75
1366.37053	7776.95
1369.84688	7028.55
1373.32088	6063.75
1376.79254	5410.05
1380.26186	5064.75
1383.72883	4895.45
1387.19347	4801.85
1390.65578	4658.55
1394.11575	4596.25
1397.57339	4500.25
1401.0287	4452.15
1404.48168	4418.55
1407.93234	4384.35
1411.38068	4350.85
1414.82669	4363.45
1418.27039	4326.75
1421.71177	4320.25
1425.15083	4284.85
1428.58758	4266.25
1432.02203	4266.55
1435.45416	4272.65
1438.88399	4311.75
1442.31151	4294.35
1445.73673	4259.75
1449.15965	4246.15
1452.58027	4218.95
1455.9986	4190.75
1459.41463	4136.55
1462.82837	4121.75
1466.23982	4144.55
1469.64898	4193.55
1473.05586	4230.45
1476.46045	4242.95
1479.86276	4277.45
1483.26279	4294.65
1486.66054	4349.95
1490.05602	4389.75
1493.44922	4494.05
1496.84016	4639.85
1500.22882	4934.55
1503.61521	5389.25
1506.99934	5921.05
1510.38121	6449.15
1513.76081	6718.95
1517.13816	6486.25
1520.51324	5875.25
1523.88607	5192.85
1527.25665	4737.75
1530.62498	4501.65
1533.99105	4377.75
1537.35488	4298.95
1540.71647	4225.25
1544.07581	4194.25
1547.4329	4195.55
1550.78776	4190.05
1554.14038	4209.15
1557.49077	4246.25
1560.83892	4264.45
1564.18484	4322.15
1567.52853	4414.95
1570.86999	4527.65
1574.20922	4614.05
1577.54624	4654.45
1580.88103	4548.65
1584.2136	4313.55
1587.54395	4120.25
1590.87208	4020.35
1594.19801	4042.25
1597.52172	4150.75
1600.84321	4268.15
1604.16251	4217.95
1607.47959	4082.25
1610.79447	3953.85
1614.10715	3795.85
1617.41763	3695.85
1620.7259	3606.85
1624.03199	3573.65
1627.33587	3564.75
1630.63757	3573.65
1633.93707	3616.15
1637.23439	3688.55
1640.52951	3838.55
1643.82246	4082.45
1647.11321	4397.55
1650.40179	4701.95
1653.68819	4679.75
1656.97241	4292.45
1660.25446	3829.15
1663.53433	3483.05
1666.81203	3289.35
1670.08756	3185.05
1673.36092	3101.75
1676.63211	3061.35
1679.90115	3002.65
1683.16801	2967.05
1686.43272	2933.65
1689.69527	2901.05
1692.95567	2851.35
1696.2139	2791.35
1699.46999	2723.35
1702.72392	2713.25
1705.97571	2729.15
1709.22535	2761.65
1712.47284	2804.25
1715.71819	2793.55
1718.96139	2795.65
1722.20246	2787.45
1725.44139	2779.05
1728.67818	2766.35
1731.91284	2741.35
1735.14537	2730.15
1738.37576	2710.95
1741.60403	2680.25
1744.83017	2675.65
1748.05418	2653.45
1751.27607	2647.25
1754.49584	2613.85
1757.71349	2572.95
1760.92903	2543.95
1764.14244	2528.65
1767.35375	2530.75
1770.56294	2502.55
1773.77002	2506.65
1776.97499	2522.75
1780.17785	2528.85
1783.37861	2546.05
1786.57727	2541.85
1789.77382	2552.25
1792.96828	2529.55
1796.16064	2531.35
1799.3509	2516.25
1802.53907	2519.45
1805.72514	2498.95
1808.90913	2483.55
1812.09102	2490.85
1815.27083	2472.45
1818.44856	2463.65
1821.6242	2458.15
1824.79776	2457.05
1827.96924	2444.85
1831.13864	2440.45
1834.30597	2432.85
1837.47122	2424.75
1840.6344	2428.95
1843.7955	2412.75
1846.95454	2407.95
1850.11151	2405.95
1853.26642	2397.85
1856.41926	2388.35
1859.57004	2398.25
1862.71876	2387.65
1865.86542	2384.35
1869.01003	2384.05
1872.15258	2370.05
1875.29308	2351.35
1878.43152	2354.25
1881.56792	2354.05
1884.70227	2342.55
1887.83457	2338.35
1890.96482	2330.95
1894.09304	2332.35
1897.21921	2332.55
1900.34335	2320.05
1903.46544	2309.95
1906.58551	2303.95
1909.70353	2309.95
1912.81953	2305.15
1915.93349	2290.05
1919.04543	2290.35
1922.15534	2279.35
1925.26322	2278.85
1928.36908	2261.75
1931.47292	2257.25
1934.57473	2246.05
1937.67453	2241.75
1940.77232	2221.35
1943.86808	2218.65
1946.96184	2211.25
1950.05358	2208.85
1953.14331	2196.15
1956.23103	2189.25
1959.31675	2181.75
1962.40046	2170.05
1965.48217	2163.85
1968.56188	2151.65
1971.63959	2142.05
1974.7153	2139.65
1977.78901	2122.85
1980.86073	2124.35
1983.93046	2114.65
1986.99819	2097.75
1990.06394	2097.05
1993.1277	2078.55
1996.18947	2067.65
1999.24925	2064.35
2002.30706	2051.75
2005.36288	2055.05
2008.41672	2033.65
2011.46859	2027.35
2014.51848	2028.15
2017.56639	2012.25
2020.61233	2000.05
2023.6563	2002.05
2026.6983	1988.95
2029.73833	1975.95
2032.7764	1973.55
2035.8125	1968.95
2038.84664	1952.55
2041.87881	1951.65
2044.90903	1945.95
2047.93729	1933.25
2050.96359	1936.35
2053.98794	1923.65
2057.01034	1925.65
2060.03078	1915.65
2063.04927	1918.85
2066.06582	1916.35
2069.08042	1916.15
2072.09307	1908.85
2075.10378	1901.45
2078.11255	1910.95
2081.11938	1907.05
2084.12426	1896.05
2087.12722	1890.55
2090.12824	1888.45
2093.12732	1892.35
2096.12447	1897.65
2099.11969	1891.65
2102.11299	1880.25
2105.10435	1889.15
2108.09379	1882.25
2111.08131	1876.85
2114.0669	1872.15
2117.05057	1874.75
2120.03233	1888.45
2123.01216	1872.75
2125.99008	1873.15
2128.96609	1872.65
2131.94018	1867.65
2134.91236	1868.65
2137.88263	1862.25
2140.851	1856.45
2143.81746	1862.15
2146.78201	1855.05
2149.74466	1858.65
2152.7054	1850.55
2155.66425	1844.35
2158.6212	1842.15
2161.57625	1842.55
2164.52941	1846.55
2167.48067	1834.15
2170.43004	1832.35
2173.37752	1821.45
2176.32311	1822.55
2179.26681	1814.45
2182.20863	1821.55
2185.14856	1813.65
2188.08661	1822.05
2191.02278	1814.15
2193.95707	1815.45
2196.88948	1810.55
2199.82001	1807.65
2202.74867	1796.45
2205.67545	1804.45
2208.60037	1792.85
2211.52341	1792.25
2214.44458	1784.55
2217.36388	1775.15
2220.28132	1768.75
2223.1969	1754.05
2226.11061	1755.25
2229.02246	1755.65
2231.93245	1736.95
2234.84058	1730.95
2237.74686	1737.25
2240.65128	1729.05
2243.55385	1730.25
2246.45456	1713.25
2249.35343	1714.55
2252.25044	1707.85
2255.14561	1705.65
2258.03893	1693.95
2260.93041	1674.35
2263.82004	1675.85
2266.70783	1673.35
2269.59378	1675.15
2272.4779	1671.95
2275.36017	1670.45
2278.24061	1659.15
2281.11922	1653.55
2283.996	1653.95
2286.87094	1648.45
2289.74405	1646.85
2292.61534	1641.65
2295.4848	1629.15
2298.35243	1622.65
2301.21824	1630.65
2304.08223	1619.55
2306.94439	1609.55
2309.80474	1608.55
2312.66327	1604.05
2315.51999	1615.35
2318.37489	1609.35
2321.22797	1598.85
2324.07925	1589.35
2326.92871	1594.65
2329.77637	1589.05
2332.62222	1578.25
2335.46626	1570.65
2338.3085	1564.45
2341.14893	1568.15
2343.98756	1559.05
2346.8244	1549.95
2349.65943	1556.75
2352.49267	1552.95
2355.32411	1557.55
2358.15376	1545.65
2360.98161	1547.45
2363.80768	1553.15
2366.63195	1549.45
2369.45444	1555.75
2372.27514	1546.25
2375.09405	1550.55
2377.91118	1542.15
2380.72652	1528.15
2383.54009	1524.25
2386.35187	1515.05
2389.16188	1511.05
2391.97011	1495.35
2394.77657	1502.75
2397.58125	1490.85
2400.38416	1496.35
2403.18529	1479.95
2405.98466	1474.25
2408.78226	1476.85
2411.57809	1472.05
2414.37216	1464.45
2417.16446	1459.35
2419.955	1458.75
2422.74378	1459.35
2425.5308	1454.45
2428.31606	1450.45
2431.09956	1455.35
2433.88131	1438.45
2436.6613	1442.35
2439.43954	1443.85
2442.21603	1440.05
2444.99077	1439.95
2447.76377	1438.75
2450.53501	1432.15
2453.30451	1429.95
2456.07226	1425.25
2458.83827	1414.15
2461.60254	1422.95
2464.36507	1411.05
2467.12586	1415.55
2469.88492	1414.05
2472.64224	1416.55
2475.39782	1392.55
2478.15167	1390.15
2480.90379	1391.35
2483.65417	1404.05
2486.40283	1391.85
2489.14976	1393.65
2491.89497	1387.05
2494.63845	1388.25
2497.3802	1376.15
2500.12024	1383.45
2502.85855	1374.75
2505.59514	1382.85
2508.33002	1373.55
2511.06318	1367.55
2513.79462	1366.35
2516.52435	1345.15
2519.25237	1346.95
2521.97867	1345.95
2524.70327	1348.95
2527.42616	1333.35
2530.14734	1334.65
2532.86681	1331.25
2535.58458	1324.25
2538.30065	1326.85
2541.01501	1325.75
2543.72768	1324.95
2546.43864	1318.05
2549.14791	1315.05
2551.85548	1311.25
2554.56136	1310.95
2557.26554	1305.55
2559.96803	1293.65
2562.66883	1305.75
2565.36794	1295.85
2568.06536	1293.35
2570.7611	1295.25
2573.45514	1286.45
2576.14751	1281.75
2578.83819	1278.75
2581.52719	1276.95
2584.21451	1270.05
2586.90015	1272.75
2589.58411	1258.65
2592.2664	1264.65
2594.94701	1271.75
2597.62594	1252.75
2600.30321	1254.35
2602.9788	1244.85
2605.65273	1244.15
2608.32498	1244.15
2610.99557	1242.95
2613.66449	1240.65
2616.33175	1243.25
2618.99734	1241.95
2621.66128	1237.35
2624.32355	1231.65
2626.98416	1241.85
2629.64311	1223.95
2632.30041	1229.55
2634.95605	1220.05
2637.61004	1225.95
2640.26238	1211.35
2642.91306	1213.95
2645.56209	1216.35
2648.20948	1204.25
2650.85521	1206.15
2653.4993	1221.35
2656.14175	1215.85
2658.78255	1218.85
2661.42171	1210.05
2664.05923	1214.65
2666.6951	1214.55
2669.32934	1225.55
2671.96194	1218.95
2674.59291	1219.25
2677.22224	1213.55
2679.84993	1220.95
2682.476	1199.45
2685.10043	1210.45
2687.72324	1213.95
2690.34441	1214.95
2692.96396	1210.05
2695.58188	1207.75
2698.19818	1206.95
2700.81285	1213.75
2703.4259	1198.85
2706.03733	1156.25
2708.64714	1180.05
2711.25533	1201.35
2713.86191	1208.45
2716.46687	1211.05
2719.07021	1224.15
2721.67194	1230.65
2724.27206	1242.25
2726.87057	1237.75
2729.46747	1253.35
2732.06276	1247.35
2734.65644	1248.45
2737.24852	1256.75
2739.83899	1260.45
2742.42786	1260.05
2745.01513	1261.85
2747.60079	1265.35
2750.18486	1273.05
2752.76733	1267.95
2755.3482	1267.85
2757.92747	1272.35
2760.50515	1268.95
2763.08123	1265.95
2765.65573	1274.65
2768.22863	1269.75
2770.79994	1274.25
2773.36967	1269.05
2775.9378	1268.75
2778.50435	1271.75
2781.06932	1266.85
2783.6327	1273.85
2786.1945	1272.15
2788.75471	1271.25
2791.31335	1276.15
2793.87041	1268.85
2796.42589	1276.05
2798.97979	1278.05
2801.53212	1276.85
2804.08288	1282.35
2806.63206	1278.35
2809.17967	1279.45
2811.72571	1278.65
2814.27018	1280.55
2816.81308	1281.65
2819.35442	1269.35
2821.89419	1281.35
2824.43239	1277.75
2826.96904	1281.75
2829.50412	1280.45
2832.03763	1273.85
2834.56959	1279.25
2837.1	1287.75
2839.62884	1291.75
2842.15613	1303.05
2844.68186	1319.45
2847.20604	1332.95
2849.72867	1356.35
2852.24974	1364.75
2854.76927	1366.65
2857.28724	1361.55
2859.80367	1374.75
2862.31855	1392.75
2864.83189	1398.65
2867.34368	1399.15
2869.85393	1411.25
2872.36264	1412.25
2874.8698	1423.65
2877.37543	1425.95
2879.87952	1424.75
2882.38207	1424.45
2884.88308	1427.85
2887.38256	1432.85
2889.88051	1433.35
2892.37692	1425.55
2894.8718	1432.35
2897.36515	1425.95
2899.85698	1427.25
2902.34727	1426.75
2904.83604	1431.25
2907.32328	1424.25
2909.809	1434.65
2912.29319	1433.85
2914.77587	1439.35
2917.25702	1440.15
2919.73665	1439.05
2922.21476	1440.85
2924.69136	1452.15
2927.16644	1445.65
2929.64	1439.75
2932.11205	1434.25
2934.58258	1424.25
2937.05161	1416.55
2939.51912	1410.95
2941.98513	1382.75
2944.44962	1357.95
2946.91261	1330.25
2949.37409	1314.95
2951.83407	1291.55
2954.29254	1277.25
2956.74951	1261.95
2959.20498	1245.25
2961.65895	1220.75
2964.11142	1205.65
2966.56239	1182.35
2969.01186	1171.55
2971.45984	1157.05
2973.90632	1152.35
2976.35131	1135.35
2978.7948	1132.45
2981.23681	1117.45
2983.67732	1113.25
2986.11635	1101.95
2988.55388	1088.95
2990.98993	1080.65
2993.4245	1075.55
2995.85758	1067.45
2998.28917	1058.25
3000.71928	1058.75
3003.14791	1055.15
3005.57506	1056.25
3008.00073	1051.45
3010.42493	1050.15
3012.84764	1044.15
3015.26888	1044.35
3017.68865	1046.45
3020.10694	1047.75
3022.52376	1033.15
3024.9391	1028.55
3027.35298	1031.35
3029.76539	1026.95
3032.17632	1029.55
3034.5858	1036.05
3036.9938	1033.65
3039.40034	1027.45
3041.80542	1030.95
3044.20903	1022.15
3046.61118	1019.25
3049.01187	1023.55
3051.4111	1031.15
3053.80888	1020.45
3056.20519	1024.55
3058.60005	1029.75
3060.99345	1017.85
3063.3854	1028.25
3065.7759	1031.15
3068.16494	1027.45
3070.55254	1027.55
3072.93868	1019.95
3075.32338	1019.25
3077.70662	1024.55
3080.08842	1028.95
3082.46878	1039.55
3084.84769	1035.05
3087.22515	1037.75
3089.60118	1036.25
3091.97576	1041.15
3094.3489	1048.25
3096.72061	1043.95
3099.09087	1063.25
3101.4597	1066.55
3103.82709	1053.55
3106.19305	1058.25
3108.55757	1058.25
3110.92066	1061.55
3113.28232	1064.15
3115.64255	1071.45
3118.00134	1077.65
3120.35871	1067.55
3122.71466	1082.25
3125.06917	1078.15
3127.42226	1074.65
3129.77393	1081.05
3132.12417	1093.45
3134.47299	1092.05
3136.82039	1098.15
3139.16636	1105.75
3141.51092	1108.25
3143.85406	1112.35
3146.19579	1121.05
3148.53609	1124.85
3150.87499	1136.15
3153.21246	1147.85
3155.54853	1146.95
3157.88318	1157.25
3160.21642	1163.05
3162.54826	1162.85
3164.87868	1157.75
3167.2077	1164.15
3169.5353	1174.45
3171.86151	1176.85
3174.18631	1183.75
3176.5097	1182.15
3178.83169	1185.35
3181.15228	1190.45
3183.47147	1196.95
3185.78926	1200.95
3188.10565	1208.75
3190.42065	1205.95
3192.73424	1204.85
3195.04645	1213.75
3197.35725	1222.55
3199.66667	1218.45
3201.97469	1216.45
3204.28132	1227.05
3206.58656	1237.35
3208.8904	1237.85
3211.19287	1242.75
3213.49394	1246.05
3215.79363	1255.85
3218.09193	1252.05
3220.38884	1253.85
3222.68438	1237.95
3224.97853	1242.35
3227.2713	1261.05
3229.56269	1253.05
3231.8527	1267.15
3234.14133	1262.65
3236.42858	1265.65
3238.71446	1267.45
3240.99896	1265.85
3243.28209	1273.85
3245.56384	1273.55
3247.84423	1268.75
3250.12324	1266.95
3252.40088	1283.25
3254.67715	1269.65
3256.95205	1275.65
3259.22558	1278.35
3261.49775	1284.65
3263.76855	1282.45
3266.03799	1286.85
3268.30606	1281.75
3270.57277	1286.45
3272.83812	1283.15
3275.10211	1287.15
3277.36474	1282.45
3279.62601	1274.05
3281.88593	1276.85
3284.14448	1273.15
3286.40168	1271.35
3288.65753	1288.35
3290.91202	1272.85
3293.16516	1259.75
3295.41695	1260.65
3297.66738	1255.15
3299.91647	1243.85
3302.16421	1237.75
3304.4106	1232.95
3306.65564	1216.55
3308.89933	1208.35
3311.14169	1211.25
3313.38269	1196.15
3315.62236	1185.25
3317.86068	1178.85
3320.09766	1178.15
3322.3333	1174.35
3324.5676	1167.35
3326.80056	1135.95
3329.03219	1130.65
3331.26248	0.15
3333.49143	-0.35
3335.71905	-0.85
