Data from AgNPs_FTO_APTES_UA_1uM_CRN_0uM_R6G_10uM_NaF_0.1M_Addition_RamanShift__24__11-33-39-434.txt Node

Date: Thu Jan 27 11:33:39 GMT 2022
User: TCL
Spectrometer: QEP01345
Trigger mode: 4
Integration Time (sec): 7.000000E0
Scans to average: 10
Electric dark correction enabled: true
Nonlinearity correction enabled: false
Boxcar width: 0
XAxis mode: Raman Shifts
Number of Pixels in Spectrum: 1044
>>>>>Begin Spectral Data<<<<<
46.04893	0.2
50.45542	0.4
54.85868	-1.5
59.25871	-3.1
63.6555	51.3
68.04907	54.6
72.43941	53.7
76.82654	61.8
81.21044	60.9
85.59113	62
89.96862	63.3
94.34289	66.9
98.71396	69.8
103.08183	68.8
107.4465	73.7
111.80798	74.7
116.16626	76.4
120.52136	79.8
124.87327	80.7
129.222	81.7
133.56755	87.4
137.90993	89.8
142.24913	100.9
146.58517	113.3
150.91804	124.9
155.24774	145.2
159.57429	173.9
163.89768	221.4
168.21792	289.6
172.53501	389.1
176.84895	530.6
181.15975	744
185.46741	1036.1
189.77193	1418.5
194.07331	1913.4
198.37157	2472.3
202.6667	3060.7
206.9587	3634.7
211.24758	4211.1
215.53334	4781.6
219.81599	5407.4
224.09553	6061.6
228.37195	6831.1
232.64527	7660.1
236.91549	8523.9
241.18261	9403.7
245.44663	10155.2
249.70755	10872.9
253.96539	11477
258.22014	11989.6
262.4718	12389.2
266.72039	12654.2
270.96589	12762.6
275.20832	12749.1
279.44768	12590.7
283.68397	12395.5
287.91719	12231.1
292.14735	12094.8
296.37445	12050.6
300.59849	12110.2
304.81948	12215.4
309.03742	12333.3
313.25231	12372.4
317.46415	12287.4
321.67296	12149.9
325.87872	12038.6
330.08145	12002.2
334.28114	12015.1
338.47781	12084.2
342.67145	12258.9
346.86207	12448.3
351.04966	12667.1
355.23424	12910.3
359.4158	13131.4
363.59435	13268.2
367.76989	13363.2
371.94243	13459.6
376.11196	13517.2
380.27849	13618.3
384.44203	13649.8
388.60257	13745.6
392.76012	13841
396.91468	13939.6
401.06626	14114.6
405.21485	14276.9
409.36047	14287.6
413.50311	14173.7
417.64277	14094.1
421.77947	14086.8
425.9132	14147.5
430.04396	14225.2
434.17176	14315.7
438.2966	14477.5
442.41849	14779.6
446.53742	15306.7
450.6534	15859.1
454.76644	16245.8
458.87653	16258.5
462.98368	16021.4
467.08789	15653.2
471.18916	15286.9
475.2875	14871.5
479.38291	14525.4
483.4754	14299.9
487.56496	14248.6
491.6516	14251.4
495.73531	14262
499.81612	14405.1
503.89401	14586.2
507.96899	14588.4
512.04106	14467.6
516.11023	14427.7
520.1765	14419.7
524.23987	14466
528.30034	14483.1
532.35792	14438.4
536.41261	14257.7
540.46441	14047
544.51333	13913.6
548.55936	13993.1
552.60252	14200.2
556.64279	14519.6
560.6802	14703.8
564.71473	14682.7
568.7464	14609.8
572.7752	14714.6
576.80114	14889.6
580.82422	15183.6
584.84444	15743
588.86181	16658.5
592.87633	17729.6
596.888	18261.7
600.89682	17748.8
604.9028	17456
608.90594	18526.3
612.90624	20007.5
616.90371	19274.9
620.89834	16700.6
624.89015	15463
628.87913	15237.1
632.86528	15115.9
636.84862	14899
640.82913	14592.7
644.80683	14222.2
648.78172	14055.7
652.75379	14052.6
656.72306	14283.5
660.68952	14610.6
664.65319	14597
668.61405	14357.6
672.57211	14415.1
676.52738	14498.9
680.47986	14472.9
684.42955	14297.1
688.37646	14266
692.32058	14409
696.26192	14669
700.20048	14940.7
704.13626	14999.7
708.06928	14795.7
711.99952	14633.9
715.927	14665
719.85171	14791.7
723.77365	14754.9
727.69284	14555.5
731.60928	14328
735.52295	14268.3
739.43388	14320
743.34206	14440.7
747.24749	14471.1
751.15017	14509.8
755.05012	14707.5
758.94733	15000.1
762.8418	15493
766.73354	16378.6
770.62254	17270.3
774.50882	17631.3
778.39237	17231.4
782.27321	16441.8
786.15132	15648.7
790.02671	15141.9
793.89938	14897.4
797.76935	14810.9
801.6366	14760.3
805.50115	14721.1
809.36299	14666.6
813.22213	14545.3
817.07857	14462.2
820.93231	14410.8
824.78336	14422.9
828.63172	14414.4
832.47738	14493.9
836.32036	14590.4
840.16066	14712.6
843.99827	14844.2
847.8332	14797.5
851.66546	14634.1
855.49504	14590.3
859.32195	14589.5
863.1462	14566.5
866.96777	14445.1
870.78668	14430.5
874.60293	14411.4
878.41652	14438.5
882.22745	14535.9
886.03573	14612.1
889.84136	14674.6
893.64433	14544.5
897.44466	14438.6
901.24235	14376.9
905.0374	14319.6
908.8298	14332.1
912.61957	14340.9
916.40671	14463.6
920.19121	14674.8
923.97308	14924.8
927.75233	15141.3
931.52895	15204.5
935.30295	15134.4
939.07433	14838.3
942.84309	14688.6
946.60924	14628.5
950.37278	14612.8
954.13371	14536.5
957.89203	14414
961.64774	14316.5
965.40086	14294.2
969.15137	14289.4
972.89929	14274.8
976.64461	14333.5
980.38733	14463.9
984.12747	14583.3
987.86502	14728
991.59999	14969.1
995.33237	15391.3
999.06217	15925.8
1002.78939	16654.7
1006.51404	17067.1
1010.23611	17180.8
1013.95561	17259.5
1017.67255	17238.6
1021.38692	17076.7
1025.09872	16992.7
1028.80796	17399.6
1032.51465	18358.6
1036.21877	19332.5
1039.92035	19515.9
1043.61937	19090.9
1047.31584	18270.3
1051.00976	17355.2
1054.70114	16717.1
1058.38998	16458.3
1062.07627	16296.9
1065.76003	16182.8
1069.44126	16158.4
1073.11995	16344.9
1076.79611	16623.3
1080.46974	16829.9
1084.14085	17037.3
1087.80943	17137.8
1091.47549	17116.9
1095.13903	16951.4
1098.80005	16612.8
1102.45857	16342.4
1106.11456	16176.7
1109.76805	16187.9
1113.41903	16240.3
1117.06751	16240.6
1120.71348	16320.2
1124.35696	16413.1
1127.99793	16491.3
1131.63641	16601.9
1135.2724	16534.5
1138.90589	16380
1142.5369	16348.9
1146.16542	16323.4
1149.79145	16290.4
1153.415	16340.4
1157.03607	16366.3
1160.65467	16585.1
1164.27079	17093
1167.88443	17773.3
1171.49561	18707.9
1175.10432	19936
1178.71056	21558.8
1182.31434	23270.8
1185.91565	24232.3
1189.51451	24158.5
1193.11091	23321.9
1196.70485	22281
1200.29634	21413.5
1203.88538	20752.4
1207.47197	20279.4
1211.05612	19797.6
1214.63782	19383.2
1218.21708	19212.8
1221.79391	19311.5
1225.36829	19387
1228.94024	19246.5
1232.50976	18746.2
1236.07685	18250.4
1239.6415	17921.1
1243.20374	17907.7
1246.76355	18077.1
1250.32093	18438.9
1253.8759	18885.5
1257.42845	19411.4
1260.97859	19993.2
1264.52631	20589.7
1268.07163	21264.4
1271.61453	22029.5
1275.15503	22839.1
1278.69312	23558.7
1282.22882	24025.8
1285.76211	24448
1289.29301	24859
1292.82151	25480.3
1296.34761	26520.4
1299.87133	28044.6
1303.39266	29992.1
1306.9116	32085
1310.42815	33852.3
1313.94233	34464.7
1317.45412	33789.4
1320.96354	32054.4
1324.47058	30184
1327.97525	28654.4
1331.47754	27700.7
1334.97747	27156.7
1338.47502	26835.1
1341.97022	26395.8
1345.46305	26076.8
1348.95352	26133.5
1352.44163	26956.2
1355.92738	28672.7
1359.41078	31054.3
1362.89183	32840.2
1366.37053	32581.2
1369.84688	29989.8
1373.32088	26584.6
1376.79254	24126
1380.26186	23008.6
1383.72883	22774.6
1387.19347	22579.4
1390.65578	22072.7
1394.11575	21719.7
1397.57339	21643.1
1401.0287	21760.2
1404.48168	21804.3
1407.93234	21809.8
1411.38068	21736.3
1414.82669	21590.4
1418.27039	21307
1421.71177	20854.8
1425.15083	20466.7
1428.58758	20363.5
1432.02203	20639
1435.45416	21165.3
1438.88399	21643.1
1442.31151	21793.9
1445.73673	21800.6
1449.15965	21684.7
1452.58027	21453.9
1455.9986	21151.1
1459.41463	21018.8
1462.82837	21267.7
1466.23982	21750.8
1469.64898	22299.5
1473.05586	22777.9
1476.46045	23148.3
1479.86276	23283.8
1483.26279	23306.9
1486.66054	23277.4
1490.05602	23420.9
1493.44922	23565.8
1496.84016	23642.9
1500.22882	23647.4
1503.61521	23875.2
1506.99934	24336.2
1510.38121	24826
1513.76081	25010.3
1517.13816	24624
1520.51324	23774.1
1523.88607	22997.8
1527.25665	22580
1530.62498	22491.6
1533.99105	22453.9
1537.35488	22310.6
1540.71647	22054.6
1544.07581	21756.5
1547.4329	21452.4
1550.78776	21213.8
1554.14038	20960
1557.49077	20789.4
1560.83892	20594.2
1564.18484	20451.5
1567.52853	20425.3
1570.86999	20556.5
1574.20922	20737.7
1577.54624	20856.4
1580.88103	20896
1584.2136	20989.9
1587.54395	21665.6
1590.87208	22992.9
1594.19801	24762.1
1597.52172	26528
1600.84321	27287.7
1604.16251	26396.8
1607.47959	24317.8
1610.79447	22008.5
1614.10715	20027.9
1617.41763	18647.9
1620.7259	17869.9
1624.03199	17569
1627.33587	17700
1630.63757	18218.4
1633.93707	19034.3
1637.23439	20323.7
1640.52951	22288.1
1643.82246	24686.5
1647.11321	26636.3
1650.40179	26841.6
1653.68819	24848.2
1656.97241	21769.7
1660.25446	18998.5
1663.53433	17183.2
1666.81203	16134.1
1670.08756	15549.1
1673.36092	15204.4
1676.63211	14946
1679.90115	14719.2
1683.16801	14602.4
1686.43272	14502.5
1689.69527	14436.9
1692.95567	14335.6
1696.2139	14296
1699.46999	14178.1
1702.72392	14123.8
1705.97571	14187.7
1709.22535	14214.2
1712.47284	14256
1715.71819	14280
1718.96139	14294.8
1722.20246	14249.4
1725.44139	14216.2
1728.67818	14143.8
1731.91284	14088.6
1735.14537	14033.2
1738.37576	13992.5
1741.60403	13941.7
1744.83017	13883.2
1748.05418	13862.5
1751.27607	13836.2
1754.49584	13798.7
1757.71349	13792.4
1760.92903	13766.4
1764.14244	13753.7
1767.35375	13774.3
1770.56294	13745
1773.77002	13768
1776.97499	13746.2
1780.17785	13759.8
1783.37861	13790.2
1786.57727	13801.4
1789.77382	13761.9
1792.96828	13780.4
1796.16064	13748.3
1799.3509	13708.9
1802.53907	13732.2
1805.72514	13727.4
1808.90913	13662.7
1812.09102	13656
1815.27083	13613.5
1818.44856	13590.7
1821.6242	13620.5
1824.79776	13598.9
1827.96924	13578.1
1831.13864	13543.1
1834.30597	13585.4
1837.47122	13546.1
1840.6344	13592.3
1843.7955	13565.1
1846.95454	13554.5
1850.11151	13565.1
1853.26642	13556.6
1856.41926	13538.9
1859.57004	13557.6
1862.71876	13546.8
1865.86542	13567.5
1869.01003	13565.2
1872.15258	13549.5
1875.29308	13577
1878.43152	13551.4
1881.56792	13517.8
1884.70227	13528.4
1887.83457	13523.6
1890.96482	13516.3
1894.09304	13476.8
1897.21921	13505.6
1900.34335	13505.6
1903.46544	13488.2
1906.58551	13482.3
1909.70353	13486.4
1912.81953	13448.5
1915.93349	13455.7
1919.04543	13451
1922.15534	13445.4
1925.26322	13427.5
1928.36908	13373.8
1931.47292	13358.5
1934.57473	13346.8
1937.67453	13337.9
1940.77232	13304.6
1943.86808	13267.1
1946.96184	13255
1950.05358	13226.8
1953.14331	13189
1956.23103	13156.6
1959.31675	13122.2
1962.40046	13091.5
1965.48217	13090.8
1968.56188	13051.6
1971.63959	13038.3
1974.7153	13022
1977.78901	12968.9
1980.86073	12934.8
1983.93046	12912.6
1986.99819	12857.4
1990.06394	12824.6
1993.1277	12798.2
1996.18947	12775.8
1999.24925	12756.1
2002.30706	12718.8
2005.36288	12668
2008.41672	12667.8
2011.46859	12612.4
2014.51848	12597.7
2017.56639	12572.3
2020.61233	12543
2023.6563	12532.1
2026.6983	12534.6
2029.73833	12529.1
2032.7764	12514.1
2035.8125	12513.8
2038.84664	12492
2041.87881	12493.9
2044.90903	12482.5
2047.93729	12434.3
2050.96359	12428.8
2053.98794	12405
2057.01034	12410.9
2060.03078	12406.7
2063.04927	12408
2066.06582	12401.3
2069.08042	12410.3
2072.09307	12371
2075.10378	12397.9
2078.11255	12381.3
2081.11938	12405.7
2084.12426	12385.7
2087.12722	12405.3
2090.12824	12401.6
2093.12732	12414.7
2096.12447	12418.9
2099.11969	12405.4
2102.11299	12440.3
2105.10435	12446.3
2108.09379	12462.3
2111.08131	12467
2114.0669	12467.8
2117.05057	12482.1
2120.03233	12468.7
2123.01216	12506.9
2125.99008	12518.5
2128.96609	12522.3
2131.94018	12529.2
2134.91236	12536
2137.88263	12555
2140.851	12555
2143.81746	12623.1
2146.78201	12604.2
2149.74466	12612.7
2152.7054	12636.1
2155.66425	12630.3
2158.6212	12624
2161.57625	12624.6
2164.52941	12630.8
2167.48067	12611.2
2170.43004	12619.3
2173.37752	12636.6
2176.32311	12623.9
2179.26681	12642.1
2182.20863	12644.9
2185.14856	12679.9
2188.08661	12673.6
2191.02278	12686.6
2193.95707	12713.4
2196.88948	12687.2
2199.82001	12709.2
2202.74867	12728.4
2205.67545	12715.5
2208.60037	12709.7
2211.52341	12730.3
2214.44458	12719.2
2217.36388	12707.8
2220.28132	12665.5
2223.1969	12651.4
2226.11061	12652.3
2229.02246	12637
2231.93245	12647.8
2234.84058	12586.8
2237.74686	12607.1
2240.65128	12583.1
2243.55385	12572.6
2246.45456	12543.8
2249.35343	12537.4
2252.25044	12519.7
2255.14561	12482.1
2258.03893	12508
2260.93041	12487.7
2263.82004	12439
2266.70783	12439.4
2269.59378	12438.1
2272.4779	12413.5
2275.36017	12394.3
2278.24061	12378.8
2281.11922	12371.8
2283.996	12361.9
2286.87094	12354.8
2289.74405	12345.6
2292.61534	12323.2
2295.4848	12341.9
2298.35243	12384.5
2301.21824	12393.1
2304.08223	12409.4
2306.94439	12424
2309.80474	12414.6
2312.66327	12444.1
2315.51999	12452.9
2318.37489	12475
2321.22797	12473
2324.07925	12453.3
2326.92871	12443.4
2329.77637	12457.8
2332.62222	12422.6
2335.46626	12405.9
2338.3085	12406.3
2341.14893	12438.2
2343.98756	12437.8
2346.8244	12424.5
2349.65943	12446.1
2352.49267	12423.2
2355.32411	12400.4
2358.15376	12377.5
2360.98161	12379.3
2363.80768	12369
2366.63195	12371.5
2369.45444	12364.8
2372.27514	12324.1
2375.09405	12314.3
2377.91118	12282.5
2380.72652	12246.4
2383.54009	12243
2386.35187	12233.2
2389.16188	12224.5
2391.97011	12201.3
2394.77657	12213.8
2397.58125	12167.5
2400.38416	12191.4
2403.18529	12173.4
2405.98466	12139.5
2408.78226	12100.2
2411.57809	12112.6
2414.37216	12083.7
2417.16446	12100.4
2419.955	12056.4
2422.74378	12069.2
2425.5308	12067.5
2428.31606	12042.1
2431.09956	12070.1
2433.88131	12030.2
2436.6613	12014.2
2439.43954	12022.8
2442.21603	12064.9
2444.99077	12038.9
2447.76377	12042.5
2450.53501	12037.1
2453.30451	12053.9
2456.07226	12037.9
2458.83827	12030.3
2461.60254	12026
2464.36507	12050.8
2467.12586	12053.3
2469.88492	12037.7
2472.64224	12074.2
2475.39782	12092.1
2478.15167	12097.1
2480.90379	12094
2483.65417	12098.9
2486.40283	12091.7
2489.14976	12128.3
2491.89497	12113.2
2494.63845	12141.9
2497.3802	12107.4
2500.12024	12127.3
2502.85855	12115.3
2505.59514	12085.4
2508.33002	12104
2511.06318	12099.2
2513.79462	12050.9
2516.52435	12071.1
2519.25237	12067.5
2521.97867	12055.7
2524.70327	12068.4
2527.42616	12062
2530.14734	12099.2
2532.86681	12062.3
2535.58458	12062.8
2538.30065	12044.7
2541.01501	12083.7
2543.72768	12057.4
2546.43864	12040.5
2549.14791	12025.9
2551.85548	12022.5
2554.56136	12027.7
2557.26554	12002.1
2559.96803	11997.5
2562.66883	12015.2
2565.36794	12015.6
2568.06536	12014.5
2570.7611	12019.3
2573.45514	12001.6
2576.14751	11988.4
2578.83819	11999
2581.52719	11987.3
2584.21451	12019.9
2586.90015	12026.2
2589.58411	11980.5
2592.2664	11982.8
2594.94701	11965
2597.62594	11985.4
2600.30321	11974.6
2602.9788	11975.1
2605.65273	11934.1
2608.32498	11937.8
2610.99557	11924.1
2613.66449	11973.4
2616.33175	11959.9
2618.99734	11976.2
2621.66128	11951.6
2624.32355	11926.9
2626.98416	11936
2629.64311	11933.8
2632.30041	11929.9
2634.95605	11934.1
2637.61004	11889.8
2640.26238	11871.2
2642.91306	11869
2645.56209	11863.3
2648.20948	11844
2650.85521	11835.4
2653.4993	11850.6
2656.14175	11882.6
2658.78255	11883.8
2661.42171	11872.5
2664.05923	11909.3
2666.6951	11918.4
2669.32934	11950.3
2671.96194	11925.6
2674.59291	11914.9
2677.22224	11895.7
2679.84993	11906.2
2682.476	11877.1
2685.10043	11887.3
2687.72324	11844
2690.34441	11887.8
2692.96396	11869.1
2695.58188	11892.9
2698.19818	11862.5
2700.81285	11887.1
2703.4259	11865.9
2706.03733	11867.4
2708.64714	11856.8
2711.25533	11893.7
2713.86191	11897.4
2716.46687	11914.2
2719.07021	11914.5
2721.67194	11938.9
2724.27206	11953.2
2726.87057	11985.1
2729.46747	11953.4
2732.06276	11960.8
2734.65644	11967.4
2737.24852	11975
2739.83899	11980.9
2742.42786	11977.8
2745.01513	11953.1
2747.60079	11968
2750.18486	11968
2752.76733	11945.5
2755.3482	11930.3
2757.92747	11956.8
2760.50515	11942.3
2763.08123	11942.7
2765.65573	11969.9
2768.22863	11947.7
2770.79994	11951
2773.36967	11968.5
2775.9378	11976.2
2778.50435	11975.1
2781.06932	11911.4
2783.6327	11958.6
2786.1945	11945.1
2788.75471	11906.9
2791.31335	11913
2793.87041	11937.5
2796.42589	11899.4
2798.97979	11904.1
2801.53212	11865.3
2804.08288	11877.7
2806.63206	11851.1
2809.17967	11825.8
2811.72571	11782.7
2814.27018	11804.4
2816.81308	11733.1
2819.35442	11767.8
2821.89419	11762.5
2824.43239	11748
2826.96904	11751.6
2829.50412	11769.6
2832.03763	11757.5
2834.56959	11756.7
2837.1	11772.8
2839.62884	11759.3
2842.15613	11720.7
2844.68186	11753.5
2847.20604	11779.5
2849.72867	11817.5
2852.24974	11823.2
2854.76927	11800.3
2857.28724	11776.6
2859.80367	11778.8
2862.31855	11751
2864.83189	11745.6
2867.34368	11770.4
2869.85393	11789.4
2872.36264	11779.3
2874.8698	11790.2
2877.37543	11782.2
2879.87952	11817
2882.38207	11826.4
2884.88308	11832.4
2887.38256	11848.5
2889.88051	11849.8
2892.37692	11860.3
2894.8718	11898.8
2897.36515	11917.1
2899.85698	11914.8
2902.34727	11932.1
2904.83604	11963.2
2907.32328	11975.3
2909.809	11960
2912.29319	11952.2
2914.77587	11960
2917.25702	11945.4
2919.73665	11924.5
2922.21476	11945
2924.69136	11912.3
2927.16644	11931.4
2929.64	11900.9
2932.11205	11864.5
2934.58258	11847.6
2937.05161	11899.1
2939.51912	11894.7
2941.98513	11876.7
2944.44962	11828.6
2946.91261	11802.5
2949.37409	11838.8
2951.83407	11808.1
2954.29254	11788.5
2956.74951	11795.1
2959.20498	11779.3
2961.65895	11736
2964.11142	11741.2
2966.56239	11695.7
2969.01186	11715.8
2971.45984	11705.9
2973.90632	11676.5
2976.35131	11634.3
2978.7948	11613.3
2981.23681	11597.9
2983.67732	11595.8
2986.11635	11578.2
2988.55388	11533.9
2990.98993	11511.9
2993.4245	11490.4
2995.85758	11464.5
2998.28917	11450.4
3000.71928	11448.4
3003.14791	11415.5
3005.57506	11417.8
3008.00073	11377.3
3010.42493	11385
3012.84764	11383.8
3015.26888	11389.9
3017.68865	11360.1
3020.10694	11336.1
3022.52376	11337.3
3024.9391	11329.8
3027.35298	11338.4
3029.76539	11333.2
3032.17632	11332.3
3034.5858	11280.9
3036.9938	11254.3
3039.40034	11286.6
3041.80542	11296.7
3044.20903	11258.1
3046.61118	11275.1
3049.01187	11261.2
3051.4111	11257.1
3053.80888	11230.4
3056.20519	11244.1
3058.60005	11206.8
3060.99345	11167.7
3063.3854	11159.5
3065.7759	11119.7
3068.16494	11139.4
3070.55254	11121.2
3072.93868	11117.8
3075.32338	11070.3
3077.70662	11082.6
3080.08842	11056.2
3082.46878	11081.8
3084.84769	11067.3
3087.22515	11061.6
3089.60118	11061.8
3091.97576	11045.7
3094.3489	11077
3096.72061	11077.6
3099.09087	11061.4
3101.4597	11031.3
3103.82709	11075.8
3106.19305	11062.6
3108.55757	11092.1
3110.92066	11071.6
3113.28232	11040.9
3115.64255	11012.6
3118.00134	10981.1
3120.35871	10988.8
3122.71466	10982.1
3125.06917	10954.7
3127.42226	10967.4
3129.77393	10950.5
3132.12417	10963.2
3134.47299	10936.3
3136.82039	10948
3139.16636	10949.5
3141.51092	10966.2
3143.85406	10985
3146.19579	10994.5
3148.53609	10992.5
3150.87499	11013.3
3153.21246	11020.1
3155.54853	11051
3157.88318	11036.1
3160.21642	11049.4
3162.54826	11033.7
3164.87868	11012.4
3167.2077	11034.7
3169.5353	11016.6
3171.86151	11039.6
3174.18631	11046.3
3176.5097	11026.3
3178.83169	11024.4
3181.15228	11031.5
3183.47147	11000.9
3185.78926	11004.5
3188.10565	11002.8
3190.42065	10980.2
3192.73424	11014
3195.04645	10985.3
3197.35725	11032.2
3199.66667	10985.7
3201.97469	10998.2
3204.28132	10978.9
3206.58656	11019.2
3208.8904	11041.8
3211.19287	11052.3
3213.49394	11057.3
3215.79363	11042.3
3218.09193	11048.2
3220.38884	11069.9
3222.68438	11062.9
3224.97853	11056.2
3227.2713	11059.2
3229.56269	11021.9
3231.8527	11063.4
3234.14133	11041.7
3236.42858	11025.1
3238.71446	11017.4
3240.99896	11003.6
3243.28209	10994.9
3245.56384	10970.6
3247.84423	11011.3
3250.12324	10988.9
3252.40088	10959
3254.67715	10961.4
3256.95205	10971.9
3259.22558	10966.3
3261.49775	10960.8
3263.76855	10938.6
3266.03799	10926.1
3268.30606	10952
3270.57277	10933.5
3272.83812	10913.5
3275.10211	10890.2
3277.36474	10873.2
3279.62601	10850.1
3281.88593	10837.3
3284.14448	10862
3286.40168	10865
3288.65753	10903.7
3290.91202	10883.5
3293.16516	10846.7
3295.41695	10810.6
3297.66738	10758
3299.91647	10693.9
3302.16421	10643.2
3304.4106	10637.1
3306.65564	10572.2
3308.89933	10518.1
3311.14169	10443.5
3313.38269	10374
3315.62236	10302.4
3317.86068	10216.8
3320.09766	10131.3
3322.3333	10096.3
3324.5676	10078.4
3326.80056	9935.1
3329.03219	9891.4
3331.26248	3.3
3333.49143	0
3335.71905	0.2
