Data from AgNPs_FTO_APTES_UA_1uM_CRN_2uM_R6G_10uM_NaF_0.1M_Addition_RamanShift__31__13-31-29-571.txt Node

Date: Thu Jan 27 13:31:29 GMT 2022
User: TCL
Spectrometer: QEP01345
Trigger mode: 4
Integration Time (sec): 7.000000E0
Scans to average: 10
Electric dark correction enabled: true
Nonlinearity correction enabled: false
Boxcar width: 0
XAxis mode: Raman Shifts
Number of Pixels in Spectrum: 1044
>>>>>Begin Spectral Data<<<<<
46.04893	2.0125
50.45542	0.8125
54.85868	-0.7875
59.25871	-0.5875
63.6555	32.4125
68.04907	34.0125
72.43941	35.5125
76.82654	42.9125
81.21044	41.8125
85.59113	42.2125
89.96862	46.7125
94.34289	46.6125
98.71396	48.7125
103.08183	46.6125
107.4465	52.7125
111.80798	54.1125
116.16626	50.0125
120.52136	53.3125
124.87327	53.1125
129.222	55.1125
133.56755	53.1125
137.90993	57.3125
142.24913	55.7125
146.58517	61.8125
150.91804	70.6125
155.24774	76.3125
159.57429	85.5125
163.89768	110.8125
168.21792	140.1125
172.53501	185.9125
176.84895	240.2125
181.15975	338.6125
185.46741	453.6125
189.77193	623.6125
194.07331	826.8125
198.37157	1075.4125
202.6667	1321.3125
206.9587	1576.5125
211.24758	1809.7125
215.53334	2092.6125
219.81599	2395.4125
224.09553	2733.5125
228.37195	3115.1125
232.64527	3516.2125
236.91549	3920.6125
241.18261	4262.7125
245.44663	4520.1125
249.70755	4718.1125
253.96539	4885.0125
258.22014	5053.2125
262.4718	5223.0125
266.72039	5349.5125
270.96589	5432.6125
275.20832	5452.6125
279.44768	5388.8125
283.68397	5300.6125
287.91719	5261.8125
292.14735	5289.7125
296.37445	5429.8125
300.59849	5679.2125
304.81948	6007.1125
309.03742	6246.2125
313.25231	6265.2125
317.46415	5944.0125
321.67296	5368.6125
325.87872	4906.8125
330.08145	4704.2125
334.28114	4664.9125
338.47781	4764.8125
342.67145	4938.5125
346.86207	5208.4125
351.04966	5575.6125
355.23424	6009.7125
359.4158	6393.0125
363.59435	6524.6125
367.76989	6562.4125
371.94243	6519.4125
376.11196	6437.4125
380.27849	6376.6125
384.44203	6262.1125
388.60257	6150.9125
392.76012	6078.2125
396.91468	6126.8125
401.06626	6315.8125
405.21485	6470.5125
409.36047	6321.6125
413.50311	5933.7125
417.64277	5558.1125
421.77947	5332.2125
425.9132	5236.5125
430.04396	5194.4125
434.17176	5210.4125
438.2966	5283.5125
442.41849	5430.6125
446.53742	5607.7125
450.6534	5786.5125
454.76644	5884.8125
458.87653	5884.1125
462.98368	5833.7125
467.08789	5712.6125
471.18916	5570.6125
475.2875	5390.8125
479.38291	5276.9125
483.4754	5200.6125
487.56496	5122.7125
491.6516	5078.0125
495.73531	5052.5125
499.81612	5074.7125
503.89401	5167.0125
507.96899	5253.0125
512.04106	5347.7125
516.11023	5482.5125
520.1765	5575.6125
524.23987	5541.6125
528.30034	5403.2125
532.35792	5233.1125
536.41261	5098.7125
540.46441	4928.7125
544.51333	4872.2125
548.55936	4892.3125
552.60252	5011.6125
556.64279	5162.5125
560.6802	5254.5125
564.71473	5359.8125
568.7464	5628.3125
572.7752	5831.4125
576.80114	5660.7125
580.82422	5383.9125
584.84444	5295.1125
588.86181	5227.5125
592.87633	5237.6125
596.888	5282.7125
600.89682	5521.7125
604.9028	6273.2125
608.90594	8291.2125
612.90624	11214.4125
616.90371	11012.5125
620.89834	7367.8125
624.89015	5519.1125
628.87913	5152.2125
632.86528	5166.9125
636.84862	5260.8125
640.82913	5215.2125
644.80683	4977.7125
648.78172	4782.6125
652.75379	4822.3125
656.72306	5100.7125
660.68952	5430.6125
664.65319	5366.7125
668.61405	5043.6125
672.57211	4843.0125
676.52738	4817.4125
680.47986	4826.8125
684.42955	4777.1125
688.37646	4761.1125
692.32058	4773.2125
696.26192	4813.3125
700.20048	4892.6125
704.13626	4940.7125
708.06928	4936.1125
711.99952	4885.0125
715.927	4865.3125
719.85171	4867.8125
723.77365	4855.8125
727.69284	4823.9125
731.60928	4768.8125
735.52295	4770.4125
739.43388	4797.5125
743.34206	4834.0125
747.24749	4861.2125
751.15017	4891.1125
755.05012	5014.9125
758.94733	5280.7125
762.8418	5908.0125
766.73354	7075.8125
770.62254	8351.0125
774.50882	9029.9125
778.39237	8693.8125
782.27321	7427.4125
786.15132	6150.3125
790.02671	5394.9125
793.89938	5064.6125
797.76935	4912.8125
801.6366	4867.6125
805.50115	4810.6125
809.36299	4789.9125
813.22213	4755.5125
817.07857	4750.7125
820.93231	4743.8125
824.78336	4778.2125
828.63172	4802.7125
832.47738	4820.3125
836.32036	4817.5125
840.16066	4774.6125
843.99827	4725.0125
847.8332	4727.3125
851.66546	4698.3125
855.49504	4721.1125
859.32195	4703.0125
863.1462	4673.6125
866.96777	4647.4125
870.78668	4638.4125
874.60293	4663.2125
878.41652	4682.6125
882.22745	4709.4125
886.03573	4736.1125
889.84136	4727.3125
893.64433	4696.4125
897.44466	4680.1125
901.24235	4688.7125
905.0374	4677.5125
908.8298	4649.0125
912.61957	4636.2125
916.40671	4659.6125
920.19121	4700.9125
923.97308	4733.3125
927.75233	4812.0125
931.52895	4884.8125
935.30295	4845.7125
939.07433	4680.2125
942.84309	4534.0125
946.60924	4460.2125
950.37278	4407.4125
954.13371	4378.5125
957.89203	4364.4125
961.64774	4348.4125
965.40086	4320.0125
969.15137	4322.4125
972.89929	4305.5125
976.64461	4297.2125
980.38733	4293.4125
984.12747	4298.2125
987.86502	4319.1125
991.59999	4358.4125
995.33237	4383.5125
999.06217	4479.6125
1002.78939	4586.6125
1006.51404	4721.7125
1010.23611	4858.1125
1013.95561	4921.8125
1017.67255	4915.9125
1021.38692	4835.0125
1025.09872	4735.3125
1028.80796	4674.1125
1032.51465	4676.7125
1036.21877	4749.7125
1039.92035	4785.0125
1043.61937	4852.6125
1047.31584	4803.4125
1051.00976	4780.7125
1054.70114	4759.6125
1058.38998	4748.0125
1062.07627	4755.7125
1065.76003	4805.6125
1069.44126	4822.5125
1073.11995	4894.5125
1076.79611	4946.7125
1080.46974	5031.0125
1084.14085	5186.9125
1087.80943	5353.6125
1091.47549	5431.2125
1095.13903	5324.6125
1098.80005	5110.1125
1102.45857	4905.9125
1106.11456	4819.4125
1109.76805	4839.1125
1113.41903	4962.6125
1117.06751	5146.4125
1120.71348	5391.5125
1124.35696	5671.6125
1127.99793	5931.4125
1131.63641	5952.9125
1135.2724	5621.4125
1138.90589	5293.0125
1142.5369	5082.2125
1146.16542	4973.6125
1149.79145	4910.3125
1153.415	4894.2125
1157.03607	4938.7125
1160.65467	5049.4125
1164.27079	5226.7125
1167.88443	5531.2125
1171.49561	6026.7125
1175.10432	6879.8125
1178.71056	8041.1125
1182.31434	8864.9125
1185.91565	9018.4125
1189.51451	8740.3125
1193.11091	8100.2125
1196.70485	7348.7125
1200.29634	6770.7125
1203.88538	6392.1125
1207.47197	5967.2125
1211.05612	5582.3125
1214.63782	5381.1125
1218.21708	5310.5125
1221.79391	5329.9125
1225.36829	5385.3125
1228.94024	5462.2125
1232.50976	5511.7125
1236.07685	5564.3125
1239.6415	5565.4125
1243.20374	5580.6125
1246.76355	5568.1125
1250.32093	5599.7125
1253.8759	5719.5125
1257.42845	5900.1125
1260.97859	6077.1125
1264.52631	6297.1125
1268.07163	6492.3125
1271.61453	6715.4125
1275.15503	6833.8125
1278.69312	6895.6125
1282.22882	6913.3125
1285.76211	7068.9125
1289.29301	7287.8125
1292.82151	7537.1125
1296.34761	7789.3125
1299.87133	8134.1125
1303.39266	8766.2125
1306.9116	9831.9125
1310.42815	11147.9125
1313.94233	12078.1125
1317.45412	11939.6125
1320.96354	11114.8125
1324.47058	10076.9125
1327.97525	9225.0125
1331.47754	8690.4125
1334.97747	8467.0125
1338.47502	8454.6125
1341.97022	8580.1125
1345.46305	8896.3125
1348.95352	9457.8125
1352.44163	10268.3125
1355.92738	11395.9125
1359.41078	13167.5125
1362.89183	15117.7125
1366.37053	14927.2125
1369.84688	12545.8125
1373.32088	10026.9125
1376.79254	8441.4125
1380.26186	7697.3125
1383.72883	7317.1125
1387.19347	7041.4125
1390.65578	6698.9125
1394.11575	6422.7125
1397.57339	6259.6125
1401.0287	6286.1125
1404.48168	6384.3125
1407.93234	6511.1125
1411.38068	6633.1125
1414.82669	6632.1125
1418.27039	6562.3125
1421.71177	6417.3125
1425.15083	6281.8125
1428.58758	6210.2125
1432.02203	6227.4125
1435.45416	6274.8125
1438.88399	6294.8125
1442.31151	6308.1125
1445.73673	6305.6125
1449.15965	6346.7125
1452.58027	6309.6125
1455.9986	6233.0125
1459.41463	6194.0125
1462.82837	6241.5125
1466.23982	6369.1125
1469.64898	6478.9125
1473.05586	6587.4125
1476.46045	6659.0125
1479.86276	6776.7125
1483.26279	6947.0125
1486.66054	7177.3125
1490.05602	7431.6125
1493.44922	7788.5125
1496.84016	8406.2125
1500.22882	9325.4125
1503.61521	10549.0125
1506.99934	11955.3125
1510.38121	13420.2125
1513.76081	14287.4125
1517.13816	13790.8125
1520.51324	12056.7125
1523.88607	10107.1125
1527.25665	8766.3125
1530.62498	7947.7125
1533.99105	7498.5125
1537.35488	7190.1125
1540.71647	7006.1125
1544.07581	6911.9125
1547.4329	6868.2125
1550.78776	6845.5125
1554.14038	6822.6125
1557.49077	6904.4125
1560.83892	7065.3125
1564.18484	7301.7125
1567.52853	7551.0125
1570.86999	7792.7125
1574.20922	7913.0125
1577.54624	7905.7125
1580.88103	7526.5125
1584.2136	6946.2125
1587.54395	6607.4125
1590.87208	6659.9125
1594.19801	7012.7125
1597.52172	7551.2125
1600.84321	7822.5125
1604.16251	7583.4125
1607.47959	7076.4125
1610.79447	6514.2125
1614.10715	5983.7125
1617.41763	5543.0125
1620.7259	5283.1125
1624.03199	5156.5125
1627.33587	5181.9125
1630.63757	5311.8125
1633.93707	5567.4125
1637.23439	5989.4125
1640.52951	6578.4125
1643.82246	7404.5125
1647.11321	8392.1125
1650.40179	9228.4125
1653.68819	9176.8125
1656.97241	7985.8125
1660.25446	6526.8125
1663.53433	5477.5125
1666.81203	4856.3125
1670.08756	4524.9125
1673.36092	4328.1125
1676.63211	4227.3125
1679.90115	4114.3125
1683.16801	4091.8125
1686.43272	4030.4125
1689.69527	3990.7125
1692.95567	3937.5125
1696.2139	3905.5125
1699.46999	3863.9125
1702.72392	3846.7125
1705.97571	3853.2125
1709.22535	3877.7125
1712.47284	3908.3125
1715.71819	3929.3125
1718.96139	3930.8125
1722.20246	3935.7125
1725.44139	3928.8125
1728.67818	3900.7125
1731.91284	3850.9125
1735.14537	3809.5125
1738.37576	3786.5125
1741.60403	3777.2125
1744.83017	3758.3125
1748.05418	3713.3125
1751.27607	3711.8125
1754.49584	3692.9125
1757.71349	3680.6125
1760.92903	3664.2125
1764.14244	3634.5125
1767.35375	3632.3125
1770.56294	3633.9125
1773.77002	3639.4125
1776.97499	3628.9125
1780.17785	3629.3125
1783.37861	3634.2125
1786.57727	3631.4125
1789.77382	3622.7125
1792.96828	3626.9125
1796.16064	3627.0125
1799.3509	3607.8125
1802.53907	3615.2125
1805.72514	3600.1125
1808.90913	3577.5125
1812.09102	3583.2125
1815.27083	3564.9125
1818.44856	3555.8125
1821.6242	3560.2125
1824.79776	3542.0125
1827.96924	3540.5125
1831.13864	3523.1125
1834.30597	3523.4125
1837.47122	3543.6125
1840.6344	3535.2125
1843.7955	3525.9125
1846.95454	3526.9125
1850.11151	3526.0125
1853.26642	3526.2125
1856.41926	3538.1125
1859.57004	3527.1125
1862.71876	3535.0125
1865.86542	3524.8125
1869.01003	3551.0125
1872.15258	3536.4125
1875.29308	3542.9125
1878.43152	3549.0125
1881.56792	3553.1125
1884.70227	3551.4125
1887.83457	3549.9125
1890.96482	3547.5125
1894.09304	3564.9125
1897.21921	3560.4125
1900.34335	3552.2125
1903.46544	3536.7125
1906.58551	3549.8125
1909.70353	3543.4125
1912.81953	3546.0125
1915.93349	3533.1125
1919.04543	3536.9125
1922.15534	3528.0125
1925.26322	3517.8125
1928.36908	3492.1125
1931.47292	3497.9125
1934.57473	3463.7125
1937.67453	3452.4125
1940.77232	3428.5125
1943.86808	3412.5125
1946.96184	3396.7125
1950.05358	3373.7125
1953.14331	3364.2125
1956.23103	3346.5125
1959.31675	3339.5125
1962.40046	3321.6125
1965.48217	3319.2125
1968.56188	3309.7125
1971.63959	3286.5125
1974.7153	3283.4125
1977.78901	3282.1125
1980.86073	3261.9125
1983.93046	3250.7125
1986.99819	3228.4125
1990.06394	3226.4125
1993.1277	3202.6125
1996.18947	3198.8125
1999.24925	3198.5125
2002.30706	3181.7125
2005.36288	3174.0125
2008.41672	3157.5125
2011.46859	3151.6125
2014.51848	3140.2125
2017.56639	3148.8125
2020.61233	3128.0125
2023.6563	3119.0125
2026.6983	3104.3125
2029.73833	3091.1125
2032.7764	3076.8125
2035.8125	3078.2125
2038.84664	3060.5125
2041.87881	3065.1125
2044.90903	3064.8125
2047.93729	3047.3125
2050.96359	3042.2125
2053.98794	3037.4125
2057.01034	3021.8125
2060.03078	3038.5125
2063.04927	3020.0125
2066.06582	3025.7125
2069.08042	3022.6125
2072.09307	3012.6125
2075.10378	3010.1125
2078.11255	3001.9125
2081.11938	3005.0125
2084.12426	2992.8125
2087.12722	3009.3125
2090.12824	3002.6125
2093.12732	3001.5125
2096.12447	3009.8125
2099.11969	3003.9125
2102.11299	3011.8125
2105.10435	3009.8125
2108.09379	2998.0125
2111.08131	2998.7125
2114.0669	2992.9125
2117.05057	3005.9125
2120.03233	3002.5125
2123.01216	3001.6125
2125.99008	3002.7125
2128.96609	3011.6125
2131.94018	3001.4125
2134.91236	3003.1125
2137.88263	3003.0125
2140.851	3001.7125
2143.81746	3001.2125
2146.78201	2997.6125
2149.74466	3004.3125
2152.7054	3004.7125
2155.66425	2991.1125
2158.6212	3000.3125
2161.57625	2993.1125
2164.52941	2990.8125
2167.48067	2982.7125
2170.43004	2983.3125
2173.37752	2977.0125
2176.32311	2985.6125
2179.26681	2973.4125
2182.20863	2979.8125
2185.14856	2984.1125
2188.08661	2973.7125
2191.02278	2982.1125
2193.95707	2974.4125
2196.88948	2964.6125
2199.82001	2965.5125
2202.74867	2952.0125
2205.67545	2958.9125
2208.60037	2938.2125
2211.52341	2946.3125
2214.44458	2950.3125
2217.36388	2929.7125
2220.28132	2924.4125
2223.1969	2908.8125
2226.11061	2919.9125
2229.02246	2903.2125
2231.93245	2894.5125
2234.84058	2887.9125
2237.74686	2890.4125
2240.65128	2891.1125
2243.55385	2875.3125
2246.45456	2875.0125
2249.35343	2876.2125
2252.25044	2869.0125
2255.14561	2863.7125
2258.03893	2871.6125
2260.93041	2866.3125
2263.82004	2847.5125
2266.70783	2849.8125
2269.59378	2848.2125
2272.4779	2833.2125
2275.36017	2838.5125
2278.24061	2825.5125
2281.11922	2825.3125
2283.996	2815.0125
2286.87094	2805.8125
2289.74405	2802.7125
2292.61534	2788.1125
2295.4848	2780.7125
2298.35243	2783.3125
2301.21824	2772.7125
2304.08223	2779.4125
2306.94439	2782.1125
2309.80474	2773.2125
2312.66327	2773.2125
2315.51999	2769.5125
2318.37489	2772.2125
2321.22797	2753.1125
2324.07925	2760.8125
2326.92871	2751.3125
2329.77637	2739.1125
2332.62222	2743.1125
2335.46626	2736.7125
2338.3085	2729.5125
2341.14893	2744.3125
2343.98756	2742.2125
2346.8244	2725.1125
2349.65943	2735.9125
2352.49267	2744.9125
2355.32411	2740.6125
2358.15376	2730.8125
2360.98161	2741.7125
2363.80768	2756.0125
2366.63195	2748.0125
2369.45444	2764.9125
2372.27514	2744.2125
2375.09405	2749.6125
2377.91118	2739.5125
2380.72652	2728.8125
2383.54009	2699.0125
2386.35187	2713.9125
2389.16188	2687.3125
2391.97011	2676.2125
2394.77657	2668.3125
2397.58125	2661.1125
2400.38416	2647.2125
2403.18529	2637.7125
2405.98466	2649.1125
2408.78226	2630.8125
2411.57809	2632.3125
2414.37216	2622.9125
2417.16446	2620.1125
2419.955	2627.0125
2422.74378	2635.3125
2425.5308	2599.5125
2428.31606	2618.6125
2431.09956	2621.5125
2433.88131	2611.8125
2436.6613	2615.1125
2439.43954	2622.6125
2442.21603	2602.7125
2444.99077	2604.0125
2447.76377	2605.4125
2450.53501	2605.5125
2453.30451	2610.5125
2456.07226	2616.5125
2458.83827	2597.8125
2461.60254	2606.3125
2464.36507	2602.6125
2467.12586	2604.5125
2469.88492	2597.8125
2472.64224	2599.8125
2475.39782	2590.4125
2478.15167	2593.7125
2480.90379	2588.4125
2483.65417	2598.6125
2486.40283	2609.5125
2489.14976	2607.0125
2491.89497	2624.5125
2494.63845	2622.1125
2497.3802	2607.2125
2500.12024	2612.5125
2502.85855	2605.6125
2505.59514	2605.3125
2508.33002	2583.8125
2511.06318	2582.2125
2513.79462	2567.9125
2516.52435	2561.8125
2519.25237	2567.0125
2521.97867	2540.7125
2524.70327	2536.4125
2527.42616	2527.9125
2530.14734	2523.5125
2532.86681	2519.4125
2535.58458	2518.0125
2538.30065	2517.8125
2541.01501	2514.3125
2543.72768	2514.1125
2546.43864	2516.4125
2549.14791	2507.5125
2551.85548	2508.2125
2554.56136	2515.6125
2557.26554	2493.9125
2559.96803	2504.4125
2562.66883	2514.1125
2565.36794	2503.5125
2568.06536	2486.6125
2570.7611	2492.4125
2573.45514	2474.4125
2576.14751	2468.3125
2578.83819	2462.9125
2581.52719	2471.3125
2584.21451	2464.2125
2586.90015	2455.6125
2589.58411	2452.1125
2592.2664	2454.5125
2594.94701	2445.0125
2597.62594	2436.3125
2600.30321	2441.5125
2602.9788	2440.7125
2605.65273	2444.6125
2608.32498	2433.3125
2610.99557	2441.8125
2613.66449	2443.6125
2616.33175	2424.0125
2618.99734	2431.4125
2621.66128	2439.4125
2624.32355	2422.6125
2626.98416	2424.3125
2629.64311	2418.5125
2632.30041	2420.5125
2634.95605	2404.7125
2637.61004	2403.3125
2640.26238	2395.3125
2642.91306	2395.1125
2645.56209	2395.2125
2648.20948	2389.6125
2650.85521	2390.3125
2653.4993	2390.1125
2656.14175	2384.5125
2658.78255	2393.7125
2661.42171	2398.5125
2664.05923	2393.1125
2666.6951	2395.3125
2669.32934	2415.0125
2671.96194	2406.8125
2674.59291	2418.6125
2677.22224	2405.3125
2679.84993	2407.5125
2682.476	2415.6125
2685.10043	2406.4125
2687.72324	2405.5125
2690.34441	2408.5125
2692.96396	2397.9125
2695.58188	2404.5125
2698.19818	2398.9125
2700.81285	2407.2125
2703.4259	2407.5125
2706.03733	2393.9125
2708.64714	2390.9125
2711.25533	2398.9125
2713.86191	2418.0125
2716.46687	2422.0125
2719.07021	2404.7125
2721.67194	2421.3125
2724.27206	2415.8125
2726.87057	2417.5125
2729.46747	2415.3125
2732.06276	2416.6125
2734.65644	2401.3125
2737.24852	2422.5125
2739.83899	2400.9125
2742.42786	2400.0125
2745.01513	2395.3125
2747.60079	2394.1125
2750.18486	2379.1125
2752.76733	2384.4125
2755.3482	2371.1125
2757.92747	2390.4125
2760.50515	2365.8125
2763.08123	2378.9125
2765.65573	2361.9125
2768.22863	2370.9125
2770.79994	2368.3125
2773.36967	2361.5125
2775.9378	2357.5125
2778.50435	2360.9125
2781.06932	2356.3125
2783.6327	2360.0125
2786.1945	2355.0125
2788.75471	2356.6125
2791.31335	2338.8125
2793.87041	2356.9125
2796.42589	2353.6125
2798.97979	2347.6125
2801.53212	2348.0125
2804.08288	2337.4125
2806.63206	2339.9125
2809.17967	2349.8125
2811.72571	2344.9125
2814.27018	2345.8125
2816.81308	2341.2125
2819.35442	2355.1125
2821.89419	2356.8125
2824.43239	2362.8125
2826.96904	2366.6125
2829.50412	2366.6125
2832.03763	2366.3125
2834.56959	2366.9125
2837.1	2375.9125
2839.62884	2390.8125
2842.15613	2410.7125
2844.68186	2431.4125
2847.20604	2474.8125
2849.72867	2484.8125
2852.24974	2504.8125
2854.76927	2511.2125
2857.28724	2485.7125
2859.80367	2484.0125
2862.31855	2489.7125
2864.83189	2476.4125
2867.34368	2456.2125
2869.85393	2465.2125
2872.36264	2464.4125
2874.8698	2456.4125
2877.37543	2460.9125
2879.87952	2449.0125
2882.38207	2433.9125
2884.88308	2452.9125
2887.38256	2438.5125
2889.88051	2434.3125
2892.37692	2448.4125
2894.8718	2443.4125
2897.36515	2447.3125
2899.85698	2436.0125
2902.34727	2451.6125
2904.83604	2452.0125
2907.32328	2454.5125
2909.809	2452.5125
2912.29319	2445.9125
2914.77587	2446.1125
2917.25702	2446.5125
2919.73665	2448.0125
2922.21476	2443.9125
2924.69136	2440.8125
2927.16644	2429.1125
2929.64	2436.2125
2932.11205	2432.4125
2934.58258	2418.3125
2937.05161	2400.4125
2939.51912	2395.7125
2941.98513	2395.9125
2944.44962	2355.1125
2946.91261	2348.9125
2949.37409	2330.6125
2951.83407	2312.3125
2954.29254	2302.3125
2956.74951	2298.8125
2959.20498	2288.2125
2961.65895	2274.6125
2964.11142	2281.0125
2966.56239	2264.6125
2969.01186	2257.9125
2971.45984	2258.9125
2973.90632	2250.0125
2976.35131	2244.9125
2978.7948	2246.4125
2981.23681	2223.4125
2983.67732	2228.9125
2986.11635	2206.9125
2988.55388	2202.7125
2990.98993	2195.4125
2993.4245	2194.8125
2995.85758	2181.4125
2998.28917	2179.7125
3000.71928	2178.5125
3003.14791	2175.2125
3005.57506	2174.3125
3008.00073	2170.6125
3010.42493	2164.6125
3012.84764	2169.4125
3015.26888	2171.3125
3017.68865	2154.0125
3020.10694	2163.9125
3022.52376	2152.5125
3024.9391	2149.5125
3027.35298	2145.8125
3029.76539	2145.6125
3032.17632	2145.7125
3034.5858	2137.8125
3036.9938	2141.2125
3039.40034	2132.5125
3041.80542	2143.0125
3044.20903	2127.0125
3046.61118	2127.9125
3049.01187	2132.0125
3051.4111	2121.8125
3053.80888	2127.6125
3056.20519	2119.2125
3058.60005	2124.6125
3060.99345	2115.1125
3063.3854	2103.8125
3065.7759	2104.3125
3068.16494	2107.4125
3070.55254	2087.9125
3072.93868	2096.5125
3075.32338	2096.4125
3077.70662	2097.7125
3080.08842	2090.4125
3082.46878	2088.2125
3084.84769	2082.0125
3087.22515	2070.8125
3089.60118	2077.5125
3091.97576	2076.0125
3094.3489	2078.8125
3096.72061	2074.4125
3099.09087	2083.5125
3101.4597	2069.9125
3103.82709	2077.4125
3106.19305	2075.4125
3108.55757	2077.1125
3110.92066	2076.5125
3113.28232	2068.0125
3115.64255	2070.4125
3118.00134	2066.1125
3120.35871	2076.4125
3122.71466	2069.9125
