Data from AgNPs_FTO_APTES_UA_1uM_CRN_1000uM_R6G_10uM_NaF_0.1M_Addition_RamanShift__14__18-49-59-932.txt Node

Date: Thu Jan 27 18:49:59 GMT 2022
User: TCL
Spectrometer: QEP01345
Trigger mode: 4
Integration Time (sec): 7.000000E0
Scans to average: 10
Electric dark correction enabled: true
Nonlinearity correction enabled: false
Boxcar width: 0
XAxis mode: Raman Shifts
Number of Pixels in Spectrum: 1044
>>>>>Begin Spectral Data<<<<<
46.04893	0.4125
50.45542	1.2125
54.85868	-1.6875
59.25871	-0.9875
63.6555	43.6125
68.04907	45.9125
72.43941	47.3125
76.82654	53.1125
81.21044	52.4125
85.59113	52.7125
89.96862	56.8125
94.34289	58.2125
98.71396	62.0125
103.08183	60.1125
107.4465	64.7125
111.80798	66.4125
116.16626	67.1125
120.52136	73.5125
124.87327	71.8125
129.222	72.8125
133.56755	78.6125
137.90993	77.1125
142.24913	87.2125
146.58517	95.4125
150.91804	111.9125
155.24774	129.1125
159.57429	153.9125
163.89768	200.7125
168.21792	261.8125
172.53501	355.4125
176.84895	489.9125
181.15975	682.1125
185.46741	956.0125
189.77193	1316.0125
194.07331	1793.4125
198.37157	2318.2125
202.6667	2892.9125
206.9587	3442.8125
211.24758	4002.8125
215.53334	4561.6125
219.81599	5138.2125
224.09553	5779.9125
228.37195	6468.6125
232.64527	7199.4125
236.91549	7987.2125
241.18261	8769.1125
245.44663	9510.9125
249.70755	10125.2125
253.96539	10708.6125
258.22014	11149.7125
262.4718	11526.9125
266.72039	11813.8125
270.96589	11923.0125
275.20832	11940.5125
279.44768	11802.8125
283.68397	11633.8125
287.91719	11502.9125
292.14735	11357.4125
296.37445	11329.2125
300.59849	11391.2125
304.81948	11444.0125
309.03742	11500.6125
313.25231	11379.6125
317.46415	11142.5125
321.67296	10796.4125
325.87872	10522.9125
330.08145	10395.1125
334.28114	10419.9125
338.47781	10510.5125
342.67145	10650.9125
346.86207	10806.6125
351.04966	11052.9125
355.23424	11329.7125
359.4158	11563.4125
363.59435	11750.8125
367.76989	11866.0125
371.94243	11950.5125
376.11196	11984.1125
380.27849	12030.2125
384.44203	12072.0125
388.60257	12125.8125
392.76012	12125.4125
396.91468	12222.6125
401.06626	12388.5125
405.21485	12508.9125
409.36047	12473.2125
413.50311	12240.0125
417.64277	12022.6125
421.77947	11905.7125
425.9132	11907.8125
430.04396	11917.9125
434.17176	11969.1125
438.2966	12027.7125
442.41849	12133.7125
446.53742	12263.3125
450.6534	12410.3125
454.76644	12549.0125
458.87653	12596.2125
462.98368	12627.6125
467.08789	12598.7125
471.18916	12543.7125
475.2875	12430.4125
479.38291	12346.8125
483.4754	12259.7125
487.56496	12178.0125
491.6516	12151.7125
495.73531	12091.9125
499.81612	12116.2125
503.89401	12166.1125
507.96899	12251.4125
512.04106	12316.1125
516.11023	12381.4125
520.1765	12340.8125
524.23987	12295.0125
528.30034	12197.9125
532.35792	12065.8125
536.41261	11992.9125
540.46441	11874.9125
544.51333	11854.5125
548.55936	11904.9125
552.60252	12013.4125
556.64279	12190.9125
560.6802	12277.4125
564.71473	12329.6125
568.7464	12464.3125
572.7752	12629.9125
576.80114	12727.9125
580.82422	12737.0125
584.84444	12883.7125
588.86181	13017.2125
592.87633	13046.9125
596.888	13013.1125
600.89682	12984.5125
604.9028	13331.4125
608.90594	14554.8125
612.90624	16246.8125
616.90371	15921.8125
620.89834	13506.6125
624.89015	12242.8125
628.87913	12032.2125
632.86528	12107.8125
636.84862	12217.1125
640.82913	12245.0125
644.80683	12024.3125
648.78172	11895.0125
652.75379	11895.5125
656.72306	12005.5125
660.68952	12202.3125
664.65319	12210.9125
668.61405	12060.2125
672.57211	12055.0125
676.52738	12235.9125
680.47986	12328.2125
684.42955	12340.8125
688.37646	12179.2125
692.32058	12057.6125
696.26192	12033.6125
700.20048	12046.8125
704.13626	12061.5125
708.06928	12082.3125
711.99952	11998.4125
715.927	11967.2125
719.85171	11924.9125
723.77365	11937.8125
727.69284	11909.7125
731.60928	11832.3125
735.52295	11772.1125
739.43388	11769.0125
743.34206	11772.3125
747.24749	11790.6125
751.15017	11845.2125
755.05012	11927.4125
758.94733	12132.2125
762.8418	12542.3125
766.73354	13355.4125
770.62254	14309.4125
774.50882	14842.2125
778.39237	14508.1125
782.27321	13611.0125
786.15132	12670.7125
790.02671	12110.3125
793.89938	11841.8125
797.76935	11723.5125
801.6366	11607.0125
805.50115	11581.5125
809.36299	11527.9125
813.22213	11490.4125
817.07857	11476.4125
820.93231	11426.8125
824.78336	11433.2125
828.63172	11409.9125
832.47738	11424.0125
836.32036	11406.5125
840.16066	11369.7125
843.99827	11369.7125
847.8332	11364.5125
851.66546	11369.6125
855.49504	11354.8125
859.32195	11377.8125
863.1462	11375.3125
866.96777	11379.6125
870.78668	11374.4125
874.60293	11397.0125
878.41652	11379.3125
882.22745	11407.2125
886.03573	11451.7125
889.84136	11471.4125
893.64433	11442.5125
897.44466	11374.5125
901.24235	11382.2125
905.0374	11325.6125
908.8298	11267.9125
912.61957	11248.6125
916.40671	11278.4125
920.19121	11340.1125
923.97308	11391.4125
927.75233	11418.4125
931.52895	11446.7125
935.30295	11378.4125
939.07433	11230.9125
942.84309	11083.5125
946.60924	11003.9125
950.37278	10940.7125
954.13371	10869.6125
957.89203	10845.2125
961.64774	10836.0125
965.40086	10795.2125
969.15137	10782.2125
972.89929	10737.0125
976.64461	10702.1125
980.38733	10682.4125
984.12747	10686.1125
987.86502	10702.1125
991.59999	10735.4125
995.33237	10792.4125
999.06217	10845.5125
1002.78939	10925.1125
1006.51404	10988.7125
1010.23611	11076.0125
1013.95561	11195.9125
1017.67255	11214.6125
1021.38692	11187.4125
1025.09872	11121.2125
1028.80796	11039.8125
1032.51465	11024.5125
1036.21877	10992.0125
1039.92035	11076.2125
1043.61937	11130.7125
1047.31584	11141.3125
1051.00976	11184.6125
1054.70114	11223.2125
1058.38998	11208.6125
1062.07627	11290.7125
1065.76003	11355.2125
1069.44126	11448.8125
1073.11995	11575.5125
1076.79611	11700.9125
1080.46974	11748.1125
1084.14085	11746.5125
1087.80943	11743.7125
1091.47549	11778.5125
1095.13903	11788.0125
1098.80005	11671.3125
1102.45857	11515.3125
1106.11456	11376.1125
1109.76805	11276.5125
1113.41903	11337.2125
1117.06751	11397.6125
1120.71348	11530.1125
1124.35696	11687.3125
1127.99793	11911.7125
1131.63641	12026.7125
1135.2724	11857.1125
1138.90589	11628.1125
1142.5369	11485.3125
1146.16542	11417.6125
1149.79145	11355.9125
1153.415	11356.2125
1157.03607	11409.1125
1160.65467	11503.1125
1164.27079	11757.5125
1167.88443	12116.7125
1171.49561	12588.4125
1175.10432	13194.8125
1178.71056	14079.6125
1182.31434	14899.2125
1185.91565	15269.4125
1189.51451	15270.5125
1193.11091	14916.4125
1196.70485	14425.1125
1200.29634	13898.7125
1203.88538	13497.8125
1207.47197	13035.7125
1211.05612	12699.6125
1214.63782	12412.0125
1218.21708	12248.5125
1221.79391	12075.5125
1225.36829	12021.3125
1228.94024	11952.9125
1232.50976	11908.6125
1236.07685	11881.2125
1239.6415	11869.0125
1243.20374	11851.9125
1246.76355	11902.5125
1250.32093	11923.8125
1253.8759	12037.4125
1257.42845	12207.2125
1260.97859	12422.1125
1264.52631	12617.9125
1268.07163	12844.5125
1271.61453	13075.4125
1275.15503	13233.6125
1278.69312	13427.7125
1282.22882	13523.5125
1285.76211	13700.0125
1289.29301	13954.9125
1292.82151	14289.2125
1296.34761	14715.5125
1299.87133	15220.3125
1303.39266	15875.2125
1306.9116	16694.5125
1310.42815	17498.3125
1313.94233	17955.2125
1317.45412	17772.3125
1320.96354	17243.2125
1324.47058	16692.3125
1327.97525	16203.0125
1331.47754	15894.0125
1334.97747	15781.3125
1338.47502	15729.6125
1341.97022	15844.3125
1345.46305	16078.3125
1348.95352	16435.7125
1352.44163	16975.6125
1355.92738	17629.7125
1359.41078	18553.3125
1362.89183	19543.1125
1366.37053	19474.1125
1369.84688	17874.1125
1373.32088	15935.0125
1376.79254	14528.8125
1380.26186	13795.4125
1383.72883	13417.7125
1387.19347	13179.3125
1390.65578	12954.9125
1394.11575	12752.5125
1397.57339	12669.2125
1401.0287	12644.5125
1404.48168	12646.0125
1407.93234	12630.1125
1411.38068	12547.9125
1414.82669	12431.7125
1418.27039	12260.8125
1421.71177	12094.3125
1425.15083	11915.8125
1428.58758	11799.7125
1432.02203	11783.6125
1435.45416	11837.4125
1438.88399	11942.4125
1442.31151	11996.0125
1445.73673	12041.1125
1449.15965	12065.2125
1452.58027	12172.5125
1455.9986	12195.9125
1459.41463	12259.4125
1462.82837	12336.0125
1466.23982	12489.6125
1469.64898	12629.7125
1473.05586	12757.7125
1476.46045	12784.4125
1479.86276	12841.2125
1483.26279	12875.6125
1486.66054	12999.0125
1490.05602	13158.4125
1493.44922	13467.9125
1496.84016	13964.4125
1500.22882	14724.9125
1503.61521	15744.8125
1506.99934	16917.8125
1510.38121	17860.0125
1513.76081	18095.3125
1517.13816	17422.8125
1520.51324	16209.1125
1523.88607	15033.0125
1527.25665	14252.3125
1530.62498	13784.9125
1533.99105	13552.9125
1537.35488	13321.4125
1540.71647	13148.9125
1544.07581	12966.5125
1547.4329	12832.4125
1550.78776	12700.0125
1554.14038	12634.1125
1557.49077	12590.2125
1560.83892	12652.4125
1564.18484	12741.0125
1567.52853	12912.4125
1570.86999	13163.4125
1574.20922	13371.7125
1577.54624	13460.9125
1580.88103	13266.4125
1584.2136	12900.8125
1587.54395	12653.9125
1590.87208	12660.7125
1594.19801	12916.0125
1597.52172	13353.0125
1600.84321	13591.5125
1604.16251	13367.2125
1607.47959	12941.5125
1610.79447	12430.8125
1614.10715	11879.6125
1617.41763	11339.3125
1620.7259	10900.8125
1624.03199	10625.6125
1627.33587	10544.3125
1630.63757	10590.5125
1633.93707	10810.7125
1637.23439	11244.9125
1640.52951	11936.3125
1643.82246	12928.7125
1647.11321	14043.0125
1650.40179	14810.1125
1653.68819	14664.2125
1656.97241	13528.3125
1660.25446	12129.7125
1663.53433	11038.8125
1666.81203	10344.3125
1670.08756	9926.2125
1673.36092	9689.3125
1676.63211	9510.2125
1679.90115	9423.1125
1683.16801	9294.6125
1686.43272	9219.4125
1689.69527	9164.3125
1692.95567	9101.4125
1696.2139	9032.4125
1699.46999	8976.5125
1702.72392	8923.0125
1705.97571	8915.0125
1709.22535	8946.7125
1712.47284	8973.6125
1715.71819	8991.9125
1718.96139	8983.2125
1722.20246	8951.1125
1725.44139	8916.0125
1728.67818	8909.2125
1731.91284	8846.9125
1735.14537	8806.2125
1738.37576	8799.7125
1741.60403	8763.1125
1744.83017	8763.5125
1748.05418	8733.2125
1751.27607	8766.5125
1754.49584	8784.4125
1757.71349	8798.8125
1760.92903	8780.5125
1764.14244	8756.1125
1767.35375	8711.8125
1770.56294	8630.1125
1773.77002	8600.1125
1776.97499	8562.7125
1780.17785	8535.0125
1783.37861	8545.4125
1786.57727	8500.7125
1789.77382	8483.9125
1792.96828	8435.0125
1796.16064	8404.0125
1799.3509	8351.9125
1802.53907	8338.2125
1805.72514	8309.7125
1808.90913	8292.4125
1812.09102	8258.8125
1815.27083	8239.5125
1818.44856	8236.4125
1821.6242	8210.1125
1824.79776	8183.7125
1827.96924	8176.1125
1831.13864	8163.2125
1834.30597	8145.2125
1837.47122	8139.1125
1840.6344	8116.3125
1843.7955	8111.9125
1846.95454	8127.8125
1850.11151	8118.9125
1853.26642	8103.3125
1856.41926	8090.7125
1859.57004	8095.4125
1862.71876	8078.8125
1865.86542	8088.3125
1869.01003	8040.4125
1872.15258	8051.7125
1875.29308	8038.0125
1878.43152	8037.4125
1881.56792	8015.8125
1884.70227	7978.6125
1887.83457	7982.9125
1890.96482	7972.5125
1894.09304	7945.5125
1897.21921	7925.6125
1900.34335	7917.6125
1903.46544	7905.0125
1906.58551	7895.6125
1909.70353	7879.9125
1912.81953	7867.9125
1915.93349	7844.6125
1919.04543	7833.7125
1922.15534	7828.8125
1925.26322	7834.5125
1928.36908	7804.2125
1931.47292	7785.5125
1934.57473	7755.0125
1937.67453	7750.1125
1940.77232	7706.2125
1943.86808	7696.7125
1946.96184	7650.6125
1950.05358	7645.9125
1953.14331	7620.0125
1956.23103	7592.9125
1959.31675	7582.6125
1962.40046	7566.6125
1965.48217	7544.1125
1968.56188	7515.8125
1971.63959	7487.7125
1974.7153	7457.1125
1977.78901	7430.7125
1980.86073	7405.1125
1983.93046	7385.5125
1986.99819	7359.8125
1990.06394	7329.8125
1993.1277	7310.7125
1996.18947	7286.6125
1999.24925	7286.3125
2002.30706	7255.1125
2005.36288	7215.3125
2008.41672	7215.3125
2011.46859	7189.3125
2014.51848	7155.5125
2017.56639	7134.1125
2020.61233	7113.8125
2023.6563	7112.3125
2026.6983	7072.1125
2029.73833	7078.2125
2032.7764	7062.5125
2035.8125	7022.6125
2038.84664	6979.8125
2041.87881	6993.1125
2044.90903	6951.6125
2047.93729	6948.9125
2050.96359	6934.0125
2053.98794	6922.8125
2057.01034	6916.5125
2060.03078	6939.9125
2063.04927	6903.9125
2066.06582	6915.4125
2069.08042	6902.6125
2072.09307	6896.1125
2075.10378	6897.2125
2078.11255	6875.0125
2081.11938	6866.0125
2084.12426	6869.9125
2087.12722	6847.2125
2090.12824	6849.9125
2093.12732	6860.4125
2096.12447	6839.0125
2099.11969	6825.7125
2102.11299	6843.5125
2105.10435	6855.9125
2108.09379	6832.4125
2111.08131	6855.1125
2114.0669	6848.3125
2117.05057	6865.3125
2120.03233	6854.2125
2123.01216	6877.8125
2125.99008	6885.1125
2128.96609	6900.2125
2131.94018	6857.0125
2134.91236	6895.4125
2137.88263	6898.5125
2140.851	6878.7125
2143.81746	6882.2125
2146.78201	6884.3125
2149.74466	6877.1125
2152.7054	6849.1125
2155.66425	6860.6125
2158.6212	6866.0125
2161.57625	6844.9125
2164.52941	6856.1125
2167.48067	6848.5125
2170.43004	6850.0125
2173.37752	6855.4125
2176.32311	6833.2125
2179.26681	6816.0125
2182.20863	6841.5125
2185.14856	6853.1125
2188.08661	6840.8125
2191.02278	6822.8125
2193.95707	6816.6125
2196.88948	6788.0125
2199.82001	6772.7125
2202.74867	6771.6125
2205.67545	6796.7125
2208.60037	6759.7125
2211.52341	6757.0125
2214.44458	6742.3125
2217.36388	6719.4125
2220.28132	6719.5125
2223.1969	6697.6125
2226.11061	6695.1125
2229.02246	6669.7125
2231.93245	6671.7125
2234.84058	6629.9125
2237.74686	6640.3125
2240.65128	6636.9125
2243.55385	6602.1125
2246.45456	6587.9125
2249.35343	6577.9125
2252.25044	6584.6125
2255.14561	6560.0125
2258.03893	6561.6125
2260.93041	6530.4125
2263.82004	6518.7125
2266.70783	6509.0125
2269.59378	6494.4125
2272.4779	6479.6125
2275.36017	6473.3125
2278.24061	6446.3125
2281.11922	6437.1125
2283.996	6427.6125
2286.87094	6429.6125
2289.74405	6391.6125
2292.61534	6383.1125
2295.4848	6367.6125
2298.35243	6381.3125
2301.21824	6342.8125
2304.08223	6366.3125
2306.94439	6354.0125
2309.80474	6344.8125
2312.66327	6341.4125
2315.51999	6319.1125
2318.37489	6311.6125
2321.22797	6288.6125
2324.07925	6310.9125
2326.92871	6278.4125
2329.77637	6284.8125
2332.62222	6251.7125
2335.46626	6253.0125
2338.3085	6246.2125
2341.14893	6241.7125
2343.98756	6239.2125
2346.8244	6209.8125
2349.65943	6198.1125
2352.49267	6195.5125
2355.32411	6183.4125
2358.15376	6187.2125
2360.98161	6197.6125
2363.80768	6186.0125
2366.63195	6182.3125
2369.45444	6184.8125
2372.27514	6182.8125
2375.09405	6181.7125
2377.91118	6166.7125
2380.72652	6148.9125
2383.54009	6117.2125
2386.35187	6106.3125
2389.16188	6099.3125
2391.97011	6072.9125
2394.77657	6074.7125
2397.58125	6046.7125
2400.38416	6043.0125
2403.18529	6043.1125
2405.98466	6009.6125
2408.78226	5996.1125
2411.57809	5992.0125
2414.37216	5970.9125
2417.16446	5974.8125
2419.955	5950.5125
2422.74378	5966.5125
2425.5308	5963.0125
2428.31606	5952.4125
2431.09956	5957.6125
2433.88131	5951.0125
2436.6613	5925.0125
2439.43954	5916.3125
2442.21603	5913.9125
2444.99077	5916.7125
2447.76377	5907.1125
2450.53501	5909.8125
2453.30451	5900.2125
2456.07226	5884.8125
2458.83827	5883.0125
2461.60254	5865.4125
2464.36507	5879.2125
2467.12586	5858.1125
2469.88492	5862.7125
2472.64224	5855.1125
2475.39782	5853.7125
2478.15167	5838.8125
2480.90379	5828.2125
2483.65417	5840.3125
2486.40283	5821.8125
2489.14976	5831.4125
2491.89497	5811.9125
2494.63845	5801.6125
2497.3802	5781.2125
2500.12024	5802.3125
2502.85855	5775.0125
2505.59514	5793.4125
2508.33002	5775.2125
2511.06318	5773.8125
2513.79462	5772.8125
2516.52435	5740.3125
2519.25237	5742.3125
2521.97867	5729.0125
2524.70327	5700.0125
2527.42616	5708.7125
2530.14734	5679.8125
2532.86681	5657.7125
2535.58458	5670.7125
2538.30065	5655.8125
2541.01501	5658.1125
2543.72768	5664.9125
2546.43864	5630.5125
2549.14791	5622.5125
2551.85548	5620.3125
2554.56136	5600.9125
2557.26554	5594.8125
2559.96803	5584.3125
2562.66883	5586.1125
2565.36794	5587.0125
2568.06536	5561.2125
2570.7611	5543.3125
2573.45514	5536.3125
2576.14751	5528.1125
2578.83819	5493.3125
2581.52719	5503.2125
2584.21451	5485.8125
2586.90015	5485.1125
2589.58411	5456.0125
2592.2664	5458.0125
2594.94701	5436.5125
2597.62594	5420.6125
2600.30321	5417.8125
2602.9788	5412.0125
2605.65273	5389.4125
2608.32498	5390.2125
2610.99557	5391.7125
2613.66449	5385.2125
2616.33175	5382.7125
2618.99734	5375.4125
2621.66128	5357.8125
2624.32355	5344.1125
2626.98416	5371.0125
2629.64311	5326.9125
2632.30041	5328.6125
2634.95605	5318.2125
2637.61004	5287.6125
2640.26238	5289.2125
2642.91306	5300.5125
2645.56209	5269.6125
2648.20948	5261.0125
2650.85521	5260.7125
2653.4993	5274.7125
2656.14175	5277.7125
2658.78255	5285.7125
2661.42171	5277.3125
2664.05923	5283.5125
2666.6951	5287.6125
2669.32934	5290.6125
2671.96194	5258.3125
2674.59291	5254.5125
2677.22224	5251.0125
2679.84993	5253.4125
2682.476	5242.4125
2685.10043	5259.5125
2687.72324	5244.9125
2690.34441	5237.6125
2692.96396	5237.5125
2695.58188	5245.1125
2698.19818	5248.9125
2700.81285	5248.8125
2703.4259	5251.2125
2706.03733	5193.7125
2708.64714	5209.2125
2711.25533	5224.1125
2713.86191	5215.5125
2716.46687	5240.3125
2719.07021	5226.9125
2721.67194	5238.8125
2724.27206	5233.9125
2726.87057	5243.1125
2729.46747	5235.3125
2732.06276	5227.0125
2734.65644	5231.1125
2737.24852	5222.9125
2739.83899	5211.2125
2742.42786	5201.8125
2745.01513	5191.2125
2747.60079	5172.1125
2750.18486	5182.3125
2752.76733	5170.3125
2755.3482	5167.8125
2757.92747	5152.6125
2760.50515	5154.8125
2763.08123	5156.8125
2765.65573	5140.1125
2768.22863	5137.5125
2770.79994	5139.2125
2773.36967	5098.0125
2775.9378	5114.0125
2778.50435	5084.6125
2781.06932	5113.9125
2783.6327	5100.3125
2786.1945	5082.1125
2788.75471	5074.6125
2791.31335	5051.0125
2793.87041	5060.4125
2796.42589	5037.8125
2798.97979	5036.7125
2801.53212	5049.8125
2804.08288	5035.7125
2806.63206	5011.9125
2809.17967	4985.0125
2811.72571	4997.5125
2814.27018	4987.5125
2816.81308	4970.2125
2819.35442	4969.0125
2821.89419	4983.8125
2824.43239	4961.8125
2826.96904	4936.1125
2829.50412	4960.7125
2832.03763	4947.9125
2834.56959	4947.3125
2837.1	4953.6125
2839.62884	4966.4125
2842.15613	4974.4125
2844.68186	5023.5125
2847.20604	5043.6125
2849.72867	5042.8125
2852.24974	5032.5125
2854.76927	5031.8125
2857.28724	5014.3125
2859.80367	5023.4125
2862.31855	5019.9125
2864.83189	5002.0125
2867.34368	4986.0125
2869.85393	4996.7125
2872.36264	4986.6125
2874.8698	5004.1125
2877.37543	4989.8125
2879.87952	4974.3125
2882.38207	4996.3125
2884.88308	4980.6125
2887.38256	4995.9125
2889.88051	4967.8125
2892.37692	4972.1125
2894.8718	4991.2125
2897.36515	4986.1125
2899.85698	5007.4125
2902.34727	5005.5125
2904.83604	5021.5125
2907.32328	5016.3125
2909.809	5023.6125
2912.29319	5044.6125
2914.77587	5038.7125
2917.25702	5025.3125
2919.73665	5033.9125
2922.21476	5025.8125
2924.69136	5035.8125
2927.16644	5032.3125
2929.64	5042.0125
2932.11205	5037.3125
2934.58258	5027.5125
2937.05161	5039.8125
2939.51912	5023.2125
2941.98513	5010.9125
2944.44962	5013.0125
2946.91261	4961.4125
2949.37409	4970.7125
2951.83407	4969.0125
2954.29254	4958.1125
2956.74951	4949.6125
2959.20498	4936.8125
2961.65895	4924.6125
2964.11142	4900.2125
2966.56239	4873.8125
2969.01186	4861.8125
2971.45984	4840.7125
2973.90632	4840.0125
2976.35131	4830.8125
2978.7948	4801.8125
2981.23681	4804.0125
2983.67732	4802.6125
2986.11635	4766.1125
2988.55388	4755.0125
2990.98993	4756.8125
2993.4245	4733.2125
2995.85758	4725.1125
2998.28917	4717.6125
3000.71928	4702.3125
3003.14791	4672.4125
3005.57506	4686.4125
3008.00073	4663.7125
3010.42493	4668.4125
3012.84764	4672.5125
3015.26888	4658.2125
3017.68865	4653.5125
3020.10694	4652.8125
3022.52376	4633.7125
3024.9391	4616.9125
3027.35298	4630.3125
3029.76539	4616.4125
3032.17632	4582.7125
3034.5858	4588.0125
3036.9938	4578.2125
3039.40034	4576.3125
3041.80542	4578.0125
3044.20903	4567.0125
3046.61118	4559.6125
3049.01187	4537.0125
3051.4111	4553.5125
3053.80888	4537.3125
3056.20519	4518.7125
3058.60005	4522.8125
3060.99345	4513.5125
3063.3854	4507.2125
3065.7759	4494.4125
3068.16494	4482.2125
3070.55254	4471.8125
3072.93868	4471.7125
3075.32338	4467.8125
3077.70662	4472.4125
3080.08842	4458.7125
3082.46878	4446.1125
