Data from AgNPs_FTO_APTES_UA_1uM_CRN_10uM_R6G_20uM_NaF_0.1M_Addition_RamanShift__2__15-00-09-671.txt Node

Date: Thu Jan 27 15:00:09 GMT 2022
User: TCL
Spectrometer: QEP01345
Trigger mode: 4
Integration Time (sec): 7.000000E0
Scans to average: 10
Electric dark correction enabled: true
Nonlinearity correction enabled: false
Boxcar width: 0
XAxis mode: Raman Shifts
Number of Pixels in Spectrum: 1044
>>>>>Begin Spectral Data<<<<<
46.04893	0.725
50.45542	0.025
54.85868	-0.675
59.25871	-0.475
63.6555	50.025
68.04907	51.425
72.43941	57.125
76.82654	57.825
81.21044	58.025
85.59113	60.125
89.96862	66.325
94.34289	64.325
98.71396	67.725
103.08183	67.125
107.4465	70.425
111.80798	74.425
116.16626	70.625
120.52136	80.525
124.87327	79.725
129.222	79.025
133.56755	88.625
137.90993	89.725
142.24913	96.925
146.58517	106.525
150.91804	121.725
155.24774	144.025
159.57429	171.125
163.89768	221.625
168.21792	290.625
172.53501	391.925
176.84895	534.425
181.15975	750.025
185.46741	1042.625
189.77193	1432.325
194.07331	1916.325
198.37157	2485.125
202.6667	3060.925
206.9587	3632.525
211.24758	4210.425
215.53334	4769.225
219.81599	5379.525
224.09553	6037.425
228.37195	6766.025
232.64527	7579.325
236.91549	8426.625
241.18261	9270.725
245.44663	10085.925
249.70755	10789.225
253.96539	11427.325
258.22014	11985.725
262.4718	12392.825
266.72039	12712.025
270.96589	12879.625
275.20832	12872.425
279.44768	12808.525
283.68397	12671.825
287.91719	12569.525
292.14735	12466.925
296.37445	12431.025
300.59849	12478.725
304.81948	12550.625
309.03742	12566.125
313.25231	12517.625
317.46415	12307.525
321.67296	12073.525
325.87872	11876.525
330.08145	11786.525
334.28114	11769.125
338.47781	11799.825
342.67145	11978.225
346.86207	12153.725
351.04966	12374.025
355.23424	12601.325
359.4158	12843.525
363.59435	12976.525
367.76989	13102.425
371.94243	13194.625
376.11196	13256.225
380.27849	13357.025
384.44203	13433.125
388.60257	13520.525
392.76012	13626.325
396.91468	13783.225
401.06626	13978.825
405.21485	14103.925
409.36047	14103.225
413.50311	13943.525
417.64277	13887.225
421.77947	13877.325
425.9132	13936.125
430.04396	14012.425
434.17176	14099.225
438.2966	14189.325
442.41849	14372.125
446.53742	14746.025
450.6534	15183.225
454.76644	15439.925
458.87653	15517.325
462.98368	15407.625
467.08789	15205.525
471.18916	14952.525
475.2875	14701.025
479.38291	14512.125
483.4754	14424.825
487.56496	14310.825
491.6516	14140.925
495.73531	14032.125
499.81612	14025.725
503.89401	14116.425
507.96899	14176.825
512.04106	14130.925
516.11023	14016.825
520.1765	13929.225
524.23987	13838.825
528.30034	13773.925
532.35792	13670.825
536.41261	13529.425
540.46441	13356.925
544.51333	13390.625
548.55936	13469.725
552.60252	13694.625
556.64279	14007.625
560.6802	14205.325
564.71473	14277.025
568.7464	14388.425
572.7752	14639.025
576.80114	14979.625
580.82422	15305.225
584.84444	15825.925
588.86181	16462.225
592.87633	16989.525
596.888	16987.625
600.89682	16434.825
604.9028	16358.825
608.90594	17285.125
612.90624	18435.525
616.90371	17571.025
620.89834	15210.325
624.89015	14122.325
628.87913	13967.725
632.86528	13964.125
636.84862	13889.325
640.82913	13666.425
644.80683	13395.825
648.78172	13218.725
652.75379	13231.425
656.72306	13367.425
660.68952	13534.525
664.65319	13490.225
668.61405	13278.625
672.57211	13285.125
676.52738	13321.425
680.47986	13302.325
684.42955	13239.125
688.37646	13182.725
692.32058	13250.125
696.26192	13440.625
700.20048	13638.025
704.13626	13721.325
708.06928	13650.225
711.99952	13560.925
715.927	13574.725
719.85171	13645.125
723.77365	13637.725
727.69284	13456.325
731.60928	13273.825
735.52295	13223.525
739.43388	13230.825
743.34206	13247.525
747.24749	13365.625
751.15017	13455.225
755.05012	13618.325
758.94733	13947.825
762.8418	14468.625
766.73354	15304.525
770.62254	16083.725
774.50882	16264.725
778.39237	15719.225
782.27321	14862.725
786.15132	14089.425
790.02671	13651.925
793.89938	13468.425
797.76935	13386.925
801.6366	13362.825
805.50115	13334.125
809.36299	13247.525
813.22213	13147.825
817.07857	13106.425
820.93231	13040.325
824.78336	13032.325
828.63172	13004.325
832.47738	13023.225
836.32036	13051.425
840.16066	13102.525
843.99827	13173.225
847.8332	13139.025
851.66546	13055.125
855.49504	13043.925
859.32195	13033.525
863.1462	12980.425
866.96777	12960.625
870.78668	12907.925
874.60293	12954.725
878.41652	12963.425
882.22745	13005.625
886.03573	13054.025
889.84136	13043.225
893.64433	12993.825
897.44466	12933.825
901.24235	12876.425
905.0374	12829.125
908.8298	12834.425
912.61957	12832.125
916.40671	12948.925
920.19121	13126.025
923.97308	13274.625
927.75233	13345.225
931.52895	13288.125
935.30295	13175.925
939.07433	12970.825
942.84309	12850.125
946.60924	12769.925
950.37278	12732.125
954.13371	12689.325
957.89203	12631.425
961.64774	12588.825
965.40086	12604.125
969.15137	12566.025
972.89929	12554.625
976.64461	12545.525
980.38733	12558.025
984.12747	12637.025
987.86502	12748.125
991.59999	12886.325
995.33237	13121.125
999.06217	13451.725
1002.78939	13874.925
1006.51404	14115.825
1010.23611	14259.825
1013.95561	14361.325
1017.67255	14359.525
1021.38692	14228.825
1025.09872	14052.725
1028.80796	14142.225
1032.51465	14611.225
1036.21877	15041.425
1039.92035	15137.925
1043.61937	14986.025
1047.31584	14611.225
1051.00976	14181.725
1054.70114	13948.525
1058.38998	13864.025
1062.07627	13880.825
1065.76003	13906.825
1069.44126	13995.725
1073.11995	14168.025
1076.79611	14341.925
1080.46974	14489.725
1084.14085	14564.625
1087.80943	14650.325
1091.47549	14724.825
1095.13903	14738.925
1098.80005	14523.625
1102.45857	14294.425
1106.11456	14105.825
1109.76805	14008.325
1113.41903	14014.125
1117.06751	14061.625
1120.71348	14135.325
1124.35696	14262.225
1127.99793	14386.225
1131.63641	14494.925
1135.2724	14409.525
1138.90589	14334.025
1142.5369	14347.525
1146.16542	14374.125
1149.79145	14409.725
1153.415	14507.525
1157.03607	14640.025
1160.65467	14975.825
1164.27079	15571.325
1167.88443	16297.625
1171.49561	17067.925
1175.10432	18085.525
1178.71056	19360.525
1182.31434	20612.425
1185.91565	21255.925
1189.51451	21169.625
1193.11091	20636.925
1196.70485	19906.025
1200.29634	19250.325
1203.88538	18772.625
1207.47197	18503.925
1211.05612	18210.825
1214.63782	17898.025
1218.21708	17496.025
1221.79391	17240.925
1225.36829	17031.525
1228.94024	16844.525
1232.50976	16544.825
1236.07685	16272.025
1239.6415	16140.325
1243.20374	16153.825
1246.76355	16279.725
1250.32093	16559.025
1253.8759	16860.625
1257.42845	17316.525
1260.97859	17760.525
1264.52631	18221.925
1268.07163	18723.325
1271.61453	19306.725
1275.15503	19853.525
1278.69312	20438.325
1282.22882	20890.725
1285.76211	21352.725
1289.29301	21928.525
1292.82151	22663.025
1296.34761	23761.425
1299.87133	25136.925
1303.39266	26666.525
1306.9116	28228.025
1310.42815	29341.125
1313.94233	29739.625
1317.45412	29309.025
1320.96354	28498.625
1324.47058	27691.325
1327.97525	27112.625
1331.47754	26714.225
1334.97747	26450.325
1338.47502	26252.525
1341.97022	25847.625
1345.46305	25432.025
1348.95352	25140.425
1352.44163	25289.525
1355.92738	26080.125
1359.41078	27449.125
1362.89183	28427.325
1366.37053	28054.925
1369.84688	25949.325
1373.32088	23295.625
1376.79254	21399.525
1380.26186	20670.625
1383.72883	20639.325
1387.19347	20614.025
1390.65578	20337.325
1394.11575	20160.825
1397.57339	20263.525
1401.0287	20527.725
1404.48168	20836.325
1407.93234	20873.125
1411.38068	20704.425
1414.82669	20245.425
1418.27039	19645.725
1421.71177	19003.025
1425.15083	18406.225
1428.58758	18119.825
1432.02203	18282.625
1435.45416	18715.325
1438.88399	19232.725
1442.31151	19605.225
1445.73673	19808.225
1449.15965	19922.325
1452.58027	19864.525
1455.9986	19742.325
1459.41463	19729.425
1462.82837	19931.425
1466.23982	20324.125
1469.64898	20735.025
1473.05586	21063.625
1476.46045	21157.225
1479.86276	21148.825
1483.26279	20960.125
1486.66054	20876.325
1490.05602	20869.125
1493.44922	21065.325
1496.84016	21189.225
1500.22882	21395.825
1503.61521	21787.425
1506.99934	22309.525
1510.38121	22804.825
1513.76081	22949.825
1517.13816	22513.725
1520.51324	21822.125
1523.88607	21230.225
1527.25665	20931.325
1530.62498	20896.825
1533.99105	20842.625
1537.35488	20673.725
1540.71647	20360.125
1544.07581	19986.725
1547.4329	19572.625
1550.78776	19208.125
1554.14038	18941.725
1557.49077	18761.525
1560.83892	18668.325
1564.18484	18591.225
1567.52853	18624.025
1570.86999	18736.825
1574.20922	19002.625
1577.54624	19257.125
1580.88103	19375.325
1584.2136	19573.925
1587.54395	20175.225
1590.87208	21227.225
1594.19801	22588.525
1597.52172	23838.825
1600.84321	24239.025
1604.16251	23287.125
1607.47959	21438.625
1610.79447	19576.625
1614.10715	17905.925
1617.41763	16668.225
1620.7259	15870.725
1624.03199	15506.925
1627.33587	15579.725
1630.63757	15959.325
1633.93707	16844.525
1637.23439	18193.525
1640.52951	20193.825
1643.82246	22537.625
1647.11321	24473.025
1650.40179	24799.925
1653.68819	23051.925
1656.97241	20163.325
1660.25446	17441.425
1663.53433	15504.125
1666.81203	14323.225
1670.08756	13593.725
1673.36092	13144.925
1676.63211	12896.325
1679.90115	12645.625
1683.16801	12472.425
1686.43272	12370.225
1689.69527	12267.325
1692.95567	12160.925
1696.2139	12125.125
1699.46999	12065.025
1702.72392	11993.725
1705.97571	12036.125
1709.22535	12036.025
1712.47284	12035.725
1715.71819	12062.725
1718.96139	12032.425
1722.20246	12022.425
1725.44139	11950.425
1728.67818	11925.225
1731.91284	11860.025
1735.14537	11812.425
1738.37576	11769.925
1741.60403	11709.525
1744.83017	11668.225
1748.05418	11659.425
1751.27607	11604.425
1754.49584	11614.525
1757.71349	11568.625
1760.92903	11559.825
1764.14244	11545.025
1767.35375	11537.725
1770.56294	11527.625
1773.77002	11514.825
1776.97499	11520.625
1780.17785	11551.325
1783.37861	11553.825
1786.57727	11527.225
1789.77382	11535.125
1792.96828	11530.325
1796.16064	11483.525
1799.3509	11465.925
1802.53907	11458.125
1805.72514	11415.325
1808.90913	11426.125
1812.09102	11394.325
1815.27083	11374.925
1818.44856	11357.525
1821.6242	11333.925
1824.79776	11334.225
1827.96924	11329.225
1831.13864	11304.925
1834.30597	11346.625
1837.47122	11318.425
1840.6344	11315.825
1843.7955	11289.525
1846.95454	11311.525
1850.11151	11309.025
1853.26642	11325.325
1856.41926	11308.225
1859.57004	11344.925
1862.71876	11297.625
1865.86542	11291.225
1869.01003	11284.425
1872.15258	11272.825
1875.29308	11244.225
1878.43152	11246.725
1881.56792	11235.925
1884.70227	11251.225
1887.83457	11218.325
1890.96482	11190.325
1894.09304	11212.625
1897.21921	11191.125
1900.34335	11180.625
1903.46544	11193.425
1906.58551	11180.425
1909.70353	11157.425
1912.81953	11145.625
1915.93349	11132.425
1919.04543	11097.525
1922.15534	11094.725
1925.26322	11086.825
1928.36908	11054.725
1931.47292	11033.625
1934.57473	11001.325
1937.67453	10999.125
1940.77232	10966.625
1943.86808	10952.325
1946.96184	10914.525
1950.05358	10886.825
1953.14331	10859.825
1956.23103	10816.425
1959.31675	10804.725
1962.40046	10789.825
1965.48217	10778.025
1968.56188	10722.125
1971.63959	10714.925
1974.7153	10673.825
1977.78901	10665.325
1980.86073	10604.325
1983.93046	10618.225
1986.99819	10569.125
1990.06394	10513.525
1993.1277	10516.325
1996.18947	10472.925
1999.24925	10441.325
2002.30706	10410.325
2005.36288	10375.725
2008.41672	10380.725
2011.46859	10344.325
2014.51848	10311.725
2017.56639	10287.925
2020.61233	10285.925
2023.6563	10292.925
2026.6983	10250.825
2029.73833	10242.425
2032.7764	10211.825
2035.8125	10242.325
2038.84664	10206.025
2041.87881	10192.625
2044.90903	10170.725
2047.93729	10167.625
2050.96359	10123.725
2053.98794	10141.625
2057.01034	10106.125
2060.03078	10132.525
2063.04927	10125.025
2066.06582	10126.425
2069.08042	10111.825
2072.09307	10096.025
2075.10378	10094.725
2078.11255	10103.725
2081.11938	10091.025
2084.12426	10093.025
2087.12722	10086.225
2090.12824	10087.825
2093.12732	10083.325
2096.12447	10074.825
2099.11969	10094.925
2102.11299	10079.825
2105.10435	10109.125
2108.09379	10117.425
2111.08131	10136.825
2114.0669	10116.325
2117.05057	10157.025
2120.03233	10144.525
2123.01216	10147.025
2125.99008	10178.625
2128.96609	10163.325
2131.94018	10199.125
2134.91236	10195.425
2137.88263	10187.925
2140.851	10234.025
2143.81746	10241.525
2146.78201	10216.625
2149.74466	10236.025
2152.7054	10240.525
2155.66425	10235.425
2158.6212	10274.725
2161.57625	10225.425
2164.52941	10248.425
2167.48067	10223.325
2170.43004	10216.525
2173.37752	10248.125
2176.32311	10256.925
2179.26681	10251.525
2182.20863	10251.025
2185.14856	10244.725
2188.08661	10266.825
2191.02278	10278.625
2193.95707	10269.425
2196.88948	10283.025
2199.82001	10269.825
2202.74867	10274.525
2205.67545	10278.925
2208.60037	10242.025
2211.52341	10231.425
2214.44458	10230.025
2217.36388	10212.725
2220.28132	10208.825
2223.1969	10180.125
2226.11061	10188.425
2229.02246	10163.625
2231.93245	10161.425
2234.84058	10137.825
2237.74686	10127.625
2240.65128	10108.725
2243.55385	10119.425
2246.45456	10088.925
2249.35343	10067.825
2252.25044	10056.925
2255.14561	10063.725
2258.03893	10051.125
2260.93041	10000.225
2263.82004	9995.725
2266.70783	9998.325
2269.59378	9958.125
2272.4779	9927.025
2275.36017	9945.425
2278.24061	9924.325
2281.11922	9909.325
2283.996	9914.325
2286.87094	9901.225
2289.74405	9879.625
2292.61534	9878.125
2295.4848	9878.325
2298.35243	9876.225
2301.21824	9900.925
2304.08223	9900.925
2306.94439	9923.425
2309.80474	9891.425
2312.66327	9911.725
2315.51999	9918.225
2318.37489	9898.625
2321.22797	9898.625
2324.07925	9916.125
2326.92871	9881.425
2329.77637	9871.325
2332.62222	9883.025
2335.46626	9874.125
2338.3085	9853.325
2341.14893	9850.925
2343.98756	9866.225
2346.8244	9856.125
2349.65943	9852.025
2352.49267	9829.325
2355.32411	9846.625
2358.15376	9820.225
2360.98161	9825.825
2363.80768	9833.625
2366.63195	9810.525
2369.45444	9814.525
2372.27514	9784.425
2375.09405	9778.025
2377.91118	9772.225
2380.72652	9750.725
2383.54009	9712.925
2386.35187	9740.425
2389.16188	9715.625
2391.97011	9710.425
2394.77657	9701.825
2397.58125	9675.025
2400.38416	9696.425
2403.18529	9643.725
2405.98466	9629.825
2408.78226	9626.825
2411.57809	9614.625
2414.37216	9593.125
2417.16446	9613.425
2419.955	9574.525
2422.74378	9592.325
2425.5308	9592.425
2428.31606	9593.525
2431.09956	9589.225
2433.88131	9578.825
2436.6613	9581.725
2439.43954	9565.625
2442.21603	9578.125
2444.99077	9577.725
2447.76377	9572.225
2450.53501	9574.425
2453.30451	9550.925
2456.07226	9535.825
2458.83827	9543.325
2461.60254	9553.625
2464.36507	9556.525
2467.12586	9535.525
2469.88492	9550.625
2472.64224	9572.225
2475.39782	9562.525
2478.15167	9559.825
2480.90379	9563.825
2483.65417	9581.825
2486.40283	9595.925
2489.14976	9597.725
2491.89497	9610.025
2494.63845	9600.725
2497.3802	9606.325
2500.12024	9585.725
2502.85855	9586.425
2505.59514	9574.825
2508.33002	9565.925
2511.06318	9571.425
2513.79462	9564.725
2516.52435	9556.425
2519.25237	9571.125
2521.97867	9560.425
2524.70327	9544.625
2527.42616	9550.725
2530.14734	9521.125
2532.86681	9540.625
2535.58458	9516.325
2538.30065	9500.725
2541.01501	9504.825
2543.72768	9505.025
2546.43864	9497.225
2549.14791	9492.625
2551.85548	9501.925
2554.56136	9523.025
2557.26554	9470.225
2559.96803	9476.825
2562.66883	9488.725
2565.36794	9471.825
2568.06536	9472.325
2570.7611	9470.925
2573.45514	9474.125
2576.14751	9469.925
2578.83819	9474.825
2581.52719	9438.525
2584.21451	9452.725
2586.90015	9435.025
2589.58411	9414.725
2592.2664	9427.925
2594.94701	9422.225
2597.62594	9418.925
2600.30321	9416.225
2602.9788	9416.525
2605.65273	9409.025
2608.32498	9399.625
2610.99557	9413.525
2613.66449	9415.925
2616.33175	9399.425
2618.99734	9410.525
2621.66128	9421.925
2624.32355	9388.325
2626.98416	9396.725
2629.64311	9397.625
2632.30041	9410.425
2634.95605	9378.225
2637.61004	9374.125
2640.26238	9341.025
2642.91306	9357.925
2645.56209	9361.725
2648.20948	9358.225
2650.85521	9346.825
2653.4993	9348.525
2656.14175	9347.025
2658.78255	9372.725
2661.42171	9377.825
2664.05923	9383.425
2666.6951	9410.025
2669.32934	9405.725
2671.96194	9397.625
2674.59291	9384.525
2677.22224	9424.325
2679.84993	9397.225
2682.476	9375.825
2685.10043	9377.825
2687.72324	9375.625
2690.34441	9349.525
2692.96396	9364.925
2695.58188	9377.825
2698.19818	9394.325
2700.81285	9394.525
2703.4259	9373.125
2706.03733	9384.925
2708.64714	9367.725
2711.25533	9399.425
2713.86191	9384.125
2716.46687	9425.725
2719.07021	9409.625
2721.67194	9421.825
2724.27206	9432.225
2726.87057	9461.225
2729.46747	9466.625
2732.06276	9467.225
2734.65644	9464.425
2737.24852	9452.125
2739.83899	9450.725
2742.42786	9469.425
2745.01513	9446.825
2747.60079	9443.825
2750.18486	9441.325
2752.76733	9438.925
2755.3482	9426.825
2757.92747	9442.525
2760.50515	9432.025
2763.08123	9436.125
2765.65573	9448.625
2768.22863	9420.025
2770.79994	9428.125
2773.36967	9417.725
2775.9378	9440.225
2778.50435	9420.025
2781.06932	9417.625
2783.6327	9410.625
2786.1945	9403.425
2788.75471	9403.225
2791.31335	9390.225
2793.87041	9379.125
2796.42589	9355.725
2798.97979	9370.425
2801.53212	9343.925
2804.08288	9340.425
2806.63206	9326.725
2809.17967	9298.725
2811.72571	9272.325
2814.27018	9265.325
2816.81308	9258.825
2819.35442	9248.025
2821.89419	9266.025
2824.43239	9242.625
2826.96904	9245.325
2829.50412	9229.825
2832.03763	9236.325
2834.56959	9221.425
2837.1	9217.625
2839.62884	9229.425
2842.15613	9216.525
2844.68186	9249.725
2847.20604	9251.225
2849.72867	9265.225
2852.24974	9225.925
2854.76927	9241.825
2857.28724	9216.025
2859.80367	9207.625
2862.31855	9190.225
2864.83189	9202.625
2867.34368	9177.125
2869.85393	9202.425
2872.36264	9182.425
2874.8698	9192.825
2877.37543	9180.525
2879.87952	9188.425
2882.38207	9199.025
2884.88308	9197.125
2887.38256	9201.425
2889.88051	9233.425
2892.37692	9202.725
2894.8718	9214.025
2897.36515	9230.325
2899.85698	9212.725
2902.34727	9255.025
2904.83604	9234.025
2907.32328	9255.625
2909.809	9274.925
2912.29319	9273.425
2914.77587	9275.225
2917.25702	9258.425
2919.73665	9236.625
2922.21476	9269.725
2924.69136	9260.125
2927.16644	9265.925
2929.64	9257.325
2932.11205	9251.425
2934.58258	9241.025
2937.05161	9270.525
2939.51912	9246.425
2941.98513	9235.125
2944.44962	9208.325
2946.91261	9184.125
2949.37409	9218.525
2951.83407	9197.725
2954.29254	9212.225
2956.74951	9177.625
2959.20498	9177.525
2961.65895	9187.325
2964.11142	9188.925
2966.56239	9168.425
2969.01186	9168.025
2971.45984	9151.325
2973.90632	9156.025
2976.35131	9139.525
2978.7948	9121.125
2981.23681	9116.425
2983.67732	9109.325
2986.11635	9091.925
2988.55388	9071.325
2990.98993	9044.625
2993.4245	9057.025
2995.85758	9031.225
2998.28917	9009.925
3000.71928	8993.925
3003.14791	8976.025
3005.57506	8976.425
3008.00073	8943.325
3010.42493	8956.225
3012.84764	8956.925
3015.26888	8978.525
3017.68865	8933.225
3020.10694	8919.425
3022.52376	8896.025
3024.9391	8895.625
3027.35298	8920.525
3029.76539	8906.825
3032.17632	8902.325
3034.5858	8883.025
3036.9938	8869.925
3039.40034	8886.525
3041.80542	8891.825
3044.20903	8867.225
3046.61118	8861.425
3049.01187	8842.725
3051.4111	8837.625
3053.80888	8855.825
3056.20519	8838.925
3058.60005	8804.725
3060.99345	8770.925
3063.3854	8763.225
3065.7759	8775.025
3068.16494	8750.425
3070.55254	8715.025
3072.93868	8696.025
3075.32338	8694.725
3077.70662	8706.425
3080.08842	8681.425
3082.46878	8695.125
3084.84769	8690.425
3087.22515	8670.325
3089.60118	8650.125
3091.97576	8676.525
3094.3489	8665.725
3096.72061	8673.625
3099.09087	8692.425
3101.4597	8688.325
3103.82709	8683.125
3106.19305	8664.725
3108.55757	8689.225
3110.92066	8644.625
3113.28232	8633.025
3115.64255	8648.225
3118.00134	8643.025
3120.35871	8614.725
3122.71466	8612.525
3125.06917	8602.225
3127.42226	8564.625
3129.77393	8585.925
3132.12417	8573.425
3134.47299	8599.525
3136.82039	8568.425
3139.16636	8581.125
3141.51092	8586.225
3143.85406	8605.425
3146.19579	8603.225
3148.53609	8617.925
3150.87499	8626.125
3153.21246	8636.725
3155.54853	8654.025
3157.88318	8628.625
3160.21642	8629.125
3162.54826	8647.925
3164.87868	8628.725
3167.2077	8641.725
3169.5353	8649.925
