Data from AgNPs_FTO_APTES_UA_1uM_CRN_5uM_R6G_10uM_NaF_0.1M_Addition_RamanShift__7__13-44-19-583.txt Node

Date: Thu Jan 27 13:44:19 GMT 2022
User: TCL
Spectrometer: QEP01345
Trigger mode: 4
Integration Time (sec): 7.000000E0
Scans to average: 10
Electric dark correction enabled: true
Nonlinearity correction enabled: false
Boxcar width: 0
XAxis mode: Raman Shifts
Number of Pixels in Spectrum: 1044
>>>>>Begin Spectral Data<<<<<
46.04893	1.8125
50.45542	0.3125
54.85868	-2.2875
59.25871	-0.4875
63.6555	54.5125
68.04907	53.4125
72.43941	58.0125
76.82654	61.8125
81.21044	64.7125
85.59113	64.8125
89.96862	69.6125
94.34289	73.0125
98.71396	75.7125
103.08183	76.4125
107.4465	81.1125
111.80798	82.5125
116.16626	81.0125
120.52136	85.1125
124.87327	85.9125
129.222	86.5125
133.56755	96.1125
137.90993	103.7125
142.24913	110.1125
146.58517	120.0125
150.91804	140.6125
155.24774	162.8125
159.57429	202.4125
163.89768	257.2125
168.21792	332.1125
172.53501	446.6125
176.84895	625.0125
181.15975	875.7125
185.46741	1219.8125
189.77193	1680.3125
194.07331	2247.2125
198.37157	2896.0125
202.6667	3590.0125
206.9587	4281.1125
211.24758	4928.4125
215.53334	5618.9125
219.81599	6293.9125
224.09553	7072.2125
228.37195	7932.7125
232.64527	8855.3125
236.91549	9875.1125
241.18261	10880.6125
245.44663	11815.8125
249.70755	12660.6125
253.96539	13429.6125
258.22014	14063.2125
262.4718	14609.5125
266.72039	14930.2125
270.96589	15099.3125
275.20832	15119.8125
279.44768	15023.9125
283.68397	14906.3125
287.91719	14711.8125
292.14735	14608.2125
296.37445	14582.8125
300.59849	14584.1125
304.81948	14633.7125
309.03742	14676.6125
313.25231	14582.8125
317.46415	14408.1125
321.67296	14151.9125
325.87872	13944.5125
330.08145	13826.5125
334.28114	13808.3125
338.47781	13878.7125
342.67145	14074.0125
346.86207	14268.9125
351.04966	14506.4125
355.23424	14783.9125
359.4158	15015.9125
363.59435	15195.1125
367.76989	15334.3125
371.94243	15422.9125
376.11196	15442.4125
380.27849	15516.2125
384.44203	15573.9125
388.60257	15698.1125
392.76012	15822.9125
396.91468	16056.3125
401.06626	16292.7125
405.21485	16422.5125
409.36047	16418.6125
413.50311	16231.9125
417.64277	16167.7125
421.77947	16219.5125
425.9132	16298.1125
430.04396	16418.5125
434.17176	16458.1125
438.2966	16503.6125
442.41849	16668.5125
446.53742	17009.0125
450.6534	17351.8125
454.76644	17635.0125
458.87653	17698.3125
462.98368	17624.3125
467.08789	17444.1125
471.18916	17232.6125
475.2875	16964.5125
479.38291	16779.7125
483.4754	16669.4125
487.56496	16552.2125
491.6516	16378.3125
495.73531	16249.6125
499.81612	16210.5125
503.89401	16337.3125
507.96899	16428.7125
512.04106	16449.7125
516.11023	16371.6125
520.1765	16267.9125
524.23987	16075.5125
528.30034	15967.9125
532.35792	15834.9125
536.41261	15682.6125
540.46441	15544.8125
544.51333	15507.4125
548.55936	15619.2125
552.60252	15856.1125
556.64279	16189.9125
560.6802	16402.3125
564.71473	16492.3125
568.7464	16599.7125
572.7752	16974.2125
576.80114	17390.5125
580.82422	17939.4125
584.84444	18658.7125
588.86181	19553.0125
592.87633	20265.4125
596.888	20188.0125
600.89682	19293.4125
604.9028	18868.9125
608.90594	19671.0125
612.90624	20772.5125
616.90371	19850.7125
620.89834	17314.5125
624.89015	16142.9125
628.87913	15991.3125
632.86528	16100.0125
636.84862	16098.8125
640.82913	15865.9125
644.80683	15562.4125
648.78172	15365.5125
652.75379	15400.8125
656.72306	15576.3125
660.68952	15727.7125
664.65319	15650.2125
668.61405	15444.9125
672.57211	15383.2125
676.52738	15457.5125
680.47986	15483.1125
684.42955	15403.2125
688.37646	15293.5125
692.32058	15383.6125
696.26192	15548.9125
700.20048	15738.7125
704.13626	15878.9125
708.06928	15851.1125
711.99952	15806.7125
715.927	15821.3125
719.85171	15854.5125
723.77365	15802.1125
727.69284	15599.9125
731.60928	15377.9125
735.52295	15284.6125
739.43388	15285.0125
743.34206	15361.5125
747.24749	15416.7125
751.15017	15567.8125
755.05012	15767.1125
758.94733	16126.2125
762.8418	16705.4125
766.73354	17603.6125
770.62254	18500.7125
774.50882	18632.1125
778.39237	18042.6125
782.27321	17092.1125
786.15132	16285.1125
790.02671	15762.6125
793.89938	15531.3125
797.76935	15403.7125
801.6366	15347.8125
805.50115	15304.8125
809.36299	15252.0125
813.22213	15150.1125
817.07857	15070.9125
820.93231	15013.4125
824.78336	14960.8125
828.63172	14940.0125
832.47738	14920.0125
836.32036	14894.4125
840.16066	14908.5125
843.99827	14902.4125
847.8332	14891.1125
851.66546	14898.8125
855.49504	14900.2125
859.32195	14905.4125
863.1462	14888.2125
866.96777	14836.8125
870.78668	14814.3125
874.60293	14872.1125
878.41652	14854.0125
882.22745	14884.0125
886.03573	14962.9125
889.84136	14964.0125
893.64433	14930.1125
897.44466	14849.6125
901.24235	14791.6125
905.0374	14749.8125
908.8298	14713.4125
912.61957	14756.3125
916.40671	14867.0125
920.19121	14978.2125
923.97308	15167.1125
927.75233	15192.3125
931.52895	15077.0125
935.30295	14932.2125
939.07433	14710.2125
942.84309	14516.3125
946.60924	14453.9125
950.37278	14410.4125
954.13371	14416.2125
957.89203	14401.3125
961.64774	14370.4125
965.40086	14385.7125
969.15137	14338.2125
972.89929	14287.8125
976.64461	14258.9125
980.38733	14251.3125
984.12747	14278.6125
987.86502	14341.7125
991.59999	14384.0125
995.33237	14552.8125
999.06217	14764.0125
1002.78939	15039.3125
1006.51404	15301.6125
1010.23611	15535.4125
1013.95561	15702.7125
1017.67255	15715.1125
1021.38692	15575.8125
1025.09872	15362.0125
1028.80796	15183.8125
1032.51465	15254.4125
1036.21877	15385.5125
1039.92035	15438.8125
1043.61937	15472.2125
1047.31584	15359.5125
1051.00976	15248.5125
1054.70114	15238.5125
1058.38998	15292.4125
1062.07627	15398.3125
1065.76003	15514.2125
1069.44126	15677.9125
1073.11995	15905.7125
1076.79611	16144.9125
1080.46974	16230.2125
1084.14085	16301.9125
1087.80943	16432.2125
1091.47549	16519.6125
1095.13903	16610.5125
1098.80005	16406.4125
1102.45857	16126.3125
1106.11456	15849.8125
1109.76805	15673.4125
1113.41903	15636.8125
1117.06751	15658.1125
1120.71348	15788.6125
1124.35696	15906.4125
1127.99793	16074.6125
1131.63641	16180.7125
1135.2724	16109.7125
1138.90589	16057.2125
1142.5369	16082.2125
1146.16542	16163.9125
1149.79145	16218.2125
1153.415	16287.1125
1157.03607	16429.3125
1160.65467	16792.8125
1164.27079	17433.3125
1167.88443	18192.2125
1171.49561	19010.4125
1175.10432	19902.1125
1178.71056	21084.1125
1182.31434	22291.8125
1185.91565	22902.9125
1189.51451	22894.2125
1193.11091	22462.2125
1196.70485	21839.7125
1200.29634	21216.4125
1203.88538	20699.5125
1207.47197	20466.5125
1211.05612	20252.5125
1214.63782	19950.7125
1218.21708	19489.2125
1221.79391	18970.8125
1225.36829	18621.7125
1228.94024	18436.8125
1232.50976	18221.4125
1236.07685	18077.7125
1239.6415	17949.0125
1243.20374	17934.5125
1246.76355	18051.3125
1250.32093	18292.1125
1253.8759	18593.9125
1257.42845	19024.7125
1260.97859	19490.4125
1264.52631	20015.5125
1268.07163	20507.1125
1271.61453	20926.7125
1275.15503	21409.0125
1278.69312	21883.5125
1282.22882	22406.6125
1285.76211	23054.0125
1289.29301	23794.7125
1292.82151	24676.6125
1296.34761	25794.2125
1299.87133	27143.1125
1303.39266	28517.5125
1306.9116	29753.3125
1310.42815	30645.0125
1313.94233	31078.4125
1317.45412	30784.0125
1320.96354	30166.0125
1324.47058	29618.8125
1327.97525	29314.7125
1331.47754	29135.2125
1334.97747	28977.0125
1338.47502	28770.3125
1341.97022	28463.2125
1345.46305	28085.5125
1348.95352	27905.3125
1352.44163	27933.3125
1355.92738	28547.8125
1359.41078	29624.9125
1362.89183	30632.4125
1366.37053	30344.5125
1369.84688	28360.1125
1373.32088	25568.0125
1376.79254	23447.6125
1380.26186	22623.6125
1383.72883	22616.6125
1387.19347	22601.6125
1390.65578	22326.8125
1394.11575	22164.2125
1397.57339	22191.5125
1401.0287	22482.0125
1404.48168	22823.6125
1407.93234	22887.7125
1411.38068	22595.7125
1414.82669	22053.2125
1418.27039	21344.1125
1421.71177	20592.5125
1425.15083	20050.2125
1428.58758	19771.4125
1432.02203	19927.7125
1435.45416	20400.8125
1438.88399	20976.9125
1442.31151	21362.9125
1445.73673	21545.1125
1449.15965	21585.0125
1452.58027	21495.6125
1455.9986	21420.6125
1459.41463	21429.8125
1462.82837	21704.6125
1466.23982	22098.3125
1469.64898	22481.3125
1473.05586	22743.2125
1476.46045	22831.8125
1479.86276	22760.6125
1483.26279	22572.6125
1486.66054	22468.7125
1490.05602	22541.1125
1493.44922	22777.4125
1496.84016	23046.0125
1500.22882	23441.1125
1503.61521	23973.7125
1506.99934	24592.8125
1510.38121	25046.5125
1513.76081	25153.2125
1517.13816	24740.6125
1520.51324	24099.4125
1523.88607	23561.9125
1527.25665	23381.2125
1530.62498	23327.4125
1533.99105	23186.8125
1537.35488	22901.2125
1540.71647	22419.9125
1544.07581	21921.1125
1547.4329	21349.6125
1550.78776	20895.6125
1554.14038	20615.9125
1557.49077	20420.0125
1560.83892	20317.3125
1564.18484	20250.8125
1567.52853	20261.7125
1570.86999	20416.5125
1574.20922	20733.7125
1577.54624	21008.8125
1580.88103	21119.4125
1584.2136	21312.2125
1587.54395	21879.7125
1590.87208	22904.9125
1594.19801	24204.5125
1597.52172	25441.6125
1600.84321	25819.2125
1604.16251	24757.9125
1607.47959	22890.7125
1610.79447	21030.1125
1614.10715	19385.4125
1617.41763	18075.7125
1620.7259	17210.8125
1624.03199	16762.6125
1627.33587	16732.4125
1630.63757	17126.2125
1633.93707	18060.5125
1637.23439	19659.5125
1640.52951	21988.0125
1643.82246	24813.2125
1647.11321	27078.1125
1650.40179	27539.2125
1653.68819	25566.5125
1656.97241	22262.4125
1660.25446	19227.6125
1663.53433	16994.5125
1666.81203	15660.9125
1670.08756	14812.1125
1673.36092	14274.5125
1676.63211	13953.5125
1679.90115	13728.5125
1683.16801	13551.6125
1686.43272	13399.7125
1689.69527	13282.0125
1692.95567	13170.2125
1696.2139	13093.6125
1699.46999	13042.4125
1702.72392	13002.3125
1705.97571	12983.7125
1709.22535	13004.0125
1712.47284	13008.2125
1715.71819	12988.5125
1718.96139	12960.5125
1722.20246	12938.6125
1725.44139	12887.7125
1728.67818	12858.5125
1731.91284	12753.8125
1735.14537	12688.5125
1738.37576	12616.1125
1741.60403	12593.9125
1744.83017	12555.8125
1748.05418	12479.6125
1751.27607	12468.0125
1754.49584	12432.6125
1757.71349	12429.3125
1760.92903	12406.7125
1764.14244	12364.9125
1767.35375	12354.5125
1770.56294	12352.9125
1773.77002	12357.8125
1776.97499	12336.9125
1780.17785	12322.5125
1783.37861	12344.5125
1786.57727	12337.4125
1789.77382	12341.1125
1792.96828	12284.8125
1796.16064	12261.8125
1799.3509	12195.9125
1802.53907	12222.2125
1805.72514	12189.8125
1808.90913	12143.5125
1812.09102	12142.5125
1815.27083	12090.7125
1818.44856	12083.6125
1821.6242	12078.5125
1824.79776	12043.4125
1827.96924	12043.3125
1831.13864	12028.4125
1834.30597	12055.9125
1837.47122	12049.5125
1840.6344	12024.2125
1843.7955	12032.8125
1846.95454	11992.8125
1850.11151	12008.4125
1853.26642	12014.4125
1856.41926	12019.5125
1859.57004	12016.4125
1862.71876	12002.2125
1865.86542	11988.9125
1869.01003	11944.2125
1872.15258	11901.7125
1875.29308	11902.4125
1878.43152	11887.0125
1881.56792	11893.0125
1884.70227	11861.5125
1887.83457	11835.3125
1890.96482	11838.3125
1894.09304	11820.2125
1897.21921	11809.0125
1900.34335	11776.6125
1903.46544	11768.2125
1906.58551	11747.4125
1909.70353	11738.9125
1912.81953	11745.1125
1915.93349	11709.3125
1919.04543	11666.7125
1922.15534	11664.2125
1925.26322	11637.3125
1928.36908	11610.4125
1931.47292	11607.4125
1934.57473	11560.1125
1937.67453	11541.7125
1940.77232	11498.0125
1943.86808	11462.9125
1946.96184	11410.4125
1950.05358	11400.8125
1953.14331	11374.5125
1956.23103	11338.0125
1959.31675	11303.8125
1962.40046	11302.3125
1965.48217	11274.2125
1968.56188	11237.2125
1971.63959	11187.9125
1974.7153	11155.8125
1977.78901	11114.3125
1980.86073	11093.0125
1983.93046	11059.7125
1986.99819	11019.7125
1990.06394	10986.6125
1993.1277	10977.3125
1996.18947	10918.0125
1999.24925	10900.9125
2002.30706	10861.0125
2005.36288	10840.2125
2008.41672	10796.5125
2011.46859	10767.1125
2014.51848	10759.4125
2017.56639	10729.0125
2020.61233	10704.5125
2023.6563	10691.7125
2026.6983	10658.9125
2029.73833	10605.2125
2032.7764	10582.2125
2035.8125	10579.1125
2038.84664	10544.7125
2041.87881	10572.6125
2044.90903	10526.3125
2047.93729	10483.3125
2050.96359	10476.7125
2053.98794	10501.8125
2057.01034	10449.7125
2060.03078	10465.1125
2063.04927	10431.5125
2066.06582	10444.5125
2069.08042	10452.6125
2072.09307	10447.2125
2075.10378	10418.8125
2078.11255	10411.9125
2081.11938	10387.6125
2084.12426	10394.8125
2087.12722	10408.0125
2090.12824	10411.7125
2093.12732	10407.5125
2096.12447	10401.7125
2099.11969	10406.8125
2102.11299	10404.0125
2105.10435	10425.4125
2108.09379	10422.2125
2111.08131	10439.5125
2114.0669	10435.6125
2117.05057	10413.4125
2120.03233	10424.8125
2123.01216	10447.3125
2125.99008	10461.9125
2128.96609	10450.5125
2131.94018	10488.2125
2134.91236	10453.6125
2137.88263	10471.3125
2140.851	10464.7125
2143.81746	10508.7125
2146.78201	10494.3125
2149.74466	10486.5125
2152.7054	10483.8125
2155.66425	10487.6125
2158.6212	10488.2125
2161.57625	10460.0125
2164.52941	10476.4125
2167.48067	10444.6125
2170.43004	10471.8125
2173.37752	10444.8125
2176.32311	10457.0125
2179.26681	10451.4125
2182.20863	10451.7125
2185.14856	10442.7125
2188.08661	10488.0125
2191.02278	10462.1125
2193.95707	10457.3125
2196.88948	10441.6125
2199.82001	10432.4125
2202.74867	10433.2125
2205.67545	10424.6125
2208.60037	10396.0125
2211.52341	10387.8125
2214.44458	10371.5125
2217.36388	10366.1125
2220.28132	10308.2125
2223.1969	10304.1125
2226.11061	10287.2125
2229.02246	10298.4125
2231.93245	10276.8125
2234.84058	10238.5125
2237.74686	10235.2125
2240.65128	10253.9125
2243.55385	10225.3125
2246.45456	10216.4125
2249.35343	10194.2125
2252.25044	10152.3125
2255.14561	10153.5125
2258.03893	10123.3125
2260.93041	10118.5125
2263.82004	10094.5125
2266.70783	10051.9125
2269.59378	10046.1125
2272.4779	10012.5125
2275.36017	9988.6125
2278.24061	9997.1125
2281.11922	9970.6125
2283.996	9961.5125
2286.87094	9941.7125
2289.74405	9912.4125
2292.61534	9920.4125
2295.4848	9874.2125
2298.35243	9902.3125
2301.21824	9907.6125
2304.08223	9896.4125
2306.94439	9886.4125
2309.80474	9888.7125
2312.66327	9875.9125
2315.51999	9878.5125
2318.37489	9867.9125
2321.22797	9847.4125
2324.07925	9834.3125
2326.92871	9816.6125
2329.77637	9834.0125
2332.62222	9805.8125
2335.46626	9791.1125
2338.3085	9748.2125
2341.14893	9738.4125
2343.98756	9772.1125
2346.8244	9748.9125
2349.65943	9756.8125
2352.49267	9744.9125
2355.32411	9734.6125
2358.15376	9741.8125
2360.98161	9752.5125
2363.80768	9725.8125
2366.63195	9726.2125
2369.45444	9708.5125
2372.27514	9683.2125
2375.09405	9700.2125
2377.91118	9669.2125
2380.72652	9660.9125
2383.54009	9628.0125
2386.35187	9597.1125
2389.16188	9571.4125
2391.97011	9559.3125
2394.77657	9567.3125
2397.58125	9548.4125
2400.38416	9525.8125
2403.18529	9533.2125
2405.98466	9503.5125
2408.78226	9486.5125
2411.57809	9491.0125
2414.37216	9468.8125
2417.16446	9469.4125
2419.955	9457.7125
2422.74378	9470.8125
2425.5308	9443.5125
2428.31606	9456.8125
2431.09956	9421.4125
2433.88131	9415.4125
2436.6613	9427.3125
2439.43954	9436.4125
2442.21603	9417.3125
2444.99077	9378.0125
2447.76377	9415.8125
2450.53501	9397.1125
2453.30451	9397.4125
2456.07226	9380.0125
2458.83827	9356.9125
2461.60254	9362.4125
2464.36507	9362.3125
2467.12586	9347.0125
2469.88492	9346.2125
2472.64224	9362.4125
2475.39782	9336.5125
2478.15167	9346.8125
2480.90379	9344.6125
2483.65417	9367.1125
2486.40283	9355.0125
2489.14976	9330.5125
2491.89497	9331.1125
2494.63845	9348.3125
2497.3802	9327.4125
2500.12024	9333.1125
2502.85855	9316.8125
2505.59514	9321.0125
2508.33002	9317.5125
2511.06318	9307.1125
2513.79462	9275.7125
2516.52435	9289.2125
2519.25237	9296.7125
2521.97867	9269.1125
2524.70327	9250.1125
2527.42616	9258.3125
2530.14734	9250.8125
2532.86681	9229.3125
2535.58458	9220.0125
2538.30065	9207.5125
2541.01501	9218.5125
2543.72768	9205.8125
2546.43864	9176.7125
2549.14791	9185.2125
2551.85548	9179.5125
2554.56136	9160.4125
2557.26554	9155.6125
2559.96803	9126.9125
2562.66883	9127.2125
2565.36794	9154.4125
2568.06536	9110.0125
2570.7611	9103.6125
2573.45514	9088.7125
2576.14751	9070.9125
2578.83819	9086.5125
2581.52719	9072.3125
2584.21451	9039.6125
2586.90015	9032.4125
2589.58411	9025.6125
2592.2664	9024.0125
2594.94701	8995.9125
2597.62594	9012.9125
2600.30321	8995.0125
2602.9788	8973.6125
2605.65273	8991.6125
2608.32498	8980.5125
2610.99557	8972.3125
2613.66449	8986.5125
2616.33175	8964.0125
2618.99734	8948.7125
2621.66128	8965.0125
2624.32355	8952.2125
2626.98416	8932.7125
2629.64311	8918.3125
2632.30041	8920.6125
2634.95605	8906.7125
2637.61004	8886.8125
2640.26238	8869.8125
2642.91306	8884.2125
2645.56209	8864.5125
2648.20948	8860.4125
2650.85521	8861.7125
2653.4993	8908.9125
2656.14175	8869.7125
2658.78255	8855.3125
2661.42171	8875.6125
2664.05923	8902.0125
2666.6951	8907.0125
2669.32934	8913.3125
2671.96194	8865.1125
2674.59291	8898.9125
2677.22224	8888.3125
2679.84993	8889.3125
2682.476	8862.6125
2685.10043	8883.7125
2687.72324	8862.5125
2690.34441	8870.5125
2692.96396	8851.6125
2695.58188	8878.7125
2698.19818	8851.3125
2700.81285	8864.4125
2703.4259	8863.3125
2706.03733	8832.2125
2708.64714	8846.7125
2711.25533	8856.4125
2713.86191	8866.9125
2716.46687	8890.1125
2719.07021	8886.3125
2721.67194	8910.2125
2724.27206	8887.7125
2726.87057	8902.5125
2729.46747	8925.6125
2732.06276	8923.8125
2734.65644	8919.1125
2737.24852	8883.6125
2739.83899	8881.8125
2742.42786	8908.6125
2745.01513	8873.8125
2747.60079	8869.5125
2750.18486	8853.8125
2752.76733	8875.1125
2755.3482	8833.3125
2757.92747	8872.2125
2760.50515	8840.2125
2763.08123	8819.6125
2765.65573	8805.8125
2768.22863	8822.5125
2770.79994	8815.7125
2773.36967	8805.4125
2775.9378	8814.6125
2778.50435	8794.6125
2781.06932	8794.6125
2783.6327	8775.9125
2786.1945	8775.7125
2788.75471	8764.2125
2791.31335	8735.1125
2793.87041	8743.1125
2796.42589	8734.1125
2798.97979	8747.2125
2801.53212	8711.9125
2804.08288	8711.2125
2806.63206	8648.7125
2809.17967	8639.1125
2811.72571	8622.5125
2814.27018	8619.0125
2816.81308	8620.0125
2819.35442	8594.0125
2821.89419	8600.3125
2824.43239	8582.3125
2826.96904	8552.5125
2829.50412	8561.6125
2832.03763	8553.2125
2834.56959	8517.7125
2837.1	8532.1125
2839.62884	8507.4125
2842.15613	8522.7125
2844.68186	8529.8125
2847.20604	8544.4125
2849.72867	8558.4125
2852.24974	8556.4125
2854.76927	8537.6125
2857.28724	8523.3125
2859.80367	8519.9125
2862.31855	8494.0125
2864.83189	8488.6125
2867.34368	8492.6125
2869.85393	8474.8125
2872.36264	8463.0125
2874.8698	8450.8125
2877.37543	8461.8125
2879.87952	8451.6125
2882.38207	8452.0125
2884.88308	8421.4125
2887.38256	8437.5125
2889.88051	8452.8125
2892.37692	8423.7125
2894.8718	8438.7125
2897.36515	8448.0125
2899.85698	8445.2125
2902.34727	8493.9125
2904.83604	8461.4125
2907.32328	8473.2125
2909.809	8466.1125
2912.29319	8479.1125
2914.77587	8474.0125
2917.25702	8490.5125
2919.73665	8450.8125
2922.21476	8447.3125
2924.69136	8466.8125
2927.16644	8470.0125
2929.64	8453.6125
2932.11205	8443.7125
2934.58258	8423.1125
2937.05161	8416.6125
2939.51912	8433.6125
2941.98513	8401.0125
2944.44962	8394.5125
2946.91261	8351.4125
2949.37409	8372.3125
2951.83407	8358.5125
2954.29254	8354.5125
2956.74951	8351.5125
2959.20498	8335.6125
2961.65895	8333.2125
2964.11142	8336.6125
2966.56239	8307.5125
2969.01186	8293.0125
2971.45984	8286.2125
2973.90632	8269.9125
2976.35131	8280.3125
2978.7948	8268.0125
2981.23681	8240.8125
2983.67732	8210.8125
2986.11635	8184.6125
2988.55388	8192.6125
2990.98993	8170.9125
2993.4245	8139.8125
2995.85758	8140.9125
2998.28917	8120.1125
3000.71928	8103.7125
3003.14791	8085.1125
3005.57506	8076.2125
3008.00073	8039.0125
3010.42493	8051.7125
3012.84764	8051.0125
3015.26888	8040.0125
3017.68865	8010.6125
3020.10694	8021.2125
3022.52376	7990.6125
3024.9391	7984.7125
3027.35298	7962.8125
3029.76539	7954.3125
3032.17632	7965.5125
3034.5858	7927.3125
3036.9938	7943.8125
3039.40034	7935.1125
3041.80542	7915.3125
3044.20903	7900.9125
3046.61118	7902.8125
3049.01187	7907.1125
3051.4111	7901.0125
3053.80888	7873.1125
3056.20519	7868.4125
3058.60005	7820.8125
