Data from AgNPs_FTO_APTES_UA_1uM_CRN_5uM_R6G_10uM_NaF_0.1M_Addition_RamanShift__13__13-51-19-592.txt Node

Date: Thu Jan 27 13:51:19 GMT 2022
User: TCL
Spectrometer: QEP01345
Trigger mode: 4
Integration Time (sec): 7.000000E0
Scans to average: 10
Electric dark correction enabled: true
Nonlinearity correction enabled: false
Boxcar width: 0
XAxis mode: Raman Shifts
Number of Pixels in Spectrum: 1044
>>>>>Begin Spectral Data<<<<<
46.04893	0.8375
50.45542	0.0375
54.85868	-1.8625
59.25871	-0.3625
63.6555	57.2375
68.04907	58.4375
72.43941	58.8375
76.82654	62.0375
81.21044	65.5375
85.59113	68.5375
89.96862	71.2375
94.34289	73.4375
98.71396	77.9375
103.08183	77.5375
107.4465	82.0375
111.80798	85.8375
116.16626	84.4375
120.52136	93.3375
124.87327	89.8375
129.222	94.8375
133.56755	98.4375
137.90993	103.2375
142.24913	118.1375
146.58517	128.6375
150.91804	148.5375
155.24774	176.9375
159.57429	210.9375
163.89768	268.1375
168.21792	351.9375
172.53501	480.4375
176.84895	666.4375
181.15975	928.5375
185.46741	1307.7375
189.77193	1816.8375
194.07331	2430.2375
198.37157	3145.1375
202.6667	3899.4375
206.9587	4640.9375
211.24758	5369.9375
215.53334	6087.8375
219.81599	6833.5375
224.09553	7670.1375
228.37195	8542.6375
232.64527	9536.3375
236.91549	10634.7375
241.18261	11739.3375
245.44663	12801.9375
249.70755	13793.6375
253.96539	14651.2375
258.22014	15364.2375
262.4718	15934.2375
266.72039	16370.4375
270.96589	16567.8375
275.20832	16622.6375
279.44768	16520.9375
283.68397	16349.3375
287.91719	16213.0375
292.14735	16081.9375
296.37445	15984.3375
300.59849	15935.0375
304.81948	15933.4375
309.03742	15920.1375
313.25231	15797.6375
317.46415	15577.4375
321.67296	15350.7375
325.87872	15170.4375
330.08145	15058.7375
334.28114	15088.5375
338.47781	15190.6375
342.67145	15347.0375
346.86207	15538.1375
351.04966	15761.5375
355.23424	16029.9375
359.4158	16242.9375
363.59435	16374.3375
367.76989	16550.7375
371.94243	16642.2375
376.11196	16779.9375
380.27849	16827.8375
384.44203	16876.6375
388.60257	16988.6375
392.76012	17119.8375
396.91468	17324.8375
401.06626	17576.9375
405.21485	17710.7375
409.36047	17728.7375
413.50311	17559.3375
417.64277	17445.1375
421.77947	17445.9375
425.9132	17528.7375
430.04396	17633.8375
434.17176	17720.5375
438.2966	17797.7375
442.41849	17890.2375
446.53742	18148.1375
450.6534	18373.3375
454.76644	18626.1375
458.87653	18676.8375
462.98368	18692.4375
467.08789	18658.3375
471.18916	18587.8375
475.2875	18451.0375
479.38291	18366.2375
483.4754	18288.1375
487.56496	18219.9375
491.6516	18081.8375
495.73531	17968.5375
499.81612	17918.5375
503.89401	17965.0375
507.96899	18061.4375
512.04106	18112.3375
516.11023	18062.2375
520.1765	18013.2375
524.23987	17889.4375
528.30034	17782.2375
532.35792	17682.3375
536.41261	17606.7375
540.46441	17494.5375
544.51333	17516.1375
548.55936	17593.4375
552.60252	17780.9375
556.64279	18003.0375
560.6802	18173.5375
564.71473	18223.1375
568.7464	18362.4375
572.7752	18661.7375
576.80114	19033.8375
580.82422	19428.0375
584.84444	19777.9375
588.86181	20149.2375
592.87633	20411.5375
596.888	20391.6375
600.89682	20071.3375
604.9028	20053.2375
608.90594	20845.4375
612.90624	21802.6375
616.90371	21030.6375
620.89834	18973.4375
624.89015	18022.0375
628.87913	17920.0375
632.86528	18054.5375
636.84862	18142.8375
640.82913	18004.0375
644.80683	17761.2375
648.78172	17532.8375
652.75379	17497.5375
656.72306	17621.0375
660.68952	17812.7375
664.65319	17788.4375
668.61405	17667.3375
672.57211	17605.1375
676.52738	17642.7375
680.47986	17664.8375
684.42955	17591.4375
688.37646	17561.7375
692.32058	17569.4375
696.26192	17720.1375
700.20048	17836.1375
704.13626	17939.5375
708.06928	17959.3375
711.99952	17975.2375
715.927	17910.9375
719.85171	17905.7375
723.77365	17816.0375
727.69284	17712.7375
731.60928	17576.7375
735.52295	17474.5375
739.43388	17479.5375
743.34206	17517.6375
747.24749	17550.5375
751.15017	17654.1375
755.05012	17833.4375
758.94733	18122.6375
762.8418	18627.8375
766.73354	19397.1375
770.62254	20160.1375
774.50882	20333.1375
778.39237	19880.8375
782.27321	19114.5375
786.15132	18456.4375
790.02671	17923.0375
793.89938	17679.9375
797.76935	17578.0375
801.6366	17472.7375
805.50115	17413.6375
809.36299	17344.5375
813.22213	17324.7375
817.07857	17291.7375
820.93231	17259.5375
824.78336	17235.6375
828.63172	17221.6375
832.47738	17200.5375
836.32036	17183.4375
840.16066	17165.7375
843.99827	17153.9375
847.8332	17155.3375
851.66546	17167.2375
855.49504	17162.4375
859.32195	17175.8375
863.1462	17190.1375
866.96777	17166.8375
870.78668	17196.9375
874.60293	17170.4375
878.41652	17221.5375
882.22745	17232.3375
886.03573	17274.1375
889.84136	17314.8375
893.64433	17308.7375
897.44466	17239.7375
901.24235	17238.0375
905.0374	17157.8375
908.8298	17102.5375
912.61957	17137.9375
916.40671	17192.1375
920.19121	17363.6375
923.97308	17455.1375
927.75233	17433.6375
931.52895	17316.5375
935.30295	17194.8375
939.07433	17040.0375
942.84309	16878.0375
946.60924	16797.6375
950.37278	16736.3375
954.13371	16701.4375
957.89203	16683.7375
961.64774	16658.0375
965.40086	16606.6375
969.15137	16617.3375
972.89929	16572.4375
976.64461	16509.7375
980.38733	16497.5375
984.12747	16491.5375
987.86502	16509.3375
991.59999	16561.6375
995.33237	16628.2375
999.06217	16717.7375
1002.78939	16890.3375
1006.51404	17050.7375
1010.23611	17244.1375
1013.95561	17379.5375
1017.67255	17419.6375
1021.38692	17324.5375
1025.09872	17196.8375
1028.80796	17019.9375
1032.51465	16931.0375
1036.21877	16931.7375
1039.92035	16968.9375
1043.61937	17057.5375
1047.31584	17098.1375
1051.00976	17142.1375
1054.70114	17200.8375
1058.38998	17280.0375
1062.07627	17414.8375
1065.76003	17543.9375
1069.44126	17692.5375
1073.11995	17903.2375
1076.79611	18103.7375
1080.46974	18223.8375
1084.14085	18216.0375
1087.80943	18261.5375
1091.47549	18370.5375
1095.13903	18469.3375
1098.80005	18367.8375
1102.45857	18113.6375
1106.11456	17902.6375
1109.76805	17669.5375
1113.41903	17612.5375
1117.06751	17638.3375
1120.71348	17738.6375
1124.35696	17828.4375
1127.99793	17967.8375
1131.63641	18095.3375
1135.2724	17985.9375
1138.90589	17897.8375
1142.5369	17842.1375
1146.16542	17905.2375
1149.79145	17927.3375
1153.415	17996.5375
1157.03607	18043.5375
1160.65467	18205.8375
1164.27079	18614.5375
1167.88443	19150.4375
1171.49561	19760.8375
1175.10432	20467.9375
1178.71056	21363.7375
1182.31434	22210.1375
1185.91565	22759.4375
1189.51451	22930.7375
1193.11091	22823.6375
1196.70485	22449.3375
1200.29634	21893.5375
1203.88538	21448.0375
1207.47197	21042.7375
1211.05612	20786.1375
1214.63782	20544.7375
1218.21708	20171.3375
1221.79391	19773.9375
1225.36829	19478.0375
1228.94024	19331.2375
1232.50976	19236.2375
1236.07685	19208.4375
1239.6415	19163.0375
1243.20374	19167.8375
1246.76355	19252.6375
1250.32093	19363.5375
1253.8759	19533.5375
1257.42845	19873.4375
1260.97859	20224.0375
1264.52631	20575.7375
1268.07163	20920.6375
1271.61453	21243.3375
1275.15503	21515.4375
1278.69312	21843.3375
1282.22882	22189.5375
1285.76211	22536.8375
1289.29301	22996.5375
1292.82151	23539.4375
1296.34761	24187.6375
1299.87133	24959.7375
1303.39266	25685.7375
1306.9116	26434.8375
1310.42815	27075.0375
1313.94233	27356.5375
1317.45412	27308.9375
1320.96354	27061.1375
1324.47058	26944.2375
1327.97525	26790.0375
1331.47754	26724.6375
1334.97747	26686.3375
1338.47502	26748.6375
1341.97022	26957.5375
1345.46305	27154.0375
1348.95352	27297.3375
1352.44163	27265.9375
1355.92738	27280.5375
1359.41078	27601.7375
1362.89183	27892.2375
1366.37053	27512.4375
1369.84688	26139.9375
1373.32088	24338.5375
1376.79254	22953.4375
1380.26186	22274.4375
1383.72883	22066.9375
1387.19347	21929.3375
1390.65578	21710.2375
1394.11575	21473.9375
1397.57339	21411.4375
1401.0287	21481.1375
1404.48168	21555.9375
1407.93234	21500.0375
1411.38068	21260.5375
1414.82669	20896.2375
1418.27039	20447.4375
1421.71177	19985.8375
1425.15083	19607.9375
1428.58758	19484.9375
1432.02203	19500.0375
1435.45416	19675.0375
1438.88399	19974.0375
1442.31151	20136.4375
1445.73673	20330.2375
1449.15965	20410.5375
1452.58027	20541.7375
1455.9986	20576.9375
1459.41463	20686.4375
1462.82837	20916.6375
1466.23982	21169.4375
1469.64898	21424.7375
1473.05586	21601.6375
1476.46045	21650.1375
1479.86276	21670.5375
1483.26279	21604.7375
1486.66054	21544.2375
1490.05602	21702.7375
1493.44922	21994.5375
1496.84016	22446.8375
1500.22882	22979.2375
1503.61521	23699.4375
1506.99934	24464.7375
1510.38121	24897.3375
1513.76081	24928.0375
1517.13816	24564.7375
1520.51324	24008.4375
1523.88607	23482.3375
1527.25665	23128.0375
1530.62498	22896.3375
1533.99105	22677.5375
1537.35488	22372.3375
1540.71647	21960.4375
1544.07581	21594.2375
1547.4329	21206.9375
1550.78776	20894.0375
1554.14038	20683.9375
1557.49077	20595.3375
1560.83892	20568.6375
1564.18484	20663.0375
1567.52853	20714.6375
1570.86999	20829.5375
1574.20922	21077.8375
1577.54624	21224.3375
1580.88103	21207.2375
1584.2136	21111.6375
1587.54395	21269.7375
1590.87208	21623.1375
1594.19801	22205.0375
1597.52172	22923.5375
1600.84321	23050.6375
1604.16251	22509.9375
1607.47959	21633.3375
1610.79447	20592.8375
1614.10715	19617.1375
1617.41763	18687.9375
1620.7259	18029.3375
1624.03199	17598.8375
1627.33587	17507.6375
1630.63757	17719.7375
1633.93707	18256.8375
1637.23439	19232.4375
1640.52951	20727.1375
1643.82246	22479.1375
1647.11321	23994.5375
1650.40179	24565.2375
1653.68819	23593.5375
1656.97241	21604.5375
1660.25446	19543.6375
1663.53433	17907.4375
1666.81203	16786.9375
1670.08756	16107.4375
1673.36092	15706.5375
1676.63211	15416.3375
1679.90115	15198.5375
1683.16801	15049.0375
1686.43272	14892.2375
1689.69527	14795.6375
1692.95567	14717.9375
1696.2139	14659.5375
1699.46999	14609.2375
1702.72392	14553.0375
1705.97571	14513.6375
1709.22535	14549.2375
1712.47284	14529.9375
1715.71819	14559.7375
1718.96139	14514.4375
1722.20246	14496.8375
1725.44139	14464.4375
1728.67818	14395.2375
1731.91284	14315.4375
1735.14537	14281.3375
1738.37576	14208.2375
1741.60403	14161.9375
1744.83017	14082.9375
1748.05418	14065.6375
1751.27607	14034.1375
1754.49584	14006.1375
1757.71349	13986.6375
1760.92903	13950.2375
1764.14244	13928.6375
1767.35375	13904.8375
1770.56294	13902.8375
1773.77002	13893.4375
1776.97499	13889.2375
1780.17785	13882.3375
1783.37861	13857.8375
1786.57727	13857.7375
1789.77382	13820.8375
1792.96828	13805.9375
1796.16064	13789.4375
1799.3509	13755.0375
1802.53907	13733.1375
1805.72514	13676.3375
1808.90913	13679.0375
1812.09102	13639.9375
1815.27083	13611.3375
1818.44856	13610.5375
1821.6242	13559.9375
1824.79776	13542.4375
1827.96924	13532.0375
1831.13864	13523.3375
1834.30597	13528.9375
1837.47122	13523.8375
1840.6344	13487.7375
1843.7955	13498.4375
1846.95454	13477.2375
1850.11151	13481.8375
1853.26642	13492.3375
1856.41926	13466.2375
1859.57004	13486.5375
1862.71876	13455.1375
1865.86542	13443.9375
1869.01003	13410.0375
1872.15258	13365.1375
1875.29308	13363.0375
1878.43152	13332.9375
1881.56792	13310.2375
1884.70227	13266.6375
1887.83457	13243.4375
1890.96482	13232.0375
1894.09304	13219.5375
1897.21921	13222.4375
1900.34335	13184.0375
1903.46544	13158.8375
1906.58551	13118.8375
1909.70353	13109.4375
1912.81953	13094.2375
1915.93349	13076.5375
1919.04543	13031.7375
1922.15534	13021.7375
1925.26322	12970.0375
1928.36908	12971.5375
1931.47292	12933.8375
1934.57473	12903.4375
1937.67453	12875.2375
1940.77232	12833.1375
1943.86808	12812.0375
1946.96184	12732.0375
1950.05358	12696.9375
1953.14331	12663.2375
1956.23103	12621.0375
1959.31675	12613.7375
1962.40046	12584.8375
1965.48217	12544.3375
1968.56188	12488.4375
1971.63959	12452.8375
1974.7153	12412.1375
1977.78901	12378.3375
1980.86073	12314.9375
1983.93046	12300.7375
1986.99819	12271.2375
1990.06394	12209.0375
1993.1277	12156.9375
1996.18947	12130.3375
1999.24925	12109.2375
2002.30706	12073.2375
2005.36288	12047.7375
2008.41672	11980.7375
2011.46859	11923.5375
2014.51848	11906.0375
2017.56639	11894.1375
2020.61233	11863.6375
2023.6563	11823.8375
2026.6983	11780.8375
2029.73833	11732.1375
2032.7764	11731.8375
2035.8125	11706.8375
2038.84664	11653.8375
2041.87881	11638.4375
2044.90903	11621.0375
2047.93729	11559.2375
2050.96359	11561.9375
2053.98794	11549.7375
2057.01034	11547.4375
2060.03078	11515.0375
2063.04927	11517.1375
2066.06582	11525.6375
2069.08042	11502.4375
2072.09307	11476.5375
2075.10378	11460.4375
2078.11255	11467.0375
2081.11938	11451.5375
2084.12426	11447.0375
2087.12722	11463.1375
2090.12824	11440.5375
2093.12732	11458.2375
2096.12447	11435.3375
2099.11969	11448.6375
2102.11299	11445.1375
2105.10435	11479.6375
2108.09379	11455.5375
2111.08131	11448.6375
2114.0669	11479.6375
2117.05057	11486.9375
2120.03233	11467.1375
2123.01216	11459.9375
2125.99008	11443.5375
2128.96609	11476.7375
2131.94018	11477.7375
2134.91236	11482.9375
2137.88263	11502.5375
2140.851	11482.1375
2143.81746	11498.9375
2146.78201	11486.3375
2149.74466	11478.1375
2152.7054	11494.5375
2155.66425	11482.6375
2158.6212	11482.5375
2161.57625	11465.0375
2164.52941	11445.6375
2167.48067	11456.0375
2170.43004	11442.5375
2173.37752	11444.5375
2176.32311	11432.6375
2179.26681	11444.1375
2182.20863	11409.0375
2185.14856	11428.8375
2188.08661	11416.2375
2191.02278	11419.3375
2193.95707	11417.5375
2196.88948	11392.6375
2199.82001	11366.5375
2202.74867	11388.5375
2205.67545	11367.9375
2208.60037	11330.6375
2211.52341	11310.9375
2214.44458	11287.4375
2217.36388	11250.6375
2220.28132	11236.8375
2223.1969	11221.3375
2226.11061	11186.5375
2229.02246	11167.2375
2231.93245	11139.1375
2234.84058	11129.6375
2237.74686	11093.0375
2240.65128	11092.1375
2243.55385	11058.0375
2246.45456	11041.6375
2249.35343	11016.0375
2252.25044	11044.3375
2255.14561	10982.1375
2258.03893	10994.4375
2260.93041	10968.6375
2263.82004	10926.2375
2266.70783	10921.3375
2269.59378	10874.5375
2272.4779	10841.3375
2275.36017	10841.1375
2278.24061	10825.1375
2281.11922	10787.0375
2283.996	10769.8375
2286.87094	10733.2375
2289.74405	10729.7375
2292.61534	10683.4375
2295.4848	10680.4375
2298.35243	10694.1375
2301.21824	10676.8375
2304.08223	10661.3375
2306.94439	10644.1375
2309.80474	10641.6375
2312.66327	10643.6375
2315.51999	10589.0375
2318.37489	10589.6375
2321.22797	10562.1375
2324.07925	10574.5375
2326.92871	10539.9375
2329.77637	10517.7375
2332.62222	10487.7375
2335.46626	10476.6375
2338.3085	10467.3375
2341.14893	10437.5375
2343.98756	10449.7375
2346.8244	10419.6375
2349.65943	10417.4375
2352.49267	10386.2375
2355.32411	10409.2375
2358.15376	10377.3375
2360.98161	10378.0375
2363.80768	10394.5375
2366.63195	10381.9375
2369.45444	10362.0375
2372.27514	10354.3375
2375.09405	10318.0375
2377.91118	10299.5375
2380.72652	10310.0375
2383.54009	10268.4375
2386.35187	10245.9375
2389.16188	10209.5375
2391.97011	10214.9375
2394.77657	10185.9375
2397.58125	10157.1375
2400.38416	10133.7375
2403.18529	10137.9375
2405.98466	10118.1375
2408.78226	10084.5375
2411.57809	10070.9375
2414.37216	10074.5375
2417.16446	10030.9375
2419.955	10026.3375
2422.74378	10072.7375
2425.5308	10008.6375
2428.31606	10008.2375
2431.09956	10017.5375
2433.88131	9977.1375
2436.6613	9980.6375
2439.43954	9971.4375
2442.21603	9965.1375
2444.99077	9929.7375
2447.76377	9942.4375
2450.53501	9909.0375
2453.30451	9902.6375
2456.07226	9882.1375
2458.83827	9881.1375
2461.60254	9879.1375
2464.36507	9871.1375
2467.12586	9859.3375
2469.88492	9870.0375
2472.64224	9840.7375
2475.39782	9864.3375
2478.15167	9821.0375
2480.90379	9787.9375
2483.65417	9809.1375
2486.40283	9777.2375
2489.14976	9790.0375
2491.89497	9795.1375
2494.63845	9786.8375
2497.3802	9760.5375
2500.12024	9736.8375
2502.85855	9738.8375
2505.59514	9743.5375
2508.33002	9723.1375
2511.06318	9708.0375
2513.79462	9695.3375
2516.52435	9679.1375
2519.25237	9672.1375
2521.97867	9665.3375
2524.70327	9653.0375
2527.42616	9628.1375
2530.14734	9620.3375
2532.86681	9616.3375
2535.58458	9606.0375
2538.30065	9577.3375
2541.01501	9556.9375
2543.72768	9543.1375
2546.43864	9522.7375
2549.14791	9528.4375
2551.85548	9516.7375
2554.56136	9469.3375
2557.26554	9462.0375
2559.96803	9441.3375
2562.66883	9436.6375
2565.36794	9439.0375
2568.06536	9402.2375
2570.7611	9373.7375
2573.45514	9381.4375
2576.14751	9334.8375
2578.83819	9319.3375
2581.52719	9298.0375
2584.21451	9300.9375
2586.90015	9265.4375
2589.58411	9249.9375
2592.2664	9259.3375
2594.94701	9247.3375
2597.62594	9200.5375
2600.30321	9195.8375
2602.9788	9186.6375
2605.65273	9164.6375
2608.32498	9182.1375
2610.99557	9164.6375
2613.66449	9147.3375
2616.33175	9149.3375
2618.99734	9122.3375
2621.66128	9116.9375
2624.32355	9091.0375
2626.98416	9074.1375
2629.64311	9066.0375
2632.30041	9066.2375
2634.95605	9051.7375
2637.61004	9022.8375
2640.26238	9033.3375
2642.91306	9008.6375
2645.56209	9018.3375
2648.20948	9011.5375
2650.85521	8971.0375
2653.4993	8980.4375
2656.14175	8993.3375
2658.78255	8989.4375
2661.42171	8977.2375
2664.05923	8986.5375
2666.6951	8989.9375
2669.32934	8997.0375
2671.96194	8976.2375
2674.59291	8975.4375
2677.22224	8968.2375
2679.84993	8981.7375
2682.476	8960.3375
2685.10043	8941.4375
2687.72324	8951.8375
2690.34441	8947.8375
2692.96396	8933.0375
2695.58188	8946.3375
2698.19818	8918.4375
2700.81285	8949.1375
2703.4259	8925.5375
2706.03733	8917.4375
2708.64714	8907.1375
2711.25533	8919.1375
2713.86191	8910.9375
2716.46687	8924.9375
2719.07021	8940.9375
2721.67194	8936.3375
2724.27206	8933.9375
2726.87057	8939.7375
2729.46747	8928.6375
2732.06276	8939.5375
2734.65644	8912.8375
2737.24852	8914.9375
2739.83899	8883.6375
2742.42786	8891.4375
2745.01513	8855.8375
2747.60079	8857.9375
2750.18486	8822.2375
2752.76733	8840.7375
2755.3482	8821.8375
2757.92747	8821.1375
2760.50515	8791.9375
2763.08123	8795.4375
2765.65573	8797.0375
2768.22863	8767.1375
2770.79994	8767.5375
2773.36967	8736.7375
2775.9378	8751.3375
2778.50435	8729.0375
2781.06932	8696.1375
2783.6327	8700.4375
2786.1945	8666.0375
2788.75471	8672.4375
2791.31335	8663.7375
2793.87041	8649.3375
2796.42589	8608.2375
2798.97979	8618.2375
2801.53212	8576.0375
2804.08288	8580.1375
2806.63206	8545.6375
2809.17967	8528.8375
2811.72571	8485.9375
2814.27018	8499.3375
2816.81308	8456.6375
2819.35442	8458.5375
2821.89419	8455.4375
2824.43239	8450.3375
2826.96904	8440.4375
2829.50412	8439.3375
2832.03763	8406.8375
2834.56959	8381.0375
2837.1	8358.9375
2839.62884	8381.4375
2842.15613	8368.9375
2844.68186	8401.0375
2847.20604	8392.5375
2849.72867	8401.4375
2852.24974	8373.8375
2854.76927	8377.7375
2857.28724	8348.5375
2859.80367	8334.2375
2862.31855	8326.8375
2864.83189	8312.4375
2867.34368	8298.4375
2869.85393	8289.7375
2872.36264	8277.0375
2874.8698	8265.2375
2877.37543	8262.0375
2879.87952	8260.8375
2882.38207	8255.1375
2884.88308	8243.3375
2887.38256	8245.7375
2889.88051	8237.9375
2892.37692	8205.6375
2894.8718	8213.5375
2897.36515	8231.1375
2899.85698	8238.0375
2902.34727	8239.3375
2904.83604	8236.3375
2907.32328	8231.4375
2909.809	8224.5375
2912.29319	8239.0375
2914.77587	8238.5375
2917.25702	8214.6375
2919.73665	8192.8375
2922.21476	8201.1375
2924.69136	8188.8375
2927.16644	8221.4375
2929.64	8198.9375
2932.11205	8185.6375
2934.58258	8148.0375
2937.05161	8165.7375
2939.51912	8158.3375
2941.98513	8138.3375
2944.44962	8120.8375
2946.91261	8097.0375
2949.37409	8102.8375
2951.83407	8079.3375
2954.29254	8077.9375
2956.74951	8071.5375
2959.20498	8073.5375
2961.65895	8048.2375
2964.11142	8048.5375
2966.56239	8053.8375
2969.01186	8040.1375
2971.45984	8024.2375
2973.90632	7998.5375
2976.35131	8009.2375
2978.7948	7983.7375
2981.23681	7978.4375
2983.67732	7947.0375
2986.11635	7918.4375
2988.55388	7896.2375
2990.98993	7868.0375
2993.4245	7865.0375
2995.85758	7857.8375
2998.28917	7826.6375
3000.71928	7836.2375
3003.14791	7820.8375
3005.57506	7772.2375
3008.00073	7772.4375
3010.42493	7770.2375
3012.84764	7753.7375
3015.26888	7777.2375
3017.68865	7724.0375
3020.10694	7720.0375
3022.52376	7707.7375
3024.9391	7684.5375
3027.35298	7672.8375
3029.76539	7672.2375
3032.17632	7664.3375
3034.5858	7639.0375
3036.9938	7650.2375
3039.40034	7637.6375
3041.80542	7623.3375
3044.20903	7617.2375
3046.61118	7623.5375
3049.01187	7583.6375
3051.4111	7604.6375
