Data from AgNPs_FTO_APTES_UA_1uM_CRN_2uM_R6G_10uM_NaF_0.1M_Addition_RamanShift__23__13-22-09-558.txt Node

Date: Thu Jan 27 13:22:09 GMT 2022
User: TCL
Spectrometer: QEP01345
Trigger mode: 4
Integration Time (sec): 7.000000E0
Scans to average: 10
Electric dark correction enabled: true
Nonlinearity correction enabled: false
Boxcar width: 0
XAxis mode: Raman Shifts
Number of Pixels in Spectrum: 1044
>>>>>Begin Spectral Data<<<<<
46.04893	-0.725
50.45542	1.575
54.85868	-1.325
59.25871	-0.925
63.6555	61.075
68.04907	62.075
72.43941	64.175
76.82654	68.575
81.21044	70.675
85.59113	73.875
89.96862	72.775
94.34289	79.475
98.71396	79.075
103.08183	77.075
107.4465	82.675
111.80798	89.375
116.16626	89.375
120.52136	97.075
124.87327	94.975
129.222	96.975
133.56755	104.475
137.90993	109.675
142.24913	121.475
146.58517	129.775
150.91804	155.475
155.24774	178.975
159.57429	220.475
163.89768	281.575
168.21792	368.175
172.53501	504.775
176.84895	699.975
181.15975	967.975
185.46741	1354.375
189.77193	1869.075
194.07331	2499.775
198.37157	3241.575
202.6667	3996.175
206.9587	4765.675
211.24758	5501.475
215.53334	6258.975
219.81599	7055.375
224.09553	7975.775
228.37195	9030.975
232.64527	10113.475
236.91549	11272.375
241.18261	12416.175
245.44663	13450.275
249.70755	14362.175
253.96539	15139.575
258.22014	15826.675
262.4718	16429.575
266.72039	16847.075
270.96589	17105.875
275.20832	17195.075
279.44768	17120.575
283.68397	16944.075
287.91719	16809.975
292.14735	16758.875
296.37445	16814.175
300.59849	16978.175
304.81948	17212.875
309.03742	17331.175
313.25231	17175.875
317.46415	16672.575
321.67296	15957.175
325.87872	15385.675
330.08145	15120.375
334.28114	15124.075
338.47781	15269.075
342.67145	15523.375
346.86207	15924.775
351.04966	16428.575
355.23424	17014.775
359.4158	17492.475
363.59435	17800.575
367.76989	17942.675
371.94243	18070.075
376.11196	18126.975
380.27849	18205.775
384.44203	18208.175
388.60257	18240.375
392.76012	18326.075
396.91468	18564.675
401.06626	18918.475
405.21485	19206.575
409.36047	19101.775
413.50311	18676.475
417.64277	18284.675
421.77947	18122.875
425.9132	18116.575
430.04396	18241.075
434.17176	18347.175
438.2966	18570.775
442.41849	18850.275
446.53742	19312.575
450.6534	19904.375
454.76644	20402.775
458.87653	20568.175
462.98368	20469.075
467.08789	20192.675
471.18916	19804.475
475.2875	19400.475
479.38291	19103.275
483.4754	18949.175
487.56496	18735.675
491.6516	18488.675
495.73531	18279.475
499.81612	18238.275
503.89401	18284.875
507.96899	18347.175
512.04106	18375.875
516.11023	18416.375
520.1765	18437.175
524.23987	18298.675
528.30034	18136.675
532.35792	17885.075
536.41261	17628.075
540.46441	17405.975
544.51333	17340.575
548.55936	17505.675
552.60252	17842.975
556.64279	18227.375
560.6802	18396.875
564.71473	18487.475
568.7464	18794.575
572.7752	19191.675
576.80114	19314.675
580.82422	19363.075
584.84444	19545.675
588.86181	19700.175
592.87633	19978.475
596.888	20256.875
600.89682	20566.075
604.9028	21601.075
608.90594	24404.075
612.90624	27838.975
616.90371	26786.975
620.89834	21636.675
624.89015	19192.475
628.87913	18847.475
632.86528	18771.275
636.84862	18583.875
640.82913	18242.375
644.80683	17666.375
648.78172	17242.875
652.75379	17243.875
656.72306	17524.675
660.68952	17986.575
664.65319	17973.175
668.61405	17540.275
672.57211	17294.675
676.52738	17317.875
680.47986	17303.875
684.42955	17274.175
688.37646	17270.775
692.32058	17298.875
696.26192	17424.675
700.20048	17609.075
704.13626	17703.175
708.06928	17624.775
711.99952	17433.575
715.927	17374.575
719.85171	17411.875
723.77365	17380.775
727.69284	17206.775
731.60928	17059.675
735.52295	17060.875
739.43388	17108.375
743.34206	17221.575
747.24749	17308.875
751.15017	17460.375
755.05012	17754.075
758.94733	18295.475
762.8418	19318.375
766.73354	21040.975
770.62254	22902.975
774.50882	23627.675
778.39237	22630.575
782.27321	20631.375
786.15132	18968.775
790.02671	17937.275
793.89938	17505.275
797.76935	17337.975
801.6366	17310.575
805.50115	17199.675
809.36299	17114.275
813.22213	17029.375
817.07857	16988.075
820.93231	17018.375
824.78336	17010.075
828.63172	17047.275
832.47738	17093.075
836.32036	17170.675
840.16066	17226.575
843.99827	17263.475
847.8332	17244.175
851.66546	17146.075
855.49504	17035.975
859.32195	17008.275
863.1462	16930.675
866.96777	16862.675
870.78668	16786.575
874.60293	16750.375
878.41652	16764.275
882.22745	16839.675
886.03573	16902.675
889.84136	16874.875
893.64433	16815.875
897.44466	16734.875
901.24235	16676.075
905.0374	16650.375
908.8298	16611.175
912.61957	16649.975
916.40671	16774.775
920.19121	17051.175
923.97308	17274.575
927.75233	17470.575
931.52895	17524.275
935.30295	17365.675
939.07433	17000.475
942.84309	16701.575
946.60924	16582.475
950.37278	16499.375
954.13371	16357.175
957.89203	16246.575
961.64774	16179.375
965.40086	16094.275
969.15137	16017.975
972.89929	15948.075
976.64461	15909.375
980.38733	15941.975
984.12747	16053.975
987.86502	16241.575
991.59999	16546.475
995.33237	16978.275
999.06217	17689.675
1002.78939	18502.275
1006.51404	18986.075
1010.23611	19193.375
1013.95561	19359.975
1017.67255	19344.175
1021.38692	19106.775
1025.09872	18997.175
1028.80796	19339.575
1032.51465	20303.975
1036.21877	21112.875
1039.92035	21204.375
1043.61937	20699.475
1047.31584	19798.875
1051.00976	18863.375
1054.70114	18316.975
1058.38998	18159.775
1062.07627	18133.975
1065.76003	18101.175
1069.44126	18159.875
1073.11995	18299.075
1076.79611	18483.175
1080.46974	18585.175
1084.14085	18786.675
1087.80943	18999.675
1091.47549	19118.475
1095.13903	18979.675
1098.80005	18639.175
1102.45857	18216.075
1106.11456	18043.275
1109.76805	18040.075
1113.41903	18188.175
1117.06751	18411.375
1120.71348	18742.975
1124.35696	18983.375
1127.99793	19268.875
1131.63641	19371.675
1135.2724	19087.675
1138.90589	18752.675
1142.5369	18484.675
1146.16542	18346.275
1149.79145	18298.375
1153.415	18318.275
1157.03607	18542.975
1160.65467	18833.075
1164.27079	19419.675
1167.88443	20302.475
1171.49561	21636.575
1175.10432	23521.075
1178.71056	25959.375
1182.31434	28187.375
1185.91565	29386.075
1189.51451	29460.675
1193.11091	28297.075
1196.70485	26662.075
1200.29634	25164.975
1203.88538	24087.275
1207.47197	23160.175
1211.05612	22444.875
1214.63782	22057.075
1218.21708	21971.975
1221.79391	22083.675
1225.36829	22202.175
1228.94024	22157.975
1232.50976	21903.475
1236.07685	21687.375
1239.6415	21483.375
1243.20374	21419.875
1246.76355	21475.975
1250.32093	21801.675
1253.8759	22295.675
1257.42845	23038.875
1260.97859	23673.775
1264.52631	24224.075
1268.07163	24773.775
1271.61453	25550.875
1275.15503	26344.975
1278.69312	27217.675
1282.22882	27914.575
1285.76211	28512.175
1289.29301	29029.775
1292.82151	29717.575
1296.34761	30660.475
1299.87133	32076.575
1303.39266	34122.075
1306.9116	36718.175
1310.42815	39547.075
1313.94233	41310.975
1317.45412	41298.375
1320.96354	39837.475
1324.47058	38194.975
1327.97525	36592.175
1331.47754	35607.175
1334.97747	35174.775
1338.47502	35179.375
1341.97022	35434.675
1345.46305	35375.375
1348.95352	35140.975
1352.44163	35198.575
1355.92738	36105.475
1359.41078	38535.775
1362.89183	41119.875
1366.37053	40715.875
1369.84688	36727.375
1373.32088	32209.075
1376.79254	29123.075
1380.26186	27605.475
1383.72883	27169.375
1387.19347	26854.875
1390.65578	26507.475
1394.11575	26377.175
1397.57339	26603.975
1401.0287	27138.775
1404.48168	27681.575
1407.93234	28171.375
1411.38068	28398.775
1414.82669	28147.575
1418.27039	27452.475
1421.71177	26467.475
1425.15083	25627.475
1428.58758	25135.375
1432.02203	25012.575
1435.45416	25236.075
1438.88399	25610.875
1442.31151	25842.475
1445.73673	26137.075
1449.15965	26411.375
1452.58027	26491.475
1455.9986	26408.575
1459.41463	26380.575
1462.82837	26662.375
1466.23982	27096.475
1469.64898	27596.075
1473.05586	27974.275
1476.46045	28144.275
1479.86276	28228.275
1483.26279	28259.975
1486.66054	28377.775
1490.05602	28687.075
1493.44922	29158.975
1496.84016	29662.775
1500.22882	30324.975
1503.61521	31318.775
1506.99934	32740.475
1510.38121	34324.375
1513.76081	35182.175
1517.13816	34545.075
1520.51324	32635.575
1523.88607	30577.075
1527.25665	29005.675
1530.62498	28055.875
1533.99105	27463.075
1537.35488	27060.775
1540.71647	26822.275
1544.07581	26600.375
1547.4329	26327.875
1550.78776	26096.375
1554.14038	25948.675
1557.49077	25969.575
1560.83892	25999.175
1564.18484	26083.375
1567.52853	26080.075
1570.86999	26093.475
1574.20922	26236.775
1577.54624	26348.175
1580.88103	26224.775
1584.2136	26155.275
1587.54395	26603.275
1590.87208	27862.975
1594.19801	29741.575
1597.52172	31820.975
1600.84321	32691.675
1604.16251	31500.375
1607.47959	29084.475
1610.79447	26442.875
1614.10715	24125.275
1617.41763	22350.875
1620.7259	21174.875
1624.03199	20695.675
1627.33587	20773.675
1630.63757	21457.075
1633.93707	22676.675
1637.23439	24377.375
1640.52951	26459.275
1643.82246	28638.075
1647.11321	30294.975
1650.40179	30783.275
1653.68819	29244.675
1656.97241	25955.675
1660.25446	22542.375
1663.53433	19974.175
1666.81203	18405.075
1670.08756	17453.275
1673.36092	16820.175
1676.63211	16467.075
1679.90115	16182.675
1683.16801	15983.775
1686.43272	15803.475
1689.69527	15681.775
1692.95567	15588.675
1696.2139	15507.675
1699.46999	15448.975
1702.72392	15412.575
1705.97571	15409.775
1709.22535	15422.675
1712.47284	15456.675
1715.71819	15430.175
1718.96139	15380.675
1722.20246	15357.675
1725.44139	15310.475
1728.67818	15259.375
1731.91284	15177.975
1735.14537	15092.875
1738.37576	15052.375
1741.60403	14999.375
1744.83017	14955.975
1748.05418	14920.575
1751.27607	14864.575
1754.49584	14837.775
1757.71349	14819.175
1760.92903	14776.475
1764.14244	14773.275
1767.35375	14769.475
1770.56294	14755.075
1773.77002	14759.075
1776.97499	14731.975
1780.17785	14769.375
1783.37861	14747.775
1786.57727	14742.875
1789.77382	14736.675
1792.96828	14722.875
1796.16064	14724.275
1799.3509	14691.875
1802.53907	14679.375
1805.72514	14673.075
1808.90913	14633.675
1812.09102	14598.875
1815.27083	14553.875
1818.44856	14548.275
1821.6242	14521.775
1824.79776	14477.475
1827.96924	14484.275
1831.13864	14491.275
1834.30597	14503.975
1837.47122	14513.675
1840.6344	14506.875
1843.7955	14486.875
1846.95454	14522.075
1850.11151	14525.375
1853.26642	14517.375
1856.41926	14535.175
1859.57004	14575.075
1862.71876	14563.975
1865.86542	14537.975
1869.01003	14567.875
1872.15258	14544.775
1875.29308	14575.275
1878.43152	14595.675
1881.56792	14602.075
1884.70227	14568.275
1887.83457	14618.075
1890.96482	14568.175
1894.09304	14572.975
1897.21921	14603.775
1900.34335	14590.075
1903.46544	14607.575
1906.58551	14634.375
1909.70353	14611.875
1912.81953	14601.475
1915.93349	14585.175
1919.04543	14565.475
1922.15534	14535.175
1925.26322	14489.875
1928.36908	14441.075
1931.47292	14382.575
1934.57473	14364.375
1937.67453	14318.475
1940.77232	14272.675
1943.86808	14163.575
1946.96184	14114.975
1950.05358	14065.775
1953.14331	14022.975
1956.23103	13965.075
1959.31675	13928.075
1962.40046	13895.375
1965.48217	13851.675
1968.56188	13825.375
1971.63959	13768.675
1974.7153	13747.675
1977.78901	13709.775
1980.86073	13648.775
1983.93046	13604.775
1986.99819	13551.775
1990.06394	13492.375
1993.1277	13465.475
1996.18947	13437.075
1999.24925	13386.975
2002.30706	13348.575
2005.36288	13326.975
2008.41672	13265.175
2011.46859	13253.675
2014.51848	13210.075
2017.56639	13183.875
2020.61233	13162.575
2023.6563	13146.175
2026.6983	13120.375
2029.73833	13113.675
2032.7764	13087.175
2035.8125	13084.975
2038.84664	13028.275
2041.87881	13029.975
2044.90903	13022.075
2047.93729	12976.475
2050.96359	12960.575
2053.98794	12940.175
2057.01034	12921.275
2060.03078	12932.175
2063.04927	12922.275
2066.06582	12938.475
2069.08042	12913.375
2072.09307	12896.775
2075.10378	12858.975
2078.11255	12865.075
2081.11938	12837.975
2084.12426	12847.275
2087.12722	12826.775
2090.12824	12810.075
2093.12732	12826.375
2096.12447	12825.075
2099.11969	12792.775
2102.11299	12834.975
2105.10435	12814.775
2108.09379	12866.275
2111.08131	12849.075
2114.0669	12845.475
2117.05057	12866.175
2120.03233	12877.775
2123.01216	12876.075
2125.99008	12882.575
2128.96609	12895.275
2131.94018	12886.175
2134.91236	12877.875
2137.88263	12924.075
2140.851	12902.475
2143.81746	12924.975
2146.78201	12938.075
2149.74466	12947.075
2152.7054	12937.175
2155.66425	12934.775
2158.6212	12936.375
2161.57625	12920.675
2164.52941	12925.275
2167.48067	12940.675
2170.43004	12923.075
2173.37752	12914.175
2176.32311	12932.975
2179.26681	12923.475
2182.20863	12891.375
2185.14856	12937.375
2188.08661	12921.975
2191.02278	12946.575
2193.95707	12938.375
2196.88948	12935.975
2199.82001	12966.875
2202.74867	12923.375
2205.67545	12945.675
2208.60037	12939.675
2211.52341	12927.775
2214.44458	12932.275
2217.36388	12915.975
2220.28132	12894.075
2223.1969	12890.375
2226.11061	12854.575
2229.02246	12844.175
2231.93245	12844.375
2234.84058	12787.275
2237.74686	12748.775
2240.65128	12729.275
2243.55385	12743.575
2246.45456	12711.475
2249.35343	12682.175
2252.25044	12650.175
2255.14561	12639.675
2258.03893	12613.475
2260.93041	12619.475
2263.82004	12594.875
2266.70783	12550.575
2269.59378	12555.575
2272.4779	12527.475
2275.36017	12462.375
2278.24061	12475.275
2281.11922	12461.875
2283.996	12423.075
2286.87094	12435.875
2289.74405	12410.875
2292.61534	12405.475
2295.4848	12391.475
2298.35243	12393.475
2301.21824	12412.775
2304.08223	12416.375
2306.94439	12446.775
2309.80474	12436.375
2312.66327	12452.775
2315.51999	12482.275
2318.37489	12450.975
2321.22797	12441.775
2324.07925	12479.575
2326.92871	12446.075
2329.77637	12456.175
2332.62222	12446.675
2335.46626	12429.475
2338.3085	12414.475
2341.14893	12429.275
2343.98756	12453.275
2346.8244	12463.775
2349.65943	12462.175
2352.49267	12451.775
2355.32411	12474.275
2358.15376	12435.475
2360.98161	12427.175
2363.80768	12430.175
2366.63195	12398.675
2369.45444	12375.475
2372.27514	12344.275
2375.09405	12279.475
2377.91118	12308.575
2380.72652	12249.675
2383.54009	12212.675
2386.35187	12202.275
2389.16188	12161.975
2391.97011	12166.675
2394.77657	12141.875
2397.58125	12125.375
2400.38416	12090.475
2403.18529	12096.175
2405.98466	12071.875
2408.78226	12032.075
2411.57809	11990.475
2414.37216	11986.875
2417.16446	11966.675
2419.955	11954.475
2422.74378	11959.175
2425.5308	11927.075
2428.31606	11924.575
2431.09956	11927.375
2433.88131	11909.575
2436.6613	11892.275
2439.43954	11919.575
2442.21603	11895.775
2444.99077	11874.775
2447.76377	11885.575
2450.53501	11890.175
2453.30451	11894.875
2456.07226	11885.975
2458.83827	11872.075
2461.60254	11846.475
2464.36507	11868.275
2467.12586	11890.575
2469.88492	11854.875
2472.64224	11887.975
2475.39782	11897.775
2478.15167	11914.075
2480.90379	11898.675
2483.65417	11931.675
2486.40283	11903.675
2489.14976	11939.275
2491.89497	11946.875
2494.63845	11963.875
2497.3802	11937.775
2500.12024	11929.575
2502.85855	11941.275
2505.59514	11925.175
2508.33002	11915.575
2511.06318	11920.375
2513.79462	11908.375
2516.52435	11867.375
2519.25237	11885.775
2521.97867	11830.275
2524.70327	11847.375
2527.42616	11818.875
2530.14734	11807.075
2532.86681	11795.775
2535.58458	11806.075
2538.30065	11810.975
2541.01501	11813.575
2543.72768	11799.175
2546.43864	11794.075
2549.14791	11792.375
2551.85548	11755.775
2554.56136	11741.875
2557.26554	11785.675
2559.96803	11725.575
2562.66883	11754.475
2565.36794	11754.875
2568.06536	11736.175
2570.7611	11721.275
2573.45514	11710.575
2576.14751	11713.975
2578.83819	11714.375
2581.52719	11708.175
2584.21451	11708.475
2586.90015	11691.375
2589.58411	11665.575
2592.2664	11688.875
2594.94701	11673.075
2597.62594	11694.875
2600.30321	11690.175
2602.9788	11685.775
2605.65273	11680.575
2608.32498	11668.775
2610.99557	11691.675
2613.66449	11682.875
2616.33175	11685.575
2618.99734	11682.375
2621.66128	11702.575
2624.32355	11683.375
2626.98416	11712.775
2629.64311	11700.975
2632.30041	11674.475
2634.95605	11690.775
2637.61004	11655.575
2640.26238	11631.475
2642.91306	11633.575
2645.56209	11608.575
2648.20948	11608.575
2650.85521	11587.675
2653.4993	11594.475
2656.14175	11575.175
2658.78255	11600.475
2661.42171	11591.175
2664.05923	11631.275
2666.6951	11632.475
2669.32934	11639.275
2671.96194	11643.175
2674.59291	11629.975
2677.22224	11645.175
2679.84993	11655.975
2682.476	11613.775
2685.10043	11605.475
2687.72324	11598.575
2690.34441	11592.475
2692.96396	11568.875
2695.58188	11589.675
2698.19818	11568.275
2700.81285	11576.475
2703.4259	11588.475
2706.03733	11551.575
2708.64714	11551.775
2711.25533	11560.875
2713.86191	11568.675
2716.46687	11589.975
2719.07021	11558.275
2721.67194	11582.375
2724.27206	11591.675
2726.87057	11614.575
2729.46747	11605.475
2732.06276	11617.575
2734.65644	11606.275
2737.24852	11595.475
2739.83899	11593.475
2742.42786	11591.975
2745.01513	11560.975
2747.60079	11548.675
2750.18486	11581.475
2752.76733	11585.875
2755.3482	11567.675
2757.92747	11576.675
2760.50515	11579.575
2763.08123	11545.175
2765.65573	11549.275
2768.22863	11561.575
2770.79994	11544.975
2773.36967	11519.275
2775.9378	11547.975
2778.50435	11538.475
2781.06932	11528.275
2783.6327	11522.375
2786.1945	11497.375
2788.75471	11490.975
2791.31335	11496.975
2793.87041	11460.275
2796.42589	11453.475
2798.97979	11444.675
2801.53212	11435.575
2804.08288	11407.775
2806.63206	11391.475
2809.17967	11359.675
2811.72571	11343.275
2814.27018	11355.275
2816.81308	11338.375
2819.35442	11325.375
2821.89419	11321.075
2824.43239	11333.775
2826.96904	11314.775
2829.50412	11336.375
2832.03763	11307.375
2834.56959	11313.675
2837.1	11293.175
2839.62884	11314.275
2842.15613	11285.975
2844.68186	11323.575
2847.20604	11330.675
2849.72867	11306.275
2852.24974	11313.075
2854.76927	11336.475
2857.28724	11312.175
2859.80367	11295.275
2862.31855	11273.575
2864.83189	11252.775
2867.34368	11248.275
2869.85393	11253.775
2872.36264	11236.675
2874.8698	11252.175
2877.37543	11241.375
2879.87952	11232.275
2882.38207	11213.175
2884.88308	11211.075
2887.38256	11237.475
2889.88051	11223.375
2892.37692	11234.375
2894.8718	11229.475
2897.36515	11252.975
2899.85698	11251.775
2902.34727	11285.175
2904.83604	11278.875
2907.32328	11306.875
2909.809	11320.775
2912.29319	11327.675
2914.77587	11324.075
2917.25702	11326.175
2919.73665	11316.575
2922.21476	11302.175
2924.69136	11306.575
2927.16644	11289.875
2929.64	11264.475
2932.11205	11274.675
2934.58258	11211.675
2937.05161	11236.275
2939.51912	11231.575
2941.98513	11206.275
2944.44962	11161.675
2946.91261	11135.275
2949.37409	11142.275
2951.83407	11142.475
2954.29254	11146.875
2956.74951	11108.875
2959.20498	11116.875
2961.65895	11078.275
2964.11142	11089.975
2966.56239	11067.675
2969.01186	11062.575
2971.45984	11025.175
2973.90632	11011.575
2976.35131	10976.975
2978.7948	10963.375
2981.23681	10931.775
2983.67732	10918.875
2986.11635	10871.375
2988.55388	10846.075
2990.98993	10835.275
2993.4245	10816.575
2995.85758	10792.375
2998.28917	10778.275
3000.71928	10755.175
3003.14791	10736.075
3005.57506	10714.475
3008.00073	10677.875
3010.42493	10685.475
3012.84764	10678.175
3015.26888	10710.475
3017.68865	10653.075
3020.10694	10640.075
3022.52376	10630.075
3024.9391	10606.275
3027.35298	10582.175
3029.76539	10585.475
3032.17632	10563.975
3034.5858	10539.975
3036.9938	10538.475
3039.40034	10536.975
3041.80542	10554.275
3044.20903	10534.675
3046.61118	10517.275
3049.01187	10487.375
3051.4111	10482.975
3053.80888	10476.475
3056.20519	10430.475
3058.60005	10424.475
3060.99345	10406.775
3063.3854	10368.675
3065.7759	10311.075
3068.16494	10318.575
3070.55254	10284.675
3072.93868	10269.175
3075.32338	10258.275
3077.70662	10239.675
3080.08842	10218.275
3082.46878	10186.275
3084.84769	10175.875
3087.22515	10161.575
3089.60118	10183.575
3091.97576	10146.175
3094.3489	10187.175
3096.72061	10162.375
3099.09087	10178.375
3101.4597	10140.775
3103.82709	10161.775
3106.19305	10121.075
3108.55757	10143.475
3110.92066	10100.575
3113.28232	10091.075
3115.64255	10062.575
3118.00134	10068.175
3120.35871	10046.375
3122.71466	10045.275
3125.06917	10001.075
3127.42226	10007.475
3129.77393	9987.375
