Data from AgNPs_FTO_APTES_UA_1uM_CRN_200uM_R6G_10uM_NaF_0.1M_Addition_RamanShift__9__17-15-29-825.txt Node

Date: Thu Jan 27 17:15:29 GMT 2022
User: TCL
Spectrometer: QEP01345
Trigger mode: 4
Integration Time (sec): 7.000000E0
Scans to average: 10
Electric dark correction enabled: true
Nonlinearity correction enabled: false
Boxcar width: 0
XAxis mode: Raman Shifts
Number of Pixels in Spectrum: 1044
>>>>>Begin Spectral Data<<<<<
46.04893	1.2125
50.45542	-0.2875
54.85868	-2.0875
59.25871	-0.4875
63.6555	44.2125
68.04907	43.3125
72.43941	43.5125
76.82654	49.6125
81.21044	48.4125
85.59113	51.3125
89.96862	54.7125
94.34289	55.6125
98.71396	60.8125
103.08183	55.8125
107.4465	64.1125
111.80798	65.6125
116.16626	64.5125
120.52136	71.0125
124.87327	68.9125
129.222	68.0125
133.56755	69.9125
137.90993	76.7125
142.24913	81.1125
146.58517	86.2125
150.91804	101.1125
155.24774	110.6125
159.57429	134.6125
163.89768	171.3125
168.21792	220.2125
172.53501	292.9125
176.84895	402.0125
181.15975	557.7125
185.46741	779.0125
189.77193	1077.1125
194.07331	1442.8125
198.37157	1863.2125
202.6667	2313.6125
206.9587	2748.3125
211.24758	3187.8125
215.53334	3624.7125
219.81599	4069.0125
224.09553	4563.9125
228.37195	5109.4125
232.64527	5708.9125
236.91549	6345.0125
241.18261	6977.0125
245.44663	7592.5125
249.70755	8176.2125
253.96539	8650.0125
258.22014	9070.0125
262.4718	9375.8125
266.72039	9580.7125
270.96589	9690.6125
275.20832	9668.9125
279.44768	9595.3125
283.68397	9476.2125
287.91719	9342.9125
292.14735	9229.5125
296.37445	9200.2125
300.59849	9172.2125
304.81948	9222.1125
309.03742	9215.6125
313.25231	9154.9125
317.46415	9012.0125
321.67296	8851.2125
325.87872	8691.5125
330.08145	8620.5125
334.28114	8639.5125
338.47781	8668.8125
342.67145	8776.0125
346.86207	8898.5125
351.04966	9065.7125
355.23424	9178.3125
359.4158	9300.9125
363.59435	9412.8125
367.76989	9503.7125
371.94243	9552.2125
376.11196	9576.6125
380.27849	9642.4125
384.44203	9693.7125
388.60257	9743.7125
392.76012	9824.3125
396.91468	9907.3125
401.06626	10027.3125
405.21485	10156.1125
409.36047	10158.3125
413.50311	10040.0125
417.64277	9980.9125
421.77947	9922.7125
425.9132	9986.2125
430.04396	10018.9125
434.17176	10047.1125
438.2966	10072.7125
442.41849	10154.6125
446.53742	10288.5125
450.6534	10424.8125
454.76644	10550.7125
458.87653	10551.2125
462.98368	10532.0125
467.08789	10505.4125
471.18916	10415.6125
475.2875	10320.0125
479.38291	10234.9125
483.4754	10158.0125
487.56496	10068.7125
491.6516	10026.5125
495.73531	10018.4125
499.81612	10037.0125
503.89401	10075.0125
507.96899	10104.9125
512.04106	10129.0125
516.11023	10144.7125
520.1765	10102.5125
524.23987	10055.9125
528.30034	10008.9125
532.35792	9946.3125
536.41261	9871.5125
540.46441	9789.6125
544.51333	9754.8125
548.55936	9818.4125
552.60252	9945.4125
556.64279	10095.4125
560.6802	10160.7125
564.71473	10179.6125
568.7464	10205.9125
572.7752	10334.1125
576.80114	10499.2125
580.82422	10701.1125
584.84444	11031.0125
588.86181	11402.0125
592.87633	11698.3125
596.888	11635.0125
600.89682	11315.2125
604.9028	11207.2125
608.90594	11806.6125
612.90624	12647.3125
616.90371	12260.1125
620.89834	10738.7125
624.89015	10015.8125
628.87913	9920.3125
632.86528	10000.5125
636.84862	10054.6125
640.82913	10019.5125
644.80683	9860.1125
648.78172	9753.2125
652.75379	9766.4125
656.72306	9845.4125
660.68952	9957.7125
664.65319	9926.9125
668.61405	9803.6125
672.57211	9794.5125
676.52738	9831.0125
680.47986	9909.8125
684.42955	9841.8125
688.37646	9789.4125
692.32058	9761.8125
696.26192	9790.9125
700.20048	9853.7125
704.13626	9894.4125
708.06928	9926.9125
711.99952	9888.9125
715.927	9919.6125
719.85171	9905.2125
723.77365	9880.4125
727.69284	9805.5125
731.60928	9747.0125
735.52295	9735.4125
739.43388	9706.8125
743.34206	9731.8125
747.24749	9781.6125
751.15017	9819.0125
755.05012	9884.2125
758.94733	10072.1125
762.8418	10377.8125
766.73354	10926.1125
770.62254	11521.4125
774.50882	11775.3125
778.39237	11498.7125
782.27321	10902.9125
786.15132	10325.9125
790.02671	9986.8125
793.89938	9796.8125
797.76935	9742.7125
801.6366	9696.5125
805.50115	9660.5125
809.36299	9636.8125
813.22213	9594.2125
817.07857	9546.3125
820.93231	9526.1125
824.78336	9503.8125
828.63172	9510.2125
832.47738	9498.1125
836.32036	9493.7125
840.16066	9498.0125
843.99827	9500.3125
847.8332	9461.3125
851.66546	9479.8125
855.49504	9493.5125
859.32195	9480.2125
863.1462	9484.7125
866.96777	9485.3125
870.78668	9475.5125
874.60293	9472.4125
878.41652	9508.0125
882.22745	9522.9125
886.03573	9558.8125
889.84136	9564.2125
893.64433	9565.8125
897.44466	9535.0125
901.24235	9490.4125
905.0374	9438.0125
908.8298	9431.2125
912.61957	9426.1125
916.40671	9456.8125
920.19121	9509.8125
923.97308	9571.3125
927.75233	9605.2125
931.52895	9594.9125
935.30295	9514.5125
939.07433	9387.6125
942.84309	9296.6125
946.60924	9194.3125
950.37278	9168.2125
954.13371	9140.5125
957.89203	9132.2125
961.64774	9139.4125
965.40086	9124.4125
969.15137	9093.7125
972.89929	9047.9125
976.64461	9020.7125
980.38733	9015.8125
984.12747	9013.9125
987.86502	9026.7125
991.59999	9052.1125
995.33237	9081.3125
999.06217	9150.2125
1002.78939	9265.5125
1006.51404	9322.3125
1010.23611	9438.9125
1013.95561	9501.9125
1017.67255	9539.5125
1021.38692	9505.1125
1025.09872	9430.3125
1028.80796	9346.8125
1032.51465	9299.6125
1036.21877	9306.9125
1039.92035	9323.0125
1043.61937	9369.6125
1047.31584	9424.1125
1051.00976	9432.8125
1054.70114	9483.2125
1058.38998	9493.6125
1062.07627	9524.4125
1065.76003	9627.6125
1069.44126	9724.9125
1073.11995	9835.4125
1076.79611	9926.8125
1080.46974	9993.2125
1084.14085	9961.5125
1087.80943	9954.7125
1091.47549	9954.6125
1095.13903	9988.4125
1098.80005	9937.6125
1102.45857	9781.9125
1106.11456	9645.6125
1109.76805	9536.0125
1113.41903	9534.7125
1117.06751	9595.9125
1120.71348	9712.9125
1124.35696	9818.2125
1127.99793	9978.3125
1131.63641	10035.9125
1135.2724	9951.2125
1138.90589	9812.9125
1142.5369	9751.3125
1146.16542	9737.9125
1149.79145	9733.1125
1153.415	9738.0125
1157.03607	9761.2125
1160.65467	9879.8125
1164.27079	10136.9125
1167.88443	10470.3125
1171.49561	10875.9125
1175.10432	11347.2125
1178.71056	12032.6125
1182.31434	12674.2125
1185.91565	12974.0125
1189.51451	12928.7125
1193.11091	12636.2125
1196.70485	12252.7125
1200.29634	11839.8125
1203.88538	11520.4125
1207.47197	11226.8125
1211.05612	11008.6125
1214.63782	10811.2125
1218.21708	10647.6125
1221.79391	10490.5125
1225.36829	10420.0125
1228.94024	10396.7125
1232.50976	10351.2125
1236.07685	10291.6125
1239.6415	10245.1125
1243.20374	10260.5125
1246.76355	10237.5125
1250.32093	10318.0125
1253.8759	10410.5125
1257.42845	10586.6125
1260.97859	10765.5125
1264.52631	10926.0125
1268.07163	11121.6125
1271.61453	11303.7125
1275.15503	11471.9125
1278.69312	11645.0125
1282.22882	11875.3125
1285.76211	12109.9125
1289.29301	12365.1125
1292.82151	12748.2125
1296.34761	13213.9125
1299.87133	13734.7125
1303.39266	14313.2125
1306.9116	14912.7125
1310.42815	15454.2125
1313.94233	15745.6125
1317.45412	15658.7125
1320.96354	15247.4125
1324.47058	14878.2125
1327.97525	14532.1125
1331.47754	14288.2125
1334.97747	14130.9125
1338.47502	14019.1125
1341.97022	13973.4125
1345.46305	13979.2125
1348.95352	14155.6125
1352.44163	14511.8125
1355.92738	15074.7125
1359.41078	15822.8125
1362.89183	16456.9125
1366.37053	16387.8125
1369.84688	15281.4125
1373.32088	13780.8125
1376.79254	12618.7125
1380.26186	12060.6125
1383.72883	11799.8125
1387.19347	11638.2125
1390.65578	11413.0125
1394.11575	11263.7125
1397.57339	11279.8125
1401.0287	11357.2125
1404.48168	11444.4125
1407.93234	11435.8125
1411.38068	11342.4125
1414.82669	11212.2125
1418.27039	10954.5125
1421.71177	10747.9125
1425.15083	10520.2125
1428.58758	10442.2125
1432.02203	10438.8125
1435.45416	10548.5125
1438.88399	10691.4125
1442.31151	10764.6125
1445.73673	10795.0125
1449.15965	10797.3125
1452.58027	10834.1125
1455.9986	10809.8125
1459.41463	10842.3125
1462.82837	10945.0125
1466.23982	11137.1125
1469.64898	11300.7125
1473.05586	11437.3125
1476.46045	11506.4125
1479.86276	11561.5125
1483.26279	11578.8125
1486.66054	11671.0125
1490.05602	11797.2125
1493.44922	12087.8125
1496.84016	12389.9125
1500.22882	12841.4125
1503.61521	13454.7125
1506.99934	14086.8125
1510.38121	14577.1125
1513.76081	14618.0125
1517.13816	14094.9125
1520.51324	13425.3125
1523.88607	12794.7125
1527.25665	12416.6125
1530.62498	12225.0125
1533.99105	12064.7125
1537.35488	11874.0125
1540.71647	11707.2125
1544.07581	11514.7125
1547.4329	11341.4125
1550.78776	11139.1125
1554.14038	11021.3125
1557.49077	10940.3125
1560.83892	10931.5125
1564.18484	10979.2125
1567.52853	11070.4125
1570.86999	11201.5125
1574.20922	11367.5125
1577.54624	11458.9125
1580.88103	11379.1125
1584.2136	11202.4125
1587.54395	11132.8125
1590.87208	11351.4125
1594.19801	11733.2125
1597.52172	12233.9125
1600.84321	12515.0125
1604.16251	12293.8125
1607.47959	11764.6125
1610.79447	11143.5125
1614.10715	10500.4125
1617.41763	9957.4125
1620.7259	9599.7125
1624.03199	9360.7125
1627.33587	9300.0125
1630.63757	9388.4125
1633.93707	9667.6125
1637.23439	10149.9125
1640.52951	10994.5125
1643.82246	12127.0125
1647.11321	13227.2125
1650.40179	13690.2125
1653.68819	13195.7125
1656.97241	11924.9125
1660.25446	10588.7125
1663.53433	9624.5125
1666.81203	9051.5125
1670.08756	8702.1125
1673.36092	8481.9125
1676.63211	8357.1125
1679.90115	8239.1125
1683.16801	8166.0125
1686.43272	8089.7125
1689.69527	8009.2125
1692.95567	7974.5125
1696.2139	7931.4125
1699.46999	7856.2125
1702.72392	7847.5125
1705.97571	7854.3125
1709.22535	7874.2125
1712.47284	7892.1125
1715.71819	7903.1125
1718.96139	7914.8125
1722.20246	7897.0125
1725.44139	7860.4125
1728.67818	7846.0125
1731.91284	7805.8125
1735.14537	7758.2125
1738.37576	7740.0125
1741.60403	7729.0125
1744.83017	7708.9125
1748.05418	7691.1125
1751.27607	7691.3125
1754.49584	7679.0125
1757.71349	7680.5125
1760.92903	7660.3125
1764.14244	7638.4125
1767.35375	7620.5125
1770.56294	7572.6125
1773.77002	7568.5125
1776.97499	7567.7125
1780.17785	7553.0125
1783.37861	7584.2125
1786.57727	7566.0125
1789.77382	7543.3125
1792.96828	7523.3125
1796.16064	7507.2125
1799.3509	7482.3125
1802.53907	7475.6125
1805.72514	7463.5125
1808.90913	7435.4125
1812.09102	7441.7125
1815.27083	7399.7125
1818.44856	7416.0125
1821.6242	7386.1125
1824.79776	7370.2125
1827.96924	7379.0125
1831.13864	7371.0125
1834.30597	7371.1125
1837.47122	7363.6125
1840.6344	7359.2125
1843.7955	7358.7125
1846.95454	7340.3125
1850.11151	7339.3125
1853.26642	7348.9125
1856.41926	7315.9125
1859.57004	7311.8125
1862.71876	7324.1125
1865.86542	7332.7125
1869.01003	7295.3125
1872.15258	7288.9125
1875.29308	7262.1125
1878.43152	7264.7125
1881.56792	7265.0125
1884.70227	7248.0125
1887.83457	7228.7125
1890.96482	7214.8125
1894.09304	7220.0125
1897.21921	7216.3125
1900.34335	7192.0125
1903.46544	7194.4125
1906.58551	7178.1125
1909.70353	7168.9125
1912.81953	7168.0125
1915.93349	7140.8125
1919.04543	7128.2125
1922.15534	7113.2125
1925.26322	7107.4125
1928.36908	7100.5125
1931.47292	7067.8125
1934.57473	7056.9125
1937.67453	7036.3125
1940.77232	7032.6125
1943.86808	7005.9125
1946.96184	6987.6125
1950.05358	6968.8125
1953.14331	6957.7125
1956.23103	6941.2125
1959.31675	6930.6125
1962.40046	6890.2125
1965.48217	6878.6125
1968.56188	6849.6125
1971.63959	6858.0125
1974.7153	6814.9125
1977.78901	6802.0125
1980.86073	6769.9125
1983.93046	6769.8125
1986.99819	6742.2125
1990.06394	6705.4125
1993.1277	6693.5125
1996.18947	6692.9125
1999.24925	6660.2125
2002.30706	6638.9125
2005.36288	6636.0125
2008.41672	6610.2125
2011.46859	6574.6125
2014.51848	6566.5125
2017.56639	6553.5125
2020.61233	6540.0125
2023.6563	6520.0125
2026.6983	6496.6125
2029.73833	6485.8125
2032.7764	6474.1125
2035.8125	6460.1125
2038.84664	6424.5125
2041.87881	6426.6125
2044.90903	6401.1125
2047.93729	6402.1125
2050.96359	6394.4125
2053.98794	6379.0125
2057.01034	6370.2125
2060.03078	6382.2125
2063.04927	6369.0125
2066.06582	6360.1125
2069.08042	6349.5125
2072.09307	6360.3125
2075.10378	6370.5125
2078.11255	6346.9125
2081.11938	6340.2125
2084.12426	6321.7125
2087.12722	6341.5125
2090.12824	6331.2125
2093.12732	6331.3125
2096.12447	6333.0125
2099.11969	6327.1125
2102.11299	6337.6125
2105.10435	6351.6125
2108.09379	6334.3125
2111.08131	6353.8125
2114.0669	6340.8125
2117.05057	6340.3125
2120.03233	6338.9125
2123.01216	6362.6125
2125.99008	6374.4125
2128.96609	6376.5125
2131.94018	6374.2125
2134.91236	6381.0125
2137.88263	6379.8125
2140.851	6394.4125
2143.81746	6396.8125
2146.78201	6374.3125
2149.74466	6379.2125
2152.7054	6383.2125
2155.66425	6385.8125
2158.6212	6370.3125
2161.57625	6369.3125
2164.52941	6363.7125
2167.48067	6367.4125
2170.43004	6373.9125
2173.37752	6374.5125
2176.32311	6363.8125
2179.26681	6369.0125
2182.20863	6345.0125
2185.14856	6347.4125
2188.08661	6378.3125
2191.02278	6368.5125
2193.95707	6352.9125
2196.88948	6348.9125
2199.82001	6347.8125
2202.74867	6320.7125
2205.67545	6327.5125
2208.60037	6316.1125
2211.52341	6295.6125
2214.44458	6279.4125
2217.36388	6280.5125
2220.28132	6273.7125
2223.1969	6260.5125
2226.11061	6241.7125
2229.02246	6239.6125
2231.93245	6221.7125
2234.84058	6213.3125
2237.74686	6216.2125
2240.65128	6205.4125
2243.55385	6171.5125
2246.45456	6187.6125
2249.35343	6171.9125
2252.25044	6172.0125
2255.14561	6151.5125
2258.03893	6133.1125
2260.93041	6127.1125
2263.82004	6106.8125
2266.70783	6102.8125
2269.59378	6085.5125
2272.4779	6070.9125
2275.36017	6072.8125
2278.24061	6035.3125
2281.11922	6039.1125
2283.996	6041.0125
2286.87094	6025.3125
2289.74405	5985.5125
2292.61534	5996.7125
2295.4848	5980.6125
2298.35243	5990.5125
2301.21824	5973.5125
2304.08223	6004.5125
2306.94439	5978.7125
2309.80474	5976.0125
2312.66327	5978.7125
2315.51999	5966.1125
2318.37489	5948.6125
2321.22797	5925.2125
2324.07925	5952.1125
2326.92871	5925.3125
2329.77637	5895.8125
2332.62222	5905.9125
2335.46626	5884.8125
2338.3085	5882.9125
2341.14893	5889.1125
2343.98756	5895.5125
2346.8244	5883.2125
2349.65943	5880.7125
2352.49267	5856.6125
2355.32411	5867.0125
2358.15376	5865.7125
2360.98161	5881.0125
2363.80768	5854.8125
2366.63195	5862.1125
2369.45444	5864.5125
2372.27514	5855.9125
2375.09405	5844.6125
2377.91118	5830.1125
2380.72652	5828.6125
2383.54009	5803.7125
2386.35187	5789.3125
2389.16188	5774.5125
2391.97011	5744.1125
2394.77657	5753.4125
2397.58125	5731.9125
2400.38416	5737.6125
2403.18529	5704.9125
2405.98466	5730.0125
2408.78226	5701.0125
2411.57809	5717.8125
2414.37216	5691.9125
2417.16446	5689.2125
2419.955	5685.7125
2422.74378	5661.3125
2425.5308	5665.3125
2428.31606	5676.2125
2431.09956	5674.9125
2433.88131	5656.2125
2436.6613	5651.3125
2439.43954	5639.9125
2442.21603	5637.8125
2444.99077	5651.0125
2447.76377	5643.5125
2450.53501	5636.6125
2453.30451	5627.5125
2456.07226	5615.5125
2458.83827	5613.9125
2461.60254	5623.6125
2464.36507	5605.6125
2467.12586	5612.2125
2469.88492	5594.8125
2472.64224	5608.7125
2475.39782	5588.3125
2478.15167	5585.8125
2480.90379	5572.7125
2483.65417	5568.4125
2486.40283	5558.5125
2489.14976	5589.6125
2491.89497	5573.6125
2494.63845	5560.8125
2497.3802	5549.8125
2500.12024	5553.2125
2502.85855	5543.9125
2505.59514	5554.4125
2508.33002	5536.8125
2511.06318	5526.3125
2513.79462	5529.2125
2516.52435	5517.4125
2519.25237	5492.4125
2521.97867	5507.6125
2524.70327	5500.1125
2527.42616	5473.8125
2530.14734	5478.4125
2532.86681	5460.5125
2535.58458	5451.3125
2538.30065	5445.1125
2541.01501	5448.9125
2543.72768	5420.7125
2546.43864	5419.4125
2549.14791	5414.8125
2551.85548	5412.9125
2554.56136	5407.7125
2557.26554	5389.3125
2559.96803	5385.0125
2562.66883	5378.3125
2565.36794	5380.0125
2568.06536	5376.9125
2570.7611	5363.5125
2573.45514	5345.6125
2576.14751	5329.4125
2578.83819	5326.0125
2581.52719	5330.4125
2584.21451	5318.9125
2586.90015	5301.5125
2589.58411	5296.2125
2592.2664	5282.2125
2594.94701	5271.1125
2597.62594	5263.1125
2600.30321	5252.9125
2602.9788	5257.4125
2605.65273	5251.0125
2608.32498	5243.0125
2610.99557	5225.1125
2613.66449	5234.6125
2616.33175	5229.7125
2618.99734	5212.6125
2621.66128	5218.5125
2624.32355	5202.5125
2626.98416	5192.0125
2629.64311	5179.2125
2632.30041	5194.0125
2634.95605	5164.7125
2637.61004	5158.6125
2640.26238	5170.0125
2642.91306	5161.1125
2645.56209	5147.6125
2648.20948	5134.8125
2650.85521	5149.1125
2653.4993	5147.5125
2656.14175	5133.2125
2658.78255	5160.4125
2661.42171	5153.6125
2664.05923	5154.8125
2666.6951	5147.5125
2669.32934	5155.4125
2671.96194	5139.0125
2674.59291	5140.6125
2677.22224	5134.5125
2679.84993	5135.5125
2682.476	5137.7125
2685.10043	5130.7125
2687.72324	5135.6125
2690.34441	5133.6125
2692.96396	5129.8125
2695.58188	5138.0125
2698.19818	5137.5125
2700.81285	5135.6125
2703.4259	5121.7125
2706.03733	5117.6125
2708.64714	5121.6125
2711.25533	5122.8125
2713.86191	5125.3125
2716.46687	5126.2125
2719.07021	5129.4125
2721.67194	5140.0125
2724.27206	5137.8125
2726.87057	5141.1125
2729.46747	5142.2125
2732.06276	5139.8125
2734.65644	5137.8125
2737.24852	5121.8125
2739.83899	5123.7125
2742.42786	5111.9125
2745.01513	5102.2125
2747.60079	5113.0125
2750.18486	5100.7125
2752.76733	5090.3125
2755.3482	5094.9125
2757.92747	5101.7125
2760.50515	5075.2125
2763.08123	5063.2125
2765.65573	5072.9125
2768.22863	5082.2125
2770.79994	5046.6125
2773.36967	5044.5125
2775.9378	5035.0125
2778.50435	5047.7125
2781.06932	5032.7125
2783.6327	5020.9125
2786.1945	5026.1125
2788.75471	4997.6125
2791.31335	4994.2125
2793.87041	4996.4125
2796.42589	4989.1125
2798.97979	5001.5125
2801.53212	4966.7125
2804.08288	4968.4125
2806.63206	4947.0125
2809.17967	4943.7125
2811.72571	4934.4125
2814.27018	4911.1125
2816.81308	4932.0125
2819.35442	4904.4125
2821.89419	4898.0125
2824.43239	4914.8125
2826.96904	4910.1125
2829.50412	4908.2125
2832.03763	4901.8125
2834.56959	4885.3125
2837.1	4898.5125
2839.62884	4916.7125
2842.15613	4920.1125
2844.68186	4966.2125
2847.20604	4961.1125
2849.72867	4986.2125
2852.24974	4980.8125
2854.76927	4983.0125
2857.28724	4970.5125
2859.80367	4944.8125
2862.31855	4946.4125
2864.83189	4939.5125
2867.34368	4937.4125
2869.85393	4936.9125
2872.36264	4946.3125
2874.8698	4926.8125
2877.37543	4937.2125
2879.87952	4913.3125
2882.38207	4913.7125
2884.88308	4907.8125
2887.38256	4918.6125
2889.88051	4912.7125
2892.37692	4919.2125
2894.8718	4902.1125
2897.36515	4916.7125
2899.85698	4911.5125
2902.34727	4932.5125
2904.83604	4943.3125
2907.32328	4959.3125
2909.809	4912.6125
2912.29319	4945.8125
2914.77587	4939.8125
2917.25702	4938.0125
2919.73665	4938.3125
2922.21476	4933.6125
2924.69136	4927.9125
2927.16644	4936.9125
2929.64	4932.5125
2932.11205	4931.2125
2934.58258	4920.3125
2937.05161	4915.4125
2939.51912	4923.6125
2941.98513	4901.3125
2944.44962	4902.4125
2946.91261	4884.3125
2949.37409	4880.1125
2951.83407	4866.8125
2954.29254	4859.0125
2956.74951	4838.7125
2959.20498	4855.0125
2961.65895	4840.7125
2964.11142	4831.3125
2966.56239	4813.4125
2969.01186	4803.4125
2971.45984	4788.9125
2973.90632	4772.1125
2976.35131	4759.3125
2978.7948	4762.2125
2981.23681	4763.5125
2983.67732	4744.7125
2986.11635	4730.0125
2988.55388	4720.1125
2990.98993	4704.4125
2993.4245	4703.2125
2995.85758	4675.1125
2998.28917	4684.3125
3000.71928	4677.3125
3003.14791	4658.8125
3005.57506	4654.5125
3008.00073	4662.0125
3010.42493	4642.0125
3012.84764	4645.9125
3015.26888	4652.0125
3017.68865	4639.0125
3020.10694	4635.6125
3022.52376	4616.6125
3024.9391	4612.5125
3027.35298	4629.0125
3029.76539	4614.5125
3032.17632	4596.6125
3034.5858	4593.7125
3036.9938	4584.6125
3039.40034	4564.4125
3041.80542	4577.2125
3044.20903	4575.1125
3046.61118	4564.6125
3049.01187	4566.8125
3051.4111	4563.4125
3053.80888	4544.5125
3056.20519	4560.8125
3058.60005	4540.6125
3060.99345	4519.7125
3063.3854	4519.2125
3065.7759	4504.4125
3068.16494	4517.3125
3070.55254	4502.7125
3072.93868	4493.5125
3075.32338	4472.5125
3077.70662	4506.3125
3080.08842	4488.7125
3082.46878	4475.9125
3084.84769	4480.8125
3087.22515	4480.9125
3089.60118	4464.6125
3091.97576	4473.9125
3094.3489	4484.9125
3096.72061	4486.3125
3099.09087	4486.4125
3101.4597	4480.9125
