Data from AgNPs_FTO_APTES_UA_1uM_CRN_10uM_R6G_10uM_NaF_0.1M_Addition_RamanShift__8__14-25-09-630.txt Node

Date: Thu Jan 27 14:25:09 GMT 2022
User: TCL
Spectrometer: QEP01345
Trigger mode: 4
Integration Time (sec): 7.000000E0
Scans to average: 10
Electric dark correction enabled: true
Nonlinearity correction enabled: false
Boxcar width: 0
XAxis mode: Raman Shifts
Number of Pixels in Spectrum: 1044
>>>>>Begin Spectral Data<<<<<
46.04893	1.0125
50.45542	0.7125
54.85868	-0.6875
59.25871	-0.9875
63.6555	51.6125
68.04907	52.2125
72.43941	56.3125
76.82654	58.8125
81.21044	60.2125
85.59113	64.1125
89.96862	63.1125
94.34289	67.8125
98.71396	72.0125
103.08183	69.8125
107.4465	71.3125
111.80798	74.0125
116.16626	75.2125
120.52136	80.6125
124.87327	80.6125
129.222	78.0125
133.56755	83.9125
137.90993	90.3125
142.24913	102.4125
146.58517	107.3125
150.91804	128.6125
155.24774	147.5125
159.57429	177.6125
163.89768	225.4125
168.21792	291.9125
172.53501	400.7125
176.84895	546.2125
181.15975	765.0125
185.46741	1067.2125
189.77193	1474.7125
194.07331	1974.1125
198.37157	2540.1125
202.6667	3152.2125
206.9587	3754.8125
211.24758	4338.1125
215.53334	4916.1125
219.81599	5531.8125
224.09553	6207.4125
228.37195	6936.4125
232.64527	7748.3125
236.91549	8620.2125
241.18261	9508.6125
245.44663	10328.4125
249.70755	11082.0125
253.96539	11747.4125
258.22014	12295.2125
262.4718	12748.3125
266.72039	13079.3125
270.96589	13256.9125
275.20832	13267.4125
279.44768	13211.4125
283.68397	13087.5125
287.91719	12953.3125
292.14735	12858.9125
296.37445	12808.8125
300.59849	12832.4125
304.81948	12878.7125
309.03742	12900.1125
313.25231	12847.1125
317.46415	12680.3125
321.67296	12417.5125
325.87872	12193.0125
330.08145	12075.8125
334.28114	12070.8125
338.47781	12167.3125
342.67145	12286.2125
346.86207	12441.3125
351.04966	12647.3125
355.23424	12870.8125
359.4158	13081.3125
363.59435	13222.2125
367.76989	13354.5125
371.94243	13428.6125
376.11196	13507.8125
380.27849	13532.6125
384.44203	13567.9125
388.60257	13667.7125
392.76012	13792.1125
396.91468	13956.9125
401.06626	14185.3125
405.21485	14311.2125
409.36047	14303.6125
413.50311	14119.1125
417.64277	14054.6125
421.77947	14073.1125
425.9132	14127.3125
430.04396	14216.3125
434.17176	14263.6125
438.2966	14309.6125
442.41849	14477.5125
446.53742	14720.0125
450.6534	15023.8125
454.76644	15230.2125
458.87653	15328.9125
462.98368	15264.7125
467.08789	15179.7125
471.18916	15023.0125
475.2875	14834.2125
479.38291	14706.1125
483.4754	14616.9125
487.56496	14492.5125
491.6516	14365.9125
495.73531	14227.0125
499.81612	14176.5125
503.89401	14250.0125
507.96899	14338.1125
512.04106	14338.9125
516.11023	14280.7125
520.1765	14158.2125
524.23987	14017.6125
528.30034	13912.3125
532.35792	13822.4125
536.41261	13723.3125
540.46441	13603.6125
544.51333	13582.0125
548.55936	13673.1125
552.60252	13905.2125
556.64279	14153.6125
560.6802	14327.7125
564.71473	14415.7125
568.7464	14581.5125
572.7752	14882.7125
576.80114	15251.5125
580.82422	15637.7125
584.84444	16149.6125
588.86181	16769.9125
592.87633	17244.3125
596.888	17166.4125
600.89682	16538.5125
604.9028	16310.5125
608.90594	17016.3125
612.90624	17989.3125
616.90371	17181.8125
620.89834	15034.2125
624.89015	14049.5125
628.87913	13912.1125
632.86528	14033.2125
636.84862	14058.2125
640.82913	13913.1125
644.80683	13622.9125
648.78172	13468.9125
652.75379	13449.7125
656.72306	13596.7125
660.68952	13759.5125
664.65319	13702.2125
668.61405	13506.5125
672.57211	13448.3125
676.52738	13519.1125
680.47986	13519.2125
684.42955	13440.2125
688.37646	13379.9125
692.32058	13404.6125
696.26192	13555.5125
700.20048	13751.5125
704.13626	13828.9125
708.06928	13851.1125
711.99952	13813.5125
715.927	13805.8125
719.85171	13839.5125
723.77365	13753.0125
727.69284	13597.2125
731.60928	13460.1125
735.52295	13374.0125
739.43388	13382.4125
743.34206	13416.9125
747.24749	13462.0125
751.15017	13623.0125
755.05012	13780.1125
758.94733	14059.9125
762.8418	14573.0125
766.73354	15341.4125
770.62254	16117.6125
774.50882	16244.2125
778.39237	15702.5125
782.27321	14897.6125
786.15132	14238.9125
790.02671	13759.3125
793.89938	13547.8125
797.76935	13421.9125
801.6366	13377.3125
805.50115	13354.2125
809.36299	13289.2125
813.22213	13203.6125
817.07857	13194.2125
820.93231	13133.0125
824.78336	13084.8125
828.63172	13060.8125
832.47738	13050.7125
836.32036	13061.5125
840.16066	13058.8125
843.99827	13053.1125
847.8332	13012.0125
851.66546	13001.7125
855.49504	13012.5125
859.32195	12997.9125
863.1462	12982.3125
866.96777	12991.1125
870.78668	12951.4125
874.60293	12973.9125
878.41652	12968.3125
882.22745	13011.5125
886.03573	13083.4125
889.84136	13047.8125
893.64433	13038.1125
897.44466	12999.4125
901.24235	12964.4125
905.0374	12933.5125
908.8298	12886.8125
912.61957	12891.8125
916.40671	12986.2125
920.19121	13102.8125
923.97308	13221.0125
927.75233	13235.7125
931.52895	13162.1125
935.30295	13000.0125
939.07433	12818.4125
942.84309	12691.3125
946.60924	12595.7125
950.37278	12584.3125
954.13371	12558.0125
957.89203	12553.6125
961.64774	12552.6125
965.40086	12545.5125
969.15137	12493.9125
972.89929	12463.9125
976.64461	12407.9125
980.38733	12398.0125
984.12747	12416.4125
987.86502	12461.7125
991.59999	12514.3125
995.33237	12600.0125
999.06217	12754.6125
1002.78939	12923.0125
1006.51404	13143.9125
1010.23611	13375.0125
1013.95561	13478.1125
1017.67255	13490.1125
1021.38692	13390.0125
1025.09872	13267.7125
1028.80796	13117.2125
1032.51465	13116.6125
1036.21877	13170.7125
1039.92035	13216.6125
1043.61937	13246.3125
1047.31584	13195.6125
1051.00976	13196.7125
1054.70114	13166.4125
1058.38998	13218.6125
1062.07627	13319.0125
1065.76003	13454.0125
1069.44126	13597.7125
1073.11995	13780.2125
1076.79611	13970.5125
1080.46974	14015.8125
1084.14085	14091.6125
1087.80943	14159.8125
1091.47549	14277.4125
1095.13903	14348.8125
1098.80005	14195.3125
1102.45857	13931.6125
1106.11456	13676.5125
1109.76805	13550.5125
1113.41903	13541.8125
1117.06751	13579.6125
1120.71348	13659.0125
1124.35696	13764.4125
1127.99793	13914.2125
1131.63641	14028.7125
1135.2724	13952.1125
1138.90589	13888.6125
1142.5369	13873.6125
1146.16542	13995.3125
1149.79145	14005.7125
1153.415	14096.0125
1157.03607	14216.3125
1160.65467	14525.5125
1164.27079	15044.6125
1167.88443	15686.5125
1171.49561	16359.6125
1175.10432	17084.7125
1178.71056	18115.9125
1182.31434	19077.7125
1185.91565	19581.6125
1189.51451	19596.1125
1193.11091	19286.4125
1196.70485	18750.7125
1200.29634	18175.8125
1203.88538	17756.0125
1207.47197	17507.7125
1211.05612	17319.0125
1214.63782	17111.8125
1218.21708	16689.7125
1221.79391	16269.6125
1225.36829	15989.7125
1228.94024	15785.0125
1232.50976	15659.7125
1236.07685	15516.7125
1239.6415	15428.0125
1243.20374	15441.5125
1246.76355	15525.3125
1250.32093	15690.3125
1253.8759	15935.0125
1257.42845	16281.5125
1260.97859	16646.2125
1264.52631	17024.0125
1268.07163	17442.7125
1271.61453	17802.9125
1275.15503	18184.7125
1278.69312	18607.4125
1282.22882	18978.1125
1285.76211	19517.6125
1289.29301	20138.8125
1292.82151	20882.6125
1296.34761	21823.1125
1299.87133	22907.8125
1303.39266	23969.7125
1306.9116	24952.6125
1310.42815	25666.9125
1313.94233	25961.3125
1317.45412	25807.4125
1320.96354	25371.6125
1324.47058	25038.8125
1327.97525	24807.9125
1331.47754	24689.7125
1334.97747	24540.5125
1338.47502	24402.0125
1341.97022	24187.2125
1345.46305	23999.1125
1348.95352	23864.5125
1352.44163	23860.2125
1355.92738	24267.4125
1359.41078	25038.5125
1362.89183	25718.8125
1366.37053	25449.3125
1369.84688	23868.8125
1373.32088	21633.7125
1376.79254	19945.8125
1380.26186	19283.4125
1383.72883	19241.1125
1387.19347	19275.8125
1390.65578	19032.2125
1394.11575	18863.0125
1397.57339	18929.3125
1401.0287	19181.2125
1404.48168	19386.3125
1407.93234	19371.3125
1411.38068	19099.7125
1414.82669	18641.6125
1418.27039	18031.7125
1421.71177	17434.3125
1425.15083	16978.6125
1428.58758	16735.3125
1432.02203	16849.3125
1435.45416	17189.4125
1438.88399	17612.6125
1442.31151	17939.2125
1445.73673	18061.4125
1449.15965	18182.8125
1452.58027	18190.4125
1455.9986	18154.6125
1459.41463	18182.0125
1462.82837	18376.6125
1466.23982	18675.9125
1469.64898	18963.6125
1473.05586	19190.0125
1476.46045	19220.9125
1479.86276	19176.5125
1483.26279	19041.6125
1486.66054	18976.5125
1490.05602	19075.1125
1493.44922	19296.4125
1496.84016	19572.4125
1500.22882	19958.9125
1503.61521	20485.7125
1506.99934	21074.2125
1510.38121	21561.9125
1513.76081	21657.3125
1517.13816	21317.8125
1520.51324	20690.6125
1523.88607	20252.0125
1527.25665	20035.7125
1530.62498	19963.9125
1533.99105	19857.9125
1537.35488	19563.7125
1540.71647	19130.3125
1544.07581	18655.1125
1547.4329	18214.9125
1550.78776	17829.0125
1554.14038	17582.9125
1557.49077	17462.9125
1560.83892	17380.8125
1564.18484	17390.8125
1567.52853	17420.4125
1570.86999	17560.4125
1574.20922	17847.5125
1577.54624	18070.4125
1580.88103	18168.7125
1584.2136	18270.2125
1587.54395	18677.8125
1590.87208	19408.9125
1594.19801	20344.1125
1597.52172	21255.9125
1600.84321	21476.8125
1604.16251	20635.8125
1607.47959	19264.9125
1610.79447	17850.4125
1614.10715	16559.2125
1617.41763	15503.9125
1620.7259	14780.9125
1624.03199	14402.9125
1627.33587	14383.9125
1630.63757	14701.8125
1633.93707	15406.6125
1637.23439	16685.1125
1640.52951	18582.3125
1643.82246	20810.7125
1647.11321	22630.4125
1650.40179	23097.6125
1653.68819	21645.4125
1656.97241	19060.4125
1660.25446	16560.5125
1663.53433	14685.5125
1666.81203	13526.1125
1670.08756	12809.4125
1673.36092	12366.6125
1676.63211	12103.8125
1679.90115	11877.0125
1683.16801	11708.2125
1686.43272	11589.9125
1689.69527	11513.1125
1692.95567	11406.0125
1696.2139	11321.7125
1699.46999	11270.8125
1702.72392	11233.9125
1705.97571	11200.1125
1709.22535	11249.7125
1712.47284	11258.3125
1715.71819	11250.8125
1718.96139	11225.2125
1722.20246	11225.0125
1725.44139	11156.0125
1728.67818	11101.9125
1731.91284	11067.5125
1735.14537	10997.4125
1738.37576	10951.8125
1741.60403	10918.7125
1744.83017	10861.3125
1748.05418	10829.7125
1751.27607	10799.7125
1754.49584	10787.0125
1757.71349	10736.2125
1760.92903	10711.8125
1764.14244	10719.8125
1767.35375	10708.9125
1770.56294	10686.5125
1773.77002	10683.2125
1776.97499	10669.2125
1780.17785	10685.4125
1783.37861	10682.3125
1786.57727	10641.1125
1789.77382	10657.4125
1792.96828	10650.1125
1796.16064	10618.3125
1799.3509	10602.9125
1802.53907	10570.9125
1805.72514	10534.5125
1808.90913	10512.8125
1812.09102	10504.3125
1815.27083	10493.0125
1818.44856	10491.8125
1821.6242	10466.3125
1824.79776	10444.5125
1827.96924	10438.3125
1831.13864	10426.1125
1834.30597	10430.8125
1837.47122	10446.0125
1840.6344	10426.5125
1843.7955	10417.6125
1846.95454	10393.4125
1850.11151	10419.6125
1853.26642	10396.0125
1856.41926	10399.3125
1859.57004	10426.7125
1862.71876	10393.6125
1865.86542	10346.2125
1869.01003	10346.9125
1872.15258	10328.1125
1875.29308	10330.0125
1878.43152	10288.6125
1881.56792	10293.8125
1884.70227	10271.2125
1887.83457	10241.1125
1890.96482	10233.9125
1894.09304	10245.0125
1897.21921	10200.0125
1900.34335	10195.4125
1903.46544	10169.8125
1906.58551	10179.9125
1909.70353	10156.7125
1912.81953	10128.4125
1915.93349	10121.5125
1919.04543	10099.2125
1922.15534	10082.1125
1925.26322	10077.8125
1928.36908	10046.7125
1931.47292	10017.2125
1934.57473	10002.6125
1937.67453	9981.1125
1940.77232	9962.3125
1943.86808	9926.7125
1946.96184	9905.8125
1950.05358	9846.9125
1953.14331	9843.4125
1956.23103	9815.4125
1959.31675	9770.2125
1962.40046	9787.2125
1965.48217	9751.4125
1968.56188	9708.2125
1971.63959	9703.7125
1974.7153	9670.0125
1977.78901	9623.9125
1980.86073	9585.7125
1983.93046	9570.9125
1986.99819	9528.4125
1990.06394	9501.9125
1993.1277	9460.8125
1996.18947	9443.9125
1999.24925	9419.3125
2002.30706	9394.9125
2005.36288	9360.6125
2008.41672	9353.7125
2011.46859	9312.4125
2014.51848	9273.6125
2017.56639	9254.7125
2020.61233	9244.0125
2023.6563	9254.0125
2026.6983	9194.0125
2029.73833	9178.8125
2032.7764	9187.0125
2035.8125	9131.4125
2038.84664	9134.6125
2041.87881	9110.5125
2044.90903	9083.3125
2047.93729	9077.8125
2050.96359	9061.9125
2053.98794	9022.0125
2057.01034	9038.5125
2060.03078	9036.5125
2063.04927	9022.7125
2066.06582	9041.4125
2069.08042	9023.5125
2072.09307	9016.5125
2075.10378	8974.4125
2078.11255	9003.0125
2081.11938	8983.1125
2084.12426	8986.6125
2087.12722	8987.5125
2090.12824	8965.3125
2093.12732	8994.1125
2096.12447	9007.2125
2099.11969	8981.8125
2102.11299	8978.3125
2105.10435	8990.4125
2108.09379	9016.5125
2111.08131	8993.6125
2114.0669	9004.5125
2117.05057	8999.9125
2120.03233	8995.3125
2123.01216	9017.6125
2125.99008	9011.7125
2128.96609	9033.3125
2131.94018	9045.4125
2134.91236	9050.8125
2137.88263	9036.0125
2140.851	9036.9125
2143.81746	9033.1125
2146.78201	9042.6125
2149.74466	9039.7125
2152.7054	9052.0125
2155.66425	9032.3125
2158.6212	9033.3125
2161.57625	9033.0125
2164.52941	9041.1125
2167.48067	9046.6125
2170.43004	9036.5125
2173.37752	9013.5125
2176.32311	9005.5125
2179.26681	9011.6125
2182.20863	9012.2125
2185.14856	9013.0125
2188.08661	9012.4125
2191.02278	9025.8125
2193.95707	9018.8125
2196.88948	9002.4125
2199.82001	8991.8125
2202.74867	8996.6125
2205.67545	8989.9125
2208.60037	8960.5125
2211.52341	8955.5125
2214.44458	8945.1125
2217.36388	8894.2125
2220.28132	8890.9125
2223.1969	8861.5125
2226.11061	8881.1125
2229.02246	8866.3125
2231.93245	8845.6125
2234.84058	8824.4125
2237.74686	8790.5125
2240.65128	8816.7125
2243.55385	8798.4125
2246.45456	8787.8125
2249.35343	8751.9125
2252.25044	8744.7125
2255.14561	8743.3125
2258.03893	8715.8125
2260.93041	8693.6125
2263.82004	8714.2125
2266.70783	8678.9125
2269.59378	8635.8125
2272.4779	8628.4125
2275.36017	8606.4125
2278.24061	8610.3125
2281.11922	8591.0125
2283.996	8579.5125
2286.87094	8574.8125
2289.74405	8559.9125
2292.61534	8528.4125
2295.4848	8505.2125
2298.35243	8531.5125
2301.21824	8499.1125
2304.08223	8514.0125
2306.94439	8515.5125
2309.80474	8500.0125
2312.66327	8488.8125
2315.51999	8489.7125
2318.37489	8488.0125
2321.22797	8445.1125
2324.07925	8437.9125
2326.92871	8446.1125
2329.77637	8442.7125
2332.62222	8415.6125
2335.46626	8401.0125
2338.3085	8396.9125
2341.14893	8392.5125
2343.98756	8395.4125
2346.8244	8378.7125
2349.65943	8375.0125
2352.49267	8368.2125
2355.32411	8372.1125
2358.15376	8356.1125
2360.98161	8349.4125
2363.80768	8378.1125
2366.63195	8370.4125
2369.45444	8354.3125
2372.27514	8326.7125
2375.09405	8320.0125
2377.91118	8329.2125
2380.72652	8289.4125
2383.54009	8255.0125
2386.35187	8264.9125
2389.16188	8227.0125
2391.97011	8216.0125
2394.77657	8224.4125
2397.58125	8202.2125
2400.38416	8187.3125
2403.18529	8171.7125
2405.98466	8190.6125
2408.78226	8150.7125
2411.57809	8137.1125
2414.37216	8124.9125
2417.16446	8144.4125
2419.955	8114.1125
2422.74378	8143.3125
2425.5308	8131.6125
2428.31606	8116.2125
2431.09956	8104.7125
2433.88131	8093.1125
2436.6613	8108.7125
2439.43954	8103.8125
2442.21603	8077.6125
2444.99077	8066.1125
2447.76377	8088.4125
2450.53501	8071.6125
2453.30451	8077.1125
2456.07226	8073.2125
2458.83827	8044.5125
2461.60254	8035.0125
2464.36507	8054.3125
2467.12586	8026.1125
2469.88492	8056.2125
2472.64224	8039.5125
2475.39782	8035.1125
2478.15167	8019.2125
2480.90379	8001.8125
2483.65417	8037.7125
2486.40283	8025.8125
2489.14976	8003.6125
2491.89497	8005.3125
2494.63845	8002.6125
2497.3802	7993.0125
2500.12024	8007.8125
2502.85855	7987.2125
2505.59514	7986.8125
2508.33002	7982.0125
2511.06318	7953.9125
2513.79462	7963.4125
2516.52435	7963.5125
2519.25237	7958.3125
2521.97867	7927.2125
2524.70327	7937.5125
2527.42616	7922.8125
2530.14734	7927.7125
2532.86681	7927.4125
2535.58458	7904.3125
2538.30065	7885.2125
2541.01501	7876.5125
2543.72768	7879.8125
2546.43864	7866.0125
2549.14791	7859.3125
2551.85548	7857.5125
2554.56136	7840.5125
2557.26554	7849.1125
2559.96803	7825.4125
2562.66883	7818.4125
2565.36794	7826.0125
2568.06536	7802.9125
2570.7611	7795.5125
2573.45514	7776.7125
2576.14751	7761.3125
2578.83819	7751.0125
2581.52719	7758.9125
2584.21451	7754.9125
2586.90015	7721.3125
2589.58411	7719.3125
2592.2664	7691.4125
2594.94701	7715.9125
2597.62594	7687.6125
2600.30321	7687.7125
2602.9788	7712.9125
2605.65273	7703.4125
2608.32498	7650.8125
2610.99557	7667.2125
2613.66449	7660.0125
2616.33175	7650.0125
2618.99734	7653.9125
2621.66128	7671.8125
2624.32355	7638.1125
2626.98416	7630.0125
2629.64311	7611.8125
2632.30041	7638.1125
2634.95605	7584.3125
2637.61004	7594.6125
2640.26238	7589.1125
2642.91306	7589.6125
2645.56209	7578.8125
2648.20948	7585.5125
2650.85521	7554.4125
2653.4993	7590.9125
2656.14175	7578.7125
2658.78255	7583.8125
2661.42171	7583.5125
2664.05923	7580.5125
2666.6951	7581.0125
2669.32934	7600.6125
2671.96194	7574.8125
2674.59291	7593.2125
2677.22224	7587.5125
2679.84993	7580.8125
2682.476	7586.7125
2685.10043	7572.2125
2687.72324	7553.4125
2690.34441	7562.4125
2692.96396	7575.9125
2695.58188	7575.1125
2698.19818	7558.7125
2700.81285	7560.8125
2703.4259	7567.9125
2706.03733	7549.3125
2708.64714	7540.2125
2711.25533	7565.2125
2713.86191	7568.0125
2716.46687	7584.5125
2719.07021	7575.1125
2721.67194	7597.4125
2724.27206	7591.8125
2726.87057	7599.4125
2729.46747	7592.1125
2732.06276	7608.3125
2734.65644	7601.1125
2737.24852	7597.4125
2739.83899	7576.1125
2742.42786	7581.6125
2745.01513	7574.9125
2747.60079	7576.5125
2750.18486	7535.3125
2752.76733	7539.2125
2755.3482	7540.8125
2757.92747	7561.4125
2760.50515	7518.6125
2763.08123	7533.0125
2765.65573	7529.9125
2768.22863	7517.7125
2770.79994	7514.3125
2773.36967	7510.8125
2775.9378	7515.0125
2778.50435	7504.5125
2781.06932	7489.8125
2783.6327	7472.3125
2786.1945	7465.2125
2788.75471	7463.3125
2791.31335	7450.4125
2793.87041	7432.9125
2796.42589	7435.6125
2798.97979	7422.1125
2801.53212	7395.9125
2804.08288	7388.5125
2806.63206	7382.9125
2809.17967	7369.1125
2811.72571	7323.9125
2814.27018	7322.4125
2816.81308	7320.6125
2819.35442	7315.9125
2821.89419	7303.4125
2824.43239	7283.7125
2826.96904	7287.5125
2829.50412	7282.4125
2832.03763	7271.2125
2834.56959	7282.4125
2837.1	7258.4125
2839.62884	7284.5125
2842.15613	7272.4125
2844.68186	7273.8125
2847.20604	7274.5125
2849.72867	7289.5125
2852.24974	7283.6125
2854.76927	7286.3125
2857.28724	7265.9125
2859.80367	7238.8125
2862.31855	7248.5125
2864.83189	7228.9125
2867.34368	7232.8125
2869.85393	7218.2125
2872.36264	7203.2125
2874.8698	7196.0125
2877.37543	7194.9125
2879.87952	7189.4125
2882.38207	7184.1125
2884.88308	7189.2125
2887.38256	7188.1125
2889.88051	7182.6125
2892.37692	7171.1125
2894.8718	7180.4125
2897.36515	7192.0125
2899.85698	7187.8125
2902.34727	7208.5125
2904.83604	7206.5125
2907.32328	7210.1125
2909.809	7195.6125
2912.29319	7214.6125
2914.77587	7212.1125
2917.25702	7208.9125
2919.73665	7190.5125
2922.21476	7193.2125
2924.69136	7199.9125
2927.16644	7217.3125
2929.64	7188.8125
2932.11205	7195.3125
2934.58258	7160.0125
2937.05161	7173.1125
2939.51912	7180.6125
2941.98513	7146.3125
2944.44962	7139.1125
2946.91261	7094.6125
2949.37409	7122.5125
2951.83407	7133.5125
2954.29254	7110.7125
2956.74951	7104.2125
2959.20498	7083.7125
2961.65895	7086.8125
2964.11142	7093.2125
2966.56239	7065.9125
2969.01186	7071.4125
2971.45984	7061.1125
2973.90632	7054.2125
2976.35131	7035.4125
2978.7948	7019.8125
2981.23681	6998.7125
2983.67732	7003.9125
2986.11635	6981.2125
2988.55388	6964.1125
2990.98993	6946.5125
2993.4245	6936.8125
2995.85758	6939.7125
2998.28917	6919.3125
3000.71928	6897.7125
3003.14791	6885.2125
3005.57506	6868.1125
3008.00073	6863.8125
3010.42493	6860.0125
3012.84764	6857.1125
3015.26888	6839.9125
3017.68865	6832.9125
3020.10694	6809.5125
3022.52376	6805.8125
3024.9391	6787.9125
3027.35298	6807.5125
3029.76539	6780.0125
3032.17632	6779.8125
3034.5858	6780.1125
3036.9938	6771.7125
3039.40034	6763.8125
3041.80542	6750.5125
3044.20903	6746.1125
3046.61118	6742.3125
3049.01187	6729.8125
3051.4111	6731.5125
3053.80888	6718.5125
3056.20519	6703.3125
3058.60005	6670.7125
3060.99345	6660.0125
3063.3854	6647.8125
3065.7759	6638.7125
3068.16494	6633.5125
3070.55254	6622.3125
3072.93868	6614.9125
