Data from AgNPs_UA_1uM_CRN_0uM_R6G_10uM_Q_RamanShift__5__12-16-35-870.txt Node

Date: Wed Jul 13 12:16:35 BST 2022
User: TCL
Spectrometer: QEP01345
Trigger mode: 4
Integration Time (sec): 7.000000E0
Scans to average: 10
Electric dark correction enabled: true
Nonlinearity correction enabled: false
Boxcar width: 0
XAxis mode: Raman Shifts
Number of Pixels in Spectrum: 1044
>>>>>Begin Spectral Data<<<<<
46.04893	-1.3
50.45542	-1.2
54.85868	-2.3
59.25871	0.2
63.6555	89
68.04907	99.8
72.43941	99.1
76.82654	101.3
81.21044	113.7
85.59113	116
89.96862	119.9
94.34289	123.4
98.71396	127
103.08183	131.3
107.4465	131.3
111.80798	133.3
116.16626	143
120.52136	148.8
124.87327	150.9
129.222	158.9
133.56755	163.3
137.90993	179.7
142.24913	196.9
146.58517	216.2
150.91804	245.8
155.24774	290.6
159.57429	359
163.89768	456.8
168.21792	603
172.53501	818.3
176.84895	1135
181.15975	1584.2
185.46741	2215.6
189.77193	3050.4
194.07331	4093.2
198.37157	5261
202.6667	6488.4
206.9587	7695.7
211.24758	8905.1
215.53334	10110.1
219.81599	11432.4
224.09553	12899.1
228.37195	14529.6
232.64527	16252.9
236.91549	18033.4
241.18261	19697.9
245.44663	21150
249.70755	22403.9
253.96539	23486.8
258.22014	24448.6
262.4718	25248.6
266.72039	25761.7
270.96589	25972.1
275.20832	25898.6
279.44768	25608.7
283.68397	25298.7
287.91719	25074
292.14735	24992.2
296.37445	25182.9
300.59849	25599.4
304.81948	26149.7
309.03742	26596
313.25231	26775.7
317.46415	26443.2
321.67296	25681.3
325.87872	25068.9
330.08145	24794.3
334.28114	24766.6
338.47781	25057.1
342.67145	25528
346.86207	26193.8
351.04966	26972.4
355.23424	27662.9
359.4158	28233.4
363.59435	28448.4
367.76989	28544.4
371.94243	28504.7
376.11196	28501.5
380.27849	28532.6
384.44203	28569.7
388.60257	28692.1
392.76012	28867.7
396.91468	29244
401.06626	29721.9
405.21485	29903.4
409.36047	29573
413.50311	29001
417.64277	28501.1
421.77947	28361
425.9132	28411.6
430.04396	28488.8
434.17176	28606
438.2966	28919.3
442.41849	29571.9
446.53742	30425.9
450.6534	31226.6
454.76644	31628.5
458.87653	31644.1
462.98368	31299.9
467.08789	30863.9
471.18916	30245.9
475.2875	29614.3
479.38291	29120
483.4754	28769.8
487.56496	28535.9
491.6516	28453.8
495.73531	28451.6
499.81612	28561.2
503.89401	28776.4
507.96899	28958.1
512.04106	28992.8
516.11023	29051.6
520.1765	29095.5
524.23987	29180
528.30034	29167.3
532.35792	29018.3
536.41261	28645.7
540.46441	28232.6
544.51333	28143.2
548.55936	28329.8
552.60252	28887.4
556.64279	29591.9
560.6802	30016.8
564.71473	30270.2
568.7464	30686.3
572.7752	31137.1
576.80114	31308.5
580.82422	31706.4
584.84444	32459.2
588.86181	33701.7
592.87633	34996.2
596.888	35206.8
600.89682	34438.9
604.9028	35581.6
608.90594	39779.9
612.90624	44140.7
616.90371	40774.5
620.89834	33284
624.89015	30288.7
628.87913	29967.5
632.86528	30187.3
636.84862	30200
640.82913	29714.1
644.80683	28907.2
648.78172	28496.6
652.75379	28687.5
656.72306	29367.7
660.68952	29937.9
664.65319	29644.2
668.61405	29066.6
672.57211	29040.2
676.52738	29153.9
680.47986	28972
684.42955	28636.3
688.37646	28619.4
692.32058	28843.4
696.26192	29291.6
700.20048	29772.1
704.13626	29940.1
708.06928	29747.8
711.99952	29568.5
715.927	29545.9
719.85171	29692.9
723.77365	29674
727.69284	29269.7
731.60928	29080.1
735.52295	29033.2
739.43388	29164.1
743.34206	29289.5
747.24749	29432.5
751.15017	29618.7
755.05012	30064.8
758.94733	31000.9
762.8418	33071.4
766.73354	36137.5
770.62254	38662.1
774.50882	38842
778.39237	37107.5
782.27321	34643.3
786.15132	32341.3
790.02671	30848.3
793.89938	30153
797.76935	29798.9
801.6366	29572.2
805.50115	29467.4
809.36299	29329.2
813.22213	29186.9
817.07857	29100.1
820.93231	29025.3
824.78336	29017.5
828.63172	29096.5
832.47738	29073.6
836.32036	29057.9
840.16066	29087
843.99827	29100
847.8332	29102
851.66546	29116
855.49504	29131
859.32195	29112.9
863.1462	29124.2
866.96777	29018.4
870.78668	29066.5
874.60293	29133
878.41652	29244.9
882.22745	29510.6
886.03573	29589.8
889.84136	29585.5
893.64433	29468
897.44466	29377.9
901.24235	29250.7
905.0374	29166.9
908.8298	29061.6
912.61957	29024.6
916.40671	29190.4
920.19121	29448.5
923.97308	29736.1
927.75233	29983.2
931.52895	30058.8
935.30295	29678.9
939.07433	29198.5
942.84309	28810.9
946.60924	28738.5
950.37278	28662.7
954.13371	28595.8
957.89203	28499.5
961.64774	28450.7
965.40086	28430.5
969.15137	28385
972.89929	28442.7
976.64461	28433.7
980.38733	28498.7
984.12747	28579
987.86502	28728.8
991.59999	28997.3
995.33237	29322.7
999.06217	29839.4
1002.78939	30508.3
1006.51404	31074.5
1010.23611	31553.6
1013.95561	31906.5
1017.67255	31851.5
1021.38692	31557.8
1025.09872	31043.6
1028.80796	30889.7
1032.51465	31143.1
1036.21877	31501.6
1039.92035	31535.3
1043.61937	31390.9
1047.31584	31088.9
1051.00976	30770.6
1054.70114	30656.9
1058.38998	30711.2
1062.07627	30836.4
1065.76003	30998.6
1069.44126	31279.8
1073.11995	31803.3
1076.79611	32378.8
1080.46974	32829
1084.14085	33281.2
1087.80943	33689.7
1091.47549	33828.9
1095.13903	33490.1
1098.80005	32915.9
1102.45857	32470.3
1106.11456	32116.9
1109.76805	31977.8
1113.41903	32155.1
1117.06751	32466.5
1120.71348	32998.2
1124.35696	33576.9
1127.99793	34107.7
1131.63641	33864.8
1135.2724	33242.5
1138.90589	32820.6
1142.5369	32541.1
1146.16542	32442.3
1149.79145	32387.3
1153.415	32382.2
1157.03607	32561.1
1160.65467	33057.9
1164.27079	34070.4
1167.88443	35416.1
1171.49561	37396.1
1175.10432	40227.5
1178.71056	43764.2
1182.31434	46578
1185.91565	47336
1189.51451	46350.2
1193.11091	44555
1196.70485	42760.4
1200.29634	41202.7
1203.88538	39946.1
1207.47197	38903.7
1211.05612	37904.7
1214.63782	37164.9
1218.21708	36642.1
1221.79391	36519
1225.36829	36645.4
1228.94024	36513.4
1232.50976	36012.1
1236.07685	35437.6
1239.6415	35089.7
1243.20374	35023.2
1246.76355	35240.8
1250.32093	35643
1253.8759	36221.3
1257.42845	37125.9
1260.97859	38234.2
1264.52631	39365
1268.07163	40421.2
1271.61453	41433.3
1275.15503	42263.4
1278.69312	42900.1
1282.22882	43447.1
1285.76211	44156.7
1289.29301	45315.5
1292.82151	46658.2
1296.34761	48355.3
1299.87133	50747
1303.39266	53948.6
1306.9116	58074.8
1310.42815	62195.4
1313.94233	64333.3
1317.45412	62896.9
1320.96354	59747.5
1324.47058	56682.9
1327.97525	54113.4
1331.47754	52396.4
1334.97747	51376.5
1338.47502	51052.3
1341.97022	51214
1345.46305	51884.7
1348.95352	53258
1352.44163	55179.4
1355.92738	58034.9
1359.41078	62424.8
1362.89183	66090.3
1366.37053	64344.2
1369.84688	57321.1
1373.32088	50028.7
1376.79254	45566.5
1380.26186	43781.2
1383.72883	43115.3
1387.19347	42630.7
1390.65578	41926.5
1394.11575	41267.6
1397.57339	41160.9
1401.0287	41179.9
1404.48168	41214.2
1407.93234	41171.1
1411.38068	40915.9
1414.82669	40464.8
1418.27039	39951.5
1421.71177	39301.9
1425.15083	38689.7
1428.58758	38557.8
1432.02203	39143.1
1435.45416	40013
1438.88399	40768.5
1442.31151	40882.2
1445.73673	40917.7
1449.15965	40782.3
1452.58027	40429.2
1455.9986	40183.8
1459.41463	40289.6
1462.82837	40770
1466.23982	41498.7
1469.64898	42096.8
1473.05586	42573.6
1476.46045	42874.2
1479.86276	42918.5
1483.26279	43005.4
1486.66054	43353.1
1490.05602	44054
1493.44922	45021.3
1496.84016	46537.4
1500.22882	48862.3
1503.61521	52104.1
1506.99934	55844.4
1510.38121	58626.3
1513.76081	58875
1517.13816	55864.6
1520.51324	51324.6
1523.88607	47499.8
1527.25665	45333
1530.62498	44454.5
1533.99105	43901.2
1537.35488	43393.1
1540.71647	42689.6
1544.07581	41871.1
1547.4329	41270.7
1550.78776	40773.5
1554.14038	40390.8
1557.49077	40358.7
1560.83892	40615.5
1564.18484	41180.9
1567.52853	41892.3
1570.86999	42502.5
1574.20922	42931.2
1577.54624	42843.7
1580.88103	41793.5
1584.2136	40747.7
1587.54395	40838.7
1590.87208	42209.3
1594.19801	44650.9
1597.52172	47258.9
1600.84321	48126.1
1604.16251	46601.7
1607.47959	43988
1610.79447	41077.7
1614.10715	38220.6
1617.41763	36004.6
1620.7259	34449.6
1624.03199	33795.5
1627.33587	33864.5
1630.63757	34638.3
1633.93707	36411.7
1637.23439	39409.6
1640.52951	44028
1643.82246	49690.9
1647.11321	54424.5
1650.40179	55624.8
1653.68819	51913.4
1656.97241	45196.9
1660.25446	39024.5
1663.53433	34795
1666.81203	32321.8
1670.08756	30870.1
1673.36092	29929.6
1676.63211	29308.3
1679.90115	28896.7
1683.16801	28587.7
1686.43272	28349.6
1689.69527	28194.2
1692.95567	28042.9
1696.2139	27945.7
1699.46999	27890.7
1702.72392	27846.9
1705.97571	27828.3
1709.22535	27812.1
1712.47284	27810.1
1715.71819	27844.2
1718.96139	27789.1
1722.20246	27706
1725.44139	27627
1728.67818	27520.2
1731.91284	27367
1735.14537	27253.5
1738.37576	27156.7
1741.60403	27076.5
1744.83017	27015.6
1748.05418	26906.8
1751.27607	26887.8
1754.49584	26891.4
1757.71349	26839
1760.92903	26793
1764.14244	26760.4
1767.35375	26803.5
1770.56294	26696.6
1773.77002	26704.5
1776.97499	26683.2
1780.17785	26666.9
1783.37861	26592.1
1786.57727	26532.9
1789.77382	26504.1
1792.96828	26489.1
1796.16064	26462.9
1799.3509	26441.7
1802.53907	26378
1805.72514	26299.5
1808.90913	26269.3
1812.09102	26183
1815.27083	26116.6
1818.44856	26026.9
1821.6242	26037.4
1824.79776	26021
1827.96924	25958.5
1831.13864	25967.5
1834.30597	25952.8
1837.47122	25882.5
1840.6344	25895.4
1843.7955	25893.2
1846.95454	25895.4
1850.11151	25864.7
1853.26642	25847.8
1856.41926	25809.9
1859.57004	25788.9
1862.71876	25817.9
1865.86542	25803
1869.01003	25837.7
1872.15258	25769.2
1875.29308	25755.7
1878.43152	25718.9
1881.56792	25688.8
1884.70227	25687.1
1887.83457	25687.2
1890.96482	25607.3
1894.09304	25610
1897.21921	25604.5
1900.34335	25566
1903.46544	25561.1
1906.58551	25526.1
1909.70353	25508.2
1912.81953	25465.7
1915.93349	25418.2
1919.04543	25394.7
1922.15534	25324.7
1925.26322	25302.2
1928.36908	25256.6
1931.47292	25221.3
1934.57473	25162.7
1937.67453	25097.1
1940.77232	25044.3
1943.86808	24955.4
1946.96184	24972.3
1950.05358	24877.4
1953.14331	24818.3
1956.23103	24706
1959.31675	24701.5
1962.40046	24622.5
1965.48217	24559
1968.56188	24472.9
1971.63959	24422.1
1974.7153	24395
1977.78901	24310.3
1980.86073	24253.6
1983.93046	24160.1
1986.99819	24084.7
1990.06394	24040.9
1993.1277	23950
1996.18947	23881.4
1999.24925	23846.3
2002.30706	23817.5
2005.36288	23698.3
2008.41672	23621.2
2011.46859	23570.5
2014.51848	23501.5
2017.56639	23435.1
2020.61233	23375.5
2023.6563	23326.4
2026.6983	23277.7
2029.73833	23280.6
2032.7764	23219.9
2035.8125	23132.8
2038.84664	23088.3
2041.87881	23095.4
2044.90903	23043.6
2047.93729	23002.2
2050.96359	23011.3
2053.98794	22941.5
2057.01034	22937.6
2060.03078	22935.1
2063.04927	22903
2066.06582	22924.9
2069.08042	22911.9
2072.09307	22860
2075.10378	22800.9
2078.11255	22787.5
2081.11938	22833.3
2084.12426	22820.9
2087.12722	22800.6
2090.12824	22803.5
2093.12732	22804.6
2096.12447	22804.7
2099.11969	22802.1
2102.11299	22787
2105.10435	22828
2108.09379	22851
2111.08131	22857.5
2114.0669	22879.3
2117.05057	22918.1
2120.03233	22910
2123.01216	22959.8
2125.99008	22980.7
2128.96609	22994.3
2131.94018	23045
2134.91236	23057.3
2137.88263	23068.3
2140.851	23094.8
2143.81746	23091.4
2146.78201	23107.2
2149.74466	23124.7
2152.7054	23155.9
2155.66425	23095
2158.6212	23059.5
2161.57625	23087.2
2164.52941	23066.9
2167.48067	23081.2
2170.43004	23065.1
2173.37752	23062.8
2176.32311	23124.1
2179.26681	23134.7
2182.20863	23119.2
2185.14856	23149.3
2188.08661	23102.5
2191.02278	23090.3
2193.95707	23138.3
2196.88948	23099.2
2199.82001	23094.8
2202.74867	23077
2205.67545	23056.2
2208.60037	23019.3
2211.52341	22983.6
2214.44458	22956.1
2217.36388	22944.6
2220.28132	22865.3
2223.1969	22857.5
2226.11061	22821.5
2229.02246	22798.4
2231.93245	22756.3
2234.84058	22693.9
2237.74686	22695.1
2240.65128	22645.2
2243.55385	22653.7
2246.45456	22655
2249.35343	22651.5
2252.25044	22620.6
2255.14561	22547.8
2258.03893	22560.4
2260.93041	22509.1
2263.82004	22435.2
2266.70783	22425.2
2269.59378	22356.8
2272.4779	22295.2
2275.36017	22252.2
2278.24061	22210.8
2281.11922	22202.1
2283.996	22135.2
2286.87094	22141.9
2289.74405	22108.7
2292.61534	22098.5
2295.4848	22012.1
2298.35243	22045.9
2301.21824	22034.8
2304.08223	22045.3
2306.94439	22056.8
2309.80474	22045.8
2312.66327	22092.1
2315.51999	22041.1
2318.37489	22041.1
2321.22797	21991.5
2324.07925	22000.3
2326.92871	21975.7
2329.77637	21902.2
2332.62222	21924.7
2335.46626	21900
2338.3085	21870.2
2341.14893	21808.3
2343.98756	21825.1
2346.8244	21801.4
2349.65943	21804.5
2352.49267	21829
2355.32411	21847.5
2358.15376	21852.5
2360.98161	21853.8
2363.80768	21777.6
2366.63195	21783.2
2369.45444	21740.8
2372.27514	21774.6
2375.09405	21748.1
2377.91118	21693
2380.72652	21655.9
2383.54009	21575.7
2386.35187	21560.2
2389.16188	21485.3
2391.97011	21430.6
2394.77657	21435.9
2397.58125	21355.5
2400.38416	21375.9
2403.18529	21326
2405.98466	21328
2408.78226	21287.3
2411.57809	21268.7
2414.37216	21247.4
2417.16446	21251.2
2419.955	21254.4
2422.74378	21210
2425.5308	21186
2428.31606	21234.8
2431.09956	21196.8
2433.88131	21190.8
2436.6613	21149
2439.43954	21127.1
2442.21603	21177.4
2444.99077	21156.9
2447.76377	21154.1
2450.53501	21126.5
2453.30451	21141.8
2456.07226	21095.8
2458.83827	21087.6
2461.60254	21065.7
2464.36507	21049.5
2467.12586	21026.3
2469.88492	21056.3
2472.64224	21071.4
2475.39782	21034.2
2478.15167	21076.7
2480.90379	21049.4
2483.65417	21051.3
2486.40283	21066.3
2489.14976	21042.9
2491.89497	21045.4
2494.63845	21052.1
2497.3802	21081
2500.12024	21078.8
2502.85855	21027.3
2505.59514	20994.5
2508.33002	20998.6
2511.06318	21007.9
2513.79462	20885.9
2516.52435	20851.1
2519.25237	20888.2
2521.97867	20868.7
2524.70327	20883.7
2527.42616	20806.4
2530.14734	20805.5
2532.86681	20789.2
2535.58458	20770
2538.30065	20757.7
2541.01501	20754.5
2543.72768	20737.9
2546.43864	20720.4
2549.14791	20722.2
2551.85548	20698.8
2554.56136	20663.3
2557.26554	20615.1
2559.96803	20601.6
2562.66883	20588.3
2565.36794	20573.7
2568.06536	20524.1
2570.7611	20506.3
2573.45514	20514.2
2576.14751	20535.9
2578.83819	20445.4
2581.52719	20463.1
2584.21451	20404.5
2586.90015	20418.2
2589.58411	20368
2592.2664	20329.8
2594.94701	20333.8
2597.62594	20324.9
2600.30321	20265.2
2602.9788	20255.3
2605.65273	20203.9
2608.32498	20215.5
2610.99557	20204.2
2613.66449	20185.4
2616.33175	20213.1
2618.99734	20216
2621.66128	20201.3
2624.32355	20158.7
2626.98416	20164.3
2629.64311	20154.6
2632.30041	20160.8
2634.95605	20109.8
2637.61004	20092.9
2640.26238	20030.7
2642.91306	19979.9
2645.56209	19952
2648.20948	19933.6
2650.85521	19943.6
2653.4993	19985.8
2656.14175	20010.1
2658.78255	20010.2
2661.42171	19998.6
2664.05923	20057
2666.6951	20023.9
2669.32934	20039.4
2671.96194	20022
2674.59291	20054.1
2677.22224	20091.5
2679.84993	20077.4
2682.476	20071.6
2685.10043	20041.6
2687.72324	20001.9
2690.34441	19990.7
2692.96396	20033.7
2695.58188	20024.8
2698.19818	19986.8
2700.81285	20004.4
2703.4259	19987.3
2706.03733	20060.3
2708.64714	20032.9
2711.25533	20086.3
2713.86191	20085.8
2716.46687	20076.7
2719.07021	20053.3
2721.67194	20099
2724.27206	20078.5
2726.87057	20097.1
2729.46747	20145.9
2732.06276	20124
2734.65644	20124.5
2737.24852	20137.4
2739.83899	20077.9
2742.42786	20087.4
2745.01513	20035.6
2747.60079	20057.9
2750.18486	20031.4
2752.76733	19980.5
2755.3482	19961.7
2757.92747	19969.9
2760.50515	19920.6
2763.08123	19925.8
2765.65573	19937.1
2768.22863	19923
2770.79994	19878.3
2773.36967	19886.3
2775.9378	19874.8
2778.50435	19860.9
2781.06932	19863.7
2783.6327	19848.6
2786.1945	19782.6
2788.75471	19782.6
2791.31335	19752.7
2793.87041	19765.2
2796.42589	19694.8
2798.97979	19701.2
2801.53212	19680.1
2804.08288	19612.6
2806.63206	19554.1
2809.17967	19516.5
2811.72571	19468.8
2814.27018	19489.2
2816.81308	19461.2
2819.35442	19407.8
2821.89419	19357.9
2824.43239	19389.9
2826.96904	19346.8
2829.50412	19348.4
2832.03763	19328
2834.56959	19317.5
2837.1	19262.8
2839.62884	19262
2842.15613	19279.7
2844.68186	19288.6
2847.20604	19233.5
2849.72867	19226.8
2852.24974	19218
2854.76927	19194.3
2857.28724	19191.3
2859.80367	19189.1
2862.31855	19178.6
2864.83189	19140.7
2867.34368	19136.5
2869.85393	19122.7
2872.36264	19110.2
2874.8698	19072.1
2877.37543	19079.9
2879.87952	19049.2
2882.38207	19031.3
2884.88308	19035.5
2887.38256	19009
2889.88051	18993.5
2892.37692	19022.4
2894.8718	19002.1
2897.36515	19058.4
2899.85698	19074
2902.34727	19099.6
2904.83604	19124.3
2907.32328	19115.1
2909.809	19163
2912.29319	19154.6
2914.77587	19148
2917.25702	19179.4
2919.73665	19152.9
2922.21476	19128.6
2924.69136	19076.6
2927.16644	19065.3
2929.64	19052.2
2932.11205	19045.3
2934.58258	18955.7
2937.05161	18987.5
2939.51912	19013.8
2941.98513	19027.9
2944.44962	18966.9
2946.91261	18907.1
2949.37409	18949.4
2951.83407	18959.2
2954.29254	18936.3
2956.74951	18946.7
2959.20498	18942.9
2961.65895	18932.6
2964.11142	18933.9
2966.56239	18943.1
2969.01186	18945.2
2971.45984	18947.1
2973.90632	18916.2
2976.35131	18836.1
2978.7948	18845.7
2981.23681	18807.1
2983.67732	18791.8
2986.11635	18692.9
2988.55388	18681.2
2990.98993	18641.2
2993.4245	18609.9
2995.85758	18560.7
2998.28917	18542.6
3000.71928	18494
3003.14791	18463.4
3005.57506	18434.5
3008.00073	18389.8
3010.42493	18398.9
3012.84764	18375.1
3015.26888	18345
3017.68865	18287.2
3020.10694	18286.7
3022.52376	18241.4
3024.9391	18258.5
3027.35298	18202.6
3029.76539	18216.4
3032.17632	18173.6
3034.5858	18161.9
3036.9938	18143.2
3039.40034	18110.5
3041.80542	18088.3
3044.20903	18035.2
3046.61118	18047.3
3049.01187	17975.4
3051.4111	17997.4
3053.80888	18018
3056.20519	17966.2
3058.60005	17930
3060.99345	17864.7
3063.3854	17829.4
3065.7759	17773.8
3068.16494	17744.2
3070.55254	17681.1
3072.93868	17689.8
3075.32338	17631.8
3077.70662	17603.7
3080.08842	17581
3082.46878	17577.3
3084.84769	17525.1
3087.22515	17517.6
3089.60118	17502.4
3091.97576	17509
3094.3489	17511.7
3096.72061	17520.9
3099.09087	17470
3101.4597	17512.1
3103.82709	17510.2
3106.19305	17478.9
3108.55757	17479.5
3110.92066	17438.4
3113.28232	17409.2
3115.64255	17380.3
3118.00134	17364.9
3120.35871	17345.9
3122.71466	17289.9
3125.06917	17293.6
3127.42226	17262.4
3129.77393	17257.7
3132.12417	17214.4
3134.47299	17181.6
3136.82039	17149.4
3139.16636	17214.2
3141.51092	17207.2
3143.85406	17191.7
3146.19579	17161
3148.53609	17163.6
3150.87499	17163.8
3153.21246	17158.1
3155.54853	17191.9
3157.88318	17163.8
3160.21642	17215.8
3162.54826	17200.1
3164.87868	17185.6
3167.2077	17197.6
3169.5353	17208.3
3171.86151	17166.2
3174.18631	17188.4
3176.5097	17143.2
3178.83169	17086
3181.15228	17107.5
3183.47147	17043.2
3185.78926	17020.4
3188.10565	17021.2
3190.42065	17001
3192.73424	17014.5
3195.04645	16969.1
3197.35725	16965.7
3199.66667	16962
3201.97469	16975.7
3204.28132	16929.1
3206.58656	16972
3208.8904	16964.3
3211.19287	16952.4
3213.49394	16934.5
3215.79363	16937.2
3218.09193	16984.3
3220.38884	17002.8
3222.68438	17021.9
3224.97853	16975.2
3227.2713	16968.1
3229.56269	16951.8
3231.8527	16935
3234.14133	16934.8
3236.42858	16853.8
3238.71446	16851.7
3240.99896	16807.5
3243.28209	16806.8
3245.56384	16775.3
3247.84423	16795.1
3250.12324	16734.5
3252.40088	16687.2
3254.67715	16702.8
3256.95205	16709.8
3259.22558	16719.6
3261.49775	16668.9
3263.76855	16695.6
3266.03799	16668.3
3268.30606	16635.9
3270.57277	16644.8
3272.83812	16612.4
3275.10211	16554.3
3277.36474	16535.3
3279.62601	16515.1
3281.88593	16505.7
3284.14448	16516.2
3286.40168	16515.2
3288.65753	16486.9
3290.91202	16508.8
3293.16516	16461.2
3295.41695	16446.3
3297.66738	16392.8
3299.91647	16286.5
3302.16421	16197.8
3304.4106	16123
3306.65564	16050
3308.89933	15931
3311.14169	15846.4
3313.38269	15715.5
3315.62236	15620.2
3317.86068	15493
3320.09766	15391.4
3322.3333	15301.6
3324.5676	15239.8
3326.80056	15029
3329.03219	14946.9
3331.26248	5.8
3333.49143	1.1
3335.71905	0.3
