Data from AgNPs_UA_2uM_CRN_0uM_R6G_10uM_Q_RamanShift__4__13-05-41-901.txt Node

Date: Wed Jul 13 13:05:41 BST 2022
User: TCL
Spectrometer: QEP01345
Trigger mode: 4
Integration Time (sec): 7.000000E0
Scans to average: 10
Electric dark correction enabled: true
Nonlinearity correction enabled: false
Boxcar width: 0
XAxis mode: Raman Shifts
Number of Pixels in Spectrum: 1044
>>>>>Begin Spectral Data<<<<<
46.04893	-0.25
50.45542	-1.55
54.85868	-0.35
59.25871	-0.55
63.6555	99.45
68.04907	107.95
72.43941	109.75
76.82654	117.05
81.21044	124.15
85.59113	127.25
89.96862	132.75
94.34289	132.65
98.71396	143.45
103.08183	142.25
107.4465	150.85
111.80798	149.35
116.16626	155.15
120.52136	159.15
124.87327	165.25
129.222	176.45
133.56755	186.45
137.90993	200.75
142.24913	217.15
146.58517	240.15
150.91804	274.85
155.24774	329.55
159.57429	405.65
163.89768	518.95
168.21792	682.35
172.53501	930.15
176.84895	1297.05
181.15975	1817.75
185.46741	2530.45
189.77193	3501.95
194.07331	4678.35
198.37157	6014.45
202.6667	7415.35
206.9587	8813.85
211.24758	10150.45
215.53334	11540.45
219.81599	13075.45
224.09553	14718.75
228.37195	16557.55
232.64527	18540.95
236.91549	20572.85
241.18261	22538.55
245.44663	24252.95
249.70755	25714.05
253.96539	27030.65
258.22014	28156.85
262.4718	29045.25
266.72039	29669.65
270.96589	29941.35
275.20832	29823.45
279.44768	29619.75
283.68397	29258.05
287.91719	28972.65
292.14735	28925.95
296.37445	29126.25
300.59849	29534.15
304.81948	30095.45
309.03742	30528.85
313.25231	30617.85
317.46415	30240.15
321.67296	29489.55
325.87872	28802.75
330.08145	28492.25
334.28114	28491.35
338.47781	28792.35
342.67145	29323.05
346.86207	29982.75
351.04966	30811.15
355.23424	31564.25
359.4158	32100.05
363.59435	32377.65
367.76989	32512.75
371.94243	32531.85
376.11196	32534.25
380.27849	32610.25
384.44203	32685.65
388.60257	32831.25
392.76012	33077.45
396.91468	33441.65
401.06626	33985.05
405.21485	34269.05
409.36047	33908.55
413.50311	33190.35
417.64277	32640.65
421.77947	32529.15
425.9132	32539.15
430.04396	32725.25
434.17176	32883.45
438.2966	33280.15
442.41849	34040.65
446.53742	35110.85
450.6534	36176.55
454.76644	36651.75
458.87653	36631.55
462.98368	36086.35
467.08789	35605.65
471.18916	34902.05
475.2875	34222.25
479.38291	33666.35
483.4754	33268.55
487.56496	32980.25
491.6516	32838.15
495.73531	32771.05
499.81612	32859.65
503.89401	33064.45
507.96899	33221.65
512.04106	33209.15
516.11023	33196.25
520.1765	33233.25
524.23987	33320.35
528.30034	33305.55
532.35792	33117.65
536.41261	32759.65
540.46441	32326.35
544.51333	32226.75
548.55936	32517.15
552.60252	33154.25
556.64279	33974.95
560.6802	34492.05
564.71473	34702.45
568.7464	35219.35
572.7752	35825.25
576.80114	36108.65
580.82422	36664.45
584.84444	37744.15
588.86181	39309.25
592.87633	40888.35
596.888	41060.75
600.89682	39968.55
604.9028	40753.05
608.90594	45244.45
612.90624	49588.95
616.90371	45473.35
620.89834	37491.85
624.89015	34455.55
628.87913	34191.95
632.86528	34445.25
636.84862	34324.25
640.82913	33748.05
644.80683	32899.15
648.78172	32374.55
652.75379	32567.95
656.72306	33281.05
660.68952	33948.95
664.65319	33599.15
668.61405	32907.85
672.57211	32907.65
676.52738	33015.45
680.47986	32790.55
684.42955	32503.55
688.37646	32424.95
692.32058	32724.85
696.26192	33287.15
700.20048	33811.95
704.13626	33974.35
708.06928	33780.15
711.99952	33624.55
715.927	33674.95
719.85171	33840.75
723.77365	33734.15
727.69284	33278.45
731.60928	33005.65
735.52295	32988.85
739.43388	33088.55
743.34206	33258.55
747.24749	33407.95
751.15017	33644.95
755.05012	34213.45
758.94733	35281.95
762.8418	37599.55
766.73354	41065.05
770.62254	43821.45
774.50882	43967.25
778.39237	41859.75
782.27321	38930.15
786.15132	36344.55
790.02671	34779.65
793.89938	33983.95
797.76935	33647.15
801.6366	33480.55
805.50115	33309.15
809.36299	33186.35
813.22213	33036.15
817.07857	32943.75
820.93231	32800.75
824.78336	32763.75
828.63172	32850.35
832.47738	32848.25
836.32036	32866.25
840.16066	32926.95
843.99827	32946.95
847.8332	32925.65
851.66546	32965.55
855.49504	33035.05
859.32195	33045.25
863.1462	32921.45
866.96777	32858.25
870.78668	32837.35
874.60293	32949.25
878.41652	33046.55
882.22745	33230.75
886.03573	33343.55
889.84136	33316.75
893.64433	33182.15
897.44466	33042.05
901.24235	32989.15
905.0374	32864.15
908.8298	32782.75
912.61957	32812.75
916.40671	33011.45
920.19121	33379.25
923.97308	33798.45
927.75233	33960.65
931.52895	33887.35
935.30295	33458.75
939.07433	32855.85
942.84309	32467.55
946.60924	32335.45
950.37278	32291.65
954.13371	32207.65
957.89203	32126.15
961.64774	32073.95
965.40086	32100.25
969.15137	32090.25
972.89929	32016.55
976.64461	32014.65
980.38733	32097.35
984.12747	32189.25
987.86502	32402.35
991.59999	32688.65
995.33237	33134.15
999.06217	33797.85
1002.78939	34482.15
1006.51404	35076.75
1010.23611	35623.55
1013.95561	35916.65
1017.67255	35946.25
1021.38692	35621.05
1025.09872	35080.95
1028.80796	34983.75
1032.51465	35374.45
1036.21877	35873.35
1039.92035	35898.45
1043.61937	35709.65
1047.31584	35309.05
1051.00976	34843.15
1054.70114	34665.15
1058.38998	34664.55
1062.07627	34864.15
1065.76003	35073.65
1069.44126	35397.35
1073.11995	35935.45
1076.79611	36520.45
1080.46974	37000.15
1084.14085	37428.05
1087.80943	37932.95
1091.47549	38074.65
1095.13903	37733.25
1098.80005	37091.85
1102.45857	36471.15
1106.11456	36109.75
1109.76805	36014.65
1113.41903	36119.15
1117.06751	36584.25
1120.71348	37133.95
1124.35696	37719.45
1127.99793	38186.35
1131.63641	38022.35
1135.2724	37420.95
1138.90589	36951.95
1142.5369	36800.05
1146.16542	36773.65
1149.79145	36847.35
1153.415	36919.25
1157.03607	37181.85
1160.65467	37866.25
1164.27079	39074.25
1167.88443	40796.85
1171.49561	43098.15
1175.10432	46478.35
1178.71056	50527.45
1182.31434	53767.05
1185.91565	54595.25
1189.51451	53330.15
1193.11091	51195.35
1196.70485	49033.35
1200.29634	47201.75
1203.88538	45865.05
1207.47197	44589.25
1211.05612	43554.35
1214.63782	42785.55
1218.21708	42204.35
1221.79391	42023.85
1225.36829	42144.55
1228.94024	41894.85
1232.50976	41221.95
1236.07685	40494.25
1239.6415	40081.95
1243.20374	39984.95
1246.76355	40312.55
1250.32093	40824.55
1253.8759	41551.85
1257.42845	42595.35
1260.97859	43828.55
1264.52631	45043.75
1268.07163	46272.55
1271.61453	47339.15
1275.15503	48431.95
1278.69312	49345.95
1282.22882	50209.65
1285.76211	51338.05
1289.29301	52847.45
1292.82151	54707.55
1296.34761	56959.35
1299.87133	60098.45
1303.39266	64058.65
1306.9116	68618.25
1310.42815	73137.65
1313.94233	75380.65
1317.45412	73776.95
1320.96354	70363.95
1324.47058	66949.15
1327.97525	64065.45
1331.47754	62045.55
1334.97747	60813.25
1338.47502	60206.35
1341.97022	60156.55
1345.46305	60721.25
1348.95352	61910.45
1352.44163	63939.55
1355.92738	67148.85
1359.41078	72152.15
1362.89183	76191.75
1366.37053	74288.05
1369.84688	66567.25
1373.32088	58214.75
1376.79254	53059.75
1380.26186	51001.35
1383.72883	50471.45
1387.19347	50126.15
1390.65578	49315.95
1394.11575	48774.15
1397.57339	48647.25
1401.0287	48822.55
1404.48168	48767.75
1407.93234	48512.95
1411.38068	47949.55
1414.82669	47175.45
1418.27039	46226.45
1421.71177	45273.25
1425.15083	44390.05
1428.58758	44190.35
1432.02203	44793.65
1435.45416	45934.05
1438.88399	46748.85
1442.31151	47098.35
1445.73673	47256.85
1449.15965	47154.55
1452.58027	46901.45
1455.9986	46584.75
1459.41463	46606.15
1462.82837	47067.95
1466.23982	47898.25
1469.64898	48604.55
1473.05586	49194.45
1476.46045	49515.05
1479.86276	49549.45
1483.26279	49623.85
1486.66054	50008.65
1490.05602	50810.85
1493.44922	51979.75
1496.84016	53619.05
1500.22882	56012.65
1503.61521	59408.95
1506.99934	63240.35
1510.38121	66202.35
1513.76081	66412.85
1517.13816	63321.65
1520.51324	58575.75
1523.88607	54939.95
1527.25665	53008.15
1530.62498	52280.95
1533.99105	51759.85
1537.35488	51084.85
1540.71647	50096.05
1544.07581	48952.95
1547.4329	47966.95
1550.78776	47132.35
1554.14038	46674.85
1557.49077	46609.55
1560.83892	46748.85
1564.18484	47372.85
1567.52853	48074.05
1570.86999	48811.35
1574.20922	49421.05
1577.54624	49381.95
1580.88103	48407.05
1584.2136	47474.15
1587.54395	47835.75
1590.87208	49640.35
1594.19801	52561.35
1597.52172	55534.25
1600.84321	56340.15
1604.16251	54347.85
1607.47959	50954.45
1610.79447	47324.35
1614.10715	43864.25
1617.41763	41200.45
1620.7259	39528.25
1624.03199	38752.65
1627.33587	38901.45
1630.63757	39868.85
1633.93707	41972.35
1637.23439	45680.85
1640.52951	51128.05
1643.82246	57968.55
1647.11321	63548.95
1650.40179	64703.85
1653.68819	60107.95
1656.97241	52250.05
1660.25446	44939.65
1663.53433	39920.35
1666.81203	36869.55
1670.08756	35092.15
1673.36092	33969.45
1676.63211	33218.55
1679.90115	32677.15
1683.16801	32292.35
1686.43272	32005.75
1689.69527	31811.25
1692.95567	31640.75
1696.2139	31577.05
1699.46999	31502.05
1702.72392	31397.65
1705.97571	31433.55
1709.22535	31360.85
1712.47284	31363.65
1715.71819	31360.45
1718.96139	31326.55
1722.20246	31239.05
1725.44139	31112.55
1728.67818	30983.65
1731.91284	30873.85
1735.14537	30700.15
1738.37576	30579.85
1741.60403	30482.95
1744.83017	30411.45
1748.05418	30417.95
1751.27607	30285.25
1754.49584	30276.95
1757.71349	30228.35
1760.92903	30195.15
1764.14244	30122.75
1767.35375	30119.45
1770.56294	30066.65
1773.77002	30039.45
1776.97499	29998.45
1780.17785	29959.25
1783.37861	29912.25
1786.57727	29886.95
1789.77382	29867.35
1792.96828	29864.45
1796.16064	29752.85
1799.3509	29706.15
1802.53907	29656.35
1805.72514	29631.75
1808.90913	29517.15
1812.09102	29504.05
1815.27083	29417.05
1818.44856	29353.15
1821.6242	29328.95
1824.79776	29271.25
1827.96924	29268.65
1831.13864	29262.05
1834.30597	29244.05
1837.47122	29206.75
1840.6344	29164.05
1843.7955	29143.95
1846.95454	29135.15
1850.11151	29118.95
1853.26642	29110.15
1856.41926	29111.45
1859.57004	29141.35
1862.71876	29081.35
1865.86542	29064.15
1869.01003	29012.85
1872.15258	28993.95
1875.29308	29008.65
1878.43152	29006.65
1881.56792	28930.55
1884.70227	28944.55
1887.83457	28924.75
1890.96482	28893.45
1894.09304	28810.45
1897.21921	28843.55
1900.34335	28860.45
1903.46544	28788.75
1906.58551	28755.75
1909.70353	28765.85
1912.81953	28744.25
1915.93349	28693.15
1919.04543	28670.65
1922.15534	28591.85
1925.26322	28553.85
1928.36908	28513.65
1931.47292	28499.85
1934.57473	28415.45
1937.67453	28362.35
1940.77232	28309.85
1943.86808	28207.55
1946.96184	28157.25
1950.05358	28085.05
1953.14331	27981.55
1956.23103	27930.15
1959.31675	27901.55
1962.40046	27818.35
1965.48217	27780.45
1968.56188	27664.65
1971.63959	27580.85
1974.7153	27519.05
1977.78901	27462.05
1980.86073	27318.65
1983.93046	27296.95
1986.99819	27187.75
1990.06394	27134.95
1993.1277	27062.35
1996.18947	27020.55
1999.24925	26983.15
2002.30706	26884.55
2005.36288	26850.55
2008.41672	26747.55
2011.46859	26661.65
2014.51848	26578.85
2017.56639	26539.55
2020.61233	26473.35
2023.6563	26410.15
2026.6983	26344.75
2029.73833	26294.85
2032.7764	26265.95
2035.8125	26254.95
2038.84664	26172.25
2041.87881	26171.35
2044.90903	26098.65
2047.93729	26062.75
2050.96359	26044.75
2053.98794	26004.65
2057.01034	26004.65
2060.03078	25975.75
2063.04927	25934.25
2066.06582	25909.75
2069.08042	25907.85
2072.09307	25924.65
2075.10378	25891.85
2078.11255	25898.05
2081.11938	25915.35
2084.12426	25799.65
2087.12722	25823.25
2090.12824	25784.95
2093.12732	25780.45
2096.12447	25829.45
2099.11969	25874.45
2102.11299	25920.65
2105.10435	25877.75
2108.09379	25879.85
2111.08131	25947.85
2114.0669	25911.45
2117.05057	25986.45
2120.03233	25986.25
2123.01216	26033.55
2125.99008	26035.75
2128.96609	26075.95
2131.94018	26127.55
2134.91236	26156.45
2137.88263	26153.55
2140.851	26205.85
2143.81746	26192.15
2146.78201	26196.55
2149.74466	26196.55
2152.7054	26249.85
2155.66425	26196.45
2158.6212	26189.35
2161.57625	26179.25
2164.52941	26174.35
2167.48067	26189.15
2170.43004	26180.15
2173.37752	26164.45
2176.32311	26194.55
2179.26681	26159.25
2182.20863	26174.65
2185.14856	26186.45
2188.08661	26195.85
2191.02278	26191.15
2193.95707	26224.55
2196.88948	26152.85
2199.82001	26197.15
2202.74867	26110.65
2205.67545	26125.05
2208.60037	26112.45
2211.52341	26071.85
2214.44458	26047.95
2217.36388	25984.65
2220.28132	25961.35
2223.1969	25922.35
2226.11061	25883.35
2229.02246	25806.45
2231.93245	25805.95
2234.84058	25805.45
2237.74686	25788.45
2240.65128	25720.25
2243.55385	25695.55
2246.45456	25699.45
2249.35343	25667.25
2252.25044	25689.35
2255.14561	25651.85
2258.03893	25630.15
2260.93041	25574.15
2263.82004	25488.25
2266.70783	25503.25
2269.59378	25374.05
2272.4779	25331.35
2275.36017	25279.35
2278.24061	25248.25
2281.11922	25236.95
2283.996	25155.85
2286.87094	25152.05
2289.74405	25107.75
2292.61534	25106.05
2295.4848	25068.25
2298.35243	25131.85
2301.21824	25129.65
2304.08223	25096.85
2306.94439	25101.15
2309.80474	25088.65
2312.66327	25105.65
2315.51999	25079.45
2318.37489	25095.55
2321.22797	25037.15
2324.07925	25028.65
2326.92871	24962.85
2329.77637	25016.45
2332.62222	24946.85
2335.46626	24919.35
2338.3085	24919.95
2341.14893	24920.65
2343.98756	24857.45
2346.8244	24858.75
2349.65943	24878.75
2352.49267	24876.25
2355.32411	24930.25
2358.15376	24914.85
2360.98161	24871.05
2363.80768	24864.05
2366.63195	24851.15
2369.45444	24822.25
2372.27514	24820.15
2375.09405	24774.45
2377.91118	24737.95
2380.72652	24677.85
2383.54009	24679.95
2386.35187	24594.35
2389.16188	24498.25
2391.97011	24489.75
2394.77657	24432.85
2397.58125	24419.55
2400.38416	24334.65
2403.18529	24277.65
2405.98466	24313.95
2408.78226	24234.25
2411.57809	24251.95
2414.37216	24231.25
2417.16446	24211.15
2419.955	24180.15
2422.74378	24202.75
2425.5308	24164.95
2428.31606	24201.65
2431.09956	24166.35
2433.88131	24121.55
2436.6613	24074.45
2439.43954	24138.15
2442.21603	24137.85
2444.99077	24124.15
2447.76377	24145.45
2450.53501	24110.65
2453.30451	24146.85
2456.07226	24095.05
2458.83827	24074.05
2461.60254	24038.45
2464.36507	23977.55
2467.12586	23965.95
2469.88492	23971.25
2472.64224	24035.65
2475.39782	24014.05
2478.15167	24069.55
2480.90379	24064.15
2483.65417	24099.75
2486.40283	24099.85
2489.14976	24117.85
2491.89497	24101.95
2494.63845	24101.95
2497.3802	24105.85
2500.12024	24123.45
2502.85855	24093.75
2505.59514	24062.45
2508.33002	24046.25
2511.06318	24039.45
2513.79462	23934.35
2516.52435	23905.85
2519.25237	23856.25
2521.97867	23804.85
2524.70327	23848.75
2527.42616	23796.65
2530.14734	23830.35
2532.86681	23789.05
2535.58458	23767.85
2538.30065	23770.55
2541.01501	23746.25
2543.72768	23744.95
2546.43864	23742.25
2549.14791	23704.95
2551.85548	23676.65
2554.56136	23637.95
2557.26554	23619.15
2559.96803	23610.65
2562.66883	23567.45
2565.36794	23546.15
2568.06536	23532.05
2570.7611	23516.65
2573.45514	23493.15
2576.14751	23454.75
2578.83819	23407.95
2581.52719	23415.65
2584.21451	23414.45
2586.90015	23414.55
2589.58411	23355.25
2592.2664	23372.85
2594.94701	23294.75
2597.62594	23312.05
2600.30321	23294.05
2602.9788	23277.25
2605.65273	23243.75
2608.32498	23210.05
2610.99557	23206.05
2613.66449	23239.45
2616.33175	23214.95
2618.99734	23257.95
2621.66128	23197.05
2624.32355	23180.85
2626.98416	23143.55
2629.64311	23136.05
2632.30041	23099.55
2634.95605	23111.35
2637.61004	23053.15
2640.26238	23013.05
2642.91306	23003.05
2645.56209	22944.15
2648.20948	22977.15
2650.85521	22960.15
2653.4993	22983.25
2656.14175	22981.25
2658.78255	23004.55
2661.42171	23010.85
2664.05923	23038.25
2666.6951	23063.25
2669.32934	23063.55
2671.96194	23039.25
2674.59291	23090.85
2677.22224	23052.45
2679.84993	23053.95
2682.476	23058.85
2685.10043	23035.75
2687.72324	23019.85
2690.34441	23074.35
2692.96396	23025.75
2695.58188	23017.65
2698.19818	23062.95
2700.81285	23060.55
2703.4259	23033.15
2706.03733	23045.75
2708.64714	23083.35
2711.25533	23082.65
2713.86191	23101.75
2716.46687	23117.05
2719.07021	23119.85
2721.67194	23110.85
2724.27206	23117.85
2726.87057	23164.95
2729.46747	23158.05
2732.06276	23208.85
2734.65644	23198.65
2737.24852	23170.85
2739.83899	23138.85
2742.42786	23112.25
2745.01513	23097.55
2747.60079	23066.15
2750.18486	23000.45
2752.76733	23005.35
2755.3482	23002.65
2757.92747	22965.85
2760.50515	22988.35
2763.08123	22943.35
2765.65573	22913.45
2768.22863	22945.25
2770.79994	22907.15
2773.36967	22900.35
2775.9378	22888.15
2778.50435	22920.35
2781.06932	22877.95
2783.6327	22864.25
2786.1945	22829.55
2788.75471	22840.65
2791.31335	22771.15
2793.87041	22754.75
2796.42589	22737.45
2798.97979	22707.35
2801.53212	22692.35
2804.08288	22674.25
2806.63206	22609.15
2809.17967	22551.75
2811.72571	22493.35
2814.27018	22477.35
2816.81308	22463.25
2819.35442	22393.05
2821.89419	22368.45
2824.43239	22335.75
2826.96904	22345.85
2829.50412	22304.45
2832.03763	22291.15
2834.56959	22276.25
2837.1	22245.15
2839.62884	22254.85
2842.15613	22232.65
2844.68186	22301.15
2847.20604	22231.65
2849.72867	22203.75
2852.24974	22153.15
2854.76927	22152.65
2857.28724	22120.75
2859.80367	22109.85
2862.31855	22101.85
2864.83189	22076.05
2867.34368	22059.05
2869.85393	22037.65
2872.36264	22040.75
2874.8698	21994.45
2877.37543	22028.75
2879.87952	22011.25
2882.38207	21984.65
2884.88308	21960.05
2887.38256	21987.45
2889.88051	21958.35
2892.37692	21950.15
2894.8718	22010.15
2897.36515	22047.25
2899.85698	22043.45
2902.34727	22087.85
2904.83604	22083.75
2907.32328	22138.75
2909.809	22143.35
2912.29319	22156.35
2914.77587	22114.15
2917.25702	22176.55
2919.73665	22146.35
2922.21476	22136.95
2924.69136	22037.25
2927.16644	22087.75
2929.64	22057.85
2932.11205	22045.25
2934.58258	21973.65
2937.05161	22008.35
2939.51912	22017.85
2941.98513	21994.15
2944.44962	21976.35
2946.91261	21918.95
2949.37409	21954.95
2951.83407	21921.45
2954.29254	21958.45
2956.74951	21960.05
2959.20498	21975.05
2961.65895	21922.65
2964.11142	21975.15
2966.56239	21905.95
2969.01186	21942.95
2971.45984	21901.95
2973.90632	21863.05
2976.35131	21834.55
2978.7948	21830.25
2981.23681	21785.75
2983.67732	21743.95
2986.11635	21712.15
2988.55388	21674.55
2990.98993	21651.65
2993.4245	21611.15
2995.85758	21549.55
2998.28917	21499.25
3000.71928	21493.95
3003.14791	21452.65
3005.57506	21445.55
3008.00073	21364.75
3010.42493	21341.05
3012.84764	21294.35
3015.26888	21280.05
3017.68865	21237.95
3020.10694	21221.55
3022.52376	21173.95
3024.9391	21152.05
3027.35298	21126.25
3029.76539	21135.85
3032.17632	21145.45
3034.5858	21101.75
3036.9938	21109.35
3039.40034	21005.65
3041.80542	20986.55
3044.20903	20980.45
3046.61118	20969.25
3049.01187	20922.75
3051.4111	20905.45
3053.80888	20882.05
3056.20519	20872.15
3058.60005	20778.75
3060.99345	20795.05
3063.3854	20771.05
3065.7759	20696.25
3068.16494	20645.95
3070.55254	20564.45
3072.93868	20551.35
3075.32338	20497.85
3077.70662	20438.25
3080.08842	20413.55
3082.46878	20404.85
3084.84769	20374.25
3087.22515	20376.15
3089.60118	20334.25
3091.97576	20357.65
3094.3489	20310.45
3096.72061	20307.65
3099.09087	20317.65
3101.4597	20307.35
3103.82709	20285.55
3106.19305	20299.25
3108.55757	20287.65
3110.92066	20237.35
3113.28232	20244.35
3115.64255	20221.05
3118.00134	20167.45
3120.35871	20151.55
3122.71466	20118.25
3125.06917	20032.75
3127.42226	20040.75
3129.77393	20036.25
3132.12417	19981.45
3134.47299	19966.85
3136.82039	19954.25
3139.16636	19945.55
3141.51092	19961.95
3143.85406	19935.65
3146.19579	19969.95
3148.53609	19930.85
3150.87499	19953.05
3153.21246	19977.65
3155.54853	19971.55
3157.88318	19959.15
3160.21642	19994.15
3162.54826	19951.75
3164.87868	19967.05
3167.2077	19924.95
3169.5353	19945.85
3171.86151	19942.05
3174.18631	19911.95
3176.5097	19902.95
3178.83169	19866.85
3181.15228	19876.85
3183.47147	19797.45
3185.78926	19807.25
3188.10565	19759.35
3190.42065	19741.95
3192.73424	19718.95
3195.04645	19703.95
3197.35725	19662.75
3199.66667	19667.95
3201.97469	19647.65
3204.28132	19662.75
3206.58656	19717.55
3208.8904	19652.05
3211.19287	19695.35
3213.49394	19705.75
3215.79363	19669.45
3218.09193	19696.15
3220.38884	19672.85
3222.68438	19705.45
3224.97853	19704.05
3227.2713	19707.15
3229.56269	19696.65
3231.8527	19690.55
3234.14133	19662.75
3236.42858	19596.25
3238.71446	19587.25
3240.99896	19557.95
