Data from AgNPs_UA_0uM_CRN_0uM_R6G_10uM_Q_RamanShift__21__11-42-58-770.txt Node

Date: Wed Jul 13 11:42:58 BST 2022
User: TCL
Spectrometer: QEP01345
Trigger mode: 4
Integration Time (sec): 7.000000E0
Scans to average: 10
Electric dark correction enabled: true
Nonlinearity correction enabled: false
Boxcar width: 0
XAxis mode: Raman Shifts
Number of Pixels in Spectrum: 1044
>>>>>Begin Spectral Data<<<<<
46.04893	0.375
50.45542	-0.325
54.85868	-2.525
59.25871	-0.325
63.6555	57.375
68.04907	59.575
72.43941	62.875
76.82654	69.275
81.21044	72.875
85.59113	78.175
89.96862	81.475
94.34289	83.475
98.71396	81.175
103.08183	88.975
107.4465	87.675
111.80798	91.975
116.16626	92.275
120.52136	94.975
124.87327	94.075
129.222	97.375
133.56755	100.175
137.90993	110.275
142.24913	112.275
146.58517	125.875
150.91804	140.275
155.24774	163.175
159.57429	193.375
163.89768	246.375
168.21792	322.375
172.53501	435.675
176.84895	598.175
181.15975	839.075
185.46741	1166.875
189.77193	1597.275
194.07331	2116.875
198.37157	2718.875
202.6667	3327.475
206.9587	3953.675
211.24758	4584.275
215.53334	5231.975
219.81599	5949.575
224.09553	6743.475
228.37195	7624.575
232.64527	8559.475
236.91549	9491.875
241.18261	10383.175
245.44663	11152.375
249.70755	11782.675
253.96539	12356.575
258.22014	12853.975
262.4718	13261.375
266.72039	13497.375
270.96589	13575.075
275.20832	13431.775
279.44768	13227.175
283.68397	13000.475
287.91719	12785.975
292.14735	12747.475
296.37445	12862.975
300.59849	13198.275
304.81948	13575.375
309.03742	13961.075
313.25231	14036.575
317.46415	13756.475
321.67296	13124.775
325.87872	12583.075
330.08145	12292.175
334.28114	12268.675
338.47781	12455.075
342.67145	12707.675
346.86207	13108.275
351.04966	13623.075
355.23424	14172.175
359.4158	14525.175
363.59435	14659.675
367.76989	14623.775
371.94243	14582.075
376.11196	14519.675
380.27849	14477.975
384.44203	14417.375
388.60257	14382.575
392.76012	14422.375
396.91468	14597.175
401.06626	14844.875
405.21485	15021.975
409.36047	14770.375
413.50311	14230.075
417.64277	13777.275
421.77947	13558.375
425.9132	13516.675
430.04396	13510.475
434.17176	13627.875
438.2966	13789.175
442.41849	14127.775
446.53742	14529.975
450.6534	14914.475
454.76644	15063.375
458.87653	14986.775
462.98368	14775.875
467.08789	14514.875
471.18916	14188.575
475.2875	13875.075
479.38291	13647.675
483.4754	13437.775
487.56496	13299.975
491.6516	13223.675
495.73531	13204.575
499.81612	13228.475
503.89401	13348.075
507.96899	13512.675
512.04106	13657.175
516.11023	13774.775
520.1765	13863.175
524.23987	13883.075
528.30034	13843.575
532.35792	13724.275
536.41261	13505.275
540.46441	13258.475
544.51333	13167.175
548.55936	13207.675
552.60252	13464.175
556.64279	13797.675
560.6802	14022.775
564.71473	14209.975
568.7464	14544.775
572.7752	14732.875
576.80114	14516.175
580.82422	14371.975
584.84444	14525.675
588.86181	14896.875
592.87633	15436.175
596.888	15767.075
600.89682	15922.375
604.9028	16933.375
608.90594	20153.375
612.90624	23661.775
616.90371	21741.075
620.89834	16454.075
624.89015	14173.675
628.87913	13798.375
632.86528	13862.075
636.84862	14002.675
640.82913	13708.875
644.80683	13190.275
648.78172	12907.075
652.75379	12965.675
656.72306	13322.075
660.68952	13724.975
664.65319	13530.575
668.61405	13042.275
672.57211	12881.075
676.52738	12882.175
680.47986	12836.575
684.42955	12727.175
688.37646	12621.675
692.32058	12653.975
696.26192	12789.675
700.20048	12909.775
704.13626	13004.675
708.06928	12927.275
711.99952	12837.375
715.927	12812.375
719.85171	12857.875
723.77365	12876.675
727.69284	12764.375
731.60928	12706.375
735.52295	12722.675
739.43388	12784.575
743.34206	12809.875
747.24749	12831.475
751.15017	12866.275
755.05012	13041.975
758.94733	13579.675
762.8418	14864.475
766.73354	16903.975
770.62254	18620.875
774.50882	19039.675
778.39237	18003.175
782.27321	16169.975
786.15132	14444.675
790.02671	13392.875
793.89938	12900.375
797.76935	12654.775
801.6366	12558.475
805.50115	12460.675
809.36299	12391.075
813.22213	12308.475
817.07857	12278.275
820.93231	12226.675
824.78336	12251.375
828.63172	12297.175
832.47738	12274.575
836.32036	12236.175
840.16066	12231.475
843.99827	12221.375
847.8332	12212.175
851.66546	12186.275
855.49504	12150.075
859.32195	12163.475
863.1462	12108.875
866.96777	12091.775
870.78668	12038.075
874.60293	12061.375
878.41652	12109.775
882.22745	12166.575
886.03573	12205.375
889.84136	12190.975
893.64433	12159.275
897.44466	12085.175
901.24235	12084.175
905.0374	12024.975
908.8298	11970.675
912.61957	11937.675
916.40671	11967.775
920.19121	12068.575
923.97308	12220.775
927.75233	12372.775
931.52895	12467.175
935.30295	12276.475
939.07433	11914.875
942.84309	11664.775
946.60924	11512.975
950.37278	11466.275
954.13371	11403.475
957.89203	11339.275
961.64774	11285.175
965.40086	11237.775
969.15137	11193.675
972.89929	11152.375
976.64461	11106.275
980.38733	11097.975
984.12747	11092.475
987.86502	11150.075
991.59999	11244.475
995.33237	11403.275
999.06217	11664.775
1002.78939	11922.775
1006.51404	12164.875
1010.23611	12355.975
1013.95561	12454.375
1017.67255	12401.375
1021.38692	12214.375
1025.09872	12015.775
1028.80796	11903.275
1032.51465	11985.575
1036.21877	12082.475
1039.92035	12090.375
1043.61937	12045.975
1047.31584	11894.475
1051.00976	11763.775
1054.70114	11734.175
1058.38998	11749.375
1062.07627	11769.875
1065.76003	11783.275
1069.44126	11811.275
1073.11995	11943.275
1076.79611	12131.575
1080.46974	12351.175
1084.14085	12618.775
1087.80943	12957.075
1091.47549	13009.575
1095.13903	12742.975
1098.80005	12358.275
1102.45857	12077.975
1106.11456	11971.775
1109.76805	11995.675
1113.41903	12148.675
1117.06751	12444.675
1120.71348	12854.575
1124.35696	13331.275
1127.99793	13735.675
1131.63641	13614.075
1135.2724	13068.975
1138.90589	12587.775
1142.5369	12307.775
1146.16542	12125.075
1149.79145	12074.675
1153.415	12040.575
1157.03607	12120.075
1160.65467	12410.575
1164.27079	12849.175
1167.88443	13558.275
1171.49561	14717.075
1175.10432	16337.075
1178.71056	18448.875
1182.31434	20075.875
1185.91565	20456.575
1189.51451	19810.675
1193.11091	18654.775
1196.70485	17406.575
1200.29634	16371.475
1203.88538	15497.175
1207.47197	14674.475
1211.05612	14032.775
1214.63782	13679.475
1218.21708	13593.075
1221.79391	13700.275
1225.36829	13846.775
1228.94024	13772.275
1232.50976	13535.575
1236.07685	13329.775
1239.6415	13198.275
1243.20374	13212.775
1246.76355	13224.875
1250.32093	13341.275
1253.8759	13609.575
1257.42845	14018.975
1260.97859	14475.875
1264.52631	14995.175
1268.07163	15520.075
1271.61453	15915.975
1275.15503	16282.275
1278.69312	16467.775
1282.22882	16690.475
1285.76211	17067.475
1289.29301	17584.475
1292.82151	18205.875
1296.34761	18913.875
1299.87133	19937.875
1303.39266	21561.475
1306.9116	23870.475
1310.42815	26604.275
1313.94233	28257.775
1317.45412	27841.175
1320.96354	25985.275
1324.47058	23794.475
1327.97525	21980.975
1331.47754	20723.075
1334.97747	20052.775
1338.47502	19850.675
1341.97022	20083.575
1345.46305	20724.475
1348.95352	21704.775
1352.44163	23128.875
1355.92738	25147.175
1359.41078	28244.575
1362.89183	31190.675
1366.37053	30350.775
1369.84688	25941.275
1373.32088	21315.175
1376.79254	18513.675
1380.26186	17231.075
1383.72883	16617.475
1387.19347	16076.375
1390.65578	15551.275
1394.11575	15209.575
1397.57339	15249.075
1401.0287	15439.875
1404.48168	15588.375
1407.93234	15616.375
1411.38068	15516.075
1414.82669	15273.275
1418.27039	14964.475
1421.71177	14629.475
1425.15083	14328.475
1428.58758	14248.275
1432.02203	14424.575
1435.45416	14794.775
1438.88399	15025.875
1442.31151	15132.675
1445.73673	15204.875
1449.15965	15240.975
1452.58027	15156.775
1455.9986	15040.575
1459.41463	15073.275
1462.82837	15364.275
1466.23982	15725.275
1469.64898	16054.875
1473.05586	16225.175
1476.46045	16270.675
1479.86276	16295.075
1483.26279	16379.475
1486.66054	16543.075
1490.05602	16917.075
1493.44922	17566.175
1496.84016	18511.775
1500.22882	19978.075
1503.61521	22090.075
1506.99934	24599.575
1510.38121	26823.775
1513.76081	27562.075
1517.13816	25949.175
1520.51324	22891.475
1523.88607	20011.875
1527.25665	18125.475
1530.62498	17115.575
1533.99105	16472.175
1537.35488	16004.275
1540.71647	15665.275
1544.07581	15387.375
1547.4329	15209.575
1550.78776	15062.875
1554.14038	15038.175
1557.49077	15090.675
1560.83892	15292.575
1564.18484	15650.775
1567.52853	16144.275
1570.86999	16560.775
1574.20922	16783.475
1577.54624	16651.775
1580.88103	15956.075
1584.2136	15102.675
1587.54395	14743.675
1590.87208	15144.175
1594.19801	16209.475
1597.52172	17559.175
1600.84321	18101.575
1604.16251	17434.075
1607.47959	16104.375
1610.79447	14762.475
1614.10715	13521.175
1617.41763	12527.275
1620.7259	11880.175
1624.03199	11568.275
1627.33587	11606.675
1630.63757	11981.875
1633.93707	12774.475
1637.23439	14178.475
1640.52951	16337.875
1643.82246	19027.075
1647.11321	21486.075
1650.40179	22499.375
1653.68819	21116.875
1656.97241	17955.275
1660.25446	14738.275
1663.53433	12484.975
1666.81203	11130.975
1670.08756	10332.275
1673.36092	9858.375
1676.63211	9527.375
1679.90115	9327.075
1683.16801	9154.775
1686.43272	9050.375
1689.69527	8956.675
1692.95567	8889.875
1696.2139	8826.675
1699.46999	8824.275
1702.72392	8785.575
1705.97571	8750.575
1709.22535	8730.575
1712.47284	8746.175
1715.71819	8719.475
1718.96139	8717.875
1722.20246	8702.075
1725.44139	8628.675
1728.67818	8588.875
1731.91284	8529.275
1735.14537	8461.975
1738.37576	8425.675
1741.60403	8372.375
1744.83017	8344.875
1748.05418	8322.275
1751.27607	8283.075
1754.49584	8249.175
1757.71349	8237.575
1760.92903	8218.275
1764.14244	8212.875
1767.35375	8205.375
1770.56294	8158.775
1773.77002	8147.675
1776.97499	8138.475
1780.17785	8113.675
1783.37861	8088.875
1786.57727	8050.975
1789.77382	8030.175
1792.96828	8030.575
1796.16064	8002.475
1799.3509	7974.375
1802.53907	7972.575
1805.72514	7950.375
1808.90913	7931.875
1812.09102	7898.575
1815.27083	7886.975
1818.44856	7860.375
1821.6242	7848.475
1824.79776	7789.875
1827.96924	7808.675
1831.13864	7788.475
1834.30597	7781.675
1837.47122	7774.375
1840.6344	7763.775
1843.7955	7766.775
1846.95454	7754.875
1850.11151	7742.675
1853.26642	7717.575
1856.41926	7707.275
1859.57004	7698.175
1862.71876	7707.375
1865.86542	7687.375
1869.01003	7700.275
1872.15258	7667.775
1875.29308	7679.075
1878.43152	7647.575
1881.56792	7624.775
1884.70227	7648.875
1887.83457	7636.875
1890.96482	7618.675
1894.09304	7608.375
1897.21921	7607.175
1900.34335	7567.175
1903.46544	7594.175
1906.58551	7569.975
1909.70353	7566.575
1912.81953	7570.975
1915.93349	7552.175
1919.04543	7542.475
1922.15534	7501.775
1925.26322	7476.175
1928.36908	7456.275
1931.47292	7445.475
1934.57473	7410.675
1937.67453	7375.475
1940.77232	7342.475
1943.86808	7332.775
1946.96184	7299.375
1950.05358	7292.675
1953.14331	7269.475
1956.23103	7259.575
1959.31675	7248.375
1962.40046	7204.175
1965.48217	7184.675
1968.56188	7157.375
1971.63959	7152.775
1974.7153	7132.775
1977.78901	7091.075
1980.86073	7078.875
1983.93046	7043.575
1986.99819	7001.175
1990.06394	6969.075
1993.1277	6947.175
1996.18947	6932.575
1999.24925	6912.475
2002.30706	6874.375
2005.36288	6857.375
2008.41672	6859.875
2011.46859	6814.575
2014.51848	6824.575
2017.56639	6804.775
2020.61233	6783.875
2023.6563	6773.275
2026.6983	6712.075
2029.73833	6727.175
2032.7764	6694.275
2035.8125	6696.875
2038.84664	6678.075
2041.87881	6679.175
2044.90903	6657.275
2047.93729	6649.575
2050.96359	6634.875
2053.98794	6613.975
2057.01034	6614.975
2060.03078	6604.075
2063.04927	6613.475
2066.06582	6595.375
2069.08042	6605.275
2072.09307	6581.075
2075.10378	6550.275
2078.11255	6543.675
2081.11938	6564.575
2084.12426	6536.675
2087.12722	6562.175
2090.12824	6555.775
2093.12732	6539.875
2096.12447	6539.375
2099.11969	6550.775
2102.11299	6532.275
2105.10435	6536.575
2108.09379	6553.775
2111.08131	6555.375
2114.0669	6543.675
2117.05057	6554.175
2120.03233	6557.975
2123.01216	6569.875
2125.99008	6572.775
2128.96609	6589.775
2131.94018	6566.575
2134.91236	6595.175
2137.88263	6568.075
2140.851	6563.475
2143.81746	6576.475
2146.78201	6565.875
2149.74466	6556.475
2152.7054	6565.875
2155.66425	6559.275
2158.6212	6546.375
2161.57625	6551.775
2164.52941	6537.975
2167.48067	6536.675
2170.43004	6541.075
2173.37752	6517.775
2176.32311	6535.975
2179.26681	6543.175
2182.20863	6545.975
2185.14856	6546.175
2188.08661	6545.875
2191.02278	6541.675
2193.95707	6529.275
2196.88948	6527.675
2199.82001	6524.475
2202.74867	6505.575
2205.67545	6502.575
2208.60037	6480.375
2211.52341	6474.575
2214.44458	6484.375
2217.36388	6461.575
2220.28132	6446.975
2223.1969	6417.175
2226.11061	6430.975
2229.02246	6410.875
2231.93245	6402.975
2234.84058	6371.975
2237.74686	6369.475
2240.65128	6368.775
2243.55385	6356.375
2246.45456	6352.675
2249.35343	6343.375
2252.25044	6329.675
2255.14561	6328.475
2258.03893	6323.075
2260.93041	6343.575
2263.82004	6326.075
2266.70783	6295.175
2269.59378	6265.375
2272.4779	6278.075
2275.36017	6236.575
2278.24061	6228.375
2281.11922	6224.575
2283.996	6211.275
2286.87094	6185.475
2289.74405	6189.475
2292.61534	6173.375
2295.4848	6168.475
2298.35243	6174.875
2301.21824	6142.175
2304.08223	6154.275
2306.94439	6159.875
2309.80474	6164.375
2312.66327	6172.775
2315.51999	6161.575
2318.37489	6155.475
2321.22797	6143.275
2324.07925	6141.175
2326.92871	6126.875
2329.77637	6126.075
2332.62222	6122.475
2335.46626	6124.575
2338.3085	6103.875
2341.14893	6107.775
2343.98756	6090.875
2346.8244	6092.175
2349.65943	6119.775
2352.49267	6116.475
2355.32411	6125.275
2358.15376	6145.675
2360.98161	6118.675
2363.80768	6127.075
2366.63195	6116.975
2369.45444	6123.575
2372.27514	6119.975
2375.09405	6109.675
2377.91118	6074.975
2380.72652	6078.175
2383.54009	6034.875
2386.35187	6030.475
2389.16188	6001.875
2391.97011	5999.175
2394.77657	5993.675
2397.58125	5960.175
2400.38416	5968.375
2403.18529	5934.375
2405.98466	5936.175
2408.78226	5928.675
2411.57809	5930.775
2414.37216	5917.975
2417.16446	5912.575
2419.955	5891.075
2422.74378	5885.475
2425.5308	5911.275
2428.31606	5893.875
2431.09956	5882.675
2433.88131	5866.575
2436.6613	5875.675
2439.43954	5879.375
2442.21603	5881.575
2444.99077	5893.275
2447.76377	5896.575
2450.53501	5886.875
2453.30451	5891.375
2456.07226	5878.475
2458.83827	5875.775
2461.60254	5865.175
2464.36507	5881.075
2467.12586	5859.175
2469.88492	5870.875
2472.64224	5870.575
2475.39782	5874.775
2478.15167	5875.275
2480.90379	5895.875
2483.65417	5891.075
2486.40283	5886.575
2489.14976	5903.975
2491.89497	5886.175
2494.63845	5909.875
2497.3802	5906.475
2500.12024	5907.575
2502.85855	5913.175
2505.59514	5895.975
2508.33002	5878.075
2511.06318	5860.075
2513.79462	5847.075
2516.52435	5815.975
2519.25237	5816.475
2521.97867	5804.775
2524.70327	5787.475
2527.42616	5779.075
2530.14734	5768.075
2532.86681	5748.675
2535.58458	5742.275
2538.30065	5775.375
2541.01501	5776.075
2543.72768	5754.675
2546.43864	5763.875
2549.14791	5765.275
2551.85548	5754.775
2554.56136	5750.275
2557.26554	5751.775
2559.96803	5735.475
2562.66883	5722.075
2565.36794	5734.475
2568.06536	5724.775
2570.7611	5711.375
2573.45514	5700.875
2576.14751	5701.575
2578.83819	5697.075
2581.52719	5708.475
2584.21451	5695.375
2586.90015	5681.775
2589.58411	5684.275
2592.2664	5683.975
2594.94701	5677.975
2597.62594	5675.875
2600.30321	5648.375
2602.9788	5676.975
2605.65273	5644.675
2608.32498	5638.275
2610.99557	5658.775
2613.66449	5646.375
2616.33175	5635.475
2618.99734	5658.175
2621.66128	5632.575
2624.32355	5646.975
2626.98416	5629.175
2629.64311	5646.675
2632.30041	5637.475
2634.95605	5630.575
2637.61004	5604.975
2640.26238	5598.175
2642.91306	5586.275
2645.56209	5579.075
2648.20948	5592.875
2650.85521	5582.775
2653.4993	5562.075
2656.14175	5582.875
2658.78255	5591.675
2661.42171	5585.375
2664.05923	5598.175
2666.6951	5599.575
2669.32934	5612.875
2671.96194	5606.175
2674.59291	5602.175
2677.22224	5610.875
2679.84993	5606.275
2682.476	5613.375
2685.10043	5613.675
2687.72324	5573.775
2690.34441	5587.275
2692.96396	5571.575
2695.58188	5581.775
2698.19818	5576.975
2700.81285	5597.875
2703.4259	5571.675
2706.03733	5579.175
2708.64714	5591.975
2711.25533	5575.175
2713.86191	5602.475
2716.46687	5620.275
2719.07021	5613.575
2721.67194	5622.975
2724.27206	5624.375
2726.87057	5605.975
2729.46747	5610.375
2732.06276	5606.475
2734.65644	5613.275
2737.24852	5628.475
2739.83899	5606.375
2742.42786	5605.075
2745.01513	5607.275
2747.60079	5581.375
2750.18486	5577.975
2752.76733	5564.575
2755.3482	5570.075
2757.92747	5565.375
2760.50515	5555.775
2763.08123	5551.875
2765.65573	5547.175
2768.22863	5551.175
2770.79994	5535.875
2773.36967	5545.075
2775.9378	5554.875
2778.50435	5547.475
2781.06932	5540.975
2783.6327	5548.275
2786.1945	5532.675
2788.75471	5520.875
2791.31335	5516.975
2793.87041	5521.375
2796.42589	5506.675
2798.97979	5511.475
2801.53212	5508.375
2804.08288	5466.675
2806.63206	5468.275
2809.17967	5473.775
2811.72571	5449.075
2814.27018	5452.275
2816.81308	5447.375
2819.35442	5461.275
2821.89419	5428.675
2824.43239	5434.675
2826.96904	5429.375
2829.50412	5443.475
2832.03763	5432.475
2834.56959	5420.375
2837.1	5430.975
2839.62884	5429.675
2842.15613	5435.175
2844.68186	5441.875
2847.20604	5452.375
2849.72867	5458.375
2852.24974	5447.375
2854.76927	5463.975
2857.28724	5451.675
2859.80367	5454.775
2862.31855	5465.475
2864.83189	5448.675
2867.34368	5441.875
2869.85393	5456.875
2872.36264	5444.875
2874.8698	5441.375
2877.37543	5435.875
2879.87952	5445.775
2882.38207	5452.275
2884.88308	5442.175
2887.38256	5413.575
2889.88051	5412.775
2892.37692	5428.275
2894.8718	5415.675
2897.36515	5443.475
2899.85698	5462.575
2902.34727	5462.375
2904.83604	5468.075
2907.32328	5463.675
2909.809	5473.875
2912.29319	5492.675
2914.77587	5494.275
2917.25702	5507.575
2919.73665	5477.175
2922.21476	5481.075
2924.69136	5465.875
2927.16644	5456.175
2929.64	5460.975
2932.11205	5433.475
2934.58258	5422.275
2937.05161	5435.175
2939.51912	5430.775
2941.98513	5419.975
2944.44962	5394.975
2946.91261	5358.475
2949.37409	5372.675
2951.83407	5381.375
2954.29254	5384.575
2956.74951	5372.675
2959.20498	5362.075
2961.65895	5371.775
2964.11142	5383.475
2966.56239	5374.075
2969.01186	5363.075
2971.45984	5323.675
2973.90632	5339.375
2976.35131	5326.275
2978.7948	5316.675
2981.23681	5290.175
2983.67732	5290.575
2986.11635	5261.375
2988.55388	5266.175
2990.98993	5258.075
2993.4245	5252.075
2995.85758	5222.875
2998.28917	5222.875
3000.71928	5211.675
3003.14791	5218.175
3005.57506	5220.475
3008.00073	5199.775
3010.42493	5206.975
3012.84764	5187.275
3015.26888	5186.875
3017.68865	5159.575
3020.10694	5161.175
3022.52376	5145.575
3024.9391	5157.175
3027.35298	5125.375
3029.76539	5145.075
3032.17632	5139.375
3034.5858	5124.475
3036.9938	5129.975
3039.40034	5111.275
3041.80542	5117.475
3044.20903	5100.175
3046.61118	5090.675
3049.01187	5092.175
3051.4111	5077.075
3053.80888	5086.875
3056.20519	5086.075
3058.60005	5061.775
3060.99345	5047.475
3063.3854	5027.375
3065.7759	5027.975
3068.16494	5026.575
3070.55254	5001.475
3072.93868	5005.675
3075.32338	4995.975
3077.70662	4969.075
3080.08842	4970.775
3082.46878	4993.175
3084.84769	4964.575
3087.22515	4974.675
3089.60118	4979.175
3091.97576	4962.875
3094.3489	4967.875
3096.72061	4957.275
3099.09087	4971.175
3101.4597	4954.875
3103.82709	4974.175
3106.19305	4980.275
3108.55757	4959.075
3110.92066	4964.875
3113.28232	4968.075
3115.64255	4955.775
3118.00134	4943.975
3120.35871	4953.775
3122.71466	4954.475
3125.06917	4947.975
3127.42226	4924.675
3129.77393	4945.875
3132.12417	4924.775
3134.47299	4924.075
3136.82039	4916.475
3139.16636	4927.775
3141.51092	4922.275
3143.85406	4921.175
3146.19579	4938.475
3148.53609	4945.275
3150.87499	4956.975
3153.21246	4937.375
3155.54853	4971.375
3157.88318	4952.075
3160.21642	4996.675
3162.54826	4986.775
3164.87868	4980.075
3167.2077	4982.975
3169.5353	4984.275
3171.86151	4998.675
3174.18631	4990.575
3176.5097	4992.275
3178.83169	4999.575
3181.15228	4993.375
3183.47147	4983.675
3185.78926	4983.275
3188.10565	4972.375
3190.42065	4980.875
3192.73424	4984.075
