Data from AgNPs_UA_1uM_CRN_0uM_R6G_10uM_Q_RamanShift__16__12-29-25-883.txt Node

Date: Wed Jul 13 12:29:25 BST 2022
User: TCL
Spectrometer: QEP01345
Trigger mode: 4
Integration Time (sec): 7.000000E0
Scans to average: 10
Electric dark correction enabled: true
Nonlinearity correction enabled: false
Boxcar width: 0
XAxis mode: Raman Shifts
Number of Pixels in Spectrum: 1044
>>>>>Begin Spectral Data<<<<<
46.04893	-1.525
50.45542	-1.425
54.85868	-1.525
59.25871	-0.925
63.6555	125.275
68.04907	131.575
72.43941	137.375
76.82654	142.675
81.21044	148.575
85.59113	152.875
89.96862	156.375
94.34289	163.675
98.71396	163.775
103.08183	166.975
107.4465	176.775
111.80798	181.275
116.16626	185.875
120.52136	194.375
124.87327	204.575
129.222	218.275
133.56755	230.275
137.90993	251.975
142.24913	272.275
146.58517	304.175
150.91804	354.575
155.24774	414.175
159.57429	512.175
163.89768	655.075
168.21792	871.175
172.53501	1189.975
176.84895	1658.375
181.15975	2336.175
185.46741	3256.475
189.77193	4509.775
194.07331	6038.075
198.37157	7801.175
202.6667	9630.075
206.9587	11456.975
211.24758	13228.375
215.53334	14994.575
219.81599	16874.075
224.09553	18920.775
228.37195	21184.875
232.64527	23656.275
236.91549	26267.975
241.18261	28872.175
245.44663	31386.375
249.70755	33730.975
253.96539	35875.875
258.22014	37616.975
262.4718	39008.275
266.72039	39930.775
270.96589	40351.975
275.20832	40377.875
279.44768	40122.875
283.68397	39789.275
287.91719	39367.875
292.14735	39117.475
296.37445	39020.475
300.59849	39092.175
304.81948	39246.775
309.03742	39427.675
313.25231	39432.275
317.46415	39151.375
321.67296	38637.875
325.87872	38292.775
330.08145	38186.675
334.28114	38376.775
338.47781	38791.375
342.67145	39353.975
346.86207	39985.775
351.04966	40789.275
355.23424	41491.575
359.4158	42145.675
363.59435	42651.975
367.76989	42989.275
371.94243	43307.675
376.11196	43589.875
380.27849	43804.375
384.44203	44048.675
388.60257	44307.175
392.76012	44660.375
396.91468	45153.175
401.06626	45824.275
405.21485	46143.475
409.36047	46035.975
413.50311	45695.775
417.64277	45498.575
421.77947	45560.275
425.9132	45695.575
430.04396	45931.875
434.17176	46153.475
438.2966	46490.375
442.41849	47058.975
446.53742	47566.875
450.6534	48269.675
454.76644	48719.975
458.87653	48979.975
462.98368	49146.275
467.08789	49165.375
471.18916	49009.275
475.2875	48699.875
479.38291	48565.975
483.4754	48412.175
487.56496	48302.975
491.6516	48324.675
495.73531	48303.875
499.81612	48301.675
503.89401	48665.875
507.96899	48857.075
512.04106	49077.775
516.11023	49109.775
520.1765	49174.375
524.23987	49166.275
528.30034	49165.075
532.35792	49118.675
536.41261	48985.175
540.46441	48764.775
544.51333	48811.775
548.55936	49084.975
552.60252	49525.775
556.64279	49995.275
560.6802	50460.975
564.71473	50682.075
568.7464	51119.875
572.7752	51573.075
576.80114	51830.975
580.82422	52295.875
584.84444	52731.575
588.86181	53181.575
592.87633	53514.975
596.888	53758.675
600.89682	54173.675
604.9028	55534.175
608.90594	58914.275
612.90624	62097.075
616.90371	59525.775
620.89834	54194.075
624.89015	52053.375
628.87913	51886.675
632.86528	52224.475
636.84862	52565.675
640.82913	52296.975
644.80683	51751.075
648.78172	51446.575
652.75379	51641.575
656.72306	52139.575
660.68952	52623.875
664.65319	52520.675
668.61405	52277.075
672.57211	52389.275
676.52738	52503.475
680.47986	52510.575
684.42955	52283.975
688.37646	52255.275
692.32058	52516.275
696.26192	52893.375
700.20048	53333.175
704.13626	53678.075
708.06928	53697.675
711.99952	53623.175
715.927	53507.375
719.85171	53577.575
723.77365	53594.175
727.69284	53422.375
731.60928	53252.575
735.52295	53248.375
739.43388	53263.775
743.34206	53502.975
747.24749	53660.175
751.15017	53863.675
755.05012	54302.075
758.94733	54970.875
762.8418	56536.175
766.73354	58931.375
770.62254	60799.175
774.50882	61067.375
778.39237	59889.475
782.27321	58225.575
786.15132	56570.975
790.02671	55424.275
793.89938	54760.575
797.76935	54447.875
801.6366	54273.775
805.50115	54241.675
809.36299	54195.175
813.22213	54201.275
817.07857	54237.475
820.93231	54279.275
824.78336	54350.675
828.63172	54374.775
832.47738	54425.575
836.32036	54420.975
840.16066	54441.775
843.99827	54501.475
847.8332	54637.075
851.66546	54687.175
855.49504	54754.975
859.32195	54876.575
863.1462	54896.275
866.96777	54993.275
870.78668	55041.175
874.60293	55260.375
878.41652	55304.275
882.22745	55595.975
886.03573	55731.875
889.84136	55795.775
893.64433	55754.775
897.44466	55753.175
901.24235	55597.675
905.0374	55550.275
908.8298	55518.575
912.61957	55492.575
916.40671	55590.275
920.19121	55732.675
923.97308	55974.775
927.75233	56128.575
931.52895	56081.575
935.30295	55799.575
939.07433	55395.275
942.84309	55163.675
946.60924	55074.375
950.37278	54990.775
954.13371	54968.975
957.89203	54914.175
961.64774	54828.375
965.40086	54760.575
969.15137	54731.875
972.89929	54722.975
976.64461	54615.675
980.38733	54649.175
984.12747	54699.275
987.86502	54863.975
991.59999	55083.775
995.33237	55183.275
999.06217	55500.575
1002.78939	55863.275
1006.51404	56396.075
1010.23611	56761.275
1013.95561	57000.375
1017.67255	57059.375
1021.38692	56964.475
1025.09872	56687.675
1028.80796	56491.175
1032.51465	56366.275
1036.21877	56441.475
1039.92035	56465.575
1043.61937	56527.575
1047.31584	56633.775
1051.00976	56766.975
1054.70114	56905.775
1058.38998	57077.475
1062.07627	57348.775
1065.76003	57554.475
1069.44126	57954.875
1073.11995	58529.475
1076.79611	59246.675
1080.46974	59580.575
1084.14085	59711.275
1087.80943	59939.875
1091.47549	60015.275
1095.13903	59891.175
1098.80005	59690.875
1102.45857	59459.575
1106.11456	59129.975
1109.76805	58768.675
1113.41903	58623.875
1117.06751	58759.275
1120.71348	59077.375
1124.35696	59512.175
1127.99793	59852.675
1131.63641	59809.175
1135.2724	59328.875
1138.90589	59000.275
1142.5369	58823.775
1146.16542	58610.675
1149.79145	58639.975
1153.415	58454.175
1157.03607	58551.175
1160.65467	58841.675
1164.27079	59491.675
1167.88443	60472.775
1171.49561	61764.875
1175.10432	63730.075
1178.71056	65984.375
1182.31434	67810.775
1185.91565	68688.075
1189.51451	68687.575
1193.11091	68144.875
1196.70485	67266.575
1200.29634	66216.875
1203.88538	65269.775
1207.47197	64280.575
1211.05612	63492.575
1214.63782	62739.975
1218.21708	62070.975
1221.79391	61603.275
1225.36829	61317.775
1228.94024	61153.975
1232.50976	61087.175
1236.07685	61037.275
1239.6415	61050.675
1243.20374	61121.175
1246.76355	61371.275
1250.32093	61522.275
1253.8759	61950.275
1257.42845	62675.575
1260.97859	63500.675
1264.52631	64332.575
1268.07163	64992.975
1271.61453	65490.675
1275.15503	65988.375
1278.69312	66313.275
1282.22882	66577.675
1285.76211	67117.175
1289.29301	67757.075
1292.82151	68525.075
1296.34761	69389.075
1299.87133	70684.175
1303.39266	72333.475
1306.9116	74549.875
1310.42815	76821.375
1313.94233	77853.675
1317.45412	77165.475
1320.96354	75866.475
1324.47058	74708.475
1327.97525	73645.675
1331.47754	72828.775
1334.97747	72504.075
1338.47502	72653.975
1341.97022	73336.475
1345.46305	74603.775
1348.95352	75873.275
1352.44163	77069.875
1355.92738	77940.675
1359.41078	79552.575
1362.89183	81016.475
1366.37053	79459.675
1369.84688	75076.575
1373.32088	70542.475
1376.79254	67616.975
1380.26186	66001.775
1383.72883	65096.575
1387.19347	64340.275
1390.65578	63542.175
1394.11575	62936.975
1397.57339	62581.375
1401.0287	62313.875
1404.48168	62232.175
1407.93234	62230.775
1411.38068	62117.275
1414.82669	61783.175
1418.27039	61336.975
1421.71177	60850.875
1425.15083	60429.475
1428.58758	60212.075
1432.02203	60413.275
1435.45416	60663.175
1438.88399	61037.475
1442.31151	61167.575
1445.73673	61280.275
1449.15965	61375.675
1452.58027	61394.175
1455.9986	61397.175
1459.41463	61573.175
1462.82837	61988.775
1466.23982	62640.775
1469.64898	63032.175
1473.05586	63520.275
1476.46045	63760.575
1479.86276	63914.175
1483.26279	64213.875
1486.66054	64583.875
1490.05602	65189.575
1493.44922	66108.275
1496.84016	67609.975
1500.22882	69648.275
1503.61521	72419.175
1506.99934	75119.675
1510.38121	76802.475
1513.76081	76620.675
1517.13816	74532.275
1520.51324	71547.175
1523.88607	69028.775
1527.25665	67436.575
1530.62498	66606.975
1533.99105	66125.775
1537.35488	65728.675
1540.71647	65209.575
1544.07581	64704.175
1547.4329	64376.575
1550.78776	64064.175
1554.14038	63749.975
1557.49077	63737.875
1560.83892	63956.575
1564.18484	64320.975
1567.52853	64744.075
1570.86999	65157.275
1574.20922	65555.575
1577.54624	65487.075
1580.88103	64658.375
1584.2136	63838.075
1587.54395	63557.575
1590.87208	64080.775
1594.19801	65179.375
1597.52172	66584.175
1600.84321	66990.175
1604.16251	66229.775
1607.47959	65192.975
1610.79447	63710.075
1614.10715	61948.075
1617.41763	60264.675
1620.7259	58921.175
1624.03199	58177.175
1627.33587	58008.475
1630.63757	58354.675
1633.93707	59272.575
1637.23439	61021.975
1640.52951	63837.775
1643.82246	67290.575
1647.11321	70402.575
1650.40179	71600.675
1653.68819	69920.175
1656.97241	65936.675
1660.25446	61840.675
1663.53433	58871.375
1666.81203	56906.575
1670.08756	55689.975
1673.36092	54980.875
1676.63211	54391.375
1679.90115	54001.275
1683.16801	53698.275
1686.43272	53567.675
1689.69527	53305.175
1692.95567	53120.275
1696.2139	53052.675
1699.46999	53026.075
1702.72392	53004.175
1705.97571	52981.875
1709.22535	52990.075
1712.47284	53067.775
1715.71819	53001.975
1718.96139	52984.875
1722.20246	52854.475
1725.44139	52775.875
1728.67818	52657.075
1731.91284	52619.575
1735.14537	52420.075
1738.37576	52331.575
1741.60403	52215.475
1744.83017	52141.975
1748.05418	52070.175
1751.27607	51947.875
1754.49584	51903.975
1757.71349	51930.875
1760.92903	51858.775
1764.14244	51811.275
1767.35375	51802.975
1770.56294	51745.675
1773.77002	51704.775
1776.97499	51706.975
1780.17785	51736.975
1783.37861	51613.475
1786.57727	51456.975
1789.77382	51409.975
1792.96828	51420.375
1796.16064	51336.175
1799.3509	51236.875
1802.53907	51295.475
1805.72514	51177.275
1808.90913	51080.575
1812.09102	51045.075
1815.27083	50827.475
1818.44856	50783.975
1821.6242	50661.275
1824.79776	50599.175
1827.96924	50585.975
1831.13864	50546.075
1834.30597	50543.175
1837.47122	50437.975
1840.6344	50376.175
1843.7955	50449.275
1846.95454	50384.175
1850.11151	50342.775
1853.26642	50267.575
1856.41926	50198.375
1859.57004	50190.775
1862.71876	50212.575
1865.86542	50277.675
1869.01003	50158.575
1872.15258	50128.275
1875.29308	50047.875
1878.43152	49963.575
1881.56792	49910.075
1884.70227	49879.175
1887.83457	49856.875
1890.96482	49734.375
1894.09304	49690.275
1897.21921	49633.075
1900.34335	49647.475
1903.46544	49463.575
1906.58551	49439.675
1909.70353	49403.175
1912.81953	49393.475
1915.93349	49335.675
1919.04543	49258.275
1922.15534	49200.775
1925.26322	49054.775
1928.36908	49017.975
1931.47292	48918.475
1934.57473	48824.775
1937.67453	48682.875
1940.77232	48561.575
1943.86808	48464.575
1946.96184	48373.575
1950.05358	48211.075
1953.14331	48076.675
1956.23103	47976.775
1959.31675	47846.875
1962.40046	47723.775
1965.48217	47570.675
1968.56188	47389.075
1971.63959	47273.775
1974.7153	47178.275
1977.78901	47074.275
1980.86073	46979.875
1983.93046	46846.175
1986.99819	46660.275
1990.06394	46524.175
1993.1277	46419.475
1996.18947	46223.775
1999.24925	46159.975
2002.30706	46117.575
2005.36288	45893.775
2008.41672	45793.775
2011.46859	45637.775
2014.51848	45522.375
2017.56639	45429.375
2020.61233	45270.875
2023.6563	45141.175
2026.6983	45029.275
2029.73833	44923.575
2032.7764	44847.875
2035.8125	44733.875
2038.84664	44586.475
2041.87881	44616.775
2044.90903	44514.575
2047.93729	44324.475
2050.96359	44354.775
2053.98794	44244.975
2057.01034	44202.975
2060.03078	44222.375
2063.04927	44156.975
2066.06582	44181.175
2069.08042	44170.675
2072.09307	44057.175
2075.10378	44046.275
2078.11255	43951.775
2081.11938	43977.475
2084.12426	43953.775
2087.12722	43935.975
2090.12824	43908.175
2093.12732	43886.775
2096.12447	43906.875
2099.11969	43909.275
2102.11299	43880.375
2105.10435	43957.375
2108.09379	43981.075
2111.08131	43980.375
2114.0669	43983.675
2117.05057	44048.175
2120.03233	44089.675
2123.01216	44196.475
2125.99008	44152.375
2128.96609	44244.675
2131.94018	44272.775
2134.91236	44281.875
2137.88263	44331.775
2140.851	44410.375
2143.81746	44437.375
2146.78201	44384.775
2149.74466	44447.875
2152.7054	44408.875
2155.66425	44432.875
2158.6212	44381.075
2161.57625	44329.775
2164.52941	44337.575
2167.48067	44353.375
2170.43004	44315.175
2173.37752	44289.975
2176.32311	44378.775
2179.26681	44433.775
2182.20863	44336.875
2185.14856	44384.675
2188.08661	44300.775
2191.02278	44325.975
2193.95707	44244.475
2196.88948	44273.175
2199.82001	44214.375
2202.74867	44168.075
2205.67545	44123.775
2208.60037	44036.675
2211.52341	43984.575
2214.44458	43916.875
2217.36388	43777.475
2220.28132	43687.075
2223.1969	43607.875
2226.11061	43633.775
2229.02246	43468.375
2231.93245	43395.775
2234.84058	43309.975
2237.74686	43237.475
2240.65128	43258.575
2243.55385	43194.375
2246.45456	43124.375
2249.35343	43106.375
2252.25044	43064.775
2255.14561	42952.975
2258.03893	42866.975
2260.93041	42810.475
2263.82004	42687.375
2266.70783	42644.575
2269.59378	42539.275
2272.4779	42437.375
2275.36017	42281.375
2278.24061	42231.975
2281.11922	42125.075
2283.996	42097.875
2286.87094	42051.275
2289.74405	41979.775
2292.61534	41885.775
2295.4848	41833.375
2298.35243	41838.475
2301.21824	41764.575
2304.08223	41753.175
2306.94439	41709.275
2309.80474	41704.275
2312.66327	41754.675
2315.51999	41630.175
2318.37489	41523.375
2321.22797	41440.375
2324.07925	41379.475
2326.92871	41359.875
2329.77637	41267.675
2332.62222	41236.775
2335.46626	41124.275
2338.3085	41060.875
2341.14893	40931.775
2343.98756	40816.975
2346.8244	40841.975
2349.65943	40834.575
2352.49267	40808.575
2355.32411	40851.775
2358.15376	40798.775
2360.98161	40827.875
2363.80768	40699.875
2366.63195	40708.175
2369.45444	40661.175
2372.27514	40643.075
2375.09405	40575.375
2377.91118	40523.275
2380.72652	40492.675
2383.54009	40345.675
2386.35187	40213.175
2389.16188	40119.775
2391.97011	40093.275
2394.77657	40044.375
2397.58125	39904.075
2400.38416	39807.475
2403.18529	39760.675
2405.98466	39740.075
2408.78226	39677.475
2411.57809	39651.475
2414.37216	39574.275
2417.16446	39582.375
2419.955	39498.675
2422.74378	39534.075
2425.5308	39411.675
2428.31606	39442.175
2431.09956	39405.375
2433.88131	39380.875
2436.6613	39311.775
2439.43954	39252.375
2442.21603	39227.675
2444.99077	39167.475
2447.76377	39187.975
2450.53501	39114.375
2453.30451	39072.375
2456.07226	38990.775
2458.83827	38942.775
2461.60254	38827.375
2464.36507	38792.375
2467.12586	38775.275
2469.88492	38755.275
2472.64224	38738.075
2475.39782	38669.875
2478.15167	38642.575
2480.90379	38530.275
2483.65417	38627.875
2486.40283	38584.175
2489.14976	38534.675
2491.89497	38486.975
2494.63845	38469.075
2497.3802	38463.975
2500.12024	38435.075
2502.85855	38390.075
2505.59514	38352.875
2508.33002	38311.175
2511.06318	38248.575
2513.79462	38177.375
2516.52435	38043.775
2519.25237	38074.975
2521.97867	37951.075
2524.70327	37972.375
2527.42616	37890.675
2530.14734	37865.975
2532.86681	37734.275
2535.58458	37763.075
2538.30065	37673.975
2541.01501	37695.875
2543.72768	37540.475
2546.43864	37540.175
2549.14791	37492.975
2551.85548	37403.175
2554.56136	37341.775
2557.26554	37214.975
2559.96803	37137.975
2562.66883	37096.975
2565.36794	37036.575
2568.06536	36931.875
2570.7611	36895.275
2573.45514	36866.775
2576.14751	36877.675
2578.83819	36757.975
2581.52719	36730.575
2584.21451	36613.075
2586.90015	36522.375
2589.58411	36427.775
2592.2664	36370.875
2594.94701	36334.975
2597.62594	36291.775
2600.30321	36173.175
2602.9788	36126.975
2605.65273	36034.775
2608.32498	35965.475
2610.99557	35916.975
2613.66449	35892.075
2616.33175	35881.275
2618.99734	35833.675
2621.66128	35771.275
2624.32355	35763.475
2626.98416	35652.275
2629.64311	35645.375
2632.30041	35655.375
2634.95605	35581.275
2637.61004	35500.675
2640.26238	35363.575
2642.91306	35280.775
2645.56209	35238.675
2648.20948	35199.375
2650.85521	35112.975
2653.4993	35140.975
2656.14175	35129.175
2658.78255	35175.175
2661.42171	35163.875
2664.05923	35152.675
2666.6951	35141.075
2669.32934	35185.475
2671.96194	35052.275
2674.59291	35106.475
2677.22224	35111.375
2679.84993	35167.075
2682.476	35105.975
2685.10043	35111.375
2687.72324	35007.675
2690.34441	34971.875
2692.96396	35001.275
2695.58188	35019.675
2698.19818	34983.375
2700.81285	35023.475
2703.4259	34953.875
2706.03733	35006.275
2708.64714	34958.375
2711.25533	35028.175
2713.86191	34990.075
2716.46687	35015.975
2719.07021	34945.475
2721.67194	34959.075
2724.27206	34941.575
2726.87057	34956.675
2729.46747	34979.475
2732.06276	34971.475
2734.65644	34937.575
2737.24852	34931.875
2739.83899	34865.275
2742.42786	34821.375
2745.01513	34733.075
2747.60079	34730.275
2750.18486	34674.375
2752.76733	34589.275
2755.3482	34520.675
2757.92747	34506.375
2760.50515	34414.675
2763.08123	34450.775
2765.65573	34400.975
2768.22863	34347.775
2770.79994	34290.075
2773.36967	34237.075
2775.9378	34186.675
2778.50435	34143.875
2781.06932	34097.975
2783.6327	34025.275
2786.1945	33962.075
2788.75471	33868.375
2791.31335	33768.175
2793.87041	33796.975
2796.42589	33721.975
2798.97979	33694.975
2801.53212	33551.775
2804.08288	33451.375
2806.63206	33350.175
2809.17967	33274.375
2811.72571	33202.775
2814.27018	33131.075
2816.81308	33103.675
2819.35442	33014.975
2821.89419	32863.875
2824.43239	32890.275
2826.96904	32808.575
2829.50412	32783.775
2832.03763	32747.375
2834.56959	32763.475
2837.1	32661.375
2839.62884	32634.975
2842.15613	32640.575
2844.68186	32593.275
2847.20604	32552.475
2849.72867	32504.175
2852.24974	32436.275
2854.76927	32441.175
2857.28724	32385.275
2859.80367	32359.575
2862.31855	32308.675
2864.83189	32244.675
2867.34368	32174.375
2869.85393	32135.575
2872.36264	32044.075
2874.8698	32015.275
2877.37543	31975.175
2879.87952	31925.475
2882.38207	31925.075
2884.88308	31852.675
2887.38256	31880.175
2889.88051	31791.775
2892.37692	31809.775
2894.8718	31827.975
2897.36515	31891.975
2899.85698	31873.775
2902.34727	31879.975
2904.83604	31810.175
2907.32328	31868.575
2909.809	31877.175
2912.29319	31906.275
2914.77587	31836.875
2917.25702	31907.675
2919.73665	31875.075
2922.21476	31843.975
2924.69136	31738.275
2927.16644	31728.975
2929.64	31692.475
2932.11205	31633.075
2934.58258	31517.775
2937.05161	31629.475
2939.51912	31634.575
2941.98513	31557.875
2944.44962	31569.075
2946.91261	31394.175
2949.37409	31496.375
2951.83407	31465.275
2954.29254	31506.675
2956.74951	31461.175
2959.20498	31462.275
2961.65895	31378.275
2964.11142	31389.975
2966.56239	31410.675
2969.01186	31479.775
2971.45984	31415.375
2973.90632	31365.875
2976.35131	31315.275
2978.7948	31291.275
2981.23681	31194.375
2983.67732	31137.575
2986.11635	31049.875
2988.55388	31023.275
2990.98993	30937.075
2993.4245	30848.775
2995.85758	30803.675
2998.28917	30756.575
3000.71928	30669.175
3003.14791	30588.575
3005.57506	30581.675
3008.00073	30481.475
3010.42493	30453.175
3012.84764	30409.975
3015.26888	30375.675
3017.68865	30252.875
3020.10694	30249.075
3022.52376	30191.075
3024.9391	30152.275
3027.35298	30081.775
3029.76539	30105.875
3032.17632	30033.075
3034.5858	30001.875
3036.9938	29933.175
3039.40034	29888.475
3041.80542	29826.075
3044.20903	29784.375
3046.61118	29727.975
3049.01187	29674.375
3051.4111	29700.875
3053.80888	29636.775
3056.20519	29572.775
3058.60005	29516.475
3060.99345	29458.675
3063.3854	29407.275
3065.7759	29283.475
3068.16494	29239.175
3070.55254	29101.575
3072.93868	29066.375
3075.32338	28946.275
3077.70662	28907.675
3080.08842	28856.475
3082.46878	28908.675
3084.84769	28803.275
3087.22515	28804.775
3089.60118	28780.475
3091.97576	28775.375
3094.3489	28743.775
3096.72061	28744.775
3099.09087	28720.275
3101.4597	28719.075
3103.82709	28745.275
3106.19305	28682.275
3108.55757	28675.775
3110.92066	28626.275
3113.28232	28540.975
3115.64255	28488.075
3118.00134	28481.675
3120.35871	28416.575
3122.71466	28368.275
3125.06917	28300.275
3127.42226	28203.575
3129.77393	28226.675
