Data from AgNPs_UA_0uM_CRN_0uM_R6G_10uM_Q_RamanShift__24__11-46-28-774.txt Node

Date: Wed Jul 13 11:46:28 BST 2022
User: TCL
Spectrometer: QEP01345
Trigger mode: 4
Integration Time (sec): 7.000000E0
Scans to average: 10
Electric dark correction enabled: true
Nonlinearity correction enabled: false
Boxcar width: 0
XAxis mode: Raman Shifts
Number of Pixels in Spectrum: 1044
>>>>>Begin Spectral Data<<<<<
46.04893	-1.075
50.45542	0.125
54.85868	-0.175
59.25871	-0.375
63.6555	52.625
68.04907	57.825
72.43941	62.425
76.82654	65.725
81.21044	68.725
85.59113	72.425
89.96862	76.925
94.34289	81.525
98.71396	79.325
103.08183	85.025
107.4465	88.525
111.80798	88.025
116.16626	88.925
120.52136	92.425
124.87327	95.925
129.222	95.325
133.56755	97.725
137.90993	105.825
142.24913	111.125
146.58517	122.325
150.91804	131.725
155.24774	149.225
159.57429	182.325
163.89768	225.125
168.21792	295.125
172.53501	395.125
176.84895	539.025
181.15975	760.125
185.46741	1041.525
189.77193	1426.525
194.07331	1902.125
198.37157	2427.125
202.6667	2975.625
206.9587	3535.525
211.24758	4090.725
215.53334	4688.125
219.81599	5331.125
224.09553	6060.125
228.37195	6855.525
232.64527	7725.825
236.91549	8552.025
241.18261	9335.925
245.44663	10019.125
249.70755	10548.725
253.96539	11053.425
258.22014	11507.825
262.4718	11839.325
266.72039	12027.325
270.96589	12065.325
275.20832	11947.125
279.44768	11760.225
283.68397	11555.725
287.91719	11372.025
292.14735	11366.025
296.37445	11568.425
300.59849	11897.225
304.81948	12358.425
309.03742	12685.725
313.25231	12692.925
317.46415	12274.725
321.67296	11590.125
325.87872	10984.225
330.08145	10722.125
334.28114	10742.225
338.47781	10922.025
342.67145	11186.725
346.86207	11636.025
351.04966	12228.125
355.23424	12873.025
359.4158	13279.025
363.59435	13382.425
367.76989	13395.825
371.94243	13310.725
376.11196	13227.925
380.27849	13180.425
384.44203	13064.425
388.60257	12961.425
392.76012	12947.625
396.91468	13124.925
401.06626	13438.425
405.21485	13600.125
409.36047	13327.825
413.50311	12741.525
417.64277	12199.225
421.77947	11932.525
425.9132	11876.925
430.04396	11911.025
434.17176	11948.825
438.2966	12178.125
442.41849	12498.425
446.53742	12914.925
450.6534	13282.625
454.76644	13447.025
458.87653	13349.725
462.98368	13149.825
467.08789	12863.925
471.18916	12550.525
475.2875	12257.225
479.38291	11999.625
483.4754	11832.525
487.56496	11669.025
491.6516	11582.725
495.73531	11519.525
499.81612	11525.125
503.89401	11647.625
507.96899	11805.225
512.04106	11977.425
516.11023	12152.225
520.1765	12228.825
524.23987	12233.625
528.30034	12125.925
532.35792	11978.925
536.41261	11749.425
540.46441	11526.425
544.51333	11433.525
548.55936	11495.925
552.60252	11724.725
556.64279	12018.625
560.6802	12207.825
564.71473	12393.925
568.7464	12830.525
572.7752	13029.625
576.80114	12702.925
580.82422	12460.425
584.84444	12442.125
588.86181	12715.525
592.87633	13173.225
596.888	13602.825
600.89682	14005.825
604.9028	15201.025
608.90594	18561.325
612.90624	22275.125
616.90371	20240.325
620.89834	14735.725
624.89015	12435.025
628.87913	12064.025
632.86528	12188.225
636.84862	12254.725
640.82913	11977.225
644.80683	11488.625
648.78172	11172.925
652.75379	11246.725
656.72306	11618.725
660.68952	12021.725
664.65319	11828.225
668.61405	11382.125
672.57211	11171.725
676.52738	11158.425
680.47986	11099.325
684.42955	10992.225
688.37646	10909.525
692.32058	10933.325
696.26192	11055.525
700.20048	11194.325
704.13626	11256.925
708.06928	11209.625
711.99952	11075.125
715.927	11052.425
719.85171	11100.825
723.77365	11095.525
727.69284	10991.325
731.60928	10941.725
735.52295	10979.725
739.43388	11031.425
743.34206	11053.725
747.24749	11058.425
751.15017	11100.525
755.05012	11303.025
758.94733	11833.825
762.8418	13167.425
766.73354	15235.525
770.62254	17093.625
774.50882	17721.525
778.39237	16704.825
782.27321	14681.525
786.15132	12818.025
790.02671	11714.825
793.89938	11162.725
797.76935	10972.825
801.6366	10868.425
805.50115	10781.925
809.36299	10701.425
813.22213	10646.025
817.07857	10629.125
820.93231	10599.525
824.78336	10648.925
828.63172	10702.025
832.47738	10692.525
836.32036	10670.125
840.16066	10650.425
843.99827	10624.025
847.8332	10590.625
851.66546	10572.525
855.49504	10532.425
859.32195	10518.525
863.1462	10436.225
866.96777	10440.325
870.78668	10390.925
874.60293	10430.425
878.41652	10461.425
882.22745	10518.725
886.03573	10527.225
889.84136	10520.925
893.64433	10473.225
897.44466	10446.225
901.24235	10425.225
905.0374	10380.625
908.8298	10314.925
912.61957	10292.925
916.40671	10332.725
920.19121	10407.625
923.97308	10515.625
927.75233	10710.225
931.52895	10823.225
935.30295	10619.225
939.07433	10312.025
942.84309	10056.825
946.60924	9913.225
950.37278	9861.725
954.13371	9820.825
957.89203	9779.125
961.64774	9729.925
965.40086	9684.125
969.15137	9635.225
972.89929	9587.425
976.64461	9578.125
980.38733	9594.725
984.12747	9593.725
987.86502	9667.425
991.59999	9780.825
995.33237	9954.225
999.06217	10244.125
1002.78939	10556.825
1006.51404	10774.425
1010.23611	10937.525
1013.95561	11027.325
1017.67255	10990.325
1021.38692	10799.925
1025.09872	10606.625
1028.80796	10554.225
1032.51465	10720.625
1036.21877	10858.025
1039.92035	10872.425
1043.61937	10773.325
1047.31584	10609.025
1051.00976	10444.025
1054.70114	10371.325
1058.38998	10320.825
1062.07627	10339.925
1065.76003	10360.925
1069.44126	10364.325
1073.11995	10461.025
1076.79611	10645.425
1080.46974	10850.625
1084.14085	11192.525
1087.80943	11486.725
1091.47549	11499.525
1095.13903	11247.125
1098.80005	10858.825
1102.45857	10603.725
1106.11456	10522.425
1109.76805	10604.425
1113.41903	10826.725
1117.06751	11155.325
1120.71348	11629.425
1124.35696	12123.325
1127.99793	12491.825
1131.63641	12300.325
1135.2724	11699.725
1138.90589	11195.925
1142.5369	10916.925
1146.16542	10726.325
1149.79145	10639.525
1153.415	10666.525
1157.03607	10757.625
1160.65467	10986.925
1164.27079	11421.225
1167.88443	12112.925
1171.49561	13237.225
1175.10432	15000.625
1178.71056	17170.425
1182.31434	18699.125
1185.91565	19015.125
1189.51451	18338.825
1193.11091	17166.825
1196.70485	15900.425
1200.29634	14885.525
1203.88538	13982.325
1207.47197	13118.825
1211.05612	12445.825
1214.63782	12161.425
1218.21708	12158.825
1221.79391	12327.425
1225.36829	12461.225
1228.94024	12382.025
1232.50976	12203.525
1236.07685	12021.625
1239.6415	11969.025
1243.20374	11951.725
1246.76355	11971.725
1250.32093	12057.825
1253.8759	12310.625
1257.42845	12673.125
1260.97859	13154.225
1264.52631	13657.025
1268.07163	14130.225
1271.61453	14558.625
1275.15503	14928.925
1278.69312	15149.625
1282.22882	15372.125
1285.76211	15755.025
1289.29301	16271.325
1292.82151	16864.325
1296.34761	17612.725
1299.87133	18639.125
1303.39266	20256.925
1306.9116	22691.025
1310.42815	25356.125
1313.94233	26774.925
1317.45412	26053.925
1320.96354	24015.325
1324.47058	21780.725
1327.97525	20060.725
1331.47754	19011.125
1334.97747	18568.825
1338.47502	18604.825
1341.97022	18971.125
1345.46305	19729.625
1348.95352	20740.325
1352.44163	22175.425
1355.92738	24351.225
1359.41078	27605.125
1362.89183	30361.525
1366.37053	29115.025
1369.84688	24506.725
1373.32088	20130.925
1376.79254	17476.125
1380.26186	16211.025
1383.72883	15567.425
1387.19347	15012.425
1390.65578	14545.125
1394.11575	14297.625
1397.57339	14371.925
1401.0287	14568.125
1404.48168	14743.025
1407.93234	14857.025
1411.38068	14801.025
1414.82669	14664.125
1418.27039	14326.125
1421.71177	14003.525
1425.15083	13623.525
1428.58758	13557.225
1432.02203	13723.825
1435.45416	13950.625
1438.88399	14134.225
1442.31151	14212.425
1445.73673	14265.025
1449.15965	14346.825
1452.58027	14289.125
1455.9986	14161.825
1459.41463	14185.125
1462.82837	14407.925
1466.23982	14759.425
1469.64898	15060.025
1473.05586	15241.225
1476.46045	15292.025
1479.86276	15352.825
1483.26279	15520.725
1486.66054	15767.025
1490.05602	16162.325
1493.44922	16816.725
1496.84016	17759.325
1500.22882	19186.925
1503.61521	21300.825
1506.99934	23786.725
1510.38121	26071.425
1513.76081	26761.325
1517.13816	25091.825
1520.51324	21907.225
1523.88607	18948.025
1527.25665	17101.825
1530.62498	16075.225
1533.99105	15496.325
1537.35488	15029.225
1540.71647	14707.925
1544.07581	14494.225
1547.4329	14361.825
1550.78776	14281.525
1554.14038	14285.625
1557.49077	14334.725
1560.83892	14575.725
1564.18484	14925.425
1567.52853	15310.825
1570.86999	15625.625
1574.20922	15821.425
1577.54624	15718.825
1580.88103	14958.825
1584.2136	14135.625
1587.54395	13817.625
1590.87208	14225.725
1594.19801	15305.825
1597.52172	16655.625
1600.84321	17292.225
1604.16251	16685.825
1607.47959	15427.425
1610.79447	14000.525
1614.10715	12709.125
1617.41763	11684.025
1620.7259	11058.725
1624.03199	10787.625
1627.33587	10825.525
1630.63757	11203.425
1633.93707	12015.325
1637.23439	13340.725
1640.52951	15314.625
1643.82246	17768.925
1647.11321	20090.025
1650.40179	21038.125
1653.68819	19630.725
1656.97241	16561.525
1660.25446	13551.725
1663.53433	11439.325
1666.81203	10189.025
1670.08756	9451.625
1673.36092	9004.925
1676.63211	8690.525
1679.90115	8488.925
1683.16801	8352.625
1686.43272	8256.525
1689.69527	8175.325
1692.95567	8114.725
1696.2139	8093.025
1699.46999	8042.325
1702.72392	8006.125
1705.97571	8014.825
1709.22535	7982.025
1712.47284	8003.325
1715.71819	7955.325
1718.96139	7982.025
1722.20246	7954.325
1725.44139	7897.625
1728.67818	7846.525
1731.91284	7791.725
1735.14537	7752.625
1738.37576	7701.025
1741.60403	7667.725
1744.83017	7639.425
1748.05418	7611.425
1751.27607	7593.225
1754.49584	7588.025
1757.71349	7569.825
1760.92903	7582.025
1764.14244	7529.425
1767.35375	7521.225
1770.56294	7509.325
1773.77002	7491.125
1776.97499	7466.525
1780.17785	7449.625
1783.37861	7419.725
1786.57727	7415.025
1789.77382	7394.625
1792.96828	7389.425
1796.16064	7371.625
1799.3509	7349.725
1802.53907	7340.525
1805.72514	7309.225
1808.90913	7305.925
1812.09102	7275.025
1815.27083	7232.125
1818.44856	7225.425
1821.6242	7217.425
1824.79776	7187.225
1827.96924	7180.525
1831.13864	7173.425
1834.30597	7167.825
1837.47122	7156.825
1840.6344	7160.925
1843.7955	7160.925
1846.95454	7140.925
1850.11151	7125.725
1853.26642	7115.125
1856.41926	7129.125
1859.57004	7098.425
1862.71876	7127.425
1865.86542	7128.425
1869.01003	7149.725
1872.15258	7120.925
1875.29308	7108.525
1878.43152	7103.625
1881.56792	7097.325
1884.70227	7118.025
1887.83457	7101.225
1890.96482	7098.725
1894.09304	7094.725
1897.21921	7099.425
1900.34335	7109.725
1903.46544	7080.725
1906.58551	7100.925
1909.70353	7093.125
1912.81953	7066.225
1915.93349	7073.425
1919.04543	7054.625
1922.15534	7047.625
1925.26322	7023.325
1928.36908	6996.625
1931.47292	6963.625
1934.57473	6939.225
1937.67453	6890.625
1940.77232	6867.625
1943.86808	6869.025
1946.96184	6845.425
1950.05358	6825.925
1953.14331	6801.625
1956.23103	6800.525
1959.31675	6766.525
1962.40046	6725.525
1965.48217	6726.225
1968.56188	6720.725
1971.63959	6689.925
1974.7153	6680.925
1977.78901	6665.825
1980.86073	6639.825
1983.93046	6611.025
1986.99819	6563.425
1990.06394	6557.025
1993.1277	6538.025
1996.18947	6511.125
1999.24925	6491.425
2002.30706	6457.225
2005.36288	6452.625
2008.41672	6435.025
2011.46859	6417.125
2014.51848	6394.225
2017.56639	6374.625
2020.61233	6387.925
2023.6563	6375.525
2026.6983	6327.125
2029.73833	6309.425
2032.7764	6300.125
2035.8125	6305.825
2038.84664	6299.925
2041.87881	6297.625
2044.90903	6271.525
2047.93729	6257.825
2050.96359	6258.625
2053.98794	6225.425
2057.01034	6238.825
2060.03078	6228.125
2063.04927	6223.525
2066.06582	6233.325
2069.08042	6198.925
2072.09307	6208.425
2075.10378	6188.225
2078.11255	6176.225
2081.11938	6185.425
2084.12426	6174.325
2087.12722	6185.125
2090.12824	6177.325
2093.12732	6179.725
2096.12447	6182.625
2099.11969	6186.925
2102.11299	6173.625
2105.10435	6173.225
2108.09379	6185.225
2111.08131	6183.425
2114.0669	6191.625
2117.05057	6200.525
2120.03233	6192.725
2123.01216	6210.625
2125.99008	6216.425
2128.96609	6223.225
2131.94018	6211.225
2134.91236	6226.225
2137.88263	6225.525
2140.851	6211.825
2143.81746	6224.025
2146.78201	6202.225
2149.74466	6219.325
2152.7054	6220.625
2155.66425	6209.825
2158.6212	6218.425
2161.57625	6184.725
2164.52941	6187.525
2167.48067	6206.425
2170.43004	6197.925
2173.37752	6171.025
2176.32311	6184.325
2179.26681	6208.825
2182.20863	6226.225
2185.14856	6229.925
2188.08661	6211.025
2191.02278	6214.225
2193.95707	6225.525
2196.88948	6207.625
2199.82001	6202.425
2202.74867	6179.225
2205.67545	6190.825
2208.60037	6194.825
2211.52341	6181.025
2214.44458	6171.125
2217.36388	6160.025
2220.28132	6170.125
2223.1969	6132.925
2226.11061	6127.525
2229.02246	6102.925
2231.93245	6097.925
2234.84058	6088.125
2237.74686	6082.825
2240.65128	6090.625
2243.55385	6098.725
2246.45456	6074.025
2249.35343	6077.025
2252.25044	6076.725
2255.14561	6076.225
2258.03893	6066.125
2260.93041	6056.325
2263.82004	6060.825
2266.70783	6034.525
2269.59378	6015.925
2272.4779	6007.225
2275.36017	5989.825
2278.24061	5996.125
2281.11922	5968.725
2283.996	5965.525
2286.87094	5954.925
2289.74405	5937.225
2292.61534	5930.125
2295.4848	5919.825
2298.35243	5916.425
2301.21824	5923.625
2304.08223	5936.725
2306.94439	5942.625
2309.80474	5928.825
2312.66327	5948.825
2315.51999	5933.225
2318.37489	5908.925
2321.22797	5936.925
2324.07925	5917.625
2326.92871	5929.325
2329.77637	5898.325
2332.62222	5914.925
2335.46626	5880.325
2338.3085	5886.625
2341.14893	5891.425
2343.98756	5892.025
2346.8244	5906.825
2349.65943	5908.925
2352.49267	5921.525
2355.32411	5937.225
2358.15376	5951.825
2360.98161	5930.625
2363.80768	5924.625
2366.63195	5930.525
2369.45444	5947.825
2372.27514	5942.525
2375.09405	5934.925
2377.91118	5901.825
2380.72652	5900.725
2383.54009	5858.925
2386.35187	5856.425
2389.16188	5835.125
2391.97011	5837.625
2394.77657	5798.225
2397.58125	5787.725
2400.38416	5792.225
2403.18529	5769.225
2405.98466	5772.325
2408.78226	5752.325
2411.57809	5748.625
2414.37216	5749.525
2417.16446	5734.025
2419.955	5729.325
2422.74378	5715.725
2425.5308	5726.325
2428.31606	5726.325
2431.09956	5728.125
2433.88131	5712.925
2436.6613	5732.325
2439.43954	5712.325
2442.21603	5722.325
2444.99077	5738.925
2447.76377	5744.925
2450.53501	5746.825
2453.30451	5753.325
2456.07226	5731.925
2458.83827	5738.325
2461.60254	5723.925
2464.36507	5724.025
2467.12586	5718.625
2469.88492	5733.725
2472.64224	5741.325
2475.39782	5732.325
2478.15167	5745.525
2480.90379	5749.725
2483.65417	5766.825
2486.40283	5778.125
2489.14976	5781.025
2491.89497	5787.925
2494.63845	5796.225
2497.3802	5806.925
2500.12024	5801.325
2502.85855	5797.625
2505.59514	5788.225
2508.33002	5760.425
2511.06318	5743.125
2513.79462	5721.525
2516.52435	5710.125
2519.25237	5695.325
2521.97867	5701.625
2524.70327	5686.425
2527.42616	5666.825
2530.14734	5669.325
2532.86681	5669.825
2535.58458	5647.525
2538.30065	5670.425
2541.01501	5664.225
2543.72768	5667.325
2546.43864	5679.125
2549.14791	5661.925
2551.85548	5658.325
2554.56136	5683.825
2557.26554	5672.225
2559.96803	5671.925
2562.66883	5637.325
2565.36794	5642.825
2568.06536	5622.125
2570.7611	5628.125
2573.45514	5636.925
2576.14751	5624.325
2578.83819	5622.525
2581.52719	5619.025
2584.21451	5612.325
2586.90015	5605.025
2589.58411	5612.325
2592.2664	5608.925
2594.94701	5597.125
2597.62594	5595.525
2600.30321	5610.625
2602.9788	5607.225
2605.65273	5592.925
2608.32498	5610.925
2610.99557	5584.525
2613.66449	5607.925
2616.33175	5594.725
2618.99734	5609.925
2621.66128	5603.125
2624.32355	5603.125
2626.98416	5593.125
2629.64311	5621.925
2632.30041	5603.325
2634.95605	5609.125
2637.61004	5589.825
2640.26238	5581.825
2642.91306	5539.025
2645.56209	5562.325
2648.20948	5531.725
2650.85521	5542.625
2653.4993	5550.925
2656.14175	5536.325
2658.78255	5544.925
2661.42171	5562.225
2664.05923	5570.425
2666.6951	5576.625
2669.32934	5580.425
2671.96194	5580.325
2674.59291	5599.625
2677.22224	5601.125
2679.84993	5603.025
2682.476	5591.325
2685.10043	5594.825
2687.72324	5579.625
2690.34441	5580.125
2692.96396	5572.525
2695.58188	5568.725
2698.19818	5567.525
2700.81285	5587.425
2703.4259	5586.925
2706.03733	5587.525
2708.64714	5584.825
2711.25533	5598.325
2713.86191	5579.825
2716.46687	5607.025
2719.07021	5623.025
2721.67194	5617.225
2724.27206	5614.825
2726.87057	5625.125
2729.46747	5621.825
2732.06276	5617.325
2734.65644	5626.625
2737.24852	5617.625
2739.83899	5616.025
2742.42786	5617.025
2745.01513	5598.725
2747.60079	5589.825
2750.18486	5593.225
2752.76733	5583.825
2755.3482	5578.225
2757.92747	5599.025
2760.50515	5565.625
2763.08123	5569.325
2765.65573	5566.425
2768.22863	5548.925
2770.79994	5582.825
2773.36967	5560.925
2775.9378	5564.825
2778.50435	5576.625
2781.06932	5586.625
2783.6327	5564.725
2786.1945	5557.125
2788.75471	5554.625
2791.31335	5557.625
2793.87041	5554.425
2796.42589	5556.025
2798.97979	5557.325
2801.53212	5529.325
2804.08288	5537.025
2806.63206	5509.725
2809.17967	5524.325
2811.72571	5504.225
2814.27018	5499.225
2816.81308	5499.225
2819.35442	5492.425
2821.89419	5478.025
2824.43239	5501.225
2826.96904	5498.225
2829.50412	5491.725
2832.03763	5488.125
2834.56959	5507.325
2837.1	5500.925
2839.62884	5498.525
2842.15613	5513.325
2844.68186	5532.925
2847.20604	5551.425
2849.72867	5547.125
2852.24974	5538.325
2854.76927	5550.725
2857.28724	5576.625
2859.80367	5560.125
2862.31855	5534.825
2864.83189	5553.525
2867.34368	5537.425
2869.85393	5547.025
2872.36264	5541.425
2874.8698	5522.625
2877.37543	5532.725
2879.87952	5509.925
2882.38207	5539.125
2884.88308	5501.825
2887.38256	5513.925
2889.88051	5509.325
2892.37692	5521.525
2894.8718	5529.625
2897.36515	5538.125
2899.85698	5533.325
2902.34727	5531.225
2904.83604	5555.825
2907.32328	5564.525
2909.809	5559.325
2912.29319	5546.325
2914.77587	5560.825
2917.25702	5572.325
2919.73665	5563.425
2922.21476	5569.825
2924.69136	5525.225
2927.16644	5533.525
2929.64	5521.425
2932.11205	5513.825
2934.58258	5487.625
2937.05161	5516.325
2939.51912	5505.025
2941.98513	5498.725
2944.44962	5472.025
2946.91261	5424.825
2949.37409	5455.125
2951.83407	5448.925
2954.29254	5460.425
2956.74951	5429.925
2959.20498	5445.725
2961.65895	5440.225
2964.11142	5431.925
2966.56239	5416.125
2969.01186	5420.825
2971.45984	5414.225
2973.90632	5403.225
2976.35131	5380.725
2978.7948	5384.425
2981.23681	5367.025
2983.67732	5349.325
2986.11635	5328.225
2988.55388	5324.425
2990.98993	5323.325
2993.4245	5297.125
2995.85758	5283.925
2998.28917	5276.525
3000.71928	5295.025
3003.14791	5282.625
3005.57506	5265.825
3008.00073	5254.225
3010.42493	5254.725
3012.84764	5251.225
3015.26888	5238.625
3017.68865	5239.825
3020.10694	5233.825
3022.52376	5201.325
3024.9391	5206.925
3027.35298	5209.425
3029.76539	5212.425
3032.17632	5205.725
3034.5858	5182.025
3036.9938	5176.425
3039.40034	5186.425
3041.80542	5173.225
3044.20903	5139.225
3046.61118	5151.325
3049.01187	5154.825
3051.4111	5138.725
3053.80888	5129.425
3056.20519	5131.825
3058.60005	5122.725
3060.99345	5116.625
3063.3854	5101.025
3065.7759	5090.425
3068.16494	5060.025
3070.55254	5058.125
3072.93868	5057.925
3075.32338	5030.825
3077.70662	5037.125
3080.08842	5024.625
3082.46878	5020.225
3084.84769	5017.425
3087.22515	5016.525
3089.60118	5022.325
3091.97576	4999.725
3094.3489	5011.825
3096.72061	5028.625
3099.09087	5011.325
3101.4597	5016.325
3103.82709	5009.025
3106.19305	5006.625
3108.55757	5000.925
3110.92066	5005.225
3113.28232	4997.425
3115.64255	4999.025
3118.00134	4993.625
3120.35871	4994.225
3122.71466	4984.325
3125.06917	4989.425
3127.42226	4967.225
3129.77393	4976.225
3132.12417	4947.925
3134.47299	4959.425
3136.82039	4961.425
3139.16636	4951.425
3141.51092	4966.625
3143.85406	4968.725
3146.19579	4974.125
3148.53609	4982.925
3150.87499	4996.725
3153.21246	4984.125
3155.54853	5007.925
3157.88318	5000.225
3160.21642	5013.625
3162.54826	5019.825
3164.87868	5014.625
3167.2077	4997.425
3169.5353	5026.325
3171.86151	5023.225
3174.18631	5036.625
3176.5097	5034.425
3178.83169	5020.425
3181.15228	5025.525
3183.47147	5023.025
3185.78926	5015.925
3188.10565	5010.525
3190.42065	4998.325
3192.73424	5002.625
3195.04645	5013.325
