Data from AgNPs_UA_0uM_CRN_0uM_R6G_10uM_Q_RamanShift__25__11-47-38-775.txt Node

Date: Wed Jul 13 11:47:38 BST 2022
User: TCL
Spectrometer: QEP01345
Trigger mode: 4
Integration Time (sec): 7.000000E0
Scans to average: 10
Electric dark correction enabled: true
Nonlinearity correction enabled: false
Boxcar width: 0
XAxis mode: Raman Shifts
Number of Pixels in Spectrum: 1044
>>>>>Begin Spectral Data<<<<<
46.04893	-0.7
50.45542	-1
54.85868	-0.4
59.25871	-0.1
63.6555	52.9
68.04907	59.8
72.43941	64
76.82654	68.5
81.21044	70.7
85.59113	73.6
89.96862	77.7
94.34289	80.9
98.71396	79.9
103.08183	85.9
107.4465	90.8
111.80798	88.4
116.16626	90.2
120.52136	95.6
124.87327	93.2
129.222	96.3
133.56755	96
137.90993	110.4
142.24913	106.8
146.58517	118.5
150.91804	134.7
155.24774	149.8
159.57429	182.6
163.89768	223.1
168.21792	288.9
172.53501	385.1
176.84895	527.6
181.15975	733.2
185.46741	1012.9
189.77193	1386.2
194.07331	1842.4
198.37157	2350
202.6667	2881.1
206.9587	3409.3
211.24758	3964.5
215.53334	4536
219.81599	5173.3
224.09553	5880.5
228.37195	6654.2
232.64527	7463.7
236.91549	8295.2
241.18261	9030
245.44663	9661
249.70755	10210.7
253.96539	10678.9
258.22014	11109.9
262.4718	11424.8
266.72039	11621
270.96589	11636.5
275.20832	11540.1
279.44768	11332.6
283.68397	11128.6
287.91719	10982.2
292.14735	10957.1
296.37445	11144.9
300.59849	11478.3
304.81948	11914
309.03742	12273.7
313.25231	12321.4
317.46415	11880
321.67296	11191.2
325.87872	10612.3
330.08145	10364.8
334.28114	10394.1
338.47781	10549.9
342.67145	10847.4
346.86207	11257.5
351.04966	11807.8
355.23424	12445.8
359.4158	12823.8
363.59435	12960.5
367.76989	12956.4
371.94243	12840.2
376.11196	12794.8
380.27849	12736.3
384.44203	12622.7
388.60257	12519
392.76012	12550.3
396.91468	12674.4
401.06626	12925.8
405.21485	13142.2
409.36047	12851.4
413.50311	12282.4
417.64277	11758.9
421.77947	11516.8
425.9132	11435.5
430.04396	11470.5
434.17176	11558.4
438.2966	11752
442.41849	12106
446.53742	12531
450.6534	12883.9
454.76644	13062.9
458.87653	12951
462.98368	12733.7
467.08789	12458.8
471.18916	12134.1
475.2875	11805.2
479.38291	11574.6
483.4754	11396.1
487.56496	11257.2
491.6516	11121.3
495.73531	11092
499.81612	11081.8
503.89401	11198.9
507.96899	11350.1
512.04106	11522.7
516.11023	11648
520.1765	11800.5
524.23987	11799.3
528.30034	11686.7
532.35792	11550.2
536.41261	11317.2
540.46441	11074.1
544.51333	10982.5
548.55936	11047.4
552.60252	11264.9
556.64279	11547.7
560.6802	11727
564.71473	11969.8
568.7464	12382.6
572.7752	12558.1
576.80114	12258.1
580.82422	12019.9
584.84444	12018.8
588.86181	12317
592.87633	12779.9
596.888	13263.4
600.89682	13657.8
604.9028	14776.3
608.90594	17998.3
612.90624	21641.9
616.90371	19607.2
620.89834	14185.5
624.89015	11943
628.87913	11610.8
632.86528	11728.1
636.84862	11796.7
640.82913	11526.9
644.80683	11049.1
648.78172	10748.6
652.75379	10797.3
656.72306	11130.6
660.68952	11550.4
664.65319	11343.4
668.61405	10886.2
672.57211	10725.4
676.52738	10730.7
680.47986	10661.2
684.42955	10524.5
688.37646	10441
692.32058	10487.1
696.26192	10599.9
700.20048	10733.8
704.13626	10809.6
708.06928	10750.4
711.99952	10636.2
715.927	10606.3
719.85171	10655.5
723.77365	10640.4
727.69284	10558
731.60928	10483.7
735.52295	10521.8
739.43388	10571.7
743.34206	10597.8
747.24749	10620.5
751.15017	10673.9
755.05012	10825.7
758.94733	11387
762.8418	12678.5
766.73354	14702.6
770.62254	16555.4
774.50882	17171.8
778.39237	16208.9
782.27321	14191.4
786.15132	12354.5
790.02671	11267.9
793.89938	10732.9
797.76935	10529.2
801.6366	10433.9
805.50115	10347
809.36299	10283.7
813.22213	10219.6
817.07857	10182
820.93231	10171
824.78336	10217
828.63172	10254.1
832.47738	10275.9
836.32036	10245.7
840.16066	10201
843.99827	10199.7
847.8332	10175
851.66546	10135.3
855.49504	10100.9
859.32195	10072.9
863.1462	10019
866.96777	10022.2
870.78668	9968.3
874.60293	9961.1
878.41652	10051.7
882.22745	10085.8
886.03573	10139
889.84136	10121.3
893.64433	10074.7
897.44466	10005
901.24235	9999
905.0374	9953.3
908.8298	9901.6
912.61957	9878.6
916.40671	9878.9
920.19121	9965.9
923.97308	10129.1
927.75233	10290.2
931.52895	10395.4
935.30295	10220.9
939.07433	9910.6
942.84309	9656.3
946.60924	9538
950.37278	9462.2
954.13371	9424
957.89203	9357.3
961.64774	9315.9
965.40086	9312.5
969.15137	9272.8
972.89929	9216.5
976.64461	9198.5
980.38733	9203.4
984.12747	9222
987.86502	9297.4
991.59999	9399.8
995.33237	9570.1
999.06217	9859.1
1002.78939	10188.5
1006.51404	10417.6
1010.23611	10526.9
1013.95561	10631.1
1017.67255	10610
1021.38692	10398.5
1025.09872	10212.5
1028.80796	10167.5
1032.51465	10315
1036.21877	10459.7
1039.92035	10454.6
1043.61937	10342.2
1047.31584	10200.4
1051.00976	10043.6
1054.70114	9969.2
1058.38998	9947.8
1062.07627	9953.4
1065.76003	9949.7
1069.44126	9975.2
1073.11995	10099.5
1076.79611	10253
1080.46974	10467.9
1084.14085	10804.6
1087.80943	11073.7
1091.47549	11096.3
1095.13903	10864.7
1098.80005	10473.1
1102.45857	10184.9
1106.11456	10157.3
1109.76805	10222.1
1113.41903	10457.8
1117.06751	10777.2
1120.71348	11244
1124.35696	11750.3
1127.99793	12101.8
1131.63641	11892.3
1135.2724	11297.4
1138.90589	10813
1142.5369	10528.5
1146.16542	10338.2
1149.79145	10278.5
1153.415	10292.7
1157.03607	10417.7
1160.65467	10634
1164.27079	11058.4
1167.88443	11734.9
1171.49561	12872.4
1175.10432	14634.1
1178.71056	16793.5
1182.31434	18324.6
1185.91565	18619.6
1189.51451	17935.4
1193.11091	16760.4
1196.70485	15476.9
1200.29634	14508.1
1203.88538	13582.2
1207.47197	12718.5
1211.05612	12096
1214.63782	11805.5
1218.21708	11847.2
1221.79391	11991
1225.36829	12161.5
1228.94024	12085.9
1232.50976	11884.8
1236.07685	11692.4
1239.6415	11634.7
1243.20374	11598.3
1246.76355	11633.1
1250.32093	11706.9
1253.8759	11948.9
1257.42845	12355.5
1260.97859	12811.5
1264.52631	13292.2
1268.07163	13786.2
1271.61453	14223.2
1275.15503	14562.5
1278.69312	14778.5
1282.22882	15019.7
1285.76211	15396
1289.29301	15907.5
1292.82151	16534.3
1296.34761	17290.9
1299.87133	18332.1
1303.39266	19956.9
1306.9116	22323.8
1310.42815	24963.5
1313.94233	26404.1
1317.45412	25690.8
1320.96354	23634.4
1324.47058	21464.9
1327.97525	19763.7
1331.47754	18692.3
1334.97747	18259.4
1338.47502	18308.7
1341.97022	18677.9
1345.46305	19348.3
1348.95352	20357.7
1352.44163	21751.7
1355.92738	23924.8
1359.41078	27177.2
1362.89183	29962.4
1366.37053	28648.2
1369.84688	24098.8
1373.32088	19795.1
1376.79254	17164.1
1380.26186	15945.7
1383.72883	15313.7
1387.19347	14804.8
1390.65578	14292.2
1394.11575	14077
1397.57339	14166
1401.0287	14388
1404.48168	14562.1
1407.93234	14715.4
1411.38068	14653.3
1414.82669	14458.3
1418.27039	14094.2
1421.71177	13715.8
1425.15083	13397.1
1428.58758	13317.1
1432.02203	13453
1435.45416	13726.9
1438.88399	13880.5
1442.31151	13958.8
1445.73673	14101
1449.15965	14139.2
1452.58027	14070.9
1455.9986	13939.4
1459.41463	13928.3
1462.82837	14178.7
1466.23982	14507.1
1469.64898	14846.9
1473.05586	14995.1
1476.46045	15067.6
1479.86276	15149.8
1483.26279	15265.5
1486.66054	15477.1
1490.05602	15917.2
1493.44922	16500.3
1496.84016	17389
1500.22882	18822.9
1503.61521	20790.9
1506.99934	23218.5
1510.38121	25421.6
1513.76081	26204.6
1517.13816	24531.3
1520.51324	21432.2
1523.88607	18563.3
1527.25665	16748.1
1530.62498	15774.3
1533.99105	15147.1
1537.35488	14752.1
1540.71647	14438.8
1544.07581	14205.8
1547.4329	14089
1550.78776	13961
1554.14038	13969.1
1557.49077	14048.2
1560.83892	14276.1
1564.18484	14581.3
1567.52853	14938.5
1570.86999	15291.4
1574.20922	15491.9
1577.54624	15330
1580.88103	14641.2
1584.2136	13822
1587.54395	13549
1590.87208	13973.1
1594.19801	15053.9
1597.52172	16458.6
1600.84321	17075.4
1604.16251	16478.7
1607.47959	15157.5
1610.79447	13736.7
1614.10715	12435.6
1617.41763	11405.1
1620.7259	10749.1
1624.03199	10484.7
1627.33587	10540.5
1630.63757	10916.7
1633.93707	11727.7
1637.23439	13073.1
1640.52951	15107.3
1643.82246	17570.9
1647.11321	19817.5
1650.40179	20732.1
1653.68819	19331.5
1656.97241	16266
1660.25446	13234.7
1663.53433	11168.5
1666.81203	9912.8
1670.08756	9202.9
1673.36092	8724.4
1676.63211	8440.7
1679.90115	8227.3
1683.16801	8100.6
1686.43272	7988.4
1689.69527	7927.4
1692.95567	7874.7
1696.2139	7822.4
1699.46999	7801.3
1702.72392	7777.5
1705.97571	7762.5
1709.22535	7736.5
1712.47284	7751.5
1715.71819	7719.2
1718.96139	7727.1
1722.20246	7663.9
1725.44139	7664
1728.67818	7579.2
1731.91284	7555.4
1735.14537	7492.6
1738.37576	7481.5
1741.60403	7426.2
1744.83017	7425.3
1748.05418	7394.1
1751.27607	7360.6
1754.49584	7336.9
1757.71349	7329.7
1760.92903	7313.5
1764.14244	7306.7
1767.35375	7286.7
1770.56294	7291.6
1773.77002	7254.2
1776.97499	7232.5
1780.17785	7195.8
1783.37861	7164.9
1786.57727	7160.4
1789.77382	7138.1
1792.96828	7134
1796.16064	7145.3
1799.3509	7115.3
1802.53907	7089
1805.72514	7099.7
1808.90913	7076.1
1812.09102	7055.1
1815.27083	7006.5
1818.44856	6988.5
1821.6242	6996.9
1824.79776	6955.1
1827.96924	6964.2
1831.13864	6947.3
1834.30597	6944.7
1837.47122	6916
1840.6344	6922.3
1843.7955	6938.2
1846.95454	6900.3
1850.11151	6901.7
1853.26642	6908.2
1856.41926	6891.9
1859.57004	6892.3
1862.71876	6891.7
1865.86542	6890.8
1869.01003	6912.2
1872.15258	6906.7
1875.29308	6893.3
1878.43152	6900.4
1881.56792	6898.4
1884.70227	6895
1887.83457	6877.2
1890.96482	6867.1
1894.09304	6856.8
1897.21921	6866.9
1900.34335	6871.5
1903.46544	6851.6
1906.58551	6875.8
1909.70353	6851.3
1912.81953	6868.2
1915.93349	6861.7
1919.04543	6845.1
1922.15534	6812.1
1925.26322	6791.2
1928.36908	6778.2
1931.47292	6753.3
1934.57473	6739.6
1937.67453	6692.3
1940.77232	6663.6
1943.86808	6666.2
1946.96184	6640.7
1950.05358	6612.3
1953.14331	6606.6
1956.23103	6567.9
1959.31675	6540.5
1962.40046	6544.3
1965.48217	6523
1968.56188	6497.9
1971.63959	6483.6
1974.7153	6475.2
1977.78901	6438.2
1980.86073	6442.4
1983.93046	6393.6
1986.99819	6365.9
1990.06394	6339.1
1993.1277	6348.2
1996.18947	6283.6
1999.24925	6287.8
2002.30706	6271.9
2005.36288	6235.4
2008.41672	6232.8
2011.46859	6219.9
2014.51848	6191.7
2017.56639	6199.4
2020.61233	6170.6
2023.6563	6161.4
2026.6983	6136.4
2029.73833	6120.7
2032.7764	6106.6
2035.8125	6112.3
2038.84664	6105.2
2041.87881	6107
2044.90903	6082.4
2047.93729	6088
2050.96359	6088.3
2053.98794	6045.6
2057.01034	6041.3
2060.03078	6037.8
2063.04927	6052
2066.06582	6038.6
2069.08042	6046.2
2072.09307	6012
2075.10378	6022.4
2078.11255	5991.7
2081.11938	6018.7
2084.12426	5989.3
2087.12722	6018
2090.12824	6002.2
2093.12732	5986.6
2096.12447	6004.4
2099.11969	5990
2102.11299	5998
2105.10435	6002.4
2108.09379	6008.6
2111.08131	6014.5
2114.0669	6014.4
2117.05057	6030.3
2120.03233	6011.9
2123.01216	6044.8
2125.99008	6028.4
2128.96609	6030.1
2131.94018	6029.2
2134.91236	6048.8
2137.88263	6055.6
2140.851	6050.7
2143.81746	6070.7
2146.78201	6038.8
2149.74466	6026.4
2152.7054	6018.5
2155.66425	6044
2158.6212	6019.8
2161.57625	6029
2164.52941	6028.9
2167.48067	6027.4
2170.43004	6024.5
2173.37752	6017.7
2176.32311	6017.1
2179.26681	6030.8
2182.20863	6050.6
2185.14856	6036.5
2188.08661	6031.7
2191.02278	6032.8
2193.95707	6035.7
2196.88948	6028.4
2199.82001	6040.2
2202.74867	6005.3
2205.67545	6010.4
2208.60037	6012.3
2211.52341	6017
2214.44458	5992.4
2217.36388	5974.1
2220.28132	5978.5
2223.1969	5947.6
2226.11061	5973
2229.02246	5971.2
2231.93245	5922.4
2234.84058	5918.7
2237.74686	5911.9
2240.65128	5914.6
2243.55385	5914.8
2246.45456	5917.7
2249.35343	5922.4
2252.25044	5908.4
2255.14561	5892.3
2258.03893	5911.9
2260.93041	5897
2263.82004	5881.7
2266.70783	5834
2269.59378	5841.1
2272.4779	5859.1
2275.36017	5827.5
2278.24061	5821.5
2281.11922	5797
2283.996	5796.3
2286.87094	5779.2
2289.74405	5781.6
2292.61534	5765.6
2295.4848	5768.4
2298.35243	5754.5
2301.21824	5766
2304.08223	5751.8
2306.94439	5763.3
2309.80474	5786.1
2312.66327	5784.3
2315.51999	5774.1
2318.37489	5768.6
2321.22797	5768
2324.07925	5753.8
2326.92871	5748.9
2329.77637	5754.9
2332.62222	5747.1
2335.46626	5733.8
2338.3085	5752.9
2341.14893	5743.4
2343.98756	5740.5
2346.8244	5747.5
2349.65943	5754.3
2352.49267	5764
2355.32411	5771.5
2358.15376	5781.7
2360.98161	5797.6
2363.80768	5784.3
2366.63195	5795.1
2369.45444	5777.6
2372.27514	5784.4
2375.09405	5786.9
2377.91118	5743.6
2380.72652	5744.2
2383.54009	5720.8
2386.35187	5709.9
2389.16188	5690.6
2391.97011	5683.6
2394.77657	5652.8
2397.58125	5640.7
2400.38416	5649.6
2403.18529	5617.2
2405.98466	5627.4
2408.78226	5618.9
2411.57809	5600.1
2414.37216	5580.2
2417.16446	5587
2419.955	5584.2
2422.74378	5593.7
2425.5308	5575.6
2428.31606	5592.5
2431.09956	5598.4
2433.88131	5574.4
2436.6613	5585.5
2439.43954	5576.5
2442.21603	5587.1
2444.99077	5599
2447.76377	5594.7
2450.53501	5622
2453.30451	5592.4
2456.07226	5584.6
2458.83827	5587.2
2461.60254	5588.8
2464.36507	5590.3
2467.12586	5583.4
2469.88492	5604.4
2472.64224	5600.2
2475.39782	5597.1
2478.15167	5604.3
2480.90379	5614.7
2483.65417	5620.7
2486.40283	5642.8
2489.14976	5659.6
2491.89497	5662
2494.63845	5654.4
2497.3802	5651.2
2500.12024	5655.4
2502.85855	5652.1
2505.59514	5642.2
2508.33002	5619.1
2511.06318	5606.4
2513.79462	5575.9
2516.52435	5561.8
2519.25237	5564.6
2521.97867	5553.5
2524.70327	5541.8
2527.42616	5545.1
2530.14734	5530
2532.86681	5525.9
2535.58458	5512.7
2538.30065	5517.6
2541.01501	5532.3
2543.72768	5534.6
2546.43864	5527.9
2549.14791	5519.1
2551.85548	5535.4
2554.56136	5535.1
2557.26554	5551.9
2559.96803	5532.5
2562.66883	5511.8
2565.36794	5509.2
2568.06536	5505.9
2570.7611	5500.7
2573.45514	5516.8
2576.14751	5498.7
2578.83819	5494.9
2581.52719	5485.9
2584.21451	5488.6
2586.90015	5482
2589.58411	5479
2592.2664	5475.7
2594.94701	5481.1
2597.62594	5481.3
2600.30321	5465.9
2602.9788	5471.1
2605.65273	5450.9
2608.32498	5471.3
2610.99557	5470.6
2613.66449	5474.8
2616.33175	5479.6
2618.99734	5461.5
2621.66128	5474.5
2624.32355	5486
2626.98416	5486.7
2629.64311	5480
2632.30041	5479.3
2634.95605	5476.3
2637.61004	5472.6
2640.26238	5454.6
2642.91306	5440.5
2645.56209	5441.9
2648.20948	5408.7
2650.85521	5429.5
2653.4993	5420.6
2656.14175	5412.4
2658.78255	5442.6
2661.42171	5449.4
2664.05923	5448.5
2666.6951	5457.4
2669.32934	5480
2671.96194	5460
2674.59291	5464.5
2677.22224	5456.2
2679.84993	5479.8
2682.476	5479.4
2685.10043	5477.2
2687.72324	5456.8
2690.34441	5450.1
2692.96396	5450.1
2695.58188	5455.9
2698.19818	5431.5
2700.81285	5448.4
2703.4259	5455.1
2706.03733	5481.3
2708.64714	5473.2
2711.25533	5480.6
2713.86191	5485.6
2716.46687	5482.5
2719.07021	5487.8
2721.67194	5511.1
2724.27206	5490.4
2726.87057	5516.4
2729.46747	5509.3
2732.06276	5510.5
2734.65644	5505.4
2737.24852	5503.8
2739.83899	5497
2742.42786	5494.1
2745.01513	5492.1
2747.60079	5489.6
2750.18486	5499.1
2752.76733	5476.6
2755.3482	5466.4
2757.92747	5454
2760.50515	5456.3
2763.08123	5444.7
2765.65573	5456.9
2768.22863	5461.7
2770.79994	5453.6
2773.36967	5459.1
2775.9378	5452.6
2778.50435	5462.4
2781.06932	5467
2783.6327	5481.8
2786.1945	5451.1
2788.75471	5454.5
2791.31335	5437.7
2793.87041	5460.1
2796.42589	5436.7
2798.97979	5433.9
2801.53212	5422
2804.08288	5406.4
2806.63206	5423.2
2809.17967	5399
2811.72571	5399.1
2814.27018	5390.4
2816.81308	5384.7
2819.35442	5385.6
2821.89419	5382.6
2824.43239	5384.8
2826.96904	5397
2829.50412	5390
2832.03763	5387.2
2834.56959	5381.7
2837.1	5394.4
2839.62884	5405.7
2842.15613	5402.7
2844.68186	5443.7
2847.20604	5436.5
2849.72867	5454.3
2852.24974	5455.5
2854.76927	5440
2857.28724	5466.3
2859.80367	5448.5
2862.31855	5455.1
2864.83189	5431.2
2867.34368	5462.1
2869.85393	5431.4
2872.36264	5426.3
2874.8698	5438
2877.37543	5419.9
2879.87952	5412.6
2882.38207	5438.2
2884.88308	5408.5
2887.38256	5414.6
2889.88051	5417
2892.37692	5396.1
2894.8718	5428.5
2897.36515	5424.3
2899.85698	5435.6
2902.34727	5435.9
2904.83604	5458.2
2907.32328	5454.1
2909.809	5456.7
2912.29319	5465.3
2914.77587	5462.7
2917.25702	5456.2
2919.73665	5474.2
2922.21476	5455.1
2924.69136	5438.4
2927.16644	5439.4
2929.64	5418.1
2932.11205	5425.6
2934.58258	5396.5
2937.05161	5410.8
2939.51912	5394.4
2941.98513	5382.6
2944.44962	5371.6
2946.91261	5338.6
2949.37409	5351.4
2951.83407	5348.4
2954.29254	5363
2956.74951	5358.1
2959.20498	5338.9
2961.65895	5340.1
2964.11142	5351.5
2966.56239	5321.7
2969.01186	5341.8
2971.45984	5310.3
2973.90632	5299.5
2976.35131	5268.2
2978.7948	5267.8
2981.23681	5278
2983.67732	5240
2986.11635	5235.4
2988.55388	5221.9
2990.98993	5218.4
2993.4245	5224.3
2995.85758	5191.7
2998.28917	5173
3000.71928	5184.9
3003.14791	5159.9
3005.57506	5179
3008.00073	5179.6
3010.42493	5141.6
3012.84764	5153.4
3015.26888	5144.2
3017.68865	5126.2
3020.10694	5118.7
3022.52376	5119.5
3024.9391	5100.8
3027.35298	5102.3
3029.76539	5096.3
3032.17632	5087.1
3034.5858	5074.9
3036.9938	5093.8
3039.40034	5077.3
3041.80542	5059.9
3044.20903	5059.3
3046.61118	5048
3049.01187	5049.4
3051.4111	5046.6
3053.80888	5034.4
3056.20519	5041.3
3058.60005	5016.4
3060.99345	5002.7
3063.3854	5003.4
3065.7759	4978.5
3068.16494	4988.8
3070.55254	4956.7
3072.93868	4956.2
3075.32338	4932.6
3077.70662	4940.8
3080.08842	4941.4
3082.46878	4932.9
3084.84769	4916.3
3087.22515	4909.5
3089.60118	4911.6
3091.97576	4915.4
3094.3489	4906.9
3096.72061	4911.7
3099.09087	4922.3
3101.4597	4913.2
3103.82709	4920.8
3106.19305	4915.8
3108.55757	4920.6
3110.92066	4901.2
3113.28232	4902.2
3115.64255	4905.3
3118.00134	4904.8
3120.35871	4887.5
3122.71466	4901.4
3125.06917	4898.6
3127.42226	4866.7
3129.77393	4889.5
3132.12417	4885.5
3134.47299	4875.7
3136.82039	4851.3
3139.16636	4859.3
3141.51092	4878.3
3143.85406	4878
3146.19579	4876.6
3148.53609	4880.2
3150.87499	4905.7
3153.21246	4888.5
3155.54853	4902.4
3157.88318	4896.2
3160.21642	4925.3
3162.54826	4926.3
3164.87868	4922
3167.2077	4911.8
3169.5353	4923.7
3171.86151	4910.8
3174.18631	4945.9
3176.5097	4918.7
3178.83169	4933.3
3181.15228	4927.6
3183.47147	4922.6
3185.78926	4926.8
3188.10565	4918.9
3190.42065	4919.9
3192.73424	4916.2
3195.04645	4927.4
3197.35725	4922.1
3199.66667	4928
3201.97469	4943.5
3204.28132	4912.1
3206.58656	4925.6
3208.8904	4939.2
3211.19287	4942.7
3213.49394	4942.3
3215.79363	4958
3218.09193	4972.7
3220.38884	4959.1
3222.68438	4979.7
3224.97853	4980
3227.2713	4971.1
3229.56269	4965.6
3231.8527	4971.9
3234.14133	4955
3236.42858	4962.6
3238.71446	4946.7
3240.99896	4931.8
3243.28209	4945.9
3245.56384	4925.8
3247.84423	4918.2
3250.12324	4927.6
3252.40088	4937.9
3254.67715	4918.3
3256.95205	4918.7
3259.22558	4939.5
3261.49775	4923
3263.76855	4911.8
3266.03799	4922.4
3268.30606	4912.2
3270.57277	4912.9
3272.83812	4908.4
3275.10211	4889.2
3277.36474	4879.1
3279.62601	4884.1
3281.88593	4870.2
3284.14448	4873.5
3286.40168	4869.9
3288.65753	4890.7
3290.91202	4871.8
3293.16516	4859.8
3295.41695	4870.5
3297.66738	4852.8
3299.91647	4824.1
3302.16421	4792.1
3304.4106	4767.2
3306.65564	4747.1
3308.89933	4719.4
3311.14169	4682.3
3313.38269	4644.4
3315.62236	4627.1
3317.86068	4588.6
3320.09766	4564.2
3322.3333	4524.4
3324.5676	4500.2
3326.80056	4433.4
3329.03219	4406.1
3331.26248	1.6
3333.49143	0.4
3335.71905	0.1
