Data from AgNPs_UA_2uM_CRN_0uM_R6G_10uM_Q_RamanShift__12__13-15-01-910.txt Node

Date: Wed Jul 13 13:15:01 BST 2022
User: TCL
Spectrometer: QEP01345
Trigger mode: 4
Integration Time (sec): 7.000000E0
Scans to average: 10
Electric dark correction enabled: true
Nonlinearity correction enabled: false
Boxcar width: 0
XAxis mode: Raman Shifts
Number of Pixels in Spectrum: 1044
>>>>>Begin Spectral Data<<<<<
46.04893	-1.2875
50.45542	-1.1875
54.85868	0.4125
59.25871	-1.3875
63.6555	138.3125
68.04907	140.9125
72.43941	144.2125
76.82654	154.1125
81.21044	157.2125
85.59113	159.8125
89.96862	170.1125
94.34289	169.0125
98.71396	175.3125
103.08183	180.3125
107.4465	190.7125
111.80798	197.3125
116.16626	200.3125
120.52136	206.6125
124.87327	213.1125
129.222	226.2125
133.56755	241.1125
137.90993	261.4125
142.24913	289.9125
146.58517	323.6125
150.91804	369.9125
155.24774	444.8125
159.57429	547.1125
163.89768	707.6125
168.21792	941.1125
172.53501	1271.8125
176.84895	1767.3125
181.15975	2509.4125
185.46741	3509.9125
189.77193	4857.5125
194.07331	6504.0125
198.37157	8367.6125
202.6667	10369.5125
206.9587	12297.8125
211.24758	14238.0125
215.53334	16173.2125
219.81599	18158.9125
224.09553	20381.7125
228.37195	22792.6125
232.64527	25488.8125
236.91549	28286.7125
241.18261	31156.4125
245.44663	33855.9125
249.70755	36322.5125
253.96539	38512.3125
258.22014	40358.1125
262.4718	41882.6125
266.72039	42846.9125
270.96589	43306.2125
275.20832	43343.8125
279.44768	43071.1125
283.68397	42738.9125
287.91719	42377.5125
292.14735	42104.5125
296.37445	42009.7125
300.59849	42127.3125
304.81948	42353.9125
309.03742	42472.1125
313.25231	42523.4125
317.46415	42085.0125
321.67296	41522.5125
325.87872	41114.9125
330.08145	40978.8125
334.28114	41174.3125
338.47781	41515.8125
342.67145	42097.3125
346.86207	42780.2125
351.04966	43537.4125
355.23424	44323.4125
359.4158	44919.7125
363.59435	45383.6125
367.76989	45826.0125
371.94243	46045.5125
376.11196	46267.7125
380.27849	46465.2125
384.44203	46683.2125
388.60257	47010.2125
392.76012	47462.6125
396.91468	48056.9125
401.06626	48702.4125
405.21485	49093.5125
409.36047	48949.4125
413.50311	48626.4125
417.64277	48280.0125
421.77947	48284.1125
425.9132	48499.6125
430.04396	48814.6125
434.17176	49022.1125
438.2966	49388.5125
442.41849	49919.5125
446.53742	50691.5125
450.6534	51463.3125
454.76644	51961.4125
458.87653	52221.2125
462.98368	52308.9125
467.08789	52274.3125
471.18916	52125.2125
475.2875	51796.7125
479.38291	51544.5125
483.4754	51349.3125
487.56496	51270.7125
491.6516	51230.0125
495.73531	51131.9125
499.81612	51143.4125
503.89401	51358.9125
507.96899	51590.3125
512.04106	51748.3125
516.11023	51783.4125
520.1765	51713.3125
524.23987	51770.2125
528.30034	51640.5125
532.35792	51430.5125
536.41261	51323.2125
540.46441	51116.9125
544.51333	51116.7125
548.55936	51513.7125
552.60252	52046.4125
556.64279	52545.3125
560.6802	52968.6125
564.71473	53274.6125
568.7464	53873.7125
572.7752	54578.9125
576.80114	55193.5125
580.82422	55939.6125
584.84444	56599.4125
588.86181	57107.6125
592.87633	57702.3125
596.888	57789.6125
600.89682	57743.7125
604.9028	59067.2125
608.90594	62555.1125
612.90624	65490.7125
616.90371	62264.5125
620.89834	56404.5125
624.89015	54209.6125
628.87913	54170.6125
632.86528	54594.7125
636.84862	54905.5125
640.82913	54503.2125
644.80683	53797.1125
648.78172	53467.3125
652.75379	53520.0125
656.72306	54136.1125
660.68952	54647.0125
664.65319	54561.0125
668.61405	54145.0125
672.57211	54279.6125
676.52738	54385.2125
680.47986	54281.1125
684.42955	54075.9125
688.37646	54135.8125
692.32058	54306.2125
696.26192	54819.4125
700.20048	55262.5125
704.13626	55576.5125
708.06928	55651.5125
711.99952	55625.5125
715.927	55507.1125
719.85171	55548.8125
723.77365	55544.1125
727.69284	55179.1125
731.60928	55017.3125
735.52295	55023.6125
739.43388	55036.8125
743.34206	55226.7125
747.24749	55308.1125
751.15017	55560.1125
755.05012	56083.1125
758.94733	56951.0125
762.8418	58849.2125
766.73354	61561.7125
770.62254	63715.8125
774.50882	63905.0125
778.39237	62344.0125
782.27321	60285.5125
786.15132	58325.5125
790.02671	57048.1125
793.89938	56302.4125
797.76935	55948.3125
801.6366	55777.7125
805.50115	55666.5125
809.36299	55638.1125
813.22213	55610.9125
817.07857	55650.3125
820.93231	55632.7125
824.78336	55672.6125
828.63172	55805.5125
832.47738	55751.9125
836.32036	55710.9125
840.16066	55757.1125
843.99827	55766.0125
847.8332	55873.6125
851.66546	55977.2125
855.49504	56104.7125
859.32195	56233.5125
863.1462	56225.6125
866.96777	56244.5125
870.78668	56323.9125
874.60293	56403.5125
878.41652	56601.2125
882.22745	56886.3125
886.03573	56899.7125
889.84136	57027.4125
893.64433	56926.3125
897.44466	56786.2125
901.24235	56768.0125
905.0374	56723.5125
908.8298	56635.9125
912.61957	56713.5125
916.40671	56910.6125
920.19121	57168.3125
923.97308	57422.3125
927.75233	57494.2125
931.52895	57262.8125
935.30295	56859.2125
939.07433	56453.9125
942.84309	56142.8125
946.60924	55968.2125
950.37278	55904.2125
954.13371	55858.9125
957.89203	55760.9125
961.64774	55836.7125
965.40086	55770.6125
969.15137	55712.7125
972.89929	55568.7125
976.64461	55479.1125
980.38733	55485.0125
984.12747	55615.2125
987.86502	55653.6125
991.59999	55877.2125
995.33237	56100.7125
999.06217	56410.9125
1002.78939	56771.4125
1006.51404	57277.8125
1010.23611	57826.2125
1013.95561	58130.5125
1017.67255	58175.5125
1021.38692	58019.6125
1025.09872	57537.5125
1028.80796	57346.2125
1032.51465	57201.0125
1036.21877	57182.5125
1039.92035	57249.1125
1043.61937	57355.4125
1047.31584	57575.5125
1051.00976	57755.7125
1054.70114	57909.3125
1058.38998	58157.5125
1062.07627	58539.5125
1065.76003	58933.3125
1069.44126	59419.8125
1073.11995	60039.4125
1076.79611	60640.9125
1080.46974	60977.9125
1084.14085	61158.6125
1087.80943	61515.4125
1091.47549	61581.4125
1095.13903	61513.5125
1098.80005	61235.1125
1102.45857	60760.1125
1106.11456	60348.9125
1109.76805	59893.1125
1113.41903	59705.4125
1117.06751	59806.2125
1120.71348	60124.8125
1124.35696	60666.8125
1127.99793	61069.5125
1131.63641	60975.4125
1135.2724	60578.6125
1138.90589	60333.2125
1142.5369	60220.8125
1146.16542	60196.6125
1149.79145	60213.9125
1153.415	60122.5125
1157.03607	60254.7125
1160.65467	60655.0125
1164.27079	61539.0125
1167.88443	62711.4125
1171.49561	64244.9125
1175.10432	66454.2125
1178.71056	69072.2125
1182.31434	71211.9125
1185.91565	72046.3125
1189.51451	72115.8125
1193.11091	71515.7125
1196.70485	70539.4125
1200.29634	69225.4125
1203.88538	68185.5125
1207.47197	67205.9125
1211.05612	66355.7125
1214.63782	65590.9125
1218.21708	64760.9125
1221.79391	64022.5125
1225.36829	63558.6125
1228.94024	63307.1125
1232.50976	63199.5125
1236.07685	63183.6125
1239.6415	63156.4125
1243.20374	63205.2125
1246.76355	63377.4125
1250.32093	63681.9125
1253.8759	64281.8125
1257.42845	65049.5125
1260.97859	66111.9125
1264.52631	66968.7125
1268.07163	67744.4125
1271.61453	68375.9125
1275.15503	69012.6125
1278.69312	69447.1125
1282.22882	70056.1125
1285.76211	70863.0125
1289.29301	71762.5125
1292.82151	72873.2125
1296.34761	74197.3125
1299.87133	75918.8125
1303.39266	78113.5125
1306.9116	80480.1125
1310.42815	82801.5125
1313.94233	83807.5125
1317.45412	82983.4125
1320.96354	81483.6125
1324.47058	80353.8125
1327.97525	79306.6125
1331.47754	78690.6125
1334.97747	78407.4125
1338.47502	78584.8125
1341.97022	79278.9125
1345.46305	80573.6125
1348.95352	81970.4125
1352.44163	82972.2125
1355.92738	83804.2125
1359.41078	85398.4125
1362.89183	86807.7125
1366.37053	85264.1125
1369.84688	80548.2125
1373.32088	75326.7125
1376.79254	71801.5125
1380.26186	69989.3125
1383.72883	69231.3125
1387.19347	68698.7125
1390.65578	67894.6125
1394.11575	67193.1125
1397.57339	66611.3125
1401.0287	66350.3125
1404.48168	66165.5125
1407.93234	65937.5125
1411.38068	65603.3125
1414.82669	65009.8125
1418.27039	64239.9125
1421.71177	63517.8125
1425.15083	62927.2125
1428.58758	62666.6125
1432.02203	62820.8125
1435.45416	63280.6125
1438.88399	63740.6125
1442.31151	64105.5125
1445.73673	64390.0125
1449.15965	64641.9125
1452.58027	64782.6125
1455.9986	64869.2125
1459.41463	65035.6125
1462.82837	65559.8125
1466.23982	66159.8125
1469.64898	66813.0125
1473.05586	67219.5125
1476.46045	67593.1125
1479.86276	67737.5125
1483.26279	67992.7125
1486.66054	68470.2125
1490.05602	69170.4125
1493.44922	70247.1125
1496.84016	72045.3125
1500.22882	74384.5125
1503.61521	77205.6125
1506.99934	79965.7125
1510.38121	81768.1125
1513.76081	81462.9125
1517.13816	79126.9125
1520.51324	76064.3125
1523.88607	73688.7125
1527.25665	72323.4125
1530.62498	71561.5125
1533.99105	71037.1125
1537.35488	70434.2125
1540.71647	69659.3125
1544.07581	68846.7125
1547.4329	68201.1125
1550.78776	67582.2125
1554.14038	67247.7125
1557.49077	67082.5125
1560.83892	67136.1125
1564.18484	67531.5125
1567.52853	68075.0125
1570.86999	68577.8125
1574.20922	69078.9125
1577.54624	69004.7125
1580.88103	68223.4125
1584.2136	67386.6125
1587.54395	67194.2125
1590.87208	67859.5125
1594.19801	69249.9125
1597.52172	70570.3125
1600.84321	71005.3125
1604.16251	69994.9125
1607.47959	68493.6125
1610.79447	66674.1125
1614.10715	64359.2125
1617.41763	62494.8125
1620.7259	61038.8125
1624.03199	60140.7125
1627.33587	59952.1125
1630.63757	60290.5125
1633.93707	61481.0125
1637.23439	63814.5125
1640.52951	67341.3125
1643.82246	71707.1125
1647.11321	75641.6125
1650.40179	77090.1125
1653.68819	74864.3125
1656.97241	70053.0125
1660.25446	65037.1125
1663.53433	61185.6125
1666.81203	58643.7125
1670.08756	57074.2125
1673.36092	56038.2125
1676.63211	55299.0125
1679.90115	54856.5125
1683.16801	54467.5125
1686.43272	54149.8125
1689.69527	53858.8125
1692.95567	53788.8125
1696.2139	53643.9125
1699.46999	53591.4125
1702.72392	53502.1125
1705.97571	53472.8125
1709.22535	53471.8125
1712.47284	53477.7125
1715.71819	53500.8125
1718.96139	53388.5125
1722.20246	53258.4125
1725.44139	53213.8125
1728.67818	53077.4125
1731.91284	52942.6125
1735.14537	52762.1125
1738.37576	52622.7125
1741.60403	52464.3125
1744.83017	52406.0125
1748.05418	52347.2125
1751.27607	52283.8125
1754.49584	52213.7125
1757.71349	52200.5125
1760.92903	52102.8125
1764.14244	52072.3125
1767.35375	51991.4125
1770.56294	51933.9125
1773.77002	51940.6125
1776.97499	51867.6125
1780.17785	51830.7125
1783.37861	51760.3125
1786.57727	51735.8125
1789.77382	51650.3125
1792.96828	51632.6125
1796.16064	51508.0125
1799.3509	51420.9125
1802.53907	51384.3125
1805.72514	51318.0125
1808.90913	51233.0125
1812.09102	51145.8125
1815.27083	50977.0125
1818.44856	50868.3125
1821.6242	50814.2125
1824.79776	50810.3125
1827.96924	50812.2125
1831.13864	50704.6125
1834.30597	50611.9125
1837.47122	50589.5125
1840.6344	50526.9125
1843.7955	50503.1125
1846.95454	50467.2125
1850.11151	50443.1125
1853.26642	50367.5125
1856.41926	50337.5125
1859.57004	50366.7125
1862.71876	50346.0125
1865.86542	50299.2125
1869.01003	50249.8125
1872.15258	50140.4125
1875.29308	50087.8125
1878.43152	49989.5125
1881.56792	50006.4125
1884.70227	49878.8125
1887.83457	49931.9125
1890.96482	49806.3125
1894.09304	49677.6125
1897.21921	49682.8125
1900.34335	49706.7125
1903.46544	49602.6125
1906.58551	49518.2125
1909.70353	49471.7125
1912.81953	49429.6125
1915.93349	49294.4125
1919.04543	49268.4125
1922.15534	49215.0125
1925.26322	49034.0125
1928.36908	49025.8125
1931.47292	48955.7125
1934.57473	48892.1125
1937.67453	48773.9125
1940.77232	48658.5125
1943.86808	48543.9125
1946.96184	48475.2125
1950.05358	48265.7125
1953.14331	48148.0125
1956.23103	48092.7125
1959.31675	47936.2125
1962.40046	47860.5125
1965.48217	47690.9125
1968.56188	47477.8125
1971.63959	47363.0125
1974.7153	47224.5125
1977.78901	47128.6125
1980.86073	46923.6125
1983.93046	46846.8125
1986.99819	46657.5125
1990.06394	46548.6125
1993.1277	46419.0125
1996.18947	46290.4125
1999.24925	46259.0125
2002.30706	46071.8125
2005.36288	46009.9125
2008.41672	45846.2125
2011.46859	45668.0125
2014.51848	45585.2125
2017.56639	45459.4125
2020.61233	45330.6125
2023.6563	45191.8125
2026.6983	45089.2125
2029.73833	44988.9125
2032.7764	44828.0125
2035.8125	44734.7125
2038.84664	44679.9125
2041.87881	44584.6125
2044.90903	44497.8125
2047.93729	44385.5125
2050.96359	44375.0125
2053.98794	44277.3125
2057.01034	44346.3125
2060.03078	44252.8125
2063.04927	44133.9125
2066.06582	44077.7125
2069.08042	44083.6125
2072.09307	44138.3125
2075.10378	44042.4125
2078.11255	44030.4125
2081.11938	44010.1125
2084.12426	43921.9125
2087.12722	43924.7125
2090.12824	43886.4125
2093.12732	43878.7125
2096.12447	43905.2125
2099.11969	43912.9125
2102.11299	43949.6125
2105.10435	43939.7125
2108.09379	43999.7125
2111.08131	44041.0125
2114.0669	44060.5125
2117.05057	44061.7125
2120.03233	44104.6125
2123.01216	44112.9125
2125.99008	44098.9125
2128.96609	44257.0125
2131.94018	44252.4125
2134.91236	44313.6125
2137.88263	44308.1125
2140.851	44362.6125
2143.81746	44393.6125
2146.78201	44387.2125
2149.74466	44399.1125
2152.7054	44439.1125
2155.66425	44368.8125
2158.6212	44340.4125
2161.57625	44318.8125
2164.52941	44350.1125
2167.48067	44313.0125
2170.43004	44262.7125
2173.37752	44244.6125
2176.32311	44253.2125
2179.26681	44202.7125
2182.20863	44167.9125
2185.14856	44237.2125
2188.08661	44200.0125
2191.02278	44197.9125
2193.95707	44166.4125
2196.88948	44103.7125
2199.82001	44127.7125
2202.74867	43937.2125
2205.67545	43970.3125
2208.60037	43872.5125
2211.52341	43824.7125
2214.44458	43828.0125
2217.36388	43681.8125
2220.28132	43565.6125
2223.1969	43436.2125
2226.11061	43403.6125
2229.02246	43315.8125
2231.93245	43203.6125
2234.84058	43208.9125
2237.74686	43127.2125
2240.65128	43122.3125
2243.55385	43100.6125
2246.45456	43110.1125
2249.35343	42984.9125
2252.25044	43007.8125
2255.14561	42946.8125
2258.03893	42866.4125
2260.93041	42746.9125
2263.82004	42675.7125
2266.70783	42589.6125
2269.59378	42436.2125
2272.4779	42300.7125
2275.36017	42192.4125
2278.24061	42155.8125
2281.11922	42086.9125
2283.996	41967.3125
2286.87094	41929.7125
2289.74405	41790.0125
2292.61534	41795.1125
2295.4848	41762.4125
2298.35243	41743.1125
2301.21824	41656.7125
2304.08223	41698.9125
2306.94439	41605.7125
2309.80474	41570.2125
2312.66327	41541.5125
2315.51999	41429.0125
2318.37489	41413.6125
2321.22797	41346.7125
2324.07925	41295.8125
2326.92871	41241.5125
2329.77637	41168.0125
2332.62222	41063.9125
2335.46626	41029.0125
2338.3085	40990.9125
2341.14893	40913.4125
2343.98756	40841.4125
2346.8244	40761.9125
2349.65943	40730.8125
2352.49267	40693.8125
2355.32411	40716.1125
2358.15376	40724.3125
2360.98161	40669.8125
2363.80768	40659.7125
2366.63195	40622.5125
2369.45444	40609.6125
2372.27514	40579.7125
2375.09405	40497.8125
2377.91118	40444.0125
2380.72652	40417.1125
2383.54009	40283.7125
2386.35187	40230.7125
2389.16188	40040.7125
2391.97011	40042.0125
2394.77657	39919.3125
2397.58125	39842.6125
2400.38416	39780.3125
2403.18529	39730.6125
2405.98466	39647.1125
2408.78226	39574.8125
2411.57809	39503.0125
2414.37216	39515.2125
2417.16446	39506.8125
2419.955	39389.6125
2422.74378	39400.2125
2425.5308	39333.0125
2428.31606	39350.6125
2431.09956	39324.8125
2433.88131	39134.2125
2436.6613	39181.2125
2439.43954	39147.1125
2442.21603	39146.2125
2444.99077	39085.2125
2447.76377	39059.6125
2450.53501	39058.9125
2453.30451	39006.9125
2456.07226	38934.1125
2458.83827	38911.5125
2461.60254	38787.5125
2464.36507	38759.2125
2467.12586	38659.4125
2469.88492	38615.8125
2472.64224	38650.6125
2475.39782	38635.0125
2478.15167	38627.2125
2480.90379	38600.9125
2483.65417	38656.8125
2486.40283	38576.2125
2489.14976	38556.9125
2491.89497	38456.8125
2494.63845	38548.9125
2497.3802	38467.9125
2500.12024	38492.4125
2502.85855	38408.5125
2505.59514	38395.8125
2508.33002	38323.4125
2511.06318	38311.2125
2513.79462	38176.7125
2516.52435	38074.9125
2519.25237	38029.3125
2521.97867	37948.4125
2524.70327	37938.8125
2527.42616	37865.1125
2530.14734	37825.1125
2532.86681	37811.9125
2535.58458	37754.9125
2538.30065	37608.4125
2541.01501	37625.2125
2543.72768	37523.7125
2546.43864	37555.1125
2549.14791	37435.7125
2551.85548	37349.8125
2554.56136	37307.9125
2557.26554	37185.7125
2559.96803	37153.6125
2562.66883	37111.7125
2565.36794	37026.8125
2568.06536	36958.1125
2570.7611	36866.0125
2573.45514	36840.6125
2576.14751	36784.8125
2578.83819	36625.0125
2581.52719	36626.8125
2584.21451	36602.6125
2586.90015	36520.7125
2589.58411	36456.5125
2592.2664	36349.4125
2594.94701	36307.3125
2597.62594	36271.4125
2600.30321	36191.4125
2602.9788	36118.2125
2605.65273	36065.0125
2608.32498	36039.6125
2610.99557	35979.5125
2613.66449	35976.3125
2616.33175	35934.0125
2618.99734	35896.9125
2621.66128	35819.7125
2624.32355	35719.3125
2626.98416	35699.4125
2629.64311	35574.2125
2632.30041	35550.4125
2634.95605	35495.0125
2637.61004	35462.3125
2640.26238	35361.4125
2642.91306	35301.8125
2645.56209	35266.4125
2648.20948	35264.0125
2650.85521	35201.9125
2653.4993	35231.8125
2656.14175	35208.0125
2658.78255	35224.2125
2661.42171	35212.9125
2664.05923	35247.9125
2666.6951	35171.6125
2669.32934	35204.7125
2671.96194	35147.3125
2674.59291	35164.7125
2677.22224	35108.1125
2679.84993	35147.8125
2682.476	35119.8125
2685.10043	35142.2125
2687.72324	35067.4125
2690.34441	35119.2125
2692.96396	35084.5125
2695.58188	35082.5125
2698.19818	35055.3125
2700.81285	35051.9125
2703.4259	35042.3125
2706.03733	35060.9125
2708.64714	35068.5125
2711.25533	35104.1125
2713.86191	35062.7125
2716.46687	35095.8125
2719.07021	35023.0125
2721.67194	35041.7125
2724.27206	34972.4125
2726.87057	35038.3125
2729.46747	35044.1125
2732.06276	35074.8125
2734.65644	35018.0125
2737.24852	34998.0125
2739.83899	34929.8125
2742.42786	34906.4125
2745.01513	34777.2125
2747.60079	34734.2125
2750.18486	34644.7125
2752.76733	34601.1125
2755.3482	34554.2125
2757.92747	34605.2125
2760.50515	34444.6125
2763.08123	34434.2125
2765.65573	34339.8125
2768.22863	34357.3125
2770.79994	34327.0125
2773.36967	34286.9125
2775.9378	34183.9125
2778.50435	34195.2125
2781.06932	34124.0125
2783.6327	34089.9125
2786.1945	34004.6125
2788.75471	33930.1125
2791.31335	33857.3125
2793.87041	33799.1125
2796.42589	33728.3125
2798.97979	33744.4125
2801.53212	33668.7125
2804.08288	33569.4125
2806.63206	33476.0125
2809.17967	33431.4125
2811.72571	33294.0125
2814.27018	33253.3125
2816.81308	33179.3125
2819.35442	33110.0125
2821.89419	32992.4125
2824.43239	32900.7125
2826.96904	32885.7125
2829.50412	32854.4125
2832.03763	32759.2125
2834.56959	32739.7125
2837.1	32703.1125
2839.62884	32733.1125
2842.15613	32640.7125
2844.68186	32657.4125
2847.20604	32607.4125
2849.72867	32570.8125
2852.24974	32464.6125
2854.76927	32442.5125
2857.28724	32371.5125
2859.80367	32366.8125
2862.31855	32291.3125
2864.83189	32229.8125
2867.34368	32185.6125
2869.85393	32171.7125
2872.36264	32075.5125
2874.8698	32027.0125
2877.37543	32008.9125
2879.87952	31970.7125
2882.38207	31969.9125
2884.88308	31905.8125
2887.38256	31924.0125
2889.88051	31896.7125
2892.37692	31921.6125
2894.8718	31937.4125
2897.36515	31940.3125
2899.85698	31873.7125
2902.34727	31918.8125
2904.83604	31887.9125
2907.32328	31975.8125
2909.809	31946.8125
2912.29319	31942.1125
2914.77587	31920.8125
2917.25702	31935.3125
2919.73665	31932.3125
2922.21476	31834.7125
2924.69136	31786.5125
2927.16644	31732.6125
2929.64	31741.1125
2932.11205	31758.4125
2934.58258	31632.8125
2937.05161	31667.4125
2939.51912	31646.0125
2941.98513	31640.1125
2944.44962	31573.9125
2946.91261	31496.6125
2949.37409	31519.6125
2951.83407	31522.7125
2954.29254	31525.2125
2956.74951	31471.5125
2959.20498	31500.3125
2961.65895	31494.7125
2964.11142	31465.5125
2966.56239	31425.0125
2969.01186	31469.5125
2971.45984	31389.4125
2973.90632	31340.3125
2976.35131	31328.1125
2978.7948	31257.9125
2981.23681	31237.2125
2983.67732	31174.7125
2986.11635	31112.7125
2988.55388	31043.2125
2990.98993	31013.6125
2993.4245	30920.9125
2995.85758	30861.2125
2998.28917	30768.0125
3000.71928	30735.3125
3003.14791	30694.4125
3005.57506	30640.8125
3008.00073	30493.8125
3010.42493	30438.8125
3012.84764	30396.6125
3015.26888	30354.2125
3017.68865	30317.9125
3020.10694	30291.4125
3022.52376	30208.0125
3024.9391	30153.8125
