Data from AgNPs_UA_0uM_CRN_0uM_R6G_10uM_Q_RamanShift__18__11-39-28-767.txt Node

Date: Wed Jul 13 11:39:28 BST 2022
User: TCL
Spectrometer: QEP01345
Trigger mode: 4
Integration Time (sec): 7.000000E0
Scans to average: 10
Electric dark correction enabled: true
Nonlinearity correction enabled: false
Boxcar width: 0
XAxis mode: Raman Shifts
Number of Pixels in Spectrum: 1044
>>>>>Begin Spectral Data<<<<<
46.04893	-1.6875
50.45542	-0.7875
54.85868	-2.3875
59.25871	0.3125
63.6555	55.9125
68.04907	60.0125
72.43941	64.3125
76.82654	69.0125
81.21044	73.4125
85.59113	78.3125
89.96862	81.7125
94.34289	79.2125
98.71396	81.3125
103.08183	90.0125
107.4465	89.2125
111.80798	91.2125
116.16626	92.8125
120.52136	97.2125
124.87327	98.1125
129.222	100.1125
133.56755	102.1125
137.90993	116.6125
142.24913	120.4125
146.58517	134.4125
150.91804	149.9125
155.24774	174.7125
159.57429	211.4125
163.89768	268.4125
168.21792	355.4125
172.53501	481.7125
176.84895	660.6125
181.15975	928.5125
185.46741	1291.5125
189.77193	1781.9125
194.07331	2381.2125
198.37157	3062.6125
202.6667	3778.2125
206.9587	4488.1125
211.24758	5208.5125
215.53334	5954.7125
219.81599	6749.0125
224.09553	7634.5125
228.37195	8615.6125
232.64527	9622.9125
236.91549	10642.2125
241.18261	11574.7125
245.44663	12353.1125
249.70755	13003.2125
253.96539	13613.1125
258.22014	14165.2125
262.4718	14639.2125
266.72039	14901.3125
270.96589	14975.9125
275.20832	14847.8125
279.44768	14608.1125
283.68397	14304.6125
287.91719	14111.5125
292.14735	14064.9125
296.37445	14288.4125
300.59849	14761.4125
304.81948	15358.8125
309.03742	15872.6125
313.25231	16087.9125
317.46415	15681.7125
321.67296	14839.0125
325.87872	13998.9125
330.08145	13559.8125
334.28114	13486.0125
338.47781	13710.5125
342.67145	14048.5125
346.86207	14571.7125
351.04966	15349.2125
355.23424	16103.4125
359.4158	16509.3125
363.59435	16558.5125
367.76989	16451.4125
371.94243	16325.1125
376.11196	16195.0125
380.27849	16062.2125
384.44203	15934.7125
388.60257	15865.1125
392.76012	15930.5125
396.91468	16168.4125
401.06626	16488.3125
405.21485	16644.7125
409.36047	16292.1125
413.50311	15585.9125
417.64277	14979.8125
421.77947	14630.8125
425.9132	14524.9125
430.04396	14492.2125
434.17176	14492.8125
438.2966	14626.8125
442.41849	14907.9125
446.53742	15216.2125
450.6534	15525.4125
454.76644	15640.7125
458.87653	15643.9125
462.98368	15536.4125
467.08789	15392.5125
471.18916	15117.6125
475.2875	14801.9125
479.38291	14509.7125
483.4754	14347.4125
487.56496	14244.1125
491.6516	14196.0125
495.73531	14193.9125
499.81612	14247.9125
503.89401	14418.0125
507.96899	14612.6125
512.04106	14775.4125
516.11023	14942.6125
520.1765	15067.7125
524.23987	15101.0125
528.30034	15038.3125
532.35792	14901.7125
536.41261	14700.3125
540.46441	14501.2125
544.51333	14335.1125
548.55936	14418.6125
552.60252	14685.0125
556.64279	15007.2125
560.6802	15224.4125
564.71473	15563.5125
568.7464	16051.7125
572.7752	16157.5125
576.80114	15674.5125
580.82422	15296.2125
584.84444	15223.9125
588.86181	15300.4125
592.87633	15496.1125
596.888	15686.9125
600.89682	16210.5125
604.9028	18037.8125
608.90594	22665.7125
612.90624	27726.6125
616.90371	25546.8125
620.89834	18581.5125
624.89015	15594.0125
628.87913	15085.4125
632.86528	15390.7125
636.84862	15564.5125
640.82913	15183.4125
644.80683	14511.0125
648.78172	14179.1125
652.75379	14247.1125
656.72306	14756.6125
660.68952	15305.9125
664.65319	15038.5125
668.61405	14431.8125
672.57211	14190.2125
676.52738	14193.7125
680.47986	14131.6125
684.42955	13993.8125
688.37646	13916.8125
692.32058	13957.5125
696.26192	14082.5125
700.20048	14275.4125
704.13626	14348.2125
708.06928	14280.0125
711.99952	14183.2125
715.927	14169.6125
719.85171	14211.8125
723.77365	14273.9125
727.69284	14166.3125
731.60928	14076.4125
735.52295	14096.3125
739.43388	14141.3125
743.34206	14194.9125
747.24749	14136.8125
751.15017	14194.1125
755.05012	14431.4125
758.94733	15124.3125
762.8418	16858.7125
766.73354	19436.8125
770.62254	21560.8125
774.50882	21927.3125
778.39237	20646.7125
782.27321	18489.2125
786.15132	16392.8125
790.02671	15041.8125
793.89938	14397.8125
797.76935	14121.0125
801.6366	13984.5125
805.50115	13899.0125
809.36299	13794.9125
813.22213	13718.0125
817.07857	13719.7125
820.93231	13711.5125
824.78336	13756.5125
828.63172	13776.2125
832.47738	13822.8125
836.32036	13756.0125
840.16066	13706.0125
843.99827	13647.8125
847.8332	13618.5125
851.66546	13664.9125
855.49504	13613.7125
859.32195	13623.6125
863.1462	13569.7125
866.96777	13581.5125
870.78668	13538.5125
874.60293	13595.5125
878.41652	13662.5125
882.22745	13759.8125
886.03573	13803.8125
889.84136	13797.7125
893.64433	13771.7125
897.44466	13729.0125
901.24235	13727.8125
905.0374	13675.5125
908.8298	13638.7125
912.61957	13572.8125
916.40671	13610.6125
920.19121	13683.9125
923.97308	13831.2125
927.75233	14054.3125
931.52895	14219.5125
935.30295	14053.3125
939.07433	13621.3125
942.84309	13285.9125
946.60924	13126.6125
950.37278	13002.5125
954.13371	12954.8125
957.89203	12920.7125
961.64774	12874.7125
965.40086	12839.4125
969.15137	12769.4125
972.89929	12740.3125
976.64461	12693.1125
980.38733	12683.5125
984.12747	12674.9125
987.86502	12731.2125
991.59999	12792.4125
995.33237	12895.6125
999.06217	13090.6125
1002.78939	13301.9125
1006.51404	13557.1125
1010.23611	13749.9125
1013.95561	13814.3125
1017.67255	13788.0125
1021.38692	13619.7125
1025.09872	13418.4125
1028.80796	13292.2125
1032.51465	13295.3125
1036.21877	13345.1125
1039.92035	13365.8125
1043.61937	13396.1125
1047.31584	13378.6125
1051.00976	13357.7125
1054.70114	13353.6125
1058.38998	13353.4125
1062.07627	13354.4125
1065.76003	13400.5125
1069.44126	13490.7125
1073.11995	13636.1125
1076.79611	13872.8125
1080.46974	14155.3125
1084.14085	14557.0125
1087.80943	14961.1125
1091.47549	15051.7125
1095.13903	14707.4125
1098.80005	14287.4125
1102.45857	14015.6125
1106.11456	13904.7125
1109.76805	13881.9125
1113.41903	14075.0125
1117.06751	14469.3125
1120.71348	14941.8125
1124.35696	15590.3125
1127.99793	16140.7125
1131.63641	15950.3125
1135.2724	15177.0125
1138.90589	14526.7125
1142.5369	14129.0125
1146.16542	13845.7125
1149.79145	13684.4125
1153.415	13620.9125
1157.03607	13675.6125
1160.65467	13936.0125
1164.27079	14418.7125
1167.88443	15148.9125
1171.49561	16220.5125
1175.10432	17945.9125
1178.71056	20174.4125
1182.31434	21895.0125
1185.91565	22214.3125
1189.51451	21543.1125
1193.11091	20404.2125
1196.70485	19226.8125
1200.29634	18170.3125
1203.88538	17276.3125
1207.47197	16279.2125
1211.05612	15505.1125
1214.63782	14924.8125
1218.21708	14676.0125
1221.79391	14617.1125
1225.36829	14637.2125
1228.94024	14621.3125
1232.50976	14522.3125
1236.07685	14460.0125
1239.6415	14476.9125
1243.20374	14527.3125
1246.76355	14616.6125
1250.32093	14718.9125
1253.8759	14968.4125
1257.42845	15379.9125
1260.97859	15894.6125
1264.52631	16482.1125
1268.07163	16953.2125
1271.61453	17330.7125
1275.15503	17550.8125
1278.69312	17539.3125
1282.22882	17607.9125
1285.76211	17980.5125
1289.29301	18490.6125
1292.82151	19108.1125
1296.34761	19652.5125
1299.87133	20569.6125
1303.39266	22178.7125
1306.9116	24751.0125
1310.42815	27767.8125
1313.94233	29439.1125
1317.45412	28533.6125
1320.96354	26171.9125
1324.47058	23769.6125
1327.97525	21787.9125
1331.47754	20510.0125
1334.97747	19872.7125
1338.47502	19793.9125
1341.97022	20336.6125
1345.46305	21570.6125
1348.95352	23249.6125
1352.44163	25166.4125
1355.92738	27506.3125
1359.41078	31148.4125
1362.89183	34815.6125
1366.37053	34003.3125
1369.84688	28495.1125
1373.32088	22948.9125
1376.79254	19749.7125
1380.26186	18213.4125
1383.72883	17361.5125
1387.19347	16597.9125
1390.65578	15942.8125
1394.11575	15475.0125
1397.57339	15272.2125
1401.0287	15235.7125
1404.48168	15181.5125
1407.93234	15185.0125
1411.38068	15160.5125
1414.82669	15176.7125
1418.27039	15128.3125
1421.71177	15045.3125
1425.15083	14839.8125
1428.58758	14740.8125
1432.02203	14897.6125
1435.45416	15208.7125
1438.88399	15294.7125
1442.31151	15282.1125
1445.73673	15293.5125
1449.15965	15328.8125
1452.58027	15257.2125
1455.9986	15198.6125
1459.41463	15198.9125
1462.82837	15340.4125
1466.23982	15647.6125
1469.64898	15937.7125
1473.05586	16170.7125
1476.46045	16230.6125
1479.86276	16335.7125
1483.26279	16561.1125
1486.66054	16952.5125
1490.05602	17557.3125
1493.44922	18504.4125
1496.84016	20002.2125
1500.22882	22286.9125
1503.61521	25446.6125
1506.99934	29160.1125
1510.38121	32476.0125
1513.76081	33548.8125
1517.13816	31252.8125
1520.51324	26901.6125
1523.88607	22810.9125
1527.25665	20046.1125
1530.62498	18436.7125
1533.99105	17498.0125
1537.35488	16831.7125
1540.71647	16400.6125
1544.07581	16089.8125
1547.4329	15934.9125
1550.78776	15893.2125
1554.14038	15979.0125
1557.49077	16202.6125
1560.83892	16609.9125
1564.18484	17228.3125
1567.52853	17920.1125
1570.86999	18526.4125
1574.20922	18809.1125
1577.54624	18613.6125
1580.88103	17653.5125
1584.2136	16354.8125
1587.54395	15579.5125
1590.87208	15580.5125
1594.19801	16216.6125
1597.52172	17232.7125
1600.84321	17541.7125
1604.16251	16947.2125
1607.47959	16097.3125
1610.79447	15238.9125
1614.10715	14388.3125
1617.41763	13603.7125
1620.7259	13004.6125
1624.03199	12726.6125
1627.33587	12752.9125
1630.63757	13033.6125
1633.93707	13687.4125
1637.23439	14874.8125
1640.52951	16756.5125
1643.82246	19374.7125
1647.11321	22298.1125
1650.40179	24163.6125
1653.68819	23397.6125
1656.97241	20216.4125
1660.25446	16691.6125
1663.53433	14163.4125
1666.81203	12666.0125
1670.08756	11821.2125
1673.36092	11315.0125
1676.63211	10984.1125
1679.90115	10765.4125
1683.16801	10609.5125
1686.43272	10501.7125
1689.69527	10429.1125
1692.95567	10344.1125
1696.2139	10286.4125
1699.46999	10240.9125
1702.72392	10212.6125
1705.97571	10189.7125
1709.22535	10191.2125
1712.47284	10189.6125
1715.71819	10197.5125
1718.96139	10180.9125
1722.20246	10182.6125
1725.44139	10100.0125
1728.67818	10054.0125
1731.91284	9960.8125
1735.14537	9894.2125
1738.37576	9866.2125
1741.60403	9825.9125
1744.83017	9782.4125
1748.05418	9756.0125
1751.27607	9720.8125
1754.49584	9704.1125
1757.71349	9689.2125
1760.92903	9661.0125
1764.14244	9634.7125
1767.35375	9598.4125
1770.56294	9570.2125
1773.77002	9572.6125
1776.97499	9551.4125
1780.17785	9524.8125
1783.37861	9499.2125
1786.57727	9443.9125
1789.77382	9433.1125
1792.96828	9413.0125
1796.16064	9414.9125
1799.3509	9393.4125
1802.53907	9357.8125
1805.72514	9346.0125
1808.90913	9323.4125
1812.09102	9280.7125
1815.27083	9241.9125
1818.44856	9230.9125
1821.6242	9213.1125
1824.79776	9177.8125
1827.96924	9153.3125
1831.13864	9172.5125
1834.30597	9153.9125
1837.47122	9127.4125
1840.6344	9106.2125
1843.7955	9118.6125
1846.95454	9079.7125
1850.11151	9066.5125
1853.26642	9051.7125
1856.41926	9023.5125
1859.57004	9021.3125
1862.71876	9013.7125
1865.86542	9005.9125
1869.01003	9014.0125
1872.15258	8987.8125
1875.29308	8962.6125
1878.43152	8946.5125
1881.56792	8898.5125
1884.70227	8905.7125
1887.83457	8894.6125
1890.96482	8854.8125
1894.09304	8844.7125
1897.21921	8830.6125
1900.34335	8852.8125
1903.46544	8807.4125
1906.58551	8804.9125
1909.70353	8803.2125
1912.81953	8799.1125
1915.93349	8781.4125
1919.04543	8761.9125
1922.15534	8729.3125
1925.26322	8711.5125
1928.36908	8676.2125
1931.47292	8651.8125
1934.57473	8615.4125
1937.67453	8592.5125
1940.77232	8538.1125
1943.86808	8516.5125
1946.96184	8509.8125
1950.05358	8474.3125
1953.14331	8458.0125
1956.23103	8423.1125
1959.31675	8407.3125
1962.40046	8384.6125
1965.48217	8380.4125
1968.56188	8349.9125
1971.63959	8346.5125
1974.7153	8300.0125
1977.78901	8276.7125
1980.86073	8262.6125
1983.93046	8224.9125
1986.99819	8149.8125
1990.06394	8145.1125
1993.1277	8087.4125
1996.18947	8066.4125
1999.24925	8046.6125
2002.30706	8027.4125
2005.36288	7969.1125
2008.41672	7959.0125
2011.46859	7941.3125
2014.51848	7907.2125
2017.56639	7899.1125
2020.61233	7910.0125
2023.6563	7848.4125
2026.6983	7799.2125
2029.73833	7786.7125
2032.7764	7758.4125
2035.8125	7761.9125
2038.84664	7750.0125
2041.87881	7712.2125
2044.90903	7702.1125
2047.93729	7702.5125
2050.96359	7671.3125
2053.98794	7667.2125
2057.01034	7649.5125
2060.03078	7642.8125
2063.04927	7638.9125
2066.06582	7622.5125
2069.08042	7628.4125
2072.09307	7600.2125
2075.10378	7606.8125
2078.11255	7576.1125
2081.11938	7577.7125
2084.12426	7559.7125
2087.12722	7574.6125
2090.12824	7573.7125
2093.12732	7577.8125
2096.12447	7589.2125
2099.11969	7566.0125
2102.11299	7573.0125
2105.10435	7586.0125
2108.09379	7560.9125
2111.08131	7565.3125
2114.0669	7571.6125
2117.05057	7591.6125
2120.03233	7603.2125
2123.01216	7606.1125
2125.99008	7634.6125
2128.96609	7621.1125
2131.94018	7611.6125
2134.91236	7618.2125
2137.88263	7617.7125
2140.851	7615.0125
2143.81746	7591.6125
2146.78201	7592.5125
2149.74466	7576.5125
2152.7054	7574.8125
2155.66425	7581.3125
2158.6212	7557.8125
2161.57625	7554.1125
2164.52941	7529.0125
2167.48067	7552.1125
2170.43004	7542.6125
2173.37752	7521.5125
2176.32311	7541.2125
2179.26681	7555.4125
2182.20863	7530.2125
2185.14856	7558.4125
2188.08661	7546.4125
2191.02278	7533.0125
2193.95707	7522.0125
2196.88948	7524.4125
2199.82001	7496.0125
2202.74867	7515.3125
2205.67545	7462.9125
2208.60037	7474.4125
2211.52341	7461.4125
2214.44458	7456.0125
2217.36388	7420.8125
2220.28132	7410.1125
2223.1969	7378.8125
2226.11061	7365.8125
2229.02246	7368.9125
2231.93245	7356.0125
2234.84058	7320.5125
2237.74686	7299.1125
2240.65128	7310.1125
2243.55385	7286.3125
2246.45456	7288.7125
2249.35343	7273.8125
2252.25044	7273.7125
2255.14561	7268.9125
2258.03893	7292.7125
2260.93041	7280.3125
2263.82004	7256.6125
2266.70783	7224.9125
2269.59378	7201.0125
2272.4779	7205.8125
2275.36017	7158.9125
2278.24061	7169.9125
2281.11922	7138.3125
2283.996	7144.1125
2286.87094	7101.0125
2289.74405	7073.5125
2292.61534	7071.6125
2295.4848	7072.7125
2298.35243	7060.8125
2301.21824	7058.9125
2304.08223	7035.7125
2306.94439	7041.5125
2309.80474	7042.6125
2312.66327	7046.1125
2315.51999	7019.5125
2318.37489	7029.7125
2321.22797	7000.9125
2324.07925	6990.2125
2326.92871	6971.8125
2329.77637	6970.9125
2332.62222	6956.9125
2335.46626	6932.3125
2338.3085	6929.8125
2341.14893	6914.3125
2343.98756	6918.6125
2346.8244	6921.6125
2349.65943	6919.1125
2352.49267	6931.9125
2355.32411	6931.9125
2358.15376	6949.6125
2360.98161	6955.5125
2363.80768	6953.8125
2366.63195	6933.3125
2369.45444	6936.6125
2372.27514	6945.5125
2375.09405	6929.2125
2377.91118	6915.5125
2380.72652	6911.7125
2383.54009	6867.3125
2386.35187	6858.9125
2389.16188	6818.8125
2391.97011	6781.6125
2394.77657	6774.5125
2397.58125	6762.7125
2400.38416	6736.5125
2403.18529	6719.1125
2405.98466	6716.4125
2408.78226	6696.8125
2411.57809	6715.7125
2414.37216	6682.6125
2417.16446	6676.5125
2419.955	6654.7125
2422.74378	6673.2125
2425.5308	6670.3125
2428.31606	6671.2125
2431.09956	6655.1125
2433.88131	6645.1125
2436.6613	6636.8125
2439.43954	6644.8125
2442.21603	6651.3125
2444.99077	6648.8125
2447.76377	6640.5125
2450.53501	6665.6125
2453.30451	6636.4125
2456.07226	6626.5125
2458.83827	6620.5125
2461.60254	6604.5125
2464.36507	6595.0125
2467.12586	6602.4125
2469.88492	6584.3125
2472.64224	6604.5125
2475.39782	6594.9125
2478.15167	6599.9125
2480.90379	6610.5125
2483.65417	6610.6125
2486.40283	6612.2125
2489.14976	6623.5125
2491.89497	6623.5125
2494.63845	6626.3125
2497.3802	6618.4125
2500.12024	6612.6125
2502.85855	6592.9125
2505.59514	6572.5125
2508.33002	6560.7125
2511.06318	6523.8125
2513.79462	6494.0125
2516.52435	6483.3125
2519.25237	6505.3125
2521.97867	6448.8125
2524.70327	6453.7125
2527.42616	6423.1125
2530.14734	6423.3125
2532.86681	6400.7125
2535.58458	6389.7125
2538.30065	6391.2125
2541.01501	6394.4125
2543.72768	6370.8125
2546.43864	6385.5125
2549.14791	6389.7125
2551.85548	6386.3125
2554.56136	6380.7125
2557.26554	6390.4125
2559.96803	6367.9125
2562.66883	6329.3125
2565.36794	6342.6125
2568.06536	6329.1125
2570.7611	6284.6125
2573.45514	6302.5125
2576.14751	6307.8125
2578.83819	6283.9125
2581.52719	6263.6125
2584.21451	6255.7125
2586.90015	6250.8125
2589.58411	6239.5125
2592.2664	6232.4125
2594.94701	6208.4125
2597.62594	6209.3125
2600.30321	6201.6125
2602.9788	6218.9125
2605.65273	6178.1125
2608.32498	6167.7125
2610.99557	6161.8125
2613.66449	6171.0125
2616.33175	6160.7125
2618.99734	6157.7125
2621.66128	6146.0125
2624.32355	6155.9125
2626.98416	6135.7125
2629.64311	6162.6125
2632.30041	6147.2125
2634.95605	6118.6125
2637.61004	6120.3125
2640.26238	6089.0125
2642.91306	6073.7125
2645.56209	6065.1125
2648.20948	6049.8125
2650.85521	6041.7125
2653.4993	6045.7125
2656.14175	6045.6125
2658.78255	6070.0125
2661.42171	6064.3125
2664.05923	6066.4125
2666.6951	6068.7125
2669.32934	6071.7125
2671.96194	6062.0125
2674.59291	6086.3125
2677.22224	6068.3125
2679.84993	6073.1125
2682.476	6072.6125
2685.10043	6079.8125
2687.72324	6051.1125
2690.34441	6041.4125
2692.96396	6047.9125
2695.58188	6047.3125
2698.19818	6016.9125
2700.81285	6042.1125
2703.4259	6025.5125
2706.03733	6041.5125
2708.64714	6043.7125
2711.25533	6048.7125
2713.86191	6044.8125
2716.46687	6077.6125
2719.07021	6077.9125
2721.67194	6043.1125
2724.27206	6062.6125
2726.87057	6072.5125
2729.46747	6047.3125
2732.06276	6073.3125
2734.65644	6043.6125
2737.24852	6054.4125
2739.83899	6038.5125
2742.42786	6039.2125
2745.01513	6014.4125
2747.60079	6022.8125
2750.18486	6004.4125
2752.76733	6001.6125
2755.3482	5989.4125
2757.92747	5963.6125
2760.50515	5959.5125
2763.08123	5947.9125
2765.65573	5940.3125
2768.22863	5954.3125
2770.79994	5929.9125
2773.36967	5930.6125
2775.9378	5928.4125
2778.50435	5946.1125
2781.06932	5911.6125
2783.6327	5908.0125
2786.1945	5906.2125
2788.75471	5883.2125
2791.31335	5870.2125
2793.87041	5885.9125
2796.42589	5868.8125
2798.97979	5865.9125
2801.53212	5856.0125
2804.08288	5834.8125
2806.63206	5840.6125
2809.17967	5815.5125
2811.72571	5829.8125
2814.27018	5818.2125
2816.81308	5810.1125
2819.35442	5784.0125
2821.89419	5789.3125
2824.43239	5791.5125
2826.96904	5799.1125
2829.50412	5806.5125
2832.03763	5796.9125
2834.56959	5777.1125
2837.1	5757.7125
2839.62884	5778.5125
2842.15613	5767.4125
2844.68186	5779.2125
2847.20604	5792.2125
2849.72867	5785.2125
2852.24974	5770.8125
2854.76927	5780.5125
2857.28724	5798.5125
2859.80367	5778.9125
2862.31855	5780.5125
2864.83189	5775.0125
2867.34368	5769.6125
2869.85393	5786.7125
2872.36264	5793.8125
2874.8698	5774.4125
2877.37543	5760.0125
2879.87952	5770.1125
2882.38207	5732.3125
2884.88308	5744.3125
2887.38256	5727.5125
2889.88051	5726.4125
2892.37692	5723.8125
2894.8718	5736.9125
2897.36515	5735.9125
2899.85698	5747.6125
2902.34727	5760.6125
2904.83604	5765.4125
2907.32328	5776.7125
2909.809	5786.9125
2912.29319	5788.8125
2914.77587	5792.1125
2917.25702	5811.4125
2919.73665	5775.8125
2922.21476	5804.0125
2924.69136	5771.5125
2927.16644	5751.4125
2929.64	5735.4125
2932.11205	5747.8125
2934.58258	5711.4125
2937.05161	5737.7125
2939.51912	5726.5125
2941.98513	5715.7125
2944.44962	5691.9125
2946.91261	5668.3125
2949.37409	5683.7125
2951.83407	5669.1125
2954.29254	5688.3125
2956.74951	5685.8125
2959.20498	5686.4125
2961.65895	5673.2125
2964.11142	5670.0125
2966.56239	5668.7125
2969.01186	5671.0125
2971.45984	5648.0125
2973.90632	5635.6125
2976.35131	5637.9125
2978.7948	5630.1125
2981.23681	5619.0125
2983.67732	5607.9125
2986.11635	5605.5125
2988.55388	5589.5125
2990.98993	5591.2125
2993.4245	5574.1125
2995.85758	5542.0125
2998.28917	5554.4125
3000.71928	5544.0125
3003.14791	5538.6125
3005.57506	5538.6125
3008.00073	5533.1125
3010.42493	5518.6125
3012.84764	5509.5125
3015.26888	5504.8125
3017.68865	5486.0125
3020.10694	5464.7125
3022.52376	5463.1125
3024.9391	5477.8125
3027.35298	5469.1125
3029.76539	5475.3125
3032.17632	5458.7125
3034.5858	5438.0125
3036.9938	5436.5125
3039.40034	5431.1125
3041.80542	5412.4125
3044.20903	5402.9125
3046.61118	5380.7125
3049.01187	5387.8125
3051.4111	5387.5125
3053.80888	5382.2125
3056.20519	5381.6125
3058.60005	5351.8125
3060.99345	5355.4125
3063.3854	5333.4125
3065.7759	5336.7125
3068.16494	5318.3125
3070.55254	5301.9125
3072.93868	5306.2125
3075.32338	5300.8125
3077.70662	5287.4125
3080.08842	5288.7125
3082.46878	5271.2125
