Data from AgNPs_UA_0uM_CRN_0uM_R6G_10uM_Q_RamanShift__14__11-34-48-762.txt Node

Date: Wed Jul 13 11:34:48 BST 2022
User: TCL
Spectrometer: QEP01345
Trigger mode: 4
Integration Time (sec): 7.000000E0
Scans to average: 10
Electric dark correction enabled: true
Nonlinearity correction enabled: false
Boxcar width: 0
XAxis mode: Raman Shifts
Number of Pixels in Spectrum: 1044
>>>>>Begin Spectral Data<<<<<
46.04893	0.8875
50.45542	-0.1125
54.85868	-0.9125
59.25871	0.3875
63.6555	53.9875
68.04907	58.4875
72.43941	62.7875
76.82654	70.3875
81.21044	74.1875
85.59113	70.9875
89.96862	75.8875
94.34289	78.6875
98.71396	78.8875
103.08183	87.3875
107.4465	85.3875
111.80798	87.0875
116.16626	88.2875
120.52136	93.4875
124.87327	94.7875
129.222	94.6875
133.56755	98.8875
137.90993	107.4875
142.24913	114.3875
146.58517	126.9875
150.91804	141.1875
155.24774	160.6875
159.57429	197.8875
163.89768	250.3875
168.21792	329.2875
172.53501	444.2875
176.84895	609.7875
181.15975	852.4875
185.46741	1196.5875
189.77193	1636.4875
194.07331	2206.4875
198.37157	2842.3875
202.6667	3526.0875
206.9587	4232.5875
211.24758	4919.4875
215.53334	5624.5875
219.81599	6366.8875
224.09553	7175.7875
228.37195	8096.8875
232.64527	9002.7875
236.91549	9933.9875
241.18261	10828.1875
245.44663	11577.1875
249.70755	12225.2875
253.96539	12826.9875
258.22014	13348.6875
262.4718	13747.4875
266.72039	14029.7875
270.96589	14070.7875
275.20832	13927.3875
279.44768	13727.9875
283.68397	13455.1875
287.91719	13209.3875
292.14735	13119.9875
296.37445	13287.1875
300.59849	13585.8875
304.81948	14024.0875
309.03742	14467.8875
313.25231	14608.3875
317.46415	14321.6875
321.67296	13616.6875
325.87872	12961.2875
330.08145	12598.4875
334.28114	12563.3875
338.47781	12749.2875
342.67145	13037.0875
346.86207	13486.2875
351.04966	14163.2875
355.23424	14788.2875
359.4158	15144.1875
363.59435	15148.3875
367.76989	15062.0875
371.94243	14929.1875
376.11196	14770.5875
380.27849	14710.0875
384.44203	14634.3875
388.60257	14579.0875
392.76012	14658.3875
396.91468	14876.4875
401.06626	15176.9875
405.21485	15313.7875
409.36047	15022.4875
413.50311	14452.6875
417.64277	13971.5875
421.77947	13705.8875
425.9132	13658.8875
430.04396	13654.4875
434.17176	13672.4875
438.2966	13782.9875
442.41849	13986.8875
446.53742	14204.7875
450.6534	14391.3875
454.76644	14531.1875
458.87653	14564.1875
462.98368	14550.3875
467.08789	14486.0875
471.18916	14298.1875
475.2875	14036.7875
479.38291	13838.2875
483.4754	13725.3875
487.56496	13664.6875
491.6516	13628.3875
495.73531	13637.2875
499.81612	13694.7875
503.89401	13849.1875
507.96899	14025.2875
512.04106	14170.1875
516.11023	14325.8875
520.1765	14461.0875
524.23987	14506.7875
528.30034	14413.8875
532.35792	14350.7875
536.41261	14244.2875
540.46441	14046.9875
544.51333	14001.9875
548.55936	14066.5875
552.60252	14245.4875
556.64279	14482.0875
560.6802	14631.4875
564.71473	14910.9875
568.7464	15313.4875
572.7752	15347.2875
576.80114	14971.4875
580.82422	14665.4875
584.84444	14638.1875
588.86181	14693.9875
592.87633	14834.5875
596.888	15054.5875
600.89682	15580.4875
604.9028	17126.5875
608.90594	20929.5875
612.90624	25132.5875
616.90371	23392.8875
620.89834	17752.7875
624.89015	15279.4875
628.87913	14871.4875
632.86528	15101.1875
636.84862	15255.8875
640.82913	14925.6875
644.80683	14359.3875
648.78172	14058.0875
652.75379	14121.3875
656.72306	14510.2875
660.68952	15014.5875
664.65319	14803.5875
668.61405	14323.8875
672.57211	14107.7875
676.52738	14154.7875
680.47986	14093.2875
684.42955	14005.9875
688.37646	13928.8875
692.32058	13968.5875
696.26192	14124.7875
700.20048	14255.2875
704.13626	14313.4875
708.06928	14335.7875
711.99952	14223.2875
715.927	14193.8875
719.85171	14243.4875
723.77365	14311.4875
727.69284	14218.8875
731.60928	14155.9875
735.52295	14156.6875
739.43388	14238.5875
743.34206	14312.2875
747.24749	14333.7875
751.15017	14327.0875
755.05012	14498.5875
758.94733	15076.0875
762.8418	16522.6875
766.73354	18736.5875
770.62254	20449.4875
774.50882	20638.9875
778.39237	19684.5875
782.27321	18059.9875
786.15132	16310.1875
790.02671	15188.5875
793.89938	14631.2875
797.76935	14350.4875
801.6366	14227.3875
805.50115	14172.6875
809.36299	14117.6875
813.22213	14055.5875
817.07857	14026.4875
820.93231	14045.2875
824.78336	14113.4875
828.63172	14159.9875
832.47738	14171.0875
836.32036	14118.1875
840.16066	14037.3875
843.99827	14025.7875
847.8332	14033.6875
851.66546	14034.9875
855.49504	14089.8875
859.32195	14049.0875
863.1462	14060.5875
866.96777	14072.4875
870.78668	14091.6875
874.60293	14133.8875
878.41652	14216.4875
882.22745	14315.5875
886.03573	14389.1875
889.84136	14413.8875
893.64433	14440.3875
897.44466	14419.0875
901.24235	14473.1875
905.0374	14483.4875
908.8298	14438.5875
912.61957	14443.5875
916.40671	14456.9875
920.19121	14544.6875
923.97308	14627.1875
927.75233	14814.0875
931.52895	14884.9875
935.30295	14738.1875
939.07433	14385.7875
942.84309	14126.7875
946.60924	13939.6875
950.37278	13871.4875
954.13371	13819.8875
957.89203	13745.4875
961.64774	13687.4875
965.40086	13644.5875
969.15137	13585.9875
972.89929	13530.9875
976.64461	13503.5875
980.38733	13492.7875
984.12747	13471.5875
987.86502	13488.5875
991.59999	13548.0875
995.33237	13595.7875
999.06217	13693.6875
1002.78939	13834.3875
1006.51404	14118.8875
1010.23611	14288.2875
1013.95561	14287.3875
1017.67255	14258.8875
1021.38692	14161.2875
1025.09872	13963.5875
1028.80796	13857.2875
1032.51465	13830.3875
1036.21877	13844.1875
1039.92035	13862.9875
1043.61937	13937.9875
1047.31584	13999.7875
1051.00976	14061.0875
1054.70114	14093.9875
1058.38998	14065.0875
1062.07627	14108.9875
1065.76003	14124.8875
1069.44126	14178.1875
1073.11995	14355.6875
1076.79611	14570.6875
1080.46974	14871.3875
1084.14085	15173.1875
1087.80943	15558.7875
1091.47549	15580.0875
1095.13903	15260.8875
1098.80005	14944.6875
1102.45857	14721.6875
1106.11456	14664.3875
1109.76805	14618.0875
1113.41903	14705.8875
1117.06751	14975.3875
1120.71348	15383.2875
1124.35696	15939.8875
1127.99793	16460.0875
1131.63641	16293.7875
1135.2724	15620.8875
1138.90589	15063.7875
1142.5369	14724.1875
1146.16542	14471.5875
1149.79145	14345.2875
1153.415	14257.8875
1157.03607	14319.8875
1160.65467	14459.9875
1164.27079	14833.3875
1167.88443	15410.8875
1171.49561	16253.2875
1175.10432	17612.1875
1178.71056	19401.0875
1182.31434	20906.4875
1185.91565	21218.1875
1189.51451	20701.2875
1193.11091	19810.7875
1196.70485	18939.6875
1200.29634	18138.7875
1203.88538	17381.4875
1207.47197	16523.1875
1211.05612	15795.9875
1214.63782	15258.9875
1218.21708	14949.1875
1221.79391	14789.6875
1225.36829	14770.0875
1228.94024	14759.0875
1232.50976	14785.4875
1236.07685	14826.1875
1239.6415	14877.7875
1243.20374	14909.0875
1246.76355	14976.4875
1250.32093	15021.9875
1253.8759	15182.0875
1257.42845	15496.3875
1260.97859	15922.4875
1264.52631	16420.1875
1268.07163	16795.9875
1271.61453	17093.7875
1275.15503	17216.0875
1278.69312	17164.6875
1282.22882	17190.0875
1285.76211	17516.6875
1289.29301	18004.2875
1292.82151	18431.3875
1296.34761	18924.3875
1299.87133	19631.5875
1303.39266	20866.5875
1306.9116	22946.0875
1310.42815	25279.5875
1313.94233	26342.7875
1317.45412	25352.6875
1320.96354	23447.5875
1324.47058	21554.5875
1327.97525	20053.4875
1331.47754	19110.2875
1334.97747	18628.2875
1338.47502	18647.6875
1341.97022	19223.5875
1345.46305	20449.2875
1348.95352	22119.8875
1352.44163	23820.2875
1355.92738	25610.0875
1359.41078	28340.2875
1362.89183	31338.3875
1366.37053	30822.9875
1369.84688	26333.6875
1373.32088	21694.4875
1376.79254	18962.8875
1380.26186	17689.2875
1383.72883	16869.5875
1387.19347	16157.0875
1390.65578	15509.4875
1394.11575	15106.9875
1397.57339	14850.5875
1401.0287	14756.0875
1404.48168	14652.4875
1407.93234	14601.4875
1411.38068	14601.3875
1414.82669	14695.3875
1418.27039	14745.3875
1421.71177	14695.5875
1425.15083	14552.9875
1428.58758	14427.0875
1432.02203	14499.8875
1435.45416	14664.6875
1438.88399	14703.2875
1442.31151	14604.2875
1445.73673	14616.0875
1449.15965	14611.2875
1452.58027	14568.1875
1455.9986	14536.1875
1459.41463	14541.6875
1462.82837	14646.0875
1466.23982	14827.3875
1469.64898	15056.8875
1473.05586	15261.4875
1476.46045	15405.2875
1479.86276	15588.8875
1483.26279	15897.3875
1486.66054	16291.5875
1490.05602	16928.5875
1493.44922	17881.7875
1496.84016	19321.4875
1500.22882	21426.4875
1503.61521	24222.8875
1506.99934	27409.5875
1510.38121	30041.9875
1513.76081	30608.3875
1517.13816	28459.8875
1520.51324	24734.5875
1523.88607	21363.5875
1527.25665	19106.4875
1530.62498	17804.8875
1533.99105	17032.0875
1537.35488	16480.4875
1540.71647	16079.4875
1544.07581	15796.5875
1547.4329	15611.2875
1550.78776	15571.7875
1554.14038	15583.8875
1557.49077	15827.4875
1560.83892	16126.0875
1564.18484	16680.4875
1567.52853	17332.2875
1570.86999	17949.3875
1574.20922	18292.5875
1577.54624	18150.0875
1580.88103	17278.8875
1584.2136	16092.0875
1587.54395	15279.8875
1590.87208	15169.5875
1594.19801	15502.5875
1597.52172	16119.0875
1600.84321	16225.0875
1604.16251	15779.2875
1607.47959	15297.8875
1610.79447	14842.1875
1614.10715	14250.8875
1617.41763	13689.6875
1620.7259	13278.2875
1624.03199	13047.3875
1627.33587	13045.9875
1630.63757	13261.2875
1633.93707	13693.4875
1637.23439	14532.6875
1640.52951	15936.2875
1643.82246	17889.6875
1647.11321	20245.6875
1650.40179	21842.2875
1653.68819	21445.8875
1656.97241	19033.5875
1660.25446	16307.9875
1663.53433	14245.9875
1666.81203	13071.2875
1670.08756	12362.8875
1673.36092	11993.7875
1676.63211	11709.5875
1679.90115	11560.6875
1683.16801	11428.8875
1686.43272	11322.7875
1689.69527	11227.6875
1692.95567	11181.6875
1696.2139	11119.2875
1699.46999	11099.5875
1702.72392	11075.0875
1705.97571	11067.6875
1709.22535	11047.3875
1712.47284	11049.6875
1715.71819	11068.6875
1718.96139	11075.4875
1722.20246	11040.0875
1725.44139	11010.9875
1728.67818	10966.5875
1731.91284	10887.9875
1735.14537	10846.3875
1738.37576	10830.6875
1741.60403	10808.6875
1744.83017	10757.7875
1748.05418	10745.2875
1751.27607	10712.2875
1754.49584	10680.5875
1757.71349	10667.8875
1760.92903	10660.6875
1764.14244	10619.9875
1767.35375	10601.7875
1770.56294	10595.3875
1773.77002	10592.0875
1776.97499	10575.6875
1780.17785	10536.9875
1783.37861	10482.3875
1786.57727	10452.4875
1789.77382	10411.9875
1792.96828	10386.4875
1796.16064	10394.1875
1799.3509	10343.5875
1802.53907	10317.2875
1805.72514	10300.7875
1808.90913	10239.4875
1812.09102	10245.4875
1815.27083	10169.6875
1818.44856	10158.1875
1821.6242	10130.7875
1824.79776	10077.8875
1827.96924	10064.7875
1831.13864	10061.8875
1834.30597	10059.7875
1837.47122	10021.7875
1840.6344	9991.9875
1843.7955	9990.8875
1846.95454	9988.0875
1850.11151	9968.1875
1853.26642	9947.5875
1856.41926	9953.3875
1859.57004	9918.5875
1862.71876	9921.5875
1865.86542	9928.4875
1869.01003	9912.9875
1872.15258	9890.3875
1875.29308	9870.5875
1878.43152	9826.5875
1881.56792	9802.0875
1884.70227	9786.1875
1887.83457	9771.7875
1890.96482	9742.2875
1894.09304	9695.9875
1897.21921	9695.7875
1900.34335	9641.3875
1903.46544	9663.8875
1906.58551	9662.4875
1909.70353	9639.0875
1912.81953	9635.0875
1915.93349	9622.3875
1919.04543	9582.6875
1922.15534	9527.4875
1925.26322	9522.0875
1928.36908	9498.4875
1931.47292	9469.4875
1934.57473	9443.5875
1937.67453	9401.1875
1940.77232	9355.4875
1943.86808	9332.9875
1946.96184	9304.0875
1950.05358	9307.6875
1953.14331	9253.5875
1956.23103	9250.6875
1959.31675	9188.9875
1962.40046	9162.2875
1965.48217	9125.0875
1968.56188	9113.9875
1971.63959	9100.1875
1974.7153	9066.5875
1977.78901	9038.7875
1980.86073	8967.3875
1983.93046	8943.6875
1986.99819	8877.8875
1990.06394	8813.9875
1993.1277	8816.7875
1996.18947	8758.8875
1999.24925	8775.6875
2002.30706	8727.0875
2005.36288	8689.7875
2008.41672	8658.2875
2011.46859	8648.1875
2014.51848	8592.1875
2017.56639	8598.3875
2020.61233	8598.4875
2023.6563	8515.5875
2026.6983	8479.7875
2029.73833	8466.0875
2032.7764	8424.0875
2035.8125	8419.1875
2038.84664	8394.1875
2041.87881	8390.3875
2044.90903	8347.2875
2047.93729	8337.5875
2050.96359	8310.7875
2053.98794	8297.3875
2057.01034	8295.7875
2060.03078	8286.0875
2063.04927	8264.8875
2066.06582	8292.9875
2069.08042	8272.7875
2072.09307	8228.2875
2075.10378	8219.0875
2078.11255	8216.7875
2081.11938	8192.2875
2084.12426	8185.2875
2087.12722	8202.8875
2090.12824	8188.0875
2093.12732	8225.7875
2096.12447	8211.8875
2099.11969	8191.5875
2102.11299	8185.8875
2105.10435	8192.5875
2108.09379	8176.5875
2111.08131	8193.3875
2114.0669	8189.8875
2117.05057	8203.8875
2120.03233	8219.6875
2123.01216	8207.8875
2125.99008	8221.5875
2128.96609	8200.9875
2131.94018	8191.8875
2134.91236	8193.2875
2137.88263	8218.1875
2140.851	8205.0875
2143.81746	8200.7875
2146.78201	8171.8875
2149.74466	8180.9875
2152.7054	8155.2875
2155.66425	8156.8875
2158.6212	8150.5875
2161.57625	8138.6875
2164.52941	8142.5875
2167.48067	8129.3875
2170.43004	8118.8875
2173.37752	8094.2875
2176.32311	8113.8875
2179.26681	8112.2875
2182.20863	8095.7875
2185.14856	8088.1875
2188.08661	8097.3875
2191.02278	8072.1875
2193.95707	8072.5875
2196.88948	8078.3875
2199.82001	8038.8875
2202.74867	8017.9875
2205.67545	8012.8875
2208.60037	8000.3875
2211.52341	7955.8875
2214.44458	7955.3875
2217.36388	7915.2875
2220.28132	7910.6875
2223.1969	7886.4875
2226.11061	7884.4875
2229.02246	7842.0875
2231.93245	7823.2875
2234.84058	7796.2875
2237.74686	7802.6875
2240.65128	7776.4875
2243.55385	7796.7875
2246.45456	7764.0875
2249.35343	7761.0875
2252.25044	7760.3875
2255.14561	7748.0875
2258.03893	7730.2875
2260.93041	7765.4875
2263.82004	7721.7875
2266.70783	7706.3875
2269.59378	7655.1875
2272.4779	7646.0875
2275.36017	7645.4875
2278.24061	7608.5875
2281.11922	7593.2875
2283.996	7575.7875
2286.87094	7539.3875
2289.74405	7529.5875
2292.61534	7494.5875
2295.4848	7486.7875
2298.35243	7484.0875
2301.21824	7474.4875
2304.08223	7436.2875
2306.94439	7462.2875
2309.80474	7426.0875
2312.66327	7447.1875
2315.51999	7395.9875
2318.37489	7415.0875
2321.22797	7383.9875
2324.07925	7378.0875
2326.92871	7359.5875
2329.77637	7331.2875
2332.62222	7304.4875
2335.46626	7294.3875
2338.3085	7273.1875
2341.14893	7256.8875
2343.98756	7225.4875
2346.8244	7256.8875
2349.65943	7246.2875
2352.49267	7257.8875
2355.32411	7257.3875
2358.15376	7276.9875
2360.98161	7261.8875
2363.80768	7256.8875
2366.63195	7240.6875
2369.45444	7256.5875
2372.27514	7240.6875
2375.09405	7241.2875
2377.91118	7199.7875
2380.72652	7180.7875
2383.54009	7155.9875
2386.35187	7136.9875
2389.16188	7099.1875
2391.97011	7080.8875
2394.77657	7054.1875
2397.58125	7031.4875
2400.38416	7011.1875
2403.18529	6993.8875
2405.98466	7000.4875
2408.78226	6962.1875
2411.57809	6975.5875
2414.37216	6945.6875
2417.16446	6931.2875
2419.955	6914.5875
2422.74378	6924.2875
2425.5308	6913.3875
2428.31606	6921.6875
2431.09956	6903.9875
2433.88131	6890.5875
2436.6613	6890.3875
2439.43954	6895.4875
2442.21603	6855.4875
2444.99077	6881.9875
2447.76377	6878.7875
2450.53501	6879.3875
2453.30451	6846.1875
2456.07226	6819.7875
2458.83827	6826.1875
2461.60254	6810.7875
2464.36507	6806.5875
2467.12586	6801.4875
2469.88492	6790.5875
2472.64224	6772.1875
2475.39782	6774.6875
2478.15167	6788.5875
2480.90379	6793.9875
2483.65417	6769.8875
2486.40283	6766.6875
2489.14976	6756.7875
2491.89497	6754.7875
2494.63845	6756.9875
2497.3802	6743.6875
2500.12024	6735.4875
2502.85855	6733.6875
2505.59514	6701.0875
2508.33002	6675.2875
2511.06318	6669.4875
2513.79462	6628.9875
2516.52435	6614.1875
2519.25237	6607.2875
2521.97867	6582.4875
2524.70327	6568.8875
2527.42616	6535.8875
2530.14734	6539.5875
2532.86681	6524.3875
2535.58458	6488.4875
2538.30065	6473.3875
2541.01501	6478.3875
2543.72768	6460.0875
2546.43864	6461.1875
2549.14791	6456.7875
2551.85548	6454.3875
2554.56136	6449.3875
2557.26554	6447.2875
2559.96803	6405.4875
2562.66883	6360.5875
2565.36794	6373.9875
2568.06536	6358.3875
2570.7611	6345.5875
2573.45514	6342.7875
2576.14751	6319.9875
2578.83819	6315.4875
2581.52719	6276.5875
2584.21451	6275.2875
2586.90015	6251.7875
2589.58411	6249.0875
2592.2664	6247.3875
2594.94701	6216.1875
2597.62594	6209.6875
2600.30321	6189.6875
2602.9788	6195.5875
2605.65273	6145.4875
2608.32498	6154.0875
2610.99557	6141.9875
2613.66449	6138.3875
2616.33175	6135.8875
2618.99734	6115.5875
2621.66128	6107.9875
2624.32355	6106.0875
2626.98416	6094.3875
2629.64311	6079.3875
2632.30041	6075.9875
2634.95605	6061.9875
2637.61004	6029.2875
2640.26238	6014.0875
2642.91306	6006.9875
2645.56209	5996.9875
2648.20948	5964.3875
2650.85521	5959.3875
2653.4993	5946.7875
2656.14175	5939.1875
2658.78255	5940.8875
2661.42171	5960.8875
2664.05923	5948.3875
2666.6951	5955.8875
2669.32934	5956.6875
2671.96194	5949.9875
2674.59291	5955.1875
2677.22224	5959.7875
2679.84993	5951.7875
2682.476	5944.5875
2685.10043	5930.3875
2687.72324	5935.8875
2690.34441	5924.5875
2692.96396	5924.0875
2695.58188	5920.7875
2698.19818	5894.5875
2700.81285	5910.3875
2703.4259	5916.4875
2706.03733	5888.0875
2708.64714	5885.9875
2711.25533	5908.6875
2713.86191	5888.2875
2716.46687	5907.9875
2719.07021	5884.5875
2721.67194	5915.2875
2724.27206	5877.8875
2726.87057	5884.6875
2729.46747	5874.2875
2732.06276	5877.9875
2734.65644	5861.4875
2737.24852	5858.8875
2739.83899	5839.8875
2742.42786	5844.5875
2745.01513	5815.0875
2747.60079	5816.8875
2750.18486	5801.9875
2752.76733	5767.4875
2755.3482	5777.7875
2757.92747	5737.1875
2760.50515	5719.8875
2763.08123	5733.3875
2765.65573	5715.9875
2768.22863	5706.7875
2770.79994	5701.1875
2773.36967	5687.3875
2775.9378	5671.7875
2778.50435	5692.4875
2781.06932	5681.5875
2783.6327	5655.5875
2786.1945	5638.5875
2788.75471	5628.6875
2791.31335	5624.5875
2793.87041	5607.5875
2796.42589	5610.4875
2798.97979	5620.5875
2801.53212	5585.7875
2804.08288	5556.6875
2806.63206	5533.0875
2809.17967	5528.3875
2811.72571	5527.8875
2814.27018	5515.1875
2816.81308	5504.8875
2819.35442	5493.7875
2821.89419	5482.7875
2824.43239	5486.4875
2826.96904	5489.0875
2829.50412	5469.5875
2832.03763	5465.7875
2834.56959	5452.6875
2837.1	5436.2875
2839.62884	5438.8875
2842.15613	5437.3875
2844.68186	5443.7875
2847.20604	5430.3875
2849.72867	5435.2875
2852.24974	5434.8875
2854.76927	5428.1875
2857.28724	5437.7875
2859.80367	5425.4875
2862.31855	5414.9875
2864.83189	5406.7875
2867.34368	5417.4875
2869.85393	5401.8875
2872.36264	5385.0875
2874.8698	5377.6875
2877.37543	5357.0875
2879.87952	5379.5875
2882.38207	5362.7875
2884.88308	5343.2875
2887.38256	5329.8875
2889.88051	5314.4875
2892.37692	5326.3875
2894.8718	5333.3875
2897.36515	5333.3875
2899.85698	5319.5875
2902.34727	5343.7875
2904.83604	5342.3875
2907.32328	5339.6875
2909.809	5353.6875
2912.29319	5348.4875
2914.77587	5346.6875
2917.25702	5358.1875
2919.73665	5359.6875
2922.21476	5350.8875
2924.69136	5336.0875
2927.16644	5315.3875
2929.64	5301.5875
2932.11205	5299.5875
2934.58258	5273.6875
2937.05161	5263.7875
2939.51912	5278.6875
2941.98513	5285.0875
2944.44962	5236.5875
2946.91261	5217.4875
2949.37409	5237.7875
2951.83407	5219.9875
2954.29254	5232.7875
2956.74951	5224.0875
2959.20498	5203.2875
2961.65895	5207.3875
2964.11142	5213.6875
2966.56239	5201.9875
2969.01186	5198.3875
2971.45984	5169.0875
2973.90632	5174.7875
2976.35131	5160.4875
2978.7948	5162.7875
2981.23681	5147.7875
2983.67732	5133.6875
2986.11635	5112.3875
2988.55388	5103.5875
2990.98993	5094.2875
2993.4245	5105.5875
2995.85758	5079.0875
2998.28917	5052.2875
3000.71928	5060.9875
3003.14791	5028.8875
3005.57506	5044.2875
3008.00073	5009.4875
3010.42493	5018.2875
3012.84764	5008.8875
3015.26888	5009.6875
3017.68865	4991.1875
3020.10694	4977.7875
3022.52376	4967.1875
3024.9391	4970.3875
3027.35298	4927.9875
3029.76539	4925.2875
3032.17632	4924.9875
3034.5858	4918.9875
3036.9938	4911.9875
3039.40034	4887.2875
3041.80542	4891.1875
3044.20903	4861.7875
3046.61118	4883.8875
3049.01187	4837.8875
3051.4111	4857.2875
3053.80888	4850.2875
3056.20519	4848.6875
3058.60005	4816.6875
3060.99345	4826.6875
3063.3854	4807.9875
3065.7759	4803.8875
3068.16494	4801.0875
3070.55254	4764.0875
3072.93868	4760.4875
3075.32338	4746.4875
3077.70662	4749.2875
