Data from AgNPs_UA_2uM_CRN_0uM_R6G_10uM_Q_RamanShift__5__13-06-51-902.txt Node

Date: Wed Jul 13 13:06:51 BST 2022
User: TCL
Spectrometer: QEP01345
Trigger mode: 4
Integration Time (sec): 7.000000E0
Scans to average: 10
Electric dark correction enabled: true
Nonlinearity correction enabled: false
Boxcar width: 0
XAxis mode: Raman Shifts
Number of Pixels in Spectrum: 1044
>>>>>Begin Spectral Data<<<<<
46.04893	-1.6875
50.45542	-2.0875
54.85868	0.3125
59.25871	-0.4875
63.6555	96.1125
68.04907	102.9125
72.43941	109.0125
76.82654	110.2125
81.21044	119.7125
85.59113	122.5125
89.96862	128.5125
94.34289	127.8125
98.71396	135.0125
103.08183	137.3125
107.4465	143.6125
111.80798	148.0125
116.16626	149.9125
120.52136	157.3125
124.87327	156.9125
129.222	168.1125
133.56755	178.0125
137.90993	194.2125
142.24913	207.7125
146.58517	232.3125
150.91804	267.4125
155.24774	322.9125
159.57429	388.4125
163.89768	502.2125
168.21792	667.3125
172.53501	905.0125
176.84895	1247.5125
181.15975	1769.8125
185.46741	2472.8125
189.77193	3392.7125
194.07331	4542.8125
198.37157	5838.2125
202.6667	7194.8125
206.9587	8528.9125
211.24758	9858.5125
215.53334	11205.6125
219.81599	12686.6125
224.09553	14267.5125
228.37195	16089.9125
232.64527	17975.6125
236.91549	19960.5125
241.18261	21939.6125
245.44663	23587.3125
249.70755	24998.8125
253.96539	26250.5125
258.22014	27336.2125
262.4718	28249.9125
266.72039	28854.2125
270.96589	29099.4125
275.20832	29030.3125
279.44768	28775.4125
283.68397	28428.0125
287.91719	28243.1125
292.14735	28095.7125
296.37445	28258.4125
300.59849	28648.2125
304.81948	29182.9125
309.03742	29564.7125
313.25231	29691.6125
317.46415	29285.6125
321.67296	28641.2125
325.87872	27985.3125
330.08145	27715.1125
334.28114	27731.3125
338.47781	27978.7125
342.67145	28471.0125
346.86207	29169.5125
351.04966	29875.8125
355.23424	30556.6125
359.4158	31074.1125
363.59435	31344.1125
367.76989	31499.2125
371.94243	31527.2125
376.11196	31563.6125
380.27849	31597.1125
384.44203	31705.1125
388.60257	31832.7125
392.76012	32039.1125
396.91468	32456.0125
401.06626	32965.6125
405.21485	33211.2125
409.36047	32883.7125
413.50311	32261.2125
417.64277	31854.6125
421.77947	31689.8125
425.9132	31741.3125
430.04396	31858.9125
434.17176	32077.8125
438.2966	32434.7125
442.41849	33176.8125
446.53742	34282.1125
450.6534	35275.9125
454.76644	35803.2125
458.87653	35772.4125
462.98368	35306.1125
467.08789	34725.9125
471.18916	34068.2125
475.2875	33410.4125
479.38291	32825.3125
483.4754	32437.3125
487.56496	32169.7125
491.6516	31989.5125
495.73531	31880.7125
499.81612	31964.9125
503.89401	32163.2125
507.96899	32320.0125
512.04106	32306.3125
516.11023	32275.5125
520.1765	32307.5125
524.23987	32369.5125
528.30034	32374.3125
532.35792	32184.1125
536.41261	31802.3125
540.46441	31403.6125
544.51333	31291.9125
548.55936	31584.1125
552.60252	32232.9125
556.64279	33108.4125
560.6802	33601.6125
564.71473	33812.8125
568.7464	34334.8125
572.7752	34962.6125
576.80114	35359.2125
580.82422	35988.7125
584.84444	37083.2125
588.86181	38709.0125
592.87633	40329.4125
596.888	40413.2125
600.89682	39193.5125
604.9028	39745.2125
608.90594	43879.2125
612.90624	47811.9125
616.90371	43865.3125
620.89834	36281.5125
624.89015	33497.0125
628.87913	33207.4125
632.86528	33387.7125
636.84862	33320.7125
640.82913	32730.5125
644.80683	31865.9125
648.78172	31416.3125
652.75379	31599.4125
656.72306	32243.3125
660.68952	32889.7125
664.65319	32533.9125
668.61405	31907.4125
672.57211	31913.6125
676.52738	32003.2125
680.47986	31843.8125
684.42955	31540.3125
688.37646	31449.0125
692.32058	31793.8125
696.26192	32284.7125
700.20048	32758.6125
704.13626	32986.0125
708.06928	32816.6125
711.99952	32638.3125
715.927	32676.2125
719.85171	32850.8125
723.77365	32763.9125
727.69284	32303.4125
731.60928	32037.7125
735.52295	31988.3125
739.43388	32129.8125
743.34206	32297.4125
747.24749	32376.9125
751.15017	32680.1125
755.05012	33227.0125
758.94733	34280.9125
762.8418	36526.6125
766.73354	39781.1125
770.62254	42382.1125
774.50882	42517.1125
778.39237	40407.3125
782.27321	37619.5125
786.15132	35206.3125
790.02671	33671.9125
793.89938	32977.8125
797.76935	32619.4125
801.6366	32438.4125
805.50115	32302.9125
809.36299	32170.1125
813.22213	32006.9125
817.07857	31872.8125
820.93231	31802.2125
824.78336	31762.2125
828.63172	31832.1125
832.47738	31817.3125
836.32036	31798.3125
840.16066	31909.6125
843.99827	31927.7125
847.8332	31934.0125
851.66546	31940.5125
855.49504	32013.8125
859.32195	31997.9125
863.1462	31948.2125
866.96777	31854.9125
870.78668	31785.8125
874.60293	31890.2125
878.41652	32051.9125
882.22745	32225.2125
886.03573	32330.8125
889.84136	32321.4125
893.64433	32150.0125
897.44466	31993.7125
901.24235	31917.8125
905.0374	31852.6125
908.8298	31774.7125
912.61957	31798.2125
916.40671	32018.2125
920.19121	32370.3125
923.97308	32734.7125
927.75233	32947.4125
931.52895	32790.6125
935.30295	32402.9125
939.07433	31838.7125
942.84309	31413.4125
946.60924	31314.0125
950.37278	31244.1125
954.13371	31166.5125
957.89203	31075.9125
961.64774	31014.2125
965.40086	31018.9125
969.15137	31018.4125
972.89929	30949.6125
976.64461	30960.0125
980.38733	30988.2125
984.12747	31107.4125
987.86502	31331.4125
991.59999	31615.2125
995.33237	32076.8125
999.06217	32760.3125
1002.78939	33522.5125
1006.51404	34062.4125
1010.23611	34586.2125
1013.95561	34860.2125
1017.67255	34933.4125
1021.38692	34576.9125
1025.09872	34091.1125
1028.80796	33932.4125
1032.51465	34340.4125
1036.21877	34868.7125
1039.92035	34899.1125
1043.61937	34626.1125
1047.31584	34241.0125
1051.00976	33790.5125
1054.70114	33537.3125
1058.38998	33583.1125
1062.07627	33788.9125
1065.76003	33962.0125
1069.44126	34300.6125
1073.11995	34846.0125
1076.79611	35406.2125
1080.46974	35899.5125
1084.14085	36263.9125
1087.80943	36768.0125
1091.47549	36885.5125
1095.13903	36597.6125
1098.80005	35976.0125
1102.45857	35320.5125
1106.11456	34957.8125
1109.76805	34795.9125
1113.41903	35003.0125
1117.06751	35340.4125
1120.71348	35905.4125
1124.35696	36432.1125
1127.99793	36884.5125
1131.63641	36790.8125
1135.2724	36227.2125
1138.90589	35831.2125
1142.5369	35664.2125
1146.16542	35741.7125
1149.79145	35844.1125
1153.415	35892.5125
1157.03607	36185.0125
1160.65467	36895.7125
1164.27079	38116.5125
1167.88443	39919.6125
1171.49561	42204.3125
1175.10432	45440.4125
1178.71056	49476.8125
1182.31434	52627.0125
1185.91565	53411.0125
1189.51451	52147.8125
1193.11091	50089.2125
1196.70485	47992.9125
1200.29634	46206.9125
1203.88538	44873.1125
1207.47197	43769.7125
1211.05612	42766.9125
1214.63782	42002.7125
1218.21708	41463.4125
1221.79391	41239.1125
1225.36829	41218.4125
1228.94024	41032.8125
1232.50976	40341.3125
1236.07685	39557.4125
1239.6415	39118.1125
1243.20374	38976.0125
1246.76355	39313.8125
1250.32093	39825.7125
1253.8759	40603.4125
1257.42845	41593.0125
1260.97859	42820.9125
1264.52631	44065.1125
1268.07163	45299.9125
1271.61453	46413.6125
1275.15503	47530.5125
1278.69312	48448.5125
1282.22882	49380.3125
1285.76211	50544.4125
1289.29301	52114.5125
1292.82151	53997.2125
1296.34761	56431.7125
1299.87133	59625.5125
1303.39266	63585.8125
1306.9116	68104.6125
1310.42815	72387.9125
1313.94233	74469.5125
1317.45412	73034.1125
1320.96354	69853.9125
1324.47058	66568.9125
1327.97525	63761.3125
1331.47754	61779.0125
1334.97747	60565.6125
1338.47502	59780.0125
1341.97022	59642.7125
1345.46305	60049.7125
1348.95352	61081.7125
1352.44163	62879.3125
1355.92738	65923.6125
1359.41078	70716.2125
1362.89183	74583.4125
1366.37053	72869.1125
1369.84688	65371.2125
1373.32088	57193.5125
1376.79254	52164.9125
1380.26186	50142.6125
1383.72883	49728.8125
1387.19347	49459.3125
1390.65578	48759.3125
1394.11575	48217.2125
1397.57339	48173.7125
1401.0287	48440.1125
1404.48168	48434.1125
1407.93234	48134.2125
1411.38068	47518.1125
1414.82669	46638.4125
1418.27039	45573.8125
1421.71177	44476.2125
1425.15083	43658.6125
1428.58758	43402.9125
1432.02203	44038.0125
1435.45416	45207.8125
1438.88399	46114.2125
1442.31151	46530.8125
1445.73673	46697.1125
1449.15965	46645.2125
1452.58027	46298.3125
1455.9986	45972.7125
1459.41463	46091.5125
1462.82837	46617.2125
1466.23982	47357.4125
1469.64898	48143.8125
1473.05586	48664.9125
1476.46045	48940.3125
1479.86276	48927.0125
1483.26279	48932.1125
1486.66054	49277.2125
1490.05602	49974.3125
1493.44922	51045.9125
1496.84016	52527.3125
1500.22882	54782.0125
1503.61521	57851.1125
1506.99934	61372.6125
1510.38121	64090.4125
1513.76081	64226.8125
1517.13816	61309.2125
1520.51324	57087.6125
1523.88607	53839.5125
1527.25665	52229.3125
1530.62498	51584.1125
1533.99105	51130.2125
1537.35488	50452.3125
1540.71647	49464.5125
1544.07581	48284.8125
1547.4329	47273.6125
1550.78776	46383.3125
1554.14038	45912.4125
1557.49077	45687.1125
1560.83892	45877.3125
1564.18484	46359.7125
1567.52853	47019.7125
1570.86999	47657.1125
1574.20922	48325.5125
1577.54624	48360.3125
1580.88103	47503.0125
1584.2136	46729.3125
1587.54395	47252.1125
1590.87208	49164.1125
1594.19801	52215.5125
1597.52172	55170.9125
1600.84321	55973.4125
1604.16251	53910.0125
1607.47959	50337.2125
1610.79447	46561.5125
1614.10715	42973.0125
1617.41763	40267.8125
1620.7259	38569.2125
1624.03199	37904.6125
1627.33587	37998.8125
1630.63757	39055.5125
1633.93707	41224.8125
1637.23439	44978.8125
1640.52951	50683.7125
1643.82246	57416.5125
1647.11321	62943.7125
1650.40179	63814.1125
1653.68819	59112.1125
1656.97241	51180.2125
1660.25446	43926.1125
1663.53433	38950.5125
1666.81203	35932.6125
1670.08756	34143.9125
1673.36092	32991.0125
1676.63211	32206.8125
1679.90115	31669.2125
1683.16801	31330.7125
1686.43272	31045.5125
1689.69527	30801.5125
1692.95567	30656.6125
1696.2139	30556.4125
1699.46999	30514.9125
1702.72392	30449.6125
1705.97571	30412.1125
1709.22535	30370.6125
1712.47284	30373.6125
1715.71819	30375.1125
1718.96139	30311.1125
1722.20246	30209.3125
1725.44139	30106.2125
1728.67818	29988.5125
1731.91284	29858.9125
1735.14537	29713.3125
1738.37576	29592.0125
1741.60403	29484.2125
1744.83017	29419.6125
1748.05418	29358.6125
1751.27607	29290.0125
1754.49584	29277.1125
1757.71349	29211.8125
1760.92903	29200.2125
1764.14244	29163.0125
1767.35375	29127.5125
1770.56294	29124.8125
1773.77002	29059.9125
1776.97499	29028.5125
1780.17785	28973.7125
1783.37861	28926.5125
1786.57727	28900.8125
1789.77382	28870.7125
1792.96828	28843.1125
1796.16064	28791.8125
1799.3509	28766.5125
1802.53907	28729.4125
1805.72514	28672.2125
1808.90913	28553.7125
1812.09102	28519.0125
1815.27083	28446.0125
1818.44856	28407.5125
1821.6242	28355.2125
1824.79776	28332.7125
1827.96924	28314.7125
1831.13864	28310.4125
1834.30597	28257.1125
1837.47122	28262.4125
1840.6344	28229.4125
1843.7955	28203.7125
1846.95454	28140.2125
1850.11151	28158.7125
1853.26642	28149.8125
1856.41926	28153.3125
1859.57004	28157.8125
1862.71876	28149.8125
1865.86542	28089.1125
1869.01003	28091.5125
1872.15258	28033.6125
1875.29308	28040.1125
1878.43152	28011.5125
1881.56792	28009.0125
1884.70227	27974.1125
1887.83457	27926.7125
1890.96482	27914.3125
1894.09304	27847.6125
1897.21921	27902.6125
1900.34335	27886.6125
1903.46544	27873.6125
1906.58551	27808.8125
1909.70353	27806.8125
1912.81953	27802.6125
1915.93349	27752.1125
1919.04543	27686.5125
1922.15534	27643.2125
1925.26322	27610.1125
1928.36908	27527.3125
1931.47292	27521.5125
1934.57473	27468.6125
1937.67453	27407.7125
1940.77232	27364.6125
1943.86808	27249.6125
1946.96184	27212.6125
1950.05358	27133.6125
1953.14331	27072.1125
1956.23103	26971.5125
1959.31675	26990.5125
1962.40046	26899.3125
1965.48217	26832.6125
1968.56188	26762.2125
1971.63959	26705.7125
1974.7153	26610.2125
1977.78901	26531.0125
1980.86073	26441.4125
1983.93046	26369.8125
1986.99819	26270.6125
1990.06394	26266.0125
1993.1277	26176.0125
1996.18947	26062.6125
1999.24925	26062.0125
2002.30706	26042.7125
2005.36288	25944.9125
2008.41672	25840.9125
2011.46859	25771.9125
2014.51848	25706.7125
2017.56639	25639.2125
2020.61233	25610.5125
2023.6563	25525.5125
2026.6983	25446.0125
2029.73833	25428.4125
2032.7764	25380.8125
2035.8125	25371.5125
2038.84664	25314.7125
2041.87881	25264.8125
2044.90903	25213.8125
2047.93729	25219.5125
2050.96359	25175.1125
2053.98794	25154.6125
2057.01034	25147.3125
2060.03078	25157.1125
2063.04927	25076.3125
2066.06582	25065.2125
2069.08042	25038.1125
2072.09307	25023.2125
2075.10378	25024.7125
2078.11255	25006.5125
2081.11938	25002.3125
2084.12426	24939.2125
2087.12722	24908.5125
2090.12824	24927.0125
2093.12732	24931.3125
2096.12447	25000.0125
2099.11969	24975.0125
2102.11299	25025.1125
2105.10435	25001.6125
2108.09379	25042.5125
2111.08131	25057.4125
2114.0669	25037.0125
2117.05057	25099.9125
2120.03233	25150.9125
2123.01216	25132.5125
2125.99008	25130.2125
2128.96609	25211.6125
2131.94018	25265.8125
2134.91236	25276.6125
2137.88263	25260.9125
2140.851	25250.9125
2143.81746	25282.3125
2146.78201	25332.3125
2149.74466	25319.7125
2152.7054	25313.7125
2155.66425	25289.7125
2158.6212	25273.4125
2161.57625	25310.7125
2164.52941	25290.7125
2167.48067	25310.6125
2170.43004	25305.3125
2173.37752	25292.2125
2176.32311	25307.0125
2179.26681	25305.3125
2182.20863	25273.9125
2185.14856	25331.4125
2188.08661	25322.2125
2191.02278	25327.9125
2193.95707	25320.8125
2196.88948	25283.0125
2199.82001	25286.3125
2202.74867	25273.2125
2205.67545	25228.5125
2208.60037	25212.5125
2211.52341	25173.2125
2214.44458	25158.4125
2217.36388	25151.2125
2220.28132	25097.9125
2223.1969	25021.7125
2226.11061	24973.8125
2229.02246	24938.5125
2231.93245	24915.1125
2234.84058	24933.2125
2237.74686	24895.7125
2240.65128	24903.2125
2243.55385	24840.5125
2246.45456	24835.7125
2249.35343	24805.0125
2252.25044	24777.3125
2255.14561	24765.9125
2258.03893	24729.5125
2260.93041	24681.6125
2263.82004	24646.6125
2266.70783	24591.9125
2269.59378	24538.4125
2272.4779	24470.7125
2275.36017	24400.5125
2278.24061	24374.1125
2281.11922	24359.5125
2283.996	24312.6125
2286.87094	24325.2125
2289.74405	24227.5125
2292.61534	24218.0125
2295.4848	24226.0125
2298.35243	24233.8125
2301.21824	24214.6125
2304.08223	24195.7125
2306.94439	24243.6125
2309.80474	24215.7125
2312.66327	24249.2125
2315.51999	24236.8125
2318.37489	24219.4125
2321.22797	24215.1125
2324.07925	24195.1125
2326.92871	24116.2125
2329.77637	24098.9125
2332.62222	24097.0125
2335.46626	24094.8125
2338.3085	24066.5125
2341.14893	24047.9125
2343.98756	24050.1125
2346.8244	24054.7125
2349.65943	24049.2125
2352.49267	24026.6125
2355.32411	24026.2125
2358.15376	24072.3125
2360.98161	24019.7125
2363.80768	24021.4125
2366.63195	24018.5125
2369.45444	23988.3125
2372.27514	23995.7125
2375.09405	23950.1125
2377.91118	23886.0125
2380.72652	23855.6125
2383.54009	23797.4125
2386.35187	23737.2125
2389.16188	23666.3125
2391.97011	23649.6125
2394.77657	23608.3125
2397.58125	23581.6125
2400.38416	23576.8125
2403.18529	23528.0125
2405.98466	23467.6125
2408.78226	23414.5125
2411.57809	23433.9125
2414.37216	23414.5125
2417.16446	23439.6125
2419.955	23321.8125
2422.74378	23378.8125
2425.5308	23357.1125
2428.31606	23343.3125
2431.09956	23338.1125
2433.88131	23276.4125
2436.6613	23285.0125
2439.43954	23317.9125
2442.21603	23309.6125
2444.99077	23284.8125
2447.76377	23323.7125
2450.53501	23289.4125
2453.30451	23278.6125
2456.07226	23277.9125
2458.83827	23265.6125
2461.60254	23249.6125
2464.36507	23249.7125
2467.12586	23184.9125
2469.88492	23169.6125
2472.64224	23229.9125
2475.39782	23246.9125
2478.15167	23259.6125
2480.90379	23263.0125
2483.65417	23316.6125
2486.40283	23344.2125
2489.14976	23291.0125
2491.89497	23299.5125
2494.63845	23315.3125
2497.3802	23338.7125
2500.12024	23337.4125
2502.85855	23261.4125
2505.59514	23255.7125
2508.33002	23217.7125
2511.06318	23231.3125
2513.79462	23166.3125
2516.52435	23086.9125
2519.25237	23082.6125
2521.97867	23071.1125
2524.70327	23055.7125
2527.42616	23035.4125
2530.14734	23023.7125
2532.86681	22994.7125
2535.58458	23019.6125
2538.30065	22979.6125
2541.01501	22983.2125
2543.72768	22937.1125
2546.43864	22995.7125
2549.14791	22948.6125
2551.85548	22863.4125
2554.56136	22867.8125
2557.26554	22826.2125
2559.96803	22824.1125
2562.66883	22795.6125
2565.36794	22773.0125
2568.06536	22741.9125
2570.7611	22762.8125
2573.45514	22738.1125
2576.14751	22712.3125
2578.83819	22712.4125
2581.52719	22675.9125
2584.21451	22616.3125
2586.90015	22660.6125
2589.58411	22617.5125
2592.2664	22602.2125
2594.94701	22543.8125
2597.62594	22547.1125
2600.30321	22538.0125
2602.9788	22515.3125
2605.65273	22457.5125
2608.32498	22503.2125
2610.99557	22473.0125
2613.66449	22493.1125
2616.33175	22473.7125
2618.99734	22511.5125
2621.66128	22464.9125
2624.32355	22453.6125
2626.98416	22379.7125
2629.64311	22385.3125
2632.30041	22382.2125
2634.95605	22354.2125
2637.61004	22332.3125
2640.26238	22281.2125
2642.91306	22276.5125
2645.56209	22241.0125
2648.20948	22267.0125
2650.85521	22244.2125
2653.4993	22217.0125
2656.14175	22227.6125
2658.78255	22286.0125
2661.42171	22252.5125
2664.05923	22343.1125
2666.6951	22315.0125
2669.32934	22328.1125
2671.96194	22313.5125
2674.59291	22343.0125
2677.22224	22333.6125
2679.84993	22354.6125
2682.476	22313.7125
2685.10043	22318.1125
2687.72324	22295.6125
2690.34441	22337.8125
2692.96396	22298.2125
2695.58188	22295.5125
2698.19818	22297.8125
2700.81285	22321.4125
2703.4259	22297.4125
2706.03733	22344.6125
2708.64714	22351.5125
2711.25533	22392.3125
2713.86191	22357.5125
2716.46687	22379.7125
2719.07021	22413.4125
2721.67194	22427.6125
2724.27206	22366.2125
2726.87057	22433.2125
2729.46747	22455.6125
2732.06276	22516.3125
2734.65644	22456.3125
2737.24852	22436.2125
2739.83899	22424.7125
2742.42786	22430.0125
2745.01513	22343.3125
2747.60079	22317.8125
2750.18486	22308.3125
2752.76733	22316.6125
2755.3482	22273.3125
2757.92747	22265.3125
2760.50515	22258.8125
2763.08123	22228.8125
2765.65573	22228.4125
2768.22863	22256.7125
2770.79994	22197.4125
2773.36967	22232.3125
2775.9378	22199.0125
2778.50435	22184.0125
2781.06932	22164.0125
2783.6327	22163.7125
2786.1945	22159.7125
2788.75471	22143.8125
2791.31335	22063.9125
2793.87041	22064.7125
2796.42589	22026.8125
2798.97979	22053.6125
2801.53212	21989.5125
2804.08288	21976.8125
2806.63206	21878.5125
2809.17967	21875.3125
2811.72571	21835.9125
2814.27018	21828.7125
2816.81308	21792.6125
2819.35442	21726.1125
2821.89419	21689.7125
2824.43239	21660.5125
2826.96904	21658.8125
2829.50412	21631.6125
2832.03763	21592.6125
2834.56959	21556.2125
2837.1	21556.4125
2839.62884	21573.9125
2842.15613	21551.1125
2844.68186	21587.4125
2847.20604	21569.4125
2849.72867	21531.3125
2852.24974	21486.7125
2854.76927	21478.8125
2857.28724	21471.0125
2859.80367	21451.3125
2862.31855	21448.9125
2864.83189	21407.9125
2867.34368	21391.3125
2869.85393	21389.4125
2872.36264	21352.9125
2874.8698	21353.3125
2877.37543	21351.1125
2879.87952	21360.6125
2882.38207	21299.7125
2884.88308	21289.0125
2887.38256	21300.9125
2889.88051	21296.6125
2892.37692	21342.1125
2894.8718	21339.5125
2897.36515	21385.4125
2899.85698	21375.5125
2902.34727	21396.2125
2904.83604	21436.6125
2907.32328	21522.2125
2909.809	21490.8125
2912.29319	21494.2125
2914.77587	21506.9125
2917.25702	21524.2125
2919.73665	21474.7125
2922.21476	21487.2125
2924.69136	21426.8125
2927.16644	21436.4125
2929.64	21394.0125
2932.11205	21398.6125
2934.58258	21318.8125
2937.05161	21350.3125
2939.51912	21372.3125
2941.98513	21364.7125
2944.44962	21311.3125
2946.91261	21292.0125
2949.37409	21318.3125
2951.83407	21279.8125
2954.29254	21293.9125
2956.74951	21289.6125
2959.20498	21319.3125
2961.65895	21299.1125
2964.11142	21300.7125
2966.56239	21249.4125
2969.01186	21281.7125
2971.45984	21244.1125
2973.90632	21229.6125
2976.35131	21173.1125
2978.7948	21177.8125
2981.23681	21148.8125
2983.67732	21084.9125
2986.11635	21057.8125
2988.55388	20995.8125
2990.98993	21020.5125
2993.4245	20979.2125
2995.85758	20903.6125
2998.28917	20854.2125
3000.71928	20847.8125
3003.14791	20803.1125
3005.57506	20750.9125
3008.00073	20710.6125
3010.42493	20728.2125
3012.84764	20647.3125
3015.26888	20665.3125
3017.68865	20606.4125
3020.10694	20598.3125
3022.52376	20539.3125
3024.9391	20525.3125
