Data from AgNPs_UA_1uM_CRN_0uM_R6G_10uM_Q_RamanShift__28__12-43-25-897.txt Node

Date: Wed Jul 13 12:43:25 BST 2022
User: TCL
Spectrometer: QEP01345
Trigger mode: 4
Integration Time (sec): 7.000000E0
Scans to average: 10
Electric dark correction enabled: true
Nonlinearity correction enabled: false
Boxcar width: 0
XAxis mode: Raman Shifts
Number of Pixels in Spectrum: 1044
>>>>>Begin Spectral Data<<<<<
46.04893	-1.7625
50.45542	-1.1625
54.85868	-1.7625
59.25871	0.7375
63.6555	73.4375
68.04907	78.0375
72.43941	82.4375
76.82654	84.2375
81.21044	88.6375
85.59113	90.0375
89.96862	93.8375
94.34289	95.1375
98.71396	98.6375
103.08183	100.9375
107.4465	106.8375
111.80798	101.8375
116.16626	112.6375
120.52136	114.7375
124.87327	115.4375
129.222	120.9375
133.56755	127.1375
137.90993	133.7375
142.24913	146.7375
146.58517	164.2375
150.91804	180.5375
155.24774	213.1375
159.57429	260.4375
163.89768	327.0375
168.21792	423.3375
172.53501	565.8375
176.84895	774.2375
181.15975	1081.6375
185.46741	1510.2375
189.77193	2056.9375
194.07331	2731.9375
198.37157	3509.7375
202.6667	4327.3375
206.9587	5111.6375
211.24758	5941.9375
215.53334	6744.5375
219.81599	7630.6375
224.09553	8652.8375
228.37195	9749.8375
232.64527	10935.4375
236.91549	12154.3375
241.18261	13360.3375
245.44663	14385.8375
249.70755	15284.0375
253.96539	16112.2375
258.22014	16776.7375
262.4718	17368.2375
266.72039	17737.9375
270.96589	17920.2375
275.20832	17917.2375
279.44768	17830.0375
283.68397	17688.6375
287.91719	17572.9375
292.14735	17569.1375
296.37445	17695.1375
300.59849	17902.2375
304.81948	18185.6375
309.03742	18321.6375
313.25231	18212.9375
317.46415	17702.9375
321.67296	17066.6375
325.87872	16562.2375
330.08145	16409.7375
334.28114	16470.2375
338.47781	16710.7375
342.67145	17059.7375
346.86207	17537.0375
351.04966	18148.6375
355.23424	18788.4375
359.4158	19314.5375
363.59435	19587.4375
367.76989	19747.8375
371.94243	19786.8375
376.11196	19856.7375
380.27849	19915.2375
384.44203	19961.7375
388.60257	19897.1375
392.76012	20017.7375
396.91468	20320.7375
401.06626	20789.4375
405.21485	21090.9375
409.36047	20943.5375
413.50311	20672.7375
417.64277	20598.6375
421.77947	20608.0375
425.9132	20343.5375
430.04396	20439.4375
434.17176	20670.7375
438.2966	21116.2375
442.41849	21826.6375
446.53742	22706.5375
450.6534	23556.5375
454.76644	24087.6375
458.87653	24093.2375
462.98368	23646.4375
467.08789	23055.4375
471.18916	22384.0375
475.2875	21851.1375
479.38291	21524.8375
483.4754	21281.6375
487.56496	20968.9375
491.6516	20656.6375
495.73531	20419.3375
499.81612	20325.1375
503.89401	20447.3375
507.96899	20529.6375
512.04106	20570.8375
516.11023	20614.7375
520.1765	20639.2375
524.23987	20630.6375
528.30034	20502.7375
532.35792	20305.2375
536.41261	19992.6375
540.46441	19693.4375
544.51333	19623.3375
548.55936	19917.0375
552.60252	20330.7375
556.64279	20808.2375
560.6802	21137.2375
564.71473	21425.0375
568.7464	22035.4375
572.7752	22562.3375
576.80114	22615.7375
580.82422	22628.4375
584.84444	23000.6375
588.86181	23689.5375
592.87633	24601.9375
596.888	25140.6375
600.89682	25462.1375
604.9028	26718.2375
608.90594	30055.9375
612.90624	32916.7375
616.90371	29953.0375
620.89834	24399.8375
624.89015	22650.9375
628.87913	22600.3375
632.86528	22204.9375
636.84862	21626.7375
640.82913	20962.5375
644.80683	20310.1375
648.78172	19947.7375
652.75379	20043.0375
656.72306	20518.9375
660.68952	21035.9375
664.65319	20887.9375
668.61405	20456.8375
672.57211	20237.9375
676.52738	20151.4375
680.47986	20095.8375
684.42955	20062.9375
688.37646	20110.3375
692.32058	20228.0375
696.26192	20433.7375
700.20048	20686.0375
704.13626	20821.2375
708.06928	20711.7375
711.99952	20581.2375
715.927	20469.3375
719.85171	20504.2375
723.77365	20370.6375
727.69284	20221.2375
731.60928	20101.8375
735.52295	20194.1375
739.43388	20382.8375
743.34206	20556.5375
747.24749	20709.1375
751.15017	21000.8375
755.05012	21475.1375
758.94733	22258.4375
762.8418	23834.8375
766.73354	26115.0375
770.62254	28014.3375
774.50882	28274.1375
778.39237	26829.4375
782.27321	24466.4375
786.15132	22500.7375
790.02671	21434.6375
793.89938	20974.2375
797.76935	20836.5375
801.6366	20725.6375
805.50115	20608.2375
809.36299	20483.0375
813.22213	20361.4375
817.07857	20362.6375
820.93231	20375.3375
824.78336	20439.9375
828.63172	20529.3375
832.47738	20617.9375
836.32036	20749.3375
840.16066	20912.7375
843.99827	21019.1375
847.8332	20836.5375
851.66546	20684.9375
855.49504	20585.6375
859.32195	20545.9375
863.1462	20402.4375
866.96777	20309.5375
870.78668	20251.7375
874.60293	20306.8375
878.41652	20352.0375
882.22745	20459.9375
886.03573	20578.9375
889.84136	20489.5375
893.64433	20422.2375
897.44466	20352.8375
901.24235	20309.0375
905.0374	20288.1375
908.8298	20271.3375
912.61957	20338.0375
916.40671	20579.3375
920.19121	20926.1375
923.97308	21313.6375
927.75233	21614.0375
931.52895	21641.2375
935.30295	21319.1375
939.07433	20726.0375
942.84309	20397.9375
946.60924	20298.5375
950.37278	20191.3375
954.13371	20014.0375
957.89203	19832.7375
961.64774	19751.0375
965.40086	19680.7375
969.15137	19608.6375
972.89929	19578.5375
976.64461	19567.0375
980.38733	19626.9375
984.12747	19796.2375
987.86502	20041.5375
991.59999	20427.4375
995.33237	21139.5375
999.06217	22349.3375
1002.78939	23567.7375
1006.51404	24023.4375
1010.23611	24154.2375
1013.95561	24382.1375
1017.67255	24423.3375
1021.38692	24063.8375
1025.09872	23915.5375
1028.80796	24641.7375
1032.51465	25999.4375
1036.21877	26951.4375
1039.92035	26711.3375
1043.61937	25801.0375
1047.31584	24545.5375
1051.00976	23333.8375
1054.70114	22794.2375
1058.38998	22672.0375
1062.07627	22603.1375
1065.76003	22500.5375
1069.44126	22509.0375
1073.11995	22721.1375
1076.79611	22954.4375
1080.46974	23197.3375
1084.14085	23487.5375
1087.80943	23769.2375
1091.47549	23775.0375
1095.13903	23375.5375
1098.80005	22862.4375
1102.45857	22443.7375
1106.11456	22326.6375
1109.76805	22400.8375
1113.41903	22717.4375
1117.06751	23047.8375
1120.71348	23500.8375
1124.35696	23926.8375
1127.99793	24214.7375
1131.63641	24115.7375
1135.2724	23707.4375
1138.90589	23313.7375
1142.5369	23103.4375
1146.16542	22995.7375
1149.79145	23062.8375
1153.415	23270.7375
1157.03607	23579.5375
1160.65467	23988.3375
1164.27079	24803.7375
1167.88443	26134.5375
1171.49561	28097.6375
1175.10432	31005.5375
1178.71056	34582.7375
1182.31434	37563.3375
1185.91565	38924.3375
1189.51451	38350.3375
1193.11091	36317.5375
1196.70485	34010.5375
1200.29634	32007.9375
1203.88538	30471.5375
1207.47197	29253.0375
1211.05612	28422.6375
1214.63782	28231.5375
1218.21708	28607.8375
1221.79391	29170.4375
1225.36829	29507.5375
1228.94024	29175.2375
1232.50976	28417.7375
1236.07685	27783.5375
1239.6415	27495.3375
1243.20374	27446.6375
1246.76355	27583.8375
1250.32093	28047.6375
1253.8759	28811.2375
1257.42845	29781.4375
1260.97859	30635.6375
1264.52631	31421.5375
1268.07163	32135.1375
1271.61453	33054.9375
1275.15503	34256.9375
1278.69312	35524.4375
1282.22882	36742.8375
1285.76211	37526.0375
1289.29301	38265.6375
1292.82151	39176.5375
1296.34761	40602.5375
1299.87133	42790.1375
1303.39266	45842.5375
1306.9116	50138.2375
1310.42815	54880.9375
1313.94233	57709.6375
1317.45412	57057.0375
1320.96354	54221.1375
1324.47058	51167.2375
1327.97525	48670.7375
1331.47754	47174.0375
1334.97747	46692.1375
1338.47502	47010.2375
1341.97022	47538.0375
1345.46305	47690.9375
1348.95352	47602.1375
1352.44163	47826.9375
1355.92738	49490.8375
1359.41078	52909.0375
1362.89183	55652.0375
1366.37053	53737.0375
1369.84688	48048.8375
1373.32088	42344.2375
1376.79254	38671.0375
1380.26186	36975.3375
1383.72883	36323.0375
1387.19347	35895.1375
1390.65578	35508.1375
1394.11575	35662.2375
1397.57339	36473.5375
1401.0287	37595.5375
1404.48168	38594.4375
1407.93234	39311.1375
1411.38068	39445.6375
1414.82669	38838.7375
1418.27039	37438.0375
1421.71177	35771.4375
1425.15083	34420.5375
1428.58758	33835.8375
1432.02203	34036.1375
1435.45416	34598.5375
1438.88399	35035.8375
1442.31151	35407.2375
1445.73673	35688.2375
1449.15965	35891.8375
1452.58027	35931.8375
1455.9986	35707.5375
1459.41463	35700.7375
1462.82837	36122.0375
1466.23982	36788.9375
1469.64898	37442.5375
1473.05586	37853.0375
1476.46045	38049.2375
1479.86276	38276.4375
1483.26279	38453.6375
1486.66054	38627.6375
1490.05602	39146.0375
1493.44922	39688.4375
1496.84016	40086.3375
1500.22882	40734.0375
1503.61521	41855.1375
1506.99934	43443.7375
1510.38121	45125.1375
1513.76081	45808.9375
1517.13816	44788.7375
1520.51324	42519.3375
1523.88607	40289.6375
1527.25665	38828.3375
1530.62498	37949.1375
1533.99105	37550.9375
1537.35488	37344.5375
1540.71647	37188.6375
1544.07581	36861.2375
1547.4329	36346.8375
1550.78776	35734.6375
1554.14038	35126.0375
1557.49077	34790.0375
1560.83892	34638.8375
1564.18484	34520.6375
1567.52853	34416.4375
1570.86999	34352.8375
1574.20922	34443.7375
1577.54624	34397.3375
1580.88103	34031.6375
1584.2136	33820.3375
1587.54395	34815.7375
1590.87208	37203.1375
1594.19801	40871.9375
1597.52172	44852.8375
1600.84321	46681.8375
1604.16251	45038.6375
1607.47959	40975.4375
1610.79447	36456.9375
1614.10715	32642.9375
1617.41763	29901.4375
1620.7259	28271.8375
1624.03199	27605.4375
1627.33587	27829.5375
1630.63757	28839.5375
1633.93707	30697.8375
1637.23439	33438.5375
1640.52951	36741.4375
1643.82246	40151.0375
1647.11321	42600.2375
1650.40179	42692.6375
1653.68819	39726.7375
1656.97241	34854.0375
1660.25446	30134.2375
1663.53433	26800.3375
1666.81203	24646.5375
1670.08756	23323.2375
1673.36092	22555.3375
1676.63211	21969.8375
1679.90115	21613.0375
1683.16801	21355.4375
1686.43272	21161.4375
1689.69527	20985.5375
1692.95567	20873.5375
1696.2139	20797.8375
1699.46999	20798.0375
1702.72392	20771.6375
1705.97571	20718.8375
1709.22535	20711.7375
1712.47284	20739.2375
1715.71819	20766.8375
1718.96139	20739.6375
1722.20246	20617.8375
1725.44139	20579.7375
1728.67818	20450.3375
1731.91284	20359.1375
1735.14537	20316.1375
1738.37576	20230.7375
1741.60403	20173.7375
1744.83017	20158.0375
1748.05418	20095.7375
1751.27607	20020.2375
1754.49584	19999.1375
1757.71349	20057.9375
1760.92903	20035.1375
1764.14244	20017.6375
1767.35375	19989.7375
1770.56294	19965.9375
1773.77002	20029.5375
1776.97499	20000.6375
1780.17785	19936.1375
1783.37861	19907.3375
1786.57727	19918.9375
1789.77382	19922.1375
1792.96828	19907.1375
1796.16064	19886.2375
1799.3509	19849.6375
1802.53907	19872.6375
1805.72514	19848.7375
1808.90913	19788.7375
1812.09102	19740.4375
1815.27083	19697.6375
1818.44856	19687.2375
1821.6242	19660.6375
1824.79776	19648.4375
1827.96924	19612.1375
1831.13864	19628.6375
1834.30597	19583.7375
1837.47122	19557.5375
1840.6344	19581.7375
1843.7955	19587.3375
1846.95454	19570.3375
1850.11151	19604.4375
1853.26642	19601.6375
1856.41926	19591.0375
1859.57004	19598.7375
1862.71876	19632.1375
1865.86542	19674.5375
1869.01003	19663.2375
1872.15258	19683.1375
1875.29308	19670.2375
1878.43152	19673.8375
1881.56792	19681.2375
1884.70227	19727.8375
1887.83457	19727.2375
1890.96482	19703.2375
1894.09304	19665.8375
1897.21921	19702.3375
1900.34335	19707.8375
1903.46544	19681.9375
1906.58551	19683.9375
1909.70353	19722.9375
1912.81953	19723.1375
1915.93349	19732.4375
1919.04543	19675.4375
1922.15534	19669.6375
1925.26322	19596.7375
1928.36908	19615.3375
1931.47292	19555.8375
1934.57473	19528.6375
1937.67453	19515.5375
1940.77232	19431.3375
1943.86808	19372.4375
1946.96184	19304.6375
1950.05358	19204.6375
1953.14331	19177.5375
1956.23103	19103.2375
1959.31675	19046.0375
1962.40046	19002.3375
1965.48217	18959.6375
1968.56188	18926.6375
1971.63959	18865.1375
1974.7153	18795.7375
1977.78901	18771.9375
1980.86073	18692.1375
1983.93046	18655.6375
1986.99819	18551.6375
1990.06394	18527.3375
1993.1277	18477.6375
1996.18947	18434.5375
1999.24925	18386.3375
2002.30706	18338.3375
2005.36288	18296.0375
2008.41672	18265.7375
2011.46859	18186.4375
2014.51848	18149.4375
2017.56639	18127.6375
2020.61233	18084.3375
2023.6563	18024.9375
2026.6983	17996.6375
2029.73833	18018.3375
2032.7764	17971.5375
2035.8125	17956.7375
2038.84664	17931.7375
2041.87881	17921.6375
2044.90903	17922.8375
2047.93729	17854.4375
2050.96359	17851.4375
2053.98794	17848.4375
2057.01034	17833.5375
2060.03078	17813.3375
2063.04927	17808.2375
2066.06582	17842.3375
2069.08042	17784.0375
2072.09307	17763.7375
2075.10378	17677.8375
2078.11255	17691.0375
2081.11938	17686.0375
2084.12426	17675.3375
2087.12722	17669.0375
2090.12824	17626.7375
2093.12732	17632.0375
2096.12447	17612.4375
2099.11969	17621.2375
2102.11299	17642.1375
2105.10435	17624.6375
2108.09379	17667.2375
2111.08131	17669.5375
2114.0669	17671.9375
2117.05057	17662.8375
2120.03233	17702.7375
2123.01216	17705.9375
2125.99008	17735.3375
2128.96609	17759.6375
2131.94018	17758.4375
2134.91236	17748.7375
2137.88263	17791.3375
2140.851	17797.0375
2143.81746	17820.0375
2146.78201	17815.0375
2149.74466	17837.8375
2152.7054	17865.8375
2155.66425	17858.8375
2158.6212	17820.9375
2161.57625	17811.1375
2164.52941	17846.8375
2167.48067	17844.8375
2170.43004	17846.4375
2173.37752	17828.3375
2176.32311	17850.5375
2179.26681	17894.2375
2182.20863	17880.3375
2185.14856	17878.9375
2188.08661	17908.8375
2191.02278	17905.5375
2193.95707	17907.4375
2196.88948	17928.4375
2199.82001	17928.7375
2202.74867	17924.2375
2205.67545	17939.1375
2208.60037	17929.6375
2211.52341	17943.8375
2214.44458	17922.7375
2217.36388	17890.3375
2220.28132	17883.3375
2223.1969	17856.8375
2226.11061	17843.5375
2229.02246	17801.2375
2231.93245	17781.8375
2234.84058	17767.2375
2237.74686	17699.6375
2240.65128	17681.6375
2243.55385	17696.6375
2246.45456	17619.4375
2249.35343	17614.0375
2252.25044	17619.2375
2255.14561	17594.2375
2258.03893	17579.1375
2260.93041	17535.3375
2263.82004	17475.6375
2266.70783	17430.1375
2269.59378	17412.7375
2272.4779	17373.2375
2275.36017	17353.9375
2278.24061	17259.2375
2281.11922	17236.7375
2283.996	17226.0375
2286.87094	17216.7375
2289.74405	17219.0375
2292.61534	17206.4375
2295.4848	17211.1375
2298.35243	17241.6375
2301.21824	17225.8375
2304.08223	17259.3375
2306.94439	17272.6375
2309.80474	17335.4375
2312.66327	17360.5375
2315.51999	17353.9375
2318.37489	17351.2375
2321.22797	17334.2375
2324.07925	17332.3375
2326.92871	17327.9375
2329.77637	17293.0375
2332.62222	17306.9375
2335.46626	17320.4375
2338.3085	17330.4375
2341.14893	17343.7375
2343.98756	17380.7375
2346.8244	17398.9375
2349.65943	17450.1375
2352.49267	17435.5375
2355.32411	17440.3375
2358.15376	17427.1375
2360.98161	17401.9375
2363.80768	17318.4375
2366.63195	17331.2375
2369.45444	17271.3375
2372.27514	17245.3375
2375.09405	17199.2375
2377.91118	17143.5375
2380.72652	17123.8375
2383.54009	17057.8375
2386.35187	17025.8375
2389.16188	16981.1375
2391.97011	16984.4375
2394.77657	16939.5375
2397.58125	16938.9375
2400.38416	16915.0375
2403.18529	16873.9375
2405.98466	16860.9375
2408.78226	16795.9375
2411.57809	16738.4375
2414.37216	16721.0375
2417.16446	16686.9375
2419.955	16639.4375
2422.74378	16630.2375
2425.5308	16624.2375
2428.31606	16638.9375
2431.09956	16637.4375
2433.88131	16631.1375
2436.6613	16654.7375
2439.43954	16601.3375
2442.21603	16600.0375
2444.99077	16638.6375
2447.76377	16629.2375
2450.53501	16584.9375
2453.30451	16597.5375
2456.07226	16575.8375
2458.83827	16598.6375
2461.60254	16557.5375
2464.36507	16574.7375
2467.12586	16547.3375
2469.88492	16590.1375
2472.64224	16614.8375
2475.39782	16620.5375
2478.15167	16610.7375
2480.90379	16586.7375
2483.65417	16669.1375
2486.40283	16669.7375
2489.14976	16695.0375
2491.89497	16716.9375
2494.63845	16741.0375
2497.3802	16753.6375
2500.12024	16723.6375
2502.85855	16716.8375
2505.59514	16762.7375
2508.33002	16701.2375
2511.06318	16683.8375
2513.79462	16637.7375
2516.52435	16608.0375
2519.25237	16601.4375
2521.97867	16586.1375
2524.70327	16590.3375
2527.42616	16582.4375
2530.14734	16615.3375
2532.86681	16572.8375
2535.58458	16594.5375
2538.30065	16620.1375
2541.01501	16598.7375
2543.72768	16584.3375
2546.43864	16580.8375
2549.14791	16561.8375
2551.85548	16525.4375
2554.56136	16491.2375
2557.26554	16518.0375
2559.96803	16472.0375
2562.66883	16481.9375
2565.36794	16458.4375
2568.06536	16443.9375
2570.7611	16436.0375
2573.45514	16426.5375
2576.14751	16487.7375
2578.83819	16473.5375
2581.52719	16485.3375
2584.21451	16487.3375
2586.90015	16483.2375
2589.58411	16475.4375
2592.2664	16465.2375
2594.94701	16482.6375
2597.62594	16458.6375
2600.30321	16450.7375
2602.9788	16459.7375
2605.65273	16439.4375
2608.32498	16469.1375
2610.99557	16450.4375
2613.66449	16483.2375
2616.33175	16478.2375
2618.99734	16508.4375
2621.66128	16542.8375
2624.32355	16581.2375
2626.98416	16578.3375
2629.64311	16594.5375
2632.30041	16636.8375
2634.95605	16629.6375
2637.61004	16565.4375
2640.26238	16543.3375
2642.91306	16419.5375
2645.56209	16404.2375
2648.20948	16404.2375
2650.85521	16355.2375
2653.4993	16346.5375
2656.14175	16347.6375
2658.78255	16416.8375
2661.42171	16412.9375
2664.05923	16420.4375
2666.6951	16403.6375
2669.32934	16462.8375
2671.96194	16428.2375
2674.59291	16440.2375
2677.22224	16471.0375
2679.84993	16493.9375
2682.476	16446.6375
2685.10043	16438.8375
2687.72324	16405.0375
2690.34441	16416.5375
2692.96396	16369.0375
2695.58188	16373.7375
2698.19818	16373.0375
2700.81285	16368.0375
2703.4259	16337.1375
2706.03733	16374.1375
2708.64714	16352.8375
2711.25533	16405.4375
2713.86191	16383.0375
2716.46687	16377.1375
2719.07021	16371.4375
2721.67194	16455.9375
2724.27206	16392.2375
2726.87057	16437.2375
2729.46747	16435.4375
2732.06276	16462.1375
2734.65644	16443.9375
2737.24852	16457.7375
2739.83899	16465.0375
2742.42786	16447.8375
2745.01513	16393.7375
2747.60079	16427.1375
2750.18486	16425.4375
2752.76733	16387.5375
2755.3482	16372.9375
2757.92747	16383.5375
2760.50515	16354.9375
2763.08123	16408.1375
2765.65573	16394.1375
2768.22863	16415.4375
2770.79994	16379.6375
2773.36967	16382.4375
2775.9378	16408.4375
2778.50435	16408.3375
2781.06932	16388.2375
2783.6327	16401.3375
2786.1945	16373.2375
2788.75471	16348.1375
2791.31335	16356.6375
2793.87041	16351.5375
2796.42589	16321.2375
2798.97979	16287.1375
2801.53212	16261.9375
2804.08288	16235.8375
2806.63206	16176.2375
2809.17967	16160.8375
2811.72571	16132.8375
2814.27018	16142.6375
2816.81308	16134.6375
2819.35442	16109.9375
2821.89419	16089.2375
2824.43239	16092.7375
2826.96904	16098.6375
2829.50412	16094.7375
2832.03763	16078.2375
2834.56959	16079.0375
2837.1	16072.6375
2839.62884	16081.4375
2842.15613	16050.1375
2844.68186	16086.3375
2847.20604	16060.3375
2849.72867	16080.6375
2852.24974	16038.9375
2854.76927	16041.6375
2857.28724	16048.7375
2859.80367	16046.7375
2862.31855	16023.3375
2864.83189	16007.4375
2867.34368	15956.6375
2869.85393	15961.4375
2872.36264	15922.4375
2874.8698	15943.6375
2877.37543	15945.7375
2879.87952	15921.3375
2882.38207	15925.3375
2884.88308	15924.2375
2887.38256	15928.1375
2889.88051	15905.8375
2892.37692	15933.3375
2894.8718	15943.5375
2897.36515	16019.2375
2899.85698	15992.3375
2902.34727	16080.1375
2904.83604	16043.2375
2907.32328	16076.5375
2909.809	16095.6375
2912.29319	16122.6375
2914.77587	16092.6375
2917.25702	16083.2375
2919.73665	16071.5375
2922.21476	16071.5375
2924.69136	15998.5375
2927.16644	16013.8375
2929.64	15999.8375
2932.11205	15966.2375
2934.58258	15877.5375
2937.05161	15916.0375
2939.51912	15925.9375
2941.98513	15918.9375
2944.44962	15883.6375
2946.91261	15840.2375
2949.37409	15860.6375
2951.83407	15899.8375
2954.29254	15866.7375
2956.74951	15863.4375
2959.20498	15865.0375
2961.65895	15833.6375
2964.11142	15835.8375
2966.56239	15823.3375
2969.01186	15837.1375
2971.45984	15771.0375
2973.90632	15741.7375
2976.35131	15699.0375
2978.7948	15658.5375
2981.23681	15632.8375
2983.67732	15623.7375
2986.11635	15546.1375
2988.55388	15517.2375
2990.98993	15476.5375
2993.4245	15443.1375
2995.85758	15408.6375
2998.28917	15402.0375
3000.71928	15337.9375
3003.14791	15334.0375
3005.57506	15320.1375
3008.00073	15276.3375
3010.42493	15257.0375
3012.84764	15236.2375
3015.26888	15201.0375
3017.68865	15161.7375
3020.10694	15153.1375
3022.52376	15105.5375
3024.9391	15117.3375
3027.35298	15091.6375
