Data from AgNPs_UA_1uM_CRN_0uM_R6G_10uM_Q_RamanShift__34__12-50-25-905.txt Node

Date: Wed Jul 13 12:50:25 BST 2022
User: TCL
Spectrometer: QEP01345
Trigger mode: 4
Integration Time (sec): 7.000000E0
Scans to average: 10
Electric dark correction enabled: true
Nonlinearity correction enabled: false
Boxcar width: 0
XAxis mode: Raman Shifts
Number of Pixels in Spectrum: 1044
>>>>>Begin Spectral Data<<<<<
46.04893	-0.1375
50.45542	-1.3375
54.85868	-0.2375
59.25871	1.9625
63.6555	51.0625
68.04907	56.4625
72.43941	57.2625
76.82654	56.9625
81.21044	63.6625
85.59113	62.1625
89.96862	70.1625
94.34289	71.5625
98.71396	72.9625
103.08183	75.5625
107.4465	81.0625
111.80798	73.1625
116.16626	79.0625
120.52136	81.8625
124.87327	78.3625
129.222	83.4625
133.56755	82.2625
137.90993	89.5625
142.24913	95.9625
146.58517	101.8625
150.91804	115.1625
155.24774	129.8625
159.57429	153.8625
163.89768	190.9625
168.21792	241.0625
172.53501	323.9625
176.84895	436.3625
181.15975	593.4625
185.46741	818.2625
189.77193	1122.4625
194.07331	1489.4625
198.37157	1895.2625
202.6667	2325.8625
206.9587	2758.9625
211.24758	3199.4625
215.53334	3680.9625
219.81599	4194.7625
224.09553	4793.0625
228.37195	5444.0625
232.64527	6157.3625
236.91549	6832.6625
241.18261	7431.7625
245.44663	7916.9625
249.70755	8301.2625
253.96539	8596.2625
258.22014	8866.9625
262.4718	9116.0625
266.72039	9284.2625
270.96589	9325.9625
275.20832	9316.6625
279.44768	9249.4625
283.68397	9159.7625
287.91719	9145.6625
292.14735	9240.4625
296.37445	9438.8625
300.59849	9797.6625
304.81948	10200.2625
309.03742	10434.3625
313.25231	10358.9625
317.46415	9831.9625
321.67296	9086.9625
325.87872	8525.1625
330.08145	8302.3625
334.28114	8326.4625
338.47781	8479.8625
342.67145	8741.7625
346.86207	9116.0625
351.04966	9684.4625
355.23424	10268.8625
359.4158	10673.5625
363.59435	10840.5625
367.76989	10842.8625
371.94243	10754.8625
376.11196	10676.7625
380.27849	10563.9625
384.44203	10442.3625
388.60257	10323.3625
392.76012	10297.6625
396.91468	10446.4625
401.06626	10777.1625
405.21485	10981.2625
409.36047	10734.4625
413.50311	10284.8625
417.64277	10033.7625
421.77947	9871.5625
425.9132	9613.9625
430.04396	9580.1625
434.17176	9654.8625
438.2966	9923.7625
442.41849	10341.9625
446.53742	10851.5625
450.6534	11298.6625
454.76644	11469.6625
458.87653	11346.7625
462.98368	11060.7625
467.08789	10741.9625
471.18916	10379.2625
475.2875	10062.2625
479.38291	9843.3625
483.4754	9654.7625
487.56496	9445.1625
491.6516	9299.3625
495.73531	9242.6625
499.81612	9223.1625
503.89401	9316.2625
507.96899	9442.7625
512.04106	9538.8625
516.11023	9597.8625
520.1765	9605.6625
524.23987	9607.8625
528.30034	9487.9625
532.35792	9310.2625
536.41261	9075.6625
540.46441	8792.7625
544.51333	8693.2625
548.55936	8779.0625
552.60252	9098.6625
556.64279	9440.0625
560.6802	9644.2625
564.71473	9938.7625
568.7464	10530.0625
572.7752	10847.0625
576.80114	10628.6625
580.82422	10452.3625
584.84444	10512.0625
588.86181	10744.1625
592.87633	11144.9625
596.888	11454.1625
600.89682	11808.5625
604.9028	12985.4625
608.90594	16187.6625
612.90624	19443.5625
616.90371	17059.9625
620.89834	11817.1625
624.89015	9801.1625
628.87913	9509.3625
632.86528	9599.2625
636.84862	9575.6625
640.82913	9269.0625
644.80683	8778.1625
648.78172	8490.5625
652.75379	8604.9625
656.72306	9048.1625
660.68952	9469.3625
664.65319	9253.3625
668.61405	8769.6625
672.57211	8562.5625
676.52738	8551.1625
680.47986	8485.7625
684.42955	8376.4625
688.37646	8361.8625
692.32058	8409.3625
696.26192	8536.2625
700.20048	8702.6625
704.13626	8821.4625
708.06928	8817.8625
711.99952	8698.5625
715.927	8634.9625
719.85171	8664.2625
723.77365	8580.5625
727.69284	8453.2625
731.60928	8422.8625
735.52295	8445.9625
739.43388	8512.9625
743.34206	8613.0625
747.24749	8724.2625
751.15017	8859.7625
755.05012	9141.9625
758.94733	9770.7625
762.8418	11151.7625
766.73354	13241.0625
770.62254	15016.6625
774.50882	15481.8625
778.39237	14399.6625
782.27321	12274.6625
786.15132	10409.4625
790.02671	9341.7625
793.89938	8866.0625
797.76935	8669.2625
801.6366	8573.4625
805.50115	8482.6625
809.36299	8425.1625
813.22213	8379.9625
817.07857	8341.3625
820.93231	8372.7625
824.78336	8423.6625
828.63172	8486.8625
832.47738	8523.3625
836.32036	8473.5625
840.16066	8428.7625
843.99827	8369.1625
847.8332	8306.2625
851.66546	8280.4625
855.49504	8270.2625
859.32195	8254.6625
863.1462	8197.7625
866.96777	8148.2625
870.78668	8150.5625
874.60293	8175.2625
878.41652	8221.8625
882.22745	8314.5625
886.03573	8339.8625
889.84136	8318.3625
893.64433	8255.9625
897.44466	8227.8625
901.24235	8226.9625
905.0374	8195.6625
908.8298	8139.1625
912.61957	8128.1625
916.40671	8252.8625
920.19121	8380.8625
923.97308	8527.6625
927.75233	8642.2625
931.52895	8664.5625
935.30295	8459.9625
939.07433	8138.4625
942.84309	7912.9625
946.60924	7780.5625
950.37278	7739.4625
954.13371	7714.8625
957.89203	7647.4625
961.64774	7628.0625
965.40086	7625.1625
969.15137	7592.4625
972.89929	7602.4625
976.64461	7568.9625
980.38733	7601.8625
984.12747	7648.9625
987.86502	7687.6625
991.59999	7773.4625
995.33237	7967.6625
999.06217	8326.9625
1002.78939	8738.7625
1006.51404	9082.0625
1010.23611	9292.6625
1013.95561	9436.4625
1017.67255	9321.8625
1021.38692	9044.3625
1025.09872	8719.8625
1028.80796	8631.8625
1032.51465	8751.7625
1036.21877	8899.3625
1039.92035	8940.4625
1043.61937	8953.3625
1047.31584	8842.1625
1051.00976	8711.8625
1054.70114	8636.0625
1058.38998	8643.5625
1062.07627	8690.2625
1065.76003	8750.6625
1069.44126	8893.3625
1073.11995	9081.2625
1076.79611	9216.7625
1080.46974	9410.5625
1084.14085	9678.7625
1087.80943	9934.7625
1091.47549	9980.2625
1095.13903	9758.8625
1098.80005	9348.8625
1102.45857	8979.5625
1106.11456	8858.2625
1109.76805	8922.2625
1113.41903	9128.6625
1117.06751	9480.5625
1120.71348	9912.9625
1124.35696	10398.5625
1127.99793	10725.9625
1131.63641	10544.1625
1135.2724	10043.3625
1138.90589	9628.5625
1142.5369	9398.7625
1146.16542	9276.2625
1149.79145	9261.4625
1153.415	9313.9625
1157.03607	9476.4625
1160.65467	9740.7625
1164.27079	10235.6625
1167.88443	11001.9625
1171.49561	12252.4625
1175.10432	14240.1625
1178.71056	16638.7625
1182.31434	18332.4625
1185.91565	18715.1625
1189.51451	18160.8625
1193.11091	16950.9625
1196.70485	15562.5625
1200.29634	14333.4625
1203.88538	13320.3625
1207.47197	12336.1625
1211.05612	11717.8625
1214.63782	11458.0625
1218.21708	11545.8625
1221.79391	11720.5625
1225.36829	11837.0625
1228.94024	11738.5625
1232.50976	11575.4625
1236.07685	11393.2625
1239.6415	11306.1625
1243.20374	11275.6625
1246.76355	11267.4625
1250.32093	11399.3625
1253.8759	11710.0625
1257.42845	12198.8625
1260.97859	12698.2625
1264.52631	13198.8625
1268.07163	13659.9625
1271.61453	14083.2625
1275.15503	14452.4625
1278.69312	14733.8625
1282.22882	15075.9625
1285.76211	15648.5625
1289.29301	16350.6625
1292.82151	17175.2625
1296.34761	18040.1625
1299.87133	19257.3625
1303.39266	21014.4625
1306.9116	23485.2625
1310.42815	26180.9625
1313.94233	27611.3625
1317.45412	27133.1625
1320.96354	25480.7625
1324.47058	23740.7625
1327.97525	22339.2625
1331.47754	21423.2625
1334.97747	21058.7625
1338.47502	21052.7625
1341.97022	21228.2625
1345.46305	21541.6625
1348.95352	22222.5625
1352.44163	23342.0625
1355.92738	25271.9625
1359.41078	28195.2625
1362.89183	30544.4625
1366.37053	29155.3625
1369.84688	25083.2625
1373.32088	21078.2625
1376.79254	18557.4625
1380.26186	17277.7625
1383.72883	16693.4625
1387.19347	16287.7625
1390.65578	15936.7625
1394.11575	15811.2625
1397.57339	16081.5625
1401.0287	16473.8625
1404.48168	16909.2625
1407.93234	17215.5625
1411.38068	17162.6625
1414.82669	16753.5625
1418.27039	15947.4625
1421.71177	15105.3625
1425.15083	14507.3625
1428.58758	14275.5625
1432.02203	14411.4625
1435.45416	14642.4625
1438.88399	14871.7625
1442.31151	14943.4625
1445.73673	15077.0625
1449.15965	15172.0625
1452.58027	15137.6625
1455.9986	15043.6625
1459.41463	15070.0625
1462.82837	15336.1625
1466.23982	15753.0625
1469.64898	16040.1625
1473.05586	16248.4625
1476.46045	16341.4625
1479.86276	16429.9625
1483.26279	16580.9625
1486.66054	16870.6625
1490.05602	17260.3625
1493.44922	17857.9625
1496.84016	18656.6625
1500.22882	19973.5625
1503.61521	21853.9625
1506.99934	24010.7625
1510.38121	25886.9625
1513.76081	26401.7625
1517.13816	24975.9625
1520.51324	22279.3625
1523.88607	19819.8625
1527.25665	18317.1625
1530.62498	17569.9625
1533.99105	17143.7625
1537.35488	16839.2625
1540.71647	16627.3625
1544.07581	16322.3625
1547.4329	15961.3625
1550.78776	15562.4625
1554.14038	15181.8625
1557.49077	14998.9625
1560.83892	15076.0625
1564.18484	15303.9625
1567.52853	15636.8625
1570.86999	15930.6625
1574.20922	16167.5625
1577.54624	16059.0625
1580.88103	15368.5625
1584.2136	14670.3625
1587.54395	14697.6625
1590.87208	15589.0625
1594.19801	17196.5625
1597.52172	19026.8625
1600.84321	19841.3625
1604.16251	19075.2625
1607.47959	17240.6625
1610.79447	15085.7625
1614.10715	13191.5625
1617.41763	11855.0625
1620.7259	11124.0625
1624.03199	10762.1625
1627.33587	10830.6625
1630.63757	11279.4625
1633.93707	12145.0625
1637.23439	13574.7625
1640.52951	15602.9625
1643.82246	18062.5625
1647.11321	20278.2625
1650.40179	21087.7625
1653.68819	19693.9625
1656.97241	16583.8625
1660.25446	13450.8625
1663.53433	11205.5625
1666.81203	9868.5625
1670.08756	9064.1625
1673.36092	8561.1625
1676.63211	8251.8625
1679.90115	8059.9625
1683.16801	7897.7625
1686.43272	7798.1625
1689.69527	7704.8625
1692.95567	7640.7625
1696.2139	7620.9625
1699.46999	7593.6625
1702.72392	7563.7625
1705.97571	7523.5625
1709.22535	7534.5625
1712.47284	7539.3625
1715.71819	7533.5625
1718.96139	7523.5625
1722.20246	7502.3625
1725.44139	7414.6625
1728.67818	7384.0625
1731.91284	7332.6625
1735.14537	7278.1625
1738.37576	7232.5625
1741.60403	7181.3625
1744.83017	7166.5625
1748.05418	7137.5625
1751.27607	7130.7625
1754.49584	7108.1625
1757.71349	7113.4625
1760.92903	7102.1625
1764.14244	7088.0625
1767.35375	7069.5625
1770.56294	7041.2625
1773.77002	7051.5625
1776.97499	7024.8625
1780.17785	6990.0625
1783.37861	6979.4625
1786.57727	6989.1625
1789.77382	6957.3625
1792.96828	6940.1625
1796.16064	6950.5625
1799.3509	6931.0625
1802.53907	6910.3625
1805.72514	6887.5625
1808.90913	6871.3625
1812.09102	6840.9625
1815.27083	6825.3625
1818.44856	6816.6625
1821.6242	6800.3625
1824.79776	6774.5625
1827.96924	6775.6625
1831.13864	6754.1625
1834.30597	6749.3625
1837.47122	6750.4625
1840.6344	6744.3625
1843.7955	6743.8625
1846.95454	6746.6625
1850.11151	6737.0625
1853.26642	6743.7625
1856.41926	6736.5625
1859.57004	6753.2625
1862.71876	6751.9625
1865.86542	6764.6625
1869.01003	6767.2625
1872.15258	6770.2625
1875.29308	6760.2625
1878.43152	6772.6625
1881.56792	6782.4625
1884.70227	6793.0625
1887.83457	6816.9625
1890.96482	6793.1625
1894.09304	6799.1625
1897.21921	6805.5625
1900.34335	6784.8625
1903.46544	6793.8625
1906.58551	6815.8625
1909.70353	6785.6625
1912.81953	6802.9625
1915.93349	6791.7625
1919.04543	6783.0625
1922.15534	6773.0625
1925.26322	6757.2625
1928.36908	6720.6625
1931.47292	6708.6625
1934.57473	6660.3625
1937.67453	6631.5625
1940.77232	6585.6625
1943.86808	6578.1625
1946.96184	6552.0625
1950.05358	6516.3625
1953.14331	6485.4625
1956.23103	6468.0625
1959.31675	6425.1625
1962.40046	6411.3625
1965.48217	6392.5625
1968.56188	6371.7625
1971.63959	6380.1625
1974.7153	6351.0625
1977.78901	6317.2625
1980.86073	6283.3625
1983.93046	6280.4625
1986.99819	6231.7625
1990.06394	6226.2625
1993.1277	6210.7625
1996.18947	6163.6625
1999.24925	6161.0625
2002.30706	6140.2625
2005.36288	6117.6625
2008.41672	6105.6625
2011.46859	6087.4625
2014.51848	6062.0625
2017.56639	6061.1625
2020.61233	6034.7625
2023.6563	6009.4625
2026.6983	5999.9625
2029.73833	5979.3625
2032.7764	5976.3625
2035.8125	5974.1625
2038.84664	5948.3625
2041.87881	5950.6625
2044.90903	5919.0625
2047.93729	5910.5625
2050.96359	5915.2625
2053.98794	5898.3625
2057.01034	5890.5625
2060.03078	5892.1625
2063.04927	5866.7625
2066.06582	5875.9625
2069.08042	5874.8625
2072.09307	5834.0625
2075.10378	5825.7625
2078.11255	5825.6625
2081.11938	5831.3625
2084.12426	5822.2625
2087.12722	5814.7625
2090.12824	5802.9625
2093.12732	5800.4625
2096.12447	5810.0625
2099.11969	5815.9625
2102.11299	5795.6625
2105.10435	5807.3625
2108.09379	5802.0625
2111.08131	5808.3625
2114.0669	5803.8625
2117.05057	5802.1625
2120.03233	5807.6625
2123.01216	5821.9625
2125.99008	5806.2625
2128.96609	5816.5625
2131.94018	5807.7625
2134.91236	5814.5625
2137.88263	5803.2625
2140.851	5821.2625
2143.81746	5801.5625
2146.78201	5812.0625
2149.74466	5804.8625
2152.7054	5804.0625
2155.66425	5805.4625
2158.6212	5791.0625
2161.57625	5776.8625
2164.52941	5779.1625
2167.48067	5767.2625
2170.43004	5769.7625
2173.37752	5772.3625
2176.32311	5770.4625
2179.26681	5782.6625
2182.20863	5772.6625
2185.14856	5766.6625
2188.08661	5752.8625
2191.02278	5775.8625
2193.95707	5761.3625
2196.88948	5755.1625
2199.82001	5764.8625
2202.74867	5757.8625
2205.67545	5749.6625
2208.60037	5727.4625
2211.52341	5711.3625
2214.44458	5712.5625
2217.36388	5688.4625
2220.28132	5692.7625
2223.1969	5670.6625
2226.11061	5665.3625
2229.02246	5645.4625
2231.93245	5634.1625
2234.84058	5621.6625
2237.74686	5628.3625
2240.65128	5614.1625
2243.55385	5615.5625
2246.45456	5606.9625
2249.35343	5613.2625
2252.25044	5602.0625
2255.14561	5583.8625
2258.03893	5572.2625
2260.93041	5552.0625
2263.82004	5542.2625
2266.70783	5541.4625
2269.59378	5513.7625
2272.4779	5515.4625
2275.36017	5483.8625
2278.24061	5472.0625
2281.11922	5469.6625
2283.996	5460.1625
2286.87094	5444.0625
2289.74405	5426.7625
2292.61534	5436.1625
2295.4848	5412.4625
2298.35243	5404.2625
2301.21824	5388.4625
2304.08223	5403.1625
2306.94439	5391.7625
2309.80474	5398.1625
2312.66327	5414.0625
2315.51999	5399.6625
2318.37489	5402.3625
2321.22797	5370.7625
2324.07925	5376.1625
2326.92871	5379.3625
2329.77637	5382.1625
2332.62222	5366.5625
2335.46626	5353.4625
2338.3085	5344.8625
2341.14893	5348.5625
2343.98756	5343.1625
2346.8244	5359.9625
2349.65943	5373.9625
2352.49267	5386.1625
2355.32411	5384.8625
2358.15376	5391.4625
2360.98161	5391.7625
2363.80768	5386.9625
2366.63195	5389.0625
2369.45444	5382.7625
2372.27514	5395.7625
2375.09405	5365.4625
2377.91118	5346.5625
2380.72652	5322.5625
2383.54009	5317.0625
2386.35187	5279.4625
2389.16188	5261.8625
2391.97011	5246.8625
2394.77657	5233.2625
2397.58125	5219.6625
2400.38416	5222.0625
2403.18529	5176.3625
2405.98466	5182.6625
2408.78226	5178.6625
2411.57809	5182.6625
2414.37216	5164.6625
2417.16446	5168.5625
2419.955	5141.2625
2422.74378	5127.3625
2425.5308	5130.9625
2428.31606	5139.3625
2431.09956	5156.4625
2433.88131	5131.9625
2436.6613	5144.3625
2439.43954	5127.5625
2442.21603	5141.3625
2444.99077	5120.2625
2447.76377	5149.9625
2450.53501	5133.0625
2453.30451	5134.4625
2456.07226	5136.6625
2458.83827	5131.6625
2461.60254	5117.7625
2464.36507	5131.2625
2467.12586	5133.6625
2469.88492	5121.5625
2472.64224	5120.0625
2475.39782	5136.1625
2478.15167	5140.6625
2480.90379	5154.2625
2483.65417	5165.6625
2486.40283	5157.9625
2489.14976	5179.3625
2491.89497	5185.6625
2494.63845	5188.2625
2497.3802	5178.8625
2500.12024	5184.5625
2502.85855	5164.4625
2505.59514	5150.6625
2508.33002	5152.6625
2511.06318	5145.1625
2513.79462	5108.4625
2516.52435	5104.0625
2519.25237	5098.9625
2521.97867	5082.5625
2524.70327	5093.4625
2527.42616	5067.5625
2530.14734	5052.0625
2532.86681	5057.7625
2535.58458	5063.4625
2538.30065	5037.5625
2541.01501	5052.4625
2543.72768	5036.2625
2546.43864	5053.9625
2549.14791	5034.3625
2551.85548	5038.2625
2554.56136	5026.9625
2557.26554	5027.9625
2559.96803	5015.7625
2562.66883	5003.0625
2565.36794	5024.9625
2568.06536	5002.7625
2570.7611	4986.2625
2573.45514	5014.7625
2576.14751	5015.0625
2578.83819	5001.7625
2581.52719	5009.0625
2584.21451	4989.4625
2586.90015	4991.0625
2589.58411	4996.9625
2592.2664	4990.7625
2594.94701	4969.6625
2597.62594	4980.6625
2600.30321	4976.1625
2602.9788	4976.9625
2605.65273	4977.5625
2608.32498	4980.2625
2610.99557	4970.3625
2613.66449	4981.4625
2616.33175	4991.9625
2618.99734	4991.5625
2621.66128	4986.0625
2624.32355	4994.3625
2626.98416	4985.0625
2629.64311	4980.5625
2632.30041	4975.6625
2634.95605	4975.9625
2637.61004	4942.6625
2640.26238	4934.4625
2642.91306	4917.9625
2645.56209	4938.3625
2648.20948	4918.2625
2650.85521	4921.8625
2653.4993	4921.8625
2656.14175	4911.4625
2658.78255	4936.6625
2661.42171	4946.9625
2664.05923	4942.6625
2666.6951	4958.4625
2669.32934	4956.4625
2671.96194	4959.1625
2674.59291	4963.5625
2677.22224	4974.9625
2679.84993	4976.2625
2682.476	4979.8625
2685.10043	4975.0625
2687.72324	4968.7625
2690.34441	4976.9625
2692.96396	4963.7625
2695.58188	4956.6625
2698.19818	4973.5625
2700.81285	4963.1625
2703.4259	4970.8625
2706.03733	4980.4625
2708.64714	4956.3625
2711.25533	4977.3625
2713.86191	4979.7625
2716.46687	4992.4625
2719.07021	4991.1625
2721.67194	5000.1625
2724.27206	4976.5625
2726.87057	5011.1625
2729.46747	5003.3625
2732.06276	5011.8625
2734.65644	5016.0625
2737.24852	5011.5625
2739.83899	5005.3625
2742.42786	5005.1625
2745.01513	4983.7625
2747.60079	4976.9625
2750.18486	4973.2625
2752.76733	4979.1625
2755.3482	4962.1625
2757.92747	4963.1625
2760.50515	4967.3625
2763.08123	4957.5625
2765.65573	4965.5625
2768.22863	4952.9625
2770.79994	4955.8625
2773.36967	4953.6625
2775.9378	4956.8625
2778.50435	4944.9625
2781.06932	4951.8625
2783.6327	4968.1625
2786.1945	4953.2625
2788.75471	4942.3625
2791.31335	4948.9625
2793.87041	4969.5625
2796.42589	4926.1625
2798.97979	4945.3625
2801.53212	4937.0625
2804.08288	4913.7625
2806.63206	4897.7625
2809.17967	4903.1625
2811.72571	4892.9625
2814.27018	4893.6625
2816.81308	4900.7625
2819.35442	4904.3625
2821.89419	4901.0625
2824.43239	4897.5625
2826.96904	4886.5625
2829.50412	4908.2625
2832.03763	4896.3625
2834.56959	4924.2625
2837.1	4912.2625
2839.62884	4909.8625
2842.15613	4925.1625
2844.68186	4950.9625
2847.20604	4954.1625
2849.72867	4992.2625
2852.24974	4964.9625
2854.76927	4970.5625
2857.28724	4972.3625
2859.80367	4965.5625
2862.31855	4957.1625
2864.83189	4963.8625
2867.34368	4947.6625
2869.85393	4939.7625
2872.36264	4931.3625
2874.8698	4930.5625
2877.37543	4929.6625
2879.87952	4907.1625
2882.38207	4899.8625
2884.88308	4916.8625
2887.38256	4896.6625
2889.88051	4893.8625
2892.37692	4910.1625
2894.8718	4898.6625
2897.36515	4914.9625
2899.85698	4921.9625
2902.34727	4909.7625
2904.83604	4915.9625
2907.32328	4930.0625
2909.809	4933.4625
2912.29319	4935.0625
2914.77587	4927.3625
2917.25702	4922.0625
2919.73665	4915.9625
2922.21476	4917.0625
2924.69136	4888.9625
2927.16644	4877.6625
2929.64	4885.4625
2932.11205	4866.1625
2934.58258	4843.0625
2937.05161	4846.8625
2939.51912	4840.6625
2941.98513	4829.8625
2944.44962	4791.6625
2946.91261	4764.0625
2949.37409	4769.1625
2951.83407	4764.4625
2954.29254	4738.6625
2956.74951	4733.6625
2959.20498	4725.6625
2961.65895	4706.4625
2964.11142	4716.9625
2966.56239	4694.4625
2969.01186	4708.7625
2971.45984	4681.7625
2973.90632	4678.1625
2976.35131	4636.9625
2978.7948	4638.6625
2981.23681	4614.1625
2983.67732	4615.6625
2986.11635	4596.0625
2988.55388	4588.8625
2990.98993	4569.8625
2993.4245	4553.2625
2995.85758	4546.1625
2998.28917	4528.6625
3000.71928	4506.5625
3003.14791	4507.8625
3005.57506	4501.9625
3008.00073	4482.3625
3010.42493	4460.2625
3012.84764	4467.5625
3015.26888	4445.1625
3017.68865	4439.0625
3020.10694	4436.1625
3022.52376	4424.3625
3024.9391	4423.7625
3027.35298	4412.9625
3029.76539	4390.4625
3032.17632	4404.2625
3034.5858	4385.3625
3036.9938	4372.5625
3039.40034	4384.4625
3041.80542	4367.1625
3044.20903	4362.8625
3046.61118	4365.5625
3049.01187	4331.2625
3051.4111	4358.6625
3053.80888	4349.3625
3056.20519	4326.2625
3058.60005	4320.4625
3060.99345	4304.4625
3063.3854	4283.5625
3065.7759	4264.7625
3068.16494	4257.1625
3070.55254	4229.5625
3072.93868	4229.7625
3075.32338	4196.9625
3077.70662	4192.9625
3080.08842	4177.8625
3082.46878	4190.2625
3084.84769	4157.7625
3087.22515	4151.9625
3089.60118	4140.6625
3091.97576	4149.5625
3094.3489	4124.9625
3096.72061	4130.2625
3099.09087	4125.8625
3101.4597	4119.6625
3103.82709	4111.8625
3106.19305	4110.1625
