Data from AgNPs_UA_1uM_CRN_0uM_R6G_10uM_Q_RamanShift__11__12-23-35-877.txt Node

Date: Wed Jul 13 12:23:35 BST 2022
User: TCL
Spectrometer: QEP01345
Trigger mode: 4
Integration Time (sec): 7.000000E0
Scans to average: 10
Electric dark correction enabled: true
Nonlinearity correction enabled: false
Boxcar width: 0
XAxis mode: Raman Shifts
Number of Pixels in Spectrum: 1044
>>>>>Begin Spectral Data<<<<<
46.04893	-0.025
50.45542	-3.225
54.85868	-2.025
59.25871	-0.225
63.6555	95.875
68.04907	101.875
72.43941	105.575
76.82654	108.275
81.21044	116.875
85.59113	115.275
89.96862	121.775
94.34289	125.475
98.71396	124.975
103.08183	132.375
107.4465	141.475
111.80798	138.275
116.16626	142.375
120.52136	147.975
124.87327	154.575
129.222	163.275
133.56755	169.275
137.90993	186.975
142.24913	199.675
146.58517	226.075
150.91804	258.375
155.24774	307.875
159.57429	371.075
163.89768	482.775
168.21792	629.075
172.53501	856.375
176.84895	1199.675
181.15975	1677.075
185.46741	2353.175
189.77193	3259.175
194.07331	4363.975
198.37157	5609.875
202.6667	6935.575
206.9587	8232.075
211.24758	9529.975
215.53334	10856.775
219.81599	12231.375
224.09553	13754.575
228.37195	15461.275
232.64527	17276.975
236.91549	19082.575
241.18261	20979.775
245.44663	22615.875
249.70755	24059.375
253.96539	25340.875
258.22014	26458.775
262.4718	27376.675
266.72039	27944.575
270.96589	28167.275
275.20832	28184.975
279.44768	27889.775
283.68397	27664.375
287.91719	27437.575
292.14735	27319.475
296.37445	27429.475
300.59849	27733.275
304.81948	28124.175
309.03742	28495.675
313.25231	28553.875
317.46415	28212.775
321.67296	27539.875
325.87872	26963.675
330.08145	26673.475
334.28114	26740.475
338.47781	27040.675
342.67145	27421.275
346.86207	28006.175
351.04966	28762.375
355.23424	29442.575
359.4158	30044.775
363.59435	30336.175
367.76989	30477.375
371.94243	30536.075
376.11196	30551.175
380.27849	30537.275
384.44203	30659.775
388.60257	30757.875
392.76012	31051.175
396.91468	31443.675
401.06626	31971.675
405.21485	32189.075
409.36047	31913.275
413.50311	31352.675
417.64277	30949.475
421.77947	30839.475
425.9132	30942.375
430.04396	31002.975
434.17176	31100.875
438.2966	31353.275
442.41849	31704.175
446.53742	32221.875
450.6534	32841.575
454.76644	33166.475
458.87653	33314.275
462.98368	33288.975
467.08789	33142.075
471.18916	32850.275
475.2875	32462.975
479.38291	32102.975
483.4754	31883.575
487.56496	31695.175
491.6516	31610.975
495.73531	31636.075
499.81612	31696.075
503.89401	31967.375
507.96899	32092.675
512.04106	32179.475
516.11023	32240.175
520.1765	32200.575
524.23987	32177.075
528.30034	32068.675
532.35792	31961.975
536.41261	31720.275
540.46441	31454.775
544.51333	31392.175
548.55936	31590.775
552.60252	32100.375
556.64279	32579.775
560.6802	32927.475
564.71473	33164.375
568.7464	33600.675
572.7752	34024.975
576.80114	34242.075
580.82422	34620.375
584.84444	35153.575
588.86181	35760.175
592.87633	36220.575
596.888	36295.975
600.89682	36320.875
604.9028	37673.375
608.90594	41686.775
612.90624	45590.175
616.90371	42568.475
620.89834	35970.475
624.89015	33360.575
628.87913	33062.375
632.86528	33454.275
636.84862	33714.875
640.82913	33327.675
644.80683	32566.575
648.78172	32240.175
652.75379	32332.475
656.72306	32880.875
660.68952	33441.075
664.65319	33240.475
668.61405	32825.975
672.57211	32826.275
676.52738	32911.075
680.47986	32753.375
684.42955	32413.475
688.37646	32361.175
692.32058	32583.175
696.26192	33025.875
700.20048	33460.075
704.13626	33626.575
708.06928	33592.275
711.99952	33366.575
715.927	33321.675
719.85171	33406.075
723.77365	33349.875
727.69284	33101.575
731.60928	32835.875
735.52295	32761.575
739.43388	32835.875
743.34206	32894.575
747.24749	33078.075
751.15017	33241.175
755.05012	33665.675
758.94733	34443.075
762.8418	36284.175
766.73354	39106.475
770.62254	41339.975
774.50882	41561.875
778.39237	40067.175
782.27321	37982.275
786.15132	35900.875
790.02671	34525.675
793.89938	33805.175
797.76935	33495.475
801.6366	33293.075
805.50115	33184.575
809.36299	33064.075
813.22213	32960.175
817.07857	32920.375
820.93231	32876.475
824.78336	32912.175
828.63172	32979.275
832.47738	32920.575
836.32036	32890.975
840.16066	32817.075
843.99827	32836.275
847.8332	32825.075
851.66546	32956.775
855.49504	32968.075
859.32195	32971.875
863.1462	32948.175
866.96777	32997.775
870.78668	33009.675
874.60293	33075.275
878.41652	33211.875
882.22745	33385.275
886.03573	33515.375
889.84136	33525.975
893.64433	33464.575
897.44466	33412.275
901.24235	33348.675
905.0374	33231.675
908.8298	33170.175
912.61957	33101.375
916.40671	33203.075
920.19121	33399.475
923.97308	33642.575
927.75233	33826.675
931.52895	33757.775
935.30295	33482.075
939.07433	33053.875
942.84309	32723.575
946.60924	32581.275
950.37278	32522.575
954.13371	32480.475
957.89203	32453.775
961.64774	32357.075
965.40086	32375.475
969.15137	32362.275
972.89929	32272.575
976.64461	32242.275
980.38733	32263.675
984.12747	32318.675
987.86502	32424.875
991.59999	32533.475
995.33237	32682.875
999.06217	32910.875
1002.78939	33287.775
1006.51404	33730.975
1010.23611	34201.975
1013.95561	34425.175
1017.67255	34485.675
1021.38692	34334.675
1025.09872	33973.975
1028.80796	33674.275
1032.51465	33561.075
1036.21877	33580.875
1039.92035	33656.375
1043.61937	33724.075
1047.31584	33792.375
1051.00976	33852.175
1054.70114	33990.375
1058.38998	34141.475
1062.07627	34343.675
1065.76003	34628.875
1069.44126	34978.875
1073.11995	35507.175
1076.79611	36056.075
1080.46974	36502.975
1084.14085	36772.575
1087.80943	37070.275
1091.47549	37199.875
1095.13903	36985.875
1098.80005	36582.075
1102.45857	36278.075
1106.11456	35955.175
1109.76805	35560.475
1113.41903	35527.875
1117.06751	35748.575
1120.71348	36175.475
1124.35696	36686.375
1127.99793	37158.675
1131.63641	36978.975
1135.2724	36348.475
1138.90589	35984.675
1142.5369	35787.375
1146.16542	35608.675
1149.79145	35567.275
1153.415	35508.875
1157.03607	35596.275
1160.65467	35952.275
1164.27079	36719.075
1167.88443	37825.375
1171.49561	39232.175
1175.10432	41478.375
1178.71056	44119.775
1182.31434	46288.075
1185.91565	47098.275
1189.51451	46797.975
1193.11091	45971.175
1196.70485	44822.575
1200.29634	43506.075
1203.88538	42372.875
1207.47197	41251.475
1211.05612	40296.275
1214.63782	39436.675
1218.21708	38748.275
1221.79391	38280.475
1225.36829	38043.375
1228.94024	37994.375
1232.50976	37912.975
1236.07685	37751.475
1239.6415	37636.475
1243.20374	37636.675
1246.76355	37752.175
1250.32093	38005.875
1253.8759	38400.675
1257.42845	39160.875
1260.97859	40132.775
1264.52631	41070.675
1268.07163	41786.175
1271.61453	42445.975
1275.15503	42920.975
1278.69312	43243.875
1282.22882	43607.675
1285.76211	44238.675
1289.29301	45093.875
1292.82151	46087.475
1296.34761	47305.675
1299.87133	48879.375
1303.39266	50972.675
1306.9116	53725.675
1310.42815	56556.675
1313.94233	57783.275
1317.45412	56700.975
1320.96354	54683.775
1324.47058	52924.375
1327.97525	51627.975
1331.47754	50759.875
1334.97747	50414.875
1338.47502	50423.175
1341.97022	51037.875
1345.46305	52217.975
1348.95352	53771.675
1352.44163	55316.775
1355.92738	56942.275
1359.41078	59453.575
1362.89183	61864.875
1366.37053	60328.675
1369.84688	54977.775
1373.32088	49237.975
1376.79254	45643.375
1380.26186	43938.075
1383.72883	43162.475
1387.19347	42590.975
1390.65578	41827.675
1394.11575	41158.675
1397.57339	40759.975
1401.0287	40579.575
1404.48168	40464.975
1407.93234	40438.475
1411.38068	40321.075
1414.82669	40013.175
1418.27039	39584.475
1421.71177	39100.775
1425.15083	38754.975
1428.58758	38557.675
1432.02203	38860.375
1435.45416	39284.375
1438.88399	39734.275
1442.31151	39862.275
1445.73673	39916.975
1449.15965	39958.775
1452.58027	39862.675
1455.9986	39829.775
1459.41463	39960.175
1462.82837	40396.975
1466.23982	40915.675
1469.64898	41437.875
1473.05586	41838.975
1476.46045	42058.975
1479.86276	42277.375
1483.26279	42532.975
1486.66054	43010.575
1490.05602	43806.375
1493.44922	44839.875
1496.84016	46469.075
1500.22882	48950.575
1503.61521	52246.475
1506.99934	55623.775
1510.38121	57882.275
1513.76081	57797.375
1517.13816	54988.075
1520.51324	51066.675
1523.88607	47777.875
1527.25665	45848.275
1530.62498	44813.875
1533.99105	44303.375
1537.35488	43719.175
1540.71647	43103.175
1544.07581	42440.075
1547.4329	41953.275
1550.78776	41449.275
1554.14038	41204.775
1557.49077	41160.475
1560.83892	41434.475
1564.18484	41902.475
1567.52853	42566.575
1570.86999	43032.075
1574.20922	43450.375
1577.54624	43333.775
1580.88103	42418.175
1584.2136	41213.675
1587.54395	40891.775
1590.87208	41513.775
1594.19801	42833.175
1597.52172	44440.275
1600.84321	44859.675
1604.16251	43964.075
1607.47959	42648.975
1610.79447	40937.575
1614.10715	39042.375
1617.41763	37259.875
1620.7259	35978.875
1624.03199	35324.775
1627.33587	35185.375
1630.63757	35620.975
1633.93707	36733.575
1637.23439	38871.875
1640.52951	42167.975
1643.82246	46279.275
1647.11321	50084.975
1650.40179	51629.775
1653.68819	49482.675
1656.97241	44724.275
1660.25446	39832.075
1663.53433	36319.375
1666.81203	34165.075
1670.08756	32929.675
1673.36092	32092.975
1676.63211	31532.275
1679.90115	31155.775
1683.16801	30904.475
1686.43272	30690.875
1689.69527	30490.975
1692.95567	30342.775
1696.2139	30253.675
1699.46999	30231.975
1702.72392	30139.175
1705.97571	30139.475
1709.22535	30132.475
1712.47284	30202.575
1715.71819	30157.275
1718.96139	30066.075
1722.20246	30027.875
1725.44139	29965.875
1728.67818	29833.175
1731.91284	29712.675
1735.14537	29594.075
1738.37576	29525.475
1741.60403	29417.775
1744.83017	29336.975
1748.05418	29264.975
1751.27607	29197.775
1754.49584	29186.775
1757.71349	29136.775
1760.92903	29143.775
1764.14244	29099.875
1767.35375	29068.475
1770.56294	29024.375
1773.77002	29002.075
1776.97499	28992.775
1780.17785	28927.375
1783.37861	28858.575
1786.57727	28784.575
1789.77382	28718.475
1792.96828	28693.975
1796.16064	28677.375
1799.3509	28669.075
1802.53907	28605.675
1805.72514	28585.875
1808.90913	28522.575
1812.09102	28434.175
1815.27083	28360.475
1818.44856	28292.375
1821.6242	28275.775
1824.79776	28204.575
1827.96924	28214.575
1831.13864	28170.575
1834.30597	28168.875
1837.47122	28095.875
1840.6344	28053.575
1843.7955	28047.875
1846.95454	28067.275
1850.11151	28009.175
1853.26642	27990.475
1856.41926	27962.275
1859.57004	27968.475
1862.71876	27930.975
1865.86542	27970.075
1869.01003	27939.475
1872.15258	27886.475
1875.29308	27875.975
1878.43152	27793.575
1881.56792	27782.275
1884.70227	27698.175
1887.83457	27665.775
1890.96482	27631.075
1894.09304	27588.775
1897.21921	27611.275
1900.34335	27560.175
1903.46544	27497.675
1906.58551	27485.375
1909.70353	27449.875
1912.81953	27431.775
1915.93349	27408.975
1919.04543	27350.875
1922.15534	27290.775
1925.26322	27235.775
1928.36908	27172.175
1931.47292	27096.875
1934.57473	27063.975
1937.67453	26943.675
1940.77232	26874.575
1943.86808	26844.075
1946.96184	26804.575
1950.05358	26716.775
1953.14331	26655.475
1956.23103	26584.875
1959.31675	26494.875
1962.40046	26449.975
1965.48217	26326.575
1968.56188	26300.875
1971.63959	26199.075
1974.7153	26123.875
1977.78901	26083.675
1980.86073	25999.875
1983.93046	25873.275
1986.99819	25796.475
1990.06394	25724.875
1993.1277	25635.475
1996.18947	25576.275
1999.24925	25508.475
2002.30706	25448.275
2005.36288	25375.775
2008.41672	25301.675
2011.46859	25224.475
2014.51848	25105.375
2017.56639	25106.375
2020.61233	25003.675
2023.6563	24942.175
2026.6983	24867.475
2029.73833	24832.275
2032.7764	24733.575
2035.8125	24686.675
2038.84664	24675.375
2041.87881	24623.775
2044.90903	24575.275
2047.93729	24496.375
2050.96359	24460.475
2053.98794	24435.575
2057.01034	24420.875
2060.03078	24368.775
2063.04927	24383.475
2066.06582	24394.075
2069.08042	24378.575
2072.09307	24319.575
2075.10378	24261.975
2078.11255	24272.275
2081.11938	24285.775
2084.12426	24241.475
2087.12722	24259.975
2090.12824	24235.175
2093.12732	24202.775
2096.12447	24238.975
2099.11969	24253.675
2102.11299	24195.275
2105.10435	24270.675
2108.09379	24256.975
2111.08131	24247.775
2114.0669	24295.575
2117.05057	24304.275
2120.03233	24346.075
2123.01216	24356.375
2125.99008	24374.075
2128.96609	24405.575
2131.94018	24387.275
2134.91236	24412.775
2137.88263	24474.575
2140.851	24502.675
2143.81746	24470.775
2146.78201	24440.375
2149.74466	24498.275
2152.7054	24506.075
2155.66425	24468.375
2158.6212	24416.475
2161.57625	24402.575
2164.52941	24426.375
2167.48067	24421.175
2170.43004	24401.675
2173.37752	24363.375
2176.32311	24431.475
2179.26681	24443.975
2182.20863	24398.175
2185.14856	24425.275
2188.08661	24412.175
2191.02278	24374.375
2193.95707	24367.375
2196.88948	24318.675
2199.82001	24317.175
2202.74867	24309.675
2205.67545	24266.975
2208.60037	24235.075
2211.52341	24175.775
2214.44458	24157.375
2217.36388	24102.575
2220.28132	24039.975
2223.1969	23995.275
2226.11061	23974.275
2229.02246	23943.875
2231.93245	23841.875
2234.84058	23853.775
2237.74686	23772.175
2240.65128	23778.875
2243.55385	23767.575
2246.45456	23728.575
2249.35343	23721.675
2252.25044	23678.675
2255.14561	23631.375
2258.03893	23617.575
2260.93041	23556.575
2263.82004	23486.675
2266.70783	23484.075
2269.59378	23401.475
2272.4779	23360.275
2275.36017	23302.275
2278.24061	23260.675
2281.11922	23228.575
2283.996	23164.575
2286.87094	23128.075
2289.74405	23076.275
2292.61534	23046.675
2295.4848	22985.375
2298.35243	22975.275
2301.21824	22983.475
2304.08223	22966.975
2306.94439	22982.675
2309.80474	22965.375
2312.66327	22968.875
2315.51999	22923.575
2318.37489	22877.275
2321.22797	22810.675
2324.07925	22859.275
2326.92871	22779.975
2329.77637	22732.875
2332.62222	22684.675
2335.46626	22669.275
2338.3085	22632.875
2341.14893	22597.875
2343.98756	22552.675
2346.8244	22535.275
2349.65943	22504.475
2352.49267	22541.675
2355.32411	22589.075
2358.15376	22597.775
2360.98161	22521.175
2363.80768	22502.175
2366.63195	22535.775
2369.45444	22480.975
2372.27514	22502.175
2375.09405	22472.875
2377.91118	22426.675
2380.72652	22363.375
2383.54009	22299.575
2386.35187	22266.475
2389.16188	22211.875
2391.97011	22156.275
2394.77657	22111.375
2397.58125	22046.575
2400.38416	22028.675
2403.18529	21928.675
2405.98466	21970.275
2408.78226	21928.675
2411.57809	21905.075
2414.37216	21906.275
2417.16446	21881.775
2419.955	21871.175
2422.74378	21820.575
2425.5308	21836.275
2428.31606	21801.175
2431.09956	21854.975
2433.88131	21760.375
2436.6613	21762.975
2439.43954	21737.375
2442.21603	21739.475
2444.99077	21700.775
2447.76377	21683.975
2450.53501	21698.175
2453.30451	21658.275
2456.07226	21601.375
2458.83827	21575.375
2461.60254	21558.075
2464.36507	21543.175
2467.12586	21503.275
2469.88492	21518.875
2472.64224	21499.175
2475.39782	21531.575
2478.15167	21503.875
2480.90379	21457.875
2483.65417	21502.175
2486.40283	21427.175
2489.14976	21465.375
2491.89497	21421.675
2494.63845	21450.675
2497.3802	21435.975
2500.12024	21412.275
2502.85855	21381.375
2505.59514	21353.775
2508.33002	21323.775
2511.06318	21308.675
2513.79462	21261.575
2516.52435	21191.075
2519.25237	21159.575
2521.97867	21139.075
2524.70327	21171.675
2527.42616	21126.575
2530.14734	21086.975
2532.86681	21048.575
2535.58458	21091.775
2538.30065	21022.875
2541.01501	20998.975
2543.72768	20935.575
2546.43864	20920.575
2549.14791	20920.475
2551.85548	20873.475
2554.56136	20824.275
2557.26554	20802.475
2559.96803	20764.375
2562.66883	20732.575
2565.36794	20676.575
2568.06536	20628.875
2570.7611	20596.075
2573.45514	20601.675
2576.14751	20605.775
2578.83819	20573.175
2581.52719	20523.175
2584.21451	20463.775
2586.90015	20418.275
2589.58411	20384.475
2592.2664	20401.875
2594.94701	20326.175
2597.62594	20304.675
2600.30321	20279.775
2602.9788	20211.275
2605.65273	20195.875
2608.32498	20180.575
2610.99557	20167.275
2613.66449	20129.475
2616.33175	20133.675
2618.99734	20148.075
2621.66128	20105.275
2624.32355	20079.575
2626.98416	20008.375
2629.64311	19998.775
2632.30041	20016.175
2634.95605	19990.775
2637.61004	19924.075
2640.26238	19885.775
2642.91306	19810.975
2645.56209	19820.775
2648.20948	19801.975
2650.85521	19761.975
2653.4993	19791.675
2656.14175	19781.675
2658.78255	19808.775
2661.42171	19807.475
2664.05923	19825.275
2666.6951	19843.275
2669.32934	19801.475
2671.96194	19781.175
2674.59291	19790.775
2677.22224	19817.675
2679.84993	19832.675
2682.476	19783.475
2685.10043	19842.675
2687.72324	19752.375
2690.34441	19774.175
2692.96396	19747.975
2695.58188	19778.575
2698.19818	19761.475
2700.81285	19808.575
2703.4259	19754.775
2706.03733	19759.175
2708.64714	19779.875
2711.25533	19793.675
2713.86191	19787.675
2716.46687	19786.275
2719.07021	19787.275
2721.67194	19790.675
2724.27206	19789.075
2726.87057	19792.075
2729.46747	19768.975
2732.06276	19795.475
2734.65644	19779.175
2737.24852	19793.775
2739.83899	19733.775
2742.42786	19716.675
2745.01513	19689.675
2747.60079	19664.575
2750.18486	19638.975
2752.76733	19607.775
2755.3482	19553.275
2757.92747	19531.475
2760.50515	19483.075
2763.08123	19545.975
2765.65573	19479.375
2768.22863	19494.375
2770.79994	19415.475
2773.36967	19412.975
2775.9378	19387.775
2778.50435	19401.675
2781.06932	19367.775
2783.6327	19316.675
2786.1945	19288.475
2788.75471	19275.175
2791.31335	19190.875
2793.87041	19195.175
2796.42589	19176.475
2798.97979	19124.075
2801.53212	19083.575
2804.08288	19032.875
2806.63206	18990.075
2809.17967	18936.975
2811.72571	18863.975
2814.27018	18910.975
2816.81308	18866.875
2819.35442	18845.875
2821.89419	18751.075
2824.43239	18755.875
2826.96904	18737.375
2829.50412	18743.275
2832.03763	18668.775
2834.56959	18689.975
2837.1	18657.675
2839.62884	18653.575
2842.15613	18601.575
2844.68186	18619.975
2847.20604	18610.175
2849.72867	18601.375
2852.24974	18544.975
2854.76927	18524.275
2857.28724	18521.475
2859.80367	18498.475
2862.31855	18484.275
2864.83189	18475.375
2867.34368	18414.675
2869.85393	18413.175
2872.36264	18362.375
2874.8698	18358.275
2877.37543	18347.675
2879.87952	18322.875
2882.38207	18308.475
2884.88308	18264.375
2887.38256	18257.175
2889.88051	18214.875
2892.37692	18240.375
2894.8718	18253.875
2897.36515	18298.775
2899.85698	18257.775
2902.34727	18288.175
2904.83604	18273.575
2907.32328	18271.075
2909.809	18325.475
2912.29319	18354.675
2914.77587	18332.175
2917.25702	18299.475
2919.73665	18323.875
2922.21476	18305.775
2924.69136	18212.675
2927.16644	18252.875
2929.64	18227.375
2932.11205	18185.475
2934.58258	18094.675
2937.05161	18167.875
2939.51912	18149.375
2941.98513	18143.775
2944.44962	18110.975
2946.91261	18016.275
2949.37409	18058.975
2951.83407	18085.575
2954.29254	18082.275
2956.74951	18043.975
2959.20498	18039.775
2961.65895	18025.875
2964.11142	18029.775
2966.56239	18018.175
2969.01186	18033.075
2971.45984	18008.875
2973.90632	17989.775
2976.35131	17944.475
2978.7948	17916.575
2981.23681	17917.475
2983.67732	17851.075
2986.11635	17838.975
2988.55388	17796.875
2990.98993	17768.075
2993.4245	17678.275
2995.85758	17666.375
2998.28917	17629.975
3000.71928	17600.475
3003.14791	17570.575
3005.57506	17536.175
3008.00073	17478.975
3010.42493	17468.175
3012.84764	17420.475
3015.26888	17396.475
3017.68865	17344.175
3020.10694	17356.475
3022.52376	17316.475
3024.9391	17304.875
3027.35298	17250.075
3029.76539	17238.575
3032.17632	17249.275
3034.5858	17189.775
3036.9938	17192.075
3039.40034	17166.775
3041.80542	17118.875
3044.20903	17069.675
3046.61118	17045.875
3049.01187	17034.575
3051.4111	17034.475
3053.80888	17007.675
3056.20519	16992.775
3058.60005	16918.275
3060.99345	16905.175
3063.3854	16874.575
3065.7759	16843.375
3068.16494	16773.275
3070.55254	16714.375
3072.93868	16700.175
3075.32338	16634.375
3077.70662	16597.875
3080.08842	16588.075
3082.46878	16566.875
3084.84769	16523.175
3087.22515	16520.575
3089.60118	16509.975
3091.97576	16532.675
3094.3489	16491.475
3096.72061	16485.375
3099.09087	16490.475
3101.4597	16500.575
3103.82709	16471.275
3106.19305	16437.775
3108.55757	16460.875
3110.92066	16406.675
3113.28232	16366.175
3115.64255	16359.775
3118.00134	16322.875
3120.35871	16350.775
3122.71466	16264.675
3125.06917	16238.775
3127.42226	16211.975
3129.77393	16188.875
