Data from AgNPs_UA_2uM_CRN_0uM_R6G_10uM_Q_RamanShift__18__13-22-01-918.txt Node

Date: Wed Jul 13 13:22:01 BST 2022
User: TCL
Spectrometer: QEP01345
Trigger mode: 4
Integration Time (sec): 7.000000E0
Scans to average: 10
Electric dark correction enabled: true
Nonlinearity correction enabled: false
Boxcar width: 0
XAxis mode: Raman Shifts
Number of Pixels in Spectrum: 1044
>>>>>Begin Spectral Data<<<<<
46.04893	-1.5625
50.45542	-1.6625
54.85868	-0.9625
59.25871	-1.5625
63.6555	103.9375
68.04907	108.2375
72.43941	112.5375
76.82654	118.9375
81.21044	122.2375
85.59113	130.9375
89.96862	135.4375
94.34289	135.2375
98.71396	146.2375
103.08183	146.2375
107.4465	152.3375
111.80798	153.7375
116.16626	158.0375
120.52136	165.4375
124.87327	169.0375
129.222	176.5375
133.56755	191.6375
137.90993	201.2375
142.24913	221.5375
146.58517	246.1375
150.91804	281.2375
155.24774	337.2375
159.57429	408.7375
163.89768	521.9375
168.21792	691.3375
172.53501	935.1375
176.84895	1299.8375
181.15975	1840.9375
185.46741	2573.1375
189.77193	3522.5375
194.07331	4709.9375
198.37157	6013.2375
202.6667	7394.5375
206.9587	8778.1375
211.24758	10106.2375
215.53334	11501.0375
219.81599	12969.3375
224.09553	14542.0375
228.37195	16347.8375
232.64527	18334.7375
236.91549	20421.0375
241.18261	22425.8375
245.44663	24293.8375
249.70755	25945.1375
253.96539	27372.4375
258.22014	28663.2375
262.4718	29665.0375
266.72039	30353.5375
270.96589	30655.8375
275.20832	30652.5375
279.44768	30461.1375
283.68397	30160.8375
287.91719	29886.3375
292.14735	29671.6375
296.37445	29644.1375
300.59849	29788.7375
304.81948	30022.2375
309.03742	30057.6375
313.25231	29940.6375
317.46415	29547.8375
321.67296	28939.1375
325.87872	28507.6375
330.08145	28367.9375
334.28114	28415.4375
338.47781	28719.3375
342.67145	29155.9375
346.86207	29652.1375
351.04966	30290.2375
355.23424	30889.7375
359.4158	31389.1375
363.59435	31718.4375
367.76989	32031.8375
371.94243	32176.5375
376.11196	32331.3375
380.27849	32442.0375
384.44203	32622.5375
388.60257	32824.7375
392.76012	33084.9375
396.91468	33478.3375
401.06626	33985.4375
405.21485	34301.3375
409.36047	34150.4375
413.50311	33718.5375
417.64277	33351.9375
421.77947	33371.7375
425.9132	33433.1375
430.04396	33691.9375
434.17176	33990.4375
438.2966	34350.8375
442.41849	35023.1375
446.53742	35952.6375
450.6534	36998.5375
454.76644	37597.8375
458.87653	37692.9375
462.98368	37249.5375
467.08789	36740.8375
471.18916	36199.2375
475.2875	35660.9375
479.38291	35278.2375
483.4754	35029.7375
487.56496	34693.1375
491.6516	34413.2375
495.73531	34186.6375
499.81612	34081.2375
503.89401	34204.7375
507.96899	34371.1375
512.04106	34393.6375
516.11023	34337.9375
520.1765	34284.2375
524.23987	34244.5375
528.30034	34158.8375
532.35792	33975.8375
536.41261	33616.8375
540.46441	33315.2375
544.51333	33309.5375
548.55936	33590.4375
552.60252	34182.8375
556.64279	34875.4375
560.6802	35302.4375
564.71473	35543.5375
568.7464	36057.2375
572.7752	36661.2375
576.80114	37131.1375
580.82422	37758.1375
584.84444	38534.2375
588.86181	39587.3375
592.87633	40741.8375
596.888	41236.2375
600.89682	41133.5375
604.9028	42122.2375
608.90594	45099.0375
612.90624	47350.2375
616.90371	43686.1375
620.89834	37865.9375
624.89015	35882.9375
628.87913	35875.4375
632.86528	35838.9375
636.84862	35572.8375
640.82913	34991.8375
644.80683	34197.3375
648.78172	33718.7375
652.75379	33823.8375
656.72306	34279.1375
660.68952	34685.9375
664.65319	34407.3375
668.61405	33937.9375
672.57211	33865.9375
676.52738	33856.8375
680.47986	33703.3375
684.42955	33556.4375
688.37646	33529.6375
692.32058	33735.4375
696.26192	34126.8375
700.20048	34475.9375
704.13626	34697.8375
708.06928	34563.8375
711.99952	34381.8375
715.927	34337.4375
719.85171	34425.2375
723.77365	34375.2375
727.69284	33995.9375
731.60928	33834.9375
735.52295	33810.9375
739.43388	33927.8375
743.34206	34084.2375
747.24749	34147.5375
751.15017	34423.7375
755.05012	34929.3375
758.94733	35822.3375
762.8418	37541.8375
766.73354	40255.3375
770.62254	42397.2375
774.50882	42449.8375
778.39237	40504.5375
782.27321	38069.2375
786.15132	36065.5375
790.02671	34892.7375
793.89938	34324.4375
797.76935	34123.7375
801.6366	34068.0375
805.50115	33965.2375
809.36299	33816.6375
813.22213	33648.4375
817.07857	33558.5375
820.93231	33418.4375
824.78336	33450.3375
828.63172	33470.1375
832.47738	33502.1375
836.32036	33561.5375
840.16066	33703.5375
843.99827	33779.5375
847.8332	33756.4375
851.66546	33676.8375
855.49504	33665.1375
859.32195	33698.5375
863.1462	33593.7375
866.96777	33459.0375
870.78668	33442.4375
874.60293	33497.3375
878.41652	33556.4375
882.22745	33700.7375
886.03573	33704.4375
889.84136	33686.7375
893.64433	33546.0375
897.44466	33454.1375
901.24235	33343.7375
905.0374	33280.3375
908.8298	33181.7375
912.61957	33231.3375
916.40671	33503.3375
920.19121	33882.9375
923.97308	34356.1375
927.75233	34471.3375
931.52895	34342.9375
935.30295	33910.6375
939.07433	33302.3375
942.84309	32963.7375
946.60924	32861.8375
950.37278	32835.6375
954.13371	32681.2375
957.89203	32531.2375
961.64774	32470.4375
965.40086	32387.7375
969.15137	32367.2375
972.89929	32248.7375
976.64461	32252.7375
980.38733	32268.5375
984.12747	32420.5375
987.86502	32757.2375
991.59999	33188.2375
995.33237	33835.9375
999.06217	34772.4375
1002.78939	35629.1375
1006.51404	36076.1375
1010.23611	36289.7375
1013.95561	36472.3375
1017.67255	36559.2375
1021.38692	36176.3375
1025.09872	35814.7375
1028.80796	36156.9375
1032.51465	37026.1375
1036.21877	37679.4375
1039.92035	37585.4375
1043.61937	36988.5375
1047.31584	36211.8375
1051.00976	35384.4375
1054.70114	35107.3375
1058.38998	35154.0375
1062.07627	35268.0375
1065.76003	35369.0375
1069.44126	35609.8375
1073.11995	35966.0375
1076.79611	36421.7375
1080.46974	36743.0375
1084.14085	37077.3375
1087.80943	37468.7375
1091.47549	37626.9375
1095.13903	37337.2375
1098.80005	36866.2375
1102.45857	36313.7375
1106.11456	35965.1375
1109.76805	36031.7375
1113.41903	36201.4375
1117.06751	36516.3375
1120.71348	36884.8375
1124.35696	37182.9375
1127.99793	37493.5375
1131.63641	37493.8375
1135.2724	37130.0375
1138.90589	36848.8375
1142.5369	36739.7375
1146.16542	36698.7375
1149.79145	36819.7375
1153.415	37068.0375
1157.03607	37447.0375
1160.65467	38222.1375
1164.27079	39416.1375
1167.88443	41244.4375
1171.49561	43543.4375
1175.10432	46686.0375
1178.71056	50537.2375
1182.31434	53653.0375
1185.91565	54734.0375
1189.51451	53794.6375
1193.11091	51616.7375
1196.70485	49350.7375
1200.29634	47465.3375
1203.88538	46049.4375
1207.47197	44883.3375
1211.05612	44148.2375
1214.63782	43689.3375
1218.21708	43464.8375
1221.79391	43686.2375
1225.36829	43904.4375
1228.94024	43466.4375
1232.50976	42454.0375
1236.07685	41599.7375
1239.6415	41150.4375
1243.20374	40962.4375
1246.76355	41181.6375
1250.32093	41731.8375
1253.8759	42522.1375
1257.42845	43479.0375
1260.97859	44577.3375
1264.52631	45670.6375
1268.07163	46802.7375
1271.61453	47976.4375
1275.15503	49279.0375
1278.69312	50601.3375
1282.22882	51808.8375
1285.76211	52932.2375
1289.29301	54076.8375
1292.82151	55605.4375
1296.34761	57712.9375
1299.87133	60665.0375
1303.39266	64353.1375
1306.9116	68579.3375
1310.42815	72976.7375
1313.94233	75667.6375
1317.45412	75548.7375
1320.96354	73474.1375
1324.47058	71014.3375
1327.97525	68596.5375
1331.47754	66840.4375
1334.97747	65631.0375
1338.47502	64944.3375
1341.97022	64565.0375
1345.46305	64272.8375
1348.95352	64092.1375
1352.44163	64378.1375
1355.92738	66104.2375
1359.41078	69397.2375
1362.89183	72164.3375
1366.37053	70683.6375
1369.84688	64843.1375
1373.32088	58145.0375
1376.79254	53714.7375
1380.26186	51951.2375
1383.72883	51666.8375
1387.19347	51586.6375
1390.65578	51056.9375
1394.11575	50899.7375
1397.57339	51426.7375
1401.0287	52403.2375
1404.48168	53104.9375
1407.93234	53125.5375
1411.38068	52407.1375
1414.82669	51035.9375
1418.27039	49355.1375
1421.71177	47687.1375
1425.15083	46426.7375
1428.58758	45870.8375
1432.02203	46310.1375
1435.45416	47350.1375
1438.88399	48513.2375
1442.31151	49371.8375
1445.73673	49990.9375
1449.15965	50356.1375
1452.58027	50462.3375
1455.9986	50368.7375
1459.41463	50544.6375
1462.82837	51246.6375
1466.23982	52148.7375
1469.64898	53026.0375
1473.05586	53513.6375
1476.46045	53612.2375
1479.86276	53360.2375
1483.26279	52883.7375
1486.66054	52687.0375
1490.05602	52724.8375
1493.44922	53060.4375
1496.84016	53613.9375
1500.22882	54600.7375
1503.61521	56333.4375
1506.99934	58418.6375
1510.38121	60297.6375
1513.76081	60616.3375
1517.13816	58959.5375
1520.51324	56399.3375
1523.88607	54237.0375
1527.25665	53024.3375
1530.62498	52508.6375
1533.99105	52291.7375
1537.35488	51944.3375
1540.71647	51328.8375
1544.07581	50579.6375
1547.4329	49796.2375
1550.78776	49000.4375
1554.14038	48378.0375
1557.49077	48048.5375
1560.83892	47984.9375
1564.18484	48059.0375
1567.52853	48279.6375
1570.86999	48694.4375
1574.20922	49213.3375
1577.54624	49414.4375
1580.88103	49099.7375
1584.2136	48960.4375
1587.54395	49971.2375
1590.87208	52353.1375
1594.19801	55826.2375
1597.52172	59254.2375
1600.84321	60322.0375
1604.16251	58047.6375
1607.47959	53949.1375
1610.79447	49662.2375
1614.10715	45854.7375
1617.41763	42872.0375
1620.7259	40924.6375
1624.03199	39974.0375
1627.33587	40081.7375
1630.63757	41171.8375
1633.93707	43641.1375
1637.23439	47505.1375
1640.52951	52922.0375
1643.82246	58870.9375
1647.11321	63029.6375
1650.40179	62892.0375
1653.68819	58147.3375
1656.97241	51018.0375
1660.25446	44487.0375
1663.53433	39868.8375
1666.81203	37005.0375
1670.08756	35161.3375
1673.36092	34017.7375
1676.63211	33187.3375
1679.90115	32607.2375
1683.16801	32191.0375
1686.43272	31859.1375
1689.69527	31651.6375
1692.95567	31495.7375
1696.2139	31414.6375
1699.46999	31308.9375
1702.72392	31242.4375
1705.97571	31194.0375
1709.22535	31157.0375
1712.47284	31135.1375
1715.71819	31095.0375
1718.96139	31092.0375
1722.20246	30986.9375
1725.44139	30821.5375
1728.67818	30728.7375
1731.91284	30620.6375
1735.14537	30454.7375
1738.37576	30332.2375
1741.60403	30228.8375
1744.83017	30178.8375
1748.05418	30121.5375
1751.27607	30077.2375
1754.49584	30029.5375
1757.71349	30027.2375
1760.92903	29953.1375
1764.14244	29908.4375
1767.35375	29937.4375
1770.56294	29855.0375
1773.77002	29819.2375
1776.97499	29837.5375
1780.17785	29770.8375
1783.37861	29749.5375
1786.57727	29685.7375
1789.77382	29664.3375
1792.96828	29639.5375
1796.16064	29630.7375
1799.3509	29535.9375
1802.53907	29486.1375
1805.72514	29464.9375
1808.90913	29375.4375
1812.09102	29313.5375
1815.27083	29222.8375
1818.44856	29171.8375
1821.6242	29159.8375
1824.79776	29099.7375
1827.96924	29132.6375
1831.13864	29055.1375
1834.30597	29068.3375
1837.47122	29028.6375
1840.6344	29003.5375
1843.7955	29010.3375
1846.95454	28989.2375
1850.11151	28984.2375
1853.26642	28942.8375
1856.41926	28920.4375
1859.57004	28919.5375
1862.71876	28931.1375
1865.86542	28885.0375
1869.01003	28863.2375
1872.15258	28839.8375
1875.29308	28880.5375
1878.43152	28858.1375
1881.56792	28835.6375
1884.70227	28813.2375
1887.83457	28822.6375
1890.96482	28776.8375
1894.09304	28760.2375
1897.21921	28785.4375
1900.34335	28756.4375
1903.46544	28729.6375
1906.58551	28693.4375
1909.70353	28704.4375
1912.81953	28667.4375
1915.93349	28638.2375
1919.04543	28582.4375
1922.15534	28550.8375
1925.26322	28446.6375
1928.36908	28462.9375
1931.47292	28413.3375
1934.57473	28363.5375
1937.67453	28304.4375
1940.77232	28272.7375
1943.86808	28145.0375
1946.96184	28095.9375
1950.05358	28032.7375
1953.14331	27918.1375
1956.23103	27857.1375
1959.31675	27792.9375
1962.40046	27757.5375
1965.48217	27677.1375
1968.56188	27579.4375
1971.63959	27519.8375
1974.7153	27414.3375
1977.78901	27332.2375
1980.86073	27276.3375
1983.93046	27184.9375
1986.99819	27072.6375
1990.06394	27022.4375
1993.1277	26958.0375
1996.18947	26880.0375
1999.24925	26854.8375
2002.30706	26835.6375
2005.36288	26759.0375
2008.41672	26663.0375
2011.46859	26574.5375
2014.51848	26472.3375
2017.56639	26445.1375
2020.61233	26404.5375
2023.6563	26325.3375
2026.6983	26303.8375
2029.73833	26252.1375
2032.7764	26243.9375
2035.8125	26177.6375
2038.84664	26144.0375
2041.87881	26098.7375
2044.90903	26035.0375
2047.93729	26023.6375
2050.96359	26030.7375
2053.98794	25964.0375
2057.01034	26018.2375
2060.03078	25945.9375
2063.04927	25921.1375
2066.06582	25896.4375
2069.08042	25924.2375
2072.09307	25893.4375
2075.10378	25897.9375
2078.11255	25833.4375
2081.11938	25863.0375
2084.12426	25788.5375
2087.12722	25775.8375
2090.12824	25764.3375
2093.12732	25771.3375
2096.12447	25796.3375
2099.11969	25823.5375
2102.11299	25824.7375
2105.10435	25833.8375
2108.09379	25831.9375
2111.08131	25874.6375
2114.0669	25925.3375
2117.05057	25937.2375
2120.03233	25974.3375
2123.01216	25936.6375
2125.99008	25926.2375
2128.96609	25996.3375
2131.94018	26027.9375
2134.91236	26055.8375
2137.88263	26055.1375
2140.851	26099.9375
2143.81746	26174.5375
2146.78201	26133.7375
2149.74466	26142.3375
2152.7054	26152.1375
2155.66425	26166.9375
2158.6212	26149.1375
2161.57625	26090.9375
2164.52941	26159.5375
2167.48067	26205.4375
2170.43004	26183.2375
2173.37752	26148.7375
2176.32311	26128.9375
2179.26681	26147.9375
2182.20863	26127.5375
2185.14856	26197.7375
2188.08661	26205.9375
2191.02278	26222.9375
2193.95707	26192.8375
2196.88948	26222.9375
2199.82001	26205.3375
2202.74867	26195.3375
2205.67545	26190.2375
2208.60037	26144.5375
2211.52341	26157.7375
2214.44458	26121.5375
2217.36388	26064.0375
2220.28132	26016.3375
2223.1969	25974.9375
2226.11061	25972.6375
2229.02246	25916.0375
2231.93245	25846.2375
2234.84058	25855.3375
2237.74686	25819.8375
2240.65128	25786.8375
2243.55385	25757.6375
2246.45456	25759.9375
2249.35343	25727.4375
2252.25044	25717.3375
2255.14561	25675.0375
2258.03893	25607.8375
2260.93041	25623.8375
2263.82004	25566.5375
2266.70783	25490.5375
2269.59378	25428.8375
2272.4779	25359.4375
2275.36017	25314.3375
2278.24061	25296.7375
2281.11922	25262.6375
2283.996	25205.6375
2286.87094	25177.1375
2289.74405	25104.4375
2292.61534	25098.5375
2295.4848	25135.9375
2298.35243	25200.4375
2301.21824	25152.0375
2304.08223	25148.2375
2306.94439	25153.9375
2309.80474	25201.0375
2312.66327	25199.4375
2315.51999	25176.1375
2318.37489	25220.3375
2321.22797	25173.2375
2324.07925	25141.9375
2326.92871	25146.3375
2329.77637	25120.4375
2332.62222	25114.4375
2335.46626	25111.4375
2338.3085	25112.4375
2341.14893	25104.1375
2343.98756	25137.3375
2346.8244	25083.4375
2349.65943	25110.5375
2352.49267	25085.3375
2355.32411	25144.7375
2358.15376	25128.0375
2360.98161	25115.2375
2363.80768	25047.0375
2366.63195	25074.3375
2369.45444	25006.3375
2372.27514	24985.8375
2375.09405	24949.9375
2377.91118	24895.5375
2380.72652	24885.7375
2383.54009	24789.4375
2386.35187	24743.1375
2389.16188	24683.1375
2391.97011	24640.2375
2394.77657	24642.5375
2397.58125	24581.7375
2400.38416	24600.7375
2403.18529	24551.7375
2405.98466	24533.0375
2408.78226	24439.8375
2411.57809	24443.9375
2414.37216	24402.4375
2417.16446	24373.7375
2419.955	24336.1375
2422.74378	24326.1375
2425.5308	24333.5375
2428.31606	24333.2375
2431.09956	24331.5375
2433.88131	24240.0375
2436.6613	24247.9375
2439.43954	24278.1375
2442.21603	24305.3375
2444.99077	24279.6375
2447.76377	24271.7375
2450.53501	24263.6375
2453.30451	24265.7375
2456.07226	24236.1375
2458.83827	24241.2375
2461.60254	24255.8375
2464.36507	24221.1375
2467.12586	24203.5375
2469.88492	24205.8375
2472.64224	24222.8375
2475.39782	24237.1375
2478.15167	24266.8375
2480.90379	24317.8375
2483.65417	24326.6375
2486.40283	24356.2375
2489.14976	24345.5375
2491.89497	24329.6375
2494.63845	24374.6375
2497.3802	24381.0375
2500.12024	24363.4375
2502.85855	24358.0375
2505.59514	24319.3375
2508.33002	24323.4375
2511.06318	24300.6375
2513.79462	24234.8375
2516.52435	24190.2375
2519.25237	24161.9375
2521.97867	24168.8375
2524.70327	24178.4375
2527.42616	24135.3375
2530.14734	24126.5375
2532.86681	24116.2375
2535.58458	24132.5375
2538.30065	24079.9375
2541.01501	24124.5375
2543.72768	24099.6375
2546.43864	24107.8375
2549.14791	24062.2375
2551.85548	24060.7375
2554.56136	24001.2375
2557.26554	23975.5375
2559.96803	23911.0375
2562.66883	23922.2375
2565.36794	23948.0375
2568.06536	23902.4375
2570.7611	23851.8375
2573.45514	23841.0375
2576.14751	23872.3375
2578.83819	23820.6375
2581.52719	23842.3375
2584.21451	23835.4375
2586.90015	23818.5375
2589.58411	23816.0375
2592.2664	23796.8375
2594.94701	23779.1375
2597.62594	23813.7375
2600.30321	23798.1375
2602.9788	23753.1375
2605.65273	23702.0375
2608.32498	23718.2375
2610.99557	23722.7375
2613.66449	23714.7375
2616.33175	23745.3375
2618.99734	23788.8375
2621.66128	23791.6375
2624.32355	23758.2375
2626.98416	23801.2375
2629.64311	23748.4375
2632.30041	23744.3375
2634.95605	23745.2375
2637.61004	23742.2375
2640.26238	23680.0375
2642.91306	23627.2375
2645.56209	23648.7375
2648.20948	23612.8375
2650.85521	23569.8375
2653.4993	23603.2375
2656.14175	23555.5375
2658.78255	23644.1375
2661.42171	23624.9375
2664.05923	23669.2375
2666.6951	23668.4375
2669.32934	23660.1375
2671.96194	23669.8375
2674.59291	23704.1375
2677.22224	23684.1375
2679.84993	23709.7375
2682.476	23647.0375
2685.10043	23651.1375
2687.72324	23622.8375
2690.34441	23642.8375
2692.96396	23602.4375
2695.58188	23635.2375
2698.19818	23605.9375
2700.81285	23653.8375
2703.4259	23593.5375
2706.03733	23674.0375
2708.64714	23644.6375
2711.25533	23678.3375
2713.86191	23680.8375
2716.46687	23732.7375
2719.07021	23739.7375
2721.67194	23734.9375
2724.27206	23728.7375
2726.87057	23754.5375
2729.46747	23783.5375
2732.06276	23838.2375
2734.65644	23838.7375
2737.24852	23808.1375
2739.83899	23762.7375
2742.42786	23778.8375
2745.01513	23701.6375
2747.60079	23671.5375
2750.18486	23664.1375
2752.76733	23693.5375
2755.3482	23638.6375
2757.92747	23685.0375
2760.50515	23621.4375
2763.08123	23607.6375
2765.65573	23605.1375
2768.22863	23638.3375
2770.79994	23620.9375
2773.36967	23654.7375
2775.9378	23620.8375
2778.50435	23630.2375
2781.06932	23620.5375
2783.6327	23587.6375
2786.1945	23598.1375
2788.75471	23596.1375
2791.31335	23497.4375
2793.87041	23546.8375
2796.42589	23463.5375
2798.97979	23492.2375
2801.53212	23433.6375
2804.08288	23413.9375
2806.63206	23343.5375
2809.17967	23304.2375
2811.72571	23286.3375
2814.27018	23249.8375
2816.81308	23175.4375
2819.35442	23165.0375
2821.89419	23104.8375
2824.43239	23075.0375
2826.96904	23071.6375
2829.50412	23045.7375
2832.03763	22996.7375
2834.56959	22993.0375
2837.1	22987.2375
2839.62884	23027.7375
2842.15613	22988.3375
2844.68186	22996.4375
2847.20604	22973.0375
2849.72867	22929.5375
2852.24974	22946.0375
2854.76927	22896.5375
2857.28724	22871.5375
2859.80367	22839.4375
2862.31855	22856.3375
2864.83189	22835.3375
2867.34368	22797.7375
2869.85393	22784.0375
2872.36264	22786.8375
2874.8698	22757.6375
2877.37543	22770.2375
2879.87952	22775.1375
2882.38207	22758.5375
2884.88308	22756.0375
2887.38256	22777.7375
2889.88051	22733.1375
2892.37692	22769.7375
2894.8718	22811.9375
2897.36515	22874.9375
2899.85698	22883.5375
2902.34727	22905.6375
2904.83604	22940.0375
2907.32328	22979.5375
2909.809	22958.8375
2912.29319	23050.8375
2914.77587	23036.2375
2917.25702	23057.7375
2919.73665	23013.4375
2922.21476	23006.6375
2924.69136	22966.9375
2927.16644	22963.8375
2929.64	22928.7375
2932.11205	22940.7375
2934.58258	22858.3375
2937.05161	22867.6375
2939.51912	22879.2375
2941.98513	22855.6375
2944.44962	22841.9375
2946.91261	22790.5375
2949.37409	22850.5375
2951.83407	22871.3375
2954.29254	22810.7375
2956.74951	22879.2375
2959.20498	22901.6375
2961.65895	22870.2375
2964.11142	22855.5375
2966.56239	22844.2375
2969.01186	22829.2375
2971.45984	22791.7375
2973.90632	22796.4375
2976.35131	22714.7375
2978.7948	22691.7375
2981.23681	22665.9375
2983.67732	22615.9375
2986.11635	22558.7375
2988.55388	22541.2375
2990.98993	22523.4375
2993.4245	22484.7375
2995.85758	22447.4375
2998.28917	22368.4375
3000.71928	22338.7375
3003.14791	22325.3375
3005.57506	22289.6375
3008.00073	22232.3375
3010.42493	22175.4375
3012.84764	22171.9375
3015.26888	22170.9375
3017.68865	22167.2375
3020.10694	22107.0375
3022.52376	22047.0375
3024.9391	22004.6375
