Data from AgNPs_UA_1uM_CRN_0uM_R6G_10uM_Q_RamanShift__13__12-25-55-879.txt Node

Date: Wed Jul 13 12:25:55 BST 2022
User: TCL
Spectrometer: QEP01345
Trigger mode: 4
Integration Time (sec): 7.000000E0
Scans to average: 10
Electric dark correction enabled: true
Nonlinearity correction enabled: false
Boxcar width: 0
XAxis mode: Raman Shifts
Number of Pixels in Spectrum: 1044
>>>>>Begin Spectral Data<<<<<
46.04893	-1.95
50.45542	-0.75
54.85868	-0.55
59.25871	-0.85
63.6555	117.05
68.04907	120.55
72.43941	125.45
76.82654	134.95
81.21044	137.55
85.59113	138.75
89.96862	144.05
94.34289	149.65
98.71396	151.15
103.08183	157.45
107.4465	166.25
111.80798	161.75
116.16626	170.05
120.52136	180.25
124.87327	183.85
129.222	199.45
133.56755	209.35
137.90993	226.85
142.24913	251.55
146.58517	279.05
150.91804	316.25
155.24774	380.45
159.57429	470.95
163.89768	596.25
168.21792	785.45
172.53501	1061.15
176.84895	1500.35
181.15975	2110.65
185.46741	2948.85
189.77193	4089.25
194.07331	5481.35
198.37157	7054.65
202.6667	8709.25
206.9587	10362.85
211.24758	11985.45
215.53334	13590.15
219.81599	15310.15
224.09553	17171.85
228.37195	19275.75
232.64527	21525.45
236.91549	23831.55
241.18261	26229.05
245.44663	28436.05
249.70755	30445.35
253.96539	32229.85
258.22014	33758.05
262.4718	34995.25
266.72039	35751.75
270.96589	36166.25
275.20832	36121.55
279.44768	35873.55
283.68397	35525.55
287.91719	35190.25
292.14735	34958.15
296.37445	34939.45
300.59849	35103.15
304.81948	35365.85
309.03742	35588.45
313.25231	35623.55
317.46415	35336.45
321.67296	34807.85
325.87872	34318.65
330.08145	34150.95
334.28114	34316.65
338.47781	34691.95
342.67145	35174.45
346.86207	35795.95
351.04966	36592.15
355.23424	37277.45
359.4158	37827.75
363.59435	38276.75
367.76989	38580.35
371.94243	38740.35
376.11196	38850.55
380.27849	39044.35
384.44203	39194.55
388.60257	39471.65
392.76012	39771.75
396.91468	40249.65
401.06626	40805.05
405.21485	41179.15
409.36047	41008.75
413.50311	40489.35
417.64277	40198.55
421.77947	40173.95
425.9132	40335.75
430.04396	40583.15
434.17176	40725.15
438.2966	40980.45
442.41849	41512.55
446.53742	42030.75
450.6534	42622.65
454.76644	43052.65
458.87653	43325.55
462.98368	43380.85
467.08789	43365.65
471.18916	43142.05
475.2875	42793.15
479.38291	42571.95
483.4754	42367.25
487.56496	42245.35
491.6516	42232.55
495.73531	42239.95
499.81612	42233.35
503.89401	42482.45
507.96899	42721.85
512.04106	42880.45
516.11023	42959.65
520.1765	42956.65
524.23987	42913.55
528.30034	42863.15
532.35792	42756.25
536.41261	42547.35
540.46441	42389.65
544.51333	42324.25
548.55936	42587.95
552.60252	42997.85
556.64279	43518.85
560.6802	43840.15
564.71473	44130.45
568.7464	44621.35
572.7752	45137.65
576.80114	45462.55
580.82422	45950.15
584.84444	46464.15
588.86181	46999.45
592.87633	47563.15
596.888	47758.45
600.89682	47965.05
604.9028	49213.45
608.90594	52755.65
612.90624	56057.85
616.90371	53249.35
620.89834	47426.95
624.89015	45082.55
628.87913	44911.95
632.86528	45272.05
636.84862	45529.45
640.82913	45201.15
644.80683	44547.65
648.78172	44184.55
652.75379	44337.65
656.72306	44888.65
660.68952	45451.75
664.65319	45341.45
668.61405	44946.65
672.57211	45016.15
676.52738	45116.95
680.47986	45012.25
684.42955	44827.55
688.37646	44706.55
692.32058	44956.15
696.26192	45343.35
700.20048	45842.15
704.13626	46081.75
708.06928	46065.25
711.99952	45994.05
715.927	45895.75
719.85171	45903.45
723.77365	45940.25
727.69284	45661.75
731.60928	45456.25
735.52295	45453.35
739.43388	45481.25
743.34206	45665.25
747.24749	45838.55
751.15017	46042.85
755.05012	46417.45
758.94733	47235.05
762.8418	48920.55
766.73354	51468.75
770.62254	53528.95
774.50882	53714.55
778.39237	52424.35
782.27321	50563.45
786.15132	48685.85
790.02671	47454.95
793.89938	46753.35
797.76935	46439.55
801.6366	46283.25
805.50115	46181.35
809.36299	46071.65
813.22213	46031.75
817.07857	46037.65
820.93231	46040.65
824.78336	46123.65
828.63172	46177.95
832.47738	46143.05
836.32036	46138.45
840.16066	46135.95
843.99827	46172.75
847.8332	46253.45
851.66546	46333.05
855.49504	46408.65
859.32195	46462.75
863.1462	46471.65
866.96777	46515.65
870.78668	46564.05
874.60293	46728.55
878.41652	46809.95
882.22745	47049.05
886.03573	47180.35
889.84136	47196.75
893.64433	47156.85
897.44466	47087.55
901.24235	46998.35
905.0374	46954.65
908.8298	46891.95
912.61957	46888.55
916.40671	46955.85
920.19121	47199.35
923.97308	47402.65
927.75233	47532.55
931.52895	47444.25
935.30295	47121.85
939.07433	46725.05
942.84309	46468.65
946.60924	46326.35
950.37278	46281.15
954.13371	46216.05
957.89203	46164.95
961.64774	46067.15
965.40086	46074.85
969.15137	46059.75
972.89929	45993.95
976.64461	45926.85
980.38733	45960.55
984.12747	45995.35
987.86502	46120.85
991.59999	46145.65
995.33237	46339.45
999.06217	46616.75
1002.78939	46990.75
1006.51404	47471.15
1010.23611	47954.95
1013.95561	48209.95
1017.67255	48201.95
1021.38692	48038.45
1025.09872	47728.45
1028.80796	47467.65
1032.51465	47313.95
1036.21877	47373.45
1039.92035	47347.85
1043.61937	47499.25
1047.31584	47612.95
1051.00976	47775.05
1054.70114	47937.65
1058.38998	48091.05
1062.07627	48333.15
1065.76003	48603.25
1069.44126	48975.25
1073.11995	49558.15
1076.79611	50163.95
1080.46974	50549.15
1084.14085	50801.25
1087.80943	51023.95
1091.47549	51114.95
1095.13903	50980.25
1098.80005	50719.45
1102.45857	50484.75
1106.11456	50080.35
1109.76805	49735.55
1113.41903	49576.85
1117.06751	49774.85
1120.71348	50089.15
1124.35696	50588.35
1127.99793	51036.45
1131.63641	50923.05
1135.2724	50375.35
1138.90589	49993.85
1142.5369	49759.25
1146.16542	49678.95
1149.79145	49601.75
1153.415	49571.25
1157.03607	49672.05
1160.65467	49953.15
1164.27079	50661.15
1167.88443	51619.95
1171.49561	52906.15
1175.10432	55058.15
1178.71056	57444.25
1182.31434	59411.65
1185.91565	60219.35
1189.51451	60016.55
1193.11091	59438.15
1196.70485	58526.75
1200.29634	57393.35
1203.88538	56363.25
1207.47197	55411.25
1211.05612	54543.95
1214.63782	53770.95
1218.21708	53095.15
1221.79391	52579.15
1225.36829	52189.75
1228.94024	52052.15
1232.50976	51961.45
1236.07685	51926.15
1239.6415	51870.15
1243.20374	51904.05
1246.76355	52090.35
1250.32093	52305.15
1253.8759	52697.35
1257.42845	53458.45
1260.97859	54305.05
1264.52631	55193.85
1268.07163	55916.95
1271.61453	56530.05
1275.15503	57010.25
1278.69312	57316.55
1282.22882	57625.75
1285.76211	58311.85
1289.29301	59064.25
1292.82151	59984.05
1296.34761	61045.75
1299.87133	62415.45
1303.39266	64209.85
1306.9116	66643.75
1310.42815	69021.35
1313.94233	69972.95
1317.45412	69099.05
1320.96354	67494.65
1324.47058	66113.45
1327.97525	64937.05
1331.47754	64186.35
1334.97747	63952.55
1338.47502	64085.95
1341.97022	64785.35
1345.46305	65993.25
1348.95352	67497.55
1352.44163	68797.05
1355.92738	70013.55
1359.41078	71816.45
1362.89183	73578.75
1366.37053	72157.55
1369.84688	67414.25
1373.32088	62378.05
1376.79254	59130.15
1380.26186	57517.15
1383.72883	56595.35
1387.19347	55924.15
1390.65578	55151.95
1394.11575	54512.85
1397.57339	54055.05
1401.0287	53848.35
1404.48168	53708.85
1407.93234	53675.15
1411.38068	53501.45
1414.82669	53149.55
1418.27039	52661.35
1421.71177	52218.95
1425.15083	51763.85
1428.58758	51574.55
1432.02203	51818.25
1435.45416	52112.65
1438.88399	52426.25
1442.31151	52570.05
1445.73673	52725.45
1449.15965	52759.45
1452.58027	52842.25
1455.9986	52866.45
1459.41463	53071.85
1462.82837	53527.65
1466.23982	54128.25
1469.64898	54582.35
1473.05586	55020.95
1476.46045	55246.55
1479.86276	55452.75
1483.26279	55761.95
1486.66054	56227.25
1490.05602	56848.75
1493.44922	57905.35
1496.84016	59503.45
1500.22882	61767.85
1503.61521	64732.05
1506.99934	67654.95
1510.38121	69540.75
1513.76081	69224.45
1517.13816	66799.95
1520.51324	63522.25
1523.88607	60742.35
1527.25665	59104.35
1530.62498	58286.25
1533.99105	57787.95
1537.35488	57204.05
1540.71647	56612.65
1544.07581	55978.55
1547.4329	55582.25
1550.78776	55204.65
1554.14038	54797.05
1557.49077	54816.65
1560.83892	55011.85
1564.18484	55450.05
1567.52853	55964.25
1570.86999	56470.45
1574.20922	56869.45
1577.54624	56832.45
1580.88103	55894.45
1584.2136	54847.85
1587.54395	54609.35
1590.87208	55162.15
1594.19801	56312.15
1597.52172	57730.95
1600.84321	58073.35
1604.16251	57266.05
1607.47959	56085.45
1610.79447	54555.45
1614.10715	52725.15
1617.41763	51030.45
1620.7259	49754.55
1624.03199	48996.35
1627.33587	48823.65
1630.63757	49153.55
1633.93707	50157.25
1637.23439	52145.25
1640.52951	55160.25
1643.82246	58981.85
1647.11321	62501.75
1650.40179	63934.25
1653.68819	62122.55
1656.97241	57760.95
1660.25446	53240.55
1663.53433	49925.25
1666.81203	47838.85
1670.08756	46558.85
1673.36092	45746.75
1676.63211	45205.35
1679.90115	44836.45
1683.16801	44532.75
1686.43272	44289.05
1689.69527	44032.65
1692.95567	43935.45
1696.2139	43867.55
1699.46999	43773.05
1702.72392	43730.85
1705.97571	43732.85
1709.22535	43745.75
1712.47284	43813.95
1715.71819	43774.65
1718.96139	43754.45
1722.20246	43535.75
1725.44139	43511.95
1728.67818	43404.15
1731.91284	43268.85
1735.14537	43193.95
1738.37576	43084.25
1741.60403	42915.15
1744.83017	42896.95
1748.05418	42801.15
1751.27607	42758.05
1754.49584	42666.35
1757.71349	42683.45
1760.92903	42630.65
1764.14244	42565.05
1767.35375	42584.25
1770.56294	42522.05
1773.77002	42462.85
1776.97499	42465.45
1780.17785	42409.75
1783.37861	42388.25
1786.57727	42258.55
1789.77382	42168.05
1792.96828	42191.15
1796.16064	42105.95
1799.3509	42091.15
1802.53907	42006.25
1805.72514	41982.35
1808.90913	41857.85
1812.09102	41856.15
1815.27083	41678.25
1818.44856	41625.65
1821.6242	41569.85
1824.79776	41441.05
1827.96924	41429.95
1831.13864	41387.85
1834.30597	41384.65
1837.47122	41304.45
1840.6344	41245.65
1843.7955	41283.75
1846.95454	41193.45
1850.11151	41218.55
1853.26642	41115.85
1856.41926	41132.65
1859.57004	41040.95
1862.71876	41090.15
1865.86542	41160.25
1869.01003	41074.75
1872.15258	41005.15
1875.29308	40981.45
1878.43152	40831.05
1881.56792	40794.45
1884.70227	40758.75
1887.83457	40776.45
1890.96482	40683.95
1894.09304	40571.85
1897.21921	40509.35
1900.34335	40533.35
1903.46544	40493.45
1906.58551	40388.35
1909.70353	40378.45
1912.81953	40364.55
1915.93349	40277.85
1919.04543	40260.85
1922.15534	40171.45
1925.26322	40066.35
1928.36908	40027.85
1931.47292	39954.95
1934.57473	39843.85
1937.67453	39709.65
1940.77232	39653.15
1943.86808	39547.25
1946.96184	39460.85
1950.05358	39322.65
1953.14331	39296.75
1956.23103	39149.75
1959.31675	39042.45
1962.40046	38958.15
1965.48217	38817.05
1968.56188	38717.65
1971.63959	38617.05
1974.7153	38512.55
1977.78901	38403.85
1980.86073	38267.15
1983.93046	38160.85
1986.99819	38015.75
1990.06394	37923.95
1993.1277	37833.35
1996.18947	37681.05
1999.24925	37652.35
2002.30706	37558.15
2005.36288	37399.55
2008.41672	37288.95
2011.46859	37180.45
2014.51848	37074.95
2017.56639	36979.05
2020.61233	36894.95
2023.6563	36786.05
2026.6983	36662.05
2029.73833	36616.55
2032.7764	36539.65
2035.8125	36420.05
2038.84664	36334.85
2041.87881	36286.65
2044.90903	36168.25
2047.93729	36122.75
2050.96359	36069.95
2053.98794	36010.15
2057.01034	35993.95
2060.03078	35977.75
2063.04927	35941.15
2066.06582	35937.55
2069.08042	35940.35
2072.09307	35837.25
2075.10378	35793.25
2078.11255	35750.75
2081.11938	35736.75
2084.12426	35735.95
2087.12722	35735.85
2090.12824	35696.85
2093.12732	35744.05
2096.12447	35718.45
2099.11969	35705.45
2102.11299	35718.95
2105.10435	35708.45
2108.09379	35765.65
2111.08131	35731.35
2114.0669	35777.15
2117.05057	35802.85
2120.03233	35876.25
2123.01216	35882.25
2125.99008	35916.65
2128.96609	35949.35
2131.94018	35984.25
2134.91236	35962.15
2137.88263	36026.75
2140.851	36048.25
2143.81746	36122.95
2146.78201	36036.75
2149.74466	36071.65
2152.7054	36082.65
2155.66425	36068.85
2158.6212	36001.25
2161.57625	36027.25
2164.52941	35995.65
2167.48067	35953.15
2170.43004	35976.35
2173.37752	35932.25
2176.32311	35992.45
2179.26681	36023.45
2182.20863	35976.15
2185.14856	35977.25
2188.08661	35945.15
2191.02278	35888.15
2193.95707	35907.35
2196.88948	35899.35
2199.82001	35871.05
2202.74867	35793.65
2205.67545	35718.15
2208.60037	35677.05
2211.52341	35632.35
2214.44458	35572.55
2217.36388	35470.85
2220.28132	35407.65
2223.1969	35358.45
2226.11061	35296.25
2229.02246	35197.55
2231.93245	35187.95
2234.84058	35072.45
2237.74686	35009.35
2240.65128	35001.35
2243.55385	35026.45
2246.45456	34949.25
2249.35343	34972.45
2252.25044	34910.25
2255.14561	34805.85
2258.03893	34736.15
2260.93041	34671.95
2263.82004	34580.35
2266.70783	34517.85
2269.59378	34452.85
2272.4779	34399.75
2275.36017	34290.15
2278.24061	34178.65
2281.11922	34108.65
2283.996	34041.55
2286.87094	34026.55
2289.74405	33939.25
2292.61534	33868.45
2295.4848	33859.65
2298.35243	33844.15
2301.21824	33819.95
2304.08223	33761.65
2306.94439	33728.55
2309.80474	33729.25
2312.66327	33751.05
2315.51999	33679.05
2318.37489	33589.55
2321.22797	33522.85
2324.07925	33478.25
2326.92871	33424.15
2329.77637	33402.45
2332.62222	33300.15
2335.46626	33255.85
2338.3085	33194.35
2341.14893	33083.85
2343.98756	33006.75
2346.8244	32979.25
2349.65943	32985.85
2352.49267	33029.85
2355.32411	33043.35
2358.15376	33086.85
2360.98161	32968.55
2363.80768	32935.65
2366.63195	32918.45
2369.45444	32888.25
2372.27514	32871.75
2375.09405	32853.85
2377.91118	32743.05
2380.72652	32734.15
2383.54009	32635.45
2386.35187	32534.25
2389.16188	32485.35
2391.97011	32404.45
2394.77657	32381.15
2397.58125	32267.65
2400.38416	32200.65
2403.18529	32137.95
2405.98466	32082.85
2408.78226	32039.95
2411.57809	32012.65
2414.37216	31990.35
2417.16446	32000.65
2419.955	31928.05
2422.74378	31933.25
2425.5308	31890.25
2428.31606	31875.25
2431.09956	31835.95
2433.88131	31840.15
2436.6613	31814.15
2439.43954	31727.45
2442.21603	31712.55
2444.99077	31677.75
2447.76377	31716.55
2450.53501	31661.75
2453.30451	31546.85
2456.07226	31538.65
2458.83827	31457.55
2461.60254	31368.55
2464.36507	31379.45
2467.12586	31339.55
2469.88492	31350.45
2472.64224	31280.75
2475.39782	31311.55
2478.15167	31236.65
2480.90379	31189.35
2483.65417	31250.75
2486.40283	31170.15
2489.14976	31140.25
2491.89497	31125.95
2494.63845	31098.25
2497.3802	31090.25
2500.12024	31065.95
2502.85855	31059.45
2505.59514	30993.75
2508.33002	30962.75
2511.06318	30932.05
2513.79462	30845.25
2516.52435	30810.95
2519.25237	30776.25
2521.97867	30730.35
2524.70327	30684.75
2527.42616	30623.05
2530.14734	30588.35
2532.86681	30586.65
2535.58458	30549.95
2538.30065	30467.45
2541.01501	30468.15
2543.72768	30362.75
2546.43864	30301.45
2549.14791	30275.15
2551.85548	30235.35
2554.56136	30143.65
2557.26554	30118.75
2559.96803	30055.45
2562.66883	29991.45
2565.36794	29940.75
2568.06536	29884.85
2570.7611	29814.55
2573.45514	29824.85
2576.14751	29806.95
2578.83819	29720.35
2581.52719	29706.45
2584.21451	29553.25
2586.90015	29526.15
2589.58411	29474.05
2592.2664	29387.25
2594.94701	29297.05
2597.62594	29309.15
2600.30321	29260.15
2602.9788	29174.35
2605.65273	29136.65
2608.32498	29109.15
2610.99557	29035.45
2613.66449	29035.95
2616.33175	28994.35
2618.99734	28992.45
2621.66128	28936.55
2624.32355	28915.55
2626.98416	28808.65
2629.64311	28800.65
2632.30041	28781.25
2634.95605	28755.35
2637.61004	28646.55
2640.26238	28573.45
2642.91306	28515.35
2645.56209	28466.15
2648.20948	28469.45
2650.85521	28420.85
2653.4993	28395.75
2656.14175	28409.75
2658.78255	28503.45
2661.42171	28471.35
2664.05923	28453.35
2666.6951	28453.95
2669.32934	28423.45
2671.96194	28338.05
2674.59291	28396.35
2677.22224	28383.25
2679.84993	28412.15
2682.476	28395.65
2685.10043	28398.65
2687.72324	28319.05
2690.34441	28317.45
2692.96396	28311.05
2695.58188	28352.65
2698.19818	28263.35
2700.81285	28283.75
2703.4259	28285.55
2706.03733	28332.95
2708.64714	28323.05
2711.25533	28349.85
2713.86191	28268.45
2716.46687	28322.75
2719.07021	28317.15
2721.67194	28277.25
2724.27206	28281.15
2726.87057	28291.45
2729.46747	28321.55
2732.06276	28276.35
2734.65644	28220.85
2737.24852	28245.05
2739.83899	28201.15
2742.42786	28143.45
2745.01513	28051.25
2747.60079	28107.95
2750.18486	28044.25
2752.76733	27935.35
2755.3482	27889.65
2757.92747	27917.25
2760.50515	27841.45
2763.08123	27798.55
2765.65573	27801.95
2768.22863	27796.75
2770.79994	27734.05
2773.36967	27694.45
2775.9378	27618.95
2778.50435	27593.45
2781.06932	27585.75
2783.6327	27559.95
2786.1945	27487.75
2788.75471	27403.85
2791.31335	27306.35
2793.87041	27333.75
2796.42589	27242.75
2798.97979	27206.45
2801.53212	27120.15
2804.08288	27035.65
2806.63206	26979.15
2809.17967	26957.55
2811.72571	26838.25
2814.27018	26819.05
2816.81308	26758.15
2819.35442	26697.25
2821.89419	26629.25
2824.43239	26585.05
2826.96904	26557.65
2829.50412	26564.65
2832.03763	26474.15
2834.56959	26491.15
2837.1	26418.65
2839.62884	26419.15
2842.15613	26394.65
2844.68186	26379.05
2847.20604	26341.55
2849.72867	26274.95
2852.24974	26249.25
2854.76927	26222.45
2857.28724	26176.15
2859.80367	26139.95
2862.31855	26089.05
2864.83189	26062.35
2867.34368	26006.25
2869.85393	25995.45
2872.36264	25905.95
2874.8698	25896.85
2877.37543	25880.75
2879.87952	25844.95
2882.38207	25802.85
2884.88308	25772.95
2887.38256	25764.45
2889.88051	25721.95
2892.37692	25745.15
2894.8718	25728.85
2897.36515	25773.75
2899.85698	25777.95
2902.34727	25781.25
2904.83604	25731.45
2907.32328	25779.15
2909.809	25769.05
2912.29319	25779.35
2914.77587	25764.35
2917.25702	25754.65
2919.73665	25749.75
2922.21476	25771.45
2924.69136	25649.85
2927.16644	25636.35
2929.64	25615.75
2932.11205	25574.85
2934.58258	25496.95
2937.05161	25562.55
2939.51912	25538.45
2941.98513	25561.65
2944.44962	25498.65
2946.91261	25402.15
2949.37409	25379.85
2951.83407	25428.35
2954.29254	25443.85
2956.74951	25406.15
2959.20498	25396.15
2961.65895	25344.95
2964.11142	25386.25
2966.56239	25355.15
2969.01186	25416.65
2971.45984	25342.65
2973.90632	25332.25
2976.35131	25279.35
2978.7948	25257.15
2981.23681	25176.55
2983.67732	25154.15
2986.11635	25057.55
2988.55388	25019.45
2990.98993	24938.05
2993.4245	24892.05
2995.85758	24841.95
2998.28917	24799.35
3000.71928	24741.05
3003.14791	24669.95
3005.57506	24676.75
3008.00073	24601.05
3010.42493	24555.75
3012.84764	24514.35
3015.26888	24499.45
3017.68865	24408.95
3020.10694	24383.85
3022.52376	24328.05
3024.9391	24316.65
3027.35298	24265.15
3029.76539	24227.35
3032.17632	24214.85
3034.5858	24120.25
3036.9938	24144.65
3039.40034	24088.25
3041.80542	24054.45
3044.20903	23972.65
3046.61118	23976.65
3049.01187	23891.75
3051.4111	23902.55
3053.80888	23879.35
3056.20519	23793.95
3058.60005	23744.95
3060.99345	23716.55
3063.3854	23672.45
3065.7759	23590.65
3068.16494	23523.35
3070.55254	23452.35
3072.93868	23378.45
3075.32338	23335.25
3077.70662	23295.05
3080.08842	23255.15
3082.46878	23239.75
3084.84769	23175.75
3087.22515	23187.85
3089.60118	23172.65
3091.97576	23156.45
3094.3489	23130.05
3096.72061	23139.35
3099.09087	23122.25
3101.4597	23137.55
3103.82709	23110.75
3106.19305	23049.55
3108.55757	23014.85
3110.92066	23006.35
3113.28232	22947.75
3115.64255	22910.05
3118.00134	22888.55
3120.35871	22841.35
3122.71466	22754.55
3125.06917	22718.95
3127.42226	22661.05
3129.77393	22707.65
3132.12417	22632.45
3134.47299	22585.55
3136.82039	22547.35
3139.16636	22585.55
3141.51092	22553.55
3143.85406	22535.35
3146.19579	22505.95
3148.53609	22487.05
3150.87499	22512.55
3153.21246	22442.95
3155.54853	22482.85
3157.88318	22469.95
3160.21642	22486.35
3162.54826	22521.05
3164.87868	22489.55
3167.2077	22468.65
3169.5353	22450.95
3171.86151	22429.15
3174.18631	22401.15
3176.5097	22396.75
3178.83169	22317.35
3181.15228	22322.65
3183.47147	22242.65
3185.78926	22222.75
3188.10565	22186.45
3190.42065	22136.05
3192.73424	22133.85
3195.04645	22073.55
3197.35725	22080.95
3199.66667	22027.05
3201.97469	22005.65
3204.28132	22003.95
3206.58656	22039.15
3208.8904	21977.35
3211.19287	21950.45
3213.49394	21972.15
3215.79363	21971.35
3218.09193	21973.95
3220.38884	22004.95
3222.68438	21988.55
3224.97853	21958.85
3227.2713	21945.45
3229.56269	21901.45
3231.8527	21868.45
3234.14133	21828.85
3236.42858	21811.85
3238.71446	21753.75
3240.99896	21674.85
