Data from AgNPs_UA_0uM_CRN_0uM_R6G_10uM_Q_RamanShift__19__11-40-38-768.txt Node

Date: Wed Jul 13 11:40:38 BST 2022
User: TCL
Spectrometer: QEP01345
Trigger mode: 4
Integration Time (sec): 7.000000E0
Scans to average: 10
Electric dark correction enabled: true
Nonlinearity correction enabled: false
Boxcar width: 0
XAxis mode: Raman Shifts
Number of Pixels in Spectrum: 1044
>>>>>Begin Spectral Data<<<<<
46.04893	0.8875
50.45542	-1.0125
54.85868	-0.5125
59.25871	-0.1125
63.6555	55.5875
68.04907	62.0875
72.43941	65.1875
76.82654	69.3875
81.21044	73.3875
85.59113	79.5875
89.96862	76.5875
94.34289	82.9875
98.71396	85.8875
103.08183	88.6875
107.4465	90.7875
111.80798	91.1875
116.16626	92.7875
120.52136	98.5875
124.87327	97.5875
129.222	100.7875
133.56755	105.8875
137.90993	115.7875
142.24913	119.6875
146.58517	132.3875
150.91804	151.7875
155.24774	172.5875
159.57429	209.6875
163.89768	267.7875
168.21792	350.7875
172.53501	476.1875
176.84895	656.8875
181.15975	920.5875
185.46741	1279.4875
189.77193	1754.3875
194.07331	2337.2875
198.37157	2988.6875
202.6667	3681.1875
206.9587	4359.2875
211.24758	5051.1875
215.53334	5772.4875
219.81599	6556.9875
224.09553	7451.4875
228.37195	8401.4875
232.64527	9471.3875
236.91549	10471.3875
241.18261	11424.5875
245.44663	12207.9875
249.70755	12943.0875
253.96539	13488.4875
258.22014	14082.2875
262.4718	14492.5875
266.72039	14810.3875
270.96589	14856.8875
275.20832	14721.9875
279.44768	14501.6875
283.68397	14222.5875
287.91719	14015.8875
292.14735	13960.7875
296.37445	14134.0875
300.59849	14540.5875
304.81948	15080.8875
309.03742	15526.2875
313.25231	15641.4875
317.46415	15289.7875
321.67296	14528.3875
325.87872	13778.2875
330.08145	13396.9875
334.28114	13366.4875
338.47781	13560.6875
342.67145	13898.8875
346.86207	14380.2875
351.04966	15077.4875
355.23424	15744.1875
359.4158	16135.7875
363.59435	16254.6875
367.76989	16179.7875
371.94243	16066.1875
376.11196	15962.5875
380.27849	15888.6875
384.44203	15771.4875
388.60257	15715.6875
392.76012	15758.2875
396.91468	15957.3875
401.06626	16302.9875
405.21485	16478.8875
409.36047	16161.6875
413.50311	15496.1875
417.64277	14944.7875
421.77947	14645.7875
425.9132	14530.8875
430.04396	14564.4875
434.17176	14623.0875
438.2966	14760.4875
442.41849	15082.5875
446.53742	15478.0875
450.6534	15818.6875
454.76644	15962.0875
458.87653	15895.8875
462.98368	15721.6875
467.08789	15497.1875
471.18916	15200.9875
475.2875	14864.2875
479.38291	14619.5875
483.4754	14433.8875
487.56496	14296.3875
491.6516	14240.1875
495.73531	14213.5875
499.81612	14237.8875
503.89401	14465.8875
507.96899	14565.8875
512.04106	14769.9875
516.11023	14910.4875
520.1765	15045.9875
524.23987	15066.6875
528.30034	14991.1875
532.35792	14848.1875
536.41261	14631.0875
540.46441	14362.2875
544.51333	14236.9875
548.55936	14326.9875
552.60252	14590.3875
556.64279	14932.6875
560.6802	15134.3875
564.71473	15415.9875
568.7464	15847.8875
572.7752	16021.4875
576.80114	15652.1875
580.82422	15349.1875
584.84444	15374.6875
588.86181	15622.2875
592.87633	15972.8875
596.888	16232.9875
600.89682	16609.8875
604.9028	18090.5875
608.90594	22173.0875
612.90624	26612.4875
616.90371	24496.7875
620.89834	18133.6875
624.89015	15415.8875
628.87913	14934.9875
632.86528	15113.2875
636.84862	15246.7875
640.82913	14902.2875
644.80683	14322.6875
648.78172	13979.6875
652.75379	14039.2875
656.72306	14467.9875
660.68952	14983.9875
664.65319	14735.8875
668.61405	14194.9875
672.57211	13972.0875
676.52738	13987.8875
680.47986	13922.7875
684.42955	13775.8875
688.37646	13674.5875
692.32058	13759.0875
696.26192	13861.1875
700.20048	14048.3875
704.13626	14066.6875
708.06928	14038.7875
711.99952	13925.9875
715.927	13931.2875
719.85171	13976.1875
723.77365	13984.4875
727.69284	13899.5875
731.60928	13819.3875
735.52295	13838.5875
739.43388	13887.5875
743.34206	13911.0875
747.24749	13916.0875
751.15017	13934.8875
755.05012	14152.9875
758.94733	14771.6875
762.8418	16287.5875
766.73354	18659.0875
770.62254	20704.4875
774.50882	21170.8875
778.39237	19963.2875
782.27321	17868.1875
786.15132	15837.5875
790.02671	14585.1875
793.89938	14045.5875
797.76935	13778.7875
801.6366	13635.9875
805.50115	13561.2875
809.36299	13493.7875
813.22213	13391.3875
817.07857	13364.0875
820.93231	13324.3875
824.78336	13366.4875
828.63172	13388.1875
832.47738	13362.4875
836.32036	13358.4875
840.16066	13340.3875
843.99827	13277.0875
847.8332	13272.0875
851.66546	13257.5875
855.49504	13239.6875
859.32195	13234.3875
863.1462	13200.2875
866.96777	13165.2875
870.78668	13132.9875
874.60293	13148.7875
878.41652	13212.5875
882.22745	13280.4875
886.03573	13333.2875
889.84136	13300.1875
893.64433	13270.6875
897.44466	13230.9875
901.24235	13204.8875
905.0374	13157.3875
908.8298	13109.3875
912.61957	13042.5875
916.40671	13071.2875
920.19121	13147.7875
923.97308	13355.1875
927.75233	13533.3875
931.52895	13663.0875
935.30295	13491.2875
939.07433	13090.6875
942.84309	12754.4875
946.60924	12629.1875
950.37278	12523.2875
954.13371	12443.8875
957.89203	12387.4875
961.64774	12312.0875
965.40086	12239.1875
969.15137	12227.2875
972.89929	12159.8875
976.64461	12138.4875
980.38733	12118.7875
984.12747	12101.5875
987.86502	12202.3875
991.59999	12281.5875
995.33237	12402.2875
999.06217	12643.7875
1002.78939	12905.7875
1006.51404	13138.6875
1010.23611	13312.1875
1013.95561	13402.0875
1017.67255	13372.9875
1021.38692	13188.2875
1025.09872	12985.2875
1028.80796	12880.2875
1032.51465	12936.6875
1036.21877	13066.3875
1039.92035	13045.0875
1043.61937	13012.2875
1047.31584	12904.3875
1051.00976	12816.7875
1054.70114	12806.9875
1058.38998	12781.2875
1062.07627	12789.8875
1065.76003	12821.9875
1069.44126	12868.8875
1073.11995	12970.2875
1076.79611	13213.3875
1080.46974	13468.8875
1084.14085	13782.3875
1087.80943	14182.7875
1091.47549	14228.6875
1095.13903	13930.0875
1098.80005	13494.4875
1102.45857	13204.4875
1106.11456	13056.4875
1109.76805	13100.2875
1113.41903	13311.6875
1117.06751	13640.0875
1120.71348	14086.3875
1124.35696	14668.7875
1127.99793	15198.2875
1131.63641	14986.8875
1135.2724	14321.3875
1138.90589	13768.6875
1142.5369	13418.6875
1146.16542	13165.7875
1149.79145	13020.3875
1153.415	12997.2875
1157.03607	13080.8875
1160.65467	13317.0875
1164.27079	13816.0875
1167.88443	14556.5875
1171.49561	15693.6875
1175.10432	17474.8875
1178.71056	19724.5875
1182.31434	21464.1875
1185.91565	21780.4875
1189.51451	21037.7875
1193.11091	19750.2875
1196.70485	18513.1875
1200.29634	17449.6875
1203.88538	16561.3875
1207.47197	15596.6875
1211.05612	14894.3875
1214.63782	14433.7875
1218.21708	14292.0875
1221.79391	14328.7875
1225.36829	14453.5875
1228.94024	14408.9875
1232.50976	14181.8875
1236.07685	14048.3875
1239.6415	14018.6875
1243.20374	14027.7875
1246.76355	14110.8875
1250.32093	14212.2875
1253.8759	14448.1875
1257.42845	14858.0875
1260.97859	15371.9875
1264.52631	15930.0875
1268.07163	16450.3875
1271.61453	16880.6875
1275.15503	17169.0875
1278.69312	17306.4875
1282.22882	17452.5875
1285.76211	17805.9875
1289.29301	18321.6875
1292.82151	18897.1875
1296.34761	19550.9875
1299.87133	20544.1875
1303.39266	22187.0875
1306.9116	24759.7875
1310.42815	27734.6875
1313.94233	29534.4875
1317.45412	28938.6875
1320.96354	26742.6875
1324.47058	24351.6875
1327.97525	22347.2875
1331.47754	21015.8875
1334.97747	20294.0875
1338.47502	20144.5875
1341.97022	20511.3875
1345.46305	21406.7875
1348.95352	22748.1875
1352.44163	24413.1875
1355.92738	26716.4875
1359.41078	30267.8875
1362.89183	33785.8875
1366.37053	32918.3875
1369.84688	27759.4875
1373.32088	22566.9875
1376.79254	19437.8875
1380.26186	17967.9875
1383.72883	17191.1875
1387.19347	16548.0875
1390.65578	15910.2875
1394.11575	15539.7875
1397.57339	15446.2875
1401.0287	15509.8875
1404.48168	15612.2875
1407.93234	15610.4875
1411.38068	15565.9875
1414.82669	15436.3875
1418.27039	15281.3875
1421.71177	15030.4875
1425.15083	14759.6875
1428.58758	14671.4875
1432.02203	14860.0875
1435.45416	15176.3875
1438.88399	15378.2875
1442.31151	15438.4875
1445.73673	15481.3875
1449.15965	15544.8875
1452.58027	15467.2875
1455.9986	15356.1875
1459.41463	15371.9875
1462.82837	15612.9875
1466.23982	15967.8875
1469.64898	16319.1875
1473.05586	16519.2875
1476.46045	16547.1875
1479.86276	16597.4875
1483.26279	16788.9875
1486.66054	16996.8875
1490.05602	17506.0875
1493.44922	18267.2875
1496.84016	19466.7875
1500.22882	21370.7875
1503.61521	24037.7875
1506.99934	27251.0875
1510.38121	30115.5875
1513.76081	31169.6875
1517.13816	29224.2875
1520.51324	25417.2875
1523.88607	21806.9875
1527.25665	19359.1875
1530.62498	17980.7875
1533.99105	17116.5875
1537.35488	16535.3875
1540.71647	16152.6875
1544.07581	15877.5875
1547.4329	15720.4875
1550.78776	15682.1875
1554.14038	15711.9875
1557.49077	15869.7875
1560.83892	16174.9875
1564.18484	16685.4875
1567.52853	17283.4875
1570.86999	17726.9875
1574.20922	18044.7875
1577.54624	17867.2875
1580.88103	16988.9875
1584.2136	15889.1875
1587.54395	15302.0875
1590.87208	15522.1875
1594.19801	16443.5875
1597.52172	17706.2875
1600.84321	18169.4875
1604.16251	17515.4875
1607.47959	16352.2875
1610.79447	15201.7875
1614.10715	14102.7875
1617.41763	13125.2875
1620.7259	12510.1875
1624.03199	12182.6875
1627.33587	12242.0875
1630.63757	12569.9875
1633.93707	13352.3875
1637.23439	14665.0875
1640.52951	16764.2875
1643.82246	19512.3875
1647.11321	22268.3875
1650.40179	23739.0875
1653.68819	22664.5875
1656.97241	19354.8875
1660.25446	15923.5875
1663.53433	13431.2875
1666.81203	11960.5875
1670.08756	11109.9875
1673.36092	10603.7875
1676.63211	10286.1875
1679.90115	10043.8875
1683.16801	9880.8875
1686.43272	9754.8875
1689.69527	9667.7875
1692.95567	9590.6875
1696.2139	9540.5875
1699.46999	9499.6875
1702.72392	9480.4875
1705.97571	9439.4875
1709.22535	9428.8875
1712.47284	9422.2875
1715.71819	9442.4875
1718.96139	9419.7875
1722.20246	9391.1875
1725.44139	9343.8875
1728.67818	9278.0875
1731.91284	9197.2875
1735.14537	9130.9875
1738.37576	9109.1875
1741.60403	9072.3875
1744.83017	9024.1875
1748.05418	8983.4875
1751.27607	8978.5875
1754.49584	8912.2875
1757.71349	8919.3875
1760.92903	8907.1875
1764.14244	8874.5875
1767.35375	8878.1875
1770.56294	8834.5875
1773.77002	8790.2875
1776.97499	8796.0875
1780.17785	8735.2875
1783.37861	8729.0875
1786.57727	8677.3875
1789.77382	8685.0875
1792.96828	8667.9875
1796.16064	8648.0875
1799.3509	8628.3875
1802.53907	8601.2875
1805.72514	8598.5875
1808.90913	8568.3875
1812.09102	8541.1875
1815.27083	8513.3875
1818.44856	8496.2875
1821.6242	8444.5875
1824.79776	8459.6875
1827.96924	8418.0875
1831.13864	8416.6875
1834.30597	8415.3875
1837.47122	8399.3875
1840.6344	8387.6875
1843.7955	8393.5875
1846.95454	8371.5875
1850.11151	8340.4875
1853.26642	8341.5875
1856.41926	8328.1875
1859.57004	8320.9875
1862.71876	8311.9875
1865.86542	8300.2875
1869.01003	8299.1875
1872.15258	8274.9875
1875.29308	8267.9875
1878.43152	8241.2875
1881.56792	8223.5875
1884.70227	8225.7875
1887.83457	8222.9875
1890.96482	8189.9875
1894.09304	8148.3875
1897.21921	8178.3875
1900.34335	8157.6875
1903.46544	8155.6875
1906.58551	8134.3875
1909.70353	8131.4875
1912.81953	8147.4875
1915.93349	8137.3875
1919.04543	8092.8875
1922.15534	8062.6875
1925.26322	8039.6875
1928.36908	8014.3875
1931.47292	8018.5875
1934.57473	7976.8875
1937.67453	7930.8875
1940.77232	7886.3875
1943.86808	7880.0875
1946.96184	7858.1875
1950.05358	7831.0875
1953.14331	7817.1875
1956.23103	7781.6875
1959.31675	7756.9875
1962.40046	7739.7875
1965.48217	7737.2875
1968.56188	7723.3875
1971.63959	7690.9875
1974.7153	7661.3875
1977.78901	7631.4875
1980.86073	7615.5875
1983.93046	7585.3875
1986.99819	7538.8875
1990.06394	7520.4875
1993.1277	7471.7875
1996.18947	7455.8875
1999.24925	7451.1875
2002.30706	7398.0875
2005.36288	7380.6875
2008.41672	7346.5875
2011.46859	7348.4875
2014.51848	7307.9875
2017.56639	7287.7875
2020.61233	7276.7875
2023.6563	7257.0875
2026.6983	7223.1875
2029.73833	7199.0875
2032.7764	7167.1875
2035.8125	7165.4875
2038.84664	7170.0875
2041.87881	7161.6875
2044.90903	7122.9875
2047.93729	7115.7875
2050.96359	7123.2875
2053.98794	7099.8875
2057.01034	7098.2875
2060.03078	7072.0875
2063.04927	7061.3875
2066.06582	7067.8875
2069.08042	7028.3875
2072.09307	7037.9875
2075.10378	7034.9875
2078.11255	7009.5875
2081.11938	7014.1875
2084.12426	7001.0875
2087.12722	7000.6875
2090.12824	7007.2875
2093.12732	7007.6875
2096.12447	7029.5875
2099.11969	7017.2875
2102.11299	6989.8875
2105.10435	7012.7875
2108.09379	7016.9875
2111.08131	7006.7875
2114.0669	7027.8875
2117.05057	7026.7875
2120.03233	7037.9875
2123.01216	7039.1875
2125.99008	7048.2875
2128.96609	7049.2875
2131.94018	7051.2875
2134.91236	7051.4875
2137.88263	7047.0875
2140.851	7049.6875
2143.81746	7037.2875
2146.78201	7032.0875
2149.74466	7015.6875
2152.7054	7026.6875
2155.66425	7007.3875
2158.6212	7001.0875
2161.57625	6996.6875
2164.52941	6994.7875
2167.48067	6978.5875
2170.43004	6978.6875
2173.37752	6975.8875
2176.32311	6984.0875
2179.26681	6986.5875
2182.20863	6999.7875
2185.14856	7003.8875
2188.08661	6992.6875
2191.02278	6996.9875
2193.95707	6985.9875
2196.88948	6964.7875
2199.82001	6952.8875
2202.74867	6935.2875
2205.67545	6946.5875
2208.60037	6918.6875
2211.52341	6920.2875
2214.44458	6916.4875
2217.36388	6900.0875
2220.28132	6867.6875
2223.1969	6865.3875
2226.11061	6852.4875
2229.02246	6829.8875
2231.93245	6839.0875
2234.84058	6803.6875
2237.74686	6787.8875
2240.65128	6793.3875
2243.55385	6785.8875
2246.45456	6776.9875
2249.35343	6787.5875
2252.25044	6771.2875
2255.14561	6772.2875
2258.03893	6766.9875
2260.93041	6764.3875
2263.82004	6746.3875
2266.70783	6721.6875
2269.59378	6704.6875
2272.4779	6694.5875
2275.36017	6675.5875
2278.24061	6649.7875
2281.11922	6644.7875
2283.996	6642.7875
2286.87094	6622.4875
2289.74405	6591.3875
2292.61534	6585.0875
2295.4848	6593.5875
2298.35243	6564.5875
2301.21824	6555.6875
2304.08223	6556.7875
2306.94439	6568.6875
2309.80474	6572.6875
2312.66327	6580.0875
2315.51999	6555.0875
2318.37489	6551.5875
2321.22797	6547.0875
2324.07925	6535.4875
2326.92871	6527.8875
2329.77637	6506.9875
2332.62222	6511.7875
2335.46626	6498.1875
2338.3085	6479.1875
2341.14893	6489.3875
2343.98756	6492.0875
2346.8244	6485.1875
2349.65943	6492.1875
2352.49267	6501.3875
2355.32411	6521.6875
2358.15376	6539.9875
2360.98161	6522.2875
2363.80768	6528.2875
2366.63195	6516.1875
2369.45444	6520.3875
2372.27514	6522.7875
2375.09405	6499.6875
2377.91118	6482.8875
2380.72652	6470.2875
2383.54009	6435.0875
2386.35187	6416.2875
2389.16188	6365.7875
2391.97011	6381.2875
2394.77657	6370.2875
2397.58125	6342.1875
2400.38416	6323.9875
2403.18529	6314.3875
2405.98466	6318.9875
2408.78226	6290.7875
2411.57809	6305.4875
2414.37216	6269.7875
2417.16446	6255.3875
2419.955	6259.3875
2422.74378	6241.0875
2425.5308	6261.8875
2428.31606	6256.0875
2431.09956	6242.9875
2433.88131	6235.8875
2436.6613	6252.9875
2439.43954	6251.8875
2442.21603	6250.0875
2444.99077	6247.7875
2447.76377	6261.0875
2450.53501	6253.7875
2453.30451	6239.4875
2456.07226	6239.6875
2458.83827	6241.6875
2461.60254	6231.3875
2464.36507	6239.0875
2467.12586	6242.0875
2469.88492	6232.9875
2472.64224	6217.8875
2475.39782	6216.2875
2478.15167	6253.1875
2480.90379	6226.0875
2483.65417	6249.5875
2486.40283	6245.6875
2489.14976	6265.8875
2491.89497	6281.2875
2494.63845	6259.0875
2497.3802	6249.5875
2500.12024	6269.2875
2502.85855	6250.4875
2505.59514	6247.5875
2508.33002	6232.1875
2511.06318	6198.7875
2513.79462	6169.2875
2516.52435	6153.9875
2519.25237	6142.2875
2521.97867	6125.9875
2524.70327	6116.8875
2527.42616	6096.4875
2530.14734	6082.4875
2532.86681	6093.1875
2535.58458	6078.5875
2538.30065	6097.0875
2541.01501	6093.1875
2543.72768	6072.0875
2546.43864	6076.6875
2549.14791	6068.6875
2551.85548	6068.8875
2554.56136	6076.0875
2557.26554	6082.4875
2559.96803	6059.2875
2562.66883	6030.9875
2565.36794	6028.9875
2568.06536	6029.1875
2570.7611	6014.6875
2573.45514	6017.9875
2576.14751	5996.7875
2578.83819	5988.9875
2581.52719	6020.0875
2584.21451	5987.0875
2586.90015	5967.9875
2589.58411	5967.8875
2592.2664	5968.2875
2594.94701	5970.3875
2597.62594	5975.1875
2600.30321	5959.9875
2602.9788	5937.1875
2605.65273	5926.2875
2608.32498	5928.8875
2610.99557	5899.5875
2613.66449	5919.9875
2616.33175	5930.5875
2618.99734	5947.7875
2621.66128	5925.2875
2624.32355	5912.7875
2626.98416	5914.3875
2629.64311	5940.9875
2632.30041	5920.5875
2634.95605	5897.4875
2637.61004	5898.4875
2640.26238	5868.3875
2642.91306	5869.1875
2645.56209	5864.1875
2648.20948	5843.8875
2650.85521	5836.4875
2653.4993	5837.6875
2656.14175	5836.7875
2658.78255	5854.4875
2661.42171	5856.3875
2664.05923	5848.6875
2666.6951	5866.3875
2669.32934	5884.3875
2671.96194	5864.6875
2674.59291	5887.3875
2677.22224	5887.1875
2679.84993	5883.5875
2682.476	5855.4875
2685.10043	5879.3875
2687.72324	5865.6875
2690.34441	5858.7875
2692.96396	5842.8875
2695.58188	5847.6875
2698.19818	5860.2875
2700.81285	5846.3875
2703.4259	5837.3875
2706.03733	5845.7875
2708.64714	5849.5875
2711.25533	5849.1875
2713.86191	5857.2875
2716.46687	5867.8875
2719.07021	5884.0875
2721.67194	5893.2875
2724.27206	5880.4875
2726.87057	5879.0875
2729.46747	5879.0875
2732.06276	5864.6875
2734.65644	5862.3875
2737.24852	5881.7875
2739.83899	5874.6875
2742.42786	5868.8875
2745.01513	5850.3875
2747.60079	5854.2875
2750.18486	5839.2875
2752.76733	5809.9875
2755.3482	5817.4875
2757.92747	5823.2875
2760.50515	5809.8875
2763.08123	5806.1875
2765.65573	5798.7875
2768.22863	5785.2875
2770.79994	5782.8875
2773.36967	5795.3875
2775.9378	5792.7875
2778.50435	5781.7875
2781.06932	5789.0875
2783.6327	5782.0875
2786.1945	5780.1875
2788.75471	5771.0875
2791.31335	5767.0875
2793.87041	5758.0875
2796.42589	5758.8875
2798.97979	5763.5875
2801.53212	5729.7875
2804.08288	5715.3875
2806.63206	5707.0875
2809.17967	5714.7875
2811.72571	5694.3875
2814.27018	5705.9875
2816.81308	5694.9875
2819.35442	5675.2875
2821.89419	5675.8875
2824.43239	5682.7875
2826.96904	5690.4875
2829.50412	5693.8875
2832.03763	5680.9875
2834.56959	5667.2875
2837.1	5667.9875
2839.62884	5668.5875
2842.15613	5658.1875
2844.68186	5690.1875
2847.20604	5691.4875
2849.72867	5698.5875
2852.24974	5687.2875
2854.76927	5694.6875
2857.28724	5694.8875
2859.80367	5684.1875
2862.31855	5693.8875
2864.83189	5688.2875
2867.34368	5680.4875
2869.85393	5678.2875
2872.36264	5673.0875
2874.8698	5682.4875
2877.37543	5674.8875
2879.87952	5674.0875
2882.38207	5677.4875
2884.88308	5660.2875
2887.38256	5655.5875
2889.88051	5654.3875
2892.37692	5660.4875
2894.8718	5665.0875
2897.36515	5678.7875
2899.85698	5670.8875
2902.34727	5675.9875
2904.83604	5697.5875
2907.32328	5733.8875
2909.809	5727.0875
2912.29319	5735.1875
2914.77587	5739.7875
2917.25702	5732.4875
2919.73665	5734.6875
2922.21476	5725.6875
2924.69136	5699.4875
2927.16644	5708.5875
2929.64	5699.5875
2932.11205	5685.7875
2934.58258	5661.4875
2937.05161	5672.9875
2939.51912	5651.3875
2941.98513	5648.3875
2944.44962	5639.6875
2946.91261	5617.8875
2949.37409	5621.4875
2951.83407	5627.6875
2954.29254	5616.5875
2956.74951	5615.1875
2959.20498	5610.0875
2961.65895	5626.7875
2964.11142	5626.9875
2966.56239	5604.2875
2969.01186	5600.6875
2971.45984	5589.2875
2973.90632	5586.3875
2976.35131	5581.6875
2978.7948	5570.3875
2981.23681	5555.3875
2983.67732	5549.9875
2986.11635	5510.9875
2988.55388	5519.1875
2990.98993	5509.1875
2993.4245	5493.6875
2995.85758	5486.6875
2998.28917	5472.0875
3000.71928	5484.2875
3003.14791	5459.0875
3005.57506	5458.4875
3008.00073	5452.5875
3010.42493	5450.9875
3012.84764	5432.0875
3015.26888	5448.0875
3017.68865	5438.9875
3020.10694	5420.6875
3022.52376	5426.2875
3024.9391	5415.2875
3027.35298	5382.9875
3029.76539	5400.8875
3032.17632	5406.7875
3034.5858	5391.7875
3036.9938	5379.2875
3039.40034	5361.9875
3041.80542	5357.9875
3044.20903	5358.3875
3046.61118	5352.2875
3049.01187	5343.1875
3051.4111	5332.3875
3053.80888	5351.6875
3056.20519	5326.7875
3058.60005	5319.4875
3060.99345	5299.9875
3063.3854	5290.7875
3065.7759	5283.3875
3068.16494	5279.6875
3070.55254	5258.0875
3072.93868	5257.5875
3075.32338	5234.7875
3077.70662	5234.6875
3080.08842	5231.6875
3082.46878	5242.5875
