Data from AgNPs_UA_1uM_CRN_0uM_R6G_10uM_Q_RamanShift__27__12-42-15-896.txt Node

Date: Wed Jul 13 12:42:15 BST 2022
User: TCL
Spectrometer: QEP01345
Trigger mode: 4
Integration Time (sec): 7.000000E0
Scans to average: 10
Electric dark correction enabled: true
Nonlinearity correction enabled: false
Boxcar width: 0
XAxis mode: Raman Shifts
Number of Pixels in Spectrum: 1044
>>>>>Begin Spectral Data<<<<<
46.04893	-1.8875
50.45542	-1.5875
54.85868	-1.0875
59.25871	-1.1875
63.6555	78.7125
68.04907	82.5125
72.43941	84.7125
76.82654	86.5125
81.21044	93.3125
85.59113	93.8125
89.96862	99.5125
94.34289	100.0125
98.71396	101.1125
103.08183	107.1125
107.4465	114.8125
111.80798	110.7125
116.16626	117.8125
120.52136	119.8125
124.87327	119.5125
129.222	129.3125
133.56755	137.2125
137.90993	144.1125
142.24913	153.4125
146.58517	174.4125
150.91804	191.8125
155.24774	224.7125
159.57429	271.6125
163.89768	347.5125
168.21792	452.2125
172.53501	608.7125
176.84895	834.7125
181.15975	1162.3125
185.46741	1616.6125
189.77193	2224.8125
194.07331	2978.8125
198.37157	3804.7125
202.6667	4694.4125
206.9587	5545.8125
211.24758	6411.0125
215.53334	7281.8125
219.81599	8266.1125
224.09553	9305.6125
228.37195	10523.8125
232.64527	11776.0125
236.91549	13104.9125
241.18261	14388.2125
245.44663	15520.9125
249.70755	16550.0125
253.96539	17449.0125
258.22014	18218.2125
262.4718	18848.1125
266.72039	19269.0125
270.96589	19423.4125
275.20832	19473.6125
279.44768	19342.7125
283.68397	19210.6125
287.91719	19094.7125
292.14735	19078.2125
296.37445	19163.9125
300.59849	19317.1125
304.81948	19600.1125
309.03742	19738.3125
313.25231	19613.1125
317.46415	19116.1125
321.67296	18477.5125
325.87872	18023.3125
330.08145	17869.3125
334.28114	17948.4125
338.47781	18247.7125
342.67145	18523.8125
346.86207	19042.8125
351.04966	19675.6125
355.23424	20318.9125
359.4158	20863.5125
363.59435	21200.2125
367.76989	21321.5125
371.94243	21419.4125
376.11196	21468.7125
380.27849	21553.7125
384.44203	21594.8125
388.60257	21625.4125
392.76012	21765.7125
396.91468	22080.8125
401.06626	22536.0125
405.21485	22859.2125
409.36047	22760.7125
413.50311	22464.6125
417.64277	22437.4125
421.77947	22460.8125
425.9132	22247.7125
430.04396	22360.7125
434.17176	22600.7125
438.2966	23035.2125
442.41849	23775.4125
446.53742	24674.0125
450.6534	25606.0125
454.76644	26126.9125
458.87653	26173.2125
462.98368	25769.2125
467.08789	25132.2125
471.18916	24424.0125
475.2875	23876.0125
479.38291	23503.4125
483.4754	23272.3125
487.56496	22952.2125
491.6516	22628.2125
495.73531	22389.6125
499.81612	22323.1125
503.89401	22410.6125
507.96899	22514.6125
512.04106	22540.4125
516.11023	22602.1125
520.1765	22653.8125
524.23987	22588.8125
528.30034	22448.8125
532.35792	22256.7125
536.41261	21968.7125
540.46441	21640.8125
544.51333	21630.2125
548.55936	21887.8125
552.60252	22372.2125
556.64279	22865.0125
560.6802	23138.0125
564.71473	23407.2125
568.7464	24048.3125
572.7752	24513.3125
576.80114	24625.4125
580.82422	24783.9125
584.84444	25168.7125
588.86181	25915.3125
592.87633	26823.3125
596.888	27391.8125
600.89682	27696.6125
604.9028	29029.5125
608.90594	32355.5125
612.90624	35159.7125
616.90371	32110.9125
620.89834	26689.8125
624.89015	24926.2125
628.87913	24949.7125
632.86528	24487.6125
636.84862	23827.8125
640.82913	23132.5125
644.80683	22445.8125
648.78172	22080.4125
652.75379	22168.1125
656.72306	22665.3125
660.68952	23202.8125
664.65319	23055.0125
668.61405	22631.2125
672.57211	22432.9125
676.52738	22358.2125
680.47986	22273.6125
684.42955	22200.5125
688.37646	22298.0125
692.32058	22428.7125
696.26192	22652.7125
700.20048	22937.9125
704.13626	23064.6125
708.06928	22947.8125
711.99952	22772.6125
715.927	22730.8125
719.85171	22716.4125
723.77365	22597.5125
727.69284	22342.3125
731.60928	22271.9125
735.52295	22392.9125
739.43388	22541.8125
743.34206	22771.2125
747.24749	22935.8125
751.15017	23240.1125
755.05012	23699.5125
758.94733	24568.4125
762.8418	26136.0125
766.73354	28429.0125
770.62254	30300.6125
774.50882	30518.4125
778.39237	29015.9125
782.27321	26679.6125
786.15132	24724.6125
790.02671	23706.4125
793.89938	23219.4125
797.76935	23111.5125
801.6366	23000.5125
805.50115	22878.6125
809.36299	22727.2125
813.22213	22577.8125
817.07857	22615.5125
820.93231	22637.7125
824.78336	22709.6125
828.63172	22781.8125
832.47738	22879.9125
836.32036	22996.6125
840.16066	23231.0125
843.99827	23298.4125
847.8332	23168.8125
851.66546	22980.3125
855.49504	22884.2125
859.32195	22890.2125
863.1462	22737.5125
866.96777	22586.2125
870.78668	22554.0125
874.60293	22550.3125
878.41652	22617.8125
882.22745	22755.5125
886.03573	22876.9125
889.84136	22818.8125
893.64433	22717.3125
897.44466	22660.1125
901.24235	22604.0125
905.0374	22558.6125
908.8298	22567.4125
912.61957	22612.1125
916.40671	22864.2125
920.19121	23288.0125
923.97308	23679.6125
927.75233	23963.1125
931.52895	24046.3125
935.30295	23688.0125
939.07433	23086.1125
942.84309	22724.9125
946.60924	22642.4125
950.37278	22546.5125
954.13371	22364.4125
957.89203	22131.7125
961.64774	22022.1125
965.40086	21952.4125
969.15137	21903.4125
972.89929	21848.8125
976.64461	21820.5125
980.38733	21924.7125
984.12747	22102.9125
987.86502	22340.8125
991.59999	22804.7125
995.33237	23561.1125
999.06217	24905.9125
1002.78939	26165.6125
1006.51404	26619.6125
1010.23611	26733.7125
1013.95561	26983.1125
1017.67255	27070.3125
1021.38692	26764.0125
1025.09872	26625.5125
1028.80796	27462.5125
1032.51465	28988.3125
1036.21877	30056.7125
1039.92035	29784.0125
1043.61937	28786.6125
1047.31584	27329.0125
1051.00976	25965.5125
1054.70114	25367.3125
1058.38998	25215.0125
1062.07627	25186.5125
1065.76003	25074.5125
1069.44126	25101.2125
1073.11995	25266.0125
1076.79611	25496.0125
1080.46974	25739.2125
1084.14085	26040.9125
1087.80943	26341.7125
1091.47549	26337.0125
1095.13903	25931.2125
1098.80005	25414.1125
1102.45857	24966.0125
1106.11456	24856.9125
1109.76805	24957.7125
1113.41903	25226.1125
1117.06751	25599.8125
1120.71348	25978.8125
1124.35696	26428.4125
1127.99793	26724.7125
1131.63641	26572.1125
1135.2724	26215.2125
1138.90589	25822.5125
1142.5369	25607.0125
1146.16542	25491.5125
1149.79145	25566.2125
1153.415	25795.4125
1157.03607	26097.5125
1160.65467	26542.6125
1164.27079	27382.7125
1167.88443	28689.6125
1171.49561	30793.3125
1175.10432	33803.8125
1178.71056	37484.4125
1182.31434	40544.4125
1185.91565	42018.4125
1189.51451	41511.7125
1193.11091	39386.2125
1196.70485	36959.1125
1200.29634	34842.8125
1203.88538	33268.4125
1207.47197	32026.2125
1211.05612	31184.6125
1214.63782	30983.1125
1218.21708	31388.9125
1221.79391	32013.2125
1225.36829	32401.3125
1228.94024	32093.4125
1232.50976	31250.7125
1236.07685	30541.5125
1239.6415	30186.7125
1243.20374	30140.6125
1246.76355	30397.7125
1250.32093	30840.4125
1253.8759	31664.6125
1257.42845	32678.4125
1260.97859	33610.8125
1264.52631	34331.1125
1268.07163	35107.7125
1271.61453	36104.2125
1275.15503	37438.5125
1278.69312	38890.4125
1282.22882	40140.8125
1285.76211	41003.8125
1289.29301	41654.1125
1292.82151	42590.1125
1296.34761	44038.8125
1299.87133	46298.6125
1303.39266	49526.5125
1306.9116	54034.3125
1310.42815	58956.3125
1313.94233	61876.1125
1317.45412	61198.7125
1320.96354	58258.1125
1324.47058	54923.5125
1327.97525	52291.2125
1331.47754	50707.6125
1334.97747	50279.3125
1338.47502	50626.6125
1341.97022	51242.5125
1345.46305	51383.4125
1348.95352	51244.1125
1352.44163	51443.3125
1355.92738	53036.1125
1359.41078	56503.7125
1362.89183	59219.4125
1366.37053	57110.7125
1369.84688	51293.5125
1373.32088	45466.2125
1376.79254	41743.9125
1380.26186	39968.3125
1383.72883	39250.1125
1387.19347	38842.2125
1390.65578	38477.0125
1394.11575	38607.9125
1397.57339	39366.5125
1401.0287	40530.2125
1404.48168	41547.9125
1407.93234	42254.6125
1411.38068	42458.1125
1414.82669	41910.4125
1418.27039	40526.1125
1421.71177	38732.5125
1425.15083	37377.5125
1428.58758	36819.0125
1432.02203	37043.2125
1435.45416	37560.8125
1438.88399	38079.4125
1442.31151	38363.1125
1445.73673	38699.6125
1449.15965	38945.4125
1452.58027	38853.1125
1455.9986	38674.2125
1459.41463	38678.6125
1462.82837	39110.1125
1466.23982	39803.6125
1469.64898	40425.9125
1473.05586	40908.2125
1476.46045	41172.2125
1479.86276	41398.0125
1483.26279	41606.0125
1486.66054	41830.3125
1490.05602	42322.7125
1493.44922	42871.4125
1496.84016	43354.0125
1500.22882	44014.0125
1503.61521	45073.8125
1506.99934	46678.4125
1510.38121	48207.6125
1513.76081	48926.6125
1517.13816	47821.8125
1520.51324	45583.2125
1523.88607	43405.6125
1527.25665	41995.3125
1530.62498	41155.4125
1533.99105	40725.5125
1537.35488	40527.4125
1540.71647	40372.6125
1544.07581	40026.1125
1547.4329	39564.8125
1550.78776	38926.9125
1554.14038	38286.3125
1557.49077	37953.0125
1560.83892	37742.4125
1564.18484	37636.3125
1567.52853	37475.9125
1570.86999	37347.1125
1574.20922	37372.7125
1577.54624	37355.1125
1580.88103	36960.8125
1584.2136	36830.1125
1587.54395	37890.1125
1590.87208	40439.8125
1594.19801	44245.5125
1597.52172	48503.4125
1600.84321	50384.1125
1604.16251	48688.9125
1607.47959	44517.2125
1610.79447	39776.4125
1614.10715	35791.2125
1617.41763	32885.2125
1620.7259	31210.1125
1624.03199	30455.4125
1627.33587	30649.5125
1630.63757	31717.1125
1633.93707	33741.2125
1637.23439	36573.0125
1640.52951	39978.4125
1643.82246	43425.7125
1647.11321	45852.0125
1650.40179	45825.8125
1653.68819	42702.0125
1656.97241	37690.6125
1660.25446	32843.9125
1663.53433	29438.1125
1666.81203	27299.9125
1670.08756	25916.0125
1673.36092	25063.0125
1676.63211	24518.8125
1679.90115	24088.2125
1683.16801	23793.5125
1686.43272	23629.8125
1689.69527	23487.8125
1692.95567	23323.0125
1696.2139	23275.1125
1699.46999	23249.3125
1702.72392	23193.7125
1705.97571	23206.0125
1709.22535	23202.0125
1712.47284	23204.5125
1715.71819	23181.4125
1718.96139	23150.8125
1722.20246	23116.1125
1725.44139	23011.5125
1728.67818	22940.8125
1731.91284	22867.5125
1735.14537	22779.3125
1738.37576	22677.3125
1741.60403	22578.9125
1744.83017	22560.4125
1748.05418	22493.0125
1751.27607	22479.8125
1754.49584	22448.7125
1757.71349	22480.3125
1760.92903	22465.3125
1764.14244	22439.0125
1767.35375	22399.1125
1770.56294	22418.7125
1773.77002	22405.3125
1776.97499	22394.8125
1780.17785	22391.5125
1783.37861	22364.9125
1786.57727	22331.9125
1789.77382	22284.1125
1792.96828	22322.8125
1796.16064	22294.3125
1799.3509	22313.0125
1802.53907	22281.6125
1805.72514	22264.4125
1808.90913	22204.9125
1812.09102	22154.1125
1815.27083	22122.6125
1818.44856	22074.8125
1821.6242	22058.8125
1824.79776	22024.2125
1827.96924	22025.3125
1831.13864	22018.3125
1834.30597	22019.5125
1837.47122	21950.2125
1840.6344	21974.7125
1843.7955	22010.4125
1846.95454	21987.6125
1850.11151	21983.1125
1853.26642	21984.4125
1856.41926	21986.9125
1859.57004	22014.0125
1862.71876	22025.5125
1865.86542	22077.0125
1869.01003	22086.9125
1872.15258	22086.8125
1875.29308	22094.7125
1878.43152	22103.9125
1881.56792	22114.2125
1884.70227	22147.0125
1887.83457	22126.4125
1890.96482	22125.9125
1894.09304	22074.2125
1897.21921	22090.2125
1900.34335	22107.3125
1903.46544	22088.3125
1906.58551	22104.5125
1909.70353	22140.5125
1912.81953	22122.4125
1915.93349	22107.9125
1919.04543	22104.2125
1922.15534	22057.1125
1925.26322	22025.6125
1928.36908	21972.1125
1931.47292	21916.4125
1934.57473	21928.1125
1937.67453	21836.5125
1940.77232	21816.6125
1943.86808	21710.9125
1946.96184	21706.6125
1950.05358	21631.3125
1953.14331	21503.0125
1956.23103	21466.1125
1959.31675	21405.4125
1962.40046	21335.6125
1965.48217	21294.5125
1968.56188	21208.4125
1971.63959	21183.4125
1974.7153	21126.8125
1977.78901	21122.3125
1980.86073	21016.8125
1983.93046	20987.5125
1986.99819	20885.9125
1990.06394	20840.2125
1993.1277	20780.7125
1996.18947	20727.0125
1999.24925	20673.3125
2002.30706	20640.0125
2005.36288	20557.4125
2008.41672	20509.7125
2011.46859	20472.0125
2014.51848	20418.5125
2017.56639	20339.0125
2020.61233	20378.5125
2023.6563	20282.4125
2026.6983	20241.6125
2029.73833	20226.2125
2032.7764	20237.3125
2035.8125	20164.4125
2038.84664	20151.6125
2041.87881	20171.2125
2044.90903	20160.3125
2047.93729	20101.3125
2050.96359	20131.5125
2053.98794	20095.4125
2057.01034	20087.4125
2060.03078	20049.0125
2063.04927	20056.4125
2066.06582	20028.0125
2069.08042	20034.3125
2072.09307	19977.4125
2075.10378	19942.3125
2078.11255	19943.4125
2081.11938	19922.4125
2084.12426	19888.8125
2087.12722	19879.3125
2090.12824	19874.9125
2093.12732	19853.7125
2096.12447	19868.2125
2099.11969	19861.4125
2102.11299	19869.1125
2105.10435	19913.0125
2108.09379	19895.7125
2111.08131	19922.5125
2114.0669	19946.6125
2117.05057	19916.2125
2120.03233	19970.7125
2123.01216	19970.9125
2125.99008	19956.8125
2128.96609	19996.9125
2131.94018	20006.9125
2134.91236	20027.0125
2137.88263	20074.3125
2140.851	20083.5125
2143.81746	20120.1125
2146.78201	20101.2125
2149.74466	20087.3125
2152.7054	20180.1125
2155.66425	20116.1125
2158.6212	20140.0125
2161.57625	20107.4125
2164.52941	20129.8125
2167.48067	20150.6125
2170.43004	20111.9125
2173.37752	20115.2125
2176.32311	20174.3125
2179.26681	20160.4125
2182.20863	20179.2125
2185.14856	20243.2125
2188.08661	20200.1125
2191.02278	20208.4125
2193.95707	20217.2125
2196.88948	20210.0125
2199.82001	20242.4125
2202.74867	20235.4125
2205.67545	20239.4125
2208.60037	20222.0125
2211.52341	20205.5125
2214.44458	20205.8125
2217.36388	20212.5125
2220.28132	20224.0125
2223.1969	20205.6125
2226.11061	20183.4125
2229.02246	20132.6125
2231.93245	20079.6125
2234.84058	20027.7125
2237.74686	19981.7125
2240.65128	19964.5125
2243.55385	19927.8125
2246.45456	19944.0125
2249.35343	19926.3125
2252.25044	19888.0125
2255.14561	19854.7125
2258.03893	19860.3125
2260.93041	19806.7125
2263.82004	19755.0125
2266.70783	19703.8125
2269.59378	19671.1125
2272.4779	19622.6125
2275.36017	19576.9125
2278.24061	19527.2125
2281.11922	19495.8125
2283.996	19482.8125
2286.87094	19455.5125
2289.74405	19440.3125
2292.61534	19457.8125
2295.4848	19454.4125
2298.35243	19471.1125
2301.21824	19464.7125
2304.08223	19510.3125
2306.94439	19536.9125
2309.80474	19594.6125
2312.66327	19633.9125
2315.51999	19616.1125
2318.37489	19622.2125
2321.22797	19622.0125
2324.07925	19591.6125
2326.92871	19598.4125
2329.77637	19587.4125
2332.62222	19567.1125
2335.46626	19598.1125
2338.3085	19597.7125
2341.14893	19607.3125
2343.98756	19621.4125
2346.8244	19665.3125
2349.65943	19689.1125
2352.49267	19742.2125
2355.32411	19743.0125
2358.15376	19707.2125
2360.98161	19685.3125
2363.80768	19612.0125
2366.63195	19543.4125
2369.45444	19538.2125
2372.27514	19497.8125
2375.09405	19451.4125
2377.91118	19380.7125
2380.72652	19350.6125
2383.54009	19280.4125
2386.35187	19246.7125
2389.16188	19230.7125
2391.97011	19217.9125
2394.77657	19190.0125
2397.58125	19174.8125
2400.38416	19117.7125
2403.18529	19103.3125
2405.98466	19068.6125
2408.78226	19000.1125
2411.57809	19004.3125
2414.37216	18940.3125
2417.16446	18947.8125
2419.955	18872.8125
2422.74378	18846.1125
2425.5308	18837.5125
2428.31606	18858.8125
2431.09956	18842.7125
2433.88131	18810.7125
2436.6613	18845.0125
2439.43954	18791.7125
2442.21603	18792.9125
2444.99077	18836.8125
2447.76377	18820.3125
2450.53501	18788.7125
2453.30451	18808.3125
2456.07226	18783.6125
2458.83827	18774.7125
2461.60254	18764.9125
2464.36507	18780.1125
2467.12586	18777.1125
2469.88492	18781.4125
2472.64224	18774.8125
2475.39782	18777.1125
2478.15167	18833.3125
2480.90379	18794.0125
2483.65417	18848.6125
2486.40283	18894.8125
2489.14976	18909.8125
2491.89497	18928.6125
2494.63845	18942.6125
2497.3802	18941.4125
2500.12024	18956.0125
2502.85855	18931.3125
2505.59514	18952.8125
2508.33002	18945.3125
2511.06318	18909.9125
2513.79462	18827.0125
2516.52435	18809.7125
2519.25237	18802.0125
2521.97867	18788.6125
2524.70327	18797.0125
2527.42616	18782.5125
2530.14734	18792.0125
2532.86681	18782.5125
2535.58458	18813.2125
2538.30065	18805.9125
2541.01501	18853.4125
2543.72768	18797.5125
2546.43864	18741.8125
2549.14791	18736.2125
2551.85548	18765.0125
2554.56136	18698.0125
2557.26554	18683.5125
2559.96803	18704.5125
2562.66883	18664.3125
2565.36794	18645.1125
2568.06536	18618.5125
2570.7611	18582.0125
2573.45514	18612.1125
2576.14751	18654.8125
2578.83819	18673.2125
2581.52719	18680.7125
2584.21451	18673.8125
2586.90015	18655.5125
2589.58411	18667.7125
2592.2664	18679.9125
2594.94701	18628.9125
2597.62594	18646.0125
2600.30321	18622.6125
2602.9788	18663.4125
2605.65273	18631.0125
2608.32498	18643.6125
2610.99557	18650.0125
2613.66449	18646.1125
2616.33175	18679.9125
2618.99734	18710.6125
2621.66128	18728.2125
2624.32355	18778.7125
2626.98416	18795.4125
2629.64311	18790.8125
2632.30041	18844.6125
2634.95605	18822.9125
2637.61004	18786.6125
2640.26238	18715.0125
2642.91306	18668.4125
2645.56209	18571.0125
2648.20948	18542.6125
2650.85521	18514.9125
2653.4993	18504.1125
2656.14175	18517.4125
2658.78255	18547.9125
2661.42171	18572.7125
2664.05923	18607.7125
2666.6951	18598.0125
2669.32934	18597.5125
2671.96194	18621.6125
2674.59291	18629.5125
2677.22224	18659.2125
2679.84993	18691.1125
2682.476	18650.5125
2685.10043	18614.6125
2687.72324	18598.4125
2690.34441	18577.4125
2692.96396	18538.9125
2695.58188	18526.2125
2698.19818	18511.3125
2700.81285	18507.9125
2703.4259	18499.2125
2706.03733	18544.7125
2708.64714	18525.3125
2711.25533	18554.0125
2713.86191	18521.3125
2716.46687	18585.0125
2719.07021	18522.5125
2721.67194	18587.0125
2724.27206	18593.3125
2726.87057	18624.8125
2729.46747	18635.6125
2732.06276	18626.3125
2734.65644	18607.0125
2737.24852	18635.9125
2739.83899	18604.2125
2742.42786	18603.1125
2745.01513	18583.0125
2747.60079	18573.3125
2750.18486	18621.9125
2752.76733	18578.2125
2755.3482	18570.4125
2757.92747	18565.2125
2760.50515	18563.0125
2763.08123	18561.5125
2765.65573	18539.9125
2768.22863	18565.6125
2770.79994	18538.9125
2773.36967	18583.2125
2775.9378	18533.2125
2778.50435	18560.4125
2781.06932	18562.1125
2783.6327	18582.1125
2786.1945	18566.7125
2788.75471	18546.9125
2791.31335	18487.9125
2793.87041	18501.8125
2796.42589	18483.4125
2798.97979	18448.0125
2801.53212	18407.3125
2804.08288	18379.1125
2806.63206	18293.2125
2809.17967	18312.1125
2811.72571	18269.2125
2814.27018	18269.7125
2816.81308	18248.5125
2819.35442	18283.2125
2821.89419	18212.7125
2824.43239	18226.1125
2826.96904	18244.5125
2829.50412	18251.3125
2832.03763	18232.5125
2834.56959	18183.6125
2837.1	18222.0125
2839.62884	18179.9125
2842.15613	18199.5125
2844.68186	18231.4125
2847.20604	18188.9125
2849.72867	18192.2125
2852.24974	18167.0125
2854.76927	18156.2125
2857.28724	18161.8125
2859.80367	18170.2125
2862.31855	18126.1125
2864.83189	18124.3125
2867.34368	18089.0125
2869.85393	18084.8125
2872.36264	18057.9125
2874.8698	18042.6125
2877.37543	18050.9125
2879.87952	18041.5125
2882.38207	18017.4125
2884.88308	18021.9125
2887.38256	18044.1125
2889.88051	18037.3125
2892.37692	18059.3125
2894.8718	18087.5125
2897.36515	18097.9125
2899.85698	18092.3125
2902.34727	18162.4125
2904.83604	18181.3125
2907.32328	18225.8125
2909.809	18232.7125
2912.29319	18248.8125
2914.77587	18249.2125
2917.25702	18250.0125
2919.73665	18228.7125
2922.21476	18204.6125
2924.69136	18139.6125
2927.16644	18160.3125
2929.64	18112.0125
2932.11205	18078.2125
2934.58258	18040.0125
2937.05161	18036.5125
2939.51912	18043.2125
2941.98513	18052.6125
2944.44962	18073.1125
2946.91261	17989.5125
2949.37409	18023.9125
2951.83407	18028.6125
2954.29254	18040.5125
2956.74951	18003.0125
2959.20498	17994.9125
2961.65895	17933.7125
2964.11142	17969.4125
2966.56239	17972.0125
2969.01186	17974.6125
2971.45984	17922.1125
2973.90632	17862.4125
2976.35131	17850.0125
2978.7948	17769.7125
2981.23681	17732.9125
2983.67732	17726.5125
2986.11635	17651.8125
2988.55388	17631.0125
2990.98993	17628.0125
2993.4245	17553.4125
2995.85758	17535.9125
2998.28917	17473.8125
3000.71928	17445.3125
3003.14791	17434.0125
3005.57506	17426.0125
3008.00073	17376.2125
3010.42493	17344.2125
3012.84764	17317.5125
3015.26888	17319.6125
3017.68865	17268.2125
3020.10694	17264.8125
3022.52376	17216.5125
3024.9391	17218.1125
3027.35298	17130.8125
