Data from AgNPs_UA_1uM_CRN_0uM_R6G_10uM_Q_RamanShift__8__12-20-05-873.txt Node

Date: Wed Jul 13 12:20:05 BST 2022
User: TCL
Spectrometer: QEP01345
Trigger mode: 4
Integration Time (sec): 7.000000E0
Scans to average: 10
Electric dark correction enabled: true
Nonlinearity correction enabled: false
Boxcar width: 0
XAxis mode: Raman Shifts
Number of Pixels in Spectrum: 1044
>>>>>Begin Spectral Data<<<<<
46.04893	-1.4
50.45542	-1.6
54.85868	-1.9
59.25871	-0.6
63.6555	106.6
68.04907	116.2
72.43941	115.8
76.82654	121.7
81.21044	126
85.59113	127.6
89.96862	134.5
94.34289	138.9
98.71396	142.1
103.08183	144.7
107.4465	150.4
111.80798	151.1
116.16626	160.5
120.52136	164.4
124.87327	169.4
129.222	180.6
133.56755	188.4
137.90993	207.4
142.24913	225.8
146.58517	244.9
150.91804	290.5
155.24774	337
159.57429	419.6
163.89768	536.7
168.21792	709.6
172.53501	974.2
176.84895	1345.8
181.15975	1885.5
185.46741	2650.9
189.77193	3649.5
194.07331	4869.8
198.37157	6264.7
202.6667	7726.3
206.9587	9178.8
211.24758	10612.1
215.53334	12050.6
219.81599	13577.8
224.09553	15270
228.37195	17151.1
232.64527	19175
236.91549	21243.2
241.18261	23313.8
245.44663	25214.1
249.70755	26843.5
253.96539	28306.7
258.22014	29588.9
262.4718	30607.4
266.72039	31220.6
270.96589	31525.2
275.20832	31415.2
279.44768	31164.8
283.68397	30852.5
287.91719	30561.6
292.14735	30387.1
296.37445	30440.1
300.59849	30712.7
304.81948	31096.4
309.03742	31419.3
313.25231	31541.5
317.46415	31302
321.67296	30802.9
325.87872	30339.2
330.08145	30115.5
334.28114	30184.2
338.47781	30488.7
342.67145	31019.4
346.86207	31650.7
351.04966	32384.1
355.23424	33062.9
359.4158	33614.2
363.59435	33921.4
367.76989	34072.6
371.94243	34144.8
376.11196	34218.6
380.27849	34279.5
384.44203	34451.5
388.60257	34640.1
392.76012	34918.5
396.91468	35366.3
401.06626	35849.7
405.21485	36171.9
409.36047	35799.8
413.50311	35327.1
417.64277	34998.2
421.77947	34980.1
425.9132	35142.1
430.04396	35310.6
434.17176	35467.3
438.2966	35782.9
442.41849	36420.9
446.53742	37203.8
450.6534	38054.7
454.76644	38572.3
458.87653	38610.5
462.98368	38440.7
467.08789	38067.5
471.18916	37567.6
475.2875	36969.5
479.38291	36512.6
483.4754	36174.3
487.56496	35973.4
491.6516	35849.5
495.73531	35845.1
499.81612	35887.6
503.89401	36122.5
507.96899	36374.3
512.04106	36466
516.11023	36422.7
520.1765	36449.1
524.23987	36481.5
528.30034	36461.9
532.35792	36366.2
536.41261	35999.4
540.46441	35669.2
544.51333	35579.3
548.55936	35826.1
552.60252	36299.4
556.64279	37039.8
560.6802	37487.9
564.71473	37754.6
568.7464	38271.3
572.7752	38817.8
576.80114	39379.8
580.82422	40100.6
584.84444	41159.9
588.86181	42788.5
592.87633	44421.8
596.888	44613.7
600.89682	43489.3
604.9028	43644.5
608.90594	46947.3
612.90624	50213.8
616.90371	46983.1
620.89834	40486.3
624.89015	37894.6
628.87913	37754.4
632.86528	38043.7
636.84862	38130.3
640.82913	37623.2
644.80683	36897.3
648.78172	36551.8
652.75379	36701.7
656.72306	37286.3
660.68952	37831.6
664.65319	37557.8
668.61405	37111
672.57211	37147.8
676.52738	37261.4
680.47986	37142.7
684.42955	36804.4
688.37646	36755
692.32058	37047.4
696.26192	37555.7
700.20048	38023.3
704.13626	38228.2
708.06928	38200.9
711.99952	38079.2
715.927	38021.4
719.85171	38104.8
723.77365	38071.4
727.69284	37669.3
731.60928	37389.7
735.52295	37350.4
739.43388	37515.4
743.34206	37689
747.24749	37840.5
751.15017	38122.2
755.05012	38618.7
758.94733	39469.6
762.8418	41343.3
766.73354	44225.9
770.62254	46416.2
774.50882	46478.2
778.39237	44862.6
782.27321	42686.6
786.15132	40596.3
790.02671	39241.6
793.89938	38581.6
797.76935	38212.9
801.6366	38013.8
805.50115	37966.1
809.36299	37785.9
813.22213	37631
817.07857	37615.8
820.93231	37582.8
824.78336	37529.4
828.63172	37545.1
832.47738	37519.5
836.32036	37517.9
840.16066	37530.4
843.99827	37578.1
847.8332	37619.6
851.66546	37656.2
855.49504	37744.9
859.32195	37726.4
863.1462	37683.7
866.96777	37715
870.78668	37786.4
874.60293	37837.2
878.41652	37961
882.22745	38146.8
886.03573	38342.6
889.84136	38318
893.64433	38223.8
897.44466	38169.4
901.24235	38009.6
905.0374	37939
908.8298	37866.9
912.61957	37856.9
916.40671	38023.3
920.19121	38259.1
923.97308	38613.7
927.75233	38757.7
931.52895	38683.4
935.30295	38271.3
939.07433	37793.1
942.84309	37448.8
946.60924	37331.9
950.37278	37305.4
954.13371	37262.5
957.89203	37199.6
961.64774	37145.7
965.40086	37117
969.15137	37115.9
972.89929	37112.9
976.64461	37083.4
980.38733	37081
984.12747	37187.2
987.86502	37281.8
991.59999	37384.8
995.33237	37673.9
999.06217	38033.3
1002.78939	38564.1
1006.51404	39173.6
1010.23611	39795.1
1013.95561	40116.2
1017.67255	40132.6
1021.38692	39845.5
1025.09872	39263
1028.80796	38819.2
1032.51465	38723.6
1036.21877	38769.5
1039.92035	38850.4
1043.61937	38912.1
1047.31584	38910.6
1051.00976	38925.1
1054.70114	39034.9
1058.38998	39210.9
1062.07627	39407.2
1065.76003	39705.3
1069.44126	40109
1073.11995	40715.1
1076.79611	41416.8
1080.46974	41814.6
1084.14085	42137.8
1087.80943	42539.2
1091.47549	42646.7
1095.13903	42465.8
1098.80005	41918.2
1102.45857	41374
1106.11456	40981.6
1109.76805	40768.2
1113.41903	40738.1
1117.06751	41039.1
1120.71348	41444.8
1124.35696	41943.5
1127.99793	42374.5
1131.63641	42329.1
1135.2724	41799.6
1138.90589	41454.3
1142.5369	41343.3
1146.16542	41330
1149.79145	41394.9
1153.415	41425.2
1157.03607	41555.1
1160.65467	42094.8
1164.27079	43022.3
1167.88443	44410.1
1171.49561	46167
1175.10432	48751.1
1178.71056	51893.3
1182.31434	54413.6
1185.91565	55132.8
1189.51451	54379.1
1193.11091	53081.4
1196.70485	51620
1200.29634	50255.6
1203.88538	49206.1
1207.47197	48250.9
1211.05612	47561
1214.63782	46797.7
1218.21708	46027.8
1221.79391	45527.6
1225.36829	45398.6
1228.94024	45327.1
1232.50976	44949.8
1236.07685	44465.1
1239.6415	44070.5
1243.20374	44002.1
1246.76355	44163.8
1250.32093	44550.3
1253.8759	45097
1257.42845	46032.6
1260.97859	47114.9
1264.52631	48250.8
1268.07163	49229.8
1271.61453	50091.7
1275.15503	50832.6
1278.69312	51477.4
1282.22882	52129.7
1285.76211	53217.1
1289.29301	54569.7
1292.82151	56216
1296.34761	58038.1
1299.87133	60396.6
1303.39266	63299.9
1306.9116	66619.2
1310.42815	69810.5
1313.94233	71391.3
1317.45412	70240
1320.96354	67732.8
1324.47058	65409.9
1327.97525	63455.6
1331.47754	62062.8
1334.97747	61235.9
1338.47502	60888.6
1341.97022	61108.7
1345.46305	61739.3
1348.95352	62832.5
1352.44163	64261.1
1355.92738	66273.8
1359.41078	69500.6
1362.89183	72575.1
1366.37053	71198.7
1369.84688	65280.1
1373.32088	58540.9
1376.79254	54331.1
1380.26186	52631
1383.72883	52108.6
1387.19347	51665.5
1390.65578	50981.7
1394.11575	50371.6
1397.57339	50258.6
1401.0287	50270
1404.48168	50308.8
1407.93234	50157.8
1411.38068	49727.9
1414.82669	49067.8
1418.27039	48349.3
1421.71177	47551
1425.15083	46940.7
1428.58758	46738.2
1432.02203	47292.9
1435.45416	48111.9
1438.88399	48874.3
1442.31151	49148.2
1445.73673	49176.9
1449.15965	49104.3
1452.58027	48858.2
1455.9986	48624.6
1459.41463	48753
1462.82837	49360.8
1466.23982	50173.5
1469.64898	50694.1
1473.05586	51189.6
1476.46045	51382.5
1479.86276	51473.4
1483.26279	51615.6
1486.66054	51889.6
1490.05602	52528.2
1493.44922	53511.9
1496.84016	54893.6
1500.22882	56934.2
1503.61521	59682.7
1506.99934	62578.6
1510.38121	64646.7
1513.76081	64571
1517.13816	62087.5
1520.51324	58591.9
1523.88607	55849.3
1527.25665	54394.1
1530.62498	53752.1
1533.99105	53243.4
1537.35488	52614.6
1540.71647	51703.4
1544.07581	50706.7
1547.4329	49978.7
1550.78776	49397.2
1554.14038	48927.8
1557.49077	48873.6
1560.83892	49000.1
1564.18484	49426.4
1567.52853	49985.7
1570.86999	50502.6
1574.20922	51036.4
1577.54624	51074.4
1580.88103	50244.1
1584.2136	49462.1
1587.54395	49722.1
1590.87208	51162.8
1594.19801	53450.3
1597.52172	55826.2
1600.84321	56390.9
1604.16251	54901.4
1607.47959	52266.8
1610.79447	49407.8
1614.10715	46591.1
1617.41763	44240.2
1620.7259	42684.2
1624.03199	41852.7
1627.33587	41905.3
1630.63757	42632.3
1633.93707	44422.8
1637.23439	47691.4
1640.52951	52587.9
1643.82246	58488.6
1647.11321	63399.2
1650.40179	64432.7
1653.68819	60425.5
1656.97241	53606.7
1660.25446	47313.1
1663.53433	43009.6
1666.81203	40410.4
1670.08756	38835.2
1673.36092	37906
1676.63211	37202.4
1679.90115	36776.4
1683.16801	36414.3
1686.43272	36190
1689.69527	35937.4
1692.95567	35757.6
1696.2139	35699.2
1699.46999	35624.5
1702.72392	35563
1705.97571	35574.8
1709.22535	35550.9
1712.47284	35553.1
1715.71819	35543.9
1718.96139	35541.6
1722.20246	35424.7
1725.44139	35290
1728.67818	35176.9
1731.91284	35072.5
1735.14537	34901.5
1738.37576	34849.3
1741.60403	34718.4
1744.83017	34647.9
1748.05418	34595.8
1751.27607	34504.2
1754.49584	34413.4
1757.71349	34438
1760.92903	34368.5
1764.14244	34306.8
1767.35375	34305.6
1770.56294	34284
1773.77002	34275.7
1776.97499	34244.1
1780.17785	34195.5
1783.37861	34118.8
1786.57727	34033.2
1789.77382	34002.9
1792.96828	33965.9
1796.16064	33920.1
1799.3509	33908
1802.53907	33831.8
1805.72514	33788.3
1808.90913	33705
1812.09102	33661.6
1815.27083	33547
1818.44856	33491.5
1821.6242	33427.7
1824.79776	33360.1
1827.96924	33326.6
1831.13864	33312.9
1834.30597	33262.8
1837.47122	33222.5
1840.6344	33200.1
1843.7955	33227.9
1846.95454	33194.9
1850.11151	33216.5
1853.26642	33145.1
1856.41926	33071.2
1859.57004	33105.1
1862.71876	33069.1
1865.86542	33115.4
1869.01003	33084.9
1872.15258	33068.9
1875.29308	33003.7
1878.43152	32903.3
1881.56792	32896.9
1884.70227	32828.2
1887.83457	32844.6
1890.96482	32773.7
1894.09304	32712.9
1897.21921	32724.3
1900.34335	32639.9
1903.46544	32623.8
1906.58551	32641
1909.70353	32583
1912.81953	32525.9
1915.93349	32486.7
1919.04543	32447.1
1922.15534	32377.8
1925.26322	32301.2
1928.36908	32266.3
1931.47292	32194.8
1934.57473	32084
1937.67453	32025.4
1940.77232	31919.5
1943.86808	31876.3
1946.96184	31830.8
1950.05358	31729.8
1953.14331	31686.2
1956.23103	31546.9
1959.31675	31467.5
1962.40046	31418.8
1965.48217	31294.4
1968.56188	31200.5
1971.63959	31138.6
1974.7153	31037.7
1977.78901	30956
1980.86073	30915.9
1983.93046	30810.3
1986.99819	30699.5
1990.06394	30609.6
1993.1277	30527.9
1996.18947	30428.4
1999.24925	30378.1
2002.30706	30311.4
2005.36288	30200.3
2008.41672	30080.4
2011.46859	29995.4
2014.51848	29922.1
2017.56639	29822
2020.61233	29780.5
2023.6563	29682.9
2026.6983	29597.8
2029.73833	29569.2
2032.7764	29493.3
2035.8125	29405.2
2038.84664	29367.7
2041.87881	29351
2044.90903	29310.1
2047.93729	29179
2050.96359	29178
2053.98794	29165.8
2057.01034	29128.3
2060.03078	29047.9
2063.04927	29091.8
2066.06582	29053.1
2069.08042	29053.1
2072.09307	29005.4
2075.10378	28933.9
2078.11255	28951.3
2081.11938	28916.5
2084.12426	28911.5
2087.12722	28917.3
2090.12824	28841.6
2093.12732	28888.3
2096.12447	28930.3
2099.11969	28897.2
2102.11299	28902.3
2105.10435	28977.5
2108.09379	28939
2111.08131	28992.3
2114.0669	28962.2
2117.05057	29023.8
2120.03233	29020.7
2123.01216	29083.8
2125.99008	29112.4
2128.96609	29105.7
2131.94018	29147.1
2134.91236	29197
2137.88263	29183.9
2140.851	29228.3
2143.81746	29223.4
2146.78201	29203.4
2149.74466	29223.7
2152.7054	29202.6
2155.66425	29189.5
2158.6212	29172.1
2161.57625	29161.4
2164.52941	29179.4
2167.48067	29168.2
2170.43004	29162.6
2173.37752	29144.4
2176.32311	29156.5
2179.26681	29189.5
2182.20863	29136.5
2185.14856	29180.3
2188.08661	29170.2
2191.02278	29167.4
2193.95707	29164.9
2196.88948	29101.8
2199.82001	29130.5
2202.74867	29075.9
2205.67545	29046.1
2208.60037	28960.6
2211.52341	28932
2214.44458	28878.3
2217.36388	28810.3
2220.28132	28766.5
2223.1969	28705.3
2226.11061	28691.8
2229.02246	28629.6
2231.93245	28585.6
2234.84058	28527.2
2237.74686	28518.6
2240.65128	28475.6
2243.55385	28478.3
2246.45456	28426.8
2249.35343	28350
2252.25044	28399.4
2255.14561	28272.4
2258.03893	28281.6
2260.93041	28212.9
2263.82004	28153.8
2266.70783	28113
2269.59378	28012.5
2272.4779	27953.9
2275.36017	27912.4
2278.24061	27830.9
2281.11922	27784.3
2283.996	27732.2
2286.87094	27747.3
2289.74405	27661.2
2292.61534	27614.2
2295.4848	27586.4
2298.35243	27567.8
2301.21824	27499.3
2304.08223	27535.7
2306.94439	27497.6
2309.80474	27532.2
2312.66327	27568.8
2315.51999	27459.6
2318.37489	27406.1
2321.22797	27371.3
2324.07925	27358.4
2326.92871	27304.7
2329.77637	27291.2
2332.62222	27248.6
2335.46626	27200.8
2338.3085	27153.7
2341.14893	27046.5
2343.98756	27051.4
2346.8244	27053.7
2349.65943	27035.1
2352.49267	27030.3
2355.32411	27111.4
2358.15376	27077.1
2360.98161	27070.6
2363.80768	27017.2
2366.63195	27001.1
2369.45444	26970.2
2372.27514	26947.6
2375.09405	26910.3
2377.91118	26884.7
2380.72652	26845.7
2383.54009	26760.8
2386.35187	26695.4
2389.16188	26642.6
2391.97011	26590.6
2394.77657	26525.9
2397.58125	26471.2
2400.38416	26430
2403.18529	26411.2
2405.98466	26380.8
2408.78226	26363.1
2411.57809	26358.3
2414.37216	26316.1
2417.16446	26302.9
2419.955	26263
2422.74378	26255.9
2425.5308	26205.1
2428.31606	26228
2431.09956	26278.7
2433.88131	26187.9
2436.6613	26147.7
2439.43954	26108.9
2442.21603	26123.9
2444.99077	26153.9
2447.76377	26109.9
2450.53501	26066
2453.30451	26039.4
2456.07226	25988.8
2458.83827	25940.9
2461.60254	25962.5
2464.36507	25921.3
2467.12586	25906.2
2469.88492	25900.1
2472.64224	25890.1
2475.39782	25858.7
2478.15167	25852.3
2480.90379	25816.7
2483.65417	25844.9
2486.40283	25832
2489.14976	25808
2491.89497	25807.2
2494.63845	25815.9
2497.3802	25816.3
2500.12024	25770.2
2502.85855	25744.6
2505.59514	25704.4
2508.33002	25709.9
2511.06318	25674.5
2513.79462	25639
2516.52435	25543.8
2519.25237	25553.1
2521.97867	25477.9
2524.70327	25509.2
2527.42616	25500
2530.14734	25433.3
2532.86681	25433.8
2535.58458	25428.8
2538.30065	25383.3
2541.01501	25371.7
2543.72768	25283.3
2546.43864	25317
2549.14791	25232.3
2551.85548	25198.8
2554.56136	25169.9
2557.26554	25130.2
2559.96803	25103.2
2562.66883	25050.4
2565.36794	25000.1
2568.06536	24964.6
2570.7611	24968.3
2573.45514	24950.7
2576.14751	24936.8
2578.83819	24877.5
2581.52719	24872.8
2584.21451	24796.4
2586.90015	24752
2589.58411	24695
2592.2664	24664.8
2594.94701	24641.1
2597.62594	24593.4
2600.30321	24520.5
2602.9788	24503.5
2605.65273	24448.5
2608.32498	24448.7
2610.99557	24458.8
2613.66449	24460.3
2616.33175	24419.4
2618.99734	24410.1
2621.66128	24378.8
2624.32355	24323.3
2626.98416	24284.8
2629.64311	24260.1
2632.30041	24287.4
2634.95605	24234.6
2637.61004	24177.2
2640.26238	24107.7
2642.91306	24086.2
2645.56209	24052.6
2648.20948	24058.1
2650.85521	24026.7
2653.4993	24011
2656.14175	24039.2
2658.78255	24026.1
2661.42171	24060.7
2664.05923	24098.6
2666.6951	24074.3
2669.32934	24103.5
2671.96194	24036.3
2674.59291	24062.6
2677.22224	24058.7
2679.84993	24111.7
2682.476	24058.4
2685.10043	24095.8
2687.72324	24024.4
2690.34441	24056.6
2692.96396	24033.3
2695.58188	24018.8
2698.19818	24021.4
2700.81285	24031.7
2703.4259	23968.1
2706.03733	24038
2708.64714	24026.9
2711.25533	24079.4
2713.86191	24052.8
2716.46687	24056.4
2719.07021	24026.9
2721.67194	24097.7
2724.27206	24051.7
2726.87057	24094.4
2729.46747	24105.4
2732.06276	24100.1
2734.65644	24076.6
2737.24852	24092.1
2739.83899	24042.4
2742.42786	24035
2745.01513	23980.6
2747.60079	23961.7
2750.18486	23935.4
2752.76733	23898.4
2755.3482	23836.9
2757.92747	23853.5
2760.50515	23796.4
2763.08123	23786.8
2765.65573	23758.9
2768.22863	23757.9
2770.79994	23713.3
2773.36967	23708.5
2775.9378	23685.5
2778.50435	23661.2
2781.06932	23607.5
2783.6327	23601.5
2786.1945	23542.5
2788.75471	23516.4
2791.31335	23472.7
2793.87041	23453.1
2796.42589	23405.4
2798.97979	23381.8
2801.53212	23347.5
2804.08288	23256.1
2806.63206	23198.3
2809.17967	23179.3
2811.72571	23098.7
2814.27018	23047.8
2816.81308	23034.9
2819.35442	22978
2821.89419	22938.8
2824.43239	22905.6
2826.96904	22903.7
2829.50412	22898.1
2832.03763	22840.3
2834.56959	22835.7
2837.1	22792
2839.62884	22757.3
2842.15613	22740.7
2844.68186	22750.2
2847.20604	22713.9
2849.72867	22711
2852.24974	22651.3
2854.76927	22625.7
2857.28724	22617.3
2859.80367	22596.1
2862.31855	22561
2864.83189	22578.7
2867.34368	22508.5
2869.85393	22503.1
2872.36264	22424.1
2874.8698	22419.7
2877.37543	22396.3
2879.87952	22375
2882.38207	22345.3
2884.88308	22320.9
2887.38256	22312
2889.88051	22262.7
2892.37692	22305.6
2894.8718	22271.7
2897.36515	22347.1
2899.85698	22326.8
2902.34727	22365
2904.83604	22319.9
2907.32328	22382.9
2909.809	22387.3
2912.29319	22403.4
2914.77587	22375.7
2917.25702	22393
2919.73665	22405.2
2922.21476	22368.5
2924.69136	22318.9
2927.16644	22288
2929.64	22243.5
2932.11205	22244.2
2934.58258	22154.9
2937.05161	22242.5
2939.51912	22212.7
2941.98513	22199.4
2944.44962	22163.4
2946.91261	22046.1
2949.37409	22122.6
2951.83407	22112.2
2954.29254	22144.6
2956.74951	22120.5
2959.20498	22102.8
2961.65895	22050.2
2964.11142	22088
2966.56239	22090.8
2969.01186	22112.9
2971.45984	22061.9
2973.90632	22061.8
2976.35131	21981.5
2978.7948	21946.4
2981.23681	21902.2
2983.67732	21835.7
2986.11635	21812.7
2988.55388	21756.1
2990.98993	21705.1
2993.4245	21655.4
2995.85758	21602.8
2998.28917	21542.2
3000.71928	21486.7
3003.14791	21457
3005.57506	21478.5
3008.00073	21420.7
3010.42493	21364.3
3012.84764	21337.8
3015.26888	21294.6
3017.68865	21264
3020.10694	21200.2
3022.52376	21190.7
3024.9391	21161
3027.35298	21117.7
3029.76539	21119.1
3032.17632	21070.9
3034.5858	21053
3036.9938	21033.6
3039.40034	21011.7
3041.80542	20970.3
3044.20903	20900.4
3046.61118	20909.4
3049.01187	20843.4
3051.4111	20834.6
3053.80888	20847.7
3056.20519	20790.8
3058.60005	20749.4
3060.99345	20673.7
3063.3854	20620.8
3065.7759	20575.9
3068.16494	20501
3070.55254	20456
3072.93868	20415.6
3075.32338	20351.7
3077.70662	20315.2
3080.08842	20305.6
3082.46878	20291.9
3084.84769	20230.8
3087.22515	20190.1
3089.60118	20210.8
3091.97576	20197.7
3094.3489	20173.1
3096.72061	20164.8
3099.09087	20193.2
3101.4597	20156.3
3103.82709	20180.3
3106.19305	20110.9
3108.55757	20093.1
3110.92066	20043.4
3113.28232	20027
3115.64255	19971.1
3118.00134	20003.3
3120.35871	19944.7
3122.71466	19874
3125.06917	19858.8
3127.42226	19821.3
3129.77393	19807
3132.12417	19775.2
3134.47299	19731.2
3136.82039	19672.2
3139.16636	19714.1
3141.51092	19722.8
3143.85406	19674.5
3146.19579	19682.4
3148.53609	19657.5
3150.87499	19682.2
3153.21246	19631.5
3155.54853	19661.5
3157.88318	19624.9
3160.21642	19685.7
3162.54826	19667.1
3164.87868	19651.1
3167.2077	19640.4
3169.5353	19625.6
3171.86151	19605.4
3174.18631	19627
3176.5097	19584.5
3178.83169	19523.2
3181.15228	19491.6
3183.47147	19457.8
3185.78926	19452.8
3188.10565	19404.8
3190.42065	19366.2
3192.73424	19354.3
3195.04645	19359.5
3197.35725	19311.7
3199.66667	19257.4
3201.97469	19293.5
3204.28132	19255.4
3206.58656	19263.4
3208.8904	19261.3
3211.19287	19269.4
3213.49394	19249.6
3215.79363	19231.6
3218.09193	19300.9
3220.38884	19272.5
3222.68438	19322.8
3224.97853	19246.4
3227.2713	19221.8
3229.56269	19198.7
3231.8527	19200.6
3234.14133	19157.5
3236.42858	19120.5
3238.71446	19103
3240.99896	19030
3243.28209	19028.6
3245.56384	18994.2
3247.84423	18982.9
3250.12324	18947.2
3252.40088	18877.8
3254.67715	18848.9
3256.95205	18876.8
3259.22558	18880.2
3261.49775	18832.8
3263.76855	18816.4
3266.03799	18809.2
3268.30606	18831.8
3270.57277	18771.3
3272.83812	18723.5
3275.10211	18645.6
3277.36474	18620.3
3279.62601	18658.8
3281.88593	18614.6
3284.14448	18601.3
3286.40168	18576.7
3288.65753	18594.7
3290.91202	18562.7
3293.16516	18514.5
3295.41695	18521.1
3297.66738	18409.8
3299.91647	18252.9
3302.16421	18174.3
3304.4106	18118.1
3306.65564	17975.2
3308.89933	17882.1
3311.14169	17770
3313.38269	17615.9
3315.62236	17510.1
3317.86068	17389.3
3320.09766	17241.2
3322.3333	17146.2
3324.5676	17046.7
3326.80056	16835
3329.03219	16725.1
3331.26248	5.7
3333.49143	1.2
3335.71905	0.8
