Data from AgNPs_UA_2uM_CRN_0uM_R6G_10uM_Q_RamanShift__0__13-01-01-908.txt Node

Date: Wed Jul 13 13:01:01 BST 2022
User: TCL
Spectrometer: QEP01345
Trigger mode: 4
Integration Time (sec): 7.000000E0
Scans to average: 10
Electric dark correction enabled: true
Nonlinearity correction enabled: false
Boxcar width: 0
XAxis mode: Raman Shifts
Number of Pixels in Spectrum: 1044
>>>>>Begin Spectral Data<<<<<
46.04893	-1.7625
50.45542	-1.9625
54.85868	-0.3625
59.25871	-0.8625
63.6555	109.2375
68.04907	116.7375
72.43941	118.2375
76.82654	126.7375
81.21044	130.2375
85.59113	134.7375
89.96862	142.9375
94.34289	139.8375
98.71396	149.7375
103.08183	154.7375
107.4465	155.3375
111.80798	160.9375
116.16626	167.9375
120.52136	171.2375
124.87327	179.8375
129.222	188.1375
133.56755	199.9375
137.90993	214.7375
142.24913	238.6375
146.58517	258.8375
150.91804	300.0375
155.24774	362.8375
159.57429	448.9375
163.89768	569.8375
168.21792	751.1375
172.53501	1023.6375
176.84895	1428.3375
181.15975	2015.1375
185.46741	2822.2375
189.77193	3895.8375
194.07331	5223.9375
198.37157	6723.8375
202.6667	8319.3375
206.9587	9901.7375
211.24758	11462.7375
215.53334	13030.4375
219.81599	14754.4375
224.09553	16605.7375
228.37195	18667.4375
232.64527	20901.3375
236.91549	23163.0375
241.18261	25401.3375
245.44663	27400.9375
249.70755	29067.8375
253.96539	30666.8375
258.22014	31986.7375
262.4718	33049.5375
266.72039	33789.5375
270.96589	34086.2375
275.20832	34025.5375
279.44768	33775.8375
283.68397	33405.9375
287.91719	33061.3375
292.14735	32971.1375
296.37445	33074.6375
300.59849	33589.1375
304.81948	34091.7375
309.03742	34586.9375
313.25231	34651.2375
317.46415	34122.8375
321.67296	33188.8375
325.87872	32440.5375
330.08145	32150.4375
334.28114	32235.5375
338.47781	32624.8375
342.67145	33212.5375
346.86207	33965.8375
351.04966	34895.5375
355.23424	35824.6375
359.4158	36550.3375
363.59435	37028.3375
367.76989	37228.8375
371.94243	37310.7375
376.11196	37355.4375
380.27849	37328.6375
384.44203	37376.5375
388.60257	37470.1375
392.76012	37712.9375
396.91468	38203.1375
401.06626	38841.2375
405.21485	39128.8375
409.36047	38844.1375
413.50311	38065.4375
417.64277	37489.1375
421.77947	37243.7375
425.9132	37159.8375
430.04396	37213.7375
434.17176	37440.7375
438.2966	37707.3375
442.41849	38225.1375
446.53742	38849.2375
450.6534	39503.1375
454.76644	39946.8375
458.87653	40129.2375
462.98368	40122.6375
467.08789	39941.3375
471.18916	39602.2375
475.2875	39184.2375
479.38291	38774.2375
483.4754	38508.9375
487.56496	38439.5375
491.6516	38412.8375
495.73531	38430.4375
499.81612	38492.8375
503.89401	38794.8375
507.96899	38996.0375
512.04106	39029.6375
516.11023	39147.3375
520.1765	39210.7375
524.23987	39198.1375
528.30034	39118.8375
532.35792	38943.4375
536.41261	38656.4375
540.46441	38369.5375
544.51333	38260.9375
548.55936	38506.5375
552.60252	38979.8375
556.64279	39516.6375
560.6802	39785.2375
564.71473	40081.6375
568.7464	40638.5375
572.7752	40939.3375
576.80114	40852.9375
580.82422	40954.0375
584.84444	41272.4375
588.86181	41699.3375
592.87633	42159.0375
596.888	42583.6375
600.89682	43075.8375
604.9028	45315.2375
608.90594	50695.8375
612.90624	55826.3375
616.90371	52065.4375
620.89834	43841.3375
624.89015	40618.4375
628.87913	40293.2375
632.86528	40770.5375
636.84862	41047.4375
640.82913	40642.9375
644.80683	39842.3375
648.78172	39408.9375
652.75379	39558.4375
656.72306	40278.3375
660.68952	41093.5375
664.65319	40808.0375
668.61405	40217.8375
672.57211	40211.0375
676.52738	40378.7375
680.47986	40135.6375
684.42955	39799.4375
688.37646	39761.4375
692.32058	40041.1375
696.26192	40557.3375
700.20048	40989.5375
704.13626	41185.9375
708.06928	41110.2375
711.99952	40919.5375
715.927	40830.5375
719.85171	41001.4375
723.77365	40945.0375
727.69284	40558.3375
731.60928	40296.7375
735.52295	40255.8375
739.43388	40314.0375
743.34206	40481.8375
747.24749	40511.8375
751.15017	40725.4375
755.05012	41117.7375
758.94733	42071.6375
762.8418	44205.8375
766.73354	47589.7375
770.62254	50364.9375
774.50882	50850.3375
778.39237	49250.1375
782.27321	46604.6375
786.15132	43977.5375
790.02671	42254.5375
793.89938	41433.1375
797.76935	41048.2375
801.6366	40832.5375
805.50115	40720.8375
809.36299	40627.9375
813.22213	40584.9375
817.07857	40531.2375
820.93231	40481.9375
824.78336	40510.5375
828.63172	40624.2375
832.47738	40612.3375
836.32036	40552.4375
840.16066	40516.0375
843.99827	40503.3375
847.8332	40535.6375
851.66546	40593.7375
855.49504	40720.9375
859.32195	40763.0375
863.1462	40718.3375
866.96777	40766.5375
870.78668	40781.0375
874.60293	40826.3375
878.41652	41049.8375
882.22745	41259.0375
886.03573	41400.4375
889.84136	41385.1375
893.64433	41276.7375
897.44466	41138.0375
901.24235	41060.8375
905.0374	41015.4375
908.8298	40892.6375
912.61957	40824.4375
916.40671	40921.3375
920.19121	41133.8375
923.97308	41404.9375
927.75233	41610.5375
931.52895	41581.2375
935.30295	41345.8375
939.07433	40841.4375
942.84309	40471.3375
946.60924	40377.3375
950.37278	40287.4375
954.13371	40210.7375
957.89203	40244.4375
961.64774	40143.9375
965.40086	40150.0375
969.15137	40106.9375
972.89929	40070.2375
976.64461	40088.4375
980.38733	40120.6375
984.12747	40209.9375
987.86502	40342.1375
991.59999	40482.9375
995.33237	40684.1375
999.06217	40957.5375
1002.78939	41286.5375
1006.51404	41829.1375
1010.23611	42320.5375
1013.95561	42551.4375
1017.67255	42568.3375
1021.38692	42375.1375
1025.09872	42015.4375
1028.80796	41746.8375
1032.51465	41690.7375
1036.21877	41782.4375
1039.92035	41802.9375
1043.61937	41942.1375
1047.31584	42013.6375
1051.00976	42018.4375
1054.70114	42132.9375
1058.38998	42332.3375
1062.07627	42559.8375
1065.76003	42882.1375
1069.44126	43349.6375
1073.11995	43966.2375
1076.79611	44619.4375
1080.46974	45057.2375
1084.14085	45336.3375
1087.80943	45803.4375
1091.47549	45908.4375
1095.13903	45686.0375
1098.80005	45241.8375
1102.45857	44818.0375
1106.11456	44390.5375
1109.76805	44064.1375
1113.41903	43975.7375
1117.06751	44203.4375
1120.71348	44777.2375
1124.35696	45417.6375
1127.99793	45933.2375
1131.63641	45694.0375
1135.2724	44929.0375
1138.90589	44368.2375
1142.5369	44142.5375
1146.16542	43953.1375
1149.79145	43853.2375
1153.415	43694.7375
1157.03607	43711.3375
1160.65467	44031.7375
1164.27079	44831.7375
1167.88443	45843.0375
1171.49561	47427.7375
1175.10432	49780.5375
1178.71056	52744.6375
1182.31434	54996.2375
1185.91565	55602.6375
1189.51451	55166.8375
1193.11091	54195.5375
1196.70485	52935.5375
1200.29634	51849.5375
1203.88538	50787.4375
1207.47197	49535.4375
1211.05612	48486.8375
1214.63782	47709.0375
1218.21708	46938.9375
1221.79391	46418.8375
1225.36829	46075.3375
1228.94024	45910.0375
1232.50976	45842.9375
1236.07685	45778.4375
1239.6415	45829.1375
1243.20374	45949.0375
1246.76355	46108.3375
1250.32093	46494.1375
1253.8759	46972.7375
1257.42845	47808.5375
1260.97859	48799.4375
1264.52631	49722.1375
1268.07163	50515.9375
1271.61453	51076.0375
1275.15503	51566.4375
1278.69312	51797.6375
1282.22882	52104.4375
1285.76211	52732.2375
1289.29301	53621.3375
1292.82151	54538.1375
1296.34761	55675.9375
1299.87133	57171.2375
1303.39266	59447.6375
1306.9116	62475.2375
1310.42815	65721.2375
1313.94233	67018.5375
1317.45412	65621.6375
1320.96354	63182.1375
1324.47058	61057.3375
1327.97525	59251.0375
1331.47754	58169.8375
1334.97747	57896.7375
1338.47502	58056.2375
1341.97022	58827.4375
1345.46305	60419.3375
1348.95352	62483.5375
1352.44163	64686.5375
1355.92738	67080.0375
1359.41078	70542.9375
1362.89183	73691.6375
1366.37053	71851.5375
1369.84688	65209.6375
1373.32088	58646.4375
1376.79254	54489.3375
1380.26186	52538.0375
1383.72883	51604.6375
1387.19347	50842.9375
1390.65578	49840.4375
1394.11575	48882.1375
1397.57339	48221.8375
1401.0287	47771.6375
1404.48168	47603.7375
1407.93234	47635.9375
1411.38068	47658.6375
1414.82669	47635.4375
1418.27039	47346.3375
1421.71177	46960.4375
1425.15083	46588.4375
1428.58758	46358.6375
1432.02203	46616.8375
1435.45416	47079.9375
1438.88399	47434.2375
1442.31151	47539.1375
1445.73673	47659.6375
1449.15965	47795.8375
1452.58027	47732.1375
1455.9986	47495.3375
1459.41463	47547.5375
1462.82837	47948.7375
1466.23982	48580.7375
1469.64898	49154.8375
1473.05586	49755.6375
1476.46045	50091.7375
1479.86276	50414.2375
1483.26279	50900.0375
1486.66054	51650.6375
1490.05602	52653.2375
1493.44922	54102.9375
1496.84016	56161.4375
1500.22882	59209.0375
1503.61521	63166.3375
1506.99934	67258.3375
1510.38121	70140.5375
1513.76081	69926.3375
1517.13816	66329.7375
1520.51324	61214.6375
1523.88607	57023.4375
1527.25665	54583.0375
1530.62498	53214.4375
1533.99105	52420.1375
1537.35488	51741.1375
1540.71647	51027.9375
1544.07581	50497.4375
1547.4329	50070.1375
1550.78776	49685.4375
1554.14038	49543.1375
1557.49077	49663.1375
1560.83892	50037.3375
1564.18484	50703.9375
1567.52853	51582.9375
1570.86999	52262.5375
1574.20922	52761.2375
1577.54624	52489.5375
1580.88103	51257.7375
1584.2136	49800.1375
1587.54395	49096.5375
1590.87208	49565.1375
1594.19801	50913.5375
1597.52172	52434.7375
1600.84321	52995.1375
1604.16251	52261.0375
1607.47959	50988.3375
1610.79447	49434.9375
1614.10715	47404.6375
1617.41763	45652.0375
1620.7259	44380.4375
1624.03199	43709.7375
1627.33587	43608.3375
1630.63757	43987.5375
1633.93707	45042.5375
1637.23439	47030.6375
1640.52951	50180.1375
1643.82246	54512.4375
1647.11321	58839.2375
1650.40179	60930.9375
1653.68819	59009.7375
1656.97241	54002.8375
1660.25446	48764.5375
1663.53433	45035.1375
1666.81203	42761.7375
1670.08756	41341.6375
1673.36092	40501.3375
1676.63211	39916.2375
1679.90115	39505.7375
1683.16801	39187.5375
1686.43272	38978.8375
1689.69527	38757.0375
1692.95567	38641.8375
1696.2139	38538.2375
1699.46999	38511.1375
1702.72392	38450.4375
1705.97571	38489.3375
1709.22535	38444.2375
1712.47284	38447.3375
1715.71819	38456.5375
1718.96139	38405.4375
1722.20246	38364.1375
1725.44139	38214.8375
1728.67818	38143.3375
1731.91284	38033.3375
1735.14537	37894.5375
1738.37576	37726.5375
1741.60403	37638.7375
1744.83017	37542.9375
1748.05418	37529.1375
1751.27607	37472.7375
1754.49584	37458.2375
1757.71349	37423.7375
1760.92903	37360.3375
1764.14244	37331.6375
1767.35375	37283.8375
1770.56294	37235.4375
1773.77002	37176.5375
1776.97499	37091.1375
1780.17785	37087.5375
1783.37861	37061.5375
1786.57727	37016.6375
1789.77382	36950.2375
1792.96828	36941.7375
1796.16064	36860.4375
1799.3509	36839.4375
1802.53907	36780.5375
1805.72514	36765.4375
1808.90913	36668.7375
1812.09102	36598.6375
1815.27083	36474.2375
1818.44856	36441.0375
1821.6242	36368.4375
1824.79776	36332.3375
1827.96924	36312.4375
1831.13864	36303.0375
1834.30597	36246.5375
1837.47122	36230.9375
1840.6344	36165.0375
1843.7955	36161.6375
1846.95454	36081.3375
1850.11151	36104.4375
1853.26642	36013.2375
1856.41926	36049.8375
1859.57004	36075.6375
1862.71876	36001.8375
1865.86542	35975.0375
1869.01003	35932.5375
1872.15258	35879.1375
1875.29308	35899.3375
1878.43152	35844.8375
1881.56792	35816.8375
1884.70227	35772.7375
1887.83457	35761.5375
1890.96482	35684.3375
1894.09304	35604.6375
1897.21921	35682.5375
1900.34335	35623.5375
1903.46544	35564.2375
1906.58551	35547.7375
1909.70353	35561.4375
1912.81953	35498.6375
1915.93349	35418.6375
1919.04543	35376.2375
1922.15534	35342.7375
1925.26322	35246.6375
1928.36908	35247.0375
1931.47292	35186.3375
1934.57473	35114.7375
1937.67453	35018.9375
1940.77232	34989.0375
1943.86808	34900.4375
1946.96184	34829.2375
1950.05358	34735.8375
1953.14331	34629.1375
1956.23103	34511.1375
1959.31675	34496.5375
1962.40046	34367.5375
1965.48217	34325.1375
1968.56188	34195.5375
1971.63959	34052.5375
1974.7153	33983.3375
1977.78901	33917.0375
1980.86073	33786.0375
1983.93046	33655.8375
1986.99819	33623.1375
1990.06394	33518.2375
1993.1277	33447.1375
1996.18947	33320.5375
1999.24925	33289.1375
2002.30706	33210.8375
2005.36288	33156.8375
2008.41672	33020.8375
2011.46859	32924.6375
2014.51848	32823.1375
2017.56639	32765.1375
2020.61233	32667.1375
2023.6563	32605.7375
2026.6983	32499.4375
2029.73833	32444.8375
2032.7764	32356.9375
2035.8125	32296.1375
2038.84664	32238.5375
2041.87881	32157.1375
2044.90903	32159.6375
2047.93729	32139.8375
2050.96359	32104.9375
2053.98794	32010.6375
2057.01034	31998.4375
2060.03078	31965.8375
2063.04927	31918.5375
2066.06582	31856.1375
2069.08042	31866.0375
2072.09307	31827.8375
2075.10378	31900.6375
2078.11255	31839.9375
2081.11938	31820.3375
2084.12426	31739.9375
2087.12722	31720.8375
2090.12824	31711.5375
2093.12732	31753.3375
2096.12447	31794.8375
2099.11969	31788.4375
2102.11299	31825.8375
2105.10435	31818.6375
2108.09379	31841.2375
2111.08131	31885.9375
2114.0669	31929.2375
2117.05057	31963.3375
2120.03233	31983.0375
2123.01216	31962.9375
2125.99008	32003.5375
2128.96609	32045.7375
2131.94018	32100.7375
2134.91236	32104.3375
2137.88263	32176.1375
2140.851	32132.1375
2143.81746	32213.9375
2146.78201	32203.6375
2149.74466	32208.5375
2152.7054	32266.4375
2155.66425	32200.0375
2158.6212	32173.0375
2161.57625	32189.5375
2164.52941	32181.6375
2167.48067	32231.1375
2170.43004	32213.7375
2173.37752	32181.0375
2176.32311	32115.7375
2179.26681	32118.2375
2182.20863	32124.9375
2185.14856	32145.2375
2188.08661	32190.9375
2191.02278	32184.3375
2193.95707	32167.1375
2196.88948	32112.7375
2199.82001	32085.7375
2202.74867	32044.4375
2205.67545	32003.4375
2208.60037	31970.6375
2211.52341	31943.7375
2214.44458	31909.5375
2217.36388	31830.7375
2220.28132	31772.6375
2223.1969	31694.9375
2226.11061	31657.9375
2229.02246	31602.8375
2231.93245	31533.5375
2234.84058	31500.1375
2237.74686	31455.5375
2240.65128	31461.9375
2243.55385	31458.1375
2246.45456	31484.1375
2249.35343	31381.2375
2252.25044	31422.3375
2255.14561	31389.2375
2258.03893	31327.6375
2260.93041	31299.2375
2263.82004	31269.3375
2266.70783	31164.2375
2269.59378	31047.3375
2272.4779	30995.8375
2275.36017	30909.7375
2278.24061	30895.8375
2281.11922	30834.1375
2283.996	30779.0375
2286.87094	30727.5375
2289.74405	30642.2375
2292.61534	30614.5375
2295.4848	30644.1375
2298.35243	30637.4375
2301.21824	30595.4375
2304.08223	30559.4375
2306.94439	30580.1375
2309.80474	30505.5375
2312.66327	30515.6375
2315.51999	30480.3375
2318.37489	30478.3375
2321.22797	30461.0375
2324.07925	30378.3375
2326.92871	30361.0375
2329.77637	30293.0375
2332.62222	30272.2375
2335.46626	30200.3375
2338.3085	30191.6375
2341.14893	30151.5375
2343.98756	30105.5375
2346.8244	30071.7375
2349.65943	30062.6375
2352.49267	30044.1375
2355.32411	30103.4375
2358.15376	30080.1375
2360.98161	30076.8375
2363.80768	30051.5375
2366.63195	30050.5375
2369.45444	30025.4375
2372.27514	29995.6375
2375.09405	29966.5375
2377.91118	29978.2375
2380.72652	29892.9375
2383.54009	29837.0375
2386.35187	29775.0375
2389.16188	29652.1375
2391.97011	29587.6375
2394.77657	29531.5375
2397.58125	29477.7375
2400.38416	29468.2375
2403.18529	29360.0375
2405.98466	29400.5375
2408.78226	29315.9375
2411.57809	29301.2375
2414.37216	29281.9375
2417.16446	29249.9375
2419.955	29196.2375
2422.74378	29231.6375
2425.5308	29214.2375
2428.31606	29215.2375
2431.09956	29218.7375
2433.88131	29083.7375
2436.6613	29107.1375
2439.43954	29147.4375
2442.21603	29119.5375
2444.99077	29064.3375
2447.76377	29087.4375
2450.53501	29042.1375
2453.30451	29047.2375
2456.07226	29044.3375
2458.83827	28965.2375
2461.60254	28941.2375
2464.36507	28887.5375
2467.12586	28827.5375
2469.88492	28803.5375
2472.64224	28815.6375
2475.39782	28828.9375
2478.15167	28880.4375
2480.90379	28842.5375
2483.65417	28873.5375
2486.40283	28860.9375
2489.14976	28858.7375
2491.89497	28783.4375
2494.63845	28840.0375
2497.3802	28798.3375
2500.12024	28848.8375
2502.85855	28790.2375
2505.59514	28743.6375
2508.33002	28701.9375
2511.06318	28670.2375
2513.79462	28563.8375
2516.52435	28513.6375
2519.25237	28456.7375
2521.97867	28421.9375
2524.70327	28434.3375
2527.42616	28396.5375
2530.14734	28355.4375
2532.86681	28275.5375
2535.58458	28248.2375
2538.30065	28201.4375
2541.01501	28227.4375
2543.72768	28185.3375
2546.43864	28206.7375
2549.14791	28135.0375
2551.85548	28084.8375
2554.56136	28019.7375
2557.26554	27939.0375
2559.96803	28004.5375
2562.66883	27909.3375
2565.36794	27931.1375
2568.06536	27827.4375
2570.7611	27762.5375
2573.45514	27762.0375
2576.14751	27715.0375
2578.83819	27618.9375
2581.52719	27642.6375
2584.21451	27560.2375
2586.90015	27514.3375
2589.58411	27506.2375
2592.2664	27434.6375
2594.94701	27389.2375
2597.62594	27360.0375
2600.30321	27345.3375
2602.9788	27318.9375
2605.65273	27199.8375
2608.32498	27236.2375
2610.99557	27174.9375
2613.66449	27159.2375
2616.33175	27149.3375
2618.99734	27162.7375
2621.66128	27110.6375
2624.32355	27051.4375
2626.98416	26987.1375
2629.64311	26958.6375
2632.30041	26935.4375
2634.95605	26886.0375
2637.61004	26860.9375
2640.26238	26788.8375
2642.91306	26745.5375
2645.56209	26761.7375
2648.20948	26764.5375
2650.85521	26718.3375
2653.4993	26727.9375
2656.14175	26706.2375
2658.78255	26745.6375
2661.42171	26764.4375
2664.05923	26743.1375
2666.6951	26752.6375
2669.32934	26784.4375
2671.96194	26748.5375
2674.59291	26727.4375
2677.22224	26762.2375
2679.84993	26770.3375
2682.476	26725.9375
2685.10043	26752.0375
2687.72324	26734.7375
2690.34441	26763.1375
2692.96396	26699.2375
2695.58188	26759.1375
2698.19818	26725.6375
2700.81285	26756.9375
2703.4259	26695.9375
2706.03733	26746.5375
2708.64714	26747.0375
2711.25533	26766.3375
2713.86191	26785.6375
2716.46687	26791.8375
2719.07021	26774.6375
2721.67194	26776.1375
2724.27206	26736.2375
2726.87057	26778.4375
2729.46747	26821.4375
2732.06276	26827.8375
2734.65644	26804.5375
2737.24852	26794.7375
2739.83899	26689.1375
2742.42786	26667.7375
2745.01513	26629.4375
2747.60079	26555.0375
2750.18486	26487.4375
2752.76733	26500.4375
2755.3482	26525.6375
2757.92747	26471.8375
2760.50515	26402.3375
2763.08123	26398.8375
2765.65573	26341.2375
2768.22863	26328.4375
2770.79994	26338.7375
2773.36967	26280.1375
2775.9378	26239.4375
2778.50435	26255.1375
2781.06932	26197.5375
2783.6327	26127.7375
2786.1945	26137.4375
2788.75471	26110.2375
2791.31335	26050.4375
2793.87041	25984.0375
2796.42589	25983.8375
2798.97979	25965.3375
2801.53212	25914.2375
2804.08288	25885.7375
2806.63206	25812.3375
2809.17967	25741.4375
2811.72571	25691.0375
2814.27018	25646.2375
2816.81308	25595.6375
2819.35442	25531.3375
2821.89419	25496.8375
2824.43239	25444.8375
2826.96904	25409.6375
2829.50412	25377.5375
2832.03763	25347.5375
2834.56959	25324.6375
2837.1	25291.5375
2839.62884	25310.2375
2842.15613	25281.4375
2844.68186	25313.2375
2847.20604	25255.3375
2849.72867	25177.1375
2852.24974	25195.7375
2854.76927	25167.5375
2857.28724	25086.3375
2859.80367	25126.9375
2862.31855	25063.1375
2864.83189	25070.7375
2867.34368	24974.5375
2869.85393	24997.6375
2872.36264	24965.6375
2874.8698	24865.4375
2877.37543	24887.0375
2879.87952	24877.5375
2882.38207	24855.0375
2884.88308	24821.2375
2887.38256	24845.4375
2889.88051	24815.4375
2892.37692	24796.8375
2894.8718	24844.9375
2897.36515	24872.8375
2899.85698	24854.5375
2902.34727	24874.0375
2904.83604	24867.4375
2907.32328	24906.8375
2909.809	24936.8375
2912.29319	24957.5375
2914.77587	24916.1375
2917.25702	24919.6375
2919.73665	24898.7375
2922.21476	24869.1375
2924.69136	24812.7375
2927.16644	24809.1375
2929.64	24789.7375
2932.11205	24799.6375
2934.58258	24712.8375
2937.05161	24738.7375
2939.51912	24691.9375
2941.98513	24727.8375
2944.44962	24664.4375
2946.91261	24591.4375
2949.37409	24672.0375
2951.83407	24629.9375
2954.29254	24646.2375
2956.74951	24669.9375
2959.20498	24678.9375
2961.65895	24616.7375
2964.11142	24633.8375
2966.56239	24601.5375
2969.01186	24635.1375
2971.45984	24563.8375
2973.90632	24559.7375
2976.35131	24492.7375
2978.7948	24513.3375
2981.23681	24495.4375
2983.67732	24438.0375
2986.11635	24385.0375
2988.55388	24316.8375
2990.98993	24340.7375
2993.4245	24271.8375
2995.85758	24219.8375
2998.28917	24121.2375
3000.71928	24109.6375
3003.14791	24100.7375
3005.57506	24052.7375
3008.00073	23965.7375
3010.42493	23942.8375
3012.84764	23882.0375
3015.26888	23907.9375
3017.68865	23834.5375
3020.10694	23815.2375
3022.52376	23778.6375
3024.9391	23722.7375
