Data from AgNPs_FTO_APTES_UA_2uM_CRN_2uM_R6G_10uM_NaF_0.1M_Addition_RamanShift__32__12-36-05-087.txt Node

Date: Wed Feb 02 12:36:05 GMT 2022
User: TCL
Spectrometer: QEP01345
Trigger mode: 4
Integration Time (sec): 7.000000E0
Scans to average: 10
Electric dark correction enabled: true
Nonlinearity correction enabled: false
Boxcar width: 0
XAxis mode: Raman Shifts
Number of Pixels in Spectrum: 1044
>>>>>Begin Spectral Data<<<<<
46.04893	2.2
50.45542	0.3
54.85868	-0.8
59.25871	0.3
63.6555	40
68.04907	43.2
72.43941	47.1
76.82654	53
81.21044	54
85.59113	58.6
89.96862	57.7
94.34289	58.9
98.71396	61.5
103.08183	66.4
107.4465	65.7
111.80798	67.7
116.16626	71.8
120.52136	70.7
124.87327	75.1
129.222	74.7
133.56755	83.7
137.90993	84.6
142.24913	96.4
146.58517	109.6
150.91804	125.1
155.24774	151.4
159.57429	190.3
163.89768	248.6
168.21792	324.1
172.53501	444.3
176.84895	604.2
181.15975	852.5
185.46741	1193.7
189.77193	1621.4
194.07331	2192.2
198.37157	2812.6
202.6667	3468.8
206.9587	4115.1
211.24758	4785.9
215.53334	5502.7
219.81599	6368.8
224.09553	7302.9
228.37195	8388
232.64527	9500.2
236.91549	10560.7
241.18261	11468.7
245.44663	12082.8
249.70755	12516
253.96539	12806.2
258.22014	13149.2
262.4718	13531.8
266.72039	13856.6
270.96589	14038.5
275.20832	14028.6
279.44768	13877.1
283.68397	13658.5
287.91719	13587.8
292.14735	13709.7
296.37445	14249.6
300.59849	15101.5
304.81948	16174.9
309.03742	16981.7
313.25231	17110.7
317.46415	16048.2
321.67296	14247.3
325.87872	12726.7
330.08145	11944
334.28114	11801.8
338.47781	12014.1
342.67145	12524.3
346.86207	13313.1
351.04966	14539.6
355.23424	15924.5
359.4158	16951.5
363.59435	17330.9
367.76989	17293.8
371.94243	17060.8
376.11196	16713.3
380.27849	16421.3
384.44203	16044.7
388.60257	15585.4
392.76012	15374.4
396.91468	15506
401.06626	16075.9
405.21485	16547.1
409.36047	16082.9
413.50311	14759.6
417.64277	13549.6
421.77947	12829.7
425.9132	12474.2
430.04396	12376.2
434.17176	12371.3
438.2966	12538
442.41849	12909.8
446.53742	13401.4
450.6534	13846.1
454.76644	14109.8
458.87653	14049.1
462.98368	13873.8
467.08789	13560.1
471.18916	13083.4
475.2875	12588.9
479.38291	12238.1
483.4754	11937.7
487.56496	11758.3
491.6516	11637.8
495.73531	11635.1
499.81612	11709.2
503.89401	11957.7
507.96899	12200.8
512.04106	12505.2
516.11023	12826.2
520.1765	13053.1
524.23987	12989
528.30034	12639.4
532.35792	12141.6
536.41261	11650.9
540.46441	11172.2
544.51333	10910.9
548.55936	10992.5
552.60252	11396.7
556.64279	11878.5
560.6802	12187.8
564.71473	12585.7
568.7464	13512.7
572.7752	14115.8
576.80114	13471.1
580.82422	12619.6
584.84444	12273.7
588.86181	12057.3
592.87633	11997.7
596.888	12169.7
600.89682	12848.7
604.9028	15233.5
608.90594	21839.7
612.90624	30914.2
616.90371	30044.4
620.89834	18395.2
624.89015	12595.9
628.87913	11511.2
632.86528	11623.8
636.84862	11995.9
640.82913	11815.5
644.80683	10962.5
648.78172	10356.2
652.75379	10459.9
656.72306	11320.3
660.68952	12337.2
664.65319	12165.4
668.61405	11080.1
672.57211	10473.8
676.52738	10408.8
680.47986	10366.1
684.42955	10212.4
688.37646	10090.4
692.32058	10139.3
696.26192	10265.5
700.20048	10541.3
704.13626	10798.9
708.06928	10789.2
711.99952	10652.8
715.927	10553.7
719.85171	10583.2
723.77365	10539
727.69284	10325.1
731.60928	10163.8
735.52295	10153.6
739.43388	10189
743.34206	10285.6
747.24749	10330.7
751.15017	10498.1
755.05012	10832.6
758.94733	11722.4
762.8418	13834.7
766.73354	17573.7
770.62254	21513
774.50882	23589.1
778.39237	22404.4
782.27321	18494.4
786.15132	14426
790.02671	12030.7
793.89938	10969.8
797.76935	10507.2
801.6366	10322.5
805.50115	10188.9
809.36299	10092.6
813.22213	10009.5
817.07857	9965.4
820.93231	9942.6
824.78336	9996.6
828.63172	10116.4
832.47738	10143.4
836.32036	10122.9
840.16066	10007.5
843.99827	9869.8
847.8332	9783
851.66546	9793.3
855.49504	9794.2
859.32195	9727.9
863.1462	9636.7
866.96777	9549
870.78668	9546.9
874.60293	9576
878.41652	9620.2
882.22745	9685.3
886.03573	9792.6
889.84136	9761.5
893.64433	9680.3
897.44466	9642.5
901.24235	9654.5
905.0374	9632.6
908.8298	9541.4
912.61957	9531.2
916.40671	9606.2
920.19121	9752.8
923.97308	9923.4
927.75233	10122.5
931.52895	10326.7
935.30295	10147.1
939.07433	9626.1
942.84309	9165.1
946.60924	8909.7
950.37278	8753.4
954.13371	8705.7
957.89203	8627.6
961.64774	8592.5
965.40086	8582.3
969.15137	8541.3
972.89929	8495.1
976.64461	8492.7
980.38733	8484.9
984.12747	8489.1
987.86502	8522.7
991.59999	8596
995.33237	8721.2
999.06217	8939.4
1002.78939	9272.2
1006.51404	9597.9
1010.23611	9972.3
1013.95561	10148.8
1017.67255	10079.1
1021.38692	9844.3
1025.09872	9579
1028.80796	9398
1032.51465	9397
1036.21877	9601.2
1039.92035	9823.5
1043.61937	9943.5
1047.31584	9909.6
1051.00976	9854.8
1054.70114	9785.8
1058.38998	9726.8
1062.07627	9766
1065.76003	9834.2
1069.44126	9983
1073.11995	10160.8
1076.79611	10412.2
1080.46974	10677
1084.14085	11157.7
1087.80943	11739.9
1091.47549	11990.2
1095.13903	11656.6
1098.80005	10946.7
1102.45857	10340.6
1106.11456	10075.6
1109.76805	10141.6
1113.41903	10462
1117.06751	11014.9
1120.71348	11820.4
1124.35696	12687.8
1127.99793	13552.8
1131.63641	13536.1
1135.2724	12491
1138.90589	11466.3
1142.5369	10891.5
1146.16542	10517.1
1149.79145	10359.3
1153.415	10297.3
1157.03607	10478.7
1160.65467	10812.5
1164.27079	11435.2
1167.88443	12384
1171.49561	13970.8
1175.10432	16789.2
1178.71056	20360.1
1182.31434	22843.8
1185.91565	23106
1189.51451	22056.8
1193.11091	20106.9
1196.70485	17799.5
1200.29634	16149.7
1203.88538	15013.8
1207.47197	13679.7
1211.05612	12485.1
1214.63782	11866
1218.21708	11642.6
1221.79391	11665.2
1225.36829	11821.3
1228.94024	11981.3
1232.50976	12129
1236.07685	12177.5
1239.6415	12164.7
1243.20374	12104.9
1246.76355	12135.3
1250.32093	12264.2
1253.8759	12609.6
1257.42845	13111.1
1260.97859	13764.4
1264.52631	14408.8
1268.07163	15117.9
1271.61453	15758.7
1275.15503	16222
1278.69312	16312
1282.22882	16335.3
1285.76211	16789.4
1289.29301	17503.2
1292.82151	18283
1296.34761	18991.8
1299.87133	20101.9
1303.39266	22197.6
1306.9116	25608.6
1310.42815	29924.4
1313.94233	32825
1317.45412	32458
1320.96354	29724.3
1324.47058	26399.5
1327.97525	23477.7
1331.47754	21616.3
1334.97747	20735.9
1338.47502	20526.9
1341.97022	20807.1
1345.46305	21804.3
1348.95352	23624.3
1352.44163	26287.6
1355.92738	30021.4
1359.41078	35850.4
1362.89183	42018.1
1366.37053	41548.7
1369.84688	34145.6
1373.32088	26398.5
1376.79254	21404.6
1380.26186	19026.7
1383.72883	17815
1387.19347	16837.7
1390.65578	15808.9
1394.11575	14950.9
1397.57339	14512.7
1401.0287	14471.8
1404.48168	14595.1
1407.93234	14811
1411.38068	14898.3
1414.82669	14880
1418.27039	14639.5
1421.71177	14341.6
1425.15083	14036.5
1428.58758	13723.5
1432.02203	13733.1
1435.45416	13883.6
1438.88399	14018.6
1442.31151	14007
1445.73673	14045.4
1449.15965	14173.2
1452.58027	14122.3
1455.9986	13955
1459.41463	13870.2
1462.82837	14026.7
1466.23982	14377.8
1469.64898	14808.3
1473.05586	15114.3
1476.46045	15391.9
1479.86276	15732.8
1483.26279	16221.7
1486.66054	16786.1
1490.05602	17583.7
1493.44922	18778.1
1496.84016	20663.4
1500.22882	23671.6
1503.61521	27702.9
1506.99934	32317.1
1510.38121	37010.1
1513.76081	39802.4
1517.13816	38332.2
1520.51324	32819.6
1523.88607	26706.5
1527.25665	22411.9
1530.62498	19892.5
1533.99105	18344.8
1537.35488	17403.8
1540.71647	16726.4
1544.07581	16345.2
1547.4329	16158.7
1550.78776	16015
1554.14038	16000.4
1557.49077	16227
1560.83892	16747.1
1564.18484	17582.7
1567.52853	18436.1
1570.86999	19243.4
1574.20922	19772.3
1577.54624	19666
1580.88103	18330.5
1584.2136	16391.1
1587.54395	15304.7
1590.87208	15362.8
1594.19801	16405.6
1597.52172	17905
1600.84321	18566
1604.16251	17664.6
1607.47959	16171.8
1610.79447	14643.4
1614.10715	13138.4
1617.41763	11991.6
1620.7259	11279
1624.03199	10925.3
1627.33587	10951.6
1630.63757	11361.4
1633.93707	12086
1637.23439	13261.3
1640.52951	15118.5
1643.82246	17747.8
1647.11321	21102.3
1650.40179	23998.4
1653.68819	23984.5
1656.97241	20406.6
1660.25446	15901.3
1663.53433	12555.7
1666.81203	10628.3
1670.08756	9562.7
1673.36092	8914.8
1676.63211	8525.5
1679.90115	8253.3
1683.16801	8082.7
1686.43272	7930
1689.69527	7823.2
1692.95567	7746.9
1696.2139	7727.5
1699.46999	7712.7
1702.72392	7673.7
1705.97571	7643.7
1709.22535	7608.9
1712.47284	7617.8
1715.71819	7641.1
1718.96139	7658.2
1722.20246	7656.4
1725.44139	7600.5
1728.67818	7523
1731.91284	7415.3
1735.14537	7321.8
1738.37576	7231.3
1741.60403	7187.6
1744.83017	7144.1
1748.05418	7109.3
1751.27607	7061.3
1754.49584	7064.5
1757.71349	7044.3
1760.92903	7037.6
1764.14244	7009.9
1767.35375	6991.3
1770.56294	6946.1
1773.77002	6904.7
1776.97499	6864.8
1780.17785	6827.1
1783.37861	6792
1786.57727	6793.3
1789.77382	6754.1
1792.96828	6749.4
1796.16064	6727.4
1799.3509	6714.5
1802.53907	6692.8
1805.72514	6655.2
1808.90913	6633.8
1812.09102	6602
1815.27083	6600.5
1818.44856	6572
1821.6242	6552.4
1824.79776	6563.9
1827.96924	6546.4
1831.13864	6515.6
1834.30597	6539.2
1837.47122	6503.4
1840.6344	6492.7
1843.7955	6490.3
1846.95454	6485.1
1850.11151	6470.9
1853.26642	6471.6
1856.41926	6480.8
1859.57004	6464.9
1862.71876	6481.8
1865.86542	6481.8
1869.01003	6504.2
1872.15258	6494.9
1875.29308	6514
1878.43152	6512.4
1881.56792	6527
1884.70227	6534.8
1887.83457	6559.4
1890.96482	6583.6
1894.09304	6577.3
1897.21921	6575.8
1900.34335	6591.3
1903.46544	6597.6
1906.58551	6570.1
1909.70353	6587.6
1912.81953	6580.1
1915.93349	6590.1
1919.04543	6566.5
1922.15534	6564.6
1925.26322	6540
1928.36908	6505.3
1931.47292	6433.9
1934.57473	6400.5
1937.67453	6328.3
1940.77232	6289.6
1943.86808	6239.3
1946.96184	6208.2
1950.05358	6140.8
1953.14331	6111.9
1956.23103	6088.4
1959.31675	6075.4
1962.40046	6033.4
1965.48217	6029.5
1968.56188	6006.3
1971.63959	6016.4
1974.7153	5988.7
1977.78901	5984.6
1980.86073	5955
1983.93046	5906.5
1986.99819	5867
1990.06394	5834.5
1993.1277	5809.2
1996.18947	5798.5
1999.24925	5775.2
2002.30706	5746.2
2005.36288	5725.5
2008.41672	5727.9
2011.46859	5707.1
2014.51848	5666.7
2017.56639	5666.6
2020.61233	5612.8
2023.6563	5626.1
2026.6983	5615.8
2029.73833	5575.1
2032.7764	5565.1
2035.8125	5557
2038.84664	5549.7
2041.87881	5528.3
2044.90903	5537.3
2047.93729	5514.2
2050.96359	5480.9
2053.98794	5485.4
2057.01034	5471.3
2060.03078	5464.3
2063.04927	5462.6
2066.06582	5443.5
2069.08042	5438.7
2072.09307	5439.7
2075.10378	5420.8
2078.11255	5412.9
2081.11938	5413.4
2084.12426	5426.6
2087.12722	5418
2090.12824	5419.4
2093.12732	5396.2
2096.12447	5405.9
2099.11969	5390.8
2102.11299	5410.1
2105.10435	5402.1
2108.09379	5407.9
2111.08131	5415.6
2114.0669	5402.8
2117.05057	5403.9
2120.03233	5406.2
2123.01216	5434.2
2125.99008	5423.7
2128.96609	5417.8
2131.94018	5425.4
2134.91236	5408.4
2137.88263	5402.1
2140.851	5411.4
2143.81746	5413.6
2146.78201	5408.4
2149.74466	5385.1
2152.7054	5391.8
2155.66425	5381.2
2158.6212	5374.6
2161.57625	5370.3
2164.52941	5355
2167.48067	5357.3
2170.43004	5349.2
2173.37752	5343.1
2176.32311	5337.1
2179.26681	5364
2182.20863	5356.5
2185.14856	5354.6
2188.08661	5358.3
2191.02278	5329.3
2193.95707	5339.5
2196.88948	5313.6
2199.82001	5304.9
2202.74867	5300
2205.67545	5291.2
2208.60037	5293.4
2211.52341	5277.5
2214.44458	5282.3
2217.36388	5269.4
2220.28132	5258
2223.1969	5245.9
2226.11061	5200.2
2229.02246	5196.8
2231.93245	5191
2234.84058	5185.8
2237.74686	5180.6
2240.65128	5183.2
2243.55385	5149.9
2246.45456	5157.9
2249.35343	5156.6
2252.25044	5151.4
2255.14561	5143.5
2258.03893	5167.8
2260.93041	5161.1
2263.82004	5132.1
2266.70783	5138.6
2269.59378	5105.6
2272.4779	5113.4
2275.36017	5091.7
2278.24061	5071.2
2281.11922	5061.3
2283.996	5058.7
2286.87094	5026.8
2289.74405	5021
2292.61534	4998.9
2295.4848	4983.8
2298.35243	4981.9
2301.21824	4958.1
2304.08223	4968.6
2306.94439	4957.6
2309.80474	4970.2
2312.66327	4952.3
2315.51999	4948.9
2318.37489	4938.5
2321.22797	4950.8
2324.07925	4936.6
2326.92871	4934.4
2329.77637	4935.3
2332.62222	4927.5
2335.46626	4915.6
2338.3085	4920.7
2341.14893	4903.1
2343.98756	4901
2346.8244	4921.6
2349.65943	4924.3
2352.49267	4945.6
2355.32411	4955.1
2358.15376	4981.6
2360.98161	4985.1
2363.80768	5024.7
2366.63195	5025.4
2369.45444	5021.3
2372.27514	5031.5
2375.09405	5003.8
2377.91118	4985.9
2380.72652	4958.6
2383.54009	4916.5
2386.35187	4911.4
2389.16188	4878.6
2391.97011	4847.8
2394.77657	4819.7
2397.58125	4790.9
2400.38416	4771.8
2403.18529	4755.6
2405.98466	4748.3
2408.78226	4751.6
2411.57809	4748.3
2414.37216	4733.5
2417.16446	4728.1
2419.955	4721.2
2422.74378	4712.8
2425.5308	4697.5
2428.31606	4710
2431.09956	4703.7
2433.88131	4703.4
2436.6613	4709
2439.43954	4728.1
2442.21603	4725.4
2444.99077	4732.4
2447.76377	4735.2
2450.53501	4721.5
2453.30451	4744
2456.07226	4741
2458.83827	4747.1
2461.60254	4741.7
2464.36507	4728.6
2467.12586	4715.7
2469.88492	4720.7
2472.64224	4727.4
2475.39782	4745.2
2478.15167	4761.2
2480.90379	4753.2
2483.65417	4773.8
2486.40283	4786.8
2489.14976	4808.5
2491.89497	4814.6
2494.63845	4829
2497.3802	4812.1
2500.12024	4797.3
2502.85855	4798.6
2505.59514	4797.8
2508.33002	4738.5
2511.06318	4722.5
2513.79462	4684.2
2516.52435	4672.5
2519.25237	4642
2521.97867	4603.2
2524.70327	4600.2
2527.42616	4586.9
2530.14734	4587.9
2532.86681	4555.7
2535.58458	4575.7
2538.30065	4559.9
2541.01501	4574
2543.72768	4559.7
2546.43864	4572.7
2549.14791	4568.8
2551.85548	4561.5
2554.56136	4551.2
2557.26554	4573.3
2559.96803	4568.6
2562.66883	4548.1
2565.36794	4551.4
2568.06536	4532.3
2570.7611	4518.2
2573.45514	4522
2576.14751	4512.1
2578.83819	4504.2
2581.52719	4504.8
2584.21451	4494.5
2586.90015	4489.5
2589.58411	4489.3
2592.2664	4469.7
2594.94701	4480.5
2597.62594	4453.4
2600.30321	4462.6
2602.9788	4457.4
2605.65273	4456.8
2608.32498	4451.5
2610.99557	4437.1
2613.66449	4457.3
2616.33175	4453.6
2618.99734	4449.8
2621.66128	4458.7
2624.32355	4435.3
2626.98416	4439.2
2629.64311	4437.5
2632.30041	4414.5
2634.95605	4417.8
2637.61004	4406.6
2640.26238	4383.2
2642.91306	4393
2645.56209	4385.7
2648.20948	4373.8
2650.85521	4371.1
2653.4993	4384.2
2656.14175	4363.6
2658.78255	4375.2
2661.42171	4373.9
2664.05923	4377.3
2666.6951	4387.7
2669.32934	4414.3
2671.96194	4408.5
2674.59291	4420.1
2677.22224	4425.9
2679.84993	4433.5
2682.476	4427.3
2685.10043	4429.1
2687.72324	4424.7
2690.34441	4424.3
2692.96396	4422.2
2695.58188	4418.8
2698.19818	4413.8
2700.81285	4415.4
2703.4259	4437.3
2706.03733	4440.3
2708.64714	4436.2
2711.25533	4430.5
2713.86191	4446.4
2716.46687	4465.1
2719.07021	4468.1
2721.67194	4467.4
2724.27206	4465.4
2726.87057	4467.6
2729.46747	4447.5
2732.06276	4452.5
2734.65644	4442
2737.24852	4446.9
2739.83899	4421
2742.42786	4418.5
2745.01513	4418.3
2747.60079	4403.5
2750.18486	4399.5
2752.76733	4390.8
2755.3482	4374
2757.92747	4383
2760.50515	4375.1
2763.08123	4374.8
2765.65573	4361.6
2768.22863	4356.6
2770.79994	4343.1
2773.36967	4337.3
2775.9378	4348.3
2778.50435	4356.6
2781.06932	4355
2783.6327	4349
2786.1945	4368.5
2788.75471	4368.2
2791.31335	4353.7
2793.87041	4355.7
2796.42589	4351.6
2798.97979	4366.8
2801.53212	4372.1
2804.08288	4378.6
2806.63206	4385
2809.17967	4376.8
2811.72571	4384.5
2814.27018	4406.5
2816.81308	4423.2
2819.35442	4432
2821.89419	4431.4
2824.43239	4476.8
2826.96904	4472
2829.50412	4493
2832.03763	4485.1
2834.56959	4502.6
2837.1	4519.2
2839.62884	4556.9
2842.15613	4612.8
2844.68186	4678
2847.20604	4762.1
2849.72867	4846.9
2852.24974	4877.6
2854.76927	4890
2857.28724	4874.8
2859.80367	4857.5
2862.31855	4844.4
2864.83189	4814.4
2867.34368	4792.8
2869.85393	4796.9
2872.36264	4781.4
2874.8698	4805.2
2877.37543	4794.3
2879.87952	4802.8
2882.38207	4803.8
2884.88308	4757.1
2887.38256	4760.7
2889.88051	4752.8
2892.37692	4785.2
2894.8718	4774.2
2897.36515	4772.5
2899.85698	4755.4
2902.34727	4763.7
2904.83604	4773.9
2907.32328	4792.1
2909.809	4774.3
2912.29319	4773.6
2914.77587	4754.2
2917.25702	4758.1
2919.73665	4745.8
2922.21476	4738.4
2924.69136	4730.7
2927.16644	4725.1
2929.64	4692
2932.11205	4683
2934.58258	4654.8
2937.05161	4619.3
2939.51912	4579.8
2941.98513	4545.4
2944.44962	4483.4
2946.91261	4423.9
2949.37409	4375.4
2951.83407	4359.7
2954.29254	4339.7
2956.74951	4308.8
2959.20498	4283.3
2961.65895	4284.4
2964.11142	4265.7
2966.56239	4236.5
2969.01186	4212.6
2971.45984	4182.2
2973.90632	4172.3
2976.35131	4145.8
2978.7948	4131.2
2981.23681	4118.2
2983.67732	4101
2986.11635	4071.3
2988.55388	4054.8
2990.98993	4038
2993.4245	4026.2
2995.85758	4012.3
2998.28917	3997
3000.71928	3991.5
3003.14791	3979.4
3005.57506	3970.8
3008.00073	3960.6
3010.42493	3965.3
3012.84764	3950.7
3015.26888	3946
3017.68865	3949
3020.10694	3928.3
3022.52376	3917
3024.9391	3924.5
3027.35298	3906.8
3029.76539	3906.2
3032.17632	3895
3034.5858	3888.2
3036.9938	3879.8
3039.40034	3872.2
3041.80542	3871
3044.20903	3848.2
3046.61118	3839.1
3049.01187	3851.5
3051.4111	3840
3053.80888	3828.5
3056.20519	3819.3
3058.60005	3804.3
3060.99345	3809.8
3063.3854	3783.5
3065.7759	3798.2
3068.16494	3772.2
3070.55254	3758.5
3072.93868	3776.3
3075.32338	3751.4
3077.70662	3740.2
3080.08842	3719.3
3082.46878	3716.6
3084.84769	3694.2
3087.22515	3696.9
3089.60118	3681.1
3091.97576	3669.3
3094.3489	3653.2
3096.72061	3669.2
3099.09087	3642.2
3101.4597	3652.4
3103.82709	3635.1
3106.19305	3634.2
3108.55757	3632.7
3110.92066	3635.1
3113.28232	3614.7
3115.64255	3604.9
3118.00134	3595
3120.35871	3600.1
3122.71466	3585.4
3125.06917	3563.6
3127.42226	3576.6
3129.77393	3587.3
3132.12417	3587.8
3134.47299	3592.4
3136.82039	3592.3
3139.16636	3584.4
3141.51092	3589.3
3143.85406	3600.7
3146.19579	3610
3148.53609	3600.1
3150.87499	3617.8
3153.21246	3629.4
3155.54853	3629.1
3157.88318	3623.2
3160.21642	3643.5
3162.54826	3623.3
3164.87868	3624.7
3167.2077	3620.2
3169.5353	3628.2
3171.86151	3632.1
3174.18631	3608.5
3176.5097	3630.1
3178.83169	3618.8
3181.15228	3627
3183.47147	3609
3185.78926	3631.2
3188.10565	3621.3
3190.42065	3623.7
3192.73424	3623.5
3195.04645	3633.3
3197.35725	3642.8
3199.66667	3644.5
3201.97469	3638.1
3204.28132	3633
3206.58656	3636.9
3208.8904	3658.8
3211.19287	3661.8
3213.49394	3672.6
3215.79363	3682.4
3218.09193	3667.7
3220.38884	3673.4
3222.68438	3690.4
3224.97853	3685.7
3227.2713	3679.3
3229.56269	3664.6
3231.8527	3662.5
3234.14133	3640.4
3236.42858	3658.4
3238.71446	3637
3240.99896	3643.3
3243.28209	3643.3
3245.56384	3629.8
3247.84423	3637.9
3250.12324	3628.1
3252.40088	3629
3254.67715	3631.1
3256.95205	3611.9
3259.22558	3610.2
3261.49775	3609.9
3263.76855	3599.3
3266.03799	3593
3268.30606	3589.4
3270.57277	3571.6
3272.83812	3574.4
3275.10211	3578
3277.36474	3560.3
3279.62601	3578.8
3281.88593	3573
3284.14448	3579.8
3286.40168	3578.9
3288.65753	3566.7
3290.91202	3553.4
3293.16516	3545.6
3295.41695	3541.3
3297.66738	3511.3
3299.91647	3505.9
3302.16421	3498.2
3304.4106	3469.8
3306.65564	3456.9
3308.89933	3425.8
3311.14169	3406.8
3313.38269	3371.8
3315.62236	3356.2
3317.86068	3322.2
3320.09766	3293.7
3322.3333	3270.5
3324.5676	3266.6
3326.80056	3199.4
3329.03219	3197.9
3331.26248	-0.3
3333.49143	-0.1
3335.71905	-2.2
