Data from AgNPs_FTO_APTES_UA_2uM_CRN_500uM_R6G_10uM_NaF_0.1M_Addition_RamanShift__4__17-03-15-399.txt Node

Date: Wed Feb 02 17:03:15 GMT 2022
User: TCL
Spectrometer: QEP01345
Trigger mode: 4
Integration Time (sec): 7.000000E0
Scans to average: 10
Electric dark correction enabled: true
Nonlinearity correction enabled: false
Boxcar width: 0
XAxis mode: Raman Shifts
Number of Pixels in Spectrum: 1044
>>>>>Begin Spectral Data<<<<<
46.04893	0.0625
50.45542	0.0625
54.85868	-1.5375
59.25871	0.0625
63.6555	63.0625
68.04907	68.7625
72.43941	67.9625
76.82654	79.9625
81.21044	80.1625
85.59113	85.5625
89.96862	88.7625
94.34289	92.1625
98.71396	90.5625
103.08183	97.1625
107.4465	102.5625
111.80798	103.3625
116.16626	104.6625
120.52136	109.1625
124.87327	108.5625
129.222	114.7625
133.56755	123.9625
137.90993	130.3625
142.24913	143.0625
146.58517	162.4625
150.91804	183.7625
155.24774	226.1625
159.57429	271.8625
163.89768	350.5625
168.21792	453.9625
172.53501	621.1625
176.84895	853.7625
181.15975	1205.3625
185.46741	1688.0625
189.77193	2311.9625
194.07331	3093.6625
198.37157	3992.6625
202.6667	4907.1625
206.9587	5829.9625
211.24758	6748.9625
215.53334	7662.9625
219.81599	8657.4625
224.09553	9717.1625
228.37195	10890.7625
232.64527	12141.0625
236.91549	13435.2625
241.18261	14726.2625
245.44663	15957.2625
249.70755	17077.4625
253.96539	18022.6625
258.22014	18887.5625
262.4718	19528.7625
266.72039	19996.2625
270.96589	20272.3625
275.20832	20377.9625
279.44768	20298.0625
283.68397	20192.2625
287.91719	20061.7625
292.14735	20055.4625
296.37445	20134.5625
300.59849	20257.4625
304.81948	20344.3625
309.03742	20283.7625
313.25231	20107.8625
317.46415	19626.5625
321.67296	19042.2625
325.87872	18534.7625
330.08145	18233.6625
334.28114	18081.9625
338.47781	18117.1625
342.67145	18265.9625
346.86207	18485.3625
351.04966	18782.4625
355.23424	19088.1625
359.4158	19410.8625
363.59435	19561.8625
367.76989	19726.7625
371.94243	19780.9625
376.11196	19845.7625
380.27849	19918.0625
384.44203	20032.7625
388.60257	20285.1625
392.76012	20475.9625
396.91468	20815.8625
401.06626	21136.5625
405.21485	21348.3625
409.36047	21266.6625
413.50311	21025.8625
417.64277	20893.0625
421.77947	20883.3625
425.9132	20979.1625
430.04396	21131.7625
434.17176	21242.1625
438.2966	21428.9625
442.41849	21794.6625
446.53742	22524.4625
450.6534	23283.2625
454.76644	23831.6625
458.87653	24002.1625
462.98368	23812.0625
467.08789	23527.3625
471.18916	23285.9625
475.2875	23121.3625
479.38291	23237.6625
483.4754	23271.3625
487.56496	22979.8625
491.6516	22283.8625
495.73531	21535.5625
499.81612	21072.0625
503.89401	20970.7625
507.96899	20981.4625
512.04106	20863.5625
516.11023	20598.1625
520.1765	20282.3625
524.23987	19992.5625
528.30034	19772.2625
532.35792	19549.4625
536.41261	19322.7625
540.46441	19120.7625
544.51333	19162.1625
548.55936	19524.0625
552.60252	20076.0625
556.64279	20844.1625
560.6802	21467.9625
564.71473	21921.9625
568.7464	22569.6625
572.7752	23536.1625
576.80114	24406.3625
580.82422	25099.4625
584.84444	25894.5625
588.86181	26999.1625
592.87633	27744.1625
596.888	27172.0625
600.89682	25590.2625
604.9028	24861.6625
608.90594	25786.6625
612.90624	26976.4625
616.90371	25161.7625
620.89834	21239.2625
624.89015	19381.6625
628.87913	19200.4625
632.86528	19326.2625
636.84862	19354.3625
640.82913	18989.0625
644.80683	18565.8625
648.78172	18267.2625
652.75379	18186.2625
656.72306	18343.2625
660.68952	18530.1625
664.65319	18345.4625
668.61405	18019.6625
672.57211	17962.5625
676.52738	18062.6625
680.47986	18122.1625
684.42955	18006.2625
688.37646	17941.8625
692.32058	18018.9625
696.26192	18222.5625
700.20048	18553.6625
704.13626	18747.2625
708.06928	18850.9625
711.99952	18790.9625
715.927	18805.9625
719.85171	18863.3625
723.77365	18773.4625
727.69284	18465.0625
731.60928	18262.3625
735.52295	18118.9625
739.43388	18102.1625
743.34206	18149.0625
747.24749	18269.4625
751.15017	18505.5625
755.05012	18939.2625
758.94733	19568.1625
762.8418	20673.3625
766.73354	22144.4625
770.62254	23366.4625
774.50882	23465.4625
778.39237	22235.8625
782.27321	20584.6625
786.15132	19230.8625
790.02671	18411.0625
793.89938	18021.1625
797.76935	17891.8625
801.6366	17863.3625
805.50115	17834.7625
809.36299	17741.8625
813.22213	17672.9625
817.07857	17570.5625
820.93231	17508.1625
824.78336	17354.8625
828.63172	17177.2625
832.47738	17063.1625
836.32036	17068.0625
840.16066	17062.7625
843.99827	17057.4625
847.8332	17015.4625
851.66546	16988.3625
855.49504	16958.6625
859.32195	16930.0625
863.1462	16860.9625
866.96777	16777.7625
870.78668	16771.1625
874.60293	16744.5625
878.41652	16754.8625
882.22745	16790.7625
886.03573	16870.3625
889.84136	16836.6625
893.64433	16793.6625
897.44466	16720.9625
901.24235	16687.0625
905.0374	16614.4625
908.8298	16563.4625
912.61957	16647.3625
916.40671	16890.8625
920.19121	17184.3625
923.97308	17430.6625
927.75233	17347.0625
931.52895	17104.7625
935.30295	16676.5625
939.07433	16299.2625
942.84309	16022.6625
946.60924	15858.0625
950.37278	15819.5625
954.13371	15858.5625
957.89203	15881.1625
961.64774	15899.9625
965.40086	15924.5625
969.15137	15809.7625
972.89929	15645.4625
976.64461	15514.9625
980.38733	15411.9625
984.12747	15418.0625
987.86502	15471.2625
991.59999	15584.6625
995.33237	15735.0625
999.06217	16073.9625
1002.78939	16437.0625
1006.51404	16745.9625
1010.23611	17029.6625
1013.95561	17292.8625
1017.67255	17405.5625
1021.38692	17225.5625
1025.09872	16851.7625
1028.80796	16591.8625
1032.51465	16627.7625
1036.21877	16808.4625
1039.92035	16869.1625
1043.61937	16922.2625
1047.31584	16886.8625
1051.00976	16827.2625
1054.70114	16847.0625
1058.38998	16961.1625
1062.07627	17174.6625
1065.76003	17407.8625
1069.44126	17640.0625
1073.11995	17846.4625
1076.79611	18086.3625
1080.46974	18161.4625
1084.14085	18243.4625
1087.80943	18452.5625
1091.47549	18731.6625
1095.13903	18878.2625
1098.80005	18706.6625
1102.45857	18177.1625
1106.11456	17715.7625
1109.76805	17511.1625
1113.41903	17552.4625
1117.06751	17627.4625
1120.71348	17880.9625
1124.35696	18153.3625
1127.99793	18483.9625
1131.63641	18685.3625
1135.2724	18618.7625
1138.90589	18586.2625
1142.5369	18698.4625
1146.16542	18971.9625
1149.79145	19393.2625
1153.415	19783.5625
1157.03607	20322.5625
1160.65467	21182.5625
1164.27079	22506.1625
1167.88443	24039.6625
1171.49561	25552.0625
1175.10432	27431.6625
1178.71056	29768.7625
1182.31434	31910.1625
1185.91565	32810.8625
1189.51451	32432.2625
1193.11091	31416.6625
1196.70485	30268.1625
1200.29634	29199.0625
1203.88538	28565.8625
1207.47197	28372.4625
1211.05612	28278.5625
1214.63782	27741.0625
1218.21708	26730.3625
1221.79391	25641.5625
1225.36829	24783.6625
1228.94024	24203.5625
1232.50976	23628.5625
1236.07685	23134.3625
1239.6415	22865.4625
1243.20374	22873.0625
1246.76355	23082.5625
1250.32093	23487.1625
1253.8759	24016.6625
1257.42845	24747.3625
1260.97859	25515.3625
1264.52631	26290.6625
1268.07163	27063.1625
1271.61453	27878.3625
1275.15503	28848.6625
1278.69312	29962.3625
1282.22882	31255.3625
1285.76211	32831.1625
1289.29301	34887.4625
1292.82151	37293.9625
1296.34761	40234.6625
1299.87133	43386.2625
1303.39266	46260.4625
1306.9116	48464.4625
1310.42815	50014.1625
1313.94233	50819.9625
1317.45412	50604.7625
1320.96354	49890.0625
1324.47058	49334.2625
1327.97525	48894.4625
1331.47754	48534.5625
1334.97747	48132.2625
1338.47502	47356.1625
1341.97022	46147.5625
1345.46305	44781.6625
1348.95352	43646.3625
1352.44163	43242.5625
1355.92738	43833.2625
1359.41078	45342.3625
1362.89183	46517.0625
1366.37053	45644.1625
1369.84688	42106.7625
1373.32088	37420.6625
1376.79254	34344.8625
1380.26186	33636.2625
1383.72883	34255.1625
1387.19347	34773.2625
1390.65578	34899.4625
1394.11575	35263.2625
1397.57339	36054.5625
1401.0287	37088.9625
1404.48168	37708.8625
1407.93234	37361.5625
1411.38068	36053.0625
1414.82669	34100.2625
1418.27039	31926.7625
1421.71177	29830.6625
1425.15083	28126.2625
1428.58758	27308.2625
1432.02203	27489.4625
1435.45416	28492.3625
1438.88399	29800.4625
1442.31151	30786.3625
1445.73673	31507.8625
1449.15965	32115.1625
1452.58027	32479.5625
1455.9986	32576.9625
1459.41463	32686.2625
1462.82837	32962.0625
1466.23982	33374.9625
1469.64898	33853.1625
1473.05586	34040.3625
1476.46045	33927.4625
1479.86276	33455.7625
1483.26279	32877.4625
1486.66054	32374.1625
1490.05602	32264.8625
1493.44922	32417.1625
1496.84016	32630.5625
1500.22882	33063.0625
1503.61521	33734.2625
1506.99934	34652.3625
1510.38121	35443.0625
1513.76081	35748.9625
1517.13816	35390.1625
1520.51324	34663.4625
1523.88607	34239.1625
1527.25665	34364.2625
1530.62498	34674.4625
1533.99105	34782.1625
1537.35488	34382.2625
1540.71647	33409.3625
1544.07581	32134.0625
1547.4329	30830.0625
1550.78776	29671.3625
1554.14038	28840.3625
1557.49077	28363.7625
1560.83892	28140.2625
1564.18484	28065.8625
1567.52853	28228.9625
1570.86999	28717.9625
1574.20922	29595.7625
1577.54624	30590.1625
1580.88103	31395.6625
1584.2136	32357.6625
1587.54395	33816.8625
1590.87208	35911.8625
1594.19801	38114.6625
1597.52172	40044.1625
1600.84321	40167.0625
1604.16251	37867.6625
1607.47959	34003.9625
1610.79447	30055.7625
1614.10715	26629.1625
1617.41763	24090.9625
1620.7259	22542.0625
1624.03199	21831.9625
1627.33587	21951.6625
1630.63757	22876.7625
1633.93707	24859.1625
1637.23439	28192.6625
1640.52951	32934.7625
1643.82246	38545.0625
1647.11321	43108.2625
1650.40179	43874.5625
1653.68819	40041.5625
1656.97241	33700.6625
1660.25446	27523.8625
1663.53433	23011.9625
1666.81203	20064.0625
1670.08756	18230.6625
1673.36092	17069.9625
1676.63211	16310.2625
1679.90115	15789.1625
1683.16801	15425.4625
1686.43272	15188.4625
1689.69527	14989.6625
1692.95567	14789.5625
1696.2139	14703.3625
1699.46999	14622.0625
1702.72392	14541.4625
1705.97571	14474.1625
1709.22535	14380.5625
1712.47284	14341.0625
1715.71819	14245.2625
1718.96139	14208.9625
1722.20246	14145.2625
1725.44139	14040.8625
1728.67818	13930.8625
1731.91284	13829.7625
1735.14537	13759.6625
1738.37576	13710.2625
1741.60403	13624.9625
1744.83017	13595.7625
1748.05418	13549.5625
1751.27607	13523.8625
1754.49584	13555.6625
1757.71349	13538.8625
1760.92903	13487.2625
1764.14244	13474.3625
1767.35375	13462.5625
1770.56294	13419.6625
1773.77002	13361.9625
1776.97499	13305.9625
1780.17785	13272.8625
1783.37861	13249.9625
1786.57727	13197.2625
1789.77382	13159.0625
1792.96828	13091.3625
1796.16064	13073.8625
1799.3509	13060.8625
1802.53907	13023.8625
1805.72514	12993.2625
1808.90913	12933.4625
1812.09102	12914.5625
1815.27083	12880.1625
1818.44856	12852.0625
1821.6242	12804.7625
1824.79776	12809.7625
1827.96924	12784.3625
1831.13864	12797.2625
1834.30597	12799.3625
1837.47122	12779.1625
1840.6344	12801.1625
1843.7955	12773.3625
1846.95454	12743.7625
1850.11151	12760.3625
1853.26642	12745.3625
1856.41926	12729.4625
1859.57004	12730.0625
1862.71876	12700.9625
1865.86542	12663.8625
1869.01003	12664.9625
1872.15258	12638.1625
1875.29308	12640.5625
1878.43152	12609.9625
1881.56792	12642.1625
1884.70227	12566.8625
1887.83457	12572.3625
1890.96482	12533.3625
1894.09304	12531.2625
1897.21921	12510.1625
1900.34335	12505.3625
1903.46544	12486.9625
1906.58551	12486.9625
1909.70353	12460.0625
1912.81953	12433.7625
1915.93349	12389.4625
1919.04543	12346.9625
1922.15534	12322.0625
1925.26322	12275.5625
1928.36908	12278.8625
1931.47292	12222.8625
1934.57473	12181.9625
1937.67453	12157.2625
1940.77232	12082.0625
1943.86808	12074.7625
1946.96184	12023.9625
1950.05358	11999.4625
1953.14331	11965.4625
1956.23103	11949.3625
1959.31675	11904.9625
1962.40046	11873.3625
1965.48217	11841.8625
1968.56188	11770.4625
1971.63959	11728.6625
1974.7153	11725.4625
1977.78901	11664.7625
1980.86073	11653.7625
1983.93046	11586.0625
1986.99819	11562.0625
1990.06394	11553.8625
1993.1277	11505.6625
1996.18947	11492.1625
1999.24925	11425.0625
2002.30706	11386.8625
2005.36288	11350.4625
2008.41672	11317.5625
2011.46859	11285.0625
2014.51848	11243.9625
2017.56639	11201.5625
2020.61233	11183.5625
2023.6563	11183.0625
2026.6983	11151.3625
2029.73833	11131.7625
2032.7764	11129.0625
2035.8125	11090.8625
2038.84664	11041.5625
2041.87881	11023.0625
2044.90903	11006.7625
2047.93729	10996.6625
2050.96359	11011.1625
2053.98794	10978.4625
2057.01034	10959.5625
2060.03078	10955.6625
2063.04927	10960.5625
2066.06582	10937.4625
2069.08042	10904.7625
2072.09307	10892.9625
2075.10378	10890.7625
2078.11255	10887.2625
2081.11938	10855.1625
2084.12426	10864.8625
2087.12722	10871.6625
2090.12824	10869.4625
2093.12732	10851.4625
2096.12447	10874.2625
2099.11969	10836.2625
2102.11299	10860.6625
2105.10435	10855.2625
2108.09379	10846.7625
2111.08131	10885.0625
2114.0669	10887.2625
2117.05057	10865.0625
2120.03233	10855.0625
2123.01216	10885.4625
2125.99008	10880.6625
2128.96609	10877.5625
2131.94018	10881.4625
2134.91236	10884.3625
2137.88263	10878.5625
2140.851	10866.9625
2143.81746	10871.9625
2146.78201	10864.6625
2149.74466	10846.7625
2152.7054	10857.7625
2155.66425	10834.1625
2158.6212	10843.9625
2161.57625	10836.3625
2164.52941	10824.8625
2167.48067	10801.6625
2170.43004	10793.1625
2173.37752	10808.0625
2176.32311	10834.6625
2179.26681	10828.1625
2182.20863	10810.5625
2185.14856	10821.1625
2188.08661	10793.9625
2191.02278	10811.9625
2193.95707	10786.4625
2196.88948	10785.5625
2199.82001	10760.4625
2202.74867	10724.5625
2205.67545	10754.5625
2208.60037	10701.1625
2211.52341	10692.9625
2214.44458	10667.2625
2217.36388	10665.1625
2220.28132	10663.6625
2223.1969	10639.5625
2226.11061	10607.5625
2229.02246	10599.9625
2231.93245	10588.5625
2234.84058	10555.1625
2237.74686	10556.3625
2240.65128	10560.6625
2243.55385	10528.1625
2246.45456	10504.2625
2249.35343	10485.6625
2252.25044	10457.9625
2255.14561	10422.8625
2258.03893	10359.8625
2260.93041	10363.1625
2263.82004	10344.6625
2266.70783	10309.7625
2269.59378	10287.6625
2272.4779	10261.8625
2275.36017	10208.7625
2278.24061	10221.7625
2281.11922	10186.0625
2283.996	10195.3625
2286.87094	10174.2625
2289.74405	10159.8625
2292.61534	10129.9625
2295.4848	10128.9625
2298.35243	10119.5625
2301.21824	10123.5625
2304.08223	10102.0625
2306.94439	10094.2625
2309.80474	10091.8625
2312.66327	10086.7625
2315.51999	10066.0625
2318.37489	10071.6625
2321.22797	10038.2625
2324.07925	10042.4625
2326.92871	10045.8625
2329.77637	10021.3625
2332.62222	10011.4625
2335.46626	9991.0625
2338.3085	9988.7625
2341.14893	10008.5625
2343.98756	9976.4625
2346.8244	9973.8625
2349.65943	9958.9625
2352.49267	9979.5625
2355.32411	9969.6625
2358.15376	9955.9625
2360.98161	9946.7625
2363.80768	9936.3625
2366.63195	9931.8625
2369.45444	9943.9625
2372.27514	9934.8625
2375.09405	9902.1625
2377.91118	9869.1625
2380.72652	9862.1625
2383.54009	9842.8625
2386.35187	9832.5625
2389.16188	9802.2625
2391.97011	9788.8625
2394.77657	9758.9625
2397.58125	9776.7625
2400.38416	9738.7625
2403.18529	9706.3625
2405.98466	9715.2625
2408.78226	9703.9625
2411.57809	9681.6625
2414.37216	9670.1625
2417.16446	9679.9625
2419.955	9659.4625
2422.74378	9665.8625
2425.5308	9652.9625
2428.31606	9646.2625
2431.09956	9650.0625
2433.88131	9609.2625
2436.6613	9633.8625
2439.43954	9612.1625
2442.21603	9610.1625
2444.99077	9599.4625
2447.76377	9611.2625
2450.53501	9620.4625
2453.30451	9597.4625
2456.07226	9601.9625
2458.83827	9581.4625
2461.60254	9589.6625
2464.36507	9597.6625
2467.12586	9577.2625
2469.88492	9578.5625
2472.64224	9583.9625
2475.39782	9578.1625
2478.15167	9583.7625
2480.90379	9590.2625
2483.65417	9586.6625
2486.40283	9578.4625
2489.14976	9581.8625
2491.89497	9586.5625
2494.63845	9603.1625
2497.3802	9579.2625
2500.12024	9558.4625
2502.85855	9582.2625
2505.59514	9588.3625
2508.33002	9566.9625
2511.06318	9553.5625
2513.79462	9548.4625
2516.52435	9530.1625
2519.25237	9535.5625
2521.97867	9531.0625
2524.70327	9514.6625
2527.42616	9510.1625
2530.14734	9476.2625
2532.86681	9495.1625
2535.58458	9481.6625
2538.30065	9470.4625
2541.01501	9435.8625
2543.72768	9443.9625
2546.43864	9434.0625
2549.14791	9440.1625
2551.85548	9434.7625
2554.56136	9436.1625
2557.26554	9410.6625
2559.96803	9405.4625
2562.66883	9414.6625
2565.36794	9407.3625
2568.06536	9420.2625
2570.7611	9386.6625
2573.45514	9399.8625
2576.14751	9381.3625
2578.83819	9407.6625
2581.52719	9402.2625
2584.21451	9360.3625
2586.90015	9358.1625
2589.58411	9345.4625
2592.2664	9344.0625
2594.94701	9326.7625
2597.62594	9332.9625
2600.30321	9335.2625
2602.9788	9352.8625
2605.65273	9343.2625
2608.32498	9353.0625
2610.99557	9352.3625
2613.66449	9332.4625
2616.33175	9329.0625
2618.99734	9321.8625
2621.66128	9326.8625
2624.32355	9354.7625
2626.98416	9335.6625
2629.64311	9314.1625
2632.30041	9342.8625
2634.95605	9319.6625
2637.61004	9305.8625
2640.26238	9299.0625
2642.91306	9311.8625
2645.56209	9298.9625
2648.20948	9304.1625
2650.85521	9300.8625
2653.4993	9315.9625
2656.14175	9291.7625
2658.78255	9312.8625
2661.42171	9328.9625
2664.05923	9335.6625
2666.6951	9321.8625
2669.32934	9342.5625
2671.96194	9319.6625
2674.59291	9333.7625
2677.22224	9312.8625
2679.84993	9312.6625
2682.476	9323.8625
2685.10043	9344.8625
2687.72324	9353.9625
2690.34441	9359.2625
2692.96396	9334.7625
2695.58188	9349.5625
2698.19818	9341.4625
2700.81285	9330.8625
2703.4259	9359.3625
2706.03733	9399.9625
2708.64714	9345.1625
2711.25533	9381.1625
2713.86191	9362.9625
2716.46687	9373.6625
2719.07021	9380.4625
2721.67194	9406.3625
2724.27206	9385.6625
2726.87057	9377.0625
2729.46747	9406.1625
2732.06276	9421.6625
2734.65644	9402.1625
2737.24852	9407.9625
2739.83899	9408.4625
2742.42786	9402.8625
2745.01513	9381.1625
2747.60079	9385.0625
2750.18486	9375.9625
2752.76733	9399.4625
2755.3482	9361.6625
2757.92747	9370.5625
2760.50515	9369.6625
2763.08123	9414.2625
2765.65573	9374.2625
2768.22863	9388.2625
2770.79994	9368.6625
2773.36967	9366.7625
2775.9378	9388.9625
2778.50435	9388.3625
2781.06932	9388.8625
2783.6327	9380.6625
2786.1945	9377.2625
2788.75471	9379.0625
2791.31335	9374.5625
2793.87041	9339.3625
2796.42589	9324.1625
2798.97979	9322.0625
2801.53212	9331.5625
2804.08288	9304.0625
2806.63206	9272.9625
2809.17967	9279.3625
2811.72571	9257.1625
2814.27018	9248.7625
2816.81308	9229.5625
2819.35442	9198.9625
2821.89419	9200.3625
2824.43239	9194.2625
2826.96904	9193.7625
2829.50412	9183.6625
2832.03763	9155.7625
2834.56959	9195.7625
2837.1	9198.7625
2839.62884	9205.2625
2842.15613	9208.0625
2844.68186	9250.9625
2847.20604	9299.6625
2849.72867	9334.1625
2852.24974	9304.2625
2854.76927	9275.9625
2857.28724	9291.9625
2859.80367	9257.2625
2862.31855	9251.5625
2864.83189	9256.6625
2867.34368	9208.4625
2869.85393	9206.8625
2872.36264	9229.3625
2874.8698	9238.4625
2877.37543	9216.6625
2879.87952	9201.6625
2882.38207	9205.0625
2884.88308	9169.6625
2887.38256	9192.8625
2889.88051	9182.4625
2892.37692	9213.8625
2894.8718	9209.8625
2897.36515	9249.4625
2899.85698	9225.3625
2902.34727	9264.5625
2904.83604	9287.2625
2907.32328	9270.8625
2909.809	9281.8625
2912.29319	9260.6625
2914.77587	9267.1625
2917.25702	9261.1625
2919.73665	9261.0625
2922.21476	9272.7625
2924.69136	9282.6625
2927.16644	9265.9625
2929.64	9253.7625
2932.11205	9257.7625
2934.58258	9223.1625
2937.05161	9226.5625
2939.51912	9229.2625
2941.98513	9224.3625
2944.44962	9189.0625
2946.91261	9154.5625
2949.37409	9117.0625
2951.83407	9092.9625
2954.29254	9086.1625
2956.74951	9071.1625
2959.20498	9065.1625
2961.65895	9059.2625
2964.11142	9039.1625
2966.56239	9019.8625
2969.01186	8997.8625
2971.45984	8940.5625
2973.90632	8924.8625
2976.35131	8911.2625
2978.7948	8885.2625
2981.23681	8878.2625
2983.67732	8863.4625
2986.11635	8818.6625
2988.55388	8798.8625
2990.98993	8749.6625
2993.4245	8749.0625
2995.85758	8710.8625
2998.28917	8691.1625
3000.71928	8689.7625
3003.14791	8676.9625
3005.57506	8676.7625
3008.00073	8631.6625
3010.42493	8621.1625
3012.84764	8598.4625
3015.26888	8620.6625
3017.68865	8582.1625
3020.10694	8557.5625
3022.52376	8534.0625
3024.9391	8536.7625
3027.35298	8530.5625
3029.76539	8501.0625
3032.17632	8479.0625
3034.5858	8478.0625
3036.9938	8476.9625
3039.40034	8465.3625
3041.80542	8469.7625
3044.20903	8446.7625
3046.61118	8424.6625
3049.01187	8422.5625
3051.4111	8411.6625
3053.80888	8397.0625
