Data from AgNPs_FTO_APTES_UA_2uM_CRN_1uM_R6G_10uM_NaF_0.1M_Addition_RamanShift__29__11-52-55-037.txt Node

Date: Wed Feb 02 11:52:55 GMT 2022
User: TCL
Spectrometer: QEP01345
Trigger mode: 4
Integration Time (sec): 7.000000E0
Scans to average: 10
Electric dark correction enabled: true
Nonlinearity correction enabled: false
Boxcar width: 0
XAxis mode: Raman Shifts
Number of Pixels in Spectrum: 1044
>>>>>Begin Spectral Data<<<<<
46.04893	1.1875
50.45542	-0.4125
54.85868	0.0875
59.25871	0.6875
63.6555	53.7875
68.04907	59.3875
72.43941	60.2875
76.82654	68.5875
81.21044	69.1875
85.59113	73.8875
89.96862	73.4875
94.34289	81.2875
98.71396	81.3875
103.08183	87.0875
107.4465	87.8875
111.80798	88.7875
116.16626	88.4875
120.52136	92.9875
124.87327	93.8875
129.222	93.8875
133.56755	103.7875
137.90993	108.3875
142.24913	119.4875
146.58517	135.7875
150.91804	148.7875
155.24774	174.1875
159.57429	210.2875
163.89768	265.6875
168.21792	341.6875
172.53501	461.8875
176.84895	637.7875
181.15975	880.9875
185.46741	1229.1875
189.77193	1684.0875
194.07331	2253.4875
198.37157	2882.0875
202.6667	3552.3875
206.9587	4207.0875
211.24758	4866.4875
215.53334	5559.0875
219.81599	6317.0875
224.09553	7156.8875
228.37195	8146.2875
232.64527	9155.6875
236.91549	10159.3875
241.18261	11110.1875
245.44663	11877.5875
249.70755	12551.8875
253.96539	13079.4875
258.22014	13582.8875
262.4718	14008.7875
266.72039	14344.0875
270.96589	14501.3875
275.20832	14541.1875
279.44768	14490.0875
283.68397	14368.7875
287.91719	14334.0875
292.14735	14378.3875
296.37445	14570.8875
300.59849	14900.3875
304.81948	15349.2875
309.03742	15656.2875
313.25231	15601.0875
317.46415	14900.9875
321.67296	13833.6875
325.87872	12931.8875
330.08145	12491.0875
334.28114	12441.3875
338.47781	12625.1875
342.67145	12932.1875
346.86207	13409.3875
351.04966	14183.2875
355.23424	15006.7875
359.4158	15682.1875
363.59435	15926.8875
367.76989	15956.1875
371.94243	15817.7875
376.11196	15644.2875
380.27849	15472.6875
384.44203	15370.3875
388.60257	15179.1875
392.76012	15130.0875
396.91468	15357.2875
401.06626	15844.9875
405.21485	16221.8875
409.36047	16038.0875
413.50311	15354.4875
417.64277	14638.2875
421.77947	14295.0875
425.9132	14162.7875
430.04396	14151.8875
434.17176	14225.9875
438.2966	14350.3875
442.41849	14658.0875
446.53742	15162.5875
450.6534	15616.4875
454.76644	15910.5875
458.87653	15908.8875
462.98368	15793.3875
467.08789	15597.9875
471.18916	15247.4875
475.2875	14884.2875
479.38291	14600.7875
483.4754	14371.7875
487.56496	14209.8875
491.6516	14088.9875
495.73531	14024.1875
499.81612	14026.0875
503.89401	14153.5875
507.96899	14300.9875
512.04106	14377.2875
516.11023	14437.9875
520.1765	14468.5875
524.23987	14378.1875
528.30034	14134.5875
532.35792	13869.3875
536.41261	13525.6875
540.46441	13166.9875
544.51333	13023.1875
548.55936	13164.5875
552.60252	13538.7875
556.64279	13937.1875
560.6802	14136.2875
564.71473	14436.1875
568.7464	15071.3875
572.7752	15604.1875
576.80114	15449.6875
580.82422	15205.0875
584.84444	15121.8875
588.86181	15004.2875
592.87633	14934.9875
596.888	15042.7875
600.89682	15465.7875
604.9028	17020.4875
608.90594	20944.0875
612.90624	25936.2875
616.90371	24809.1875
620.89834	17815.9875
624.89015	14431.2875
628.87913	13818.3875
632.86528	13878.2875
636.84862	14007.6875
640.82913	13742.8875
644.80683	13165.4875
648.78172	12725.8875
652.75379	12807.9875
656.72306	13381.4875
660.68952	14075.7875
664.65319	13995.5875
668.61405	13361.8875
672.57211	13015.1875
676.52738	12950.7875
680.47986	12870.3875
684.42955	12761.8875
688.37646	12705.8875
692.32058	12791.2875
696.26192	12948.8875
700.20048	13192.4875
704.13626	13441.5875
708.06928	13482.3875
711.99952	13335.1875
715.927	13159.4875
719.85171	13117.5875
723.77365	13011.7875
727.69284	12831.4875
731.60928	12640.6875
735.52295	12614.5875
739.43388	12665.9875
743.34206	12762.5875
747.24749	12892.5875
751.15017	13083.4875
755.05012	13417.9875
758.94733	14052.4875
762.8418	15469.6875
766.73354	17983.1875
770.62254	20430.5875
774.50882	21408.9875
778.39237	20403.3875
782.27321	17890.7875
786.15132	15384.9875
790.02671	13900.4875
793.89938	13207.5875
797.76935	12883.3875
801.6366	12765.1875
805.50115	12645.4875
809.36299	12531.9875
813.22213	12466.7875
817.07857	12404.3875
820.93231	12419.2875
824.78336	12446.5875
828.63172	12513.2875
832.47738	12576.0875
836.32036	12564.2875
840.16066	12507.1875
843.99827	12409.3875
847.8332	12338.7875
851.66546	12321.9875
855.49504	12323.3875
859.32195	12259.9875
863.1462	12207.2875
866.96777	12122.3875
870.78668	12088.2875
874.60293	12099.4875
878.41652	12162.2875
882.22745	12241.9875
886.03573	12286.4875
889.84136	12290.9875
893.64433	12214.2875
897.44466	12169.5875
901.24235	12169.4875
905.0374	12124.6875
908.8298	12092.6875
912.61957	12121.3875
916.40671	12240.6875
920.19121	12416.7875
923.97308	12570.7875
927.75233	12721.9875
931.52895	12770.3875
935.30295	12544.3875
939.07433	12129.6875
942.84309	11803.3875
946.60924	11602.2875
950.37278	11515.5875
954.13371	11448.2875
957.89203	11407.6875
961.64774	11339.2875
965.40086	11295.7875
969.15137	11260.4875
972.89929	11220.4875
976.64461	11204.4875
980.38733	11206.4875
984.12747	11231.1875
987.86502	11266.7875
991.59999	11370.5875
995.33237	11525.8875
999.06217	11847.9875
1002.78939	12226.1875
1006.51404	12619.3875
1010.23611	12890.6875
1013.95561	13044.0875
1017.67255	13001.7875
1021.38692	12710.9875
1025.09872	12438.9875
1028.80796	12303.0875
1032.51465	12314.6875
1036.21877	12517.8875
1039.92035	12754.1875
1043.61937	12816.7875
1047.31584	12741.1875
1051.00976	12594.1875
1054.70114	12551.2875
1058.38998	12510.2875
1062.07627	12621.6875
1065.76003	12746.3875
1069.44126	12942.8875
1073.11995	13167.3875
1076.79611	13335.7875
1080.46974	13447.7875
1084.14085	13705.4875
1087.80943	13996.7875
1091.47549	14175.9875
1095.13903	13950.5875
1098.80005	13449.9875
1102.45857	12976.9875
1106.11456	12642.8875
1109.76805	12564.3875
1113.41903	12693.5875
1117.06751	13003.0875
1120.71348	13465.5875
1124.35696	14055.1875
1127.99793	14590.5875
1131.63641	14588.3875
1135.2724	14054.9875
1138.90589	13523.4875
1142.5369	13191.5875
1146.16542	12999.7875
1149.79145	12916.8875
1153.415	12961.4875
1157.03607	13119.8875
1160.65467	13477.8875
1164.27079	14023.8875
1167.88443	14803.6875
1171.49561	16089.3875
1175.10432	18090.4875
1178.71056	20770.8875
1182.31434	22683.7875
1185.91565	23369.6875
1189.51451	23084.0875
1193.11091	22013.3875
1196.70485	20359.0875
1200.29634	18895.2875
1203.88538	17688.0875
1207.47197	16473.5875
1211.05612	15562.5875
1214.63782	15072.9875
1218.21708	14982.7875
1221.79391	15113.5875
1225.36829	15378.7875
1228.94024	15650.7875
1232.50976	15879.2875
1236.07685	15932.1875
1239.6415	15788.7875
1243.20374	15541.3875
1246.76355	15406.4875
1250.32093	15480.1875
1253.8759	15785.6875
1257.42845	16274.6875
1260.97859	16858.8875
1264.52631	17463.5875
1268.07163	18054.7875
1271.61453	18615.9875
1275.15503	19157.0875
1278.69312	19443.4875
1282.22882	19744.7875
1285.76211	20295.7875
1289.29301	21034.5875
1292.82151	21712.8875
1296.34761	22398.7875
1299.87133	23382.6875
1303.39266	24934.4875
1306.9116	27341.1875
1310.42815	30258.6875
1313.94233	32404.4875
1317.45412	32696.8875
1320.96354	31556.6875
1324.47058	29848.1875
1327.97525	28238.6875
1331.47754	27007.8875
1334.97747	26162.2875
1338.47502	25809.7875
1341.97022	25658.2875
1345.46305	25800.2875
1348.95352	26351.4875
1352.44163	27475.0875
1355.92738	29398.5875
1359.41078	32542.2875
1362.89183	35751.7875
1366.37053	35430.0875
1369.84688	31298.8875
1373.32088	26799.1875
1376.79254	23730.2875
1380.26186	22092.9875
1383.72883	21234.6875
1387.19347	20462.2875
1390.65578	19715.7875
1394.11575	19216.6875
1397.57339	19047.8875
1401.0287	19259.0875
1404.48168	19608.1875
1407.93234	19862.7875
1411.38068	19893.8875
1414.82669	19584.5875
1418.27039	18953.0875
1421.71177	18262.4875
1425.15083	17760.9875
1428.58758	17472.8875
1432.02203	17421.8875
1435.45416	17525.3875
1438.88399	17561.3875
1442.31151	17629.0875
1445.73673	17676.3875
1449.15965	17831.0875
1452.58027	17816.0875
1455.9986	17739.9875
1459.41463	17768.9875
1462.82837	17974.4875
1466.23982	18264.6875
1469.64898	18628.5875
1473.05586	18875.5875
1476.46045	18983.2875
1479.86276	19162.3875
1483.26279	19474.5875
1486.66054	19863.0875
1490.05602	20424.7875
1493.44922	21201.3875
1496.84016	22292.2875
1500.22882	23994.1875
1503.61521	26195.2875
1506.99934	28626.0875
1510.38121	31000.7875
1513.76081	32345.2875
1517.13816	31399.6875
1520.51324	28550.4875
1523.88607	25429.9875
1527.25665	23205.7875
1530.62498	21845.4875
1533.99105	21052.2875
1537.35488	20433.3875
1540.71647	20035.0875
1544.07581	19697.9875
1547.4329	19404.2875
1550.78776	19111.2875
1554.14038	18885.7875
1557.49077	18957.7875
1560.83892	19197.7875
1564.18484	19598.1875
1567.52853	20043.7875
1570.86999	20397.9875
1574.20922	20674.6875
1577.54624	20644.8875
1580.88103	19904.3875
1584.2136	18939.0875
1587.54395	18707.7875
1590.87208	19321.1875
1594.19801	20522.6875
1597.52172	21923.9875
1600.84321	22442.1875
1604.16251	21491.5875
1607.47959	19877.2875
1610.79447	18066.9875
1614.10715	16472.5875
1617.41763	15244.0875
1620.7259	14489.9875
1624.03199	14121.8875
1627.33587	14182.1875
1630.63757	14581.9875
1633.93707	15496.9875
1637.23439	16840.0875
1640.52951	18678.4875
1643.82246	20805.7875
1647.11321	22816.6875
1650.40179	24016.6875
1653.68819	23251.1875
1656.97241	20449.1875
1660.25446	17147.2875
1663.53433	14627.6875
1666.81203	13066.6875
1670.08756	12136.4875
1673.36092	11576.0875
1676.63211	11225.6875
1679.90115	10991.8875
1683.16801	10799.1875
1686.43272	10678.0875
1689.69527	10607.5875
1692.95567	10499.5875
1696.2139	10479.0875
1699.46999	10452.6875
1702.72392	10399.4875
1705.97571	10373.0875
1709.22535	10333.4875
1712.47284	10347.9875
1715.71819	10342.7875
1718.96139	10368.0875
1722.20246	10345.6875
1725.44139	10297.0875
1728.67818	10220.5875
1731.91284	10122.3875
1735.14537	10059.4875
1738.37576	9953.0875
1741.60403	9945.6875
1744.83017	9883.8875
1748.05418	9856.8875
1751.27607	9810.5875
1754.49584	9777.5875
1757.71349	9782.9875
1760.92903	9769.6875
1764.14244	9756.0875
1767.35375	9734.1875
1770.56294	9715.4875
1773.77002	9686.8875
1776.97499	9654.6875
1780.17785	9616.3875
1783.37861	9582.3875
1786.57727	9574.0875
1789.77382	9546.6875
1792.96828	9536.8875
1796.16064	9512.3875
1799.3509	9500.6875
1802.53907	9488.6875
1805.72514	9474.5875
1808.90913	9446.1875
1812.09102	9410.9875
1815.27083	9391.0875
1818.44856	9360.9875
1821.6242	9356.5875
1824.79776	9340.4875
1827.96924	9324.7875
1831.13864	9355.8875
1834.30597	9330.0875
1837.47122	9311.4875
1840.6344	9311.6875
1843.7955	9306.9875
1846.95454	9311.4875
1850.11151	9341.1875
1853.26642	9341.2875
1856.41926	9320.9875
1859.57004	9343.0875
1862.71876	9341.0875
1865.86542	9364.6875
1869.01003	9372.9875
1872.15258	9390.9875
1875.29308	9409.8875
1878.43152	9432.8875
1881.56792	9441.4875
1884.70227	9464.7875
1887.83457	9498.9875
1890.96482	9520.7875
1894.09304	9538.0875
1897.21921	9563.4875
1900.34335	9586.8875
1903.46544	9578.8875
1906.58551	9614.9875
1909.70353	9628.8875
1912.81953	9630.8875
1915.93349	9639.1875
1919.04543	9642.2875
1922.15534	9610.7875
1925.26322	9571.5875
1928.36908	9529.3875
1931.47292	9445.4875
1934.57473	9348.4875
1937.67453	9271.2875
1940.77232	9198.0875
1943.86808	9098.4875
1946.96184	9046.4875
1950.05358	8977.8875
1953.14331	8951.8875
1956.23103	8895.8875
1959.31675	8827.5875
1962.40046	8801.1875
1965.48217	8761.6875
1968.56188	8718.0875
1971.63959	8702.4875
1974.7153	8674.1875
1977.78901	8642.0875
1980.86073	8615.7875
1983.93046	8573.1875
1986.99819	8530.7875
1990.06394	8479.5875
1993.1277	8492.6875
1996.18947	8434.0875
1999.24925	8421.0875
2002.30706	8400.4875
2005.36288	8363.7875
2008.41672	8340.4875
2011.46859	8322.6875
2014.51848	8288.3875
2017.56639	8260.1875
2020.61233	8219.5875
2023.6563	8199.3875
2026.6983	8206.1875
2029.73833	8167.4875
2032.7764	8144.2875
2035.8125	8121.0875
2038.84664	8096.7875
2041.87881	8094.9875
2044.90903	8077.5875
2047.93729	8076.2875
2050.96359	8045.3875
2053.98794	8031.2875
2057.01034	8041.5875
2060.03078	7993.8875
2063.04927	7998.0875
2066.06582	7966.9875
2069.08042	7979.5875
2072.09307	7988.3875
2075.10378	7968.7875
2078.11255	7971.8875
2081.11938	7972.7875
2084.12426	7944.2875
2087.12722	7945.8875
2090.12824	7931.0875
2093.12732	7924.6875
2096.12447	7949.2875
2099.11969	7953.7875
2102.11299	7952.2875
2105.10435	7944.3875
2108.09379	7940.2875
2111.08131	7955.1875
2114.0669	7959.5875
2117.05057	7956.8875
2120.03233	7955.7875
2123.01216	7967.4875
2125.99008	7975.6875
2128.96609	7960.4875
2131.94018	7978.6875
2134.91236	7987.5875
2137.88263	7970.0875
2140.851	7947.2875
2143.81746	7970.6875
2146.78201	7960.7875
2149.74466	7940.0875
2152.7054	7945.2875
2155.66425	7949.8875
2158.6212	7918.0875
2161.57625	7920.4875
2164.52941	7921.3875
2167.48067	7917.8875
2170.43004	7920.0875
2173.37752	7913.6875
2176.32311	7920.4875
2179.26681	7933.2875
2182.20863	7892.4875
2185.14856	7916.7875
2188.08661	7891.5875
2191.02278	7899.8875
2193.95707	7871.6875
2196.88948	7878.7875
2199.82001	7860.0875
2202.74867	7873.7875
2205.67545	7861.0875
2208.60037	7854.3875
2211.52341	7861.5875
2214.44458	7833.7875
2217.36388	7793.7875
2220.28132	7776.5875
2223.1969	7769.2875
2226.11061	7750.9875
2229.02246	7729.2875
2231.93245	7721.1875
2234.84058	7710.1875
2237.74686	7679.4875
2240.65128	7697.8875
2243.55385	7682.4875
2246.45456	7671.0875
2249.35343	7668.8875
2252.25044	7625.0875
2255.14561	7624.4875
2258.03893	7648.5875
2260.93041	7624.0875
2263.82004	7593.3875
2266.70783	7591.2875
2269.59378	7580.5875
2272.4779	7542.6875
2275.36017	7519.2875
2278.24061	7511.5875
2281.11922	7492.1875
2283.996	7487.9875
2286.87094	7467.5875
2289.74405	7437.0875
2292.61534	7415.9875
2295.4848	7418.2875
2298.35243	7393.2875
2301.21824	7384.0875
2304.08223	7392.4875
2306.94439	7401.4875
2309.80474	7387.7875
2312.66327	7402.9875
2315.51999	7371.6875
2318.37489	7377.6875
2321.22797	7360.4875
2324.07925	7358.7875
2326.92871	7332.1875
2329.77637	7329.0875
2332.62222	7330.1875
2335.46626	7315.6875
2338.3085	7309.7875
2341.14893	7308.8875
2343.98756	7284.6875
2346.8244	7302.8875
2349.65943	7284.9875
2352.49267	7290.2875
2355.32411	7312.7875
2358.15376	7303.1875
2360.98161	7306.7875
2363.80768	7324.7875
2366.63195	7322.3875
2369.45444	7319.4875
2372.27514	7316.1875
2375.09405	7282.4875
2377.91118	7263.6875
2380.72652	7257.8875
2383.54009	7220.3875
2386.35187	7204.6875
2389.16188	7174.8875
2391.97011	7159.4875
2394.77657	7131.4875
2397.58125	7114.4875
2400.38416	7108.5875
2403.18529	7071.4875
2405.98466	7079.2875
2408.78226	7050.5875
2411.57809	7035.2875
2414.37216	7034.1875
2417.16446	6997.5875
2419.955	7021.7875
2422.74378	7010.6875
2425.5308	7004.2875
2428.31606	7002.8875
2431.09956	6994.9875
2433.88131	6978.6875
2436.6613	6977.5875
2439.43954	6982.6875
2442.21603	6989.4875
2444.99077	6979.9875
2447.76377	6976.2875
2450.53501	6981.6875
2453.30451	6967.1875
2456.07226	6980.8875
2458.83827	6962.2875
2461.60254	6973.6875
2464.36507	6981.4875
2467.12586	6966.4875
2469.88492	6970.3875
2472.64224	6957.1875
2475.39782	6952.9875
2478.15167	6982.5875
2480.90379	6976.6875
2483.65417	6977.8875
2486.40283	6964.0875
2489.14976	7003.8875
2491.89497	6997.1875
2494.63845	6996.4875
2497.3802	6986.8875
2500.12024	6991.1875
2502.85855	6983.9875
2505.59514	6961.4875
2508.33002	6967.9875
2511.06318	6925.8875
2513.79462	6926.1875
2516.52435	6900.7875
2519.25237	6883.6875
2521.97867	6852.4875
2524.70327	6840.3875
2527.42616	6834.8875
2530.14734	6817.2875
2532.86681	6804.6875
2535.58458	6818.0875
2538.30065	6800.6875
2541.01501	6793.8875
2543.72768	6780.4875
2546.43864	6779.4875
2549.14791	6774.8875
2551.85548	6802.5875
2554.56136	6774.8875
2557.26554	6758.1875
2559.96803	6769.2875
2562.66883	6761.9875
2565.36794	6725.8875
2568.06536	6746.1875
2570.7611	6720.7875
2573.45514	6689.7875
2576.14751	6711.7875
2578.83819	6712.6875
2581.52719	6711.5875
2584.21451	6682.0875
2586.90015	6712.0875
2589.58411	6692.1875
2592.2664	6668.2875
2594.94701	6669.3875
2597.62594	6682.2875
2600.30321	6630.5875
2602.9788	6640.9875
2605.65273	6654.4875
2608.32498	6631.7875
2610.99557	6648.8875
2613.66449	6654.9875
2616.33175	6631.1875
2618.99734	6631.3875
2621.66128	6626.2875
2624.32355	6606.5875
2626.98416	6633.6875
2629.64311	6627.8875
2632.30041	6599.2875
2634.95605	6588.7875
2637.61004	6595.0875
2640.26238	6571.5875
2642.91306	6568.3875
2645.56209	6561.7875
2648.20948	6566.3875
2650.85521	6543.8875
2653.4993	6558.8875
2656.14175	6546.7875
2658.78255	6561.9875
2661.42171	6550.0875
2664.05923	6584.8875
2666.6951	6554.2875
2669.32934	6584.4875
2671.96194	6586.9875
2674.59291	6586.7875
2677.22224	6589.4875
2679.84993	6582.6875
2682.476	6588.4875
2685.10043	6576.0875
2687.72324	6593.9875
2690.34441	6583.2875
2692.96396	6573.7875
2695.58188	6588.5875
2698.19818	6587.1875
2700.81285	6607.8875
2703.4259	6593.8875
2706.03733	6606.0875
2708.64714	6612.7875
2711.25533	6590.3875
2713.86191	6609.4875
2716.46687	6626.7875
2719.07021	6601.6875
2721.67194	6627.0875
2724.27206	6616.1875
2726.87057	6620.8875
2729.46747	6597.8875
2732.06276	6634.4875
2734.65644	6610.4875
2737.24852	6616.1875
2739.83899	6594.2875
2742.42786	6589.6875
2745.01513	6582.6875
2747.60079	6575.2875
2750.18486	6559.0875
2752.76733	6563.8875
2755.3482	6551.2875
2757.92747	6562.9875
2760.50515	6559.2875
2763.08123	6549.5875
2765.65573	6547.0875
2768.22863	6534.8875
2770.79994	6553.7875
2773.36967	6531.7875
2775.9378	6549.2875
2778.50435	6549.8875
2781.06932	6541.7875
2783.6327	6553.9875
2786.1945	6560.0875
2788.75471	6565.3875
2791.31335	6541.4875
2793.87041	6539.9875
2796.42589	6535.8875
2798.97979	6523.5875
2801.53212	6538.4875
2804.08288	6549.4875
2806.63206	6550.9875
2809.17967	6561.0875
2811.72571	6569.3875
2814.27018	6566.3875
2816.81308	6598.7875
2819.35442	6615.5875
2821.89419	6629.5875
2824.43239	6635.4875
2826.96904	6641.2875
2829.50412	6648.2875
2832.03763	6633.9875
2834.56959	6665.7875
2837.1	6648.2875
2839.62884	6689.8875
2842.15613	6764.2875
2844.68186	6860.0875
2847.20604	6953.0875
2849.72867	7018.2875
2852.24974	7053.1875
2854.76927	7075.0875
2857.28724	7049.8875
2859.80367	7030.8875
2862.31855	6990.3875
2864.83189	6955.8875
2867.34368	6941.9875
2869.85393	6945.9875
2872.36264	6905.8875
2874.8698	6892.0875
2877.37543	6907.9875
2879.87952	6910.3875
2882.38207	6912.5875
2884.88308	6899.5875
2887.38256	6891.0875
2889.88051	6888.6875
2892.37692	6877.1875
2894.8718	6904.5875
2897.36515	6898.4875
2899.85698	6891.2875
2902.34727	6915.2875
2904.83604	6904.6875
2907.32328	6916.5875
2909.809	6897.5875
2912.29319	6886.2875
2914.77587	6871.7875
2917.25702	6874.6875
2919.73665	6839.8875
2922.21476	6853.7875
2924.69136	6835.5875
2927.16644	6810.2875
2929.64	6811.1875
2932.11205	6773.0875
2934.58258	6743.4875
2937.05161	6719.8875
2939.51912	6680.6875
2941.98513	6628.3875
2944.44962	6563.6875
2946.91261	6477.6875
2949.37409	6436.5875
2951.83407	6392.8875
2954.29254	6379.8875
2956.74951	6326.3875
2959.20498	6291.5875
2961.65895	6269.9875
2964.11142	6252.9875
2966.56239	6211.2875
2969.01186	6214.4875
2971.45984	6156.0875
2973.90632	6147.7875
2976.35131	6110.9875
2978.7948	6075.2875
2981.23681	6062.3875
2983.67732	6046.1875
2986.11635	5996.7875
2988.55388	5984.9875
2990.98993	5970.9875
2993.4245	5958.0875
2995.85758	5912.7875
2998.28917	5898.0875
3000.71928	5894.8875
3003.14791	5892.4875
3005.57506	5879.8875
3008.00073	5830.3875
3010.42493	5832.4875
3012.84764	5824.1875
3015.26888	5822.4875
3017.68865	5810.9875
3020.10694	5805.7875
3022.52376	5785.5875
3024.9391	5764.2875
3027.35298	5766.3875
3029.76539	5739.2875
3032.17632	5730.5875
3034.5858	5730.0875
3036.9938	5734.4875
3039.40034	5711.9875
3041.80542	5703.3875
3044.20903	5690.5875
3046.61118	5675.7875
3049.01187	5665.9875
3051.4111	5674.2875
3053.80888	5655.5875
3056.20519	5641.2875
3058.60005	5619.3875
3060.99345	5623.1875
3063.3854	5603.1875
3065.7759	5590.0875
3068.16494	5580.6875
3070.55254	5570.6875
3072.93868	5577.0875
3075.32338	5539.9875
3077.70662	5538.5875
