Data from AgNPs_FTO_APTES_UA_2uM_CRN_10uM_R6G_10uM_NaF_0.1M_Addition_RamanShift__23__13-44-55-168.txt Node

Date: Wed Feb 02 13:44:55 GMT 2022
User: TCL
Spectrometer: QEP01345
Trigger mode: 4
Integration Time (sec): 7.000000E0
Scans to average: 10
Electric dark correction enabled: true
Nonlinearity correction enabled: false
Boxcar width: 0
XAxis mode: Raman Shifts
Number of Pixels in Spectrum: 1044
>>>>>Begin Spectral Data<<<<<
46.04893	-0.2625
50.45542	-0.3625
54.85868	-0.9625
59.25871	0.4375
63.6555	89.7375
68.04907	94.6375
72.43941	98.5375
76.82654	105.1375
81.21044	105.6375
85.59113	116.5375
89.96862	115.4375
94.34289	119.9375
98.71396	125.1375
103.08183	134.1375
107.4465	134.4375
111.80798	135.3375
116.16626	137.9375
120.52136	146.5375
124.87327	150.4375
129.222	161.5375
133.56755	174.4375
137.90993	188.4375
142.24913	209.2375
146.58517	235.4375
150.91804	274.8375
155.24774	327.5375
159.57429	415.5375
163.89768	531.3375
168.21792	703.1375
172.53501	965.4375
176.84895	1345.0375
181.15975	1893.0375
185.46741	2657.3375
189.77193	3648.7375
194.07331	4883.4375
198.37157	6282.3375
202.6667	7752.0375
206.9587	9209.9375
211.24758	10688.8375
215.53334	12154.4375
219.81599	13693.5375
224.09553	15486.9375
228.37195	17433.8375
232.64527	19598.2375
236.91549	21834.9375
241.18261	24020.2375
245.44663	25953.7375
249.70755	27637.7375
253.96539	29143.2375
258.22014	30441.8375
262.4718	31628.3375
266.72039	32494.4375
270.96589	33080.7375
275.20832	33203.0375
279.44768	33112.9375
283.68397	32981.9375
287.91719	32855.7375
292.14735	32934.5375
296.37445	33197.9375
300.59849	33478.7375
304.81948	33753.4375
309.03742	33801.4375
313.25231	33286.9375
317.46415	32173.7375
321.67296	30664.6375
325.87872	29426.0375
330.08145	28796.3375
334.28114	28746.2375
338.47781	28942.1375
342.67145	29395.0375
346.86207	30044.0375
351.04966	30916.8375
355.23424	31844.7375
359.4158	32613.3375
363.59435	33040.8375
367.76989	33274.5375
371.94243	33467.4375
376.11196	33568.5375
380.27849	33625.5375
384.44203	33702.1375
388.60257	33780.7375
392.76012	34044.4375
396.91468	34501.7375
401.06626	35076.1375
405.21485	35529.3375
409.36047	35278.8375
413.50311	34404.6375
417.64277	33668.6375
421.77947	33386.2375
425.9132	33405.1375
430.04396	33553.3375
434.17176	33810.3375
438.2966	34178.2375
442.41849	34810.5375
446.53742	35797.6375
450.6534	36864.7375
454.76644	37761.5375
458.87653	38125.6375
462.98368	37979.3375
467.08789	37557.4375
471.18916	37012.4375
475.2875	36520.0375
479.38291	36172.1375
483.4754	35882.4375
487.56496	35312.1375
491.6516	34655.2375
495.73531	34106.9375
499.81612	33724.6375
503.89401	33882.5375
507.96899	33961.4375
512.04106	33915.8375
516.11023	33823.2375
520.1765	33627.5375
524.23987	33310.8375
528.30034	32905.3375
532.35792	32485.4375
536.41261	31984.2375
540.46441	31548.2375
544.51333	31532.7375
548.55936	32000.3375
552.60252	32878.7375
556.64279	33827.1375
560.6802	34419.5375
564.71473	34862.8375
568.7464	35655.0375
572.7752	36525.0375
576.80114	36916.3375
580.82422	36962.2375
584.84444	37120.6375
588.86181	37310.5375
592.87633	37842.3375
596.888	38277.6375
600.89682	38792.1375
604.9028	40692.6375
608.90594	45824.1375
612.90624	51604.8375
616.90371	48493.7375
620.89834	38362.4375
624.89015	33755.5375
628.87913	33133.1375
632.86528	33264.3375
636.84862	33259.5375
640.82913	32594.6375
644.80683	31420.9375
648.78172	30576.8375
652.75379	30409.5375
656.72306	30970.6375
660.68952	31767.9375
664.65319	31635.7375
668.61405	30875.6375
672.57211	30549.2375
676.52738	30515.0375
680.47986	30530.5375
684.42955	30342.7375
688.37646	30280.8375
692.32058	30387.8375
696.26192	30674.9375
700.20048	31124.9375
704.13626	31373.1375
708.06928	31331.3375
711.99952	31039.0375
715.927	30905.4375
719.85171	30933.6375
723.77365	30812.7375
727.69284	30422.4375
731.60928	30162.8375
735.52295	30030.3375
739.43388	30049.4375
743.34206	30185.5375
747.24749	30420.7375
751.15017	30791.7375
755.05012	31411.4375
758.94733	32707.1375
762.8418	35002.2375
766.73354	38610.2375
770.62254	42349.7375
774.50882	43403.6375
778.39237	40987.9375
782.27321	36869.6375
786.15132	33462.7375
790.02671	31458.3375
793.89938	30509.7375
797.76935	30128.2375
801.6366	29982.0375
805.50115	29885.4375
809.36299	29650.2375
813.22213	29441.0375
817.07857	29344.8375
820.93231	29377.7375
824.78336	29293.9375
828.63172	29254.9375
832.47738	29260.1375
836.32036	29214.5375
840.16066	29272.9375
843.99827	29349.5375
847.8332	29253.9375
851.66546	29101.1375
855.49504	28980.6375
859.32195	28949.7375
863.1462	28818.1375
866.96777	28650.1375
870.78668	28590.7375
874.60293	28556.6375
878.41652	28558.3375
882.22745	28636.6375
886.03573	28773.4375
889.84136	28748.4375
893.64433	28610.0375
897.44466	28445.0375
901.24235	28389.6375
905.0374	28320.9375
908.8298	28252.5375
912.61957	28363.4375
916.40671	28686.8375
920.19121	29062.4375
923.97308	29492.7375
927.75233	29654.3375
931.52895	29551.3375
935.30295	29081.8375
939.07433	28399.3375
942.84309	27839.5375
946.60924	27589.6375
950.37278	27438.6375
954.13371	27347.5375
957.89203	27229.8375
961.64774	27105.9375
965.40086	27063.4375
969.15137	26982.1375
972.89929	26849.7375
976.64461	26748.6375
980.38733	26752.5375
984.12747	26804.2375
987.86502	27096.4375
991.59999	27540.0375
995.33237	28121.4375
999.06217	29114.5375
1002.78939	30341.4375
1006.51404	31166.0375
1010.23611	31645.1375
1013.95561	31990.0375
1017.67255	32013.6375
1021.38692	31553.8375
1025.09872	31214.3375
1028.80796	31440.9375
1032.51465	32287.1375
1036.21877	33147.6375
1039.92035	33283.1375
1043.61937	32819.2375
1047.31584	31941.4375
1051.00976	30955.4375
1054.70114	30387.2375
1058.38998	30303.5375
1062.07627	30504.9375
1065.76003	30750.7375
1069.44126	31048.7375
1073.11995	31397.7375
1076.79611	31779.1375
1080.46974	31963.4375
1084.14085	32294.5375
1087.80943	32786.4375
1091.47549	33085.8375
1095.13903	32985.3375
1098.80005	32356.1375
1102.45857	31576.8375
1106.11456	30947.5375
1109.76805	30766.8375
1113.41903	30979.9375
1117.06751	31447.8375
1120.71348	31985.1375
1124.35696	32562.3375
1127.99793	33209.7375
1131.63641	33407.3375
1135.2724	32977.3375
1138.90589	32477.9375
1142.5369	32212.8375
1146.16542	32122.0375
1149.79145	32187.7375
1153.415	32553.9375
1157.03607	33105.1375
1160.65467	33986.1375
1164.27079	35463.0375
1167.88443	37527.2375
1171.49561	40363.4375
1175.10432	44338.8375
1178.71056	49326.0375
1182.31434	53921.0375
1185.91565	56362.8375
1189.51451	56486.2375
1193.11091	54666.6375
1196.70485	51854.2375
1200.29634	48927.3375
1203.88538	46488.9375
1207.47197	44499.7375
1211.05612	43057.4375
1214.63782	42039.6375
1218.21708	41506.0375
1221.79391	41299.0375
1225.36829	41171.0375
1228.94024	40875.5375
1232.50976	40438.7375
1236.07685	40007.9375
1239.6415	39709.1375
1243.20374	39525.2375
1246.76355	39667.9375
1250.32093	40231.1375
1253.8759	41253.8375
1257.42845	42669.6375
1260.97859	44073.5375
1264.52631	45353.0375
1268.07163	46688.6375
1271.61453	48234.9375
1275.15503	49914.8375
1278.69312	51422.3375
1282.22882	52781.3375
1285.76211	53996.6375
1289.29301	55522.1375
1292.82151	57520.4375
1296.34761	60076.2375
1299.87133	63361.9375
1303.39266	67524.2375
1306.9116	72487.4375
1310.42815	77742.6375
1313.94233	81387.4375
1317.45412	82102.7375
1320.96354	80642.6375
1324.47058	78539.4375
1327.97525	76579.0375
1331.47754	75091.9375
1334.97747	74391.5375
1338.47502	74324.7375
1341.97022	74336.3375
1345.46305	73670.6375
1348.95352	72412.9375
1352.44163	71430.2375
1355.92738	72276.2375
1359.41078	75751.9375
1362.89183	79673.0375
1366.37053	78543.8375
1369.84688	71263.0375
1373.32088	62799.0375
1376.79254	57071.8375
1380.26186	54692.4375
1383.72883	54064.1375
1387.19347	53771.2375
1390.65578	53387.3375
1394.11575	53466.2375
1397.57339	54286.7375
1401.0287	55613.6375
1404.48168	56996.8375
1407.93234	57790.4375
1411.38068	57600.7375
1414.82669	56097.2375
1418.27039	53716.4375
1421.71177	51030.1375
1425.15083	48807.1375
1428.58758	47489.1375
1432.02203	47230.7375
1435.45416	47815.5375
1438.88399	48851.4375
1442.31151	49846.9375
1445.73673	50705.7375
1449.15965	51684.5375
1452.58027	52435.3375
1455.9986	52843.9375
1459.41463	53286.7375
1462.82837	54096.3375
1466.23982	55192.2375
1469.64898	56126.1375
1473.05586	56613.5375
1476.46045	56582.9375
1479.86276	56248.7375
1483.26279	55843.0375
1486.66054	55647.7375
1490.05602	55898.0375
1493.44922	56453.6375
1496.84016	57184.2375
1500.22882	58497.8375
1503.61521	60705.6375
1506.99934	63611.3375
1510.38121	66635.8375
1513.76081	68107.6375
1517.13816	66707.5375
1520.51324	63220.7375
1523.88607	59508.1375
1527.25665	57023.3375
1530.62498	55621.6375
1533.99105	54771.9375
1537.35488	54225.1375
1540.71647	53657.0375
1544.07581	52814.7375
1547.4329	51904.6375
1550.78776	51113.8375
1554.14038	50599.5375
1557.49077	50551.2375
1560.83892	50618.2375
1564.18484	50784.3375
1567.52853	50809.3375
1570.86999	50959.4375
1574.20922	51366.6375
1577.54624	51740.8375
1580.88103	51693.7375
1584.2136	51731.8375
1587.54395	52959.0375
1590.87208	55533.2375
1594.19801	59154.9375
1597.52172	62812.8375
1600.84321	63914.7375
1604.16251	61291.5375
1607.47959	56392.7375
1610.79447	51173.9375
1614.10715	46342.0375
1617.41763	42361.9375
1620.7259	39589.2375
1624.03199	38236.1375
1627.33587	38161.4375
1630.63757	39447.0375
1633.93707	42090.6375
1637.23439	46230.1375
1640.52951	51701.1375
1643.82246	57597.5375
1647.11321	62086.7375
1650.40179	63286.4375
1653.68819	59532.3375
1656.97241	51977.0375
1660.25446	43928.3375
1663.53433	37802.7375
1666.81203	33800.9375
1670.08756	31289.2375
1673.36092	29698.4375
1676.63211	28643.3375
1679.90115	27936.1375
1683.16801	27403.0375
1686.43272	26987.8375
1689.69527	26708.7375
1692.95567	26516.5375
1696.2139	26392.6375
1699.46999	26248.4375
1702.72392	26163.7375
1705.97571	26040.3375
1709.22535	25969.4375
1712.47284	25918.0375
1715.71819	25880.1375
1718.96139	25810.1375
1722.20246	25739.7375
1725.44139	25598.4375
1728.67818	25380.7375
1731.91284	25273.6375
1735.14537	25097.4375
1738.37576	24979.1375
1741.60403	24860.1375
1744.83017	24822.0375
1748.05418	24721.3375
1751.27607	24739.5375
1754.49584	24681.3375
1757.71349	24660.0375
1760.92903	24618.3375
1764.14244	24559.7375
1767.35375	24554.1375
1770.56294	24513.4375
1773.77002	24492.8375
1776.97499	24420.0375
1780.17785	24306.1375
1783.37861	24251.0375
1786.57727	24236.9375
1789.77382	24169.9375
1792.96828	24130.9375
1796.16064	24126.6375
1799.3509	24113.3375
1802.53907	24077.7375
1805.72514	24038.5375
1808.90913	23927.7375
1812.09102	23903.2375
1815.27083	23883.8375
1818.44856	23849.7375
1821.6242	23803.7375
1824.79776	23774.4375
1827.96924	23713.9375
1831.13864	23732.3375
1834.30597	23764.3375
1837.47122	23745.5375
1840.6344	23762.4375
1843.7955	23791.1375
1846.95454	23812.3375
1850.11151	23823.4375
1853.26642	23813.9375
1856.41926	23827.7375
1859.57004	23865.1375
1862.71876	23840.3375
1865.86542	23874.1375
1869.01003	23882.3375
1872.15258	23853.6375
1875.29308	23884.1375
1878.43152	23914.2375
1881.56792	23905.6375
1884.70227	23952.6375
1887.83457	23953.4375
1890.96482	23972.5375
1894.09304	24010.9375
1897.21921	23996.8375
1900.34335	24011.5375
1903.46544	24003.3375
1906.58551	24020.5375
1909.70353	23960.8375
1912.81953	23943.1375
1915.93349	23889.2375
1919.04543	23865.0375
1922.15534	23838.1375
1925.26322	23717.0375
1928.36908	23650.5375
1931.47292	23558.1375
1934.57473	23400.0375
1937.67453	23301.9375
1940.77232	23171.0375
1943.86808	23071.4375
1946.96184	23008.6375
1950.05358	22861.0375
1953.14331	22754.0375
1956.23103	22684.2375
1959.31675	22597.8375
1962.40046	22542.0375
1965.48217	22471.7375
1968.56188	22404.3375
1971.63959	22301.2375
1974.7153	22256.5375
1977.78901	22203.7375
1980.86073	22082.4375
1983.93046	22053.3375
1986.99819	21973.2375
1990.06394	21924.2375
1993.1277	21848.3375
1996.18947	21749.9375
1999.24925	21696.2375
2002.30706	21608.8375
2005.36288	21545.9375
2008.41672	21509.1375
2011.46859	21456.6375
2014.51848	21376.2375
2017.56639	21309.7375
2020.61233	21300.0375
2023.6563	21235.0375
2026.6983	21200.0375
2029.73833	21174.9375
2032.7764	21135.6375
2035.8125	21095.0375
2038.84664	21093.1375
2041.87881	21070.4375
2044.90903	21007.6375
2047.93729	20961.4375
2050.96359	20985.0375
2053.98794	20951.6375
2057.01034	20908.5375
2060.03078	20895.2375
2063.04927	20861.7375
2066.06582	20864.2375
2069.08042	20841.6375
2072.09307	20777.2375
2075.10378	20781.1375
2078.11255	20739.0375
2081.11938	20732.7375
2084.12426	20693.3375
2087.12722	20692.9375
2090.12824	20681.6375
2093.12732	20688.5375
2096.12447	20726.6375
2099.11969	20718.3375
2102.11299	20704.7375
2105.10435	20679.1375
2108.09379	20696.7375
2111.08131	20714.3375
2114.0669	20675.6375
2117.05057	20719.9375
2120.03233	20743.4375
2123.01216	20770.3375
2125.99008	20749.5375
2128.96609	20753.1375
2131.94018	20788.0375
2134.91236	20806.4375
2137.88263	20811.7375
2140.851	20856.3375
2143.81746	20865.4375
2146.78201	20831.1375
2149.74466	20850.5375
2152.7054	20837.2375
2155.66425	20809.5375
2158.6212	20794.1375
2161.57625	20803.6375
2164.52941	20819.5375
2167.48067	20821.4375
2170.43004	20777.9375
2173.37752	20765.2375
2176.32311	20735.6375
2179.26681	20773.1375
2182.20863	20773.1375
2185.14856	20778.2375
2188.08661	20762.4375
2191.02278	20836.8375
2193.95707	20792.7375
2196.88948	20772.6375
2199.82001	20784.7375
2202.74867	20792.5375
2205.67545	20802.7375
2208.60037	20761.9375
2211.52341	20768.0375
2214.44458	20730.4375
2217.36388	20695.6375
2220.28132	20694.1375
2223.1969	20619.2375
2226.11061	20621.6375
2229.02246	20551.3375
2231.93245	20538.4375
2234.84058	20498.7375
2237.74686	20460.5375
2240.65128	20434.9375
2243.55385	20366.8375
2246.45456	20365.0375
2249.35343	20361.5375
2252.25044	20317.0375
2255.14561	20299.9375
2258.03893	20258.9375
2260.93041	20259.1375
2263.82004	20151.3375
2266.70783	20128.8375
2269.59378	20081.1375
2272.4779	20018.7375
2275.36017	19970.0375
2278.24061	19941.6375
2281.11922	19895.4375
2283.996	19879.5375
2286.87094	19862.1375
2289.74405	19790.1375
2292.61534	19812.3375
2295.4848	19805.4375
2298.35243	19824.0375
2301.21824	19828.7375
2304.08223	19814.5375
2306.94439	19826.2375
2309.80474	19861.5375
2312.66327	19838.5375
2315.51999	19885.6375
2318.37489	19897.4375
2321.22797	19850.0375
2324.07925	19817.8375
2326.92871	19798.2375
2329.77637	19829.3375
2332.62222	19820.8375
2335.46626	19859.6375
2338.3085	19814.4375
2341.14893	19838.6375
2343.98756	19819.8375
2346.8244	19893.4375
2349.65943	19849.5375
2352.49267	19845.6375
2355.32411	19857.0375
2358.15376	19852.5375
2360.98161	19827.4375
2363.80768	19808.3375
2366.63195	19778.3375
2369.45444	19720.2375
2372.27514	19697.2375
2375.09405	19693.1375
2377.91118	19636.7375
2380.72652	19558.9375
2383.54009	19497.1375
2386.35187	19499.6375
2389.16188	19470.5375
2391.97011	19430.5375
2394.77657	19344.9375
2397.58125	19336.6375
2400.38416	19334.1375
2403.18529	19298.0375
2405.98466	19266.7375
2408.78226	19214.3375
2411.57809	19172.1375
2414.37216	19146.1375
2417.16446	19172.1375
2419.955	19126.8375
2422.74378	19105.7375
2425.5308	19093.6375
2428.31606	19100.3375
2431.09956	19104.0375
2433.88131	19027.4375
2436.6613	19063.4375
2439.43954	19024.2375
2442.21603	19047.3375
2444.99077	18995.0375
2447.76377	19013.8375
2450.53501	19007.0375
2453.30451	19012.1375
2456.07226	19002.9375
2458.83827	19027.6375
2461.60254	19022.2375
2464.36507	19035.6375
2467.12586	19051.7375
2469.88492	19029.6375
2472.64224	19029.6375
2475.39782	19046.2375
2478.15167	19080.6375
2480.90379	19064.1375
2483.65417	19088.4375
2486.40283	19094.8375
2489.14976	19130.9375
2491.89497	19144.9375
2494.63845	19172.3375
2497.3802	19171.2375
2500.12024	19173.6375
2502.85855	19174.1375
2505.59514	19186.0375
2508.33002	19155.0375
2511.06318	19146.6375
2513.79462	19134.9375
2516.52435	19048.3375
2519.25237	19031.0375
2521.97867	19047.1375
2524.70327	19054.8375
2527.42616	19019.3375
2530.14734	18984.9375
2532.86681	18966.7375
2535.58458	18967.9375
2538.30065	18938.6375
2541.01501	18931.9375
2543.72768	18929.1375
2546.43864	18939.5375
2549.14791	18898.7375
2551.85548	18905.7375
2554.56136	18895.1375
2557.26554	18868.1375
2559.96803	18879.9375
2562.66883	18838.7375
2565.36794	18815.9375
2568.06536	18844.5375
2570.7611	18823.8375
2573.45514	18771.8375
2576.14751	18788.2375
2578.83819	18816.1375
2581.52719	18801.4375
2584.21451	18796.3375
2586.90015	18779.9375
2589.58411	18783.1375
2592.2664	18784.5375
2594.94701	18791.5375
2597.62594	18780.0375
2600.30321	18764.9375
2602.9788	18780.1375
2605.65273	18746.3375
2608.32498	18733.5375
2610.99557	18729.0375
2613.66449	18774.4375
2616.33175	18786.7375
2618.99734	18795.6375
2621.66128	18784.2375
2624.32355	18816.5375
2626.98416	18827.6375
2629.64311	18844.0375
2632.30041	18820.2375
2634.95605	18837.2375
2637.61004	18759.0375
2640.26238	18762.3375
2642.91306	18750.4375
2645.56209	18702.3375
2648.20948	18689.2375
2650.85521	18654.4375
2653.4993	18713.3375
2656.14175	18728.5375
2658.78255	18708.9375
2661.42171	18710.2375
2664.05923	18753.9375
2666.6951	18720.1375
2669.32934	18824.7375
2671.96194	18777.4375
2674.59291	18793.4375
2677.22224	18782.0375
2679.84993	18774.1375
2682.476	18783.6375
2685.10043	18770.3375
2687.72324	18735.1375
2690.34441	18763.0375
2692.96396	18688.5375
2695.58188	18727.2375
2698.19818	18692.6375
2700.81285	18696.6375
2703.4259	18691.4375
2706.03733	18755.2375
2708.64714	18747.9375
2711.25533	18726.1375
2713.86191	18726.2375
2716.46687	18741.2375
2719.07021	18731.7375
2721.67194	18768.2375
2724.27206	18734.3375
2726.87057	18778.2375
2729.46747	18784.9375
2732.06276	18775.7375
2734.65644	18725.0375
2737.24852	18761.7375
2739.83899	18758.1375
2742.42786	18746.0375
2745.01513	18749.0375
2747.60079	18726.3375
2750.18486	18735.2375
2752.76733	18775.7375
2755.3482	18756.6375
2757.92747	18762.2375
2760.50515	18788.2375
2763.08123	18765.6375
2765.65573	18712.7375
2768.22863	18722.8375
2770.79994	18685.6375
2773.36967	18687.2375
2775.9378	18701.4375
2778.50435	18745.2375
2781.06932	18702.2375
2783.6327	18709.0375
2786.1945	18700.4375
2788.75471	18662.3375
2791.31335	18633.4375
2793.87041	18600.9375
2796.42589	18563.1375
2798.97979	18582.3375
2801.53212	18544.0375
2804.08288	18512.2375
2806.63206	18479.8375
2809.17967	18455.6375
2811.72571	18421.4375
2814.27018	18412.0375
2816.81308	18414.6375
2819.35442	18373.0375
2821.89419	18366.5375
2824.43239	18370.9375
2826.96904	18370.5375
2829.50412	18358.5375
2832.03763	18288.8375
2834.56959	18332.9375
2837.1	18246.1375
2839.62884	18301.2375
2842.15613	18299.7375
2844.68186	18297.0375
2847.20604	18310.2375
2849.72867	18376.3375
2852.24974	18341.8375
2854.76927	18309.5375
2857.28724	18312.0375
2859.80367	18319.8375
2862.31855	18271.3375
2864.83189	18237.9375
2867.34368	18208.6375
2869.85393	18234.0375
2872.36264	18183.0375
2874.8698	18252.6375
2877.37543	18245.7375
2879.87952	18213.4375
2882.38207	18214.9375
2884.88308	18245.3375
2887.38256	18253.0375
2889.88051	18248.0375
2892.37692	18294.6375
2894.8718	18261.6375
2897.36515	18267.6375
2899.85698	18277.8375
2902.34727	18313.1375
2904.83604	18307.7375
2907.32328	18369.5375
2909.809	18298.4375
2912.29319	18331.4375
2914.77587	18307.3375
2917.25702	18293.1375
2919.73665	18313.1375
2922.21476	18282.9375
2924.69136	18291.1375
2927.16644	18292.4375
2929.64	18280.5375
2932.11205	18276.0375
2934.58258	18180.4375
2937.05161	18222.1375
2939.51912	18222.7375
2941.98513	18169.1375
2944.44962	18128.4375
2946.91261	18034.1375
2949.37409	18050.6375
2951.83407	18034.2375
2954.29254	18018.8375
2956.74951	18016.8375
2959.20498	17951.3375
2961.65895	17910.5375
2964.11142	17901.0375
2966.56239	17888.1375
2969.01186	17856.5375
2971.45984	17780.2375
2973.90632	17747.0375
2976.35131	17697.2375
2978.7948	17639.8375
2981.23681	17585.8375
2983.67732	17595.0375
2986.11635	17563.8375
2988.55388	17485.7375
2990.98993	17477.5375
2993.4245	17416.6375
2995.85758	17358.0375
2998.28917	17335.7375
3000.71928	17330.5375
3003.14791	17282.1375
3005.57506	17265.6375
3008.00073	17212.8375
3010.42493	17170.9375
3012.84764	17154.9375
3015.26888	17156.4375
3017.68865	17112.5375
3020.10694	17098.7375
3022.52376	17046.1375
