Data from AgNPs_FTO_APTES_UA_2uM_CRN_10uM_R6G_10uM_NaF_0.1M_Addition_RamanShift__22__13-43-45-166.txt Node

Date: Wed Feb 02 13:43:45 GMT 2022
User: TCL
Spectrometer: QEP01345
Trigger mode: 4
Integration Time (sec): 7.000000E0
Scans to average: 10
Electric dark correction enabled: true
Nonlinearity correction enabled: false
Boxcar width: 0
XAxis mode: Raman Shifts
Number of Pixels in Spectrum: 1044
>>>>>Begin Spectral Data<<<<<
46.04893	-0.1125
50.45542	0.4875
54.85868	-1.9125
59.25871	0.0875
63.6555	90.8875
68.04907	94.2875
72.43941	97.3875
76.82654	105.7875
81.21044	108.1875
85.59113	113.2875
89.96862	116.7875
94.34289	119.6875
98.71396	125.3875
103.08183	127.7875
107.4465	132.4875
111.80798	136.5875
116.16626	140.7875
120.52136	147.9875
124.87327	151.0875
129.222	158.0875
133.56755	176.6875
137.90993	188.7875
142.24913	208.3875
146.58517	237.5875
150.91804	273.8875
155.24774	335.9875
159.57429	415.3875
163.89768	533.0875
168.21792	700.9875
172.53501	972.4875
176.84895	1355.5875
181.15975	1895.6875
185.46741	2671.2875
189.77193	3667.4875
194.07331	4901.7875
198.37157	6295.9875
202.6667	7791.3875
206.9587	9278.8875
211.24758	10729.3875
215.53334	12196.5875
219.81599	13781.9875
224.09553	15531.9875
228.37195	17482.0875
232.64527	19666.7875
236.91549	21871.3875
241.18261	24061.7875
245.44663	26019.5875
249.70755	27797.0875
253.96539	29284.0875
258.22014	30634.8875
262.4718	31815.7875
266.72039	32706.6875
270.96589	33267.4875
275.20832	33453.2875
279.44768	33303.0875
283.68397	33149.3875
287.91719	33076.8875
292.14735	33161.1875
296.37445	33336.1875
300.59849	33634.2875
304.81948	33857.5875
309.03742	33854.1875
313.25231	33324.0875
317.46415	32198.9875
321.67296	30751.9875
325.87872	29584.4875
330.08145	28976.1875
334.28114	28870.5875
338.47781	29115.4875
342.67145	29602.8875
346.86207	30206.1875
351.04966	31020.6875
355.23424	31971.9875
359.4158	32731.7875
363.59435	33163.1875
367.76989	33419.3875
371.94243	33591.6875
376.11196	33663.2875
380.27849	33765.0875
384.44203	33890.3875
388.60257	33931.3875
392.76012	34240.5875
396.91468	34669.5875
401.06626	35272.9875
405.21485	35749.8875
409.36047	35459.4875
413.50311	34618.0875
417.64277	33928.7875
421.77947	33671.7875
425.9132	33755.2875
430.04396	33937.9875
434.17176	34130.9875
438.2966	34525.7875
442.41849	35093.1875
446.53742	36026.6875
450.6534	37103.9875
454.76644	38031.4875
458.87653	38423.4875
462.98368	38278.4875
467.08789	37863.6875
471.18916	37334.1875
475.2875	36762.1875
479.38291	36533.2875
483.4754	36214.0875
487.56496	35700.1875
491.6516	34996.3875
495.73531	34479.4875
499.81612	34125.8875
503.89401	34202.5875
507.96899	34322.8875
512.04106	34302.3875
516.11023	34154.0875
520.1765	33974.2875
524.23987	33628.1875
528.30034	33225.6875
532.35792	32786.4875
536.41261	32296.4875
540.46441	31886.3875
544.51333	31942.0875
548.55936	32458.4875
552.60252	33340.0875
556.64279	34199.1875
560.6802	34787.8875
564.71473	35232.2875
568.7464	35973.6875
572.7752	36863.3875
576.80114	37242.0875
580.82422	37333.4875
584.84444	37486.9875
588.86181	37730.9875
592.87633	38099.7875
596.888	38565.4875
600.89682	39131.4875
604.9028	41024.9875
608.90594	46009.8875
612.90624	51523.3875
616.90371	48463.3875
620.89834	38636.5875
624.89015	34164.7875
628.87913	33571.0875
632.86528	33688.3875
636.84862	33630.1875
640.82913	33014.7875
644.80683	31845.9875
648.78172	31002.0875
652.75379	30818.3875
656.72306	31355.3875
660.68952	32158.1875
664.65319	32026.5875
668.61405	31286.9875
672.57211	30975.4875
676.52738	30975.0875
680.47986	30978.7875
684.42955	30857.8875
688.37646	30757.6875
692.32058	30865.1875
696.26192	31173.9875
700.20048	31562.6875
704.13626	31792.5875
708.06928	31782.3875
711.99952	31475.6875
715.927	31352.9875
719.85171	31414.9875
723.77365	31225.0875
727.69284	30916.2875
731.60928	30562.4875
735.52295	30488.2875
739.43388	30483.3875
743.34206	30680.5875
747.24749	30823.6875
751.15017	31219.5875
755.05012	31917.5875
758.94733	33165.8875
762.8418	35361.2875
766.73354	38967.3875
770.62254	42466.8875
774.50882	43505.5875
778.39237	41131.7875
782.27321	37102.6875
786.15132	33826.3875
790.02671	31868.8875
793.89938	30963.3875
797.76935	30558.6875
801.6366	30484.9875
805.50115	30343.3875
809.36299	30104.8875
813.22213	29934.0875
817.07857	29839.6875
820.93231	29800.9875
824.78336	29748.2875
828.63172	29712.1875
832.47738	29675.0875
836.32036	29740.3875
840.16066	29753.8875
843.99827	29773.5875
847.8332	29759.0875
851.66546	29564.4875
855.49504	29453.6875
859.32195	29405.1875
863.1462	29257.8875
866.96777	29100.0875
870.78668	29012.8875
874.60293	29032.0875
878.41652	29004.6875
882.22745	29104.4875
886.03573	29220.5875
889.84136	29183.7875
893.64433	29065.7875
897.44466	28929.3875
901.24235	28854.3875
905.0374	28786.6875
908.8298	28685.4875
912.61957	28822.2875
916.40671	29119.6875
920.19121	29547.3875
923.97308	29959.8875
927.75233	30108.1875
931.52895	29970.0875
935.30295	29521.9875
939.07433	28907.9875
942.84309	28344.2875
946.60924	28049.6875
950.37278	27949.0875
954.13371	27767.4875
957.89203	27636.0875
961.64774	27604.3875
965.40086	27562.4875
969.15137	27427.7875
972.89929	27289.8875
976.64461	27198.3875
980.38733	27247.5875
984.12747	27307.3875
987.86502	27605.3875
991.59999	28016.6875
995.33237	28656.2875
999.06217	29674.3875
1002.78939	30849.8875
1006.51404	31700.7875
1010.23611	32150.6875
1013.95561	32489.8875
1017.67255	32450.8875
1021.38692	32107.5875
1025.09872	31742.6875
1028.80796	31963.4875
1032.51465	32888.8875
1036.21877	33771.5875
1039.92035	33965.2875
1043.61937	33418.9875
1047.31584	32532.8875
1051.00976	31468.6875
1054.70114	30935.3875
1058.38998	30842.3875
1062.07627	31012.9875
1065.76003	31256.7875
1069.44126	31540.0875
1073.11995	31870.8875
1076.79611	32243.3875
1080.46974	32473.8875
1084.14085	32735.0875
1087.80943	33245.6875
1091.47549	33529.4875
1095.13903	33437.7875
1098.80005	32837.5875
1102.45857	32062.3875
1106.11456	31467.9875
1109.76805	31225.7875
1113.41903	31484.8875
1117.06751	31904.9875
1120.71348	32462.5875
1124.35696	32993.0875
1127.99793	33599.0875
1131.63641	33795.9875
1135.2724	33378.6875
1138.90589	32914.3875
1142.5369	32646.9875
1146.16542	32541.7875
1149.79145	32628.5875
1153.415	33010.8875
1157.03607	33588.6875
1160.65467	34502.1875
1164.27079	35951.1875
1167.88443	38049.4875
1171.49561	40802.9875
1175.10432	44725.5875
1178.71056	49650.9875
1182.31434	54141.3875
1185.91565	56665.8875
1189.51451	56896.9875
1193.11091	55186.5875
1196.70485	52263.5875
1200.29634	49324.0875
1203.88538	46966.8875
1207.47197	45014.1875
1211.05612	43551.6875
1214.63782	42570.1875
1218.21708	42017.7875
1221.79391	41816.1875
1225.36829	41602.4875
1228.94024	41324.3875
1232.50976	40934.3875
1236.07685	40505.3875
1239.6415	40236.8875
1243.20374	40037.0875
1246.76355	40171.2875
1250.32093	40731.9875
1253.8759	41762.8875
1257.42845	43177.6875
1260.97859	44587.1875
1264.52631	45817.1875
1268.07163	47203.4875
1271.61453	48726.5875
1275.15503	50384.1875
1278.69312	51952.2875
1282.22882	53258.1875
1285.76211	54574.0875
1289.29301	56074.4875
1292.82151	58004.1875
1296.34761	60609.9875
1299.87133	63854.8875
1303.39266	67985.1875
1306.9116	72902.6875
1310.42815	78061.9875
1313.94233	81727.2875
1317.45412	82305.3875
1320.96354	80846.5875
1324.47058	78869.9875
1327.97525	76888.1875
1331.47754	75437.8875
1334.97747	74792.4875
1338.47502	74805.9875
1341.97022	74854.6875
1345.46305	74156.0875
1348.95352	72905.6875
1352.44163	71829.5875
1355.92738	72395.9875
1359.41078	75784.0875
1362.89183	79464.0875
1366.37053	78331.0875
1369.84688	71185.3875
1373.32088	62960.0875
1376.79254	57366.4875
1380.26186	55038.5875
1383.72883	54434.9875
1387.19347	54185.2875
1390.65578	53761.5875
1394.11575	53855.8875
1397.57339	54618.3875
1401.0287	55993.3875
1404.48168	57361.3875
1407.93234	58103.1875
1411.38068	57876.7875
1414.82669	56471.6875
1418.27039	54071.2875
1421.71177	51447.0875
1425.15083	49178.6875
1428.58758	47884.6875
1432.02203	47712.3875
1435.45416	48251.0875
1438.88399	49255.4875
1442.31151	50273.0875
1445.73673	51138.0875
1449.15965	52094.5875
1452.58027	52854.6875
1455.9986	53257.4875
1459.41463	53760.5875
1462.82837	54529.5875
1466.23982	55623.0875
1469.64898	56600.0875
1473.05586	57079.4875
1476.46045	56951.4875
1479.86276	56664.9875
1483.26279	56318.5875
1486.66054	56104.5875
1490.05602	56386.9875
1493.44922	56960.8875
1496.84016	57630.9875
1500.22882	58878.8875
1503.61521	60918.4875
1506.99934	63711.1875
1510.38121	66621.9875
1513.76081	68066.3875
1517.13816	66726.8875
1520.51324	63233.6875
1523.88607	59818.3875
1527.25665	57358.2875
1530.62498	56054.6875
1533.99105	55249.3875
1537.35488	54735.8875
1540.71647	54090.8875
1544.07581	53329.5875
1547.4329	52438.5875
1550.78776	51634.5875
1554.14038	51182.8875
1557.49077	51043.6875
1560.83892	51118.4875
1564.18484	51230.4875
1567.52853	51264.9875
1570.86999	51366.4875
1574.20922	51723.7875
1577.54624	52172.0875
1580.88103	52143.1875
1584.2136	52247.9875
1587.54395	53432.8875
1590.87208	56114.2875
1594.19801	59655.9875
1597.52172	63276.1875
1600.84321	64470.6875
1604.16251	61717.9875
1607.47959	56918.6875
1610.79447	51669.5875
1614.10715	46884.3875
1617.41763	42937.0875
1620.7259	40134.9875
1624.03199	38737.1875
1627.33587	38736.2875
1630.63757	40024.1875
1633.93707	42649.1875
1637.23439	46770.3875
1640.52951	52171.4875
1643.82246	57982.0875
1647.11321	62282.9875
1650.40179	63271.9875
1653.68819	59561.1875
1656.97241	52141.1875
1660.25446	44273.1875
1663.53433	38191.8875
1666.81203	34213.8875
1670.08756	31772.5875
1673.36092	30172.5875
1676.63211	29153.3875
1679.90115	28447.3875
1683.16801	27864.5875
1686.43272	27510.9875
1689.69527	27197.6875
1692.95567	26999.8875
1696.2139	26857.2875
1699.46999	26751.5875
1702.72392	26676.0875
1705.97571	26551.4875
1709.22535	26477.9875
1712.47284	26411.2875
1715.71819	26365.0875
1718.96139	26316.5875
1722.20246	26206.2875
1725.44139	26086.7875
1728.67818	25933.8875
1731.91284	25789.7875
1735.14537	25585.1875
1738.37576	25477.1875
1741.60403	25392.1875
1744.83017	25300.2875
1748.05418	25274.9875
1751.27607	25221.7875
1754.49584	25191.3875
1757.71349	25162.5875
1760.92903	25102.8875
1764.14244	25083.2875
1767.35375	25013.8875
1770.56294	25014.3875
1773.77002	24969.0875
1776.97499	24902.0875
1780.17785	24830.7875
1783.37861	24800.5875
1786.57727	24730.4875
1789.77382	24695.6875
1792.96828	24676.0875
1796.16064	24655.0875
1799.3509	24581.4875
1802.53907	24568.8875
1805.72514	24507.9875
1808.90913	24435.8875
1812.09102	24381.6875
1815.27083	24366.0875
1818.44856	24362.4875
1821.6242	24259.9875
1824.79776	24298.8875
1827.96924	24286.1875
1831.13864	24246.3875
1834.30597	24262.7875
1837.47122	24209.8875
1840.6344	24228.1875
1843.7955	24295.5875
1846.95454	24285.2875
1850.11151	24327.1875
1853.26642	24325.6875
1856.41926	24343.5875
1859.57004	24356.4875
1862.71876	24362.1875
1865.86542	24368.2875
1869.01003	24361.5875
1872.15258	24357.8875
1875.29308	24403.1875
1878.43152	24382.7875
1881.56792	24399.8875
1884.70227	24428.1875
1887.83457	24435.4875
1890.96482	24499.8875
1894.09304	24454.5875
1897.21921	24520.0875
1900.34335	24505.4875
1903.46544	24519.9875
1906.58551	24492.2875
1909.70353	24448.2875
1912.81953	24437.3875
1915.93349	24384.6875
1919.04543	24374.9875
1922.15534	24254.8875
1925.26322	24230.6875
1928.36908	24112.9875
1931.47292	24005.1875
1934.57473	23876.8875
1937.67453	23778.5875
1940.77232	23651.0875
1943.86808	23540.9875
1946.96184	23457.5875
1950.05358	23365.6875
1953.14331	23278.0875
1956.23103	23159.2875
1959.31675	23050.9875
1962.40046	23032.2875
1965.48217	22950.8875
1968.56188	22852.5875
1971.63959	22780.2875
1974.7153	22731.9875
1977.78901	22640.4875
1980.86073	22537.9875
1983.93046	22458.0875
1986.99819	22426.0875
1990.06394	22397.1875
1993.1277	22326.4875
1996.18947	22229.3875
1999.24925	22142.2875
2002.30706	22061.0875
2005.36288	21971.3875
2008.41672	21907.7875
2011.46859	21902.8875
2014.51848	21824.5875
2017.56639	21788.7875
2020.61233	21757.2875
2023.6563	21664.8875
2026.6983	21648.6875
2029.73833	21630.8875
2032.7764	21564.3875
2035.8125	21554.3875
2038.84664	21530.2875
2041.87881	21484.2875
2044.90903	21453.6875
2047.93729	21395.0875
2050.96359	21417.2875
2053.98794	21373.7875
2057.01034	21366.1875
2060.03078	21312.7875
2063.04927	21298.2875
2066.06582	21315.8875
2069.08042	21294.0875
2072.09307	21255.3875
2075.10378	21234.1875
2078.11255	21209.6875
2081.11938	21178.2875
2084.12426	21147.8875
2087.12722	21148.6875
2090.12824	21130.2875
2093.12732	21158.9875
2096.12447	21159.4875
2099.11969	21142.9875
2102.11299	21139.9875
2105.10435	21140.3875
2108.09379	21121.0875
2111.08131	21148.7875
2114.0669	21137.9875
2117.05057	21152.6875
2120.03233	21170.1875
2123.01216	21184.5875
2125.99008	21218.9875
2128.96609	21173.0875
2131.94018	21233.2875
2134.91236	21283.6875
2137.88263	21286.6875
2140.851	21268.1875
2143.81746	21291.8875
2146.78201	21307.2875
2149.74466	21299.8875
2152.7054	21273.7875
2155.66425	21248.7875
2158.6212	21278.8875
2161.57625	21265.6875
2164.52941	21252.0875
2167.48067	21258.6875
2170.43004	21217.7875
2173.37752	21207.7875
2176.32311	21239.4875
2179.26681	21254.3875
2182.20863	21209.5875
2185.14856	21236.6875
2188.08661	21249.8875
2191.02278	21273.7875
2193.95707	21204.1875
2196.88948	21256.0875
2199.82001	21262.3875
2202.74867	21269.8875
2205.67545	21275.7875
2208.60037	21193.6875
2211.52341	21197.4875
2214.44458	21188.0875
2217.36388	21163.5875
2220.28132	21115.7875
2223.1969	21062.8875
2226.11061	21080.7875
2229.02246	21017.8875
2231.93245	20986.4875
2234.84058	20943.0875
2237.74686	20882.9875
2240.65128	20859.1875
2243.55385	20816.8875
2246.45456	20780.4875
2249.35343	20783.3875
2252.25044	20773.5875
2255.14561	20727.2875
2258.03893	20703.6875
2260.93041	20671.4875
2263.82004	20617.5875
2266.70783	20526.0875
2269.59378	20476.4875
2272.4779	20476.4875
2275.36017	20403.5875
2278.24061	20372.0875
2281.11922	20336.0875
2283.996	20311.1875
2286.87094	20319.3875
2289.74405	20222.0875
2292.61534	20255.2875
2295.4848	20241.6875
2298.35243	20212.4875
2301.21824	20246.1875
2304.08223	20256.3875
2306.94439	20268.9875
2309.80474	20285.8875
2312.66327	20289.2875
2315.51999	20324.3875
2318.37489	20296.8875
2321.22797	20257.1875
2324.07925	20271.1875
2326.92871	20240.4875
2329.77637	20257.9875
2332.62222	20251.4875
2335.46626	20238.0875
2338.3085	20229.5875
2341.14893	20264.1875
2343.98756	20289.5875
2346.8244	20282.5875
2349.65943	20305.0875
2352.49267	20276.0875
2355.32411	20250.2875
2358.15376	20266.3875
2360.98161	20242.4875
2363.80768	20211.3875
2366.63195	20200.7875
2369.45444	20142.5875
2372.27514	20077.3875
2375.09405	20086.6875
2377.91118	20042.2875
2380.72652	19975.3875
2383.54009	19932.1875
2386.35187	19894.0875
2389.16188	19867.7875
2391.97011	19840.0875
2394.77657	19804.9875
2397.58125	19788.4875
2400.38416	19781.2875
2403.18529	19744.1875
2405.98466	19701.1875
2408.78226	19633.8875
2411.57809	19615.1875
2414.37216	19583.7875
2417.16446	19568.1875
2419.955	19554.2875
2422.74378	19508.1875
2425.5308	19530.9875
2428.31606	19502.5875
2431.09956	19499.6875
2433.88131	19469.9875
2436.6613	19505.7875
2439.43954	19462.0875
2442.21603	19458.1875
2444.99077	19427.8875
2447.76377	19425.4875
2450.53501	19388.7875
2453.30451	19404.3875
2456.07226	19407.8875
2458.83827	19421.5875
2461.60254	19434.1875
2464.36507	19454.9875
2467.12586	19432.0875
2469.88492	19437.0875
2472.64224	19485.6875
2475.39782	19449.3875
2478.15167	19489.4875
2480.90379	19500.3875
2483.65417	19486.4875
2486.40283	19515.7875
2489.14976	19553.6875
2491.89497	19546.3875
2494.63845	19618.1875
2497.3802	19609.1875
2500.12024	19619.2875
2502.85855	19564.3875
2505.59514	19562.7875
2508.33002	19573.6875
2511.06318	19576.8875
2513.79462	19513.8875
2516.52435	19446.9875
2519.25237	19494.4875
2521.97867	19453.6875
2524.70327	19447.2875
2527.42616	19420.7875
2530.14734	19406.0875
2532.86681	19393.8875
2535.58458	19402.8875
2538.30065	19344.0875
2541.01501	19348.8875
2543.72768	19310.1875
2546.43864	19352.6875
2549.14791	19323.4875
2551.85548	19270.1875
2554.56136	19298.0875
2557.26554	19278.9875
2559.96803	19284.6875
2562.66883	19246.9875
2565.36794	19255.4875
2568.06536	19251.6875
2570.7611	19223.0875
2573.45514	19186.6875
2576.14751	19148.5875
2578.83819	19187.7875
2581.52719	19184.2875
2584.21451	19210.1875
2586.90015	19198.3875
2589.58411	19175.4875
2592.2664	19196.4875
2594.94701	19209.1875
2597.62594	19179.1875
2600.30321	19176.5875
2602.9788	19159.9875
2605.65273	19116.3875
2608.32498	19156.1875
2610.99557	19155.5875
2613.66449	19199.2875
2616.33175	19198.6875
2618.99734	19204.0875
2621.66128	19216.5875
2624.32355	19213.1875
2626.98416	19244.3875
2629.64311	19217.2875
2632.30041	19235.6875
2634.95605	19212.3875
2637.61004	19199.1875
2640.26238	19134.0875
2642.91306	19118.5875
2645.56209	19107.0875
2648.20948	19097.2875
2650.85521	19090.2875
2653.4993	19120.5875
2656.14175	19107.4875
2658.78255	19098.0875
2661.42171	19096.3875
2664.05923	19120.5875
2666.6951	19170.4875
2669.32934	19203.5875
2671.96194	19196.3875
2674.59291	19175.2875
2677.22224	19189.8875
2679.84993	19200.0875
2682.476	19161.3875
2685.10043	19162.1875
2687.72324	19165.0875
2690.34441	19132.8875
2692.96396	19119.3875
2695.58188	19120.5875
2698.19818	19098.0875
2700.81285	19100.1875
2703.4259	19109.5875
2706.03733	19149.9875
2708.64714	19123.5875
2711.25533	19140.7875
2713.86191	19093.9875
2716.46687	19133.5875
2719.07021	19103.7875
2721.67194	19170.8875
2724.27206	19139.5875
2726.87057	19146.4875
2729.46747	19194.6875
2732.06276	19135.8875
2734.65644	19137.7875
2737.24852	19089.1875
2739.83899	19130.0875
2742.42786	19165.3875
2745.01513	19115.2875
2747.60079	19128.3875
2750.18486	19135.8875
2752.76733	19160.1875
2755.3482	19181.1875
2757.92747	19171.2875
2760.50515	19148.3875
2763.08123	19133.7875
2765.65573	19133.2875
2768.22863	19106.7875
2770.79994	19063.2875
2773.36967	19052.0875
2775.9378	19085.2875
2778.50435	19091.8875
2781.06932	19091.2875
2783.6327	19105.3875
2786.1945	19099.5875
2788.75471	19060.9875
2791.31335	18999.1875
2793.87041	18981.6875
2796.42589	18933.4875
2798.97979	18922.1875
2801.53212	18903.5875
2804.08288	18883.7875
2806.63206	18841.9875
2809.17967	18825.2875
2811.72571	18805.8875
2814.27018	18774.8875
2816.81308	18749.8875
2819.35442	18766.8875
2821.89419	18710.0875
2824.43239	18754.3875
2826.96904	18717.1875
2829.50412	18718.3875
2832.03763	18691.1875
2834.56959	18669.5875
2837.1	18637.8875
2839.62884	18673.5875
2842.15613	18647.6875
2844.68186	18693.9875
2847.20604	18705.2875
2849.72867	18712.8875
2852.24974	18700.8875
2854.76927	18694.9875
2857.28724	18692.3875
2859.80367	18675.3875
2862.31855	18667.9875
2864.83189	18599.1875
2867.34368	18572.1875
2869.85393	18602.6875
2872.36264	18581.1875
2874.8698	18591.0875
2877.37543	18582.2875
2879.87952	18583.9875
2882.38207	18567.2875
2884.88308	18618.5875
2887.38256	18621.3875
2889.88051	18639.5875
2892.37692	18627.4875
2894.8718	18627.6875
2897.36515	18670.2875
2899.85698	18657.5875
2902.34727	18654.5875
2904.83604	18681.6875
2907.32328	18713.7875
2909.809	18718.3875
2912.29319	18670.0875
2914.77587	18675.3875
2917.25702	18650.0875
2919.73665	18643.1875
2922.21476	18690.1875
2924.69136	18659.6875
2927.16644	18670.4875
2929.64	18673.8875
2932.11205	18629.1875
2934.58258	18580.9875
2937.05161	18576.2875
2939.51912	18566.2875
2941.98513	18545.6875
2944.44962	18513.2875
2946.91261	18408.2875
2949.37409	18444.8875
2951.83407	18438.8875
2954.29254	18406.1875
2956.74951	18400.3875
2959.20498	18338.0875
2961.65895	18304.1875
2964.11142	18278.2875
2966.56239	18243.6875
2969.01186	18227.2875
2971.45984	18171.9875
2973.90632	18122.3875
2976.35131	18058.6875
2978.7948	18041.7875
2981.23681	18003.8875
2983.67732	17956.5875
2986.11635	17904.7875
2988.55388	17871.2875
2990.98993	17850.2875
2993.4245	17817.3875
2995.85758	17753.7875
2998.28917	17701.8875
3000.71928	17684.6875
3003.14791	17630.5875
3005.57506	17632.0875
3008.00073	17595.6875
3010.42493	17566.2875
3012.84764	17539.8875
3015.26888	17529.1875
3017.68865	17458.0875
3020.10694	17438.3875
3022.52376	17426.3875
