Data from AgNPs_FTO_APTES_UA_2uM_CRN_10uM_R6G_10uM_NaF_0.1M_Addition_RamanShift__3__13-21-35-140.txt Node

Date: Wed Feb 02 13:21:35 GMT 2022
User: TCL
Spectrometer: QEP01345
Trigger mode: 4
Integration Time (sec): 7.000000E0
Scans to average: 10
Electric dark correction enabled: true
Nonlinearity correction enabled: false
Boxcar width: 0
XAxis mode: Raman Shifts
Number of Pixels in Spectrum: 1044
>>>>>Begin Spectral Data<<<<<
46.04893	0.95
50.45542	-0.75
54.85868	-1.25
59.25871	-0.85
63.6555	92.45
68.04907	102.05
72.43941	102.55
76.82654	112.45
81.21044	112.75
85.59113	121.95
89.96862	119.75
94.34289	127.15
98.71396	131.15
103.08183	137.75
107.4465	143.75
111.80798	142.55
116.16626	145.55
120.52136	154.95
124.87327	159.75
129.222	168.55
133.56755	178.35
137.90993	194.55
142.24913	217.15
146.58517	241.55
150.91804	280.45
155.24774	333.45
159.57429	418.05
163.89768	544.15
168.21792	708.95
172.53501	983.15
176.84895	1364.25
181.15975	1919.05
185.46741	2698.55
189.77193	3688.25
194.07331	4949.15
198.37157	6391.65
202.6667	7872.55
206.9587	9379.35
211.24758	10815.75
215.53334	12302.65
219.81599	13908.55
224.09553	15650.65
228.37195	17630.05
232.64527	19712.65
236.91549	21901.65
241.18261	24078.05
245.44663	26070.55
249.70755	27866.45
253.96539	29375.05
258.22014	30688.75
262.4718	31800.75
266.72039	32571.85
270.96589	32937.35
275.20832	32935.45
279.44768	32656.25
283.68397	32326.15
287.91719	32006.25
292.14735	31827.25
296.37445	31846.05
300.59849	32044.55
304.81948	32285.35
309.03742	32435.35
313.25231	32284.35
317.46415	31736.35
321.67296	31018.05
325.87872	30327.25
330.08145	29993.75
334.28114	29907.75
338.47781	30071.75
342.67145	30354.55
346.86207	30863.45
351.04966	31407.35
355.23424	32129.85
359.4158	32699.15
363.59435	33141.35
367.76989	33424.95
371.94243	33700.65
376.11196	33804.75
380.27849	33912.85
384.44203	34139.55
388.60257	34364.25
392.76012	34771.85
396.91468	35187.45
401.06626	35814.65
405.21485	36242.25
409.36047	36043.95
413.50311	35691.85
417.64277	35447.25
421.77947	35451.85
425.9132	35551.55
430.04396	35674.35
434.17176	35850.55
438.2966	36064.75
442.41849	36644.25
446.53742	37783.85
450.6534	39042.65
454.76644	39848.75
458.87653	40019.55
462.98368	39622.05
467.08789	38958.85
471.18916	38237.55
475.2875	37513.95
479.38291	37143.45
483.4754	36896.45
487.56496	36572.05
491.6516	36083.75
495.73531	35622.55
499.81612	35344.65
503.89401	35461.65
507.96899	35522.45
512.04106	35367.45
516.11023	35086.35
520.1765	34817.65
524.23987	34693.85
528.30034	34472.95
532.35792	34227.15
536.41261	33736.25
540.46441	33219.55
544.51333	33123.35
548.55936	33440.45
552.60252	34151.55
556.64279	35059.95
560.6802	35817.15
564.71473	36222.15
568.7464	36796.75
572.7752	37769.05
576.80114	38669.75
580.82422	39767.65
584.84444	41310.55
588.86181	43207.45
592.87633	44709.15
596.888	44477.05
600.89682	42741.25
604.9028	42487.35
608.90594	45744.25
612.90624	49298.15
616.90371	46495.75
620.89834	39046.35
624.89015	35582.95
628.87913	35145.95
632.86528	35063.85
636.84862	34778.15
640.82913	33946.65
644.80683	33067.65
648.78172	32587.35
652.75379	32672.85
656.72306	33141.15
660.68952	33751.85
664.65319	33466.65
668.61405	32842.45
672.57211	32726.85
676.52738	32915.35
680.47986	32852.75
684.42955	32545.25
688.37646	32425.55
692.32058	32684.55
696.26192	33325.25
700.20048	33936.95
704.13626	34194.45
708.06928	34063.95
711.99952	33850.15
715.927	33896.05
719.85171	34149.95
723.77365	34061.55
727.69284	33462.55
731.60928	32969.15
735.52295	32821.95
739.43388	32800.75
743.34206	32908.95
747.24749	33181.85
751.15017	33499.45
755.05012	34069.05
758.94733	35150.75
762.8418	36750.25
766.73354	39206.05
770.62254	41573.75
774.50882	41992.85
778.39237	40294.95
782.27321	37610.05
786.15132	35354.45
790.02671	33983.35
793.89938	33373.35
797.76935	33135.55
801.6366	33036.55
805.50115	32944.65
809.36299	32771.95
813.22213	32471.35
817.07857	32305.95
820.93231	32171.05
824.78336	32048.95
828.63172	32020.25
832.47738	32056.15
836.32036	32237.95
840.16066	32468.15
843.99827	32708.15
847.8332	32510.15
851.66546	32294.25
855.49504	32198.45
859.32195	32178.25
863.1462	32052.45
866.96777	31921.35
870.78668	31783.15
874.60293	31765.75
878.41652	31806.65
882.22745	31930.75
886.03573	32062.55
889.84136	32084.75
893.64433	31878.65
897.44466	31731.85
901.24235	31629.55
905.0374	31543.85
908.8298	31493.35
912.61957	31604.75
916.40671	31918.05
920.19121	32389.95
923.97308	32910.05
927.75233	33221.35
931.52895	33096.55
935.30295	32637.05
939.07433	32005.55
942.84309	31506.05
946.60924	31355.25
950.37278	31297.15
954.13371	31182.85
957.89203	31029.45
961.64774	30963.05
965.40086	31001.05
969.15137	30965.35
972.89929	30860.15
976.64461	30908.25
980.38733	30948.05
984.12747	31126.25
987.86502	31472.45
991.59999	31923.15
995.33237	32621.55
999.06217	33667.45
1002.78939	34889.85
1006.51404	35666.15
1010.23611	36089.25
1013.95561	36296.85
1017.67255	36224.45
1021.38692	35653.15
1025.09872	35273.45
1028.80796	35704.15
1032.51465	37072.05
1036.21877	38558.75
1039.92035	38987.35
1043.61937	38490.95
1047.31584	37242.65
1051.00976	35814.65
1054.70114	35060.35
1058.38998	34779.85
1062.07627	34784.65
1065.76003	34898.95
1069.44126	35110.75
1073.11995	35639.75
1076.79611	36154.55
1080.46974	36474.25
1084.14085	36807.65
1087.80943	37239.05
1091.47549	37483.75
1095.13903	37422.75
1098.80005	36894.35
1102.45857	36071.75
1106.11456	35473.85
1109.76805	35207.55
1113.41903	35142.75
1117.06751	35286.15
1120.71348	35562.75
1124.35696	35983.55
1127.99793	36411.95
1131.63641	36636.35
1135.2724	36498.85
1138.90589	36269.35
1142.5369	36305.25
1146.16542	36478.35
1149.79145	36731.05
1153.415	37048.35
1157.03607	37638.85
1160.65467	38811.75
1164.27079	40697.85
1167.88443	42963.45
1171.49561	45399.25
1175.10432	48522.35
1178.71056	52651.35
1182.31434	56509.85
1185.91565	58395.55
1189.51451	57740.85
1193.11091	55750.45
1196.70485	53488.25
1200.29634	51483.55
1203.88538	50118.45
1207.47197	49383.85
1211.05612	48636.25
1214.63782	47749.35
1218.21708	46681.55
1221.79391	45869.65
1225.36829	45118.15
1228.94024	44363.95
1232.50976	43436.85
1236.07685	42545.15
1239.6415	42123.75
1243.20374	42238.65
1246.76355	42702.55
1250.32093	43604.25
1253.8759	44749.65
1257.42845	46104.85
1260.97859	47617.45
1264.52631	49101.45
1268.07163	50782.45
1271.61453	52591.85
1275.15503	54405.55
1278.69312	56196.85
1282.22882	57848.15
1285.76211	59604.55
1289.29301	61617.05
1292.82151	64128.65
1296.34761	67617.15
1299.87133	72076.45
1303.39266	77140.85
1306.9116	81840.35
1310.42815	85307.25
1313.94233	86663.25
1317.45412	85362.15
1320.96354	82726.55
1324.47058	80297.25
1327.97525	78447.95
1331.47754	77101.75
1334.97747	76011.95
1338.47502	74690.25
1341.97022	72874.15
1345.46305	70835.25
1348.95352	69649.55
1352.44163	70250.95
1355.92738	73139.15
1359.41078	77876.15
1362.89183	81872.05
1366.37053	81098.55
1369.84688	74640.85
1373.32088	65849.75
1376.79254	59758.15
1380.26186	57470.15
1383.72883	57471.15
1387.19347	57418.75
1390.65578	56594.25
1394.11575	56179.45
1397.57339	56680.35
1401.0287	57705.65
1404.48168	58648.15
1407.93234	58841.65
1411.38068	57944.35
1414.82669	56264.05
1418.27039	54192.75
1421.71177	51903.25
1425.15083	50021.65
1428.58758	49170.35
1432.02203	49797.65
1435.45416	51321.15
1438.88399	53000.95
1442.31151	54184.85
1445.73673	54847.65
1449.15965	55171.15
1452.58027	55137.75
1455.9986	54601.55
1459.41463	54422.25
1462.82837	55073.85
1466.23982	56232.35
1469.64898	57447.85
1473.05586	58352.25
1476.46045	58851.15
1479.86276	58707.75
1483.26279	58195.25
1486.66054	57878.75
1490.05602	58130.85
1493.44922	58641.95
1496.84016	59105.25
1500.22882	59647.35
1503.61521	60753.75
1506.99934	62370.65
1510.38121	63799.95
1513.76081	64284.95
1517.13816	63098.05
1520.51324	60922.05
1523.88607	59128.35
1527.25665	58299.05
1530.62498	58152.95
1533.99105	57875.45
1537.35488	57158.05
1540.71647	55985.55
1544.07581	54681.35
1547.4329	53269.75
1550.78776	52102.45
1554.14038	51220.25
1557.49077	50667.85
1560.83892	50293.75
1564.18484	50088.75
1567.52853	50202.55
1570.86999	50701.15
1574.20922	51520.15
1577.54624	52342.35
1580.88103	52938.45
1584.2136	53914.95
1587.54395	56197.45
1590.87208	60052.05
1594.19801	64506.75
1597.52172	68258.45
1600.84321	68970.45
1604.16251	65185.95
1607.47959	59017.65
1610.79447	52622.95
1614.10715	47430.55
1617.41763	43707.25
1620.7259	41494.05
1624.03199	40609.05
1627.33587	41035.65
1630.63757	42548.05
1633.93707	45406.35
1637.23439	50102.25
1640.52951	56766.25
1643.82246	64760.25
1647.11321	70847.85
1650.40179	71452.85
1653.68819	65556.65
1656.97241	56195.25
1660.25446	47468.95
1663.53433	41343.05
1666.81203	37521.55
1670.08756	35211.45
1673.36092	33766.45
1676.63211	32773.95
1679.90115	32111.45
1683.16801	31630.55
1686.43272	31252.75
1689.69527	31021.35
1692.95567	30867.65
1696.2139	30736.35
1699.46999	30658.85
1702.72392	30542.85
1705.97571	30458.65
1709.22535	30390.95
1712.47284	30326.95
1715.71819	30321.75
1718.96139	30272.55
1722.20246	30145.15
1725.44139	30069.75
1728.67818	29887.55
1731.91284	29708.55
1735.14537	29576.95
1738.37576	29472.05
1741.60403	29344.25
1744.83017	29256.95
1748.05418	29216.65
1751.27607	29212.75
1754.49584	29132.05
1757.71349	29147.55
1760.92903	29077.35
1764.14244	29044.75
1767.35375	29046.55
1770.56294	29050.75
1773.77002	28936.05
1776.97499	28928.45
1780.17785	28831.95
1783.37861	28818.25
1786.57727	28787.05
1789.77382	28702.45
1792.96828	28666.15
1796.16064	28671.05
1799.3509	28666.35
1802.53907	28557.45
1805.72514	28499.65
1808.90913	28457.55
1812.09102	28396.35
1815.27083	28423.95
1818.44856	28387.85
1821.6242	28324.55
1824.79776	28322.45
1827.96924	28315.85
1831.13864	28261.05
1834.30597	28285.25
1837.47122	28285.85
1840.6344	28310.45
1843.7955	28299.65
1846.95454	28305.95
1850.11151	28332.75
1853.26642	28310.05
1856.41926	28265.95
1859.57004	28293.85
1862.71876	28293.15
1865.86542	28274.55
1869.01003	28224.75
1872.15258	28280.05
1875.29308	28227.25
1878.43152	28194.25
1881.56792	28164.85
1884.70227	28137.15
1887.83457	28199.45
1890.96482	28154.55
1894.09304	28121.85
1897.21921	28107.65
1900.34335	28038.55
1903.46544	27965.25
1906.58551	27949.35
1909.70353	27907.95
1912.81953	27858.85
1915.93349	27857.15
1919.04543	27797.45
1922.15534	27764.15
1925.26322	27682.45
1928.36908	27657.25
1931.47292	27625.35
1934.57473	27500.45
1937.67453	27402.15
1940.77232	27381.55
1943.86808	27319.75
1946.96184	27287.55
1950.05358	27169.95
1953.14331	27149.05
1956.23103	27061.95
1959.31675	26951.75
1962.40046	26940.15
1965.48217	26890.25
1968.56188	26822.85
1971.63959	26739.25
1974.7153	26704.35
1977.78901	26613.75
1980.86073	26497.15
1983.93046	26463.75
1986.99819	26400.05
1990.06394	26351.15
1993.1277	26281.55
1996.18947	26153.65
1999.24925	26098.85
2002.30706	26036.65
2005.36288	25947.35
2008.41672	25887.75
2011.46859	25851.15
2014.51848	25783.85
2017.56639	25731.95
2020.61233	25705.05
2023.6563	25664.15
2026.6983	25632.15
2029.73833	25557.95
2032.7764	25537.25
2035.8125	25533.35
2038.84664	25495.35
2041.87881	25478.55
2044.90903	25437.55
2047.93729	25411.45
2050.96359	25424.05
2053.98794	25366.65
2057.01034	25332.65
2060.03078	25356.85
2063.04927	25284.05
2066.06582	25329.85
2069.08042	25290.65
2072.09307	25259.65
2075.10378	25212.35
2078.11255	25216.15
2081.11938	25211.25
2084.12426	25199.45
2087.12722	25197.55
2090.12824	25167.15
2093.12732	25232.15
2096.12447	25266.25
2099.11969	25263.65
2102.11299	25290.35
2105.10435	25267.65
2108.09379	25297.85
2111.08131	25322.15
2114.0669	25280.65
2117.05057	25359.85
2120.03233	25368.95
2123.01216	25386.85
2125.99008	25433.75
2128.96609	25436.35
2131.94018	25475.45
2134.91236	25522.45
2137.88263	25552.25
2140.851	25513.95
2143.81746	25605.85
2146.78201	25590.35
2149.74466	25650.05
2152.7054	25612.45
2155.66425	25553.85
2158.6212	25563.55
2161.57625	25578.75
2164.52941	25568.35
2167.48067	25586.25
2170.43004	25560.15
2173.37752	25538.55
2176.32311	25576.55
2179.26681	25603.25
2182.20863	25561.85
2185.14856	25617.65
2188.08661	25611.95
2191.02278	25718.15
2193.95707	25669.55
2196.88948	25646.35
2199.82001	25676.05
2202.74867	25694.65
2205.67545	25698.15
2208.60037	25640.45
2211.52341	25635.15
2214.44458	25624.95
2217.36388	25593.55
2220.28132	25527.15
2223.1969	25513.35
2226.11061	25552.65
2229.02246	25492.35
2231.93245	25467.35
2234.84058	25406.45
2237.74686	25396.05
2240.65128	25376.15
2243.55385	25296.55
2246.45456	25323.75
2249.35343	25265.85
2252.25044	25226.95
2255.14561	25180.35
2258.03893	25204.85
2260.93041	25137.15
2263.82004	25047.35
2266.70783	24993.15
2269.59378	24918.45
2272.4779	24899.75
2275.36017	24854.25
2278.24061	24837.85
2281.11922	24785.55
2283.996	24782.65
2286.87094	24771.75
2289.74405	24764.65
2292.61534	24777.35
2295.4848	24753.15
2298.35243	24773.95
2301.21824	24785.25
2304.08223	24821.65
2306.94439	24856.65
2309.80474	24876.35
2312.66327	24866.55
2315.51999	24833.35
2318.37489	24894.45
2321.22797	24825.85
2324.07925	24800.85
2326.92871	24771.05
2329.77637	24798.25
2332.62222	24780.65
2335.46626	24805.65
2338.3085	24787.45
2341.14893	24780.35
2343.98756	24823.65
2346.8244	24819.35
2349.65943	24792.85
2352.49267	24802.35
2355.32411	24764.35
2358.15376	24745.35
2360.98161	24732.65
2363.80768	24678.75
2366.63195	24660.35
2369.45444	24603.05
2372.27514	24596.45
2375.09405	24585.35
2377.91118	24537.15
2380.72652	24489.85
2383.54009	24442.75
2386.35187	24471.45
2389.16188	24423.95
2391.97011	24378.65
2394.77657	24331.55
2397.58125	24342.85
2400.38416	24335.45
2403.18529	24279.85
2405.98466	24299.25
2408.78226	24181.85
2411.57809	24203.95
2414.37216	24181.95
2417.16446	24172.85
2419.955	24123.15
2422.74378	24151.55
2425.5308	24136.15
2428.31606	24141.05
2431.09956	24137.35
2433.88131	24060.55
2436.6613	24068.05
2439.43954	24043.45
2442.21603	24038.65
2444.99077	24022.65
2447.76377	24005.95
2450.53501	24017.05
2453.30451	24038.35
2456.07226	24020.25
2458.83827	24088.05
2461.60254	24046.75
2464.36507	24057.55
2467.12586	24126.85
2469.88492	24080.15
2472.64224	24115.25
2475.39782	24106.75
2478.15167	24155.25
2480.90379	24109.75
2483.65417	24139.05
2486.40283	24141.85
2489.14976	24151.75
2491.89497	24216.85
2494.63845	24253.75
2497.3802	24241.65
2500.12024	24216.55
2502.85855	24192.55
2505.59514	24222.45
2508.33002	24194.45
2511.06318	24225.95
2513.79462	24144.45
2516.52435	24106.45
2519.25237	24095.25
2521.97867	24116.35
2524.70327	24159.55
2527.42616	24117.95
2530.14734	24108.85
2532.86681	24114.35
2535.58458	24098.25
2538.30065	24052.15
2541.01501	24055.55
2543.72768	24032.15
2546.43864	24037.65
2549.14791	23957.85
2551.85548	24019.85
2554.56136	23993.55
2557.26554	23980.25
2559.96803	23991.85
2562.66883	23972.15
2565.36794	23960.55
2568.06536	23982.15
2570.7611	23915.05
2573.45514	23930.45
2576.14751	23940.95
2578.83819	23947.45
2581.52719	23966.75
2584.21451	23899.75
2586.90015	23920.65
2589.58411	23875.85
2592.2664	23920.45
2594.94701	23875.05
2597.62594	23898.55
2600.30321	23836.75
2602.9788	23841.75
2605.65273	23820.25
2608.32498	23842.85
2610.99557	23830.05
2613.66449	23878.95
2616.33175	23826.15
2618.99734	23857.55
2621.66128	23844.25
2624.32355	23847.65
2626.98416	23858.25
2629.64311	23822.85
2632.30041	23854.15
2634.95605	23814.65
2637.61004	23775.75
2640.26238	23767.35
2642.91306	23716.25
2645.56209	23683.25
2648.20948	23708.45
2650.85521	23694.45
2653.4993	23734.05
2656.14175	23730.55
2658.78255	23745.55
2661.42171	23736.15
2664.05923	23821.15
2666.6951	23827.55
2669.32934	23862.25
2671.96194	23846.95
2674.59291	23836.45
2677.22224	23824.65
2679.84993	23827.15
2682.476	23763.15
2685.10043	23795.15
2687.72324	23816.15
2690.34441	23794.05
2692.96396	23769.55
2695.58188	23818.45
2698.19818	23796.95
2700.81285	23804.95
2703.4259	23828.85
2706.03733	23899.35
2708.64714	23824.35
2711.25533	23891.75
2713.86191	23846.35
2716.46687	23864.35
2719.07021	23863.75
2721.67194	23859.65
2724.27206	23916.75
2726.87057	23934.75
2729.46747	23962.75
2732.06276	23958.85
2734.65644	23910.45
2737.24852	23923.15
2739.83899	23908.75
2742.42786	23905.25
2745.01513	23932.95
2747.60079	23919.85
2750.18486	23931.15
2752.76733	23946.35
2755.3482	23959.45
2757.92747	23975.75
2760.50515	23945.35
2763.08123	23989.95
2765.65573	23895.25
2768.22863	23873.85
2770.79994	23862.05
2773.36967	23919.15
2775.9378	23892.35
2778.50435	23886.75
2781.06932	23916.35
2783.6327	23915.85
2786.1945	23886.85
2788.75471	23895.55
2791.31335	23804.45
2793.87041	23768.65
2796.42589	23711.85
2798.97979	23754.75
2801.53212	23699.55
2804.08288	23703.45
2806.63206	23657.35
2809.17967	23601.65
2811.72571	23583.25
2814.27018	23580.45
2816.81308	23514.75
2819.35442	23511.95
2821.89419	23466.85
2824.43239	23453.75
2826.96904	23472.95
2829.50412	23467.25
2832.03763	23433.45
2834.56959	23415.85
2837.1	23396.95
2839.62884	23403.85
2842.15613	23413.25
2844.68186	23445.85
2847.20604	23462.45
2849.72867	23470.05
2852.24974	23445.65
2854.76927	23433.15
2857.28724	23426.35
2859.80367	23457.05
2862.31855	23429.45
2864.83189	23351.55
2867.34368	23328.95
2869.85393	23366.75
2872.36264	23303.55
2874.8698	23334.45
2877.37543	23332.05
2879.87952	23336.75
2882.38207	23342.55
2884.88308	23383.65
2887.38256	23411.25
2889.88051	23420.65
2892.37692	23444.35
2894.8718	23453.85
2897.36515	23488.85
2899.85698	23476.95
2902.34727	23528.95
2904.83604	23540.45
2907.32328	23597.75
2909.809	23568.55
2912.29319	23510.15
2914.77587	23508.45
2917.25702	23470.25
2919.73665	23457.05
2922.21476	23534.45
2924.69136	23483.75
2927.16644	23540.65
2929.64	23497.85
2932.11205	23516.35
2934.58258	23413.65
2937.05161	23476.65
2939.51912	23504.65
2941.98513	23476.75
2944.44962	23452.95
2946.91261	23337.25
2949.37409	23399.65
2951.83407	23302.35
2954.29254	23369.15
2956.74951	23322.85
2959.20498	23305.85
2961.65895	23254.45
2964.11142	23251.45
2966.56239	23218.05
2969.01186	23242.95
2971.45984	23190.55
2973.90632	23144.75
2976.35131	23052.05
2978.7948	23043.25
2981.23681	23006.35
2983.67732	22960.75
2986.11635	22943.05
2988.55388	22849.85
2990.98993	22867.75
2993.4245	22789.55
2995.85758	22778.85
2998.28917	22702.75
3000.71928	22701.75
3003.14791	22662.35
3005.57506	22658.55
3008.00073	22594.35
3010.42493	22612.05
3012.84764	22559.35
3015.26888	22544.95
3017.68865	22499.35
3020.10694	22431.45
3022.52376	22420.15
3024.9391	22406.25
3027.35298	22372.75
3029.76539	22322.05
3032.17632	22310.15
3034.5858	22254.15
3036.9938	22272.15
3039.40034	22284.95
3041.80542	22277.45
3044.20903	22215.65
3046.61118	22200.15
3049.01187	22164.65
3051.4111	22176.15
3053.80888	22115.85
3056.20519	22084.35
3058.60005	22021.95
3060.99345	22009.65
3063.3854	21976.75
3065.7759	21919.15
3068.16494	21885.05
3070.55254	21790.15
3072.93868	21796.65
3075.32338	21743.95
3077.70662	21731.15
3080.08842	21681.85
3082.46878	21673.45
3084.84769	21608.45
3087.22515	21629.55
3089.60118	21676.75
3091.97576	21574.25
3094.3489	21550.15
3096.72061	21545.75
3099.09087	21592.85
3101.4597	21568.15
3103.82709	21593.55
3106.19305	21548.55
3108.55757	21542.25
3110.92066	21427.25
3113.28232	21388.45
3115.64255	21357.85
3118.00134	21318.55
3120.35871	21298.05
3122.71466	21269.35
3125.06917	21256.05
3127.42226	21198.55
3129.77393	21206.15
3132.12417	21193.05
3134.47299	21192.45
3136.82039	21193.05
3139.16636	21236.25
3141.51092	21176.05
3143.85406	21217.35
3146.19579	21184.95
3148.53609	21195.45
3150.87499	21172.35
3153.21246	21140.45
3155.54853	21218.85
3157.88318	21173.75
3160.21642	21164.15
3162.54826	21138.45
3164.87868	21151.25
3167.2077	21127.15
3169.5353	21115.05
3171.86151	21117.05
3174.18631	21103.35
3176.5097	21130.45
3178.83169	21142.95
3181.15228	21129.75
3183.47147	21088.25
3185.78926	21106.25
3188.10565	21084.25
3190.42065	21087.15
3192.73424	21038.65
3195.04645	21026.75
3197.35725	21030.95
3199.66667	21029.85
3201.97469	21081.05
3204.28132	21037.55
3206.58656	21069.65
3208.8904	21046.45
3211.19287	21078.25
3213.49394	21083.05
3215.79363	21060.85
3218.09193	21018.35
3220.38884	21006.45
3222.68438	21028.25
3224.97853	20977.75
3227.2713	21007.85
3229.56269	20988.45
3231.8527	20934.85
3234.14133	20901.85
3236.42858	20899.55
3238.71446	20883.35
