Data from AgNPs_FTO_APTES_UA_2uM_CRN_0uM_R6G_10uM_NaF_0.1M_Addition_RamanShift__29__10-38-14-951.txt Node

Date: Wed Feb 02 10:38:14 GMT 2022
User: TCL
Spectrometer: QEP01345
Trigger mode: 4
Integration Time (sec): 7.000000E0
Scans to average: 10
Electric dark correction enabled: true
Nonlinearity correction enabled: false
Boxcar width: 0
XAxis mode: Raman Shifts
Number of Pixels in Spectrum: 1044
>>>>>Begin Spectral Data<<<<<
46.04893	0.8375
50.45542	2.6375
54.85868	-0.3625
59.25871	-0.3625
63.6555	27.5375
68.04907	32.8375
72.43941	32.1375
76.82654	35.6375
81.21044	36.0375
85.59113	38.4375
89.96862	38.8375
94.34289	41.0375
98.71396	44.9375
103.08183	46.9375
107.4465	46.7375
111.80798	48.6375
116.16626	47.3375
120.52136	51.3375
124.87327	49.1375
129.222	47.6375
133.56755	52.4375
137.90993	52.9375
142.24913	58.2375
146.58517	63.1375
150.91804	71.3375
155.24774	79.5375
159.57429	99.3375
163.89768	119.9375
168.21792	153.4375
172.53501	204.0375
176.84895	273.7375
181.15975	375.9375
185.46741	528.3375
189.77193	719.9375
194.07331	968.3375
198.37157	1229.5375
202.6667	1525.3375
206.9587	1811.5375
211.24758	2089.7375
215.53334	2361.3375
219.81599	2653.4375
224.09553	2958.5375
228.37195	3308.8375
232.64527	3684.4375
236.91549	4091.1375
241.18261	4481.9375
245.44663	4838.2375
249.70755	5170.8375
253.96539	5446.9375
258.22014	5690.9375
262.4718	5876.5375
266.72039	5995.1375
270.96589	6038.3375
275.20832	6000.0375
279.44768	5906.3375
283.68397	5773.9375
287.91719	5646.5375
292.14735	5553.8375
296.37445	5556.5375
300.59849	5601.6375
304.81948	5702.2375
309.03742	5749.4375
313.25231	5754.5375
317.46415	5620.8375
321.67296	5462.3375
325.87872	5294.5375
330.08145	5230.2375
334.28114	5212.6375
338.47781	5228.3375
342.67145	5277.6375
346.86207	5348.4375
351.04966	5489.3375
355.23424	5646.5375
359.4158	5793.9375
363.59435	5936.2375
367.76989	6002.6375
371.94243	6039.9375
376.11196	6060.0375
380.27849	6069.0375
384.44203	6050.3375
388.60257	6016.2375
392.76012	5973.4375
396.91468	5983.8375
401.06626	6080.0375
405.21485	6156.7375
409.36047	6120.9375
413.50311	6040.8375
417.64277	6012.9375
421.77947	6002.8375
425.9132	5804.8375
430.04396	5765.4375
434.17176	5816.1375
438.2966	5928.8375
442.41849	6107.0375
446.53742	6378.6375
450.6534	6625.7375
454.76644	6772.9375
458.87653	6754.1375
462.98368	6596.2375
467.08789	6416.9375
471.18916	6210.9375
475.2875	6081.9375
479.38291	5967.2375
483.4754	5851.0375
487.56496	5804.4375
491.6516	5792.2375
495.73531	5791.5375
499.81612	5793.7375
503.89401	5826.9375
507.96899	5856.0375
512.04106	5888.5375
516.11023	5967.9375
520.1765	6029.2375
524.23987	6061.8375
528.30034	6038.0375
532.35792	5971.7375
536.41261	5880.4375
540.46441	5766.8375
544.51333	5714.1375
548.55936	5725.1375
552.60252	5821.3375
556.64279	5937.3375
560.6802	5989.2375
564.71473	5934.7375
568.7464	5925.8375
572.7752	5914.8375
576.80114	5855.1375
580.82422	5786.7375
584.84444	5847.1375
588.86181	6105.2375
592.87633	6475.4375
596.888	6698.2375
600.89682	6596.7375
604.9028	6688.1375
608.90594	7487.4375
612.90624	8715.5375
616.90371	8583.5375
620.89834	6899.6375
624.89015	6026.4375
628.87913	5857.3375
632.86528	5822.8375
636.84862	5813.0375
640.82913	5741.9375
644.80683	5624.9375
648.78172	5548.3375
652.75379	5574.1375
656.72306	5733.9375
660.68952	5889.7375
664.65319	5858.4375
668.61405	5674.8375
672.57211	5601.8375
676.52738	5615.5375
680.47986	5586.3375
684.42955	5550.0375
688.37646	5536.3375
692.32058	5571.3375
696.26192	5643.3375
700.20048	5753.4375
704.13626	5785.6375
708.06928	5753.0375
711.99952	5688.3375
715.927	5656.3375
719.85171	5684.7375
723.77365	5690.6375
727.69284	5667.3375
731.60928	5663.6375
735.52295	5673.5375
739.43388	5719.2375
743.34206	5697.4375
747.24749	5707.7375
751.15017	5728.2375
755.05012	5751.1375
758.94733	5871.8375
762.8418	6155.3375
766.73354	6648.8375
770.62254	7325.5375
774.50882	7784.4375
778.39237	7646.3375
782.27321	6989.2375
786.15132	6330.8375
790.02671	5929.3375
793.89938	5763.5375
797.76935	5682.7375
801.6366	5701.3375
805.50115	5671.9375
809.36299	5674.0375
813.22213	5654.4375
817.07857	5659.1375
820.93231	5617.7375
824.78336	5606.8375
828.63172	5621.2375
832.47738	5642.6375
836.32036	5676.5375
840.16066	5685.5375
843.99827	5670.7375
847.8332	5655.9375
851.66546	5632.2375
855.49504	5615.9375
859.32195	5596.4375
863.1462	5548.6375
866.96777	5525.2375
870.78668	5499.4375
874.60293	5479.5375
878.41652	5533.9375
882.22745	5548.9375
886.03573	5582.2375
889.84136	5576.6375
893.64433	5580.8375
897.44466	5550.3375
901.24235	5539.2375
905.0374	5509.6375
908.8298	5523.6375
912.61957	5528.6375
916.40671	5577.8375
920.19121	5648.8375
923.97308	5707.3375
927.75233	5728.1375
931.52895	5748.2375
935.30295	5690.7375
939.07433	5571.2375
942.84309	5480.6375
946.60924	5387.8375
950.37278	5355.6375
954.13371	5314.7375
957.89203	5281.3375
961.64774	5232.7375
965.40086	5199.4375
969.15137	5182.7375
972.89929	5170.5375
976.64461	5153.6375
980.38733	5150.2375
984.12747	5173.6375
987.86502	5205.7375
991.59999	5247.8375
995.33237	5301.8375
999.06217	5397.4375
1002.78939	5531.5375
1006.51404	5566.9375
1010.23611	5586.2375
1013.95561	5672.1375
1017.67255	5652.1375
1021.38692	5602.2375
1025.09872	5534.5375
1028.80796	5512.1375
1032.51465	5599.7375
1036.21877	5697.0375
1039.92035	5777.6375
1043.61937	5819.4375
1047.31584	5794.4375
1051.00976	5721.1375
1054.70114	5658.0375
1058.38998	5595.7375
1062.07627	5545.1375
1065.76003	5525.6375
1069.44126	5510.2375
1073.11995	5526.2375
1076.79611	5565.1375
1080.46974	5637.0375
1084.14085	5723.0375
1087.80943	5769.0375
1091.47549	5783.9375
1095.13903	5712.7375
1098.80005	5582.3375
1102.45857	5459.9375
1106.11456	5446.5375
1109.76805	5457.6375
1113.41903	5530.4375
1117.06751	5634.4375
1120.71348	5747.0375
1124.35696	5873.2375
1127.99793	5995.9375
1131.63641	6039.7375
1135.2724	5851.3375
1138.90589	5666.4375
1142.5369	5550.3375
1146.16542	5452.3375
1149.79145	5435.0375
1153.415	5406.9375
1157.03607	5409.2375
1160.65467	5487.0375
1164.27079	5611.4375
1167.88443	5852.1375
1171.49561	6233.2375
1175.10432	6790.3375
1178.71056	7515.0375
1182.31434	8257.7375
1185.91565	8586.1375
1189.51451	8445.1375
1193.11091	8013.5375
1196.70485	7481.0375
1200.29634	7037.3375
1203.88538	6652.3375
1207.47197	6277.6375
1211.05612	6018.4375
1214.63782	5910.0375
1218.21708	5943.6375
1221.79391	6029.0375
1225.36829	6081.5375
1228.94024	6017.3375
1232.50976	5910.9375
1236.07685	5807.6375
1239.6415	5784.0375
1243.20374	5805.1375
1246.76355	5835.1375
1250.32093	5900.9375
1253.8759	6034.1375
1257.42845	6189.0375
1260.97859	6377.5375
1264.52631	6555.3375
1268.07163	6704.9375
1271.61453	6848.4375
1275.15503	6920.8375
1278.69312	6960.9375
1282.22882	7004.7375
1285.76211	7136.4375
1289.29301	7335.4375
1292.82151	7559.8375
1296.34761	7818.8375
1299.87133	8179.5375
1303.39266	8617.7375
1306.9116	9271.0375
1310.42815	10079.8375
1313.94233	10620.2375
1317.45412	10522.8375
1320.96354	9916.4375
1324.47058	9118.5375
1327.97525	8384.6375
1331.47754	7965.3375
1334.97747	7760.8375
1338.47502	7790.3375
1341.97022	7828.8375
1345.46305	7904.6375
1348.95352	8171.7375
1352.44163	8825.8375
1355.92738	9822.2375
1359.41078	10998.0375
1362.89183	12126.8375
1366.37053	12262.6375
1369.84688	10893.3375
1373.32088	9193.8375
1376.79254	8020.6375
1380.26186	7539.1375
1383.72883	7335.3375
1387.19347	7138.0375
1390.65578	6850.7375
1394.11575	6596.5375
1397.57339	6472.6375
1401.0287	6441.9375
1404.48168	6484.5375
1407.93234	6507.2375
1411.38068	6512.8375
1414.82669	6500.1375
1418.27039	6442.4375
1421.71177	6354.6375
1425.15083	6282.8375
1428.58758	6285.7375
1432.02203	6362.2375
1435.45416	6489.6375
1438.88399	6547.4375
1442.31151	6534.1375
1445.73673	6527.5375
1449.15965	6486.5375
1452.58027	6400.4375
1455.9986	6260.4375
1459.41463	6142.3375
1462.82837	6159.5375
1466.23982	6268.2375
1469.64898	6375.5375
1473.05586	6515.5375
1476.46045	6598.1375
1479.86276	6721.0375
1483.26279	6778.2375
1486.66054	6817.4375
1490.05602	6865.5375
1493.44922	6935.0375
1496.84016	7079.2375
1500.22882	7374.0375
1503.61521	7913.5375
1506.99934	8625.3375
1510.38121	9317.9375
1513.76081	9624.5375
1517.13816	9307.4375
1520.51324	8494.6375
1523.88607	7671.5375
1527.25665	7147.1375
1530.62498	6879.3375
1533.99105	6744.8375
1537.35488	6650.3375
1540.71647	6574.6375
1544.07581	6507.4375
1547.4329	6419.2375
1550.78776	6315.3375
1554.14038	6266.1375
1557.49077	6183.0375
1560.83892	6181.2375
1564.18484	6245.2375
1567.52853	6372.8375
1570.86999	6563.9375
1574.20922	6764.2375
1577.54624	6814.6375
1580.88103	6678.5375
1584.2136	6399.5375
1587.54395	6257.8375
1590.87208	6389.0375
1594.19801	6725.6375
1597.52172	7264.7375
1600.84321	7650.4375
1604.16251	7585.2375
1607.47959	7108.2375
1610.79447	6470.0375
1614.10715	5938.9375
1617.41763	5547.7375
1620.7259	5343.9375
1624.03199	5256.1375
1627.33587	5230.5375
1630.63757	5310.2375
1633.93707	5479.8375
1637.23439	5781.6375
1640.52951	6235.8375
1643.82246	6873.3375
1647.11321	7509.0375
1650.40179	7855.4375
1653.68819	7549.7375
1656.97241	6694.1375
1660.25446	5807.2375
1663.53433	5204.1375
1666.81203	4853.8375
1670.08756	4656.3375
1673.36092	4531.5375
1676.63211	4436.9375
1679.90115	4374.1375
1683.16801	4317.8375
1686.43272	4288.8375
1689.69527	4247.6375
1692.95567	4204.2375
1696.2139	4193.5375
1699.46999	4181.7375
1702.72392	4176.7375
1705.97571	4166.5375
1709.22535	4143.1375
1712.47284	4124.2375
1715.71819	4124.4375
1718.96139	4121.8375
1722.20246	4116.1375
1725.44139	4091.9375
1728.67818	4070.5375
1731.91284	4036.6375
1735.14537	4014.7375
1738.37576	3987.7375
1741.60403	3990.7375
1744.83017	3955.9375
1748.05418	3950.0375
1751.27607	3938.2375
1754.49584	3927.0375
1757.71349	3916.4375
1760.92903	3925.7375
1764.14244	3915.1375
1767.35375	3907.3375
1770.56294	3887.3375
1773.77002	3882.6375
1776.97499	3869.0375
1780.17785	3852.3375
1783.37861	3839.8375
1786.57727	3842.7375
1789.77382	3832.4375
1792.96828	3825.6375
1796.16064	3816.7375
1799.3509	3813.8375
1802.53907	3799.3375
1805.72514	3813.1375
1808.90913	3764.8375
1812.09102	3764.2375
1815.27083	3762.5375
1818.44856	3750.1375
1821.6242	3749.9375
1824.79776	3744.6375
1827.96924	3724.3375
1831.13864	3714.6375
1834.30597	3731.3375
1837.47122	3719.6375
1840.6344	3701.0375
1843.7955	3712.0375
1846.95454	3694.7375
1850.11151	3696.9375
1853.26642	3691.8375
1856.41926	3687.8375
1859.57004	3676.5375
1862.71876	3675.4375
1865.86542	3669.3375
1869.01003	3675.7375
1872.15258	3676.2375
1875.29308	3657.9375
1878.43152	3666.3375
1881.56792	3649.6375
1884.70227	3655.5375
1887.83457	3644.1375
1890.96482	3640.7375
1894.09304	3631.7375
1897.21921	3627.7375
1900.34335	3636.5375
1903.46544	3632.1375
1906.58551	3630.8375
1909.70353	3634.9375
1912.81953	3622.4375
1915.93349	3629.5375
1919.04543	3596.9375
1922.15534	3598.1375
1925.26322	3589.7375
1928.36908	3581.4375
1931.47292	3591.5375
1934.57473	3580.4375
1937.67453	3563.4375
1940.77232	3555.6375
1943.86808	3540.7375
1946.96184	3542.8375
1950.05358	3530.4375
1953.14331	3506.9375
1956.23103	3516.0375
1959.31675	3506.0375
1962.40046	3496.2375
1965.48217	3478.8375
1968.56188	3465.0375
1971.63959	3458.6375
1974.7153	3439.5375
1977.78901	3429.0375
1980.86073	3432.7375
1983.93046	3422.2375
1986.99819	3418.7375
1990.06394	3404.0375
1993.1277	3394.2375
1996.18947	3371.0375
1999.24925	3351.7375
2002.30706	3350.2375
2005.36288	3347.3375
2008.41672	3346.8375
2011.46859	3340.8375
2014.51848	3312.0375
2017.56639	3293.0375
2020.61233	3278.3375
2023.6563	3289.3375
2026.6983	3277.9375
2029.73833	3258.9375
2032.7764	3278.0375
2035.8125	3257.2375
2038.84664	3249.7375
2041.87881	3256.0375
2044.90903	3248.6375
2047.93729	3235.3375
2050.96359	3233.1375
2053.98794	3233.6375
2057.01034	3230.1375
2060.03078	3223.0375
2063.04927	3228.2375
2066.06582	3233.3375
2069.08042	3217.4375
2072.09307	3229.8375
2075.10378	3222.9375
2078.11255	3239.2375
2081.11938	3230.0375
2084.12426	3237.6375
2087.12722	3228.0375
2090.12824	3221.5375
2093.12732	3241.6375
2096.12447	3235.3375
2099.11969	3245.6375
2102.11299	3245.7375
2105.10435	3245.0375
2108.09379	3248.8375
2111.08131	3243.2375
2114.0669	3241.9375
2117.05057	3240.1375
2120.03233	3232.8375
2123.01216	3229.5375
2125.99008	3236.1375
2128.96609	3221.9375
2131.94018	3231.9375
2134.91236	3197.1375
2137.88263	3221.9375
2140.851	3225.2375
2143.81746	3211.7375
2146.78201	3215.9375
2149.74466	3223.5375
2152.7054	3214.4375
2155.66425	3215.6375
2158.6212	3206.0375
2161.57625	3214.6375
2164.52941	3215.5375
2167.48067	3222.2375
2170.43004	3205.3375
2173.37752	3194.4375
2176.32311	3186.9375
2179.26681	3202.3375
2182.20863	3213.3375
2185.14856	3213.8375
2188.08661	3213.2375
2191.02278	3213.5375
2193.95707	3211.2375
2196.88948	3204.1375
2199.82001	3197.2375
2202.74867	3193.5375
2205.67545	3196.6375
2208.60037	3187.8375
2211.52341	3192.6375
2214.44458	3187.1375
2217.36388	3167.4375
2220.28132	3154.3375
2223.1969	3154.5375
2226.11061	3140.5375
2229.02246	3146.4375
2231.93245	3141.5375
2234.84058	3134.8375
2237.74686	3123.2375
2240.65128	3124.3375
2243.55385	3114.7375
2246.45456	3128.0375
2249.35343	3101.9375
2252.25044	3102.9375
2255.14561	3091.5375
2258.03893	3087.2375
2260.93041	3099.0375
2263.82004	3100.8375
2266.70783	3089.2375
2269.59378	3070.3375
2272.4779	3065.6375
2275.36017	3065.3375
2278.24061	3061.0375
2281.11922	3047.3375
2283.996	3039.4375
2286.87094	3037.5375
2289.74405	3029.0375
2292.61534	3026.0375
2295.4848	3009.0375
2298.35243	3014.0375
2301.21824	3018.5375
2304.08223	3004.9375
2306.94439	3005.0375
2309.80474	3016.1375
2312.66327	3014.1375
2315.51999	3008.2375
2318.37489	3004.3375
2321.22797	3005.5375
2324.07925	3001.8375
2326.92871	2994.0375
2329.77637	2994.3375
2332.62222	2983.1375
2335.46626	2967.6375
2338.3085	2971.0375
2341.14893	2982.3375
2343.98756	2984.2375
2346.8244	2968.9375
2349.65943	2958.6375
2352.49267	2976.4375
2355.32411	2962.2375
2358.15376	2955.8375
2360.98161	2978.4375
2363.80768	2978.2375
2366.63195	2968.8375
2369.45444	2965.7375
2372.27514	2980.7375
2375.09405	2953.6375
2377.91118	2945.8375
2380.72652	2946.4375
2383.54009	2948.3375
2386.35187	2935.5375
2389.16188	2926.5375
2391.97011	2909.2375
2394.77657	2916.4375
2397.58125	2898.5375
2400.38416	2897.8375
2403.18529	2892.1375
2405.98466	2877.7375
2408.78226	2875.3375
2411.57809	2869.0375
2414.37216	2862.8375
2417.16446	2862.3375
2419.955	2864.4375
2422.74378	2865.6375
2425.5308	2857.9375
2428.31606	2857.1375
2431.09956	2853.2375
2433.88131	2835.0375
2436.6613	2849.1375
2439.43954	2842.9375
2442.21603	2838.2375
2444.99077	2845.6375
2447.76377	2844.3375
2450.53501	2839.3375
2453.30451	2842.9375
2456.07226	2832.3375
2458.83827	2837.6375
2461.60254	2834.3375
2464.36507	2842.3375
2467.12586	2831.8375
2469.88492	2836.8375
2472.64224	2833.9375
2475.39782	2821.3375
2478.15167	2836.7375
2480.90379	2832.6375
2483.65417	2839.4375
2486.40283	2832.7375
2489.14976	2830.5375
2491.89497	2834.9375
2494.63845	2829.3375
2497.3802	2826.1375
2500.12024	2817.4375
2502.85855	2819.3375
2505.59514	2821.5375
2508.33002	2816.5375
2511.06318	2801.4375
2513.79462	2807.5375
2516.52435	2794.9375
2519.25237	2787.1375
2521.97867	2779.9375
2524.70327	2774.6375
2527.42616	2780.4375
2530.14734	2773.1375
2532.86681	2760.4375
2535.58458	2761.2375
2538.30065	2760.3375
2541.01501	2751.3375
2543.72768	2745.8375
2546.43864	2760.1375
2549.14791	2752.3375
2551.85548	2734.2375
2554.56136	2735.9375
2557.26554	2750.8375
2559.96803	2749.7375
2562.66883	2730.4375
2565.36794	2736.9375
2568.06536	2733.3375
2570.7611	2733.2375
2573.45514	2732.2375
2576.14751	2725.4375
2578.83819	2714.1375
2581.52719	2724.4375
2584.21451	2714.8375
2586.90015	2716.0375
2589.58411	2708.9375
2592.2664	2701.2375
2594.94701	2701.0375
2597.62594	2690.9375
2600.30321	2692.4375
2602.9788	2688.3375
2605.65273	2693.3375
2608.32498	2686.8375
2610.99557	2691.0375
2613.66449	2687.6375
2616.33175	2672.8375
2618.99734	2686.5375
2621.66128	2684.3375
2624.32355	2683.8375
2626.98416	2680.5375
2629.64311	2670.0375
2632.30041	2675.0375
2634.95605	2683.2375
2637.61004	2666.5375
2640.26238	2659.6375
2642.91306	2670.5375
2645.56209	2663.8375
2648.20948	2663.0375
2650.85521	2656.3375
2653.4993	2665.5375
2656.14175	2674.0375
2658.78255	2668.8375
2661.42171	2665.9375
2664.05923	2669.0375
2666.6951	2667.2375
2669.32934	2664.5375
2671.96194	2686.5375
2674.59291	2695.9375
2677.22224	2677.3375
2679.84993	2679.8375
2682.476	2695.7375
2685.10043	2685.5375
2687.72324	2695.0375
2690.34441	2687.6375
2692.96396	2704.1375
2695.58188	2703.5375
2698.19818	2721.0375
2700.81285	2708.7375
2703.4259	2726.6375
2706.03733	2731.5375
2708.64714	2741.5375
2711.25533	2746.4375
2713.86191	2750.0375
2716.46687	2763.9375
2719.07021	2766.1375
2721.67194	2784.4375
2724.27206	2774.4375
2726.87057	2788.2375
2729.46747	2788.0375
2732.06276	2817.6375
2734.65644	2794.7375
2737.24852	2796.6375
2739.83899	2802.4375
2742.42786	2804.9375
2745.01513	2803.1375
2747.60079	2803.4375
2750.18486	2823.5375
2752.76733	2821.4375
2755.3482	2824.3375
2757.92747	2827.0375
2760.50515	2817.6375
2763.08123	2826.8375
2765.65573	2829.9375
2768.22863	2842.3375
2770.79994	2833.5375
2773.36967	2838.0375
2775.9378	2861.0375
2778.50435	2870.5375
2781.06932	2877.5375
2783.6327	2877.7375
2786.1945	2894.3375
2788.75471	2902.6375
2791.31335	2905.6375
2793.87041	2912.3375
2796.42589	2915.1375
2798.97979	2945.2375
2801.53212	2958.1375
2804.08288	2955.6375
2806.63206	2973.3375
2809.17967	2973.7375
2811.72571	2988.5375
2814.27018	3003.2375
2816.81308	3003.4375
2819.35442	2999.3375
2821.89419	2998.1375
2824.43239	3019.2375
2826.96904	2982.8375
2829.50412	3002.5375
2832.03763	3010.3375
2834.56959	3017.9375
2837.1	3032.8375
2839.62884	3071.6375
2842.15613	3147.1375
2844.68186	3219.6375
2847.20604	3293.3375
2849.72867	3370.4375
2852.24974	3401.5375
2854.76927	3414.5375
2857.28724	3389.9375
2859.80367	3393.7375
2862.31855	3372.2375
2864.83189	3363.0375
2867.34368	3350.7375
2869.85393	3359.5375
2872.36264	3348.0375
2874.8698	3352.8375
2877.37543	3349.4375
2879.87952	3354.4375
2882.38207	3352.0375
2884.88308	3347.7375
2887.38256	3357.3375
2889.88051	3363.0375
2892.37692	3357.4375
2894.8718	3362.6375
2897.36515	3352.2375
2899.85698	3357.3375
2902.34727	3376.2375
2904.83604	3359.4375
2907.32328	3361.5375
2909.809	3371.1375
2912.29319	3352.6375
2914.77587	3353.7375
2917.25702	3351.0375
2919.73665	3346.6375
2922.21476	3337.8375
2924.69136	3345.1375
2927.16644	3334.7375
2929.64	3322.6375
2932.11205	3307.7375
2934.58258	3282.0375
2937.05161	3262.7375
2939.51912	3220.5375
2941.98513	3165.9375
2944.44962	3097.2375
2946.91261	3025.9375
2949.37409	2972.4375
2951.83407	2917.5375
2954.29254	2892.3375
2956.74951	2845.4375
2959.20498	2812.0375
2961.65895	2776.3375
2964.11142	2773.0375
2966.56239	2740.2375
2969.01186	2732.2375
2971.45984	2710.0375
2973.90632	2678.8375
2976.35131	2661.3375
2978.7948	2644.7375
2981.23681	2622.6375
2983.67732	2599.0375
2986.11635	2592.6375
2988.55388	2570.6375
2990.98993	2563.2375
2993.4245	2545.2375
2995.85758	2540.8375
2998.28917	2536.5375
3000.71928	2515.9375
3003.14791	2527.9375
3005.57506	2517.0375
3008.00073	2512.7375
3010.42493	2503.8375
3012.84764	2499.1375
3015.26888	2493.6375
3017.68865	2481.7375
3020.10694	2491.0375
3022.52376	2486.5375
3024.9391	2486.4375
3027.35298	2476.6375
3029.76539	2484.7375
3032.17632	2473.4375
3034.5858	2468.0375
3036.9938	2467.1375
3039.40034	2468.1375
3041.80542	2461.6375
3044.20903	2464.4375
3046.61118	2474.1375
3049.01187	2477.3375
3051.4111	2474.0375
3053.80888	2479.0375
3056.20519	2478.7375
3058.60005	2468.7375
3060.99345	2479.2375
3063.3854	2472.2375
3065.7759	2474.8375
3068.16494	2472.3375
3070.55254	2484.7375
3072.93868	2482.7375
3075.32338	2475.5375
3077.70662	2472.0375
3080.08842	2459.8375
3082.46878	2461.3375
3084.84769	2434.7375
3087.22515	2438.8375
3089.60118	2448.3375
3091.97576	2439.8375
3094.3489	2437.2375
3096.72061	2428.0375
3099.09087	2441.5375
3101.4597	2436.4375
3103.82709	2438.9375
3106.19305	2428.6375
3108.55757	2439.1375
3110.92066	2425.9375
3113.28232	2427.8375
3115.64255	2420.8375
3118.00134	2428.7375
3120.35871	2431.3375
3122.71466	2438.2375
3125.06917	2433.3375
