Data from AgNPs_FTO_APTES_UA_2uM_CRN_0uM_R6G_10uM_NaF_0.1M_Addition_RamanShift__2__10-06-44-913.txt Node

Date: Wed Feb 02 10:06:44 GMT 2022
User: TCL
Spectrometer: QEP01345
Trigger mode: 4
Integration Time (sec): 7.000000E0
Scans to average: 10
Electric dark correction enabled: true
Nonlinearity correction enabled: false
Boxcar width: 0
XAxis mode: Raman Shifts
Number of Pixels in Spectrum: 1044
>>>>>Begin Spectral Data<<<<<
46.04893	0.775
50.45542	1.275
54.85868	0.175
59.25871	0.475
63.6555	26.175
68.04907	32.075
72.43941	31.775
76.82654	39.175
81.21044	38.075
85.59113	42.375
89.96862	43.475
94.34289	42.875
98.71396	45.975
103.08183	48.275
107.4465	45.675
111.80798	47.275
116.16626	45.875
120.52136	49.275
124.87327	47.575
129.222	46.375
133.56755	49.375
137.90993	48.575
142.24913	53.375
146.58517	53.975
150.91804	58.575
155.24774	66.475
159.57429	80.875
163.89768	92.875
168.21792	111.875
172.53501	146.575
176.84895	189.675
181.15975	252.775
185.46741	350.375
189.77193	478.075
194.07331	652.275
198.37157	843.875
202.6667	1058.375
206.9587	1280.775
211.24758	1487.775
215.53334	1708.875
219.81599	1937.975
224.09553	2180.375
228.37195	2446.975
232.64527	2742.475
236.91549	3056.475
241.18261	3365.675
245.44663	3671.075
249.70755	3930.375
253.96539	4141.175
258.22014	4298.275
262.4718	4373.575
266.72039	4404.775
270.96589	4353.675
275.20832	4265.975
279.44768	4155.675
283.68397	4014.575
287.91719	3868.075
292.14735	3738.275
296.37445	3641.075
300.59849	3555.675
304.81948	3519.175
309.03742	3492.075
313.25231	3469.575
317.46415	3426.875
321.67296	3380.175
325.87872	3336.375
330.08145	3322.075
334.28114	3306.075
338.47781	3309.675
342.67145	3311.675
346.86207	3315.475
351.04966	3321.675
355.23424	3316.975
359.4158	3277.975
363.59435	3248.475
367.76989	3201.975
371.94243	3160.275
376.11196	3106.875
380.27849	3073.675
384.44203	3046.475
388.60257	3026.875
392.76012	3000.375
396.91468	3002.675
401.06626	3005.875
405.21485	3014.775
409.36047	3016.775
413.50311	3045.275
417.64277	3111.075
421.77947	3163.675
425.9132	3043.175
430.04396	2978.775
434.17176	3005.675
438.2966	3024.175
442.41849	3063.475
446.53742	3101.875
450.6534	3138.575
454.76644	3162.875
458.87653	3194.175
462.98368	3186.975
467.08789	3185.175
471.18916	3181.175
475.2875	3147.375
479.38291	3133.775
483.4754	3126.075
487.56496	3109.175
491.6516	3100.075
495.73531	3104.475
499.81612	3090.775
503.89401	3087.375
507.96899	3116.675
512.04106	3101.175
516.11023	3098.875
520.1765	3106.675
524.23987	3092.875
528.30034	3075.475
532.35792	3051.275
536.41261	3037.675
540.46441	2981.975
544.51333	2976.075
548.55936	2978.675
552.60252	2985.775
556.64279	3000.175
560.6802	3025.475
564.71473	3024.275
568.7464	3044.075
572.7752	3033.875
576.80114	3010.875
580.82422	3003.775
584.84444	3010.175
588.86181	3043.175
592.87633	3091.475
596.888	3159.675
600.89682	3207.975
604.9028	3335.175
608.90594	3613.975
612.90624	3996.475
616.90371	4053.075
620.89834	3651.375
624.89015	3332.575
628.87913	3180.175
632.86528	3103.575
636.84862	3056.975
640.82913	3017.875
644.80683	2977.275
648.78172	2975.175
652.75379	2970.475
656.72306	3025.275
660.68952	3073.175
664.65319	3084.075
668.61405	3110.075
672.57211	3144.575
676.52738	3225.175
680.47986	3312.775
684.42955	3348.675
688.37646	3372.175
692.32058	3366.075
696.26192	3332.875
700.20048	3342.275
704.13626	3337.275
708.06928	3342.775
711.99952	3327.475
715.927	3313.775
719.85171	3304.475
723.77365	3291.375
727.69284	3252.475
731.60928	3219.175
735.52295	3210.375
739.43388	3199.575
743.34206	3169.275
747.24749	3187.575
751.15017	3171.375
755.05012	3183.975
758.94733	3187.775
762.8418	3261.575
766.73354	3375.575
770.62254	3526.875
774.50882	3609.775
778.39237	3557.775
782.27321	3433.375
786.15132	3296.975
790.02671	3231.975
793.89938	3201.875
797.76935	3185.975
801.6366	3196.175
805.50115	3196.875
809.36299	3202.575
813.22213	3199.875
817.07857	3196.275
820.93231	3182.775
824.78336	3163.075
828.63172	3172.275
832.47738	3176.775
836.32036	3154.975
840.16066	3166.675
843.99827	3194.575
847.8332	3188.775
851.66546	3162.675
855.49504	3159.675
859.32195	3169.975
863.1462	3166.475
866.96777	3189.375
870.78668	3213.675
874.60293	3229.175
878.41652	3269.175
882.22745	3305.175
886.03573	3373.475
889.84136	3457.975
893.64433	3519.575
897.44466	3566.075
901.24235	3606.975
905.0374	3651.575
908.8298	3734.775
912.61957	3843.475
916.40671	4003.775
920.19121	4149.675
923.97308	4295.575
927.75233	4412.875
931.52895	4427.375
935.30295	4323.275
939.07433	4167.375
942.84309	4015.175
946.60924	3874.975
950.37278	3767.475
954.13371	3674.175
957.89203	3605.175
961.64774	3536.175
965.40086	3476.075
969.15137	3418.575
972.89929	3362.675
976.64461	3308.775
980.38733	3256.475
984.12747	3247.375
987.86502	3241.675
991.59999	3245.475
995.33237	3248.075
999.06217	3276.075
1002.78939	3314.575
1006.51404	3323.475
1010.23611	3344.175
1013.95561	3347.975
1017.67255	3332.275
1021.38692	3315.175
1025.09872	3293.275
1028.80796	3272.675
1032.51465	3273.675
1036.21877	3305.375
1039.92035	3327.975
1043.61937	3387.975
1047.31584	3427.575
1051.00976	3477.075
1054.70114	3516.175
1058.38998	3532.875
1062.07627	3526.775
1065.76003	3490.175
1069.44126	3445.975
1073.11995	3395.075
1076.79611	3354.775
1080.46974	3314.175
1084.14085	3288.575
1087.80943	3287.175
1091.47549	3279.675
1095.13903	3246.875
1098.80005	3215.475
1102.45857	3192.175
1106.11456	3156.175
1109.76805	3151.775
1113.41903	3143.675
1117.06751	3175.575
1120.71348	3212.575
1124.35696	3263.275
1127.99793	3319.775
1131.63641	3368.175
1135.2724	3304.775
1138.90589	3235.875
1142.5369	3193.675
1146.16542	3138.175
1149.79145	3107.175
1153.415	3079.875
1157.03607	3066.875
1160.65467	3056.375
1164.27079	3111.975
1167.88443	3175.975
1171.49561	3264.175
1175.10432	3442.775
1178.71056	3668.175
1182.31434	3917.675
1185.91565	4098.275
1189.51451	4163.575
1193.11091	4109.075
1196.70485	3984.875
1200.29634	3781.775
1203.88538	3621.875
1207.47197	3464.475
1211.05612	3341.475
1214.63782	3292.975
1218.21708	3292.975
1221.79391	3305.775
1225.36829	3364.975
1228.94024	3428.975
1232.50976	3423.775
1236.07685	3434.775
1239.6415	3379.875
1243.20374	3369.675
1246.76355	3371.475
1250.32093	3368.775
1253.8759	3373.375
1257.42845	3422.975
1260.97859	3467.775
1264.52631	3516.075
1268.07163	3568.375
1271.61453	3641.875
1275.15503	3688.575
1278.69312	3728.875
1282.22882	3788.675
1285.76211	3843.575
1289.29301	3957.075
1292.82151	4048.575
1296.34761	4142.475
1299.87133	4232.475
1303.39266	4330.675
1306.9116	4467.875
1310.42815	4599.675
1313.94233	4670.775
1317.45412	4631.575
1320.96354	4510.975
1324.47058	4384.275
1327.97525	4286.875
1331.47754	4239.375
1334.97747	4247.775
1338.47502	4289.875
1341.97022	4372.975
1345.46305	4450.975
1348.95352	4587.175
1352.44163	4764.775
1355.92738	5006.975
1359.41078	5271.575
1362.89183	5586.175
1366.37053	5692.075
1369.84688	5466.075
1373.32088	5124.775
1376.79254	4915.075
1380.26186	4833.975
1383.72883	4807.975
1387.19347	4802.275
1390.65578	4818.775
1394.11575	4813.675
1397.57339	4787.975
1401.0287	4764.775
1404.48168	4728.875
1407.93234	4666.675
1411.38068	4604.375
1414.82669	4545.675
1418.27039	4469.475
1421.71177	4398.375
1425.15083	4337.775
1428.58758	4261.475
1432.02203	4203.275
1435.45416	4157.575
1438.88399	4150.975
1442.31151	4110.675
1445.73673	4095.175
1449.15965	4065.475
1452.58027	4008.875
1455.9986	3987.475
1459.41463	3986.875
1462.82837	3990.575
1466.23982	3999.775
1469.64898	4040.575
1473.05586	4075.475
1476.46045	4091.875
1479.86276	4113.175
1483.26279	4122.775
1486.66054	4142.675
1490.05602	4188.675
1493.44922	4219.275
1496.84016	4276.975
1500.22882	4362.475
1503.61521	4511.775
1506.99934	4668.575
1510.38121	4814.575
1513.76081	4867.075
1517.13816	4749.075
1520.51324	4518.975
1523.88607	4276.575
1527.25665	4125.775
1530.62498	3994.575
1533.99105	3938.075
1537.35488	3884.075
1540.71647	3834.075
1544.07581	3776.575
1547.4329	3745.275
1550.78776	3720.975
1554.14038	3700.475
1557.49077	3698.075
1560.83892	3669.275
1564.18484	3664.575
1567.52853	3657.075
1570.86999	3676.775
1574.20922	3666.775
1577.54624	3650.375
1580.88103	3597.075
1584.2136	3499.475
1587.54395	3428.275
1590.87208	3403.175
1594.19801	3397.775
1597.52172	3424.575
1600.84321	3439.575
1604.16251	3393.075
1607.47959	3331.875
1610.79447	3283.075
1614.10715	3214.875
1617.41763	3161.775
1620.7259	3118.075
1624.03199	3094.375
1627.33587	3094.775
1630.63757	3100.175
1633.93707	3120.775
1637.23439	3145.275
1640.52951	3202.075
1643.82246	3295.375
1647.11321	3410.275
1650.40179	3468.375
1653.68819	3413.175
1656.97241	3199.375
1660.25446	2951.875
1663.53433	2754.575
1666.81203	2633.675
1670.08756	2543.175
1673.36092	2474.775
1676.63211	2418.075
1679.90115	2379.475
1683.16801	2351.775
1686.43272	2307.275
1689.69527	2285.675
1692.95567	2245.075
1696.2139	2212.775
1699.46999	2192.475
1702.72392	2176.275
1705.97571	2162.575
1709.22535	2157.275
1712.47284	2148.575
1715.71819	2123.175
1718.96139	2123.575
1722.20246	2117.375
1725.44139	2102.875
1728.67818	2085.375
1731.91284	2073.575
1735.14537	2065.575
1738.37576	2059.275
1741.60403	2044.575
1744.83017	2037.475
1748.05418	2049.675
1751.27607	2036.175
1754.49584	2041.875
1757.71349	2051.275
1760.92903	2029.775
1764.14244	2024.875
1767.35375	2007.875
1770.56294	2000.975
1773.77002	1980.375
1776.97499	1968.275
1780.17785	1969.875
1783.37861	1965.375
1786.57727	1954.675
1789.77382	1949.775
1792.96828	1958.675
1796.16064	1936.375
1799.3509	1925.075
1802.53907	1919.575
1805.72514	1920.375
1808.90913	1921.075
1812.09102	1906.275
1815.27083	1896.175
1818.44856	1897.375
1821.6242	1894.875
1824.79776	1894.975
1827.96924	1884.575
1831.13864	1890.475
1834.30597	1887.075
1837.47122	1869.375
1840.6344	1869.275
1843.7955	1883.875
1846.95454	1882.575
1850.11151	1866.675
1853.26642	1858.975
1856.41926	1858.075
1859.57004	1867.675
1862.71876	1855.575
1865.86542	1853.375
1869.01003	1850.175
1872.15258	1846.075
1875.29308	1851.075
1878.43152	1843.275
1881.56792	1838.475
1884.70227	1845.075
1887.83457	1837.675
1890.96482	1831.275
1894.09304	1819.675
1897.21921	1828.175
1900.34335	1824.475
1903.46544	1819.775
1906.58551	1822.175
1909.70353	1816.475
1912.81953	1813.175
1915.93349	1814.175
1919.04543	1804.775
1922.15534	1804.275
1925.26322	1797.675
1928.36908	1794.275
1931.47292	1802.275
1934.57473	1794.075
1937.67453	1782.075
1940.77232	1788.175
1943.86808	1783.775
1946.96184	1774.575
1950.05358	1767.075
1953.14331	1764.775
1956.23103	1758.975
1959.31675	1753.075
1962.40046	1744.875
1965.48217	1739.675
1968.56188	1734.175
1971.63959	1733.575
1974.7153	1730.875
1977.78901	1724.575
1980.86073	1727.975
1983.93046	1708.775
1986.99819	1705.075
1990.06394	1699.775
1993.1277	1701.475
1996.18947	1697.875
1999.24925	1683.375
2002.30706	1685.175
2005.36288	1672.375
2008.41672	1674.175
2011.46859	1667.775
2014.51848	1662.975
2017.56639	1652.675
2020.61233	1653.275
2023.6563	1654.575
2026.6983	1647.475
2029.73833	1645.375
2032.7764	1643.675
2035.8125	1633.375
2038.84664	1632.075
2041.87881	1634.675
2044.90903	1617.875
2047.93729	1627.075
2050.96359	1627.075
2053.98794	1629.875
2057.01034	1644.075
2060.03078	1640.075
2063.04927	1646.875
2066.06582	1651.875
2069.08042	1660.075
2072.09307	1672.775
2075.10378	1677.375
2078.11255	1696.675
2081.11938	1707.375
2084.12426	1723.675
2087.12722	1725.575
2090.12824	1733.775
2093.12732	1745.375
2096.12447	1755.175
2099.11969	1763.175
2102.11299	1777.775
2105.10435	1778.575
2108.09379	1789.475
2111.08131	1778.475
2114.0669	1781.875
2117.05057	1771.575
2120.03233	1772.375
2123.01216	1760.375
2125.99008	1754.675
2128.96609	1736.875
2131.94018	1754.175
2134.91236	1723.575
2137.88263	1715.375
2140.851	1696.875
2143.81746	1699.675
2146.78201	1676.975
2149.74466	1656.775
2152.7054	1649.875
2155.66425	1646.675
2158.6212	1639.075
2161.57625	1626.975
2164.52941	1614.375
2167.48067	1609.075
2170.43004	1604.875
2173.37752	1588.175
2176.32311	1590.875
2179.26681	1596.575
2182.20863	1585.975
2185.14856	1595.175
2188.08661	1585.175
2191.02278	1576.175
2193.95707	1583.375
2196.88948	1579.075
2199.82001	1583.575
2202.74867	1573.375
2205.67545	1580.375
2208.60037	1574.375
2211.52341	1573.075
2214.44458	1565.875
2217.36388	1565.275
2220.28132	1558.075
2223.1969	1549.575
2226.11061	1549.075
2229.02246	1538.975
2231.93245	1545.275
2234.84058	1534.875
2237.74686	1532.575
2240.65128	1528.675
2243.55385	1525.675
2246.45456	1525.175
2249.35343	1520.975
2252.25044	1515.475
2255.14561	1521.475
2258.03893	1514.975
2260.93041	1510.475
2263.82004	1513.075
2266.70783	1505.775
2269.59378	1497.675
2272.4779	1505.175
2275.36017	1496.475
2278.24061	1487.875
2281.11922	1488.275
2283.996	1490.475
2286.87094	1485.875
2289.74405	1479.975
2292.61534	1480.675
2295.4848	1473.575
2298.35243	1469.275
2301.21824	1468.875
2304.08223	1470.775
2306.94439	1464.575
2309.80474	1463.475
2312.66327	1458.975
2315.51999	1451.875
2318.37489	1457.175
2321.22797	1450.375
2324.07925	1455.475
2326.92871	1450.775
2329.77637	1454.975
2332.62222	1449.775
2335.46626	1440.875
2338.3085	1441.375
2341.14893	1447.275
2343.98756	1436.475
2346.8244	1432.275
2349.65943	1441.875
2352.49267	1427.775
2355.32411	1425.475
2358.15376	1429.175
2360.98161	1436.975
2363.80768	1431.375
2366.63195	1415.875
2369.45444	1425.375
2372.27514	1432.375
2375.09405	1423.975
2377.91118	1424.975
2380.72652	1415.875
2383.54009	1416.975
2386.35187	1411.175
2389.16188	1401.775
2391.97011	1408.275
2394.77657	1393.375
2397.58125	1398.575
2400.38416	1387.075
2403.18529	1394.575
2405.98466	1376.475
2408.78226	1388.575
2411.57809	1382.275
2414.37216	1383.675
2417.16446	1388.275
2419.955	1374.875
2422.74378	1372.875
2425.5308	1371.375
2428.31606	1365.375
2431.09956	1375.275
2433.88131	1352.575
2436.6613	1366.975
2439.43954	1359.175
2442.21603	1355.675
2444.99077	1349.775
2447.76377	1361.175
2450.53501	1359.175
2453.30451	1354.075
2456.07226	1350.175
2458.83827	1349.975
2461.60254	1345.975
2464.36507	1348.075
2467.12586	1344.875
2469.88492	1344.675
2472.64224	1340.775
2475.39782	1341.075
2478.15167	1330.175
2480.90379	1334.575
2483.65417	1333.875
2486.40283	1341.875
2489.14976	1335.775
2491.89497	1335.175
2494.63845	1333.175
2497.3802	1323.975
2500.12024	1327.175
2502.85855	1331.575
2505.59514	1325.775
2508.33002	1318.075
2511.06318	1322.375
2513.79462	1320.375
2516.52435	1321.375
2519.25237	1316.275
2521.97867	1314.675
2524.70327	1308.775
2527.42616	1311.875
2530.14734	1304.375
2532.86681	1293.475
2535.58458	1308.775
2538.30065	1289.775
2541.01501	1296.875
2543.72768	1288.175
2546.43864	1292.775
2549.14791	1293.475
2551.85548	1287.975
2554.56136	1280.275
2557.26554	1280.875
2559.96803	1276.575
2562.66883	1274.975
2565.36794	1275.075
2568.06536	1271.475
2570.7611	1280.575
2573.45514	1267.475
2576.14751	1263.475
2578.83819	1266.575
2581.52719	1266.475
2584.21451	1261.875
2586.90015	1258.875
2589.58411	1251.375
2592.2664	1254.175
2594.94701	1257.975
2597.62594	1246.375
2600.30321	1253.275
2602.9788	1250.175
2605.65273	1244.475
2608.32498	1238.375
2610.99557	1232.575
2613.66449	1241.575
2616.33175	1237.875
2618.99734	1237.075
2621.66128	1230.175
2624.32355	1234.975
2626.98416	1227.975
2629.64311	1236.875
2632.30041	1240.075
2634.95605	1229.275
2637.61004	1235.175
2640.26238	1231.575
2642.91306	1232.475
2645.56209	1227.675
2648.20948	1224.675
2650.85521	1220.875
2653.4993	1227.875
2656.14175	1226.875
2658.78255	1230.675
2661.42171	1225.875
2664.05923	1237.775
2666.6951	1225.975
2669.32934	1243.475
2671.96194	1227.875
2674.59291	1240.475
2677.22224	1232.475
2679.84993	1236.075
2682.476	1236.375
2685.10043	1240.375
2687.72324	1234.775
2690.34441	1243.775
2692.96396	1241.275
2695.58188	1245.175
2698.19818	1242.375
2700.81285	1240.975
2703.4259	1246.575
2706.03733	1233.975
2708.64714	1240.875
2711.25533	1245.075
2713.86191	1245.175
2716.46687	1248.375
2719.07021	1246.475
2721.67194	1242.075
2724.27206	1241.975
2726.87057	1256.075
2729.46747	1251.875
2732.06276	1252.175
2734.65644	1253.875
2737.24852	1254.275
2739.83899	1256.275
2742.42786	1253.675
2745.01513	1250.175
2747.60079	1258.175
2750.18486	1254.275
2752.76733	1254.675
2755.3482	1260.375
2757.92747	1255.875
2760.50515	1261.975
2763.08123	1262.575
2765.65573	1261.975
2768.22863	1262.875
2770.79994	1252.875
2773.36967	1251.875
2775.9378	1254.075
2778.50435	1254.075
2781.06932	1249.675
2783.6327	1252.975
2786.1945	1253.575
2788.75471	1260.275
2791.31335	1251.775
2793.87041	1251.675
2796.42589	1246.875
2798.97979	1248.475
2801.53212	1249.175
2804.08288	1250.675
2806.63206	1246.575
2809.17967	1243.375
2811.72571	1243.075
2814.27018	1249.475
2816.81308	1244.175
2819.35442	1241.275
2821.89419	1246.075
2824.43239	1245.475
2826.96904	1241.775
2829.50412	1245.475
2832.03763	1245.075
2834.56959	1253.775
2837.1	1250.975
2839.62884	1258.475
2842.15613	1273.375
2844.68186	1296.375
2847.20604	1316.675
2849.72867	1331.475
2852.24974	1344.675
2854.76927	1348.475
2857.28724	1361.575
2859.80367	1372.675
2862.31855	1375.775
2864.83189	1391.375
2867.34368	1397.475
2869.85393	1408.875
2872.36264	1415.875
2874.8698	1422.275
2877.37543	1442.975
2879.87952	1448.175
2882.38207	1460.075
2884.88308	1476.775
2887.38256	1477.075
2889.88051	1477.475
2892.37692	1494.575
2894.8718	1496.475
2897.36515	1510.675
2899.85698	1517.575
2902.34727	1520.875
2904.83604	1527.875
2907.32328	1541.375
2909.809	1551.975
2912.29319	1543.775
2914.77587	1559.075
2917.25702	1560.175
2919.73665	1560.175
2922.21476	1572.275
2924.69136	1581.475
2927.16644	1586.975
2929.64	1587.275
2932.11205	1583.075
2934.58258	1584.475
2937.05161	1575.475
2939.51912	1561.175
2941.98513	1541.675
2944.44962	1522.975
2946.91261	1503.775
2949.37409	1475.475
2951.83407	1449.575
2954.29254	1440.375
2956.74951	1404.575
2959.20498	1392.575
2961.65895	1373.375
2964.11142	1366.275
2966.56239	1341.875
2969.01186	1330.775
2971.45984	1305.775
2973.90632	1296.375
2976.35131	1290.075
2978.7948	1269.675
2981.23681	1257.475
2983.67732	1252.375
2986.11635	1232.175
2988.55388	1229.175
2990.98993	1212.575
2993.4245	1214.875
2995.85758	1210.375
2998.28917	1198.675
3000.71928	1200.375
3003.14791	1209.375
3005.57506	1192.375
3008.00073	1186.375
3010.42493	1184.475
3012.84764	1178.175
3015.26888	1185.375
3017.68865	1186.175
3020.10694	1178.475
3022.52376	1179.575
3024.9391	1170.275
3027.35298	1176.975
3029.76539	1166.675
3032.17632	1167.475
3034.5858	1162.975
3036.9938	1163.375
3039.40034	1168.775
3041.80542	1161.875
3044.20903	1159.875
3046.61118	1160.375
3049.01187	1159.875
3051.4111	1159.275
3053.80888	1157.675
3056.20519	1157.175
3058.60005	1158.375
3060.99345	1160.475
3063.3854	1157.675
3065.7759	1161.575
3068.16494	1157.375
3070.55254	1158.075
3072.93868	1164.875
3075.32338	1164.375
3077.70662	1159.775
3080.08842	1160.675
3082.46878	1170.275
3084.84769	1163.875
3087.22515	1168.075
3089.60118	1175.575
3091.97576	1176.875
3094.3489	1172.875
3096.72061	1187.075
3099.09087	1194.275
3101.4597	1191.675
3103.82709	1192.475
3106.19305	1184.675
3108.55757	1197.475
3110.92066	1199.975
3113.28232	1202.075
3115.64255	1196.075
3118.00134	1211.175
3120.35871	1211.575
3122.71466	1213.875
3125.06917	1221.375
3127.42226	1218.875
3129.77393	1224.475
3132.12417	1228.775
3134.47299	1238.175
3136.82039	1249.175
3139.16636	1241.075
3141.51092	1254.075
3143.85406	1264.075
3146.19579	1264.875
3148.53609	1272.675
3150.87499	1276.875
3153.21246	1293.375
3155.54853	1293.475
3157.88318	1300.775
3160.21642	1308.075
3162.54826	1306.975
3164.87868	1319.375
3167.2077	1314.075
3169.5353	1320.175
3171.86151	1324.875
3174.18631	1321.575
3176.5097	1338.175
3178.83169	1339.975
3181.15228	1348.975
3183.47147	1345.375
3185.78926	1346.775
3188.10565	1356.075
3190.42065	1357.275
3192.73424	1354.975
3195.04645	1363.275
3197.35725	1376.775
3199.66667	1380.075
3201.97469	1380.875
3204.28132	1378.675
3206.58656	1385.375
3208.8904	1394.275
3211.19287	1403.175
3213.49394	1409.875
3215.79363	1403.675
3218.09193	1405.975
3220.38884	1416.275
3222.68438	1423.075
3224.97853	1417.675
3227.2713	1410.675
3229.56269	1418.575
3231.8527	1427.475
3234.14133	1423.875
3236.42858	1417.675
