Data from AgNPs_FTO_APTES_UA_2uM_CRN_50uM_R6G_10uM_NaF_0.1M_Addition_RamanShift__48__15-32-15-293.txt Node

Date: Wed Feb 02 15:32:15 GMT 2022
User: TCL
Spectrometer: QEP01345
Trigger mode: 4
Integration Time (sec): 7.000000E0
Scans to average: 10
Electric dark correction enabled: true
Nonlinearity correction enabled: false
Boxcar width: 0
XAxis mode: Raman Shifts
Number of Pixels in Spectrum: 1044
>>>>>Begin Spectral Data<<<<<
46.04893	0.4625
50.45542	-0.5375
54.85868	-1.1375
59.25871	-1.1375
63.6555	76.1625
68.04907	85.0625
72.43941	89.1625
76.82654	92.2625
81.21044	98.8625
85.59113	100.8625
89.96862	103.4625
94.34289	107.4625
98.71396	109.8625
103.08183	119.8625
107.4465	120.9625
111.80798	119.8625
116.16626	122.9625
120.52136	128.0625
124.87327	133.1625
129.222	134.6625
133.56755	142.3625
137.90993	155.9625
142.24913	170.0625
146.58517	190.9625
150.91804	217.2625
155.24774	258.1625
159.57429	320.4625
163.89768	408.3625
168.21792	541.7625
172.53501	729.2625
176.84895	1023.5625
181.15975	1422.3625
185.46741	1994.4625
189.77193	2727.6625
194.07331	3660.3625
198.37157	4705.9625
202.6667	5824.2625
206.9587	6935.9625
211.24758	7998.4625
215.53334	9080.7625
219.81599	10218.3625
224.09553	11452.1625
228.37195	12828.8625
232.64527	14266.8625
236.91549	15814.6625
241.18261	17361.5625
245.44663	18848.9625
249.70755	20165.1625
253.96539	21324.7625
258.22014	22277.7625
262.4718	23127.8625
266.72039	23727.0625
270.96589	24082.8625
275.20832	24233.0625
279.44768	24227.6625
283.68397	24199.4625
287.91719	24167.1625
292.14735	24244.0625
296.37445	24386.5625
300.59849	24554.3625
304.81948	24643.8625
309.03742	24532.8625
313.25231	24180.0625
317.46415	23537.3625
321.67296	22799.5625
325.87872	22121.3625
330.08145	21705.8625
334.28114	21614.8625
338.47781	21690.7625
342.67145	21819.7625
346.86207	22056.2625
351.04966	22317.7625
355.23424	22537.0625
359.4158	22755.6625
363.59435	22957.7625
367.76989	23060.8625
371.94243	23122.0625
376.11196	23153.5625
380.27849	23106.8625
384.44203	23178.6625
388.60257	23347.1625
392.76012	23676.5625
396.91468	24072.7625
401.06626	24566.8625
405.21485	24778.1625
409.36047	24650.3625
413.50311	24330.4625
417.64277	24180.5625
421.77947	24185.4625
425.9132	24317.9625
430.04396	24450.1625
434.17176	24553.8625
438.2966	24656.8625
442.41849	24937.1625
446.53742	25545.3625
450.6534	26174.1625
454.76644	26711.6625
458.87653	26985.1625
462.98368	27066.7625
467.08789	27024.7625
471.18916	26896.7625
475.2875	26837.3625
479.38291	26972.3625
483.4754	26996.5625
487.56496	26594.0625
491.6516	25917.3625
495.73531	25165.2625
499.81612	24676.0625
503.89401	24627.1625
507.96899	24693.6625
512.04106	24730.4625
516.11023	24528.8625
520.1765	24181.5625
524.23987	23769.3625
528.30034	23363.1625
532.35792	23027.5625
536.41261	22795.7625
540.46441	22670.1625
544.51333	22800.9625
548.55936	23233.0625
552.60252	23865.6625
556.64279	24556.3625
560.6802	25105.7625
564.71473	25607.1625
568.7464	26409.5625
572.7752	27604.0625
576.80114	28915.3625
580.82422	29888.0625
584.84444	30509.3625
588.86181	30991.3625
592.87633	31313.6625
596.888	30652.7625
600.89682	29469.0625
604.9028	29034.7625
608.90594	29875.0625
612.90624	30661.6625
616.90371	28401.9625
620.89834	24516.2625
624.89015	22858.8625
628.87913	22817.8625
632.86528	23112.2625
636.84862	23120.0625
640.82913	22794.0625
644.80683	22202.4625
648.78172	21803.1625
652.75379	21679.1625
656.72306	21770.1625
660.68952	22013.8625
664.65319	21896.2625
668.61405	21636.1625
672.57211	21592.2625
676.52738	21642.7625
680.47986	21630.5625
684.42955	21596.6625
688.37646	21502.7625
692.32058	21620.5625
696.26192	21818.8625
700.20048	22089.5625
704.13626	22351.1625
708.06928	22528.4625
711.99952	22532.0625
715.927	22450.9625
719.85171	22388.6625
723.77365	22142.8625
727.69284	21760.5625
731.60928	21433.1625
735.52295	21257.6625
739.43388	21162.8625
743.34206	21176.6625
747.24749	21351.1625
751.15017	21675.5625
755.05012	22201.4625
758.94733	23009.4625
762.8418	24228.7625
766.73354	26024.6625
770.62254	27423.7625
774.50882	27264.0625
778.39237	25700.8625
782.27321	23906.7625
786.15132	22546.7625
790.02671	21671.4625
793.89938	21253.4625
797.76935	20966.5625
801.6366	20938.4625
805.50115	20871.5625
809.36299	20772.8625
813.22213	20662.7625
817.07857	20657.4625
820.93231	20666.0625
824.78336	20509.2625
828.63172	20277.8625
832.47738	20110.5625
836.32036	20050.8625
840.16066	20026.1625
843.99827	20010.3625
847.8332	19959.9625
851.66546	19965.5625
855.49504	20025.4625
859.32195	19971.8625
863.1462	19919.0625
866.96777	19842.1625
870.78668	19810.3625
874.60293	19776.9625
878.41652	19767.0625
882.22745	19770.3625
886.03573	19813.1625
889.84136	19838.6625
893.64433	19789.6625
897.44466	19710.9625
901.24235	19698.9625
905.0374	19617.4625
908.8298	19661.1625
912.61957	19800.1625
916.40671	20126.8625
920.19121	20544.9625
923.97308	20780.7625
927.75233	20576.1625
931.52895	20185.4625
935.30295	19718.7625
939.07433	19304.3625
942.84309	18952.6625
946.60924	18710.6625
950.37278	18667.1625
954.13371	18678.6625
957.89203	18732.8625
961.64774	18754.4625
965.40086	18779.1625
969.15137	18686.9625
972.89929	18521.0625
976.64461	18354.7625
980.38733	18293.1625
984.12747	18282.6625
987.86502	18324.9625
991.59999	18415.9625
995.33237	18481.9625
999.06217	18719.6625
1002.78939	19029.0625
1006.51404	19295.8625
1010.23611	19567.0625
1013.95561	19831.9625
1017.67255	19867.0625
1021.38692	19749.0625
1025.09872	19514.6625
1028.80796	19257.0625
1032.51465	19263.1625
1036.21877	19310.2625
1039.92035	19453.3625
1043.61937	19587.5625
1047.31584	19676.9625
1051.00976	19750.2625
1054.70114	19911.2625
1058.38998	20161.1625
1062.07627	20544.6625
1065.76003	21016.1625
1069.44126	21335.6625
1073.11995	21697.1625
1076.79611	21891.2625
1080.46974	21958.3625
1084.14085	21980.1625
1087.80943	22228.3625
1091.47549	22440.7625
1095.13903	22638.1625
1098.80005	22422.7625
1102.45857	21731.1625
1106.11456	21092.5625
1109.76805	20655.2625
1113.41903	20571.7625
1117.06751	20702.5625
1120.71348	20926.5625
1124.35696	21182.2625
1127.99793	21528.9625
1131.63641	21805.6625
1135.2724	21756.0625
1138.90589	21774.7625
1142.5369	21958.5625
1146.16542	22332.8625
1149.79145	22751.8625
1153.415	23286.1625
1157.03607	23844.4625
1160.65467	24711.6625
1164.27079	26071.9625
1167.88443	27664.9625
1171.49561	29330.7625
1175.10432	31174.4625
1178.71056	33441.0625
1182.31434	35426.5625
1185.91565	36650.0625
1189.51451	36831.3625
1193.11091	36439.3625
1196.70485	35481.9625
1200.29634	34205.4625
1203.88538	33263.5625
1207.47197	33006.8625
1211.05612	32957.9625
1214.63782	32370.2625
1218.21708	31111.2625
1221.79391	29563.7625
1225.36829	28244.0625
1228.94024	27508.2625
1232.50976	27036.4625
1236.07685	26817.1625
1239.6415	26745.8625
1243.20374	26850.7625
1246.76355	27141.1625
1250.32093	27523.0625
1253.8759	28163.8625
1257.42845	29041.0625
1260.97859	29939.0625
1264.52631	30880.7625
1268.07163	31749.4625
1271.61453	32615.4625
1275.15503	33659.6625
1278.69312	34861.9625
1282.22882	36249.8625
1285.76211	37808.0625
1289.29301	39795.6625
1292.82151	42268.5625
1296.34761	45123.5625
1299.87133	48059.5625
1303.39266	50657.7625
1306.9116	52380.0625
1310.42815	53344.3625
1313.94233	53537.6625
1317.45412	53343.5625
1320.96354	53275.7625
1324.47058	53662.0625
1327.97525	54232.1625
1331.47754	54680.9625
1334.97747	54735.4625
1338.47502	54521.4625
1341.97022	54069.2625
1345.46305	53292.3625
1348.95352	52121.6625
1352.44163	50763.6625
1355.92738	49848.5625
1359.41078	49705.9625
1362.89183	49707.2625
1366.37053	48674.2625
1369.84688	45644.4625
1373.32088	41849.8625
1376.79254	39125.6625
1380.26186	38472.7625
1383.72883	38989.7625
1387.19347	39667.5625
1390.65578	39869.6625
1394.11575	39997.0625
1397.57339	40281.8625
1401.0287	40733.7625
1404.48168	40789.5625
1407.93234	40167.1625
1411.38068	38639.1625
1414.82669	36528.0625
1418.27039	34375.4625
1421.71177	32395.6625
1425.15083	30908.9625
1428.58758	30291.0625
1432.02203	30495.5625
1435.45416	31505.3625
1438.88399	32676.7625
1442.31151	33777.5625
1445.73673	34533.7625
1449.15965	35286.2625
1452.58027	35889.6625
1455.9986	36274.7625
1459.41463	36565.1625
1462.82837	36965.6625
1466.23982	37346.1625
1469.64898	37610.7625
1473.05586	37631.3625
1476.46045	37382.0625
1479.86276	36904.8625
1483.26279	36373.9625
1486.66054	36092.4625
1490.05602	36176.7625
1493.44922	36557.6625
1496.84016	37180.9625
1500.22882	38117.6625
1503.61521	39232.0625
1506.99934	40481.8625
1510.38121	41453.6625
1513.76081	41766.6625
1517.13816	41567.7625
1520.51324	41189.6625
1523.88607	41190.8625
1527.25665	41517.5625
1530.62498	41729.9625
1533.99105	41601.0625
1537.35488	40836.0625
1540.71647	39465.9625
1544.07581	37822.5625
1547.4329	36284.3625
1550.78776	35026.7625
1554.14038	34210.4625
1557.49077	33712.5625
1560.83892	33511.0625
1564.18484	33464.9625
1567.52853	33579.7625
1570.86999	34066.4625
1574.20922	35040.3625
1577.54624	36190.9625
1580.88103	36994.2625
1584.2136	37748.4625
1587.54395	38910.8625
1590.87208	40377.7625
1594.19801	41984.3625
1597.52172	43235.2625
1600.84321	42898.2625
1604.16251	40430.1625
1607.47959	37061.7625
1610.79447	33753.0625
1614.10715	30756.4625
1617.41763	28297.4625
1620.7259	26492.2625
1624.03199	25586.7625
1627.33587	25519.6625
1630.63757	26387.1625
1633.93707	28400.3625
1637.23439	31715.4625
1640.52951	36388.5625
1643.82246	41788.7625
1647.11321	45971.1625
1650.40179	46868.0625
1653.68819	43688.0625
1656.97241	37811.7625
1660.25446	31781.1625
1663.53433	26871.3625
1666.81203	23513.7625
1670.08756	21336.9625
1673.36092	19948.2625
1676.63211	19016.4625
1679.90115	18427.9625
1683.16801	17965.4625
1686.43272	17634.6625
1689.69527	17413.3625
1692.95567	17179.7625
1696.2139	17098.7625
1699.46999	16981.3625
1702.72392	16848.6625
1705.97571	16737.6625
1709.22535	16622.9625
1712.47284	16551.9625
1715.71819	16500.4625
1718.96139	16434.3625
1722.20246	16363.9625
1725.44139	16238.9625
1728.67818	16124.0625
1731.91284	15989.5625
1735.14537	15903.6625
1738.37576	15793.6625
1741.60403	15742.4625
1744.83017	15644.5625
1748.05418	15626.7625
1751.27607	15606.4625
1754.49584	15558.8625
1757.71349	15529.6625
1760.92903	15527.7625
1764.14244	15483.2625
1767.35375	15448.0625
1770.56294	15384.7625
1773.77002	15345.2625
1776.97499	15257.1625
1780.17785	15253.4625
1783.37861	15202.9625
1786.57727	15152.6625
1789.77382	15132.4625
1792.96828	15091.3625
1796.16064	14999.2625
1799.3509	14985.2625
1802.53907	14900.1625
1805.72514	14865.9625
1808.90913	14827.9625
1812.09102	14793.3625
1815.27083	14772.4625
1818.44856	14745.4625
1821.6242	14696.2625
1824.79776	14682.0625
1827.96924	14669.3625
1831.13864	14644.7625
1834.30597	14666.0625
1837.47122	14676.5625
1840.6344	14692.9625
1843.7955	14675.8625
1846.95454	14660.4625
1850.11151	14633.9625
1853.26642	14603.0625
1856.41926	14565.8625
1859.57004	14572.4625
1862.71876	14515.6625
1865.86542	14479.4625
1869.01003	14511.0625
1872.15258	14470.6625
1875.29308	14417.0625
1878.43152	14412.4625
1881.56792	14381.0625
1884.70227	14323.7625
1887.83457	14316.9625
1890.96482	14275.3625
1894.09304	14264.1625
1897.21921	14265.6625
1900.34335	14217.2625
1903.46544	14154.1625
1906.58551	14149.6625
1909.70353	14137.8625
1912.81953	14068.0625
1915.93349	14038.9625
1919.04543	14028.0625
1922.15534	13976.9625
1925.26322	13969.6625
1928.36908	13914.2625
1931.47292	13884.5625
1934.57473	13853.6625
1937.67453	13801.2625
1940.77232	13717.4625
1943.86808	13741.4625
1946.96184	13693.1625
1950.05358	13616.3625
1953.14331	13594.8625
1956.23103	13543.0625
1959.31675	13476.0625
1962.40046	13496.6625
1965.48217	13410.3625
1968.56188	13371.7625
1971.63959	13282.6625
1974.7153	13261.9625
1977.78901	13218.4625
1980.86073	13165.0625
1983.93046	13128.1625
1986.99819	13077.6625
1990.06394	13046.0625
1993.1277	13023.8625
1996.18947	12920.7625
1999.24925	12901.5625
2002.30706	12838.3625
2005.36288	12798.0625
2008.41672	12805.2625
2011.46859	12741.5625
2014.51848	12683.3625
2017.56639	12626.6625
2020.61233	12593.4625
2023.6563	12585.9625
2026.6983	12537.4625
2029.73833	12515.4625
2032.7764	12498.1625
2035.8125	12457.4625
2038.84664	12410.8625
2041.87881	12417.3625
2044.90903	12378.0625
2047.93729	12353.7625
2050.96359	12351.5625
2053.98794	12307.1625
2057.01034	12304.4625
2060.03078	12294.0625
2063.04927	12274.9625
2066.06582	12279.1625
2069.08042	12272.8625
2072.09307	12237.7625
2075.10378	12214.1625
2078.11255	12186.0625
2081.11938	12186.7625
2084.12426	12165.8625
2087.12722	12174.9625
2090.12824	12195.2625
2093.12732	12168.4625
2096.12447	12177.0625
2099.11969	12161.5625
2102.11299	12194.6625
2105.10435	12193.5625
2108.09379	12184.7625
2111.08131	12197.3625
2114.0669	12167.0625
2117.05057	12170.7625
2120.03233	12197.0625
2123.01216	12185.3625
2125.99008	12206.8625
2128.96609	12181.3625
2131.94018	12159.8625
2134.91236	12158.7625
2137.88263	12147.2625
2140.851	12154.8625
2143.81746	12190.6625
2146.78201	12170.0625
2149.74466	12159.2625
2152.7054	12160.2625
2155.66425	12137.8625
2158.6212	12122.5625
2161.57625	12138.5625
2164.52941	12149.5625
2167.48067	12089.4625
2170.43004	12052.8625
2173.37752	12070.2625
2176.32311	12053.7625
2179.26681	12059.7625
2182.20863	12045.7625
2185.14856	12062.2625
2188.08661	12034.0625
2191.02278	12041.4625
2193.95707	12020.1625
2196.88948	12009.7625
2199.82001	11998.1625
2202.74867	11965.0625
2205.67545	11939.3625
2208.60037	11916.2625
2211.52341	11872.7625
2214.44458	11890.0625
2217.36388	11857.8625
2220.28132	11852.0625
2223.1969	11809.0625
2226.11061	11795.6625
2229.02246	11775.9625
2231.93245	11743.8625
2234.84058	11706.0625
2237.74686	11689.7625
2240.65128	11685.9625
2243.55385	11677.2625
2246.45456	11649.0625
2249.35343	11594.0625
2252.25044	11566.6625
2255.14561	11566.5625
2258.03893	11519.0625
2260.93041	11503.5625
2263.82004	11480.1625
2266.70783	11421.2625
2269.59378	11403.4625
2272.4779	11347.7625
2275.36017	11303.2625
2278.24061	11284.1625
2281.11922	11291.2625
2283.996	11244.6625
2286.87094	11234.7625
2289.74405	11218.6625
2292.61534	11182.5625
2295.4848	11168.2625
2298.35243	11163.6625
2301.21824	11139.3625
2304.08223	11146.7625
2306.94439	11148.1625
2309.80474	11119.9625
2312.66327	11122.6625
2315.51999	11105.9625
2318.37489	11047.7625
2321.22797	11068.2625
2324.07925	11044.7625
2326.92871	11032.5625
2329.77637	11019.1625
2332.62222	11009.7625
2335.46626	10998.1625
2338.3085	10995.8625
2341.14893	10976.2625
2343.98756	10954.8625
2346.8244	10964.4625
2349.65943	10968.3625
2352.49267	10955.7625
2355.32411	10959.0625
2358.15376	10939.6625
2360.98161	10946.6625
2363.80768	10931.8625
2366.63195	10914.0625
2369.45444	10937.0625
2372.27514	10903.2625
2375.09405	10890.0625
2377.91118	10854.8625
2380.72652	10851.4625
2383.54009	10820.2625
2386.35187	10820.0625
2389.16188	10760.4625
2391.97011	10732.2625
2394.77657	10720.9625
2397.58125	10700.1625
2400.38416	10672.7625
2403.18529	10666.8625
2405.98466	10650.5625
2408.78226	10671.8625
2411.57809	10624.5625
2414.37216	10633.2625
2417.16446	10618.3625
2419.955	10588.1625
2422.74378	10578.6625
2425.5308	10579.7625
2428.31606	10588.6625
2431.09956	10569.5625
2433.88131	10548.3625
2436.6613	10524.8625
2439.43954	10545.4625
2442.21603	10525.7625
2444.99077	10508.7625
2447.76377	10489.0625
2450.53501	10494.3625
2453.30451	10501.1625
2456.07226	10488.7625
2458.83827	10469.1625
2461.60254	10486.2625
2464.36507	10456.9625
2467.12586	10470.6625
2469.88492	10442.8625
2472.64224	10468.4625
2475.39782	10446.1625
2478.15167	10451.8625
2480.90379	10435.8625
2483.65417	10450.2625
2486.40283	10469.3625
2489.14976	10479.2625
2491.89497	10449.8625
2494.63845	10460.1625
2497.3802	10471.3625
2500.12024	10445.2625
2502.85855	10420.6625
2505.59514	10434.1625
2508.33002	10434.2625
2511.06318	10438.6625
2513.79462	10435.8625
2516.52435	10443.2625
2519.25237	10410.5625
2521.97867	10400.6625
2524.70327	10377.5625
2527.42616	10358.9625
2530.14734	10394.6625
2532.86681	10344.0625
2535.58458	10358.6625
2538.30065	10344.0625
2541.01501	10332.6625
2543.72768	10300.9625
2546.43864	10278.3625
2549.14791	10290.1625
2551.85548	10280.5625
2554.56136	10280.3625
2557.26554	10265.4625
2559.96803	10249.2625
2562.66883	10230.3625
2565.36794	10247.8625
2568.06536	10225.4625
2570.7611	10223.2625
2573.45514	10215.3625
2576.14751	10200.7625
2578.83819	10156.5625
2581.52719	10161.0625
2584.21451	10172.0625
2586.90015	10157.6625
2589.58411	10144.1625
2592.2664	10138.0625
2594.94701	10116.6625
2597.62594	10127.5625
2600.30321	10093.6625
2602.9788	10115.9625
2605.65273	10110.5625
2608.32498	10094.1625
2610.99557	10124.6625
2613.66449	10116.1625
2616.33175	10111.1625
2618.99734	10111.7625
2621.66128	10074.8625
2624.32355	10075.3625
2626.98416	10068.4625
2629.64311	10072.6625
2632.30041	10081.4625
2634.95605	10049.4625
2637.61004	10062.9625
2640.26238	10034.3625
2642.91306	10032.8625
2645.56209	10054.6625
2648.20948	10040.6625
2650.85521	10036.9625
2653.4993	10028.8625
2656.14175	10047.9625
2658.78255	10031.7625
2661.42171	10029.7625
2664.05923	10094.2625
2666.6951	10079.6625
2669.32934	10091.6625
2671.96194	10067.2625
2674.59291	10051.5625
2677.22224	10060.1625
2679.84993	10090.0625
2682.476	10053.4625
2685.10043	10073.7625
2687.72324	10074.7625
2690.34441	10036.5625
2692.96396	10044.2625
2695.58188	10048.6625
2698.19818	10043.1625
2700.81285	10060.0625
2703.4259	10059.5625
2706.03733	10095.5625
2708.64714	10084.4625
2711.25533	10066.2625
2713.86191	10079.7625
2716.46687	10082.8625
2719.07021	10083.2625
2721.67194	10102.5625
2724.27206	10105.0625
2726.87057	10121.9625
2729.46747	10130.6625
2732.06276	10119.1625
2734.65644	10105.4625
2737.24852	10110.5625
2739.83899	10110.0625
2742.42786	10075.2625
2745.01513	10078.1625
2747.60079	10044.7625
2750.18486	10064.7625
2752.76733	10071.0625
2755.3482	10055.1625
2757.92747	10083.2625
2760.50515	10094.3625
2763.08123	10109.0625
2765.65573	10084.9625
2768.22863	10075.4625
2770.79994	10043.4625
2773.36967	10062.6625
2775.9378	10055.1625
2778.50435	10044.3625
2781.06932	10024.6625
2783.6327	10017.2625
2786.1945	10028.4625
2788.75471	10001.3625
2791.31335	10005.0625
2793.87041	9977.0625
2796.42589	9968.0625
2798.97979	9987.7625
2801.53212	9953.4625
2804.08288	9917.9625
2806.63206	9917.1625
2809.17967	9881.0625
2811.72571	9894.3625
2814.27018	9871.4625
2816.81308	9843.5625
2819.35442	9823.2625
2821.89419	9810.2625
2824.43239	9811.9625
2826.96904	9779.5625
2829.50412	9796.2625
2832.03763	9768.9625
2834.56959	9772.5625
2837.1	9781.0625
2839.62884	9768.5625
2842.15613	9791.0625
2844.68186	9776.8625
2847.20604	9825.5625
2849.72867	9848.9625
2852.24974	9848.0625
2854.76927	9855.7625
2857.28724	9823.9625
2859.80367	9805.9625
2862.31855	9800.3625
2864.83189	9763.7625
2867.34368	9755.6625
2869.85393	9761.5625
2872.36264	9742.6625
2874.8698	9714.4625
2877.37543	9745.1625
2879.87952	9727.6625
2882.38207	9723.3625
2884.88308	9703.6625
2887.38256	9699.1625
2889.88051	9703.6625
2892.37692	9708.7625
2894.8718	9720.1625
2897.36515	9713.5625
2899.85698	9723.6625
2902.34727	9755.6625
2904.83604	9744.7625
2907.32328	9761.0625
2909.809	9745.3625
2912.29319	9739.3625
2914.77587	9756.9625
2917.25702	9734.0625
2919.73665	9738.6625
2922.21476	9743.1625
2924.69136	9711.8625
2927.16644	9741.3625
2929.64	9750.9625
2932.11205	9751.1625
2934.58258	9725.1625
2937.05161	9741.0625
2939.51912	9744.0625
2941.98513	9712.0625
2944.44962	9647.4625
2946.91261	9575.7625
2949.37409	9608.8625
2951.83407	9566.3625
2954.29254	9548.4625
2956.74951	9533.0625
2959.20498	9518.1625
2961.65895	9493.4625
2964.11142	9492.8625
2966.56239	9493.0625
2969.01186	9477.2625
2971.45984	9419.7625
2973.90632	9429.1625
2976.35131	9374.8625
2978.7948	9370.1625
2981.23681	9348.8625
2983.67732	9304.7625
2986.11635	9297.6625
2988.55388	9264.7625
2990.98993	9247.6625
2993.4245	9230.2625
2995.85758	9206.8625
2998.28917	9171.5625
3000.71928	9146.1625
3003.14791	9102.9625
3005.57506	9112.2625
3008.00073	9074.7625
3010.42493	9028.8625
3012.84764	9027.7625
3015.26888	9021.4625
3017.68865	8983.3625
3020.10694	8986.4625
3022.52376	8979.2625
3024.9391	8934.5625
3027.35298	8922.1625
3029.76539	8931.7625
3032.17632	8912.1625
3034.5858	8909.2625
