Data from AgNPs_FTO_APTES_UA_2uM_CRN_0uM_R6G_10uM_NaF_0.1M_Addition_RamanShift__32__10-41-44-955.txt Node

Date: Wed Feb 02 10:41:44 GMT 2022
User: TCL
Spectrometer: QEP01345
Trigger mode: 4
Integration Time (sec): 7.000000E0
Scans to average: 10
Electric dark correction enabled: true
Nonlinearity correction enabled: false
Boxcar width: 0
XAxis mode: Raman Shifts
Number of Pixels in Spectrum: 1044
>>>>>Begin Spectral Data<<<<<
46.04893	0.6125
50.45542	0.7125
54.85868	-2.2875
59.25871	-1.2875
63.6555	52.9125
68.04907	54.2125
72.43941	53.9125
76.82654	60.7125
81.21044	66.1125
85.59113	65.9125
89.96862	68.3125
94.34289	71.3125
98.71396	71.9125
103.08183	77.7125
107.4465	75.9125
111.80798	76.3125
116.16626	83.5125
120.52136	86.5125
124.87327	85.2125
129.222	88.5125
133.56755	97.0125
137.90993	100.5125
142.24913	110.1125
146.58517	125.1125
150.91804	140.3125
155.24774	171.5125
159.57429	212.8125
163.89768	269.3125
168.21792	352.6125
172.53501	483.6125
176.84895	677.0125
181.15975	935.0125
185.46741	1316.7125
189.77193	1814.2125
194.07331	2440.6125
198.37157	3132.3125
202.6667	3875.7125
206.9587	4604.5125
211.24758	5322.6125
215.53334	6048.7125
219.81599	6841.0125
224.09553	7714.9125
228.37195	8688.3125
232.64527	9752.3125
236.91549	10809.1125
241.18261	11873.3125
245.44663	12846.8125
249.70755	13658.2125
253.96539	14348.3125
258.22014	14948.9125
262.4718	15470.7125
266.72039	15748.7125
270.96589	15848.7125
275.20832	15776.6125
279.44768	15579.6125
283.68397	15321.3125
287.91719	15095.6125
292.14735	14980.6125
296.37445	14906.3125
300.59849	15017.2125
304.81948	15210.0125
309.03742	15371.2125
313.25231	15484.7125
317.46415	15404.8125
321.67296	15245.5125
325.87872	15080.8125
330.08145	15014.1125
334.28114	15006.8125
338.47781	15135.8125
342.67145	15271.0125
346.86207	15453.8125
351.04966	15705.6125
355.23424	15951.4125
359.4158	16156.7125
363.59435	16301.4125
367.76989	16387.1125
371.94243	16449.6125
376.11196	16517.4125
380.27849	16564.8125
384.44203	16623.1125
388.60257	16736.6125
392.76012	16763.5125
396.91468	16890.3125
401.06626	17064.8125
405.21485	17284.7125
409.36047	17312.9125
413.50311	17185.5125
417.64277	17207.9125
421.77947	17270.2125
425.9132	17267.3125
430.04396	17349.4125
434.17176	17490.8125
438.2966	17708.5125
442.41849	18197.7125
446.53742	18999.8125
450.6534	19790.8125
454.76644	20207.9125
458.87653	20056.2125
462.98368	19666.2125
467.08789	19074.0125
471.18916	18515.7125
475.2875	17851.6125
479.38291	17380.7125
483.4754	17132.4125
487.56496	16998.8125
491.6516	16935.0125
495.73531	17002.4125
499.81612	17062.2125
503.89401	17217.0125
507.96899	17237.4125
512.04106	17156.4125
516.11023	17035.9125
520.1765	16989.0125
524.23987	17094.2125
528.30034	17162.6125
532.35792	17136.1125
536.41261	16886.5125
540.46441	16556.5125
544.51333	16359.8125
548.55936	16412.4125
552.60252	16748.8125
556.64279	17248.3125
560.6802	17629.0125
564.71473	17618.6125
568.7464	17497.8125
572.7752	17698.1125
576.80114	17931.3125
580.82422	18376.1125
584.84444	19344.4125
588.86181	20890.9125
592.87633	22726.1125
596.888	23533.4125
600.89682	22327.5125
604.9028	21238.9125
608.90594	22220.4125
612.90624	23956.7125
616.90371	23028.1125
620.89834	19669.5125
624.89015	17898.0125
628.87913	17601.2125
632.86528	17505.5125
636.84862	17251.5125
640.82913	16840.7125
644.80683	16452.0125
648.78172	16223.7125
652.75379	16265.4125
656.72306	16518.8125
660.68952	16833.5125
664.65319	16790.7125
668.61405	16481.4125
672.57211	16464.9125
676.52738	16598.7125
680.47986	16534.7125
684.42955	16379.1125
688.37646	16280.1125
692.32058	16447.0125
696.26192	16721.1125
700.20048	17128.0125
704.13626	17275.2125
708.06928	17142.6125
711.99952	16950.1125
715.927	16991.6125
719.85171	17143.0125
723.77365	17127.8125
727.69284	16842.8125
731.60928	16623.4125
735.52295	16631.7125
739.43388	16699.7125
743.34206	16753.5125
747.24749	16850.4125
751.15017	16982.2125
755.05012	17196.0125
758.94733	17556.9125
762.8418	18274.1125
766.73354	19493.6125
770.62254	20750.8125
774.50882	21215.3125
778.39237	20573.5125
782.27321	19320.1125
786.15132	18165.1125
790.02671	17405.9125
793.89938	17116.5125
797.76935	17001.1125
801.6366	16952.3125
805.50115	16913.4125
809.36299	16814.6125
813.22213	16692.2125
817.07857	16624.1125
820.93231	16513.7125
824.78336	16490.3125
828.63172	16528.6125
832.47738	16641.3125
836.32036	16710.5125
840.16066	16850.1125
843.99827	16963.7125
847.8332	16893.0125
851.66546	16778.6125
855.49504	16707.3125
859.32195	16702.9125
863.1462	16630.9125
866.96777	16551.0125
870.78668	16501.0125
874.60293	16514.7125
878.41652	16597.6125
882.22745	16700.2125
886.03573	16829.5125
889.84136	16794.8125
893.64433	16700.6125
897.44466	16612.1125
901.24235	16532.1125
905.0374	16480.9125
908.8298	16493.8125
912.61957	16570.2125
916.40671	16718.5125
920.19121	16948.8125
923.97308	17263.3125
927.75233	17516.9125
931.52895	17503.1125
935.30295	17279.2125
939.07433	16897.0125
942.84309	16654.9125
946.60924	16551.7125
950.37278	16463.3125
954.13371	16384.6125
957.89203	16213.2125
961.64774	16133.5125
965.40086	16112.5125
969.15137	16083.1125
972.89929	16055.6125
976.64461	16071.5125
980.38733	16187.1125
984.12747	16304.7125
987.86502	16481.4125
991.59999	16694.8125
995.33237	17049.7125
999.06217	17701.7125
1002.78939	18419.2125
1006.51404	18857.8125
1010.23611	19025.7125
1013.95561	19202.0125
1017.67255	19195.5125
1021.38692	18959.6125
1025.09872	18697.2125
1028.80796	18969.8125
1032.51465	19794.9125
1036.21877	20669.6125
1039.92035	20913.1125
1043.61937	20542.5125
1047.31584	19817.8125
1051.00976	19027.8125
1054.70114	18541.3125
1058.38998	18254.8125
1062.07627	18121.8125
1065.76003	18012.1125
1069.44126	18056.8125
1073.11995	18225.7125
1076.79611	18471.9125
1080.46974	18683.1125
1084.14085	18917.8125
1087.80943	19114.0125
1091.47549	19154.8125
1095.13903	18968.8125
1098.80005	18626.2125
1102.45857	18267.0125
1106.11456	18094.2125
1109.76805	18104.4125
1113.41903	18154.5125
1117.06751	18278.4125
1120.71348	18406.8125
1124.35696	18585.6125
1127.99793	18756.9125
1131.63641	18854.2125
1135.2724	18693.2125
1138.90589	18557.8125
1142.5369	18486.9125
1146.16542	18506.2125
1149.79145	18604.7125
1153.415	18644.3125
1157.03607	18758.8125
1160.65467	19125.5125
1164.27079	19843.4125
1167.88443	20847.2125
1171.49561	22055.9125
1175.10432	23761.5125
1178.71056	26034.0125
1182.31434	28263.7125
1185.91565	29268.3125
1189.51451	28741.7125
1193.11091	27351.0125
1196.70485	25940.0125
1200.29634	24798.1125
1203.88538	24019.0125
1207.47197	23341.5125
1211.05612	22816.2125
1214.63782	22352.1125
1218.21708	22238.4125
1221.79391	22388.4125
1225.36829	22584.9125
1228.94024	22489.3125
1232.50976	21812.6125
1236.07685	21150.5125
1239.6415	20673.4125
1243.20374	20552.2125
1246.76355	20701.7125
1250.32093	21068.4125
1253.8759	21641.3125
1257.42845	22257.2125
1260.97859	22899.9125
1264.52631	23654.4125
1268.07163	24309.4125
1271.61453	25084.4125
1275.15503	25928.4125
1278.69312	26780.3125
1282.22882	27546.9125
1285.76211	28351.8125
1289.29301	29284.9125
1292.82151	30423.6125
1296.34761	32019.6125
1299.87133	34074.0125
1303.39266	36533.7125
1306.9116	39034.3125
1310.42815	41273.6125
1313.94233	42352.9125
1317.45412	41540.8125
1320.96354	39389.7125
1324.47058	36956.4125
1327.97525	34857.0125
1331.47754	33381.2125
1334.97747	32489.0125
1338.47502	31837.9125
1341.97022	31101.6125
1345.46305	30516.9125
1348.95352	30732.6125
1352.44163	32067.8125
1355.92738	34763.7125
1359.41078	38247.6125
1362.89183	40783.8125
1366.37053	40795.7125
1369.84688	37263.5125
1373.32088	32280.5125
1376.79254	28785.6125
1380.26186	27504.2125
1383.72883	27264.3125
1387.19347	27000.7125
1390.65578	26326.3125
1394.11575	25973.7125
1397.57339	26056.2125
1401.0287	26319.1125
1404.48168	26617.5125
1407.93234	26604.9125
1411.38068	26349.9125
1414.82669	25946.3125
1418.27039	25414.1125
1421.71177	24731.8125
1425.15083	24024.7125
1428.58758	23835.1125
1432.02203	24210.5125
1435.45416	24921.8125
1438.88399	25537.8125
1442.31151	25808.6125
1445.73673	25831.9125
1449.15965	25792.2125
1452.58027	25410.3125
1455.9986	24945.2125
1459.41463	24653.2125
1462.82837	24918.5125
1466.23982	25546.8125
1469.64898	26185.1125
1473.05586	26753.9125
1476.46045	27138.0125
1479.86276	27292.6125
1483.26279	27306.1125
1486.66054	27245.7125
1490.05602	27450.5125
1493.44922	27683.6125
1496.84016	27757.0125
1500.22882	27848.7125
1503.61521	28224.1125
1506.99934	28851.9125
1510.38121	29569.4125
1513.76081	29942.7125
1517.13816	29481.0125
1520.51324	28447.9125
1523.88607	27449.1125
1527.25665	27082.7125
1530.62498	27011.9125
1533.99105	26972.4125
1537.35488	26661.4125
1540.71647	26223.4125
1544.07581	25695.8125
1547.4329	25102.2125
1550.78776	24564.6125
1554.14038	24139.0125
1557.49077	23815.4125
1560.83892	23553.6125
1564.18484	23475.5125
1567.52853	23533.2125
1570.86999	23740.9125
1574.20922	24054.6125
1577.54624	24272.9125
1580.88103	24332.0125
1584.2136	24481.2125
1587.54395	25290.2125
1590.87208	27061.8125
1594.19801	29377.6125
1597.52172	31673.7125
1600.84321	32739.9125
1604.16251	31514.4125
1607.47959	28636.2125
1610.79447	25460.9125
1614.10715	22883.0125
1617.41763	21212.7125
1620.7259	20347.6125
1624.03199	19965.7125
1627.33587	20163.7125
1630.63757	20773.9125
1633.93707	21888.5125
1637.23439	23690.3125
1640.52951	26514.6125
1643.82246	30094.2125
1647.11321	33052.3125
1650.40179	33295.3125
1653.68819	30498.6125
1656.97241	26105.0125
1660.25446	22339.3125
1663.53433	19852.0125
1666.81203	18463.5125
1670.08756	17653.3125
1673.36092	17161.7125
1676.63211	16829.4125
1679.90115	16570.8125
1683.16801	16369.0125
1686.43272	16231.9125
1689.69527	16136.2125
1692.95567	16076.5125
1696.2139	16070.1125
1699.46999	16026.5125
1702.72392	15991.8125
1705.97571	15951.5125
1709.22535	15920.3125
1712.47284	15913.6125
1715.71819	15934.9125
1718.96139	15910.8125
1722.20246	15864.0125
1725.44139	15801.7125
1728.67818	15754.9125
1731.91284	15671.9125
1735.14537	15615.9125
1738.37576	15568.9125
1741.60403	15518.8125
1744.83017	15495.0125
1748.05418	15466.8125
1751.27607	15403.6125
1754.49584	15390.0125
1757.71349	15392.6125
1760.92903	15371.8125
1764.14244	15393.6125
1767.35375	15380.7125
1770.56294	15356.5125
1773.77002	15346.7125
1776.97499	15319.6125
1780.17785	15277.8125
1783.37861	15308.4125
1786.57727	15287.2125
1789.77382	15271.4125
1792.96828	15245.1125
1796.16064	15256.9125
1799.3509	15222.1125
1802.53907	15217.3125
1805.72514	15200.3125
1808.90913	15179.0125
1812.09102	15146.7125
1815.27083	15095.5125
1818.44856	15071.7125
1821.6242	15066.6125
1824.79776	15075.0125
1827.96924	15064.3125
1831.13864	15018.0125
1834.30597	15046.6125
1837.47122	15030.2125
1840.6344	15008.0125
1843.7955	15065.6125
1846.95454	15058.5125
1850.11151	15004.7125
1853.26642	15003.1125
1856.41926	15019.9125
1859.57004	15044.1125
1862.71876	14990.6125
1865.86542	15005.6125
1869.01003	15026.4125
1872.15258	15004.9125
1875.29308	15004.2125
1878.43152	15016.9125
1881.56792	14997.0125
1884.70227	15010.1125
1887.83457	14972.8125
1890.96482	14971.6125
1894.09304	14939.4125
1897.21921	14929.1125
1900.34335	14921.1125
1903.46544	14946.6125
1906.58551	14935.5125
1909.70353	14961.1125
1912.81953	14936.2125
1915.93349	14898.5125
1919.04543	14881.8125
1922.15534	14842.8125
1925.26322	14843.5125
1928.36908	14821.7125
1931.47292	14806.4125
1934.57473	14768.4125
1937.67453	14773.4125
1940.77232	14743.3125
1943.86808	14697.8125
1946.96184	14700.3125
1950.05358	14635.6125
1953.14331	14585.7125
1956.23103	14571.1125
1959.31675	14559.7125
1962.40046	14507.7125
1965.48217	14496.0125
1968.56188	14460.5125
1971.63959	14402.9125
1974.7153	14384.1125
1977.78901	14336.9125
1980.86073	14302.4125
1983.93046	14314.8125
1986.99819	14250.5125
1990.06394	14221.6125
1993.1277	14176.4125
1996.18947	14120.2125
1999.24925	14092.6125
2002.30706	14105.1125
2005.36288	14016.6125
2008.41672	13981.0125
2011.46859	13993.1125
2014.51848	13941.0125
2017.56639	13899.8125
2020.61233	13858.7125
2023.6563	13843.9125
2026.6983	13868.2125
2029.73833	13803.3125
2032.7764	13808.6125
2035.8125	13835.2125
2038.84664	13806.0125
2041.87881	13799.1125
2044.90903	13787.0125
2047.93729	13781.2125
2050.96359	13757.3125
2053.98794	13741.7125
2057.01034	13744.3125
2060.03078	13734.9125
2063.04927	13722.6125
2066.06582	13721.0125
2069.08042	13725.9125
2072.09307	13749.0125
2075.10378	13723.5125
2078.11255	13737.9125
2081.11938	13757.3125
2084.12426	13766.7125
2087.12722	13748.8125
2090.12824	13752.8125
2093.12732	13781.7125
2096.12447	13819.4125
2099.11969	13826.9125
2102.11299	13822.0125
2105.10435	13840.5125
2108.09379	13817.6125
2111.08131	13847.5125
2114.0669	13818.2125
2117.05057	13846.1125
2120.03233	13859.7125
2123.01216	13863.8125
2125.99008	13876.7125
2128.96609	13853.7125
2131.94018	13867.4125
2134.91236	13908.2125
2137.88263	13889.1125
2140.851	13956.9125
2143.81746	13935.0125
2146.78201	13950.6125
2149.74466	13911.0125
2152.7054	13936.8125
2155.66425	13959.6125
2158.6212	13973.9125
2161.57625	13952.7125
2164.52941	13959.1125
2167.48067	13968.5125
2170.43004	13957.0125
2173.37752	13961.6125
2176.32311	13974.4125
2179.26681	13983.7125
2182.20863	13991.5125
2185.14856	14016.7125
2188.08661	13994.5125
2191.02278	14031.2125
2193.95707	14036.4125
2196.88948	14030.0125
2199.82001	14010.6125
2202.74867	14020.8125
2205.67545	14091.9125
2208.60037	14064.0125
2211.52341	14076.3125
2214.44458	14041.0125
2217.36388	14022.1125
2220.28132	14027.0125
2223.1969	13996.7125
2226.11061	13977.6125
2229.02246	13954.2125
2231.93245	13963.2125
2234.84058	13963.6125
2237.74686	13931.3125
2240.65128	13934.9125
2243.55385	13907.4125
2246.45456	13892.0125
2249.35343	13830.6125
2252.25044	13783.5125
2255.14561	13823.4125
2258.03893	13814.5125
2260.93041	13782.2125
2263.82004	13778.9125
2266.70783	13772.5125
2269.59378	13728.6125
2272.4779	13713.1125
2275.36017	13676.1125
2278.24061	13675.4125
2281.11922	13658.6125
2283.996	13674.8125
2286.87094	13660.2125
2289.74405	13635.4125
2292.61534	13626.8125
2295.4848	13640.0125
2298.35243	13645.0125
2301.21824	13645.4125
2304.08223	13662.8125
2306.94439	13662.9125
2309.80474	13698.1125
2312.66327	13725.3125
2315.51999	13688.8125
2318.37489	13696.5125
2321.22797	13699.7125
2324.07925	13693.1125
2326.92871	13688.9125
2329.77637	13683.6125
2332.62222	13666.0125
2335.46626	13670.5125
2338.3085	13675.3125
2341.14893	13691.5125
2343.98756	13700.9125
2346.8244	13714.3125
2349.65943	13684.7125
2352.49267	13665.8125
2355.32411	13663.4125
2358.15376	13648.9125
2360.98161	13639.9125
2363.80768	13643.9125
2366.63195	13616.3125
2369.45444	13598.6125
2372.27514	13596.2125
2375.09405	13539.4125
2377.91118	13545.2125
2380.72652	13538.4125
2383.54009	13521.1125
2386.35187	13512.5125
2389.16188	13466.8125
2391.97011	13454.8125
2394.77657	13454.2125
2397.58125	13454.1125
2400.38416	13425.8125
2403.18529	13391.1125
2405.98466	13392.9125
2408.78226	13378.1125
2411.57809	13348.5125
2414.37216	13324.2125
2417.16446	13304.2125
2419.955	13317.4125
2422.74378	13280.7125
2425.5308	13271.0125
2428.31606	13303.9125
2431.09956	13302.0125
2433.88131	13268.7125
2436.6613	13267.4125
2439.43954	13281.3125
2442.21603	13287.7125
2444.99077	13269.8125
2447.76377	13277.1125
2450.53501	13291.8125
2453.30451	13288.9125
2456.07226	13291.6125
2458.83827	13287.3125
2461.60254	13292.3125
2464.36507	13307.9125
2467.12586	13296.5125
2469.88492	13291.9125
2472.64224	13316.1125
2475.39782	13324.8125
2478.15167	13328.7125
2480.90379	13322.1125
2483.65417	13344.7125
2486.40283	13358.6125
2489.14976	13364.7125
2491.89497	13370.9125
2494.63845	13379.5125
2497.3802	13368.0125
2500.12024	13375.2125
2502.85855	13362.1125
2505.59514	13377.6125
2508.33002	13342.5125
2511.06318	13327.8125
2513.79462	13317.2125
2516.52435	13337.4125
2519.25237	13325.9125
2521.97867	13298.6125
2524.70327	13280.2125
2527.42616	13320.0125
2530.14734	13302.4125
2532.86681	13278.3125
2535.58458	13283.3125
2538.30065	13248.8125
2541.01501	13250.2125
2543.72768	13227.3125
2546.43864	13224.4125
2549.14791	13225.4125
2551.85548	13203.9125
2554.56136	13198.1125
2557.26554	13221.8125
2559.96803	13203.7125
2562.66883	13199.9125
2565.36794	13195.6125
2568.06536	13210.0125
2570.7611	13219.8125
2573.45514	13217.9125
2576.14751	13223.9125
2578.83819	13207.6125
2581.52719	13220.2125
2584.21451	13201.2125
2586.90015	13208.0125
2589.58411	13170.0125
2592.2664	13155.5125
2594.94701	13158.3125
2597.62594	13132.9125
2600.30321	13116.6125
2602.9788	13107.8125
2605.65273	13091.3125
2608.32498	13144.1125
2610.99557	13105.4125
2613.66449	13100.4125
2616.33175	13079.6125
2618.99734	13120.9125
2621.66128	13145.3125
2624.32355	13119.6125
2626.98416	13150.7125
2629.64311	13141.0125
2632.30041	13117.8125
2634.95605	13122.1125
2637.61004	13103.8125
2640.26238	13092.2125
2642.91306	13059.2125
2645.56209	13053.5125
2648.20948	13023.7125
2650.85521	13035.8125
2653.4993	13044.4125
2656.14175	13027.8125
2658.78255	13056.8125
2661.42171	13063.1125
2664.05923	13071.5125
2666.6951	13086.1125
2669.32934	13131.9125
2671.96194	13103.3125
2674.59291	13121.9125
2677.22224	13104.1125
2679.84993	13137.2125
2682.476	13124.6125
2685.10043	13132.9125
2687.72324	13115.6125
2690.34441	13108.3125
2692.96396	13105.0125
2695.58188	13109.1125
2698.19818	13125.3125
2700.81285	13119.3125
2703.4259	13096.1125
2706.03733	13113.6125
2708.64714	13174.7125
2711.25533	13158.3125
2713.86191	13137.9125
2716.46687	13181.1125
2719.07021	13199.5125
2721.67194	13207.0125
2724.27206	13179.0125
2726.87057	13206.6125
2729.46747	13211.1125
2732.06276	13215.3125
2734.65644	13172.6125
2737.24852	13224.1125
2739.83899	13184.0125
2742.42786	13218.7125
2745.01513	13209.2125
2747.60079	13217.2125
2750.18486	13215.3125
2752.76733	13240.9125
2755.3482	13233.1125
2757.92747	13270.3125
2760.50515	13239.0125
2763.08123	13270.6125
2765.65573	13207.1125
2768.22863	13240.5125
2770.79994	13195.4125
2773.36967	13218.2125
2775.9378	13202.1125
2778.50435	13223.4125
2781.06932	13248.8125
2783.6327	13235.6125
2786.1945	13213.1125
2788.75471	13239.4125
2791.31335	13173.4125
2793.87041	13170.3125
2796.42589	13145.3125
2798.97979	13137.7125
2801.53212	13155.3125
2804.08288	13114.7125
2806.63206	13119.8125
2809.17967	13108.1125
2811.72571	13089.9125
2814.27018	13094.9125
2816.81308	13086.1125
2819.35442	13102.2125
2821.89419	13064.5125
2824.43239	13084.1125
2826.96904	13059.0125
2829.50412	13068.2125
2832.03763	13063.4125
2834.56959	13070.0125
2837.1	13065.1125
2839.62884	13103.1125
2842.15613	13131.7125
2844.68186	13193.2125
2847.20604	13220.9125
2849.72867	13302.0125
2852.24974	13312.4125
2854.76927	13319.8125
2857.28724	13281.6125
2859.80367	13302.7125
2862.31855	13263.9125
2864.83189	13282.8125
2867.34368	13273.5125
2869.85393	13317.2125
2872.36264	13309.2125
2874.8698	13330.4125
2877.37543	13335.7125
2879.87952	13370.3125
2882.38207	13389.2125
2884.88308	13405.9125
2887.38256	13423.6125
2889.88051	13430.7125
2892.37692	13419.5125
2894.8718	13444.0125
2897.36515	13487.3125
2899.85698	13483.4125
2902.34727	13512.8125
2904.83604	13492.2125
2907.32328	13539.9125
2909.809	13506.0125
2912.29319	13520.0125
2914.77587	13520.8125
2917.25702	13489.9125
2919.73665	13510.1125
2922.21476	13497.1125
2924.69136	13492.2125
2927.16644	13473.0125
2929.64	13465.4125
2932.11205	13467.7125
2934.58258	13426.5125
2937.05161	13419.6125
2939.51912	13409.9125
2941.98513	13381.5125
2944.44962	13336.3125
2946.91261	13285.5125
2949.37409	13268.9125
2951.83407	13223.4125
2954.29254	13237.8125
2956.74951	13167.5125
2959.20498	13147.6125
2961.65895	13133.8125
2964.11142	13099.9125
2966.56239	13055.7125
2969.01186	13067.3125
2971.45984	13021.9125
2973.90632	12983.7125
2976.35131	12960.8125
2978.7948	12895.0125
2981.23681	12886.0125
2983.67732	12853.7125
2986.11635	12832.1125
2988.55388	12781.6125
2990.98993	12763.8125
2993.4245	12747.8125
2995.85758	12753.5125
2998.28917	12728.9125
3000.71928	12704.3125
3003.14791	12736.4125
3005.57506	12736.4125
3008.00073	12651.6125
3010.42493	12693.2125
3012.84764	12668.8125
3015.26888	12629.2125
3017.68865	12627.1125
3020.10694	12597.3125
3022.52376	12575.8125
3024.9391	12592.9125
