Data from AgNPs_FTO_APTES_UA_2uM_CRN_50uM_R6G_10uM_NaF_0.1M_Addition_RamanShift__25__15-05-25-262.txt Node

Date: Wed Feb 02 15:05:25 GMT 2022
User: TCL
Spectrometer: QEP01345
Trigger mode: 4
Integration Time (sec): 7.000000E0
Scans to average: 10
Electric dark correction enabled: true
Nonlinearity correction enabled: false
Boxcar width: 0
XAxis mode: Raman Shifts
Number of Pixels in Spectrum: 1044
>>>>>Begin Spectral Data<<<<<
46.04893	0.425
50.45542	1.425
54.85868	-1.575
59.25871	-0.475
63.6555	89.225
68.04907	93.425
72.43941	94.825
76.82654	106.925
81.21044	111.225
85.59113	117.625
89.96862	122.425
94.34289	122.625
98.71396	127.125
103.08183	133.125
107.4465	135.025
111.80798	140.625
116.16626	141.425
120.52136	149.825
124.87327	154.525
129.222	158.825
133.56755	170.725
137.90993	182.325
142.24913	203.025
146.58517	224.225
150.91804	256.925
155.24774	309.325
159.57429	389.725
163.89768	489.425
168.21792	648.725
172.53501	891.025
176.84895	1243.025
181.15975	1735.825
185.46741	2423.225
189.77193	3342.625
194.07331	4454.725
198.37157	5745.025
202.6667	7061.725
206.9587	8416.125
211.24758	9711.625
215.53334	11088.325
219.81599	12557.525
224.09553	14215.425
228.37195	16045.425
232.64527	18041.625
236.91549	20032.525
241.18261	21972.025
245.44663	23740.625
249.70755	25174.225
253.96539	26449.725
258.22014	27664.125
262.4718	28716.625
266.72039	29542.425
270.96589	30069.825
275.20832	30372.425
279.44768	30357.625
283.68397	30371.025
287.91719	30391.025
292.14735	30538.225
296.37445	30961.525
300.59849	31416.925
304.81948	31740.325
309.03742	31781.425
313.25231	31245.325
317.46415	29926.625
321.67296	28185.925
325.87872	26729.825
330.08145	26019.925
334.28114	25887.625
338.47781	26153.925
342.67145	26651.625
346.86207	27388.325
351.04966	28420.325
355.23424	29477.225
359.4158	30333.025
363.59435	30748.825
367.76989	30877.025
371.94243	30907.225
376.11196	30900.425
380.27849	30831.625
384.44203	30695.225
388.60257	30633.725
392.76012	30743.225
396.91468	31101.925
401.06626	31762.525
405.21485	32226.825
409.36047	31816.225
413.50311	30734.725
417.64277	29769.525
421.77947	29333.425
425.9132	29267.825
430.04396	29436.225
434.17176	29664.725
438.2966	29987.925
442.41849	30607.925
446.53742	31525.025
450.6534	32477.525
454.76644	33307.525
458.87653	33585.225
462.98368	33457.025
467.08789	33136.525
471.18916	32747.725
475.2875	32427.725
479.38291	32279.825
483.4754	31952.725
487.56496	31394.225
491.6516	30658.225
495.73531	30027.725
499.81612	29772.125
503.89401	29866.025
507.96899	30004.525
512.04106	29986.925
516.11023	29922.425
520.1765	29798.225
524.23987	29460.425
528.30034	28954.725
532.35792	28507.425
536.41261	28107.125
540.46441	27738.125
544.51333	27733.525
548.55936	28269.225
552.60252	29135.925
556.64279	30098.025
560.6802	30769.425
564.71473	31232.725
568.7464	32199.225
572.7752	33055.325
576.80114	33019.925
580.82422	32568.325
584.84444	32318.625
588.86181	32262.125
592.87633	32465.825
596.888	32833.625
600.89682	33356.125
604.9028	35539.325
608.90594	41347.925
612.90624	48284.525
616.90371	45631.725
620.89834	34511.025
624.89015	29394.625
628.87913	28575.625
632.86528	28763.825
636.84862	28941.025
640.82913	28366.525
644.80683	27232.225
648.78172	26409.125
652.75379	26276.725
656.72306	26892.525
660.68952	27812.525
664.65319	27766.425
668.61405	26845.525
672.57211	26441.125
676.52738	26374.225
680.47986	26375.225
684.42955	26289.525
688.37646	26143.725
692.32058	26277.925
696.26192	26554.825
700.20048	26922.825
704.13626	27219.925
708.06928	27256.925
711.99952	27015.325
715.927	26887.525
719.85171	26858.425
723.77365	26763.525
727.69284	26418.025
731.60928	26134.925
735.52295	26006.925
739.43388	26030.025
743.34206	26109.625
747.24749	26264.225
751.15017	26599.125
755.05012	27277.725
758.94733	28514.925
762.8418	31089.725
766.73354	35143.025
770.62254	39134.625
774.50882	40299.725
778.39237	37803.425
782.27321	33379.325
786.15132	29615.125
790.02671	27361.525
793.89938	26314.425
797.76935	25851.225
801.6366	25748.825
805.50115	25597.925
809.36299	25466.925
813.22213	25353.625
817.07857	25320.825
820.93231	25342.025
824.78336	25299.125
828.63172	25234.825
832.47738	25227.025
836.32036	25185.425
840.16066	25120.525
843.99827	25043.525
847.8332	24942.925
851.66546	24788.225
855.49504	24825.025
859.32195	24709.825
863.1462	24580.325
866.96777	24488.025
870.78668	24416.125
874.60293	24411.125
878.41652	24430.425
882.22745	24534.225
886.03573	24605.425
889.84136	24585.225
893.64433	24445.025
897.44466	24323.025
901.24235	24325.625
905.0374	24291.725
908.8298	24216.125
912.61957	24278.925
916.40671	24556.225
920.19121	24912.325
923.97308	25220.125
927.75233	25256.325
931.52895	25180.825
935.30295	24782.825
939.07433	24171.525
942.84309	23597.625
946.60924	23240.725
950.37278	23105.025
954.13371	23053.025
957.89203	22965.225
961.64774	23007.725
965.40086	22967.125
969.15137	22858.825
972.89929	22757.425
976.64461	22640.225
980.38733	22596.525
984.12747	22654.325
987.86502	22817.625
991.59999	23046.125
995.33237	23385.525
999.06217	23995.325
1002.78939	24876.525
1006.51404	25547.225
1010.23611	26009.525
1013.95561	26331.125
1017.67255	26278.625
1021.38692	25914.025
1025.09872	25524.325
1028.80796	25423.125
1032.51465	25659.825
1036.21877	26083.725
1039.92035	26215.225
1043.61937	26080.325
1047.31584	25754.625
1051.00976	25430.425
1054.70114	25300.625
1058.38998	25421.525
1062.07627	25725.925
1065.76003	26053.425
1069.44126	26297.625
1073.11995	26545.925
1076.79611	26777.325
1080.46974	26971.125
1084.14085	27353.525
1087.80943	27911.325
1091.47549	28254.425
1095.13903	28088.225
1098.80005	27516.125
1102.45857	26712.825
1106.11456	26172.225
1109.76805	26061.425
1113.41903	26336.125
1117.06751	26854.725
1120.71348	27560.825
1124.35696	28179.525
1127.99793	28902.825
1131.63641	29029.525
1135.2724	28371.725
1138.90589	27647.825
1142.5369	27295.525
1146.16542	27169.925
1149.79145	27275.325
1153.415	27593.725
1157.03607	28106.725
1160.65467	28920.225
1164.27079	30268.325
1167.88443	32078.325
1171.49561	34571.825
1175.10432	38374.725
1178.71056	43087.125
1182.31434	46983.725
1185.91565	48725.025
1189.51451	48584.625
1193.11091	46977.825
1196.70485	44531.425
1200.29634	42070.425
1203.88538	39995.025
1207.47197	38112.125
1211.05612	36479.925
1214.63782	35384.125
1218.21708	34730.125
1221.79391	34337.225
1225.36829	34191.525
1228.94024	33883.325
1232.50976	33594.125
1236.07685	33463.425
1239.6415	33322.525
1243.20374	33257.425
1246.76355	33458.825
1250.32093	33882.525
1253.8759	34678.825
1257.42845	35852.225
1260.97859	37009.125
1264.52631	38013.625
1268.07163	39071.025
1271.61453	40238.725
1275.15503	41362.925
1278.69312	42314.525
1282.22882	43082.425
1285.76211	44185.825
1289.29301	45663.325
1292.82151	47491.025
1296.34761	49747.825
1299.87133	52606.425
1303.39266	56242.725
1306.9116	60888.125
1310.42815	66003.625
1313.94233	69845.725
1317.45412	70758.625
1320.96354	69468.425
1324.47058	67520.625
1327.97525	65604.425
1331.47754	63950.325
1334.97747	63328.825
1338.47502	63413.625
1341.97022	63592.925
1345.46305	63308.025
1348.95352	62550.625
1352.44163	62157.225
1355.92738	63402.425
1359.41078	67296.825
1362.89183	71847.725
1366.37053	70581.425
1369.84688	62877.325
1373.32088	54546.025
1376.79254	49215.025
1380.26186	47059.625
1383.72883	46528.925
1387.19347	46367.525
1390.65578	46197.925
1394.11575	46251.425
1397.57339	46980.325
1401.0287	48219.925
1404.48168	49536.425
1407.93234	50235.525
1411.38068	49994.925
1414.82669	48469.225
1418.27039	46184.125
1421.71177	43598.425
1425.15083	41389.325
1428.58758	39990.325
1432.02203	39600.625
1435.45416	40004.225
1438.88399	40749.225
1442.31151	41624.525
1445.73673	42493.925
1449.15965	43466.725
1452.58027	44337.325
1455.9986	44780.425
1459.41463	45406.025
1462.82837	46189.325
1466.23982	47124.425
1469.64898	47856.825
1473.05586	48196.925
1476.46045	48032.925
1479.86276	47714.825
1483.26279	47378.525
1486.66054	47299.125
1490.05602	47581.625
1493.44922	48118.725
1496.84016	49076.025
1500.22882	50748.325
1503.61521	53477.125
1506.99934	57130.125
1510.38121	61004.625
1513.76081	63395.225
1517.13816	62400.925
1520.51324	58316.925
1523.88607	53747.125
1527.25665	50499.025
1530.62498	48576.425
1533.99105	47603.525
1537.35488	46913.325
1540.71647	46275.225
1544.07581	45590.925
1547.4329	44760.025
1550.78776	44062.225
1554.14038	43694.125
1557.49077	43772.625
1560.83892	44135.425
1564.18484	44636.425
1567.52853	45055.325
1570.86999	45219.225
1574.20922	45655.025
1577.54624	45914.225
1580.88103	45427.125
1584.2136	44868.425
1587.54395	45430.625
1590.87208	47295.925
1594.19801	50120.825
1597.52172	53102.625
1600.84321	54029.825
1604.16251	51776.825
1607.47959	47763.925
1610.79447	43480.625
1614.10715	39411.125
1617.41763	36027.925
1620.7259	33627.925
1624.03199	32368.625
1627.33587	32193.225
1630.63757	33110.125
1633.93707	35179.925
1637.23439	38511.625
1640.52951	43098.725
1643.82246	48447.925
1647.11321	53298.225
1650.40179	55597.925
1653.68819	53273.125
1656.97241	46580.825
1660.25446	38949.225
1663.53433	33123.725
1666.81203	29286.625
1670.08756	26867.625
1673.36092	25413.225
1676.63211	24448.125
1679.90115	23811.725
1683.16801	23320.925
1686.43272	22963.525
1689.69527	22721.525
1692.95567	22434.625
1696.2139	22354.325
1699.46999	22253.825
1702.72392	22158.125
1705.97571	22101.825
1709.22535	21960.025
1712.47284	21941.925
1715.71819	21910.625
1718.96139	21824.925
1722.20246	21785.925
1725.44139	21654.025
1728.67818	21543.025
1731.91284	21393.125
1735.14537	21254.025
1738.37576	21136.225
1741.60403	21097.725
1744.83017	21022.825
1748.05418	20970.225
1751.27607	20914.725
1754.49584	20867.825
1757.71349	20874.925
1760.92903	20835.125
1764.14244	20761.725
1767.35375	20703.825
1770.56294	20687.625
1773.77002	20623.225
1776.97499	20599.525
1780.17785	20535.725
1783.37861	20528.325
1786.57727	20456.725
1789.77382	20391.125
1792.96828	20360.425
1796.16064	20332.025
1799.3509	20311.625
1802.53907	20301.225
1805.72514	20268.625
1808.90913	20204.825
1812.09102	20141.325
1815.27083	20082.225
1818.44856	20083.825
1821.6242	20005.525
1824.79776	20019.425
1827.96924	19996.625
1831.13864	19979.825
1834.30597	19961.925
1837.47122	19981.225
1840.6344	19985.925
1843.7955	20026.625
1846.95454	19997.225
1850.11151	19994.425
1853.26642	19993.825
1856.41926	19994.125
1859.57004	19989.025
1862.71876	19995.225
1865.86542	20024.225
1869.01003	20018.625
1872.15258	20040.625
1875.29308	20023.425
1878.43152	20036.725
1881.56792	20058.825
1884.70227	20054.225
1887.83457	20054.925
1890.96482	20102.325
1894.09304	20065.125
1897.21921	20130.925
1900.34335	20107.525
1903.46544	20095.625
1906.58551	20143.925
1909.70353	20124.525
1912.81953	20082.425
1915.93349	20093.725
1919.04543	20063.125
1922.15534	19988.925
1925.26322	19974.425
1928.36908	19896.725
1931.47292	19802.925
1934.57473	19695.225
1937.67453	19592.925
1940.77232	19479.525
1943.86808	19384.025
1946.96184	19338.825
1950.05358	19212.325
1953.14331	19126.825
1956.23103	19067.325
1959.31675	19015.225
1962.40046	18947.525
1965.48217	18878.025
1968.56188	18795.425
1971.63959	18743.625
1974.7153	18650.625
1977.78901	18644.225
1980.86073	18583.925
1983.93046	18502.625
1986.99819	18450.525
1990.06394	18373.025
1993.1277	18325.825
1996.18947	18237.825
1999.24925	18206.325
2002.30706	18148.425
2005.36288	18101.825
2008.41672	18068.025
2011.46859	17997.925
2014.51848	17930.525
2017.56639	17843.525
2020.61233	17825.325
2023.6563	17794.725
2026.6983	17757.225
2029.73833	17709.825
2032.7764	17703.325
2035.8125	17662.225
2038.84664	17636.525
2041.87881	17641.025
2044.90903	17550.125
2047.93729	17552.625
2050.96359	17531.425
2053.98794	17496.925
2057.01034	17483.425
2060.03078	17480.225
2063.04927	17444.725
2066.06582	17416.025
2069.08042	17423.725
2072.09307	17384.325
2075.10378	17355.425
2078.11255	17358.225
2081.11938	17345.425
2084.12426	17317.125
2087.12722	17313.425
2090.12824	17272.525
2093.12732	17292.125
2096.12447	17320.725
2099.11969	17330.425
2102.11299	17334.125
2105.10435	17304.025
2108.09379	17323.925
2111.08131	17321.925
2114.0669	17347.125
2117.05057	17356.325
2120.03233	17360.025
2123.01216	17377.225
2125.99008	17382.825
2128.96609	17386.025
2131.94018	17370.325
2134.91236	17371.125
2137.88263	17391.425
2140.851	17410.825
2143.81746	17448.425
2146.78201	17412.225
2149.74466	17441.725
2152.7054	17430.225
2155.66425	17393.625
2158.6212	17418.525
2161.57625	17402.325
2164.52941	17369.425
2167.48067	17364.625
2170.43004	17335.725
2173.37752	17337.625
2176.32311	17328.125
2179.26681	17335.325
2182.20863	17311.525
2185.14856	17334.525
2188.08661	17349.525
2191.02278	17329.225
2193.95707	17318.925
2196.88948	17341.525
2199.82001	17296.825
2202.74867	17268.525
2205.67545	17291.625
2208.60037	17278.225
2211.52341	17242.725
2214.44458	17237.125
2217.36388	17204.925
2220.28132	17168.225
2223.1969	17168.225
2226.11061	17106.925
2229.02246	17080.725
2231.93245	17026.325
2234.84058	17003.725
2237.74686	16946.425
2240.65128	16966.325
2243.55385	16959.525
2246.45456	16919.325
2249.35343	16888.725
2252.25044	16869.525
2255.14561	16834.225
2258.03893	16850.225
2260.93041	16795.925
2263.82004	16785.725
2266.70783	16760.425
2269.59378	16695.225
2272.4779	16645.025
2275.36017	16591.225
2278.24061	16581.425
2281.11922	16525.325
2283.996	16494.925
2286.87094	16488.925
2289.74405	16414.325
2292.61534	16427.825
2295.4848	16411.825
2298.35243	16393.425
2301.21824	16392.425
2304.08223	16391.025
2306.94439	16393.825
2309.80474	16385.925
2312.66327	16394.425
2315.51999	16413.525
2318.37489	16402.025
2321.22797	16381.525
2324.07925	16357.425
2326.92871	16323.425
2329.77637	16335.325
2332.62222	16313.825
2335.46626	16337.825
2338.3085	16341.525
2341.14893	16309.625
2343.98756	16321.925
2346.8244	16305.025
2349.65943	16365.825
2352.49267	16337.725
2355.32411	16309.925
2358.15376	16339.925
2360.98161	16347.525
2363.80768	16317.925
2366.63195	16312.825
2369.45444	16314.325
2372.27514	16288.425
2375.09405	16266.025
2377.91118	16216.625
2380.72652	16185.625
2383.54009	16124.525
2386.35187	16086.025
2389.16188	16037.325
2391.97011	15987.725
2394.77657	15972.625
2397.58125	15981.425
2400.38416	15924.125
2403.18529	15874.225
2405.98466	15856.325
2408.78226	15839.325
2411.57809	15846.825
2414.37216	15833.125
2417.16446	15768.325
2419.955	15781.425
2422.74378	15781.425
2425.5308	15754.925
2428.31606	15754.225
2431.09956	15725.825
2433.88131	15679.025
2436.6613	15688.825
2439.43954	15692.725
2442.21603	15686.825
2444.99077	15664.925
2447.76377	15697.725
2450.53501	15692.025
2453.30451	15710.025
2456.07226	15681.125
2458.83827	15676.825
2461.60254	15686.125
2464.36507	15696.825
2467.12586	15683.325
2469.88492	15671.625
2472.64224	15670.225
2475.39782	15707.025
2478.15167	15683.125
2480.90379	15708.125
2483.65417	15709.625
2486.40283	15780.825
2489.14976	15774.425
2491.89497	15758.225
2494.63845	15793.425
2497.3802	15792.025
2500.12024	15766.725
2502.85855	15785.425
2505.59514	15797.625
2508.33002	15779.125
2511.06318	15758.725
2513.79462	15682.125
2516.52435	15644.425
2519.25237	15643.325
2521.97867	15619.125
2524.70327	15618.025
2527.42616	15597.325
2530.14734	15603.725
2532.86681	15565.325
2535.58458	15575.125
2538.30065	15539.525
2541.01501	15562.125
2543.72768	15516.025
2546.43864	15509.325
2549.14791	15484.925
2551.85548	15492.825
2554.56136	15490.325
2557.26554	15468.525
2559.96803	15461.925
2562.66883	15452.125
2565.36794	15424.525
2568.06536	15427.525
2570.7611	15394.325
2573.45514	15394.325
2576.14751	15412.025
2578.83819	15359.725
2581.52719	15359.425
2584.21451	15348.925
2586.90015	15356.425
2589.58411	15355.325
2592.2664	15313.125
2594.94701	15333.925
2597.62594	15335.625
2600.30321	15324.725
2602.9788	15324.025
2605.65273	15319.525
2608.32498	15331.625
2610.99557	15348.825
2613.66449	15363.925
2616.33175	15327.525
2618.99734	15341.925
2621.66128	15352.125
2624.32355	15352.425
2626.98416	15337.625
2629.64311	15354.225
2632.30041	15356.525
2634.95605	15357.225
2637.61004	15343.025
2640.26238	15322.925
2642.91306	15293.525
2645.56209	15284.825
2648.20948	15258.425
2650.85521	15262.925
2653.4993	15274.825
2656.14175	15258.125
2658.78255	15271.425
2661.42171	15271.525
2664.05923	15312.425
2666.6951	15323.925
2669.32934	15349.625
2671.96194	15306.725
2674.59291	15354.825
2677.22224	15342.325
2679.84993	15353.225
2682.476	15347.525
2685.10043	15347.125
2687.72324	15319.925
2690.34441	15301.825
2692.96396	15307.925
2695.58188	15341.925
2698.19818	15277.225
2700.81285	15326.225
2703.4259	15314.125
2706.03733	15349.425
2708.64714	15327.525
2711.25533	15336.825
2713.86191	15331.225
2716.46687	15375.025
2719.07021	15365.825
2721.67194	15397.325
2724.27206	15383.525
2726.87057	15438.325
2729.46747	15419.825
2732.06276	15392.725
2734.65644	15352.425
2737.24852	15379.925
2739.83899	15368.225
2742.42786	15358.925
2745.01513	15320.725
2747.60079	15333.225
2750.18486	15324.325
2752.76733	15339.825
2755.3482	15359.625
2757.92747	15365.725
2760.50515	15323.325
2763.08123	15375.825
2765.65573	15366.725
2768.22863	15324.925
2770.79994	15311.125
2773.36967	15291.625
2775.9378	15264.425
2778.50435	15281.925
2781.06932	15259.025
2783.6327	15315.525
2786.1945	15274.825
2788.75471	15268.425
2791.31335	15268.925
2793.87041	15216.725
2796.42589	15207.325
2798.97979	15233.825
2801.53212	15182.425
2804.08288	15171.225
2806.63206	15103.025
2809.17967	15132.825
2811.72571	15094.725
2814.27018	15091.125
2816.81308	15103.825
2819.35442	15039.625
2821.89419	15043.125
2824.43239	15039.125
2826.96904	15017.625
2829.50412	15016.525
2832.03763	15003.325
2834.56959	15002.525
2837.1	14982.025
2839.62884	14981.525
2842.15613	14980.525
2844.68186	15026.325
2847.20604	15074.125
2849.72867	15057.525
2852.24974	15083.725
2854.76927	15029.725
2857.28724	15040.925
2859.80367	15030.225
2862.31855	15004.425
2864.83189	14985.525
2867.34368	14958.225
2869.85393	14980.625
2872.36264	14980.025
2874.8698	14958.525
2877.37543	14979.325
2879.87952	14997.925
2882.38207	14955.125
2884.88308	14944.425
2887.38256	14958.325
2889.88051	14966.025
2892.37692	14956.625
2894.8718	14971.525
2897.36515	14974.325
2899.85698	14981.525
2902.34727	15004.525
2904.83604	14999.725
2907.32328	15044.925
2909.809	15020.025
2912.29319	15051.725
2914.77587	15018.625
2917.25702	15012.125
2919.73665	14997.025
2922.21476	15007.625
2924.69136	14981.325
2927.16644	15005.825
2929.64	15002.625
2932.11205	14989.225
2934.58258	14934.025
2937.05161	14943.525
2939.51912	14903.225
2941.98513	14863.225
2944.44962	14839.225
2946.91261	14749.825
2949.37409	14780.725
2951.83407	14755.725
2954.29254	14698.125
2956.74951	14696.525
2959.20498	14683.325
2961.65895	14655.625
2964.11142	14643.725
2966.56239	14605.425
2969.01186	14583.825
2971.45984	14527.025
2973.90632	14521.025
2976.35131	14448.525
2978.7948	14427.525
2981.23681	14376.025
2983.67732	14372.425
2986.11635	14332.925
2988.55388	14290.025
2990.98993	14319.925
2993.4245	14259.725
2995.85758	14243.825
2998.28917	14180.625
3000.71928	14170.125
3003.14791	14130.125
3005.57506	14115.825
3008.00073	14067.325
3010.42493	14013.825
3012.84764	14026.425
3015.26888	14033.225
3017.68865	13985.225
3020.10694	13974.025
3022.52376	13935.925
3024.9391	13914.525
3027.35298	13884.825
3029.76539	13880.725
3032.17632	13841.925
3034.5858	13847.225
3036.9938	13813.325
3039.40034	13809.325
3041.80542	13760.325
3044.20903	13769.525
3046.61118	13754.525
3049.01187	13704.725
3051.4111	13672.325
3053.80888	13613.425
3056.20519	13596.225
3058.60005	13572.125
3060.99345	13538.125
3063.3854	13536.425
3065.7759	13476.825
3068.16494	13434.425
3070.55254	13368.425
3072.93868	13331.725
3075.32338	13284.925
3077.70662	13261.825
3080.08842	13222.425
3082.46878	13206.725
3084.84769	13168.825
3087.22515	13165.925
3089.60118	13139.325
3091.97576	13154.425
3094.3489	13144.025
3096.72061	13109.925
3099.09087	13116.525
3101.4597	13093.625
3103.82709	13075.325
3106.19305	13060.525
3108.55757	13027.025
3110.92066	12975.425
3113.28232	12950.225
3115.64255	12898.325
3118.00134	12867.525
3120.35871	12868.725
3122.71466	12827.925
3125.06917	12816.225
3127.42226	12804.725
