Data from AgNPs_FTO_APTES_UA_2uM_CRN_2uM_R6G_10uM_NaF_0.1M_Addition_RamanShift__9__12-09-15-056.txt Node

Date: Wed Feb 02 12:09:15 GMT 2022
User: TCL
Spectrometer: QEP01345
Trigger mode: 4
Integration Time (sec): 7.000000E0
Scans to average: 10
Electric dark correction enabled: true
Nonlinearity correction enabled: false
Boxcar width: 0
XAxis mode: Raman Shifts
Number of Pixels in Spectrum: 1044
>>>>>Begin Spectral Data<<<<<
46.04893	1.5125
50.45542	0.6125
54.85868	-2.1875
59.25871	-1.5875
63.6555	108.5125
68.04907	115.9125
72.43941	120.3125
76.82654	127.7125
81.21044	131.0125
85.59113	134.4125
89.96862	134.3125
94.34289	144.9125
98.71396	149.2125
103.08183	157.1125
107.4465	157.0125
111.80798	159.4125
116.16626	167.7125
120.52136	176.7125
124.87327	183.3125
129.222	193.2125
133.56755	209.5125
137.90993	225.5125
142.24913	253.4125
146.58517	283.0125
150.91804	334.1125
155.24774	410.2125
159.57429	516.0125
163.89768	663.0125
168.21792	883.1125
172.53501	1214.6125
176.84895	1693.6125
181.15975	2374.4125
185.46741	3334.4125
189.77193	4592.8125
194.07331	6166.0125
198.37157	7930.7125
202.6667	9779.0125
206.9587	11611.2125
211.24758	13437.5125
215.53334	15256.1125
219.81599	17174.6125
224.09553	19345.8125
228.37195	21704.3125
232.64527	24280.3125
236.91549	26961.0125
241.18261	29616.8125
245.44663	32107.2125
249.70755	34374.2125
253.96539	36288.3125
258.22014	37931.8125
262.4718	39283.1125
266.72039	40179.5125
270.96589	40603.9125
275.20832	40589.1125
279.44768	40308.5125
283.68397	39892.7125
287.91719	39530.7125
292.14735	39356.9125
296.37445	39286.0125
300.59849	39354.4125
304.81948	39557.0125
309.03742	39670.0125
313.25231	39479.1125
317.46415	38943.0125
321.67296	38133.6125
325.87872	37441.7125
330.08145	37027.2125
334.28114	36912.5125
338.47781	37033.6125
342.67145	37372.0125
346.86207	37926.5125
351.04966	38524.0125
355.23424	39193.1125
359.4158	39810.3125
363.59435	40303.0125
367.76989	40634.9125
371.94243	40764.5125
376.11196	40784.3125
380.27849	40769.8125
384.44203	40855.3125
388.60257	41214.7125
392.76012	41740.2125
396.91468	42389.8125
401.06626	43185.1125
405.21485	43571.9125
409.36047	43386.0125
413.50311	42922.3125
417.64277	42860.0125
421.77947	43219.6125
425.9132	43534.5125
430.04396	43691.6125
434.17176	43818.7125
438.2966	43907.1125
442.41849	44333.6125
446.53742	45284.0125
450.6534	46515.7125
454.76644	47254.6125
458.87653	47458.8125
462.98368	47276.8125
467.08789	46816.2125
471.18916	46030.4125
475.2875	45374.8125
479.38291	45051.3125
483.4754	44875.4125
487.56496	44511.2125
491.6516	43882.0125
495.73531	43213.3125
499.81612	42809.6125
503.89401	43037.7125
507.96899	43256.0125
512.04106	43174.1125
516.11023	42858.1125
520.1765	42249.1125
524.23987	41669.9125
528.30034	41170.5125
532.35792	40711.2125
536.41261	40214.2125
540.46441	39750.0125
544.51333	39783.2125
548.55936	40135.6125
552.60252	41103.1125
556.64279	42064.4125
560.6802	42988.2125
564.71473	43518.4125
568.7464	44464.9125
572.7752	46130.7125
576.80114	48149.4125
580.82422	50295.4125
584.84444	52981.9125
588.86181	56315.0125
592.87633	58920.9125
596.888	57993.8125
600.89682	54017.7125
604.9028	51847.6125
608.90594	53468.7125
612.90624	55774.9125
616.90371	52164.7125
620.89834	44767.9125
624.89015	41465.0125
628.87913	41252.1125
632.86528	41620.0125
636.84862	41504.9125
640.82913	40592.8125
644.80683	39468.3125
648.78172	38902.9125
652.75379	38970.1125
656.72306	39364.8125
660.68952	39875.2125
664.65319	39522.0125
668.61405	38844.8125
672.57211	38772.5125
676.52738	38978.8125
680.47986	38963.6125
684.42955	38650.0125
688.37646	38464.6125
692.32058	38759.3125
696.26192	39394.4125
700.20048	40083.6125
704.13626	40463.2125
708.06928	40623.1125
711.99952	40513.0125
715.927	40525.8125
719.85171	40675.9125
723.77365	40384.1125
727.69284	39564.0125
731.60928	38803.0125
735.52295	38500.6125
739.43388	38494.6125
743.34206	38642.3125
747.24749	38969.4125
751.15017	39474.1125
755.05012	40279.3125
758.94733	41512.8125
762.8418	43469.2125
766.73354	46195.2125
770.62254	48527.8125
774.50882	48444.7125
778.39237	46176.5125
782.27321	43326.9125
786.15132	41040.0125
790.02671	39620.5125
793.89938	38884.6125
797.76935	38509.9125
801.6366	38416.9125
805.50115	38369.4125
809.36299	38202.1125
813.22213	37950.7125
817.07857	37739.0125
820.93231	37520.3125
824.78336	37223.8125
828.63172	36957.3125
832.47738	36828.6125
836.32036	36834.9125
840.16066	36866.5125
843.99827	36829.8125
847.8332	36793.0125
851.66546	36820.3125
855.49504	36871.8125
859.32195	36930.2125
863.1462	36763.6125
866.96777	36659.4125
870.78668	36605.6125
874.60293	36615.8125
878.41652	36688.7125
882.22745	36834.1125
886.03573	37010.9125
889.84136	37027.5125
893.64433	36871.9125
897.44466	36717.1125
901.24235	36661.7125
905.0374	36624.4125
908.8298	36529.9125
912.61957	36627.6125
916.40671	36989.9125
920.19121	37640.8125
923.97308	38224.1125
927.75233	38247.0125
931.52895	37779.9125
935.30295	36934.4125
939.07433	36079.4125
942.84309	35508.8125
946.60924	35193.9125
950.37278	35124.9125
954.13371	35124.0125
957.89203	35165.0125
961.64774	35198.0125
965.40086	35189.4125
969.15137	35106.8125
972.89929	34890.0125
976.64461	34663.0125
980.38733	34620.7125
984.12747	34575.5125
987.86502	34703.3125
991.59999	34949.3125
995.33237	35267.7125
999.06217	35789.1125
1002.78939	36557.3125
1006.51404	37428.6125
1010.23611	38276.7125
1013.95561	38771.3125
1017.67255	38799.3125
1021.38692	38338.5125
1025.09872	37573.3125
1028.80796	37082.3125
1032.51465	37015.2125
1036.21877	37260.8125
1039.92035	37464.4125
1043.61937	37584.6125
1047.31584	37495.4125
1051.00976	37406.0125
1054.70114	37430.9125
1058.38998	37666.8125
1062.07627	38045.1125
1065.76003	38553.6125
1069.44126	39162.9125
1073.11995	40001.3125
1076.79611	40676.6125
1080.46974	41002.6125
1084.14085	41292.9125
1087.80943	41787.8125
1091.47549	42309.5125
1095.13903	42451.7125
1098.80005	41833.8125
1102.45857	40614.8125
1106.11456	39596.1125
1109.76805	38954.4125
1113.41903	38812.5125
1117.06751	38844.2125
1120.71348	39172.4125
1124.35696	39563.7125
1127.99793	40067.9125
1131.63641	40429.0125
1135.2724	40465.7125
1138.90589	40409.5125
1142.5369	40664.0125
1146.16542	41140.7125
1149.79145	41727.0125
1153.415	42276.6125
1157.03607	43015.1125
1160.65467	44481.8125
1164.27079	46843.5125
1167.88443	49703.6125
1171.49561	52442.1125
1175.10432	55490.4125
1178.71056	59407.1125
1182.31434	63067.8125
1185.91565	64831.7125
1189.51451	64454.5125
1193.11091	63073.0125
1196.70485	61049.8125
1200.29634	58781.2125
1203.88538	57482.4125
1207.47197	57092.4125
1211.05612	56999.9125
1214.63782	56382.7125
1218.21708	54660.8125
1221.79391	52434.3125
1225.36829	50847.3125
1228.94024	49856.6125
1232.50976	49104.2125
1236.07685	48451.5125
1239.6415	47900.0125
1243.20374	47809.3125
1246.76355	48134.7125
1250.32093	48950.0125
1253.8759	50095.7125
1257.42845	51622.5125
1260.97859	53371.3125
1264.52631	55108.2125
1268.07163	56936.1125
1271.61453	58616.0125
1275.15503	60473.3125
1278.69312	62486.9125
1282.22882	64844.8125
1285.76211	67760.5125
1289.29301	70982.3125
1292.82151	74670.3125
1296.34761	78982.5125
1299.87133	83994.1125
1303.39266	88824.5125
1306.9116	92679.5125
1310.42815	95066.6125
1313.94233	95606.7125
1317.45412	94622.5125
1320.96354	93032.6125
1324.47058	92255.9125
1327.97525	91899.1125
1331.47754	91847.8125
1334.97747	91184.9125
1338.47502	89927.9125
1341.97022	87949.5125
1345.46305	85897.0125
1348.95352	84181.7125
1352.44163	83397.9125
1355.92738	84570.1125
1359.41078	87685.2125
1362.89183	90648.7125
1366.37053	90252.7125
1369.84688	84556.5125
1373.32088	75543.6125
1376.79254	68798.4125
1380.26186	66434.3125
1383.72883	66738.4125
1387.19347	67211.1125
1390.65578	66593.9125
1394.11575	66347.2125
1397.57339	67150.9125
1401.0287	68636.1125
1404.48168	69790.7125
1407.93234	69581.4125
1411.38068	67696.7125
1414.82669	65028.4125
1418.27039	61828.1125
1421.71177	58912.5125
1425.15083	56620.3125
1428.58758	55815.2125
1432.02203	56607.5125
1435.45416	58599.5125
1438.88399	60810.4125
1442.31151	62194.3125
1445.73673	62880.8125
1449.15965	63282.1125
1452.58027	63147.2125
1455.9986	62940.0125
1459.41463	63138.4125
1462.82837	64103.9125
1466.23982	65259.2125
1469.64898	66302.1125
1473.05586	66860.3125
1476.46045	66839.8125
1479.86276	66330.0125
1483.26279	65599.1125
1486.66054	65237.7125
1490.05602	65599.6125
1493.44922	66431.0125
1496.84016	67262.8125
1500.22882	68057.3125
1503.61521	69268.4125
1506.99934	70545.3125
1510.38121	71473.3125
1513.76081	71640.5125
1517.13816	70877.1125
1520.51324	69891.3125
1523.88607	69550.9125
1527.25665	70004.2125
1530.62498	70324.9125
1533.99105	69943.7125
1537.35488	68623.1125
1540.71647	66529.7125
1544.07581	64046.2125
1547.4329	61675.6125
1550.78776	59614.6125
1554.14038	58446.2125
1557.49077	57738.9125
1560.83892	57260.2125
1564.18484	56934.3125
1567.52853	56983.3125
1570.86999	57435.1125
1574.20922	58780.0125
1577.54624	60205.2125
1580.88103	61213.9125
1584.2136	62682.4125
1587.54395	65535.3125
1590.87208	69713.1125
1594.19801	74297.2125
1597.52172	77855.7125
1600.84321	77930.1125
1604.16251	73175.7125
1607.47959	66008.5125
1610.79447	59200.6125
1614.10715	53486.1125
1617.41763	49155.7125
1620.7259	46292.4125
1624.03199	44991.7125
1627.33587	45221.8125
1630.63757	47029.1125
1633.93707	50817.8125
1637.23439	57149.4125
1640.52951	66418.5125
1643.82246	77448.5125
1647.11321	85814.0125
1650.40179	86526.7125
1653.68819	78646.3125
1656.97241	66208.7125
1660.25446	55015.4125
1663.53433	46892.6125
1666.81203	41799.1125
1670.08756	38658.8125
1673.36092	36735.7125
1676.63211	35499.5125
1679.90115	34648.1125
1683.16801	33931.5125
1686.43272	33461.1125
1689.69527	33113.8125
1692.95567	32832.4125
1696.2139	32578.9125
1699.46999	32443.1125
1702.72392	32335.5125
1705.97571	32207.1125
1709.22535	32095.0125
1712.47284	31999.5125
1715.71819	31965.8125
1718.96139	31828.8125
1722.20246	31673.6125
1725.44139	31572.6125
1728.67818	31379.0125
1731.91284	31142.0125
1735.14537	30950.5125
1738.37576	30781.2125
1741.60403	30682.2125
1744.83017	30511.8125
1748.05418	30478.5125
1751.27607	30412.1125
1754.49584	30340.1125
1757.71349	30298.1125
1760.92903	30248.1125
1764.14244	30248.3125
1767.35375	30177.7125
1770.56294	30109.9125
1773.77002	30022.0125
1776.97499	30007.0125
1780.17785	29920.7125
1783.37861	29861.8125
1786.57727	29793.7125
1789.77382	29730.0125
1792.96828	29695.7125
1796.16064	29639.2125
1799.3509	29528.0125
1802.53907	29457.6125
1805.72514	29368.6125
1808.90913	29311.4125
1812.09102	29216.8125
1815.27083	29208.1125
1818.44856	29202.7125
1821.6242	29137.7125
1824.79776	29140.8125
1827.96924	29138.3125
1831.13864	29123.7125
1834.30597	29176.6125
1837.47122	29103.9125
1840.6344	29109.8125
1843.7955	29115.0125
1846.95454	29125.2125
1850.11151	29085.9125
1853.26642	29039.5125
1856.41926	29015.1125
1859.57004	28984.6125
1862.71876	28917.0125
1865.86542	28920.7125
1869.01003	28871.6125
1872.15258	28792.6125
1875.29308	28748.5125
1878.43152	28702.9125
1881.56792	28661.4125
1884.70227	28628.6125
1887.83457	28631.2125
1890.96482	28630.6125
1894.09304	28507.3125
1897.21921	28505.5125
1900.34335	28457.3125
1903.46544	28399.7125
1906.58551	28359.6125
1909.70353	28306.8125
1912.81953	28207.7125
1915.93349	28115.8125
1919.04543	28038.8125
1922.15534	27963.6125
1925.26322	27910.5125
1928.36908	27836.9125
1931.47292	27763.0125
1934.57473	27632.0125
1937.67453	27538.4125
1940.77232	27527.0125
1943.86808	27423.6125
1946.96184	27378.5125
1950.05358	27269.0125
1953.14331	27227.0125
1956.23103	27186.5125
1959.31675	27044.8125
1962.40046	26981.7125
1965.48217	26901.2125
1968.56188	26810.0125
1971.63959	26734.0125
1974.7153	26628.0125
1977.78901	26565.4125
1980.86073	26453.6125
1983.93046	26338.8125
1986.99819	26267.0125
1990.06394	26199.8125
1993.1277	26102.6125
1996.18947	26009.5125
1999.24925	25962.8125
2002.30706	25903.0125
2005.36288	25787.2125
2008.41672	25761.1125
2011.46859	25641.4125
2014.51848	25601.1125
2017.56639	25523.5125
2020.61233	25465.5125
2023.6563	25439.6125
2026.6983	25434.9125
2029.73833	25292.5125
2032.7764	25275.5125
2035.8125	25206.3125
2038.84664	25135.5125
2041.87881	25153.9125
2044.90903	25080.1125
2047.93729	25031.5125
2050.96359	24960.0125
2053.98794	24936.0125
2057.01034	24913.8125
2060.03078	24924.0125
2063.04927	24877.2125
2066.06582	24845.2125
2069.08042	24799.7125
2072.09307	24805.9125
2075.10378	24746.1125
2078.11255	24786.6125
2081.11938	24789.6125
2084.12426	24711.8125
2087.12722	24733.0125
2090.12824	24717.4125
2093.12732	24686.2125
2096.12447	24694.0125
2099.11969	24681.1125
2102.11299	24736.3125
2105.10435	24705.2125
2108.09379	24707.0125
2111.08131	24723.9125
2114.0669	24720.8125
2117.05057	24710.3125
2120.03233	24790.8125
2123.01216	24784.7125
2125.99008	24815.5125
2128.96609	24753.6125
2131.94018	24804.7125
2134.91236	24847.7125
2137.88263	24738.4125
2140.851	24749.6125
2143.81746	24760.1125
2146.78201	24752.0125
2149.74466	24767.0125
2152.7054	24732.0125
2155.66425	24751.0125
2158.6212	24761.3125
2161.57625	24739.0125
2164.52941	24748.7125
2167.48067	24686.6125
2170.43004	24690.2125
2173.37752	24686.9125
2176.32311	24686.2125
2179.26681	24686.0125
2182.20863	24701.4125
2185.14856	24766.9125
2188.08661	24748.0125
2191.02278	24711.1125
2193.95707	24703.2125
2196.88948	24609.0125
2199.82001	24607.3125
2202.74867	24558.5125
2205.67545	24561.6125
2208.60037	24517.5125
2211.52341	24465.0125
2214.44458	24436.1125
2217.36388	24410.5125
2220.28132	24345.4125
2223.1969	24266.0125
2226.11061	24277.4125
2229.02246	24198.6125
2231.93245	24257.3125
2234.84058	24215.6125
2237.74686	24199.4125
2240.65128	24149.3125
2243.55385	24098.6125
2246.45456	24047.9125
2249.35343	24001.4125
2252.25044	23939.5125
2255.14561	23809.9125
2258.03893	23813.2125
2260.93041	23740.0125
2263.82004	23667.4125
2266.70783	23612.5125
2269.59378	23529.2125
2272.4779	23492.4125
2275.36017	23393.9125
2278.24061	23367.2125
2281.11922	23332.4125
2283.996	23318.6125
2286.87094	23291.3125
2289.74405	23206.7125
2292.61534	23199.5125
2295.4848	23175.6125
2298.35243	23132.3125
2301.21824	23105.7125
2304.08223	23086.9125
2306.94439	23128.9125
2309.80474	23125.9125
2312.66327	23069.8125
2315.51999	23072.3125
2318.37489	23053.7125
2321.22797	23025.3125
2324.07925	22946.8125
2326.92871	22950.1125
2329.77637	22977.0125
2332.62222	22892.6125
2335.46626	22865.8125
2338.3085	22859.1125
2341.14893	22815.1125
2343.98756	22816.0125
2346.8244	22867.0125
2349.65943	22834.2125
2352.49267	22825.7125
2355.32411	22876.4125
2358.15376	22852.5125
2360.98161	22816.9125
2363.80768	22790.5125
2366.63195	22759.7125
2369.45444	22702.0125
2372.27514	22682.5125
2375.09405	22646.5125
2377.91118	22577.8125
2380.72652	22506.5125
2383.54009	22506.3125
2386.35187	22481.2125
2389.16188	22428.0125
2391.97011	22381.5125
2394.77657	22372.6125
2397.58125	22250.6125
2400.38416	22261.7125
2403.18529	22217.7125
2405.98466	22180.7125
2408.78226	22214.1125
2411.57809	22188.7125
2414.37216	22156.9125
2417.16446	22146.6125
2419.955	22130.4125
2422.74378	22084.9125
2425.5308	22059.2125
2428.31606	22055.4125
2431.09956	22051.0125
2433.88131	21989.4125
2436.6613	22006.9125
2439.43954	22035.7125
2442.21603	22040.6125
2444.99077	21989.6125
2447.76377	21978.0125
2450.53501	21972.3125
2453.30451	21946.2125
2456.07226	21928.9125
2458.83827	21928.9125
2461.60254	21945.7125
2464.36507	21926.6125
2467.12586	21882.9125
2469.88492	21873.8125
2472.64224	21918.0125
2475.39782	21877.6125
2478.15167	21877.0125
2480.90379	21832.5125
2483.65417	21820.2125
2486.40283	21824.4125
2489.14976	21835.0125
2491.89497	21814.8125
2494.63845	21859.3125
2497.3802	21775.4125
2500.12024	21808.3125
2502.85855	21798.7125
2505.59514	21813.2125
2508.33002	21770.1125
2511.06318	21763.8125
2513.79462	21746.8125
2516.52435	21738.7125
2519.25237	21711.5125
2521.97867	21668.5125
2524.70327	21630.8125
2527.42616	21649.6125
2530.14734	21648.1125
2532.86681	21607.0125
2535.58458	21603.4125
2538.30065	21548.4125
2541.01501	21536.4125
2543.72768	21492.0125
2546.43864	21506.5125
2549.14791	21480.0125
2551.85548	21454.5125
2554.56136	21452.1125
2557.26554	21455.9125
2559.96803	21424.9125
2562.66883	21406.5125
2565.36794	21395.8125
2568.06536	21380.0125
2570.7611	21334.9125
2573.45514	21317.8125
2576.14751	21301.0125
2578.83819	21240.2125
2581.52719	21249.7125
2584.21451	21216.5125
2586.90015	21225.0125
2589.58411	21229.8125
2592.2664	21194.7125
2594.94701	21136.5125
2597.62594	21121.2125
2600.30321	21110.5125
2602.9788	21135.2125
2605.65273	21083.4125
2608.32498	21087.2125
2610.99557	21066.3125
2613.66449	21043.1125
2616.33175	21033.1125
2618.99734	21051.1125
2621.66128	20996.3125
2624.32355	21009.7125
2626.98416	20983.0125
2629.64311	20934.8125
2632.30041	20949.0125
2634.95605	20949.0125
2637.61004	20927.1125
2640.26238	20938.8125
2642.91306	20925.1125
2645.56209	20901.6125
2648.20948	20909.9125
2650.85521	20889.8125
2653.4993	20919.9125
2656.14175	20907.1125
2658.78255	20908.0125
2661.42171	20925.6125
2664.05923	20916.6125
2666.6951	20961.7125
2669.32934	20932.3125
2671.96194	20943.4125
2674.59291	20969.1125
2677.22224	20906.9125
2679.84993	20977.7125
2682.476	20923.5125
2685.10043	20927.5125
2687.72324	20914.3125
2690.34441	20924.7125
2692.96396	20935.4125
2695.58188	20930.9125
2698.19818	20928.6125
2700.81285	20913.5125
2703.4259	20918.2125
2706.03733	20953.6125
2708.64714	20930.3125
2711.25533	20915.8125
2713.86191	20952.1125
2716.46687	21012.1125
2719.07021	21005.7125
2721.67194	21013.1125
2724.27206	20996.5125
2726.87057	21007.6125
2729.46747	21032.2125
2732.06276	21054.9125
2734.65644	21043.3125
2737.24852	21093.8125
2739.83899	21007.6125
2742.42786	21076.4125
2745.01513	20996.1125
2747.60079	20978.2125
2750.18486	20946.8125
2752.76733	20965.4125
2755.3482	20918.8125
2757.92747	20886.6125
2760.50515	20880.4125
2763.08123	20891.3125
2765.65573	20879.4125
2768.22863	20903.1125
2770.79994	20864.3125
2773.36967	20854.6125
2775.9378	20858.2125
2778.50435	20810.9125
2781.06932	20783.5125
2783.6327	20790.8125
2786.1945	20776.6125
2788.75471	20751.2125
2791.31335	20666.7125
2793.87041	20680.5125
2796.42589	20653.3125
2798.97979	20667.3125
2801.53212	20625.0125
2804.08288	20606.9125
2806.63206	20549.1125
2809.17967	20495.0125
2811.72571	20376.5125
2814.27018	20373.9125
2816.81308	20371.2125
2819.35442	20359.2125
2821.89419	20287.8125
2824.43239	20275.5125
2826.96904	20262.3125
2829.50412	20235.9125
2832.03763	20182.0125
2834.56959	20237.8125
2837.1	20207.5125
2839.62884	20202.7125
2842.15613	20195.8125
2844.68186	20229.8125
2847.20604	20226.3125
2849.72867	20237.9125
2852.24974	20268.3125
2854.76927	20233.4125
2857.28724	20173.1125
2859.80367	20169.8125
2862.31855	20130.1125
2864.83189	20110.9125
2867.34368	20103.4125
2869.85393	20084.0125
2872.36264	20044.5125
2874.8698	20066.8125
2877.37543	20091.9125
2879.87952	20097.8125
2882.38207	20057.2125
2884.88308	20040.9125
2887.38256	20046.0125
2889.88051	20019.6125
2892.37692	20099.3125
2894.8718	20108.4125
2897.36515	20139.3125
2899.85698	20113.8125
2902.34727	20138.2125
2904.83604	20149.5125
2907.32328	20134.3125
2909.809	20105.4125
2912.29319	20142.2125
2914.77587	20104.8125
2917.25702	20162.6125
2919.73665	20073.9125
2922.21476	20133.3125
2924.69136	20085.3125
2927.16644	20106.0125
2929.64	20030.1125
2932.11205	20027.7125
2934.58258	19961.8125
2937.05161	19966.9125
2939.51912	19975.9125
2941.98513	19912.0125
2944.44962	19887.1125
2946.91261	19800.2125
2949.37409	19882.2125
2951.83407	19822.4125
2954.29254	19810.6125
2956.74951	19744.4125
2959.20498	19712.5125
2961.65895	19655.1125
2964.11142	19693.9125
2966.56239	19639.9125
2969.01186	19602.4125
2971.45984	19537.8125
2973.90632	19499.5125
2976.35131	19492.8125
2978.7948	19438.8125
2981.23681	19358.6125
2983.67732	19292.5125
2986.11635	19199.4125
2988.55388	19152.6125
2990.98993	19111.4125
2993.4245	19074.1125
2995.85758	19020.6125
2998.28917	18969.9125
3000.71928	18977.2125
3003.14791	18905.5125
3005.57506	18874.3125
3008.00073	18833.5125
3010.42493	18794.4125
3012.84764	18775.1125
3015.26888	18773.3125
3017.68865	18700.3125
3020.10694	18663.1125
3022.52376	18588.4125
