Data from AgNPs_FTO_APTES_UA_2uM_CRN_50uM_R6G_10uM_NaF_0.1M_Addition_RamanShift__47__15-31-05-291.txt Node

Date: Wed Feb 02 15:31:05 GMT 2022
User: TCL
Spectrometer: QEP01345
Trigger mode: 4
Integration Time (sec): 7.000000E0
Scans to average: 10
Electric dark correction enabled: true
Nonlinearity correction enabled: false
Boxcar width: 0
XAxis mode: Raman Shifts
Number of Pixels in Spectrum: 1044
>>>>>Begin Spectral Data<<<<<
46.04893	0.9125
50.45542	1.3125
54.85868	-1.4875
59.25871	-0.7875
63.6555	77.6125
68.04907	82.7125
72.43941	85.1125
76.82654	95.8125
81.21044	91.6125
85.59113	104.3125
89.96862	102.4125
94.34289	107.7125
98.71396	110.6125
103.08183	116.8125
107.4465	116.7125
111.80798	123.1125
116.16626	121.0125
120.52136	128.6125
124.87327	132.8125
129.222	136.9125
133.56755	149.2125
137.90993	156.0125
142.24913	172.4125
146.58517	191.1125
150.91804	222.7125
155.24774	264.4125
159.57429	324.8125
163.89768	409.5125
168.21792	540.5125
172.53501	729.0125
176.84895	1019.7125
181.15975	1413.3125
185.46741	1992.4125
189.77193	2740.8125
194.07331	3655.3125
198.37157	4709.6125
202.6667	5807.6125
206.9587	6907.1125
211.24758	7988.9125
215.53334	9049.3125
219.81599	10201.0125
224.09553	11432.5125
228.37195	12778.6125
232.64527	14287.8125
236.91549	15793.9125
241.18261	17367.2125
245.44663	18785.8125
249.70755	20123.3125
253.96539	21261.9125
258.22014	22218.7125
262.4718	23086.5125
266.72039	23660.3125
270.96589	24034.7125
275.20832	24119.8125
279.44768	24140.3125
283.68397	24128.2125
287.91719	24122.0125
292.14735	24179.9125
296.37445	24298.0125
300.59849	24448.2125
304.81948	24590.0125
309.03742	24417.4125
313.25231	24117.3125
317.46415	23476.0125
321.67296	22701.0125
325.87872	22061.9125
330.08145	21730.0125
334.28114	21603.3125
338.47781	21628.4125
342.67145	21820.5125
346.86207	22062.3125
351.04966	22292.3125
355.23424	22552.2125
359.4158	22774.7125
363.59435	22958.2125
367.76989	23061.0125
371.94243	23154.4125
376.11196	23138.9125
380.27849	23161.4125
384.44203	23183.9125
388.60257	23379.7125
392.76012	23707.3125
396.91468	24135.0125
401.06626	24584.4125
405.21485	24792.4125
409.36047	24679.4125
413.50311	24360.8125
417.64277	24158.7125
421.77947	24190.0125
425.9132	24277.5125
430.04396	24478.7125
434.17176	24589.1125
438.2966	24697.2125
442.41849	24990.6125
446.53742	25605.0125
450.6534	26246.1125
454.76644	26801.3125
458.87653	27064.7125
462.98368	27132.5125
467.08789	27058.0125
471.18916	26897.0125
475.2875	26856.7125
479.38291	27017.7125
483.4754	26982.5125
487.56496	26649.6125
491.6516	25919.5125
495.73531	25209.9125
499.81612	24722.4125
503.89401	24636.4125
507.96899	24701.8125
512.04106	24704.7125
516.11023	24549.2125
520.1765	24160.8125
524.23987	23750.1125
528.30034	23365.9125
532.35792	23076.7125
536.41261	22786.1125
540.46441	22645.1125
544.51333	22772.9125
548.55936	23213.5125
552.60252	23884.5125
556.64279	24542.5125
560.6802	25116.4125
564.71473	25604.2125
568.7464	26369.3125
572.7752	27608.1125
576.80114	28977.2125
580.82422	29914.4125
584.84444	30609.8125
588.86181	31128.1125
592.87633	31496.2125
596.888	30841.6125
600.89682	29561.6125
604.9028	29078.9125
608.90594	29936.9125
612.90624	30713.2125
616.90371	28464.9125
620.89834	24551.4125
624.89015	22889.1125
628.87913	22867.6125
632.86528	23132.6125
636.84862	23170.2125
640.82913	22814.8125
644.80683	22252.0125
648.78172	21870.5125
652.75379	21696.4125
656.72306	21800.7125
660.68952	22016.4125
664.65319	21933.4125
668.61405	21666.7125
672.57211	21612.3125
676.52738	21646.3125
680.47986	21687.0125
684.42955	21613.6125
688.37646	21539.3125
692.32058	21617.8125
696.26192	21868.4125
700.20048	22160.7125
704.13626	22389.4125
708.06928	22550.6125
711.99952	22537.4125
715.927	22498.6125
719.85171	22385.7125
723.77365	22174.8125
727.69284	21781.8125
731.60928	21455.1125
735.52295	21292.5125
739.43388	21204.0125
743.34206	21233.0125
747.24749	21384.3125
751.15017	21668.4125
755.05012	22222.3125
758.94733	23049.7125
762.8418	24302.1125
766.73354	26032.5125
770.62254	27433.8125
774.50882	27263.7125
778.39237	25678.0125
782.27321	23938.7125
786.15132	22563.4125
790.02671	21718.5125
793.89938	21271.6125
797.76935	21051.1125
801.6366	20983.5125
805.50115	20944.3125
809.36299	20826.1125
813.22213	20717.4125
817.07857	20729.6125
820.93231	20703.7125
824.78336	20525.4125
828.63172	20316.6125
832.47738	20166.5125
836.32036	20102.6125
840.16066	20086.3125
843.99827	20043.7125
847.8332	20024.0125
851.66546	20008.3125
855.49504	20083.6125
859.32195	20045.5125
863.1462	19939.5125
866.96777	19902.9125
870.78668	19863.9125
874.60293	19808.3125
878.41652	19772.6125
882.22745	19828.2125
886.03573	19864.6125
889.84136	19856.1125
893.64433	19835.9125
897.44466	19785.1125
901.24235	19730.6125
905.0374	19703.5125
908.8298	19675.1125
912.61957	19827.4125
916.40671	20150.0125
920.19121	20597.0125
923.97308	20816.7125
927.75233	20637.6125
931.52895	20215.2125
935.30295	19789.3125
939.07433	19327.4125
942.84309	19021.0125
946.60924	18784.8125
950.37278	18694.4125
954.13371	18703.8125
957.89203	18737.9125
961.64774	18817.6125
965.40086	18825.0125
969.15137	18727.1125
972.89929	18562.9125
976.64461	18424.6125
980.38733	18351.0125
984.12747	18347.7125
987.86502	18387.0125
991.59999	18449.4125
995.33237	18552.7125
999.06217	18774.7125
1002.78939	19048.1125
1006.51404	19333.1125
1010.23611	19650.6125
1013.95561	19890.5125
1017.67255	19941.3125
1021.38692	19808.7125
1025.09872	19578.0125
1028.80796	19337.2125
1032.51465	19276.0125
1036.21877	19384.6125
1039.92035	19486.0125
1043.61937	19632.2125
1047.31584	19717.9125
1051.00976	19815.6125
1054.70114	19940.6125
1058.38998	20223.7125
1062.07627	20591.1125
1065.76003	20988.5125
1069.44126	21400.0125
1073.11995	21720.0125
1076.79611	21969.8125
1080.46974	22018.1125
1084.14085	22077.0125
1087.80943	22270.3125
1091.47549	22534.6125
1095.13903	22686.8125
1098.80005	22429.6125
1102.45857	21794.7125
1106.11456	21085.7125
1109.76805	20722.0125
1113.41903	20655.0125
1117.06751	20749.4125
1120.71348	20976.2125
1124.35696	21241.5125
1127.99793	21566.4125
1131.63641	21825.1125
1135.2724	21805.4125
1138.90589	21813.2125
1142.5369	22016.7125
1146.16542	22381.5125
1149.79145	22870.8125
1153.415	23352.7125
1157.03607	23892.1125
1160.65467	24784.8125
1164.27079	26159.3125
1167.88443	27766.3125
1171.49561	29434.7125
1175.10432	31304.9125
1178.71056	33508.3125
1182.31434	35544.1125
1185.91565	36740.8125
1189.51451	36872.6125
1193.11091	36509.8125
1196.70485	35531.4125
1200.29634	34199.7125
1203.88538	33353.7125
1207.47197	33098.1125
1211.05612	33041.3125
1214.63782	32499.3125
1218.21708	31223.9125
1221.79391	29636.8125
1225.36829	28346.9125
1228.94024	27584.9125
1232.50976	27147.9125
1236.07685	26874.1125
1239.6415	26816.4125
1243.20374	26935.1125
1246.76355	27173.9125
1250.32093	27618.7125
1253.8759	28242.6125
1257.42845	29102.4125
1260.97859	30021.1125
1264.52631	30927.7125
1268.07163	31795.1125
1271.61453	32705.2125
1275.15503	33766.8125
1278.69312	35008.1125
1282.22882	36327.1125
1285.76211	37959.3125
1289.29301	39974.8125
1292.82151	42415.2125
1296.34761	45275.2125
1299.87133	48283.9125
1303.39266	50948.8125
1306.9116	52691.3125
1310.42815	53642.3125
1313.94233	53867.5125
1317.45412	53600.0125
1320.96354	53582.2125
1324.47058	53889.4125
1327.97525	54429.0125
1331.47754	54892.8125
1334.97747	54953.7125
1338.47502	54771.2125
1341.97022	54157.9125
1345.46305	53306.5125
1348.95352	52137.1125
1352.44163	50825.9125
1355.92738	49933.1125
1359.41078	49923.8125
1362.89183	50041.8125
1366.37053	48926.2125
1369.84688	45893.0125
1373.32088	41965.2125
1376.79254	39274.7125
1380.26186	38564.2125
1383.72883	39123.5125
1387.19347	39815.8125
1390.65578	40018.5125
1394.11575	40113.5125
1397.57339	40359.1125
1401.0287	40883.8125
1404.48168	41029.4125
1407.93234	40443.6125
1411.38068	38890.0125
1414.82669	36808.6125
1418.27039	34567.9125
1421.71177	32596.3125
1425.15083	31084.6125
1428.58758	30414.9125
1432.02203	30720.8125
1435.45416	31672.4125
1438.88399	32916.4125
1442.31151	33951.9125
1445.73673	34696.9125
1449.15965	35432.6125
1452.58027	36035.1125
1455.9986	36400.6125
1459.41463	36696.7125
1462.82837	37081.4125
1466.23982	37526.6125
1469.64898	37802.0125
1473.05586	37853.2125
1476.46045	37603.1125
1479.86276	37100.9125
1483.26279	36544.6125
1486.66054	36285.7125
1490.05602	36363.0125
1493.44922	36745.1125
1496.84016	37357.0125
1500.22882	38182.3125
1503.61521	39337.1125
1506.99934	40486.2125
1510.38121	41442.7125
1513.76081	41804.5125
1517.13816	41564.4125
1520.51324	41226.2125
1523.88607	41186.1125
1527.25665	41536.1125
1530.62498	41846.0125
1533.99105	41694.6125
1537.35488	40878.7125
1540.71647	39564.8125
1544.07581	37881.7125
1547.4329	36312.8125
1550.78776	35064.1125
1554.14038	34180.8125
1557.49077	33780.4125
1560.83892	33533.2125
1564.18484	33478.3125
1567.52853	33609.0125
1570.86999	34074.8125
1574.20922	35044.1125
1577.54624	36194.9125
1580.88103	37055.8125
1584.2136	37916.1125
1587.54395	39003.6125
1590.87208	40584.8125
1594.19801	42199.9125
1597.52172	43567.0125
1600.84321	43172.7125
1604.16251	40634.5125
1607.47959	37212.2125
1610.79447	33860.4125
1614.10715	30881.2125
1617.41763	28342.4125
1620.7259	26573.2125
1624.03199	25574.9125
1627.33587	25614.0125
1630.63757	26523.2125
1633.93707	28537.8125
1637.23439	31889.4125
1640.52951	36669.4125
1643.82246	42096.5125
1647.11321	46365.9125
1650.40179	47252.5125
1653.68819	43964.8125
1656.97241	37998.7125
1660.25446	31894.1125
1663.53433	26953.3125
1666.81203	23563.3125
1670.08756	21396.7125
1673.36092	19974.7125
1676.63211	19076.0125
1679.90115	18462.3125
1683.16801	18025.9125
1686.43272	17714.0125
1689.69527	17450.9125
1692.95567	17260.6125
1696.2139	17109.0125
1699.46999	17034.2125
1702.72392	16898.5125
1705.97571	16803.0125
1709.22535	16684.1125
1712.47284	16620.1125
1715.71819	16546.1125
1718.96139	16462.1125
1722.20246	16391.6125
1725.44139	16276.9125
1728.67818	16147.0125
1731.91284	16033.3125
1735.14537	15953.9125
1738.37576	15873.8125
1741.60403	15792.2125
1744.83017	15709.2125
1748.05418	15691.5125
1751.27607	15641.5125
1754.49584	15629.7125
1757.71349	15621.7125
1760.92903	15590.5125
1764.14244	15551.9125
1767.35375	15513.5125
1770.56294	15442.6125
1773.77002	15381.1125
1776.97499	15354.6125
1780.17785	15307.0125
1783.37861	15258.0125
1786.57727	15202.7125
1789.77382	15167.9125
1792.96828	15109.6125
1796.16064	15061.4125
1799.3509	15030.4125
1802.53907	15005.1125
1805.72514	14949.1125
1808.90913	14889.2125
1812.09102	14857.5125
1815.27083	14821.3125
1818.44856	14807.8125
1821.6242	14777.6125
1824.79776	14776.6125
1827.96924	14729.1125
1831.13864	14708.6125
1834.30597	14722.0125
1837.47122	14711.6125
1840.6344	14712.0125
1843.7955	14733.3125
1846.95454	14694.5125
1850.11151	14686.1125
1853.26642	14668.1125
1856.41926	14652.3125
1859.57004	14605.0125
1862.71876	14576.7125
1865.86542	14571.1125
1869.01003	14535.7125
1872.15258	14502.5125
1875.29308	14482.5125
1878.43152	14459.9125
1881.56792	14446.7125
1884.70227	14385.5125
1887.83457	14384.5125
1890.96482	14338.7125
1894.09304	14323.0125
1897.21921	14307.6125
1900.34335	14272.7125
1903.46544	14244.0125
1906.58551	14230.0125
1909.70353	14197.0125
1912.81953	14145.0125
1915.93349	14147.2125
1919.04543	14063.1125
1922.15534	14029.1125
1925.26322	14012.6125
1928.36908	13966.1125
1931.47292	13946.3125
1934.57473	13887.9125
1937.67453	13846.2125
1940.77232	13812.4125
1943.86808	13757.8125
1946.96184	13745.4125
1950.05358	13685.9125
1953.14331	13650.4125
1956.23103	13615.8125
1959.31675	13572.4125
1962.40046	13527.0125
1965.48217	13476.5125
1968.56188	13417.5125
1971.63959	13352.6125
1974.7153	13340.0125
1977.78901	13295.1125
1980.86073	13264.8125
1983.93046	13188.0125
1986.99819	13121.7125
1990.06394	13108.7125
1993.1277	13062.8125
1996.18947	13005.6125
1999.24925	12959.4125
2002.30706	12905.2125
2005.36288	12873.3125
2008.41672	12849.3125
2011.46859	12798.4125
2014.51848	12746.2125
2017.56639	12724.8125
2020.61233	12660.0125
2023.6563	12657.9125
2026.6983	12611.9125
2029.73833	12551.4125
2032.7764	12569.3125
2035.8125	12508.9125
2038.84664	12488.2125
2041.87881	12471.2125
2044.90903	12441.6125
2047.93729	12422.6125
2050.96359	12414.4125
2053.98794	12376.2125
2057.01034	12395.1125
2060.03078	12365.6125
2063.04927	12338.9125
2066.06582	12316.3125
2069.08042	12322.9125
2072.09307	12321.6125
2075.10378	12275.9125
2078.11255	12256.5125
2081.11938	12253.4125
2084.12426	12255.1125
2087.12722	12240.8125
2090.12824	12251.0125
2093.12732	12237.4125
2096.12447	12241.0125
2099.11969	12262.5125
2102.11299	12254.8125
2105.10435	12236.2125
2108.09379	12249.0125
2111.08131	12246.4125
2114.0669	12237.3125
2117.05057	12233.9125
2120.03233	12262.1125
2123.01216	12261.6125
2125.99008	12264.4125
2128.96609	12235.7125
2131.94018	12226.0125
2134.91236	12237.1125
2137.88263	12221.1125
2140.851	12216.0125
2143.81746	12229.1125
2146.78201	12209.9125
2149.74466	12252.5125
2152.7054	12188.9125
2155.66425	12194.0125
2158.6212	12196.7125
2161.57625	12202.3125
2164.52941	12168.3125
2167.48067	12146.9125
2170.43004	12156.9125
2173.37752	12126.1125
2176.32311	12128.2125
2179.26681	12133.1125
2182.20863	12122.4125
2185.14856	12117.9125
2188.08661	12096.8125
2191.02278	12099.1125
2193.95707	12081.9125
2196.88948	12070.3125
2199.82001	12057.8125
2202.74867	12015.3125
2205.67545	12004.3125
2208.60037	12006.5125
2211.52341	11962.3125
2214.44458	11948.8125
2217.36388	11917.9125
2220.28132	11923.1125
2223.1969	11883.7125
2226.11061	11860.2125
2229.02246	11834.0125
2231.93245	11850.7125
2234.84058	11773.8125
2237.74686	11763.1125
2240.65128	11751.7125
2243.55385	11733.6125
2246.45456	11723.9125
2249.35343	11694.1125
2252.25044	11664.6125
2255.14561	11614.9125
2258.03893	11616.7125
2260.93041	11573.6125
2263.82004	11514.6125
2266.70783	11524.5125
2269.59378	11439.7125
2272.4779	11411.3125
2275.36017	11384.0125
2278.24061	11370.9125
2281.11922	11321.9125
2283.996	11300.0125
2286.87094	11302.8125
2289.74405	11267.6125
2292.61534	11248.8125
2295.4848	11245.4125
2298.35243	11227.7125
2301.21824	11223.4125
2304.08223	11223.3125
2306.94439	11218.8125
2309.80474	11179.8125
2312.66327	11183.8125
2315.51999	11166.1125
2318.37489	11133.4125
2321.22797	11139.3125
2324.07925	11129.1125
2326.92871	11103.5125
2329.77637	11092.4125
2332.62222	11078.0125
2335.46626	11079.7125
2338.3085	11047.1125
2341.14893	11054.5125
2343.98756	11043.0125
2346.8244	11021.1125
2349.65943	11028.9125
2352.49267	11040.2125
2355.32411	11017.5125
2358.15376	11013.3125
2360.98161	11034.4125
2363.80768	10997.0125
2366.63195	10999.4125
2369.45444	11003.9125
2372.27514	10947.5125
2375.09405	10953.6125
2377.91118	10933.8125
2380.72652	10917.6125
2383.54009	10878.4125
2386.35187	10840.0125
2389.16188	10821.3125
2391.97011	10783.7125
2394.77657	10792.3125
2397.58125	10753.3125
2400.38416	10745.8125
2403.18529	10732.2125
2405.98466	10718.0125
2408.78226	10686.8125
2411.57809	10675.6125
2414.37216	10658.9125
2417.16446	10664.0125
2419.955	10665.6125
2422.74378	10655.2125
2425.5308	10644.0125
2428.31606	10625.2125
2431.09956	10621.4125
2433.88131	10611.7125
2436.6613	10622.8125
2439.43954	10585.3125
2442.21603	10560.0125
2444.99077	10535.7125
2447.76377	10564.9125
2450.53501	10547.0125
2453.30451	10562.8125
2456.07226	10531.9125
2458.83827	10530.2125
2461.60254	10539.3125
2464.36507	10532.8125
2467.12586	10515.1125
2469.88492	10524.6125
2472.64224	10512.3125
2475.39782	10523.3125
2478.15167	10513.7125
2480.90379	10497.6125
2483.65417	10523.2125
2486.40283	10514.4125
2489.14976	10522.3125
2491.89497	10499.6125
2494.63845	10537.3125
2497.3802	10503.9125
2500.12024	10483.3125
2502.85855	10495.4125
2505.59514	10487.9125
2508.33002	10475.1125
2511.06318	10488.1125
2513.79462	10468.5125
2516.52435	10472.1125
2519.25237	10457.4125
2521.97867	10449.3125
2524.70327	10435.3125
2527.42616	10439.2125
2530.14734	10437.8125
2532.86681	10392.3125
2535.58458	10404.3125
2538.30065	10404.3125
2541.01501	10376.6125
2543.72768	10366.4125
2546.43864	10329.9125
2549.14791	10318.0125
2551.85548	10335.4125
2554.56136	10313.8125
2557.26554	10312.5125
2559.96803	10259.9125
2562.66883	10304.2125
2565.36794	10270.8125
2568.06536	10285.9125
2570.7611	10275.1125
2573.45514	10237.8125
2576.14751	10239.0125
2578.83819	10235.0125
2581.52719	10222.8125
2584.21451	10204.9125
2586.90015	10210.2125
2589.58411	10195.8125
2592.2664	10192.2125
2594.94701	10175.2125
2597.62594	10175.2125
2600.30321	10191.0125
2602.9788	10157.2125
2605.65273	10155.3125
2608.32498	10152.7125
2610.99557	10141.8125
2613.66449	10174.0125
2616.33175	10159.0125
2618.99734	10151.1125
2621.66128	10146.2125
2624.32355	10134.3125
2626.98416	10140.8125
2629.64311	10124.3125
2632.30041	10095.8125
2634.95605	10109.9125
2637.61004	10106.8125
2640.26238	10077.4125
2642.91306	10094.7125
2645.56209	10096.3125
2648.20948	10086.9125
2650.85521	10102.8125
2653.4993	10070.0125
2656.14175	10108.4125
2658.78255	10115.4125
2661.42171	10116.4125
2664.05923	10139.9125
2666.6951	10154.3125
2669.32934	10133.0125
2671.96194	10113.0125
2674.59291	10119.6125
2677.22224	10128.9125
2679.84993	10138.0125
2682.476	10096.7125
2685.10043	10132.5125
2687.72324	10112.5125
2690.34441	10097.1125
2692.96396	10099.0125
2695.58188	10117.0125
2698.19818	10094.4125
2700.81285	10103.1125
2703.4259	10141.1125
2706.03733	10177.7125
2708.64714	10131.0125
2711.25533	10144.4125
2713.86191	10129.8125
2716.46687	10145.2125
2719.07021	10148.1125
2721.67194	10179.5125
2724.27206	10161.7125
2726.87057	10180.1125
2729.46747	10182.9125
2732.06276	10181.1125
2734.65644	10152.2125
2737.24852	10162.0125
2739.83899	10169.7125
2742.42786	10161.8125
2745.01513	10139.6125
2747.60079	10133.1125
2750.18486	10116.4125
2752.76733	10118.6125
2755.3482	10134.1125
2757.92747	10136.9125
2760.50515	10136.1125
2763.08123	10148.6125
2765.65573	10129.0125
2768.22863	10133.5125
2770.79994	10105.2125
2773.36967	10101.8125
2775.9378	10111.6125
2778.50435	10086.5125
2781.06932	10091.5125
2783.6327	10076.9125
2786.1945	10083.5125
2788.75471	10074.0125
2791.31335	10029.9125
2793.87041	10042.4125
2796.42589	10038.1125
2798.97979	10014.4125
2801.53212	10018.3125
2804.08288	10008.8125
2806.63206	9948.7125
2809.17967	9965.2125
2811.72571	9943.8125
2814.27018	9911.0125
2816.81308	9897.9125
2819.35442	9874.1125
2821.89419	9867.0125
2824.43239	9875.2125
2826.96904	9829.7125
2829.50412	9849.1125
2832.03763	9831.4125
2834.56959	9835.7125
2837.1	9819.7125
2839.62884	9819.6125
2842.15613	9839.1125
2844.68186	9861.3125
2847.20604	9902.3125
2849.72867	9898.9125
2852.24974	9928.8125
2854.76927	9897.5125
2857.28724	9884.0125
2859.80367	9871.0125
2862.31855	9834.6125
2864.83189	9816.1125
2867.34368	9835.0125
2869.85393	9813.1125
2872.36264	9792.0125
2874.8698	9797.2125
2877.37543	9804.3125
2879.87952	9772.6125
2882.38207	9764.4125
2884.88308	9759.9125
2887.38256	9760.7125
2889.88051	9770.0125
2892.37692	9758.1125
2894.8718	9781.4125
2897.36515	9785.3125
2899.85698	9776.7125
2902.34727	9793.1125
2904.83604	9785.2125
2907.32328	9827.2125
2909.809	9786.2125
2912.29319	9791.9125
2914.77587	9806.8125
2917.25702	9785.1125
2919.73665	9782.6125
2922.21476	9790.1125
2924.69136	9777.7125
2927.16644	9809.7125
2929.64	9802.2125
2932.11205	9789.0125
2934.58258	9757.0125
2937.05161	9775.5125
2939.51912	9769.6125
2941.98513	9742.4125
2944.44962	9711.1125
2946.91261	9644.4125
2949.37409	9643.3125
2951.83407	9618.4125
2954.29254	9600.3125
2956.74951	9589.0125
2959.20498	9610.2125
2961.65895	9553.6125
2964.11142	9547.2125
2966.56239	9526.1125
2969.01186	9521.5125
2971.45984	9493.1125
2973.90632	9488.5125
2976.35131	9435.1125
2978.7948	9394.4125
2981.23681	9388.8125
2983.67732	9358.4125
2986.11635	9352.7125
2988.55388	9328.1125
2990.98993	9297.0125
2993.4245	9282.7125
2995.85758	9240.3125
2998.28917	9209.6125
3000.71928	9200.7125
3003.14791	9166.1125
3005.57506	9150.9125
3008.00073	9072.9125
3010.42493	9094.7125
3012.84764	9078.0125
3015.26888	9072.2125
3017.68865	9037.9125
3020.10694	9033.3125
3022.52376	9007.7125
3024.9391	8992.0125
3027.35298	8982.6125
3029.76539	8965.2125
3032.17632	8963.1125
3034.5858	8954.7125
