Data from AgNPs_FTO_APTES_UA_2uM_CRN_5uM_R6G_10uM_NaF_0.1M_Addition_RamanShift__26__13-08-45-125.txt Node

Date: Wed Feb 02 13:08:45 GMT 2022
User: TCL
Spectrometer: QEP01345
Trigger mode: 4
Integration Time (sec): 7.000000E0
Scans to average: 10
Electric dark correction enabled: true
Nonlinearity correction enabled: false
Boxcar width: 0
XAxis mode: Raman Shifts
Number of Pixels in Spectrum: 1044
>>>>>Begin Spectral Data<<<<<
46.04893	0.1125
50.45542	0.7125
54.85868	-0.5875
59.25871	-0.2875
63.6555	69.4125
68.04907	68.5125
72.43941	73.8125
76.82654	79.9125
81.21044	82.4125
85.59113	88.0125
89.96862	93.6125
94.34289	92.0125
98.71396	94.4125
103.08183	100.5125
107.4465	102.1125
111.80798	106.5125
116.16626	107.9125
120.52136	115.7125
124.87327	117.8125
129.222	126.2125
133.56755	137.6125
137.90993	150.6125
142.24913	165.7125
146.58517	188.6125
150.91804	220.9125
155.24774	269.0125
159.57429	338.5125
163.89768	434.2125
168.21792	583.6125
172.53501	806.8125
176.84895	1117.9125
181.15975	1575.8125
185.46741	2203.4125
189.77193	3034.5125
194.07331	4066.6125
198.37157	5231.2125
202.6667	6440.8125
206.9587	7677.9125
211.24758	8879.4125
215.53334	10137.4125
219.81599	11542.7125
224.09553	13113.1125
228.37195	14835.9125
232.64527	16730.0125
236.91549	18659.2125
241.18261	20392.3125
245.44663	21905.3125
249.70755	23168.4125
253.96539	24266.3125
258.22014	25292.4125
262.4718	26218.4125
266.72039	26928.8125
270.96589	27387.5125
275.20832	27534.1125
279.44768	27472.9125
283.68397	27268.9125
287.91719	27230.0125
292.14735	27367.7125
296.37445	27758.8125
300.59849	28417.8125
304.81948	29042.2125
309.03742	29485.9125
313.25231	29183.0125
317.46415	27935.5125
321.67296	26081.1125
325.87872	24537.0125
330.08145	23718.3125
334.28114	23630.9125
338.47781	23890.3125
342.67145	24449.7125
346.86207	25315.8125
351.04966	26541.1125
355.23424	27917.6125
359.4158	28944.5125
363.59435	29427.5125
367.76989	29568.8125
371.94243	29550.4125
376.11196	29384.7125
380.27849	29241.1125
384.44203	29006.9125
388.60257	28781.8125
392.76012	28776.2125
396.91468	29174.8125
401.06626	29908.1125
405.21485	30481.9125
409.36047	30003.7125
413.50311	28718.2125
417.64277	27608.6125
421.77947	27076.3125
425.9132	26937.9125
430.04396	26967.8125
434.17176	27058.4125
438.2966	27367.8125
442.41849	27922.5125
446.53742	28690.2125
450.6534	29517.5125
454.76644	30207.6125
458.87653	30379.6125
462.98368	30217.8125
467.08789	29892.7125
471.18916	29286.3125
475.2875	28653.6125
479.38291	28214.6125
483.4754	27822.3125
487.56496	27392.5125
491.6516	27035.0125
495.73531	26796.4125
499.81612	26810.9125
503.89401	27003.0125
507.96899	27206.3125
512.04106	27377.5125
516.11023	27453.8125
520.1765	27492.7125
524.23987	27251.4125
528.30034	26784.0125
532.35792	26289.5125
536.41261	25769.9125
540.46441	25308.3125
544.51333	25191.2125
548.55936	25553.4125
552.60252	26317.5125
556.64279	27135.3125
560.6802	27590.8125
564.71473	27974.9125
568.7464	28951.0125
572.7752	29815.3125
576.80114	29577.6125
580.82422	29070.4125
584.84444	28837.5125
588.86181	28727.2125
592.87633	28737.0125
596.888	28995.8125
600.89682	29829.7125
604.9028	32727.0125
608.90594	39829.2125
612.90624	48588.8125
616.90371	46012.1125
620.89834	33455.1125
624.89015	27623.4125
628.87913	26629.9125
632.86528	26753.9125
636.84862	26915.2125
640.82913	26412.7125
644.80683	25273.9125
648.78172	24486.2125
652.75379	24465.6125
656.72306	25358.1125
660.68952	26434.2125
664.65319	26321.2125
668.61405	25286.2125
672.57211	24754.2125
676.52738	24730.3125
680.47986	24691.2125
684.42955	24487.0125
688.37646	24374.7125
692.32058	24529.0125
696.26192	24765.1125
700.20048	25174.0125
704.13626	25425.6125
708.06928	25420.7125
711.99952	25176.2125
715.927	25013.1125
719.85171	25029.4125
723.77365	24906.4125
727.69284	24609.4125
731.60928	24305.9125
735.52295	24218.0125
739.43388	24257.3125
743.34206	24462.4125
747.24749	24622.1125
751.15017	24942.7125
755.05012	25580.3125
758.94733	26802.8125
762.8418	29449.0125
766.73354	33865.6125
770.62254	38298.1125
774.50882	39935.9125
778.39237	37496.1125
782.27321	32826.2125
786.15132	28588.7125
790.02671	26098.1125
793.89938	24990.0125
797.76935	24513.1125
801.6366	24305.7125
805.50115	24116.5125
809.36299	23927.1125
813.22213	23783.1125
817.07857	23709.8125
820.93231	23755.4125
824.78336	23726.3125
828.63172	23802.2125
832.47738	23859.2125
836.32036	23865.2125
840.16066	23775.0125
843.99827	23757.0125
847.8332	23656.8125
851.66546	23569.9125
855.49504	23537.5125
859.32195	23443.5125
863.1462	23298.2125
866.96777	23170.3125
870.78668	23115.9125
874.60293	23167.9125
878.41652	23228.0125
882.22745	23354.0125
886.03573	23484.5125
889.84136	23384.6125
893.64433	23295.5125
897.44466	23172.3125
901.24235	23151.5125
905.0374	23104.5125
908.8298	23099.9125
912.61957	23134.8125
916.40671	23324.8125
920.19121	23686.1125
923.97308	24025.4125
927.75233	24188.6125
931.52895	24256.2125
935.30295	23894.3125
939.07433	23234.9125
942.84309	22655.2125
946.60924	22340.0125
950.37278	22191.3125
954.13371	22036.0125
957.89203	21932.8125
961.64774	21876.4125
965.40086	21802.7125
969.15137	21724.3125
972.89929	21673.5125
976.64461	21636.5125
980.38733	21658.8125
984.12747	21722.3125
987.86502	21905.6125
991.59999	22139.9125
995.33237	22554.5125
999.06217	23245.2125
1002.78939	24113.9125
1006.51404	24882.7125
1010.23611	25495.1125
1013.95561	25827.1125
1017.67255	25801.2125
1021.38692	25415.6125
1025.09872	25057.6125
1028.80796	24992.6125
1032.51465	25417.2125
1036.21877	25944.7125
1039.92035	26118.9125
1043.61937	25849.8125
1047.31584	25366.7125
1051.00976	24816.2125
1054.70114	24554.2125
1058.38998	24495.6125
1062.07627	24671.0125
1065.76003	24911.2125
1069.44126	25164.2125
1073.11995	25430.8125
1076.79611	25736.4125
1080.46974	26022.2125
1084.14085	26477.8125
1087.80943	27081.7125
1091.47549	27393.3125
1095.13903	27129.5125
1098.80005	26361.6125
1102.45857	25566.4125
1106.11456	25094.8125
1109.76805	25011.7125
1113.41903	25320.0125
1117.06751	25865.3125
1120.71348	26627.5125
1124.35696	27472.0125
1127.99793	28273.5125
1131.63641	28405.8125
1135.2724	27565.5125
1138.90589	26636.2125
1142.5369	26092.9125
1146.16542	25820.7125
1149.79145	25661.6125
1153.415	25792.8125
1157.03607	26193.2125
1160.65467	26855.8125
1164.27079	28024.4125
1167.88443	29683.2125
1171.49561	32085.7125
1175.10432	35848.8125
1178.71056	40631.2125
1182.31434	44573.0125
1185.91565	46320.5125
1189.51451	45936.2125
1193.11091	43799.6125
1196.70485	40780.3125
1200.29634	38153.1125
1203.88538	35932.0125
1207.47197	33867.2125
1211.05612	32199.4125
1214.63782	31298.5125
1218.21708	31031.1125
1221.79391	31076.0125
1225.36829	31246.2125
1228.94024	31354.1125
1232.50976	31459.4125
1236.07685	31450.2125
1239.6415	31325.1125
1243.20374	31066.3125
1246.76355	31072.8125
1250.32093	31390.6125
1253.8759	32156.2125
1257.42845	33290.5125
1260.97859	34460.8125
1264.52631	35504.1125
1268.07163	36578.3125
1271.61453	37703.7125
1275.15503	38858.4125
1278.69312	39628.9125
1282.22882	40353.6125
1285.76211	41318.3125
1289.29301	42542.2125
1292.82151	43857.1125
1296.34761	45355.3125
1299.87133	47360.1125
1303.39266	50555.7125
1306.9116	55313.3125
1310.42815	60976.6125
1313.94233	65076.6125
1317.45412	65704.8125
1320.96354	63761.9125
1324.47058	60932.0125
1327.97525	57923.1125
1331.47754	55919.4125
1334.97747	54972.4125
1338.47502	54801.1125
1341.97022	55064.4125
1345.46305	55310.6125
1348.95352	55534.7125
1352.44163	56492.6125
1355.92738	59133.6125
1359.41078	64621.4125
1362.89183	70739.8125
1366.37053	69848.7125
1369.84688	61340.8125
1373.32088	52124.9125
1376.79254	46228.5125
1380.26186	43533.9125
1383.72883	42415.9125
1387.19347	41419.4125
1390.65578	40310.4125
1394.11575	39744.3125
1397.57339	39805.5125
1401.0287	40484.5125
1404.48168	41463.6125
1407.93234	42224.0125
1411.38068	42448.2125
1414.82669	41887.7125
1418.27039	40539.3125
1421.71177	38921.2125
1425.15083	37595.4125
1428.58758	36666.0125
1432.02203	36378.7125
1435.45416	36660.7125
1438.88399	37041.7125
1442.31151	37394.6125
1445.73673	37836.9125
1449.15965	38296.4125
1452.58027	38537.7125
1455.9986	38502.9125
1459.41463	38697.5125
1462.82837	39238.4125
1466.23982	39938.7125
1469.64898	40808.9125
1473.05586	41399.3125
1476.46045	41628.9125
1479.86276	41879.1125
1483.26279	42242.9125
1486.66054	42711.5125
1490.05602	43519.3125
1493.44922	44661.9125
1496.84016	46203.3125
1500.22882	48582.4125
1503.61521	51994.7125
1506.99934	56325.6125
1510.38121	60896.7125
1513.76081	63778.6125
1517.13816	62550.9125
1520.51324	57607.7125
1523.88607	51969.2125
1527.25665	47640.0125
1530.62498	45107.9125
1533.99105	43422.9125
1537.35488	42334.1125
1540.71647	41615.3125
1544.07581	41036.8125
1547.4329	40449.0125
1550.78776	39999.2125
1554.14038	39760.0125
1557.49077	40027.8125
1560.83892	40574.9125
1564.18484	41234.8125
1567.52853	41690.9125
1570.86999	41971.1125
1574.20922	42244.1125
1577.54624	42208.6125
1580.88103	41267.9125
1584.2136	39939.8125
1587.54395	39980.7125
1590.87208	41466.0125
1594.19801	44099.3125
1597.52172	46931.0125
1600.84321	47966.2125
1604.16251	46003.9125
1607.47959	42589.0125
1610.79447	38940.3125
1614.10715	35562.6125
1617.41763	32808.6125
1620.7259	30948.3125
1624.03199	30011.6125
1627.33587	30074.1125
1630.63757	30968.8125
1633.93707	32871.7125
1637.23439	35737.3125
1640.52951	39507.5125
1643.82246	43835.3125
1647.11321	47886.0125
1650.40179	50219.5125
1653.68819	48530.2125
1656.97241	42641.3125
1660.25446	35787.2125
1663.53433	30651.8125
1666.81203	27390.2125
1670.08756	25381.6125
1673.36092	24167.0125
1676.63211	23384.3125
1679.90115	22834.0125
1683.16801	22439.5125
1686.43272	22149.9125
1689.69527	21958.3125
1692.95567	21784.6125
1696.2139	21696.7125
1699.46999	21625.4125
1702.72392	21522.8125
1705.97571	21460.0125
1709.22535	21380.8125
1712.47284	21419.8125
1715.71819	21383.6125
1718.96139	21369.7125
1722.20246	21308.6125
1725.44139	21208.9125
1728.67818	21080.9125
1731.91284	20921.6125
1735.14537	20828.0125
1738.37576	20715.2125
1741.60403	20662.8125
1744.83017	20549.6125
1748.05418	20523.5125
1751.27607	20522.6125
1754.49584	20440.8125
1757.71349	20425.6125
1760.92903	20402.1125
1764.14244	20364.9125
1767.35375	20370.3125
1770.56294	20300.3125
1773.77002	20246.5125
1776.97499	20198.9125
1780.17785	20154.2125
1783.37861	20138.9125
1786.57727	20074.3125
1789.77382	20097.6125
1792.96828	20046.0125
1796.16064	19977.2125
1799.3509	19934.8125
1802.53907	19888.8125
1805.72514	19853.7125
1808.90913	19838.3125
1812.09102	19804.4125
1815.27083	19777.1125
1818.44856	19757.5125
1821.6242	19726.4125
1824.79776	19705.3125
1827.96924	19694.8125
1831.13864	19729.4125
1834.30597	19721.4125
1837.47122	19687.7125
1840.6344	19675.3125
1843.7955	19698.4125
1846.95454	19695.3125
1850.11151	19681.6125
1853.26642	19698.3125
1856.41926	19723.6125
1859.57004	19763.0125
1862.71876	19785.4125
1865.86542	19817.5125
1869.01003	19816.1125
1872.15258	19840.5125
1875.29308	19881.3125
1878.43152	19896.7125
1881.56792	19921.6125
1884.70227	19954.6125
1887.83457	19976.8125
1890.96482	20029.5125
1894.09304	20039.9125
1897.21921	20076.7125
1900.34335	20080.6125
1903.46544	20110.1125
1906.58551	20104.6125
1909.70353	20129.8125
1912.81953	20130.8125
1915.93349	20122.2125
1919.04543	20093.9125
1922.15534	20039.0125
1925.26322	20032.8125
1928.36908	19929.6125
1931.47292	19825.8125
1934.57473	19676.3125
1937.67453	19509.4125
1940.77232	19402.5125
1943.86808	19289.8125
1946.96184	19151.6125
1950.05358	19094.0125
1953.14331	19008.3125
1956.23103	18899.0125
1959.31675	18848.1125
1962.40046	18726.4125
1965.48217	18687.4125
1968.56188	18624.7125
1971.63959	18560.1125
1974.7153	18539.0125
1977.78901	18470.0125
1980.86073	18414.5125
1983.93046	18351.4125
1986.99819	18225.9125
1990.06394	18133.2125
1993.1277	18121.4125
1996.18947	18087.0125
1999.24925	18067.9125
2002.30706	17957.2125
2005.36288	17900.0125
2008.41672	17874.0125
2011.46859	17806.8125
2014.51848	17767.2125
2017.56639	17720.2125
2020.61233	17687.1125
2023.6563	17656.6125
2026.6983	17620.0125
2029.73833	17568.9125
2032.7764	17531.9125
2035.8125	17509.6125
2038.84664	17470.8125
2041.87881	17444.5125
2044.90903	17424.9125
2047.93729	17395.8125
2050.96359	17379.3125
2053.98794	17313.9125
2057.01034	17324.2125
2060.03078	17308.7125
2063.04927	17291.3125
2066.06582	17294.9125
2069.08042	17283.3125
2072.09307	17212.5125
2075.10378	17212.5125
2078.11255	17241.6125
2081.11938	17218.6125
2084.12426	17148.9125
2087.12722	17227.2125
2090.12824	17162.8125
2093.12732	17132.9125
2096.12447	17142.3125
2099.11969	17138.1125
2102.11299	17194.5125
2105.10435	17186.4125
2108.09379	17156.9125
2111.08131	17196.3125
2114.0669	17131.4125
2117.05057	17161.4125
2120.03233	17198.7125
2123.01216	17227.3125
2125.99008	17197.0125
2128.96609	17222.5125
2131.94018	17252.7125
2134.91236	17238.4125
2137.88263	17233.3125
2140.851	17226.7125
2143.81746	17260.5125
2146.78201	17240.7125
2149.74466	17230.6125
2152.7054	17267.1125
2155.66425	17261.4125
2158.6212	17260.9125
2161.57625	17306.8125
2164.52941	17278.6125
2167.48067	17198.8125
2170.43004	17193.9125
2173.37752	17208.9125
2176.32311	17231.7125
2179.26681	17243.1125
2182.20863	17233.9125
2185.14856	17262.0125
2188.08661	17217.8125
2191.02278	17236.4125
2193.95707	17219.2125
2196.88948	17224.6125
2199.82001	17194.8125
2202.74867	17199.9125
2205.67545	17222.5125
2208.60037	17163.7125
2211.52341	17170.7125
2214.44458	17133.8125
2217.36388	17126.6125
2220.28132	17117.8125
2223.1969	17056.0125
2226.11061	17046.2125
2229.02246	16969.6125
2231.93245	16992.2125
2234.84058	16941.6125
2237.74686	16922.5125
2240.65128	16918.9125
2243.55385	16850.7125
2246.45456	16844.9125
2249.35343	16851.2125
2252.25044	16819.5125
2255.14561	16781.9125
2258.03893	16763.7125
2260.93041	16732.2125
2263.82004	16695.7125
2266.70783	16700.2125
2269.59378	16606.4125
2272.4779	16575.0125
2275.36017	16521.9125
2278.24061	16515.0125
2281.11922	16473.8125
2283.996	16481.4125
2286.87094	16473.5125
2289.74405	16413.5125
2292.61534	16375.4125
2295.4848	16376.9125
2298.35243	16364.2125
2301.21824	16349.8125
2304.08223	16350.8125
2306.94439	16368.7125
2309.80474	16378.6125
2312.66327	16376.6125
2315.51999	16357.8125
2318.37489	16376.3125
2321.22797	16363.9125
2324.07925	16339.3125
2326.92871	16360.1125
2329.77637	16354.0125
2332.62222	16341.5125
2335.46626	16332.8125
2338.3085	16330.8125
2341.14893	16331.5125
2343.98756	16309.8125
2346.8244	16332.0125
2349.65943	16339.5125
2352.49267	16339.4125
2355.32411	16373.9125
2358.15376	16380.1125
2360.98161	16379.6125
2363.80768	16382.8125
2366.63195	16336.9125
2369.45444	16332.3125
2372.27514	16300.3125
2375.09405	16247.8125
2377.91118	16193.3125
2380.72652	16186.3125
2383.54009	16102.2125
2386.35187	16071.8125
2389.16188	16035.3125
2391.97011	16024.3125
2394.77657	15976.1125
2397.58125	15940.5125
2400.38416	15960.9125
2403.18529	15875.0125
2405.98466	15858.2125
2408.78226	15803.2125
2411.57809	15803.5125
2414.37216	15816.1125
2417.16446	15782.1125
2419.955	15763.1125
2422.74378	15778.0125
2425.5308	15692.0125
2428.31606	15744.3125
2431.09956	15714.0125
2433.88131	15705.5125
2436.6613	15707.0125
2439.43954	15710.5125
2442.21603	15675.2125
2444.99077	15676.2125
2447.76377	15679.4125
2450.53501	15666.0125
2453.30451	15683.0125
2456.07226	15660.0125
2458.83827	15700.7125
2461.60254	15647.1125
2464.36507	15638.3125
2467.12586	15657.7125
2469.88492	15649.8125
2472.64224	15672.8125
2475.39782	15689.1125
2478.15167	15695.5125
2480.90379	15693.6125
2483.65417	15702.8125
2486.40283	15711.2125
2489.14976	15732.8125
2491.89497	15744.3125
2494.63845	15787.1125
2497.3802	15776.0125
2500.12024	15765.0125
2502.85855	15788.0125
2505.59514	15782.6125
2508.33002	15751.0125
2511.06318	15709.7125
2513.79462	15682.4125
2516.52435	15627.4125
2519.25237	15601.8125
2521.97867	15554.5125
2524.70327	15550.9125
2527.42616	15520.7125
2530.14734	15553.1125
2532.86681	15498.4125
2535.58458	15487.8125
2538.30065	15482.3125
2541.01501	15510.5125
2543.72768	15487.1125
2546.43864	15472.7125
2549.14791	15462.4125
2551.85548	15437.5125
2554.56136	15420.1125
2557.26554	15462.6125
2559.96803	15410.1125
2562.66883	15414.1125
2565.36794	15362.6125
2568.06536	15366.5125
2570.7611	15354.3125
2573.45514	15337.3125
2576.14751	15322.6125
2578.83819	15291.2125
2581.52719	15291.1125
2584.21451	15290.3125
2586.90015	15285.8125
2589.58411	15281.6125
2592.2664	15267.1125
2594.94701	15270.3125
2597.62594	15266.6125
2600.30321	15262.0125
2602.9788	15235.7125
2605.65273	15217.9125
2608.32498	15206.7125
2610.99557	15225.9125
2613.66449	15232.1125
2616.33175	15231.5125
2618.99734	15238.5125
2621.66128	15258.4125
2624.32355	15266.5125
2626.98416	15229.4125
2629.64311	15254.1125
2632.30041	15250.1125
2634.95605	15227.3125
2637.61004	15207.9125
2640.26238	15174.5125
2642.91306	15180.0125
2645.56209	15158.6125
2648.20948	15147.5125
2650.85521	15120.2125
2653.4993	15130.8125
2656.14175	15109.6125
2658.78255	15139.5125
2661.42171	15101.2125
2664.05923	15121.5125
2666.6951	15131.1125
2669.32934	15161.3125
2671.96194	15202.4125
2674.59291	15211.9125
2677.22224	15189.3125
2679.84993	15210.4125
2682.476	15202.4125
2685.10043	15169.0125
2687.72324	15152.9125
2690.34441	15153.9125
2692.96396	15168.1125
2695.58188	15189.3125
2698.19818	15191.8125
2700.81285	15182.0125
2703.4259	15149.8125
2706.03733	15190.8125
2708.64714	15155.1125
2711.25533	15150.9125
2713.86191	15136.0125
2716.46687	15214.9125
2719.07021	15186.2125
2721.67194	15174.6125
2724.27206	15181.2125
2726.87057	15187.8125
2729.46747	15194.2125
2732.06276	15184.1125
2734.65644	15170.0125
2737.24852	15171.1125
2739.83899	15183.4125
2742.42786	15181.4125
2745.01513	15127.7125
2747.60079	15131.1125
2750.18486	15098.2125
2752.76733	15136.8125
2755.3482	15093.6125
2757.92747	15130.2125
2760.50515	15109.8125
2763.08123	15090.8125
2765.65573	15088.4125
2768.22863	15056.7125
2770.79994	15037.8125
2773.36967	15030.2125
2775.9378	15020.2125
2778.50435	15032.6125
2781.06932	15025.1125
2783.6327	15002.1125
2786.1945	15005.6125
2788.75471	14973.4125
2791.31335	14935.8125
2793.87041	14960.8125
2796.42589	14941.8125
2798.97979	14951.3125
2801.53212	14901.0125
2804.08288	14928.3125
2806.63206	14830.3125
2809.17967	14824.3125
2811.72571	14799.9125
2814.27018	14773.8125
2816.81308	14788.4125
2819.35442	14762.3125
2821.89419	14759.5125
2824.43239	14798.1125
2826.96904	14784.4125
2829.50412	14766.8125
2832.03763	14734.1125
2834.56959	14780.8125
2837.1	14760.0125
2839.62884	14778.9125
2842.15613	14788.6125
2844.68186	14799.2125
2847.20604	14849.8125
2849.72867	14902.1125
2852.24974	14891.1125
2854.76927	14859.5125
2857.28724	14880.8125
2859.80367	14831.0125
2862.31855	14806.4125
2864.83189	14777.6125
2867.34368	14747.7125
2869.85393	14791.7125
2872.36264	14751.1125
2874.8698	14769.7125
2877.37543	14782.6125
2879.87952	14782.7125
2882.38207	14744.8125
2884.88308	14711.9125
2887.38256	14733.7125
2889.88051	14708.9125
2892.37692	14745.2125
2894.8718	14746.6125
2897.36515	14771.5125
2899.85698	14748.0125
2902.34727	14774.2125
2904.83604	14783.2125
2907.32328	14811.5125
2909.809	14783.5125
2912.29319	14784.7125
2914.77587	14798.0125
2917.25702	14817.6125
2919.73665	14774.6125
2922.21476	14771.4125
2924.69136	14781.2125
2927.16644	14771.0125
2929.64	14737.3125
2932.11205	14682.8125
2934.58258	14641.2125
2937.05161	14666.6125
2939.51912	14634.3125
2941.98513	14584.8125
2944.44962	14550.3125
2946.91261	14477.1125
2949.37409	14501.9125
2951.83407	14494.2125
2954.29254	14478.6125
2956.74951	14435.8125
2959.20498	14400.3125
2961.65895	14376.6125
2964.11142	14380.7125
2966.56239	14327.4125
2969.01186	14332.6125
2971.45984	14274.2125
2973.90632	14240.1125
2976.35131	14194.5125
2978.7948	14201.6125
2981.23681	14140.9125
2983.67732	14114.2125
2986.11635	14055.3125
2988.55388	13997.2125
2990.98993	13989.5125
2993.4245	13966.9125
2995.85758	13916.2125
2998.28917	13889.7125
3000.71928	13887.1125
3003.14791	13835.1125
3005.57506	13857.7125
3008.00073	13825.2125
3010.42493	13807.2125
3012.84764	13795.5125
3015.26888	13773.9125
3017.68865	13722.0125
3020.10694	13704.3125
3022.52376	13681.0125
