Data from AgNPs_FTO_APTES_UA_2uM_CRN_20uM_R6G_10uM_NaF_0.1M_Addition_RamanShift__4__14-02-25-188.txt Node

Date: Wed Feb 02 14:02:25 GMT 2022
User: TCL
Spectrometer: QEP01345
Trigger mode: 4
Integration Time (sec): 7.000000E0
Scans to average: 10
Electric dark correction enabled: true
Nonlinearity correction enabled: false
Boxcar width: 0
XAxis mode: Raman Shifts
Number of Pixels in Spectrum: 1044
>>>>>Begin Spectral Data<<<<<
46.04893	0.8375
50.45542	-0.2625
54.85868	-0.2625
59.25871	-0.6625
63.6555	102.8375
68.04907	107.2375
72.43941	114.1375
76.82654	122.0375
81.21044	127.5375
85.59113	129.7375
89.96862	132.3375
94.34289	137.5375
98.71396	142.8375
103.08183	150.1375
107.4465	156.0375
111.80798	155.8375
116.16626	159.9375
120.52136	168.6375
124.87327	173.0375
129.222	181.8375
133.56755	192.7375
137.90993	204.0375
142.24913	228.6375
146.58517	259.8375
150.91804	297.6375
155.24774	357.4375
159.57429	446.7375
163.89768	562.6375
168.21792	746.8375
172.53501	1025.5375
176.84895	1422.7375
181.15975	2004.0375
185.46741	2787.8375
189.77193	3841.6375
194.07331	5125.8375
198.37157	6607.7375
202.6667	8131.0375
206.9587	9688.7375
211.24758	11204.5375
215.53334	12738.5375
219.81599	14376.3375
224.09553	16153.9375
228.37195	18143.2375
232.64527	20254.1375
236.91549	22549.4375
241.18261	24709.6375
245.44663	26737.5375
249.70755	28561.1375
253.96539	30180.5375
258.22014	31510.6375
262.4718	32703.5375
266.72039	33523.2375
270.96589	33865.3375
275.20832	33964.3375
279.44768	33776.0375
283.68397	33434.8375
287.91719	33242.6375
292.14735	33134.1375
296.37445	33240.4375
300.59849	33321.6375
304.81948	33512.6375
309.03742	33511.9375
313.25231	33287.3375
317.46415	32665.7375
321.67296	31915.4375
325.87872	31197.7375
330.08145	30848.0375
334.28114	30745.1375
338.47781	30898.9375
342.67145	31143.6375
346.86207	31648.1375
351.04966	32220.6375
355.23424	32813.9375
359.4158	33377.3375
363.59435	33840.7375
367.76989	34184.8375
371.94243	34407.7375
376.11196	34485.2375
380.27849	34655.3375
384.44203	34814.9375
388.60257	35052.6375
392.76012	35549.4375
396.91468	36012.3375
401.06626	36616.3375
405.21485	36980.9375
409.36047	36894.9375
413.50311	36621.8375
417.64277	36575.0375
421.77947	36749.8375
425.9132	36979.4375
430.04396	37144.6375
434.17176	37361.0375
438.2966	37498.5375
442.41849	38107.2375
446.53742	39256.5375
450.6534	40561.5375
454.76644	41501.0375
458.87653	41721.8375
462.98368	41356.1375
467.08789	40541.0375
471.18916	39783.7375
475.2875	39106.6375
479.38291	38725.8375
483.4754	38511.4375
487.56496	38048.0375
491.6516	37498.2375
495.73531	36861.7375
499.81612	36510.8375
503.89401	36647.8375
507.96899	36761.7375
512.04106	36628.4375
516.11023	36213.3375
520.1765	35701.7375
524.23987	35327.1375
528.30034	35019.8375
532.35792	34682.0375
536.41261	34186.4375
540.46441	33748.3375
544.51333	33768.7375
548.55936	34148.6375
552.60252	34986.6375
556.64279	35990.7375
560.6802	36848.7375
564.71473	37308.0375
568.7464	38006.9375
572.7752	39218.7375
576.80114	40597.7375
580.82422	42091.9375
584.84444	43959.4375
588.86181	46227.3375
592.87633	47771.6375
596.888	47163.0375
600.89682	44734.0375
604.9028	44031.1375
608.90594	46459.8375
612.90624	49014.6375
616.90371	45753.4375
620.89834	38710.2375
624.89015	35532.0375
628.87913	35176.1375
632.86528	35151.0375
636.84862	34835.7375
640.82913	34029.4375
644.80683	33129.3375
648.78172	32694.8375
652.75379	32723.6375
656.72306	33142.5375
660.68952	33562.9375
664.65319	33234.7375
668.61405	32664.0375
672.57211	32580.7375
676.52738	32729.4375
680.47986	32727.0375
684.42955	32445.2375
688.37646	32282.8375
692.32058	32627.6375
696.26192	33217.3375
700.20048	33820.5375
704.13626	34119.2375
708.06928	34031.6375
711.99952	33831.0375
715.927	33947.3375
719.85171	34241.4375
723.77365	34081.3375
727.69284	33438.9375
731.60928	32834.8375
735.52295	32579.7375
739.43388	32603.7375
743.34206	32745.0375
747.24749	33031.3375
751.15017	33424.8375
755.05012	34083.7375
758.94733	35206.5375
762.8418	36939.9375
766.73354	39309.8375
770.62254	41365.5375
774.50882	41436.3375
778.39237	39414.3375
782.27321	36745.8375
786.15132	34698.6375
790.02671	33428.3375
793.89938	32867.5375
797.76935	32687.1375
801.6366	32705.4375
805.50115	32649.0375
809.36299	32448.3375
813.22213	32096.1375
817.07857	31869.3375
820.93231	31692.8375
824.78336	31455.4375
828.63172	31304.8375
832.47738	31277.4375
836.32036	31360.2375
840.16066	31563.7375
843.99827	31665.5375
847.8332	31611.2375
851.66546	31396.5375
855.49504	31297.0375
859.32195	31313.6375
863.1462	31094.6375
866.96777	31017.8375
870.78668	30923.2375
874.60293	30921.9375
878.41652	30903.4375
882.22745	31052.9375
886.03573	31109.1375
889.84136	31118.1375
893.64433	30970.8375
897.44466	30802.8375
901.24235	30694.4375
905.0374	30592.1375
908.8298	30563.2375
912.61957	30663.5375
916.40671	31106.3375
920.19121	31695.0375
923.97308	32206.0375
927.75233	32355.0375
931.52895	31970.4375
935.30295	31431.7375
939.07433	30747.8375
942.84309	30303.8375
946.60924	30093.4375
950.37278	30085.7375
954.13371	30033.4375
957.89203	29980.4375
961.64774	29934.8375
965.40086	29926.9375
969.15137	29832.4375
972.89929	29710.6375
976.64461	29605.3375
980.38733	29584.5375
984.12747	29722.2375
987.86502	30007.3375
991.59999	30393.8375
995.33237	30990.2375
999.06217	31997.2375
1002.78939	33210.3375
1006.51404	34073.0375
1010.23611	34603.4375
1013.95561	34892.5375
1017.67255	34887.4375
1021.38692	34442.7375
1025.09872	33894.5375
1028.80796	34107.8375
1032.51465	35187.5375
1036.21877	36393.2375
1039.92035	36755.6375
1043.61937	36330.2375
1047.31584	35307.7375
1051.00976	34115.4375
1054.70114	33540.1375
1058.38998	33307.9375
1062.07627	33397.0375
1065.76003	33602.2375
1069.44126	33939.4375
1073.11995	34511.4375
1076.79611	35006.4375
1080.46974	35298.8375
1084.14085	35628.6375
1087.80943	36011.5375
1091.47549	36350.4375
1095.13903	36347.5375
1098.80005	35753.5375
1102.45857	34818.1375
1106.11456	34146.4375
1109.76805	33835.4375
1113.41903	33923.5375
1117.06751	34051.6375
1120.71348	34352.9375
1124.35696	34699.1375
1127.99793	35075.5375
1131.63641	35424.5375
1135.2724	35404.7375
1138.90589	35377.1375
1142.5369	35555.0375
1146.16542	35943.4375
1149.79145	36335.9375
1153.415	36823.1375
1157.03607	37717.1375
1160.65467	39241.9375
1164.27079	41581.3375
1167.88443	44289.8375
1171.49561	46914.1375
1175.10432	49980.6375
1178.71056	54148.0375
1182.31434	58093.4375
1185.91565	59976.6375
1189.51451	59600.1375
1193.11091	57746.2375
1196.70485	55644.8375
1200.29634	53592.3375
1203.88538	52166.9375
1207.47197	51598.0375
1211.05612	51102.6375
1214.63782	50078.3375
1218.21708	48714.8375
1221.79391	47278.4375
1225.36829	46173.8375
1228.94024	45270.2375
1232.50976	44253.7375
1236.07685	43393.6375
1239.6415	42902.5375
1243.20374	42989.9375
1246.76355	43489.2375
1250.32093	44460.4375
1253.8759	45598.8375
1257.42845	47094.1375
1260.97859	48650.0375
1264.52631	50299.5375
1268.07163	52049.4375
1271.61453	53899.2375
1275.15503	55842.0375
1278.69312	57872.5375
1282.22882	59937.0375
1285.76211	62239.4375
1289.29301	64891.4375
1292.82151	68209.4375
1296.34761	72499.8375
1299.87133	77750.7375
1303.39266	83185.3375
1306.9116	87875.3375
1310.42815	90980.2375
1313.94233	92051.3375
1317.45412	90787.9375
1320.96354	88631.2375
1324.47058	87018.7375
1327.97525	85915.4375
1331.47754	85225.9375
1334.97747	84554.4375
1338.47502	83284.7375
1341.97022	81228.2375
1345.46305	78606.4375
1348.95352	76588.1375
1352.44163	76372.5375
1355.92738	78592.2375
1359.41078	82540.0375
1362.89183	85448.1375
1366.37053	84402.0375
1369.84688	77971.6375
1373.32088	69138.5375
1376.79254	62858.2375
1380.26186	60797.2375
1383.72883	61320.4375
1387.19347	61685.2375
1390.65578	61056.6375
1394.11575	60828.6375
1397.57339	61782.9375
1401.0287	63451.4375
1404.48168	64922.1375
1407.93234	65196.0375
1411.38068	64005.5375
1414.82669	61660.9375
1418.27039	58771.8375
1421.71177	55684.7375
1425.15083	53134.7375
1428.58758	52030.3375
1432.02203	52578.7375
1435.45416	54545.1375
1438.88399	56733.7375
1442.31151	58415.6375
1445.73673	59300.1375
1449.15965	59834.6375
1452.58027	59787.5375
1455.9986	59299.3375
1459.41463	59156.5375
1462.82837	59845.1375
1466.23982	61225.0375
1469.64898	62555.9375
1473.05586	63421.2375
1476.46045	63809.2375
1479.86276	63346.7375
1483.26279	62567.4375
1486.66054	61864.9375
1490.05602	61906.1375
1493.44922	62208.1375
1496.84016	62261.1375
1500.22882	62412.6375
1503.61521	63007.1375
1506.99934	63841.6375
1510.38121	64783.7375
1513.76081	64980.0375
1517.13816	64077.6375
1520.51324	62729.7375
1523.88607	61912.5375
1527.25665	62119.6375
1530.62498	62490.5375
1533.99105	62539.4375
1537.35488	61917.8375
1540.71647	60581.8375
1544.07581	58827.8375
1547.4329	56947.4375
1550.78776	55282.6375
1554.14038	54041.5375
1557.49077	53180.4375
1560.83892	52582.4375
1564.18484	52199.1375
1567.52853	52155.7375
1570.86999	52588.3375
1574.20922	53671.6375
1577.54624	54965.3375
1580.88103	56052.9375
1584.2136	57673.9375
1587.54395	60756.0375
1590.87208	65344.0375
1594.19801	70460.8375
1597.52172	74726.7375
1600.84321	75189.1375
1604.16251	70698.3375
1607.47959	63492.7375
1610.79447	56060.5375
1614.10715	50023.1375
1617.41763	45628.3375
1620.7259	42854.1375
1624.03199	41747.4375
1627.33587	42141.9375
1630.63757	43940.0375
1633.93707	47421.8375
1637.23439	53179.8375
1640.52951	61376.5375
1643.82246	70891.2375
1647.11321	77800.6375
1650.40179	77794.4375
1653.68819	70528.5375
1656.97241	59405.7375
1660.25446	49255.3375
1663.53433	42172.3375
1666.81203	37688.1375
1670.08756	34939.1375
1673.36092	33193.9375
1676.63211	32091.9375
1679.90115	31330.3375
1683.16801	30714.1375
1686.43272	30331.3375
1689.69527	30008.2375
1692.95567	29759.8375
1696.2139	29641.6375
1699.46999	29471.2375
1702.72392	29417.5375
1705.97571	29238.3375
1709.22535	29221.2375
1712.47284	29134.1375
1715.71819	29079.1375
1718.96139	29007.5375
1722.20246	28902.0375
1725.44139	28723.0375
1728.67818	28562.9375
1731.91284	28380.6375
1735.14537	28234.0375
1738.37576	28101.7375
1741.60403	27970.4375
1744.83017	27889.5375
1748.05418	27788.7375
1751.27607	27750.2375
1754.49584	27706.2375
1757.71349	27700.6375
1760.92903	27651.7375
1764.14244	27610.1375
1767.35375	27606.6375
1770.56294	27574.8375
1773.77002	27491.7375
1776.97499	27464.7375
1780.17785	27376.0375
1783.37861	27317.9375
1786.57727	27297.8375
1789.77382	27194.1375
1792.96828	27210.2375
1796.16064	27156.4375
1799.3509	27188.3375
1802.53907	27092.9375
1805.72514	27008.9375
1808.90913	26944.8375
1812.09102	26891.4375
1815.27083	26890.9375
1818.44856	26847.6375
1821.6242	26845.1375
1824.79776	26819.2375
1827.96924	26759.3375
1831.13864	26745.8375
1834.30597	26806.6375
1837.47122	26758.5375
1840.6344	26740.1375
1843.7955	26806.0375
1846.95454	26817.5375
1850.11151	26824.1375
1853.26642	26804.7375
1856.41926	26782.6375
1859.57004	26748.8375
1862.71876	26752.5375
1865.86542	26724.0375
1869.01003	26701.2375
1872.15258	26685.4375
1875.29308	26667.1375
1878.43152	26648.4375
1881.56792	26658.0375
1884.70227	26629.9375
1887.83457	26650.0375
1890.96482	26614.1375
1894.09304	26536.8375
1897.21921	26581.5375
1900.34335	26483.7375
1903.46544	26474.0375
1906.58551	26452.8375
1909.70353	26400.5375
1912.81953	26359.3375
1915.93349	26293.9375
1919.04543	26247.3375
1922.15534	26207.3375
1925.26322	26142.4375
1928.36908	26096.8375
1931.47292	26021.0375
1934.57473	25937.0375
1937.67453	25902.3375
1940.77232	25814.1375
1943.86808	25749.3375
1946.96184	25700.6375
1950.05358	25616.9375
1953.14331	25606.3375
1956.23103	25521.2375
1959.31675	25406.7375
1962.40046	25376.6375
1965.48217	25335.6375
1968.56188	25266.4375
1971.63959	25206.8375
1974.7153	25109.3375
1977.78901	25041.6375
1980.86073	24980.7375
1983.93046	24880.0375
1986.99819	24801.1375
1990.06394	24790.5375
1993.1277	24722.1375
1996.18947	24635.9375
1999.24925	24575.2375
2002.30706	24497.4375
2005.36288	24407.8375
2008.41672	24345.1375
2011.46859	24274.8375
2014.51848	24234.1375
2017.56639	24213.5375
2020.61233	24189.6375
2023.6563	24128.7375
2026.6983	24108.3375
2029.73833	24073.9375
2032.7764	24046.8375
2035.8125	23998.5375
2038.84664	23950.1375
2041.87881	23985.2375
2044.90903	23917.4375
2047.93729	23881.7375
2050.96359	23885.6375
2053.98794	23844.9375
2057.01034	23868.7375
2060.03078	23815.1375
2063.04927	23784.5375
2066.06582	23818.6375
2069.08042	23797.2375
2072.09307	23763.9375
2075.10378	23760.4375
2078.11255	23698.8375
2081.11938	23734.2375
2084.12426	23700.6375
2087.12722	23652.9375
2090.12824	23628.5375
2093.12732	23679.3375
2096.12447	23668.8375
2099.11969	23729.7375
2102.11299	23739.7375
2105.10435	23738.5375
2108.09379	23757.8375
2111.08131	23737.1375
2114.0669	23730.6375
2117.05057	23788.6375
2120.03233	23789.8375
2123.01216	23837.8375
2125.99008	23827.8375
2128.96609	23854.4375
2131.94018	23880.3375
2134.91236	23920.4375
2137.88263	23934.5375
2140.851	23959.6375
2143.81746	23973.7375
2146.78201	23961.5375
2149.74466	23984.0375
2152.7054	23982.6375
2155.66425	23961.1375
2158.6212	23943.3375
2161.57625	23965.5375
2164.52941	23967.9375
2167.48067	23955.2375
2170.43004	23931.9375
2173.37752	23916.0375
2176.32311	23944.1375
2179.26681	23939.6375
2182.20863	23919.9375
2185.14856	23977.0375
2188.08661	23975.3375
2191.02278	24046.2375
2193.95707	24035.4375
2196.88948	23984.1375
2199.82001	23982.9375
2202.74867	24027.1375
2205.67545	24040.8375
2208.60037	23979.2375
2211.52341	23982.6375
2214.44458	23921.2375
2217.36388	23943.3375
2220.28132	23864.2375
2223.1969	23832.0375
2226.11061	23867.4375
2229.02246	23791.1375
2231.93245	23815.5375
2234.84058	23785.1375
2237.74686	23744.5375
2240.65128	23713.8375
2243.55385	23653.7375
2246.45456	23633.3375
2249.35343	23620.1375
2252.25044	23552.1375
2255.14561	23491.1375
2258.03893	23510.9375
2260.93041	23462.6375
2263.82004	23368.9375
2266.70783	23328.7375
2269.59378	23216.0375
2272.4779	23219.9375
2275.36017	23148.0375
2278.24061	23135.5375
2281.11922	23095.3375
2283.996	23083.5375
2286.87094	23079.1375
2289.74405	23051.9375
2292.61534	23032.0375
2295.4848	23019.2375
2298.35243	23065.9375
2301.21824	23075.7375
2304.08223	23119.6375
2306.94439	23148.7375
2309.80474	23169.3375
2312.66327	23161.6375
2315.51999	23156.8375
2318.37489	23164.4375
2321.22797	23087.8375
2324.07925	23111.8375
2326.92871	23095.6375
2329.77637	23068.5375
2332.62222	23071.7375
2335.46626	23071.0375
2338.3085	23075.4375
2341.14893	23075.8375
2343.98756	23092.7375
2346.8244	23107.9375
2349.65943	23105.1375
2352.49267	23105.0375
2355.32411	23085.3375
2358.15376	23080.6375
2360.98161	23063.4375
2363.80768	22999.5375
2366.63195	22987.4375
2369.45444	22928.9375
2372.27514	22887.9375
2375.09405	22837.6375
2377.91118	22841.5375
2380.72652	22821.1375
2383.54009	22795.4375
2386.35187	22721.9375
2389.16188	22744.5375
2391.97011	22671.9375
2394.77657	22662.7375
2397.58125	22650.1375
2400.38416	22633.3375
2403.18529	22633.6375
2405.98466	22598.5375
2408.78226	22520.2375
2411.57809	22508.9375
2414.37216	22512.6375
2417.16446	22469.6375
2419.955	22450.6375
2422.74378	22465.6375
2425.5308	22465.7375
2428.31606	22427.5375
2431.09956	22433.9375
2433.88131	22369.7375
2436.6613	22448.8375
2439.43954	22409.6375
2442.21603	22394.1375
2444.99077	22371.9375
2447.76377	22412.6375
2450.53501	22346.1375
2453.30451	22365.4375
2456.07226	22377.2375
2458.83827	22416.0375
2461.60254	22404.6375
2464.36507	22430.0375
2467.12586	22438.5375
2469.88492	22406.3375
2472.64224	22440.1375
2475.39782	22468.1375
2478.15167	22500.1375
2480.90379	22495.7375
2483.65417	22510.0375
2486.40283	22527.9375
2489.14976	22558.1375
2491.89497	22556.1375
2494.63845	22608.3375
2497.3802	22555.0375
2500.12024	22565.5375
2502.85855	22592.5375
2505.59514	22595.4375
2508.33002	22591.9375
2511.06318	22546.8375
2513.79462	22562.7375
2516.52435	22551.5375
2519.25237	22543.0375
2521.97867	22518.3375
2524.70327	22551.0375
2527.42616	22532.0375
2530.14734	22561.3375
2532.86681	22509.5375
2535.58458	22518.0375
2538.30065	22469.3375
2541.01501	22474.6375
2543.72768	22461.9375
2546.43864	22441.3375
2549.14791	22417.1375
2551.85548	22461.6375
2554.56136	22450.8375
2557.26554	22459.4375
2559.96803	22430.3375
2562.66883	22443.7375
2565.36794	22384.5375
2568.06536	22482.4375
2570.7611	22441.5375
2573.45514	22417.3375
2576.14751	22443.7375
2578.83819	22413.8375
2581.52719	22430.4375
2584.21451	22416.5375
2586.90015	22400.9375
2589.58411	22399.1375
2592.2664	22441.5375
2594.94701	22413.0375
2597.62594	22454.7375
2600.30321	22369.1375
2602.9788	22403.2375
2605.65273	22383.4375
2608.32498	22379.8375
2610.99557	22383.4375
2613.66449	22412.8375
2616.33175	22432.0375
2618.99734	22444.5375
2621.66128	22418.7375
2624.32355	22421.5375
2626.98416	22426.3375
2629.64311	22446.0375
2632.30041	22424.1375
2634.95605	22398.7375
2637.61004	22392.2375
2640.26238	22381.9375
2642.91306	22370.7375
2645.56209	22358.5375
2648.20948	22317.9375
2650.85521	22353.5375
2653.4993	22351.6375
2656.14175	22363.0375
2658.78255	22379.6375
2661.42171	22409.2375
2664.05923	22494.8375
2666.6951	22482.5375
2669.32934	22511.6375
2671.96194	22455.4375
2674.59291	22465.5375
2677.22224	22495.0375
2679.84993	22497.8375
2682.476	22447.4375
2685.10043	22485.9375
2687.72324	22481.7375
2690.34441	22485.5375
2692.96396	22444.5375
2695.58188	22487.5375
2698.19818	22476.1375
2700.81285	22437.8375
2703.4259	22467.1375
2706.03733	22527.8375
2708.64714	22530.7375
2711.25533	22536.8375
2713.86191	22491.3375
2716.46687	22541.9375
2719.07021	22553.1375
2721.67194	22625.2375
2724.27206	22561.7375
2726.87057	22632.0375
2729.46747	22637.1375
2732.06276	22623.6375
2734.65644	22603.4375
2737.24852	22644.0375
2739.83899	22613.2375
2742.42786	22639.3375
2745.01513	22605.7375
2747.60079	22643.6375
2750.18486	22664.0375
2752.76733	22685.8375
2755.3482	22679.1375
2757.92747	22716.6375
2760.50515	22683.5375
2763.08123	22694.8375
2765.65573	22667.5375
2768.22863	22679.8375
2770.79994	22654.3375
2773.36967	22677.4375
2775.9378	22673.5375
2778.50435	22714.4375
2781.06932	22678.2375
2783.6327	22680.5375
2786.1945	22734.0375
2788.75471	22662.3375
2791.31335	22609.9375
2793.87041	22619.5375
2796.42589	22533.9375
2798.97979	22579.4375
2801.53212	22527.3375
2804.08288	22550.4375
2806.63206	22506.1375
2809.17967	22455.5375
2811.72571	22403.1375
2814.27018	22399.3375
2816.81308	22364.2375
2819.35442	22314.5375
2821.89419	22262.0375
2824.43239	22271.9375
2826.96904	22276.4375
2829.50412	22258.7375
2832.03763	22235.0375
2834.56959	22246.7375
2837.1	22216.2375
2839.62884	22257.2375
2842.15613	22234.4375
2844.68186	22326.1375
2847.20604	22314.7375
2849.72867	22331.7375
2852.24974	22306.4375
2854.76927	22297.0375
2857.28724	22265.5375
2859.80367	22249.4375
2862.31855	22218.9375
2864.83189	22209.5375
2867.34368	22160.7375
2869.85393	22157.4375
2872.36264	22162.9375
2874.8698	22159.2375
2877.37543	22146.2375
2879.87952	22176.1375
2882.38207	22197.7375
2884.88308	22231.6375
2887.38256	22239.2375
2889.88051	22286.8375
2892.37692	22297.0375
2894.8718	22287.8375
2897.36515	22335.6375
2899.85698	22327.3375
2902.34727	22355.4375
2904.83604	22364.4375
2907.32328	22420.8375
2909.809	22438.8375
2912.29319	22377.7375
2914.77587	22378.1375
2917.25702	22345.4375
2919.73665	22327.9375
2922.21476	22370.9375
2924.69136	22384.7375
2927.16644	22420.8375
2929.64	22400.5375
2932.11205	22389.4375
2934.58258	22326.7375
2937.05161	22405.9375
2939.51912	22373.3375
2941.98513	22350.5375
2944.44962	22282.4375
2946.91261	22160.1375
2949.37409	22265.7375
2951.83407	22234.9375
2954.29254	22237.7375
2956.74951	22216.9375
2959.20498	22222.5375
2961.65895	22161.2375
2964.11142	22169.9375
2966.56239	22113.8375
2969.01186	22137.1375
2971.45984	22066.3375
2973.90632	22071.7375
2976.35131	21992.5375
2978.7948	21939.2375
2981.23681	21895.8375
2983.67732	21871.1375
2986.11635	21812.0375
2988.55388	21754.9375
2990.98993	21728.2375
2993.4245	21701.0375
2995.85758	21634.1375
2998.28917	21574.8375
3000.71928	21570.4375
3003.14791	21530.7375
3005.57506	21540.9375
3008.00073	21490.6375
3010.42493	21451.0375
3012.84764	21421.0375
3015.26888	21442.2375
3017.68865	21372.5375
3020.10694	21320.1375
3022.52376	21273.7375
