Data from AgNPs_FTO_APTES_UA_2uM_CRN_0uM_R6G_10uM_NaF_0.1M_Addition_RamanShift__20__10-27-44-938.txt Node

Date: Wed Feb 02 10:27:44 GMT 2022
User: TCL
Spectrometer: QEP01345
Trigger mode: 4
Integration Time (sec): 7.000000E0
Scans to average: 10
Electric dark correction enabled: true
Nonlinearity correction enabled: false
Boxcar width: 0
XAxis mode: Raman Shifts
Number of Pixels in Spectrum: 1044
>>>>>Begin Spectral Data<<<<<
46.04893	0.3125
50.45542	-0.7875
54.85868	0.9125
59.25871	0.4125
63.6555	26.1125
68.04907	29.6125
72.43941	29.6125
76.82654	36.9125
81.21044	37.2125
85.59113	41.3125
89.96862	39.8125
94.34289	42.6125
98.71396	45.6125
103.08183	49.8125
107.4465	47.3125
111.80798	45.7125
116.16626	47.9125
120.52136	50.9125
124.87327	50.5125
129.222	48.9125
133.56755	53.6125
137.90993	50.1125
142.24913	58.2125
146.58517	64.4125
150.91804	65.8125
155.24774	78.2125
159.57429	92.8125
163.89768	113.4125
168.21792	144.5125
172.53501	187.6125
176.84895	254.9125
181.15975	348.8125
185.46741	477.5125
189.77193	649.0125
194.07331	869.5125
198.37157	1112.1125
202.6667	1369.7125
206.9587	1627.5125
211.24758	1866.7125
215.53334	2112.2125
219.81599	2373.0125
224.09553	2659.5125
228.37195	2960.5125
232.64527	3310.8125
236.91549	3670.5125
241.18261	4016.0125
245.44663	4336.7125
249.70755	4609.6125
253.96539	4836.9125
258.22014	5022.8125
262.4718	5157.9125
266.72039	5219.0125
270.96589	5243.5125
275.20832	5191.0125
279.44768	5097.3125
283.68397	4974.6125
287.91719	4852.1125
292.14735	4800.5125
296.37445	4815.9125
300.59849	4872.5125
304.81948	5001.8125
309.03742	5065.6125
313.25231	5066.7125
317.46415	4915.8125
321.67296	4666.9125
325.87872	4475.3125
330.08145	4372.2125
334.28114	4370.1125
338.47781	4413.1125
342.67145	4466.4125
346.86207	4601.4125
351.04966	4776.0125
355.23424	4983.2125
359.4158	5160.5125
363.59435	5301.2125
367.76989	5358.8125
371.94243	5384.7125
376.11196	5418.2125
380.27849	5395.0125
384.44203	5379.7125
388.60257	5333.4125
392.76012	5298.9125
396.91468	5299.7125
401.06626	5371.7125
405.21485	5435.8125
409.36047	5383.4125
413.50311	5199.8125
417.64277	5004.0125
421.77947	4898.9125
425.9132	4862.6125
430.04396	4872.2125
434.17176	4887.3125
438.2966	4955.8125
442.41849	5053.1125
446.53742	5168.3125
450.6534	5278.9125
454.76644	5348.2125
458.87653	5355.0125
462.98368	5296.8125
467.08789	5227.6125
471.18916	5160.1125
475.2875	5084.9125
479.38291	5017.1125
483.4754	4952.4125
487.56496	4914.6125
491.6516	4899.5125
495.73531	4892.6125
499.81612	4891.6125
503.89401	4927.7125
507.96899	4989.9125
512.04106	5055.8125
516.11023	5149.3125
520.1765	5207.8125
524.23987	5215.7125
528.30034	5167.9125
532.35792	5089.3125
536.41261	5003.1125
540.46441	4926.7125
544.51333	4872.8125
548.55936	4870.5125
552.60252	4938.2125
556.64279	5016.9125
560.6802	5026.9125
564.71473	5055.0125
568.7464	5146.4125
572.7752	5197.9125
576.80114	5099.3125
580.82422	4955.3125
584.84444	4910.6125
588.86181	4949.7125
592.87633	5034.9125
596.888	5134.6125
600.89682	5247.0125
604.9028	5562.0125
608.90594	6543.2125
612.90624	7978.3125
616.90371	7990.3125
620.89834	6173.4125
624.89015	5208.5125
628.87913	4987.5125
632.86528	4987.7125
636.84862	5011.3125
640.82913	4985.4125
644.80683	4866.2125
648.78172	4772.8125
652.75379	4783.4125
656.72306	4925.7125
660.68952	5107.1125
664.65319	5077.0125
668.61405	4884.1125
672.57211	4809.1125
676.52738	4811.2125
680.47986	4840.3125
684.42955	4811.4125
688.37646	4786.6125
692.32058	4807.2125
696.26192	4825.4125
700.20048	4887.0125
704.13626	4934.4125
708.06928	4936.2125
711.99952	4911.8125
715.927	4878.2125
719.85171	4898.8125
723.77365	4880.3125
727.69284	4842.8125
731.60928	4817.7125
735.52295	4816.7125
739.43388	4830.1125
743.34206	4826.7125
747.24749	4841.0125
751.15017	4867.5125
755.05012	4894.4125
758.94733	4995.0125
762.8418	5277.5125
766.73354	5795.3125
770.62254	6496.5125
774.50882	6977.6125
778.39237	6871.7125
782.27321	6174.5125
786.15132	5467.4125
790.02671	5050.1125
793.89938	4852.6125
797.76935	4770.1125
801.6366	4748.7125
805.50115	4727.0125
809.36299	4714.6125
813.22213	4705.3125
817.07857	4678.6125
820.93231	4660.8125
824.78336	4658.4125
828.63172	4646.7125
832.47738	4681.9125
836.32036	4697.2125
840.16066	4694.0125
843.99827	4700.9125
847.8332	4705.5125
851.66546	4704.5125
855.49504	4683.9125
859.32195	4671.0125
863.1462	4643.8125
866.96777	4632.2125
870.78668	4625.3125
874.60293	4641.6125
878.41652	4667.8125
882.22745	4692.4125
886.03573	4723.2125
889.84136	4747.5125
893.64433	4729.7125
897.44466	4705.9125
901.24235	4729.6125
905.0374	4731.3125
908.8298	4726.4125
912.61957	4757.4125
916.40671	4810.6125
920.19121	4860.0125
923.97308	4947.2125
927.75233	5012.3125
931.52895	5033.5125
935.30295	4986.9125
939.07433	4872.4125
942.84309	4762.7125
946.60924	4688.0125
950.37278	4617.4125
954.13371	4585.0125
957.89203	4521.0125
961.64774	4500.6125
965.40086	4474.8125
969.15137	4443.8125
972.89929	4437.5125
976.64461	4407.1125
980.38733	4381.2125
984.12747	4371.9125
987.86502	4381.6125
991.59999	4409.1125
995.33237	4417.5125
999.06217	4463.8125
1002.78939	4516.8125
1006.51404	4563.5125
1010.23611	4595.1125
1013.95561	4623.2125
1017.67255	4606.6125
1021.38692	4564.0125
1025.09872	4510.8125
1028.80796	4485.2125
1032.51465	4469.2125
1036.21877	4530.7125
1039.92035	4605.1125
1043.61937	4650.0125
1047.31584	4673.9125
1051.00976	4667.3125
1054.70114	4658.7125
1058.38998	4665.0125
1062.07627	4634.8125
1065.76003	4603.3125
1069.44126	4569.3125
1073.11995	4552.4125
1076.79611	4579.2125
1080.46974	4628.0125
1084.14085	4704.4125
1087.80943	4750.6125
1091.47549	4775.1125
1095.13903	4688.5125
1098.80005	4570.7125
1102.45857	4461.6125
1106.11456	4403.4125
1109.76805	4418.6125
1113.41903	4485.5125
1117.06751	4598.2125
1120.71348	4738.7125
1124.35696	4873.8125
1127.99793	5037.2125
1131.63641	5059.2125
1135.2724	4858.3125
1138.90589	4646.2125
1142.5369	4474.8125
1146.16542	4384.1125
1149.79145	4319.3125
1153.415	4290.0125
1157.03607	4308.0125
1160.65467	4358.7125
1164.27079	4480.9125
1167.88443	4653.5125
1171.49561	4936.8125
1175.10432	5417.8125
1178.71056	6095.9125
1182.31434	6660.4125
1185.91565	6859.1125
1189.51451	6726.7125
1193.11091	6431.3125
1196.70485	6026.5125
1200.29634	5650.0125
1203.88538	5343.7125
1207.47197	4994.0125
1211.05612	4694.9125
1214.63782	4560.3125
1218.21708	4513.9125
1221.79391	4544.7125
1225.36829	4579.9125
1228.94024	4603.5125
1232.50976	4579.7125
1236.07685	4572.8125
1239.6415	4550.4125
1243.20374	4549.5125
1246.76355	4545.0125
1250.32093	4572.5125
1253.8759	4611.1125
1257.42845	4710.4125
1260.97859	4812.6125
1264.52631	4935.9125
1268.07163	5066.9125
1271.61453	5177.6125
1275.15503	5264.8125
1278.69312	5275.6125
1282.22882	5280.7125
1285.76211	5378.2125
1289.29301	5525.2125
1292.82151	5707.5125
1296.34761	5916.0125
1299.87133	6128.1125
1303.39266	6476.5125
1306.9116	6983.8125
1310.42815	7618.0125
1313.94233	8038.9125
1317.45412	7881.5125
1320.96354	7337.3125
1324.47058	6691.3125
1327.97525	6172.6125
1331.47754	5864.8125
1334.97747	5775.4125
1338.47502	5847.1125
1341.97022	5950.5125
1345.46305	6161.7125
1348.95352	6534.0125
1352.44163	7117.1125
1355.92738	7926.0125
1359.41078	8981.1125
1362.89183	10075.6125
1366.37053	10113.4125
1369.84688	8872.4125
1373.32088	7452.0125
1376.79254	6531.3125
1380.26186	6065.2125
1383.72883	5805.6125
1387.19347	5621.9125
1390.65578	5404.9125
1394.11575	5210.2125
1397.57339	5078.3125
1401.0287	5021.7125
1404.48168	4979.0125
1407.93234	4956.0125
1411.38068	4924.1125
1414.82669	4901.9125
1418.27039	4876.4125
1421.71177	4842.0125
1425.15083	4808.0125
1428.58758	4812.4125
1432.02203	4837.6125
1435.45416	4884.0125
1438.88399	4932.8125
1442.31151	4915.3125
1445.73673	4910.7125
1449.15965	4887.3125
1452.58027	4826.9125
1455.9986	4730.5125
1459.41463	4682.8125
1462.82837	4672.8125
1466.23982	4694.1125
1469.64898	4785.4125
1473.05586	4829.2125
1476.46045	4863.3125
1479.86276	4907.4125
1483.26279	4978.4125
1486.66054	5042.4125
1490.05602	5127.8125
1493.44922	5289.4125
1496.84016	5534.8125
1500.22882	5973.1125
1503.61521	6624.3125
1506.99934	7399.4125
1510.38121	8164.4125
1513.76081	8559.5125
1517.13816	8215.0125
1520.51324	7285.6125
1523.88607	6323.7125
1527.25665	5688.8125
1530.62498	5339.6125
1533.99105	5151.0125
1537.35488	5042.8125
1540.71647	4965.5125
1544.07581	4917.3125
1547.4329	4888.5125
1550.78776	4891.5125
1554.14038	4896.2125
1557.49077	4927.8125
1560.83892	4989.4125
1564.18484	5093.7125
1567.52853	5215.8125
1570.86999	5399.6125
1574.20922	5531.1125
1577.54624	5558.7125
1580.88103	5363.8125
1584.2136	5033.4125
1587.54395	4775.9125
1590.87208	4748.1125
1594.19801	4878.7125
1597.52172	5145.5125
1600.84321	5326.5125
1604.16251	5240.6125
1607.47959	4995.1125
1610.79447	4714.3125
1614.10715	4440.0125
1617.41763	4235.0125
1620.7259	4088.2125
1624.03199	4030.6125
1627.33587	4027.7125
1630.63757	4070.0125
1633.93707	4193.7125
1637.23439	4374.7125
1640.52951	4709.4125
1643.82246	5173.1125
1647.11321	5718.7125
1650.40179	6131.5125
1653.68819	6064.6125
1656.97241	5431.4125
1660.25446	4656.6125
1663.53433	4112.4125
1666.81203	3782.6125
1670.08756	3604.0125
1673.36092	3460.4125
1676.63211	3377.9125
1679.90115	3305.2125
1683.16801	3246.6125
1686.43272	3201.9125
1689.69527	3178.4125
1692.95567	3144.5125
1696.2139	3128.2125
1699.46999	3096.3125
1702.72392	3083.5125
1705.97571	3066.3125
1709.22535	3057.8125
1712.47284	3053.2125
1715.71819	3049.8125
1718.96139	3052.7125
1722.20246	3028.0125
1725.44139	3028.6125
1728.67818	3003.7125
1731.91284	2974.8125
1735.14537	2939.1125
1738.37576	2911.2125
1741.60403	2895.8125
1744.83017	2882.5125
1748.05418	2871.8125
1751.27607	2853.4125
1754.49584	2848.2125
1757.71349	2839.6125
1760.92903	2816.9125
1764.14244	2813.5125
1767.35375	2796.7125
1770.56294	2781.4125
1773.77002	2764.0125
1776.97499	2757.7125
1780.17785	2761.4125
1783.37861	2741.2125
1786.57727	2744.8125
1789.77382	2726.2125
1792.96828	2718.3125
1796.16064	2721.6125
1799.3509	2702.6125
1802.53907	2691.6125
1805.72514	2694.9125
1808.90913	2682.1125
1812.09102	2662.4125
1815.27083	2647.3125
1818.44856	2657.8125
1821.6242	2651.2125
1824.79776	2648.6125
1827.96924	2631.1125
1831.13864	2637.2125
1834.30597	2620.7125
1837.47122	2605.0125
1840.6344	2606.9125
1843.7955	2613.6125
1846.95454	2600.8125
1850.11151	2598.9125
1853.26642	2596.1125
1856.41926	2587.6125
1859.57004	2594.3125
1862.71876	2589.4125
1865.86542	2574.2125
1869.01003	2583.0125
1872.15258	2571.6125
1875.29308	2567.8125
1878.43152	2559.3125
1881.56792	2557.2125
1884.70227	2571.8125
1887.83457	2556.5125
1890.96482	2545.4125
1894.09304	2547.5125
1897.21921	2555.4125
1900.34335	2542.3125
1903.46544	2542.8125
1906.58551	2556.1125
1909.70353	2540.7125
1912.81953	2538.9125
1915.93349	2526.8125
1919.04543	2536.3125
1922.15534	2513.1125
1925.26322	2514.0125
1928.36908	2498.7125
1931.47292	2496.4125
1934.57473	2495.8125
1937.67453	2481.3125
1940.77232	2472.3125
1943.86808	2459.5125
1946.96184	2456.1125
1950.05358	2440.8125
1953.14331	2438.7125
1956.23103	2412.3125
1959.31675	2408.0125
1962.40046	2401.9125
1965.48217	2395.5125
1968.56188	2382.6125
1971.63959	2382.2125
1974.7153	2383.1125
1977.78901	2367.0125
1980.86073	2356.3125
1983.93046	2352.4125
1986.99819	2337.5125
1990.06394	2334.6125
1993.1277	2321.8125
1996.18947	2317.0125
1999.24925	2313.0125
2002.30706	2303.9125
2005.36288	2289.1125
2008.41672	2290.8125
2011.46859	2277.0125
2014.51848	2269.1125
2017.56639	2258.3125
2020.61233	2250.6125
2023.6563	2255.4125
2026.6983	2242.0125
2029.73833	2238.3125
2032.7764	2230.0125
2035.8125	2218.4125
2038.84664	2218.9125
2041.87881	2210.0125
2044.90903	2212.5125
2047.93729	2199.8125
2050.96359	2196.7125
2053.98794	2200.6125
2057.01034	2189.4125
2060.03078	2183.3125
2063.04927	2195.5125
2066.06582	2187.7125
2069.08042	2183.3125
2072.09307	2184.7125
2075.10378	2193.5125
2078.11255	2191.8125
2081.11938	2190.3125
2084.12426	2179.4125
2087.12722	2187.0125
2090.12824	2178.1125
2093.12732	2194.7125
2096.12447	2188.5125
2099.11969	2180.1125
2102.11299	2185.2125
2105.10435	2194.6125
2108.09379	2192.6125
2111.08131	2176.9125
2114.0669	2174.1125
2117.05057	2185.1125
2120.03233	2182.6125
2123.01216	2177.2125
2125.99008	2171.9125
2128.96609	2180.6125
2131.94018	2174.1125
2134.91236	2166.5125
2137.88263	2163.0125
2140.851	2175.1125
2143.81746	2173.4125
2146.78201	2164.3125
2149.74466	2162.4125
2152.7054	2163.3125
2155.66425	2154.3125
2158.6212	2161.6125
2161.57625	2170.0125
2164.52941	2161.0125
2167.48067	2148.8125
2170.43004	2147.2125
2173.37752	2145.5125
2176.32311	2152.4125
2179.26681	2156.5125
2182.20863	2147.1125
2185.14856	2155.4125
2188.08661	2144.5125
2191.02278	2156.1125
2193.95707	2149.5125
2196.88948	2142.6125
2199.82001	2146.6125
2202.74867	2136.1125
2205.67545	2135.7125
2208.60037	2134.6125
2211.52341	2123.1125
2214.44458	2109.4125
2217.36388	2110.3125
2220.28132	2097.6125
2223.1969	2098.4125
2226.11061	2089.5125
2229.02246	2088.7125
2231.93245	2079.9125
2234.84058	2080.9125
2237.74686	2079.0125
2240.65128	2072.7125
2243.55385	2061.7125
2246.45456	2064.5125
2249.35343	2058.4125
2252.25044	2058.0125
2255.14561	2056.0125
2258.03893	2070.5125
2260.93041	2050.9125
2263.82004	2045.5125
2266.70783	2038.7125
2269.59378	2043.1125
2272.4779	2025.4125
2275.36017	2035.5125
2278.24061	2024.9125
2281.11922	2020.7125
2283.996	2011.1125
2286.87094	2012.8125
2289.74405	2006.7125
2292.61534	1989.1125
2295.4848	1986.2125
2298.35243	1992.4125
2301.21824	1986.3125
2304.08223	1968.3125
2306.94439	1977.3125
2309.80474	1979.8125
2312.66327	1983.8125
2315.51999	1968.2125
2318.37489	1968.0125
2321.22797	1959.9125
2324.07925	1962.6125
2326.92871	1960.9125
2329.77637	1959.5125
2332.62222	1967.8125
2335.46626	1954.8125
2338.3085	1944.3125
2341.14893	1940.1125
2343.98756	1935.1125
2346.8244	1942.4125
2349.65943	1934.4125
2352.49267	1935.6125
2355.32411	1936.1125
2358.15376	1940.3125
2360.98161	1947.2125
2363.80768	1936.3125
2366.63195	1944.5125
2369.45444	1935.2125
2372.27514	1941.8125
2375.09405	1945.4125
2377.91118	1944.3125
2380.72652	1929.6125
2383.54009	1921.5125
2386.35187	1919.7125
2389.16188	1910.0125
2391.97011	1906.3125
2394.77657	1894.2125
2397.58125	1894.9125
2400.38416	1882.7125
2403.18529	1883.7125
2405.98466	1873.9125
2408.78226	1875.0125
2411.57809	1867.6125
2414.37216	1863.1125
2417.16446	1863.1125
2419.955	1864.6125
2422.74378	1862.6125
2425.5308	1858.0125
2428.31606	1861.5125
2431.09956	1858.1125
2433.88131	1848.9125
2436.6613	1852.7125
2439.43954	1850.1125
2442.21603	1848.7125
2444.99077	1844.5125
2447.76377	1856.3125
2450.53501	1852.0125
2453.30451	1843.3125
2456.07226	1841.9125
2458.83827	1839.6125
2461.60254	1838.5125
2464.36507	1842.0125
2467.12586	1833.1125
2469.88492	1841.4125
2472.64224	1839.7125
2475.39782	1836.7125
2478.15167	1826.8125
2480.90379	1835.9125
2483.65417	1830.9125
2486.40283	1840.9125
2489.14976	1839.5125
2491.89497	1830.6125
2494.63845	1834.9125
2497.3802	1835.0125
2500.12024	1831.2125
2502.85855	1827.9125
2505.59514	1836.5125
2508.33002	1822.6125
2511.06318	1813.0125
2513.79462	1810.8125
2516.52435	1795.8125
2519.25237	1800.5125
2521.97867	1787.0125
2524.70327	1785.0125
2527.42616	1777.4125
2530.14734	1780.9125
2532.86681	1774.5125
2535.58458	1769.5125
2538.30065	1781.8125
2541.01501	1766.2125
2543.72768	1763.4125
2546.43864	1759.8125
2549.14791	1756.8125
2551.85548	1765.6125
2554.56136	1771.2125
2557.26554	1759.8125
2559.96803	1763.6125
2562.66883	1760.8125
2565.36794	1750.6125
2568.06536	1761.3125
2570.7611	1746.7125
2573.45514	1744.6125
2576.14751	1737.4125
2578.83819	1750.6125
2581.52719	1748.6125
2584.21451	1744.4125
2586.90015	1747.4125
2589.58411	1739.6125
2592.2664	1725.6125
2594.94701	1739.7125
2597.62594	1728.6125
2600.30321	1727.1125
2602.9788	1722.2125
2605.65273	1717.1125
2608.32498	1723.7125
2610.99557	1719.4125
2613.66449	1720.2125
2616.33175	1715.5125
2618.99734	1710.3125
2621.66128	1714.7125
2624.32355	1711.1125
2626.98416	1718.6125
2629.64311	1711.0125
2632.30041	1710.2125
2634.95605	1703.8125
2637.61004	1713.0125
2640.26238	1718.5125
2642.91306	1706.0125
2645.56209	1711.4125
2648.20948	1701.3125
2650.85521	1700.0125
2653.4993	1702.4125
2656.14175	1709.3125
2658.78255	1713.9125
2661.42171	1715.8125
2664.05923	1724.2125
2666.6951	1724.5125
2669.32934	1721.7125
2671.96194	1727.8125
2674.59291	1740.0125
2677.22224	1732.7125
2679.84993	1725.1125
2682.476	1746.2125
2685.10043	1738.1125
2687.72324	1741.6125
2690.34441	1743.9125
2692.96396	1748.3125
2695.58188	1744.1125
2698.19818	1756.7125
2700.81285	1760.8125
2703.4259	1779.0125
2706.03733	1767.4125
2708.64714	1778.2125
2711.25533	1795.2125
2713.86191	1796.2125
2716.46687	1809.4125
2719.07021	1815.6125
2721.67194	1831.1125
2724.27206	1821.8125
2726.87057	1841.2125
2729.46747	1840.6125
2732.06276	1847.6125
2734.65644	1852.5125
2737.24852	1868.3125
2739.83899	1888.1125
2742.42786	1880.5125
2745.01513	1891.3125
2747.60079	1895.0125
2750.18486	1914.7125
2752.76733	1923.3125
2755.3482	1922.2125
2757.92747	1939.8125
2760.50515	1950.4125
2763.08123	1952.9125
2765.65573	1951.5125
2768.22863	1958.9125
2770.79994	1969.0125
2773.36967	1960.7125
2775.9378	1997.6125
2778.50435	2001.8125
2781.06932	2002.8125
2783.6327	2016.3125
2786.1945	2020.0125
2788.75471	2039.4125
2791.31335	2045.8125
2793.87041	2062.3125
2796.42589	2074.6125
2798.97979	2084.0125
2801.53212	2091.1125
2804.08288	2107.4125
2806.63206	2116.3125
2809.17967	2130.7125
2811.72571	2133.4125
2814.27018	2141.5125
2816.81308	2167.0125
2819.35442	2167.6125
2821.89419	2164.3125
2824.43239	2167.4125
2826.96904	2161.8125
2829.50412	2170.4125
2832.03763	2176.3125
2834.56959	2177.0125
2837.1	2181.4125
2839.62884	2229.3125
2842.15613	2266.9125
2844.68186	2336.0125
2847.20604	2403.4125
2849.72867	2471.4125
2852.24974	2488.5125
2854.76927	2494.8125
2857.28724	2493.8125
2859.80367	2494.0125
2862.31855	2480.3125
2864.83189	2476.6125
2867.34368	2464.9125
2869.85393	2468.8125
2872.36264	2457.8125
2874.8698	2469.4125
2877.37543	2465.7125
2879.87952	2451.0125
2882.38207	2448.1125
2884.88308	2447.7125
2887.38256	2451.3125
2889.88051	2444.8125
2892.37692	2443.6125
2894.8718	2441.2125
2897.36515	2440.3125
2899.85698	2426.4125
2902.34727	2433.8125
2904.83604	2419.9125
2907.32328	2434.0125
2909.809	2431.5125
2912.29319	2416.0125
2914.77587	2420.4125
2917.25702	2421.7125
2919.73665	2401.0125
2922.21476	2400.1125
2924.69136	2388.8125
2927.16644	2388.6125
2929.64	2383.2125
2932.11205	2355.5125
2934.58258	2353.1125
2937.05161	2318.5125
2939.51912	2278.0125
2941.98513	2225.8125
2944.44962	2178.0125
2946.91261	2117.0125
2949.37409	2064.9125
2951.83407	2017.7125
2954.29254	1990.5125
2956.74951	1932.5125
2959.20498	1919.3125
2961.65895	1880.8125
2964.11142	1857.8125
2966.56239	1820.9125
2969.01186	1816.0125
2971.45984	1785.5125
2973.90632	1758.9125
2976.35131	1733.0125
2978.7948	1730.6125
2981.23681	1708.1125
2983.67732	1678.8125
2986.11635	1669.1125
2988.55388	1648.7125
2990.98993	1634.7125
2993.4245	1624.4125
2995.85758	1612.4125
2998.28917	1606.7125
3000.71928	1588.9125
3003.14791	1602.1125
3005.57506	1597.6125
3008.00073	1581.4125
3010.42493	1575.6125
3012.84764	1567.5125
3015.26888	1570.1125
3017.68865	1560.4125
3020.10694	1567.1125
3022.52376	1557.9125
3024.9391	1551.3125
3027.35298	1554.2125
3029.76539	1550.8125
3032.17632	1555.5125
3034.5858	1547.1125
3036.9938	1543.1125
3039.40034	1544.4125
3041.80542	1541.1125
3044.20903	1529.6125
3046.61118	1536.5125
3049.01187	1537.0125
3051.4111	1529.8125
3053.80888	1531.9125
3056.20519	1533.1125
3058.60005	1528.1125
3060.99345	1536.2125
3063.3854	1529.9125
3065.7759	1542.6125
3068.16494	1534.5125
3070.55254	1534.4125
3072.93868	1537.5125
3075.32338	1534.7125
3077.70662	1527.5125
3080.08842	1527.1125
3082.46878	1534.1125
3084.84769	1529.6125
3087.22515	1523.8125
3089.60118	1526.2125
3091.97576	1530.0125
3094.3489	1527.5125
3096.72061	1541.7125
3099.09087	1539.3125
3101.4597	1530.8125
3103.82709	1537.2125
3106.19305	1539.8125
3108.55757	1548.5125
3110.92066	1548.5125
3113.28232	1548.0125
3115.64255	1547.4125
3118.00134	1549.8125
3120.35871	1561.5125
3122.71466	1566.7125
3125.06917	1563.5125
