Data from AgNPs_FTO_APTES_UA_2uM_CRN_1uM_R6G_10uM_NaF_0.1M_Addition_RamanShift__8__11-28-25-009.txt Node

Date: Wed Feb 02 11:28:25 GMT 2022
User: TCL
Spectrometer: QEP01345
Trigger mode: 4
Integration Time (sec): 7.000000E0
Scans to average: 10
Electric dark correction enabled: true
Nonlinearity correction enabled: false
Boxcar width: 0
XAxis mode: Raman Shifts
Number of Pixels in Spectrum: 1044
>>>>>Begin Spectral Data<<<<<
46.04893	1.075
50.45542	0.775
54.85868	-0.925
59.25871	-1.725
63.6555	84.675
68.04907	87.075
72.43941	91.675
76.82654	97.275
81.21044	98.775
85.59113	109.175
89.96862	108.375
94.34289	110.375
98.71396	114.775
103.08183	125.175
107.4465	124.775
111.80798	129.575
116.16626	131.675
120.52136	141.875
124.87327	144.675
129.222	147.775
133.56755	166.775
137.90993	174.075
142.24913	198.775
146.58517	220.775
150.91804	258.075
155.24774	315.375
159.57429	397.675
163.89768	509.875
168.21792	679.175
172.53501	928.775
176.84895	1303.975
181.15975	1825.275
185.46741	2562.875
189.77193	3536.475
194.07331	4716.875
198.37157	6049.575
202.6667	7482.675
206.9587	8913.175
211.24758	10296.075
215.53334	11716.475
219.81599	13231.975
224.09553	14918.575
228.37195	16788.175
232.64527	18777.575
236.91549	20870.175
241.18261	22888.775
245.44663	24803.775
249.70755	26425.575
253.96539	27873.275
258.22014	29024.475
262.4718	29961.275
266.72039	30554.675
270.96589	30839.775
275.20832	30679.475
279.44768	30403.275
283.68397	29997.775
287.91719	29706.475
292.14735	29544.775
296.37445	29523.775
300.59849	29698.675
304.81948	29975.775
309.03742	30130.575
313.25231	30093.475
317.46415	29609.775
321.67296	28850.775
325.87872	28205.275
330.08145	27778.075
334.28114	27568.275
338.47781	27675.175
342.67145	27961.575
346.86207	28372.775
351.04966	28889.475
355.23424	29436.075
359.4158	29959.375
363.59435	30311.775
367.76989	30547.475
371.94243	30528.175
376.11196	30426.575
380.27849	30328.475
384.44203	30367.775
388.60257	30532.575
392.76012	30969.275
396.91468	31465.175
401.06626	32047.175
405.21485	32321.575
409.36047	32132.475
413.50311	31700.575
417.64277	31500.975
421.77947	31656.275
425.9132	31906.775
430.04396	32009.975
434.17176	32067.375
438.2966	32066.075
442.41849	32458.775
446.53742	33311.675
450.6534	34149.075
454.76644	34634.475
458.87653	34709.975
462.98368	34433.375
467.08789	34060.275
471.18916	33590.275
475.2875	33019.075
479.38291	32781.475
483.4754	32674.275
487.56496	32446.675
491.6516	32043.875
495.73531	31451.875
499.81612	31053.575
503.89401	31117.975
507.96899	31233.675
512.04106	31231.775
516.11023	30880.575
520.1765	30446.175
524.23987	30058.875
528.30034	29776.475
532.35792	29426.075
536.41261	28989.475
540.46441	28577.775
544.51333	28507.375
548.55936	28786.475
552.60252	29499.975
556.64279	30402.675
560.6802	31114.775
564.71473	31576.075
568.7464	32376.275
572.7752	33686.875
576.80114	35249.575
580.82422	36866.475
584.84444	39153.075
588.86181	42266.975
592.87633	44895.275
596.888	44132.175
600.89682	40276.975
604.9028	38100.175
608.90594	39818.075
612.90624	42415.375
616.90371	39563.575
620.89834	32793.075
624.89015	29716.775
628.87913	29476.975
632.86528	29773.575
636.84862	29709.675
640.82913	29023.075
644.80683	28113.675
648.78172	27662.075
652.75379	27730.275
656.72306	28106.575
660.68952	28512.175
664.65319	28166.775
668.61405	27490.675
672.57211	27328.875
676.52738	27490.375
680.47986	27504.275
684.42955	27236.775
688.37646	27076.275
692.32058	27262.375
696.26192	27787.375
700.20048	28426.275
704.13626	28789.075
708.06928	28941.475
711.99952	28960.675
715.927	28963.475
719.85171	29063.575
723.77365	28793.775
727.69284	28112.675
731.60928	27498.675
735.52295	27316.275
739.43388	27266.275
743.34206	27396.575
747.24749	27606.475
751.15017	28065.575
755.05012	28743.975
758.94733	29705.875
762.8418	31340.375
766.73354	33826.675
770.62254	36068.175
774.50882	36140.175
778.39237	34194.175
782.27321	31654.075
786.15132	29630.175
790.02671	28351.675
793.89938	27651.375
797.76935	27313.475
801.6366	27193.475
805.50115	27107.575
809.36299	26972.075
813.22213	26756.375
817.07857	26617.775
820.93231	26467.175
824.78336	26201.675
828.63172	26002.975
832.47738	25912.175
836.32036	25861.175
840.16066	25877.375
843.99827	25883.775
847.8332	25836.975
851.66546	25848.475
855.49504	25920.575
859.32195	25883.675
863.1462	25789.775
866.96777	25675.175
870.78668	25611.075
874.60293	25656.575
878.41652	25698.075
882.22745	25855.275
886.03573	25972.975
889.84136	25976.975
893.64433	25980.875
897.44466	25932.875
901.24235	25922.775
905.0374	25855.775
908.8298	25809.175
912.61957	25888.775
916.40671	26160.575
920.19121	26628.375
923.97308	27118.675
927.75233	27265.475
931.52895	26901.275
935.30295	26193.275
939.07433	25383.575
942.84309	24780.175
946.60924	24543.875
950.37278	24448.275
954.13371	24420.875
957.89203	24406.075
961.64774	24374.775
965.40086	24399.675
969.15137	24283.575
972.89929	24121.675
976.64461	23875.475
980.38733	23795.575
984.12747	23804.675
987.86502	23801.075
991.59999	23948.575
995.33237	24180.475
999.06217	24594.875
1002.78939	25165.275
1006.51404	25837.275
1010.23611	26501.675
1013.95561	26917.875
1017.67255	27018.175
1021.38692	26637.775
1025.09872	26025.975
1028.80796	25527.975
1032.51465	25445.875
1036.21877	25591.075
1039.92035	25769.475
1043.61937	25912.275
1047.31584	25932.275
1051.00976	25932.275
1054.70114	26026.475
1058.38998	26125.075
1062.07627	26321.275
1065.76003	26716.975
1069.44126	27268.475
1073.11995	27946.975
1076.79611	28617.875
1080.46974	28836.375
1084.14085	28971.075
1087.80943	29346.475
1091.47549	29788.075
1095.13903	29870.575
1098.80005	29284.175
1102.45857	28251.075
1106.11456	27369.075
1109.76805	26954.975
1113.41903	26845.075
1117.06751	26968.475
1120.71348	27263.775
1124.35696	27683.675
1127.99793	28129.275
1131.63641	28407.275
1135.2724	28394.975
1138.90589	28271.375
1142.5369	28448.775
1146.16542	28821.475
1149.79145	29196.775
1153.415	29615.975
1157.03607	30273.975
1160.65467	31493.975
1164.27079	33485.775
1167.88443	35724.375
1171.49561	38003.275
1175.10432	40744.575
1178.71056	44263.775
1182.31434	47457.975
1185.91565	48768.175
1189.51451	48032.275
1193.11091	46393.075
1196.70485	44255.675
1200.29634	42251.475
1203.88538	41051.175
1207.47197	40647.375
1211.05612	40448.175
1214.63782	39738.775
1218.21708	38456.475
1221.79391	36849.675
1225.36829	35737.475
1228.94024	35131.675
1232.50976	34628.775
1236.07685	34033.775
1239.6415	33540.375
1243.20374	33369.875
1246.76355	33530.975
1250.32093	34064.975
1253.8759	34935.575
1257.42845	36139.475
1260.97859	37605.375
1264.52631	39108.675
1268.07163	40475.975
1271.61453	41830.475
1275.15503	43307.475
1278.69312	45107.075
1282.22882	47246.875
1285.76211	49866.075
1289.29301	52765.875
1292.82151	55817.275
1296.34761	59372.475
1299.87133	63436.075
1303.39266	67388.175
1306.9116	70376.175
1310.42815	72136.075
1313.94233	72551.075
1317.45412	71486.775
1320.96354	69869.675
1324.47058	68801.575
1327.97525	68222.175
1331.47754	67528.275
1334.97747	66316.075
1338.47502	64524.075
1341.97022	62550.275
1345.46305	60868.075
1348.95352	59892.875
1352.44163	60052.475
1355.92738	62197.575
1359.41078	66158.175
1362.89183	69990.675
1366.37053	70709.175
1369.84688	65688.175
1373.32088	57411.575
1376.79254	50952.575
1380.26186	48626.075
1383.72883	48494.775
1387.19347	48481.875
1390.65578	47756.275
1394.11575	47498.675
1397.57339	48283.775
1401.0287	49550.375
1404.48168	50327.775
1407.93234	49895.875
1411.38068	48275.575
1414.82669	45930.175
1418.27039	43576.775
1421.71177	41443.675
1425.15083	39825.175
1428.58758	39259.375
1432.02203	39853.175
1435.45416	41370.775
1438.88399	42773.175
1442.31151	43676.475
1445.73673	43986.475
1449.15965	44277.075
1452.58027	44212.375
1455.9986	43902.475
1459.41463	43975.075
1462.82837	44615.575
1466.23982	45578.175
1469.64898	46427.175
1473.05586	46847.175
1476.46045	46893.675
1479.86276	46629.775
1483.26279	46348.275
1486.66054	46439.875
1490.05602	47061.175
1493.44922	48005.075
1496.84016	49030.375
1500.22882	50089.375
1503.61521	51398.975
1506.99934	52739.675
1510.38121	53901.775
1513.76081	54263.875
1517.13816	53572.875
1520.51324	52348.075
1523.88607	51659.575
1527.25665	51556.375
1530.62498	51508.875
1533.99105	50820.775
1537.35488	49344.675
1540.71647	47323.675
1544.07581	45171.175
1547.4329	43105.675
1550.78776	41532.075
1554.14038	40619.175
1557.49077	40221.575
1560.83892	40104.775
1564.18484	40124.375
1567.52853	40274.075
1570.86999	40845.575
1574.20922	41941.475
1577.54624	43136.875
1580.88103	43760.975
1584.2136	44769.575
1587.54395	46849.575
1590.87208	50077.375
1594.19801	53463.275
1597.52172	56022.175
1600.84321	55618.975
1604.16251	51468.075
1607.47959	45772.275
1610.79447	40579.375
1614.10715	36341.375
1617.41763	33246.175
1620.7259	31353.475
1624.03199	30563.475
1627.33587	30811.375
1630.63757	32264.475
1633.93707	35185.275
1637.23439	40168.475
1640.52951	47798.175
1643.82246	57178.575
1647.11321	64589.975
1650.40179	65789.675
1653.68819	59400.375
1656.97241	49234.375
1660.25446	39734.775
1663.53433	33091.175
1666.81203	28959.975
1670.08756	26513.675
1673.36092	25051.575
1676.63211	24132.575
1679.90115	23482.575
1683.16801	22978.875
1686.43272	22636.775
1689.69527	22384.075
1692.95567	22167.075
1696.2139	22030.175
1699.46999	21908.675
1702.72392	21791.375
1705.97571	21706.175
1709.22535	21636.875
1712.47284	21572.275
1715.71819	21520.175
1718.96139	21409.075
1722.20246	21338.375
1725.44139	21258.475
1728.67818	21076.175
1731.91284	20881.875
1735.14537	20731.075
1738.37576	20611.775
1741.60403	20526.775
1744.83017	20434.675
1748.05418	20355.875
1751.27607	20301.475
1754.49584	20229.175
1757.71349	20248.975
1760.92903	20246.275
1764.14244	20221.275
1767.35375	20174.175
1770.56294	20121.875
1773.77002	20069.775
1776.97499	20022.175
1780.17785	19908.375
1783.37861	19932.775
1786.57727	19880.975
1789.77382	19822.075
1792.96828	19775.875
1796.16064	19724.375
1799.3509	19682.575
1802.53907	19667.375
1805.72514	19596.675
1808.90913	19521.275
1812.09102	19499.275
1815.27083	19465.175
1818.44856	19427.775
1821.6242	19426.075
1824.79776	19440.275
1827.96924	19406.575
1831.13864	19450.375
1834.30597	19473.475
1837.47122	19450.875
1840.6344	19475.875
1843.7955	19498.275
1846.95454	19462.875
1850.11151	19442.075
1853.26642	19418.475
1856.41926	19414.075
1859.57004	19386.675
1862.71876	19335.775
1865.86542	19320.275
1869.01003	19277.375
1872.15258	19232.475
1875.29308	19206.375
1878.43152	19193.975
1881.56792	19148.675
1884.70227	19096.875
1887.83457	19051.175
1890.96482	19036.375
1894.09304	18973.675
1897.21921	18947.475
1900.34335	18879.675
1903.46544	18844.475
1906.58551	18859.875
1909.70353	18800.375
1912.81953	18708.475
1915.93349	18662.375
1919.04543	18645.475
1922.15534	18567.975
1925.26322	18513.275
1928.36908	18424.475
1931.47292	18371.075
1934.57473	18273.775
1937.67453	18241.175
1940.77232	18186.575
1943.86808	18148.075
1946.96184	18086.175
1950.05358	18046.275
1953.14331	18036.475
1956.23103	17978.875
1959.31675	17929.475
1962.40046	17882.375
1965.48217	17765.075
1968.56188	17741.475
1971.63959	17648.975
1974.7153	17599.775
1977.78901	17535.375
1980.86073	17504.475
1983.93046	17432.875
1986.99819	17329.275
1990.06394	17329.275
1993.1277	17279.275
1996.18947	17164.175
1999.24925	17136.975
2002.30706	17074.075
2005.36288	17004.775
2008.41672	16947.875
2011.46859	16921.575
2014.51848	16835.975
2017.56639	16815.775
2020.61233	16756.975
2023.6563	16755.075
2026.6983	16684.875
2029.73833	16661.675
2032.7764	16576.375
2035.8125	16592.175
2038.84664	16526.375
2041.87881	16536.775
2044.90903	16514.875
2047.93729	16494.375
2050.96359	16464.375
2053.98794	16435.775
2057.01034	16396.475
2060.03078	16334.575
2063.04927	16333.075
2066.06582	16310.075
2069.08042	16323.075
2072.09307	16301.775
2075.10378	16285.075
2078.11255	16292.175
2081.11938	16318.175
2084.12426	16291.475
2087.12722	16268.175
2090.12824	16255.475
2093.12732	16234.375
2096.12447	16301.975
2099.11969	16306.675
2102.11299	16299.875
2105.10435	16310.075
2108.09379	16314.375
2111.08131	16307.775
2114.0669	16310.875
2117.05057	16302.475
2120.03233	16288.875
2123.01216	16295.175
2125.99008	16279.675
2128.96609	16310.375
2131.94018	16286.275
2134.91236	16282.475
2137.88263	16271.375
2140.851	16270.375
2143.81746	16250.975
2146.78201	16229.175
2149.74466	16232.975
2152.7054	16216.375
2155.66425	16197.575
2158.6212	16213.975
2161.57625	16191.875
2164.52941	16158.675
2167.48067	16119.475
2170.43004	16166.275
2173.37752	16156.175
2176.32311	16174.075
2179.26681	16164.075
2182.20863	16170.275
2185.14856	16150.275
2188.08661	16147.075
2191.02278	16113.375
2193.95707	16075.575
2196.88948	16069.375
2199.82001	16081.775
2202.74867	16071.375
2205.67545	16034.575
2208.60037	16014.975
2211.52341	15991.775
2214.44458	15962.175
2217.36388	15917.575
2220.28132	15909.775
2223.1969	15858.275
2226.11061	15845.775
2229.02246	15797.675
2231.93245	15819.575
2234.84058	15802.575
2237.74686	15779.775
2240.65128	15809.375
2243.55385	15748.075
2246.45456	15703.975
2249.35343	15654.875
2252.25044	15611.575
2255.14561	15577.975
2258.03893	15574.275
2260.93041	15497.675
2263.82004	15451.075
2266.70783	15426.375
2269.59378	15376.575
2272.4779	15351.975
2275.36017	15287.475
2278.24061	15265.975
2281.11922	15211.075
2283.996	15206.575
2286.87094	15200.875
2289.74405	15137.275
2292.61534	15082.475
2295.4848	15073.375
2298.35243	15085.175
2301.21824	15090.675
2304.08223	15057.075
2306.94439	15067.375
2309.80474	15061.875
2312.66327	15008.775
2315.51999	15027.775
2318.37489	15023.475
2321.22797	14975.275
2324.07925	14971.075
2326.92871	14939.775
2329.77637	14934.475
2332.62222	14958.975
2335.46626	14914.675
2338.3085	14886.675
2341.14893	14915.975
2343.98756	14891.175
2346.8244	14869.475
2349.65943	14847.175
2352.49267	14809.175
2355.32411	14864.175
2358.15376	14871.475
2360.98161	14833.075
2363.80768	14854.575
2366.63195	14842.875
2369.45444	14818.975
2372.27514	14800.875
2375.09405	14760.675
2377.91118	14731.075
2380.72652	14683.575
2383.54009	14641.575
2386.35187	14612.375
2389.16188	14584.075
2391.97011	14545.175
2394.77657	14522.775
2397.58125	14514.175
2400.38416	14476.375
2403.18529	14455.675
2405.98466	14435.775
2408.78226	14390.875
2411.57809	14379.175
2414.37216	14359.675
2417.16446	14395.675
2419.955	14333.575
2422.74378	14368.575
2425.5308	14346.575
2428.31606	14352.275
2431.09956	14320.775
2433.88131	14326.475
2436.6613	14301.275
2439.43954	14290.575
2442.21603	14274.775
2444.99077	14278.275
2447.76377	14285.775
2450.53501	14259.175
2453.30451	14268.175
2456.07226	14248.075
2458.83827	14248.075
2461.60254	14277.575
2464.36507	14237.675
2467.12586	14215.775
2469.88492	14222.775
2472.64224	14229.175
2475.39782	14211.275
2478.15167	14245.275
2480.90379	14200.075
2483.65417	14198.675
2486.40283	14193.275
2489.14976	14209.975
2491.89497	14192.775
2494.63845	14215.775
2497.3802	14155.375
2500.12024	14193.275
2502.85855	14144.575
2505.59514	14166.575
2508.33002	14157.575
2511.06318	14114.575
2513.79462	14091.475
2516.52435	14050.775
2519.25237	14053.675
2521.97867	14060.775
2524.70327	14044.475
2527.42616	13991.575
2530.14734	13990.875
2532.86681	13980.275
2535.58458	14001.875
2538.30065	13958.875
2541.01501	13936.275
2543.72768	13922.675
2546.43864	13870.575
2549.14791	13880.375
2551.85548	13871.875
2554.56136	13880.175
2557.26554	13858.775
2559.96803	13856.575
2562.66883	13855.575
2565.36794	13844.675
2568.06536	13860.175
2570.7611	13819.175
2573.45514	13786.875
2576.14751	13776.975
2578.83819	13801.775
2581.52719	13785.575
2584.21451	13748.475
2586.90015	13736.875
2589.58411	13735.475
2592.2664	13715.775
2594.94701	13704.175
2597.62594	13673.775
2600.30321	13673.075
2602.9788	13654.675
2605.65273	13661.775
2608.32498	13675.375
2610.99557	13645.375
2613.66449	13661.275
2616.33175	13643.975
2618.99734	13656.075
2621.66128	13631.775
2624.32355	13616.975
2626.98416	13626.275
2629.64311	13590.575
2632.30041	13546.875
2634.95605	13601.075
2637.61004	13578.175
2640.26238	13536.175
2642.91306	13526.675
2645.56209	13541.275
2648.20948	13539.675
2650.85521	13545.575
2653.4993	13540.075
2656.14175	13554.075
2658.78255	13542.275
2661.42171	13590.475
2664.05923	13584.375
2666.6951	13566.775
2669.32934	13571.975
2671.96194	13579.175
2674.59291	13579.375
2677.22224	13570.675
2679.84993	13573.675
2682.476	13565.275
2685.10043	13574.675
2687.72324	13548.475
2690.34441	13547.275
2692.96396	13551.175
2695.58188	13562.875
2698.19818	13519.875
2700.81285	13546.875
2703.4259	13546.075
2706.03733	13564.575
2708.64714	13557.975
2711.25533	13554.675
2713.86191	13536.775
2716.46687	13577.875
2719.07021	13565.075
2721.67194	13591.075
2724.27206	13569.975
2726.87057	13593.975
2729.46747	13563.175
2732.06276	13590.575
2734.65644	13614.675
2737.24852	13607.775
2739.83899	13601.175
2742.42786	13612.975
2745.01513	13551.675
2747.60079	13554.375
2750.18486	13552.975
2752.76733	13560.575
2755.3482	13528.575
2757.92747	13554.575
2760.50515	13536.975
2763.08123	13533.675
2765.65573	13498.275
2768.22863	13545.275
2770.79994	13503.975
2773.36967	13487.275
2775.9378	13462.075
2778.50435	13450.375
2781.06932	13461.875
2783.6327	13475.175
2786.1945	13454.575
2788.75471	13447.975
2791.31335	13397.075
2793.87041	13406.375
2796.42589	13360.975
2798.97979	13337.775
2801.53212	13345.675
2804.08288	13367.275
2806.63206	13330.175
2809.17967	13314.475
2811.72571	13284.075
2814.27018	13241.375
2816.81308	13252.775
2819.35442	13223.275
2821.89419	13233.575
2824.43239	13240.375
2826.96904	13200.775
2829.50412	13183.475
2832.03763	13140.775
2834.56959	13151.675
2837.1	13131.275
2839.62884	13152.075
2842.15613	13153.375
2844.68186	13209.375
2847.20604	13254.975
2849.72867	13253.275
2852.24974	13230.575
2854.76927	13256.775
2857.28724	13258.675
2859.80367	13226.175
2862.31855	13212.575
2864.83189	13199.475
2867.34368	13187.175
2869.85393	13168.075
2872.36264	13148.975
2874.8698	13182.275
2877.37543	13217.675
2879.87952	13185.175
2882.38207	13211.975
2884.88308	13213.175
2887.38256	13228.975
2889.88051	13260.375
2892.37692	13240.875
2894.8718	13247.675
2897.36515	13252.475
2899.85698	13271.975
2902.34727	13281.175
2904.83604	13284.075
2907.32328	13336.975
2909.809	13279.775
2912.29319	13251.775
2914.77587	13282.575
2917.25702	13278.075
2919.73665	13263.975
2922.21476	13272.475
2924.69136	13233.975
2927.16644	13265.375
2929.64	13246.675
2932.11205	13241.175
2934.58258	13201.275
2937.05161	13218.875
2939.51912	13187.375
2941.98513	13162.575
2944.44962	13093.975
2946.91261	13001.875
2949.37409	13019.875
2951.83407	13021.175
2954.29254	12973.675
2956.74951	12900.975
2959.20498	12907.875
2961.65895	12868.775
2964.11142	12850.975
2966.56239	12806.375
2969.01186	12818.975
2971.45984	12737.975
2973.90632	12727.075
2976.35131	12655.375
2978.7948	12612.075
2981.23681	12591.475
2983.67732	12542.375
2986.11635	12446.975
2988.55388	12408.475
2990.98993	12386.975
2993.4245	12374.375
2995.85758	12328.775
2998.28917	12285.275
3000.71928	12302.275
3003.14791	12298.875
3005.57506	12223.075
3008.00073	12189.775
3010.42493	12207.175
3012.84764	12164.475
3015.26888	12155.075
3017.68865	12114.675
3020.10694	12110.475
3022.52376	12031.875
3024.9391	12029.375
3027.35298	11984.075
3029.76539	11977.775
3032.17632	11938.575
3034.5858	11972.575
3036.9938	11969.775
3039.40034	11924.275
3041.80542	11918.375
3044.20903	11886.575
3046.61118	11863.075
3049.01187	11834.575
3051.4111	11814.975
3053.80888	11809.975
3056.20519	11749.375
3058.60005	11700.075
3060.99345	11700.775
3063.3854	11708.475
3065.7759	11620.775
3068.16494	11620.175
3070.55254	11596.075
3072.93868	11564.875
3075.32338	11524.575
3077.70662	11489.275
3080.08842	11443.875
3082.46878	11445.675
3084.84769	11436.375
3087.22515	11411.775
3089.60118	11400.875
3091.97576	11410.475
3094.3489	11381.275
3096.72061	11378.275
3099.09087	11352.575
3101.4597	11301.575
3103.82709	11306.075
3106.19305	11273.775
3108.55757	11272.175
3110.92066	11219.375
3113.28232	11170.375
3115.64255	11121.275
3118.00134	11168.575
3120.35871	11117.175
3122.71466	11110.975
3125.06917	11084.575
3127.42226	11038.075
