Data from AgNPs_FTO_APTES_UA_2uM_CRN_500uM_R6G_10uM_NaF_0.1M_Addition_RamanShift__19__17-20-45-419.txt Node

Date: Wed Feb 02 17:20:45 GMT 2022
User: TCL
Spectrometer: QEP01345
Trigger mode: 4
Integration Time (sec): 7.000000E0
Scans to average: 10
Electric dark correction enabled: true
Nonlinearity correction enabled: false
Boxcar width: 0
XAxis mode: Raman Shifts
Number of Pixels in Spectrum: 1044
>>>>>Begin Spectral Data<<<<<
46.04893	0.775
50.45542	-0.625
54.85868	-0.825
59.25871	-0.225
63.6555	61.775
68.04907	68.175
72.43941	67.275
76.82654	73.475
81.21044	74.775
85.59113	80.075
89.96862	79.275
94.34289	83.375
98.71396	87.875
103.08183	91.975
107.4465	91.475
111.80798	92.875
116.16626	96.175
120.52136	98.775
124.87327	107.875
129.222	107.975
133.56755	118.375
137.90993	126.075
142.24913	137.775
146.58517	156.275
150.91804	179.775
155.24774	215.875
159.57429	267.475
163.89768	334.275
168.21792	447.775
172.53501	609.475
176.84895	852.175
181.15975	1195.175
185.46741	1665.075
189.77193	2290.475
194.07331	3074.775
198.37157	3940.775
202.6667	4879.475
206.9587	5776.075
211.24758	6689.175
215.53334	7603.575
219.81599	8561.375
224.09553	9613.975
228.37195	10721.375
232.64527	11984.575
236.91549	13245.575
241.18261	14564.975
245.44663	15777.675
249.70755	16951.175
253.96539	17949.775
258.22014	18854.575
262.4718	19543.975
266.72039	20096.175
270.96589	20396.375
275.20832	20512.375
279.44768	20575.675
283.68397	20567.575
287.91719	20554.375
292.14735	20628.575
296.37445	20763.775
300.59849	20848.175
304.81948	20855.475
309.03742	20583.875
313.25231	20136.575
317.46415	19572.375
321.67296	18916.675
325.87872	18364.075
330.08145	18021.475
334.28114	17862.975
338.47781	17944.175
342.67145	18093.375
346.86207	18268.775
351.04966	18527.675
355.23424	18806.175
359.4158	19052.175
363.59435	19182.075
367.76989	19298.675
371.94243	19358.075
376.11196	19429.775
380.27849	19492.475
384.44203	19664.275
388.60257	19903.975
392.76012	20160.275
396.91468	20452.275
401.06626	20730.875
405.21485	20907.875
409.36047	20884.675
413.50311	20675.575
417.64277	20542.475
421.77947	20619.975
425.9132	20747.275
430.04396	20926.175
434.17176	21069.975
438.2966	21265.775
442.41849	21642.875
446.53742	22237.375
450.6534	22994.975
454.76644	23571.475
458.87653	23831.275
462.98368	23849.675
467.08789	23699.275
471.18916	23566.075
475.2875	23558.975
479.38291	23792.275
483.4754	23889.075
487.56496	23511.275
491.6516	22834.875
495.73531	22016.875
499.81612	21486.775
503.89401	21364.275
507.96899	21345.375
512.04106	21224.775
516.11023	20925.075
520.1765	20541.875
524.23987	20226.775
528.30034	19960.975
532.35792	19764.275
536.41261	19558.575
540.46441	19448.475
544.51333	19565.875
548.55936	20009.675
552.60252	20603.075
556.64279	21319.375
560.6802	21940.675
564.71473	22407.675
568.7464	23106.575
572.7752	23913.675
576.80114	24619.075
580.82422	25028.175
584.84444	25253.875
588.86181	25536.675
592.87633	25656.675
596.888	25448.275
600.89682	24950.275
604.9028	24951.175
608.90594	25717.175
612.90624	26319.575
616.90371	24356.675
620.89834	21016.875
624.89015	19536.175
628.87913	19471.675
632.86528	19684.575
636.84862	19785.075
640.82913	19602.275
644.80683	19136.475
648.78172	18640.875
652.75379	18460.975
656.72306	18522.675
660.68952	18620.075
664.65319	18511.875
668.61405	18326.775
672.57211	18246.075
676.52738	18297.775
680.47986	18408.575
684.42955	18356.675
688.37646	18291.175
692.32058	18286.275
696.26192	18477.775
700.20048	18665.775
704.13626	18831.575
708.06928	18900.675
711.99952	18888.475
715.927	18817.375
719.85171	18846.275
723.77365	18784.475
727.69284	18582.175
731.60928	18408.575
735.52295	18286.375
739.43388	18241.375
743.34206	18236.275
747.24749	18341.175
751.15017	18560.775
755.05012	18975.575
758.94733	19617.875
762.8418	20713.375
766.73354	22150.975
770.62254	23269.675
774.50882	23130.775
778.39237	21844.375
782.27321	20250.275
786.15132	19052.875
790.02671	18355.075
793.89938	18024.475
797.76935	17917.375
801.6366	17894.575
805.50115	17877.775
809.36299	17804.875
813.22213	17667.375
817.07857	17681.975
820.93231	17650.475
824.78336	17482.475
828.63172	17264.975
832.47738	17169.775
836.32036	17149.275
840.16066	17119.175
843.99827	17117.275
847.8332	17048.375
851.66546	17020.475
855.49504	16968.675
859.32195	16953.275
863.1462	16890.675
866.96777	16858.075
870.78668	16842.175
874.60293	16845.975
878.41652	16801.275
882.22745	16844.175
886.03573	16883.075
889.84136	16930.175
893.64433	16839.075
897.44466	16784.275
901.24235	16723.775
905.0374	16643.975
908.8298	16582.875
912.61957	16668.375
916.40671	16914.275
920.19121	17218.775
923.97308	17343.375
927.75233	17224.875
931.52895	16934.475
935.30295	16631.775
939.07433	16290.375
942.84309	16004.775
946.60924	15853.975
950.37278	15805.475
954.13371	15819.975
957.89203	15859.575
961.64774	15870.675
965.40086	15884.775
969.15137	15793.475
972.89929	15640.075
976.64461	15466.675
980.38733	15413.275
984.12747	15375.975
987.86502	15399.775
991.59999	15496.075
995.33237	15672.375
999.06217	15972.775
1002.78939	16388.475
1006.51404	16646.875
1010.23611	16863.475
1013.95561	17050.875
1017.67255	17092.275
1021.38692	16951.475
1025.09872	16688.975
1028.80796	16469.975
1032.51465	16504.375
1036.21877	16639.775
1039.92035	16728.975
1043.61937	16714.375
1047.31584	16647.575
1051.00976	16646.975
1054.70114	16712.875
1058.38998	16892.675
1062.07627	17143.475
1065.76003	17411.975
1069.44126	17642.575
1073.11995	17828.775
1076.79611	17986.675
1080.46974	18025.075
1084.14085	18088.875
1087.80943	18256.675
1091.47549	18496.575
1095.13903	18705.775
1098.80005	18604.875
1102.45857	18126.975
1106.11456	17687.975
1109.76805	17415.575
1113.41903	17389.075
1117.06751	17532.675
1120.71348	17680.075
1124.35696	17942.875
1127.99793	18241.475
1131.63641	18431.575
1135.2724	18430.875
1138.90589	18372.975
1142.5369	18526.075
1146.16542	18806.475
1149.79145	19206.175
1153.415	19670.775
1157.03607	20257.875
1160.65467	21077.975
1164.27079	22243.975
1167.88443	23654.575
1171.49561	25205.175
1175.10432	27041.775
1178.71056	29269.675
1182.31434	31412.375
1185.91565	32606.275
1189.51451	32692.275
1193.11091	32206.075
1196.70485	31371.875
1200.29634	30305.075
1203.88538	29438.675
1207.47197	29077.575
1211.05612	28776.675
1214.63782	28178.775
1218.21708	27236.075
1221.79391	26202.175
1225.36829	25351.675
1228.94024	24702.175
1232.50976	24100.675
1236.07685	23600.175
1239.6415	23358.975
1243.20374	23337.275
1246.76355	23547.375
1250.32093	23952.175
1253.8759	24510.975
1257.42845	25214.175
1260.97859	25973.375
1264.52631	26754.275
1268.07163	27509.775
1271.61453	28306.175
1275.15503	29236.375
1278.69312	30293.575
1282.22882	31410.175
1285.76211	32749.675
1289.29301	34494.575
1292.82151	36693.975
1296.34761	39380.575
1299.87133	42318.375
1303.39266	44917.875
1306.9116	47039.775
1310.42815	48556.175
1313.94233	49466.375
1317.45412	49787.775
1320.96354	49909.675
1324.47058	50048.175
1327.97525	50262.475
1331.47754	50331.475
1334.97747	50486.775
1338.47502	50308.975
1341.97022	49617.275
1345.46305	48325.575
1348.95352	46671.975
1352.44163	44991.075
1355.92738	43924.575
1359.41078	43695.175
1362.89183	43664.475
1366.37053	42697.975
1369.84688	40019.475
1373.32088	36638.175
1376.79254	34405.375
1380.26186	33927.575
1383.72883	34590.475
1387.19347	35443.175
1390.65578	35957.175
1394.11575	36548.475
1397.57339	37415.575
1401.0287	38567.075
1404.48168	39335.175
1407.93234	39278.675
1411.38068	38035.075
1414.82669	36008.575
1418.27039	33547.775
1421.71177	31149.575
1425.15083	29209.375
1428.58758	28153.875
1432.02203	28088.875
1435.45416	28940.675
1438.88399	30190.875
1442.31151	31437.875
1445.73673	32508.675
1449.15965	33467.875
1452.58027	34251.975
1455.9986	34745.175
1459.41463	35169.675
1462.82837	35541.675
1466.23982	35902.475
1469.64898	36176.175
1473.05586	36159.875
1476.46045	35801.375
1479.86276	35162.475
1483.26279	34295.875
1486.66054	33542.575
1490.05602	33150.475
1493.44922	32995.975
1496.84016	32830.075
1500.22882	32992.875
1503.61521	33411.675
1506.99934	34026.275
1510.38121	34732.675
1513.76081	35019.375
1517.13816	34844.275
1520.51324	34431.275
1523.88607	34219.075
1527.25665	34377.375
1530.62498	34756.375
1533.99105	35014.275
1537.35488	34928.775
1540.71647	34341.375
1544.07581	33237.875
1547.4329	32106.375
1550.78776	31103.275
1554.14038	30333.775
1557.49077	29952.375
1560.83892	29769.175
1564.18484	29655.175
1567.52853	29632.675
1570.86999	29993.075
1574.20922	30716.075
1577.54624	31730.675
1580.88103	32627.275
1584.2136	33677.475
1587.54395	35185.175
1590.87208	37112.275
1594.19801	39086.475
1597.52172	40753.875
1600.84321	40948.375
1604.16251	38825.075
1607.47959	35319.375
1610.79447	31609.275
1614.10715	28278.575
1617.41763	25548.475
1620.7259	23684.475
1624.03199	22660.275
1627.33587	22605.975
1630.63757	23395.775
1633.93707	25291.375
1637.23439	28416.575
1640.52951	32761.275
1643.82246	37711.275
1647.11321	41520.575
1650.40179	42109.975
1653.68819	38891.775
1656.97241	33403.475
1660.25446	27874.675
1663.53433	23463.575
1666.81203	20434.975
1670.08756	18498.075
1673.36092	17229.775
1676.63211	16443.375
1679.90115	15937.275
1683.16801	15478.175
1686.43272	15165.575
1689.69527	14940.375
1692.95567	14750.875
1696.2139	14679.575
1699.46999	14569.975
1702.72392	14453.475
1705.97571	14375.075
1709.22535	14272.875
1712.47284	14203.475
1715.71819	14138.175
1718.96139	14079.175
1722.20246	13992.675
1725.44139	13878.675
1728.67818	13772.775
1731.91284	13701.275
1735.14537	13610.175
1738.37576	13568.475
1741.60403	13539.575
1744.83017	13458.175
1748.05418	13411.575
1751.27607	13428.475
1754.49584	13404.675
1757.71349	13401.775
1760.92903	13382.975
1764.14244	13343.675
1767.35375	13324.775
1770.56294	13259.975
1773.77002	13219.075
1776.97499	13150.075
1780.17785	13086.975
1783.37861	13077.475
1786.57727	13018.275
1789.77382	12985.675
1792.96828	12933.775
1796.16064	12870.475
1799.3509	12850.175
1802.53907	12808.675
1805.72514	12788.375
1808.90913	12753.175
1812.09102	12729.275
1815.27083	12706.575
1818.44856	12653.775
1821.6242	12620.475
1824.79776	12596.975
1827.96924	12586.275
1831.13864	12562.875
1834.30597	12577.775
1837.47122	12596.475
1840.6344	12573.875
1843.7955	12560.375
1846.95454	12565.275
1850.11151	12580.575
1853.26642	12575.075
1856.41926	12552.575
1859.57004	12544.275
1862.71876	12500.875
1865.86542	12483.275
1869.01003	12465.875
1872.15258	12465.975
1875.29308	12453.475
1878.43152	12429.275
1881.56792	12431.575
1884.70227	12402.275
1887.83457	12407.075
1890.96482	12387.575
1894.09304	12353.075
1897.21921	12343.675
1900.34335	12361.975
1903.46544	12340.175
1906.58551	12319.675
1909.70353	12295.975
1912.81953	12249.475
1915.93349	12228.275
1919.04543	12197.075
1922.15534	12155.375
1925.26322	12143.775
1928.36908	12061.975
1931.47292	12073.475
1934.57473	12035.875
1937.67453	11994.775
1940.77232	11942.575
1943.86808	11899.275
1946.96184	11869.475
1950.05358	11833.075
1953.14331	11785.575
1956.23103	11783.275
1959.31675	11703.775
1962.40046	11693.675
1965.48217	11629.675
1968.56188	11584.175
1971.63959	11556.775
1974.7153	11538.575
1977.78901	11494.975
1980.86073	11459.575
1983.93046	11424.175
1986.99819	11351.875
1990.06394	11336.375
1993.1277	11311.075
1996.18947	11238.475
1999.24925	11243.775
2002.30706	11177.275
2005.36288	11142.975
2008.41672	11139.075
2011.46859	11084.475
2014.51848	11045.075
2017.56639	11023.975
2020.61233	10999.475
2023.6563	10983.575
2026.6983	10961.375
2029.73833	10921.475
2032.7764	10942.175
2035.8125	10880.375
2038.84664	10841.275
2041.87881	10843.775
2044.90903	10811.175
2047.93729	10782.875
2050.96359	10793.075
2053.98794	10776.275
2057.01034	10756.775
2060.03078	10753.175
2063.04927	10758.975
2066.06582	10724.275
2069.08042	10715.075
2072.09307	10710.775
2075.10378	10695.675
2078.11255	10681.375
2081.11938	10669.775
2084.12426	10673.275
2087.12722	10655.875
2090.12824	10670.375
2093.12732	10637.275
2096.12447	10657.275
2099.11969	10651.975
2102.11299	10639.275
2105.10435	10648.975
2108.09379	10645.475
2111.08131	10667.575
2114.0669	10651.675
2117.05057	10657.175
2120.03233	10659.975
2123.01216	10642.675
2125.99008	10628.575
2128.96609	10636.875
2131.94018	10648.875
2134.91236	10636.975
2137.88263	10659.775
2140.851	10647.475
2143.81746	10662.075
2146.78201	10657.975
2149.74466	10621.175
2152.7054	10665.575
2155.66425	10609.375
2158.6212	10637.375
2161.57625	10627.975
2164.52941	10601.775
2167.48067	10600.875
2170.43004	10575.875
2173.37752	10595.875
2176.32311	10586.575
2179.26681	10623.775
2182.20863	10577.975
2185.14856	10580.775
2188.08661	10600.175
2191.02278	10553.875
2193.95707	10542.375
2196.88948	10530.475
2199.82001	10542.475
2202.74867	10491.975
2205.67545	10514.375
2208.60037	10489.975
2211.52341	10485.775
2214.44458	10436.875
2217.36388	10429.375
2220.28132	10422.375
2223.1969	10402.975
2226.11061	10394.575
2229.02246	10361.775
2231.93245	10358.075
2234.84058	10317.975
2237.74686	10274.575
2240.65128	10290.375
2243.55385	10281.375
2246.45456	10237.675
2249.35343	10252.675
2252.25044	10173.575
2255.14561	10164.475
2258.03893	10140.675
2260.93041	10131.375
2263.82004	10094.275
2266.70783	10069.975
2269.59378	10054.775
2272.4779	10023.575
2275.36017	9985.375
2278.24061	9959.075
2281.11922	9942.375
2283.996	9950.775
2286.87094	9906.475
2289.74405	9906.775
2292.61534	9880.975
2295.4848	9878.175
2298.35243	9851.275
2301.21824	9865.175
2304.08223	9848.475
2306.94439	9849.275
2309.80474	9826.875
2312.66327	9845.275
2315.51999	9829.975
2318.37489	9815.075
2321.22797	9808.375
2324.07925	9784.275
2326.92871	9767.375
2329.77637	9800.075
2332.62222	9767.075
2335.46626	9749.975
2338.3085	9726.675
2341.14893	9734.675
2343.98756	9736.575
2346.8244	9727.275
2349.65943	9719.575
2352.49267	9729.475
2355.32411	9725.175
2358.15376	9728.975
2360.98161	9707.975
2363.80768	9721.775
2366.63195	9662.075
2369.45444	9676.875
2372.27514	9667.075
2375.09405	9652.675
2377.91118	9638.275
2380.72652	9643.675
2383.54009	9587.675
2386.35187	9583.575
2389.16188	9570.475
2391.97011	9556.475
2394.77657	9507.475
2397.58125	9494.175
2400.38416	9495.075
2403.18529	9492.775
2405.98466	9462.475
2408.78226	9448.075
2411.57809	9452.075
2414.37216	9428.175
2417.16446	9429.275
2419.955	9399.375
2422.74378	9381.375
2425.5308	9393.475
2428.31606	9393.375
2431.09956	9378.375
2433.88131	9373.775
2436.6613	9386.175
2439.43954	9332.175
2442.21603	9345.875
2444.99077	9318.475
2447.76377	9363.375
2450.53501	9357.475
2453.30451	9336.575
2456.07226	9349.675
2458.83827	9317.075
2461.60254	9334.575
2464.36507	9338.875
2467.12586	9341.675
2469.88492	9330.275
2472.64224	9335.575
2475.39782	9324.375
2478.15167	9336.875
2480.90379	9350.475
2483.65417	9323.475
2486.40283	9317.375
2489.14976	9326.275
2491.89497	9328.275
2494.63845	9366.875
2497.3802	9325.575
2500.12024	9342.275
2502.85855	9355.475
2505.59514	9358.375
2508.33002	9346.775
2511.06318	9343.175
2513.79462	9292.075
2516.52435	9307.575
2519.25237	9319.975
2521.97867	9324.575
2524.70327	9313.275
2527.42616	9274.775
2530.14734	9263.575
2532.86681	9259.675
2535.58458	9272.175
2538.30065	9255.275
2541.01501	9248.675
2543.72768	9209.575
2546.43864	9225.875
2549.14791	9214.275
2551.85548	9205.375
2554.56136	9187.675
2557.26554	9184.675
2559.96803	9174.875
2562.66883	9186.475
2565.36794	9168.175
2568.06536	9181.375
2570.7611	9137.675
2573.45514	9176.475
2576.14751	9165.575
2578.83819	9153.875
2581.52719	9166.575
2584.21451	9140.775
2586.90015	9142.175
2589.58411	9137.275
2592.2664	9156.275
2594.94701	9134.075
2597.62594	9153.475
2600.30321	9136.275
2602.9788	9124.075
2605.65273	9137.675
2608.32498	9125.675
2610.99557	9122.275
2613.66449	9162.375
2616.33175	9122.175
2618.99734	9128.375
2621.66128	9143.875
2624.32355	9146.075
2626.98416	9155.375
2629.64311	9129.375
2632.30041	9132.775
2634.95605	9122.575
2637.61004	9128.975
2640.26238	9097.075
2642.91306	9109.275
2645.56209	9103.075
2648.20948	9110.275
2650.85521	9089.475
2653.4993	9139.475
2656.14175	9114.175
2658.78255	9138.775
2661.42171	9124.175
2664.05923	9139.175
2666.6951	9137.275
2669.32934	9165.075
2671.96194	9148.875
2674.59291	9144.975
2677.22224	9150.075
2679.84993	9142.975
2682.476	9143.975
2685.10043	9153.575
2687.72324	9140.175
2690.34441	9162.775
2692.96396	9151.375
2695.58188	9158.075
2698.19818	9129.975
2700.81285	9162.775
2703.4259	9144.875
2706.03733	9191.275
2708.64714	9164.575
2711.25533	9146.975
2713.86191	9158.275
2716.46687	9188.175
2719.07021	9174.275
2721.67194	9188.375
2724.27206	9181.875
2726.87057	9183.975
2729.46747	9209.275
2732.06276	9234.675
2734.65644	9203.275
2737.24852	9226.275
2739.83899	9199.975
2742.42786	9221.975
2745.01513	9200.075
2747.60079	9210.675
2750.18486	9202.375
2752.76733	9224.975
2755.3482	9214.975
2757.92747	9218.475
2760.50515	9199.575
2763.08123	9226.775
2765.65573	9214.675
2768.22863	9231.675
2770.79994	9227.775
2773.36967	9196.575
2775.9378	9221.675
2778.50435	9234.175
2781.06932	9220.475
2783.6327	9239.875
2786.1945	9229.775
2788.75471	9223.475
2791.31335	9208.275
2793.87041	9196.175
2796.42589	9174.075
2798.97979	9156.075
2801.53212	9166.875
2804.08288	9161.775
2806.63206	9143.375
2809.17967	9116.675
2811.72571	9118.875
2814.27018	9073.575
2816.81308	9089.075
2819.35442	9060.575
2821.89419	9055.275
2824.43239	9040.075
2826.96904	9029.275
2829.50412	9026.075
2832.03763	8982.775
2834.56959	9030.975
2837.1	9030.875
2839.62884	9036.275
2842.15613	9036.475
2844.68186	9055.975
2847.20604	9068.575
2849.72867	9106.175
2852.24974	9110.675
2854.76927	9083.275
2857.28724	9097.675
2859.80367	9056.775
2862.31855	9044.075
2864.83189	9026.275
2867.34368	9021.875
2869.85393	9013.675
2872.36264	9013.875
2874.8698	9031.175
2877.37543	9045.975
2879.87952	9006.775
2882.38207	9032.375
2884.88308	8991.975
2887.38256	8997.975
2889.88051	9007.775
2892.37692	9006.075
2894.8718	9016.275
2897.36515	9053.275
2899.85698	9078.875
2902.34727	9068.775
2904.83604	9081.975
2907.32328	9102.875
2909.809	9101.675
2912.29319	9079.475
2914.77587	9103.175
2917.25702	9067.075
2919.73665	9085.575
2922.21476	9096.275
2924.69136	9084.175
2927.16644	9090.775
2929.64	9099.475
2932.11205	9076.975
2934.58258	9036.475
2937.05161	9034.075
2939.51912	9065.775
2941.98513	9051.075
2944.44962	9005.575
2946.91261	8969.075
2949.37409	8970.975
2951.83407	8929.575
2954.29254	8901.875
2956.74951	8906.275
2959.20498	8885.675
2961.65895	8876.675
2964.11142	8842.075
2966.56239	8823.075
2969.01186	8799.775
2971.45984	8769.475
2973.90632	8744.575
2976.35131	8718.975
2978.7948	8715.175
2981.23681	8688.975
2983.67732	8679.675
2986.11635	8640.175
2988.55388	8624.675
2990.98993	8594.375
2993.4245	8559.875
2995.85758	8564.275
2998.28917	8501.275
3000.71928	8495.875
3003.14791	8487.575
3005.57506	8474.175
3008.00073	8446.075
3010.42493	8446.075
3012.84764	8425.775
3015.26888	8410.775
3017.68865	8397.575
3020.10694	8379.275
3022.52376	8359.375
3024.9391	8331.975
3027.35298	8327.575
3029.76539	8310.475
3032.17632	8309.175
3034.5858	8297.375
3036.9938	8282.875
3039.40034	8297.775
3041.80542	8270.475
3044.20903	8260.875
3046.61118	8265.975
3049.01187	8244.775
3051.4111	8223.075
3053.80888	8219.475
3056.20519	8206.475
3058.60005	8188.375
3060.99345	8145.975
3063.3854	8133.975
3065.7759	8113.775
3068.16494	8061.675
3070.55254	8052.475
3072.93868	8049.975
3075.32338	7986.575
3077.70662	7995.975
3080.08842	7959.575
3082.46878	7965.775
3084.84769	7924.675
3087.22515	7925.375
3089.60118	7942.775
3091.97576	7929.475
3094.3489	7907.075
3096.72061	7898.275
3099.09087	7886.075
3101.4597	7862.575
3103.82709	7892.975
3106.19305	7855.775
3108.55757	7856.875
3110.92066	7828.875
3113.28232	7813.575
3115.64255	7788.875
3118.00134	7769.775
3120.35871	7755.375
3122.71466	7730.175
3125.06917	7710.675
3127.42226	7720.275
3129.77393	7712.975
3132.12417	7710.875
3134.47299	7708.575
3136.82039	7689.875
3139.16636	7680.175
3141.51092	7691.075
3143.85406	7672.075
3146.19579	7680.775
3148.53609	7684.575
3150.87499	7672.975
3153.21246	7661.375
3155.54853	7683.375
3157.88318	7654.875
3160.21642	7689.575
3162.54826	7694.375
3164.87868	7668.475
3167.2077	7661.775
