Data from AgNPs_FTO_APTES_UA_2uM_CRN_0uM_R6G_10uM_NaF_0.1M_Addition_RamanShift__62__11-16-44-995.txt Node

Date: Wed Feb 02 11:16:44 GMT 2022
User: TCL
Spectrometer: QEP01345
Trigger mode: 4
Integration Time (sec): 7.000000E0
Scans to average: 10
Electric dark correction enabled: true
Nonlinearity correction enabled: false
Boxcar width: 0
XAxis mode: Raman Shifts
Number of Pixels in Spectrum: 1044
>>>>>Begin Spectral Data<<<<<
46.04893	0.5375
50.45542	-0.0625
54.85868	-0.1625
59.25871	0.0375
63.6555	31.9375
68.04907	33.0375
72.43941	35.4375
76.82654	40.7375
81.21044	40.6375
85.59113	44.2375
89.96862	45.2375
94.34289	46.6375
98.71396	48.6375
103.08183	53.1375
107.4465	52.6375
111.80798	55.3375
116.16626	53.9375
120.52136	55.4375
124.87327	57.4375
129.222	57.2375
133.56755	63.9375
137.90993	67.6375
142.24913	73.6375
146.58517	82.9375
150.91804	91.5375
155.24774	110.5375
159.57429	135.7375
163.89768	178.5375
168.21792	230.7375
172.53501	311.6375
176.84895	423.1375
181.15975	592.7375
185.46741	830.8375
189.77193	1133.5375
194.07331	1516.0375
198.37157	1949.1375
202.6667	2392.8375
206.9587	2844.8375
211.24758	3291.0375
215.53334	3774.8375
219.81599	4345.2375
224.09553	5014.5375
228.37195	5752.4375
232.64527	6480.7375
236.91549	7189.0375
241.18261	7773.9375
245.44663	8197.8375
249.70755	8466.4375
253.96539	8709.8375
258.22014	8928.7375
262.4718	9162.5375
266.72039	9386.3375
270.96589	9488.8375
275.20832	9485.0375
279.44768	9357.4375
283.68397	9233.3375
287.91719	9149.1375
292.14735	9240.4375
296.37445	9563.7375
300.59849	10124.7375
304.81948	10816.7375
309.03742	11353.6375
313.25231	11476.1375
317.46415	10785.5375
321.67296	9574.5375
325.87872	8525.7375
330.08145	8008.1375
334.28114	7918.1375
338.47781	8064.7375
342.67145	8415.2375
346.86207	8933.8375
351.04966	9746.1375
355.23424	10693.5375
359.4158	11399.6375
363.59435	11620.7375
367.76989	11599.8375
371.94243	11400.3375
376.11196	11173.2375
380.27849	10978.3375
384.44203	10701.5375
388.60257	10410.4375
392.76012	10273.1375
396.91468	10387.9375
401.06626	10764.5375
405.21485	11074.3375
409.36047	10800.5375
413.50311	9953.1375
417.64277	9130.0375
421.77947	8654.3375
425.9132	8456.1375
430.04396	8366.2375
434.17176	8370.2375
438.2966	8484.5375
442.41849	8752.2375
446.53742	9061.0375
450.6534	9398.1375
454.76644	9562.8375
458.87653	9534.4375
462.98368	9393.6375
467.08789	9192.1375
471.18916	8903.7375
475.2875	8620.8375
479.38291	8381.9375
483.4754	8179.9375
487.56496	8010.2375
491.6516	7935.1375
495.73531	7918.8375
499.81612	7958.8375
503.89401	8150.6375
507.96899	8309.4375
512.04106	8508.4375
516.11023	8667.8375
520.1765	8824.0375
524.23987	8787.2375
528.30034	8503.9375
532.35792	8197.1375
536.41261	7863.6375
540.46441	7516.8375
544.51333	7329.8375
548.55936	7381.5375
552.60252	7649.6375
556.64279	7989.0375
560.6802	8201.4375
564.71473	8522.1375
568.7464	9191.2375
572.7752	9669.7375
576.80114	9219.0375
580.82422	8581.5375
584.84444	8308.7375
588.86181	8167.0375
592.87633	8121.7375
596.888	8221.5375
600.89682	8691.3375
604.9028	10266.4375
608.90594	14594.3375
612.90624	20530.4375
616.90371	20026.8375
620.89834	12335.8375
624.89015	8454.1375
628.87913	7698.4375
632.86528	7745.3375
636.84862	7954.7375
640.82913	7815.0375
644.80683	7261.9375
648.78172	6880.3375
652.75379	6955.2375
656.72306	7540.8375
660.68952	8231.3375
664.65319	8086.6375
668.61405	7364.6375
672.57211	6967.0375
676.52738	6903.8375
680.47986	6865.2375
684.42955	6746.8375
688.37646	6672.8375
692.32058	6720.5375
696.26192	6848.7375
700.20048	7042.5375
704.13626	7209.8375
708.06928	7263.1375
711.99952	7122.7375
715.927	7036.5375
719.85171	7009.1375
723.77365	6976.9375
727.69284	6829.5375
731.60928	6737.9375
735.52295	6713.2375
739.43388	6762.4375
743.34206	6793.7375
747.24749	6861.1375
751.15017	6963.4375
755.05012	7199.1375
758.94733	7786.1375
762.8418	9209.5375
766.73354	11688.7375
770.62254	14358.7375
774.50882	15744.5375
778.39237	15023.8375
782.27321	12429.8375
786.15132	9681.8375
790.02671	8022.0375
793.89938	7326.5375
797.76935	7029.4375
801.6366	6898.6375
805.50115	6797.2375
809.36299	6734.7375
813.22213	6665.4375
817.07857	6634.2375
820.93231	6638.2375
824.78336	6667.2375
828.63172	6732.8375
832.47738	6761.3375
836.32036	6755.4375
840.16066	6668.9375
843.99827	6548.4375
847.8332	6501.8375
851.66546	6476.1375
855.49504	6482.1375
859.32195	6438.9375
863.1462	6369.9375
866.96777	6299.7375
870.78668	6299.6375
874.60293	6303.0375
878.41652	6342.4375
882.22745	6397.8375
886.03573	6464.1375
889.84136	6428.4375
893.64433	6369.3375
897.44466	6356.1375
901.24235	6351.8375
905.0374	6342.1375
908.8298	6304.5375
912.61957	6297.9375
916.40671	6330.5375
920.19121	6439.8375
923.97308	6546.8375
927.75233	6686.5375
931.52895	6846.9375
935.30295	6688.1375
939.07433	6329.9375
942.84309	6025.5375
946.60924	5837.7375
950.37278	5742.1375
954.13371	5677.1375
957.89203	5669.5375
961.64774	5620.0375
965.40086	5599.4375
969.15137	5570.6375
972.89929	5566.9375
976.64461	5551.0375
980.38733	5535.7375
984.12747	5530.2375
987.86502	5560.0375
991.59999	5594.0375
995.33237	5664.8375
999.06217	5801.8375
1002.78939	6025.1375
1006.51404	6261.1375
1010.23611	6478.2375
1013.95561	6609.1375
1017.67255	6540.6375
1021.38692	6370.7375
1025.09872	6182.1375
1028.80796	6045.3375
1032.51465	6028.2375
1036.21877	6170.8375
1039.92035	6386.6375
1043.61937	6508.8375
1047.31584	6480.1375
1051.00976	6435.2375
1054.70114	6346.9375
1058.38998	6292.7375
1062.07627	6281.4375
1065.76003	6354.7375
1069.44126	6425.5375
1073.11995	6595.6375
1076.79611	6733.8375
1080.46974	6943.4375
1084.14085	7295.7375
1087.80943	7657.2375
1091.47549	7833.9375
1095.13903	7573.3375
1098.80005	7090.1375
1102.45857	6669.0375
1106.11456	6499.3375
1109.76805	6524.1375
1113.41903	6751.7375
1117.06751	7124.3375
1120.71348	7650.3375
1124.35696	8285.6375
1127.99793	8880.1375
1131.63641	8854.8375
1135.2724	8152.9375
1138.90589	7446.1375
1142.5369	7081.3375
1146.16542	6815.1375
1149.79145	6695.2375
1153.415	6700.2375
1157.03607	6796.8375
1160.65467	7079.3375
1164.27079	7496.1375
1167.88443	8153.5375
1171.49561	9270.3375
1175.10432	11203.5375
1178.71056	13723.0375
1182.31434	15363.7375
1185.91565	15526.5375
1189.51451	14877.0375
1193.11091	13672.2375
1196.70485	12161.6375
1200.29634	11049.5375
1203.88538	10166.2375
1207.47197	9162.7375
1211.05612	8318.7375
1214.63782	7862.5375
1218.21708	7701.5375
1221.79391	7742.4375
1225.36829	7841.2375
1228.94024	7923.5375
1232.50976	8024.4375
1236.07685	7997.3375
1239.6415	7962.7375
1243.20374	7935.1375
1246.76355	7884.2375
1250.32093	8020.2375
1253.8759	8247.0375
1257.42845	8597.7375
1260.97859	9041.1375
1264.52631	9559.1375
1268.07163	10046.3375
1271.61453	10537.1375
1275.15503	10843.4375
1278.69312	10870.3375
1282.22882	10863.3375
1285.76211	11133.9375
1289.29301	11689.0375
1292.82151	12229.4375
1296.34761	12821.9375
1299.87133	13623.2375
1303.39266	15032.3375
1306.9116	17362.7375
1310.42815	20336.9375
1313.94233	22393.4375
1317.45412	22230.8375
1320.96354	20475.4375
1324.47058	18212.6375
1327.97525	16235.2375
1331.47754	14895.8375
1334.97747	14152.6375
1338.47502	13843.4375
1341.97022	13960.5375
1345.46305	14550.1375
1348.95352	15819.1375
1352.44163	17656.5375
1355.92738	20223.4375
1359.41078	24170.4375
1362.89183	28299.8375
1366.37053	28051.7375
1369.84688	23215.0375
1373.32088	18090.3375
1376.79254	14740.3375
1380.26186	13036.1375
1383.72883	12144.5375
1387.19347	11465.2375
1390.65578	10761.1375
1394.11575	10161.4375
1397.57339	9901.3375
1401.0287	9924.3375
1404.48168	9969.2375
1407.93234	10070.9375
1411.38068	10034.8375
1414.82669	9865.0375
1418.27039	9632.1375
1421.71177	9353.0375
1425.15083	9105.1375
1428.58758	8853.6375
1432.02203	8843.2375
1435.45416	9028.6375
1438.88399	9121.8375
1442.31151	9164.3375
1445.73673	9210.2375
1449.15965	9318.1375
1452.58027	9299.3375
1455.9986	9209.5375
1459.41463	9175.7375
1462.82837	9291.0375
1466.23982	9533.2375
1469.64898	9766.7375
1473.05586	9966.0375
1476.46045	10102.1375
1479.86276	10281.4375
1483.26279	10564.0375
1486.66054	10922.7375
1490.05602	11402.6375
1493.44922	12128.1375
1496.84016	13302.0375
1500.22882	15287.4375
1503.61521	18040.4375
1506.99934	21108.6375
1510.38121	24243.2375
1513.76081	26311.4375
1517.13816	25456.1375
1520.51324	21822.7375
1523.88607	17732.3375
1527.25665	14789.9375
1530.62498	13125.8375
1533.99105	12180.6375
1537.35488	11557.4375
1540.71647	11141.1375
1544.07581	10851.9375
1547.4329	10679.8375
1550.78776	10558.8375
1554.14038	10502.3375
1557.49077	10657.7375
1560.83892	11015.7375
1564.18484	11545.6375
1567.52853	12196.8375
1570.86999	12760.7375
1574.20922	13123.3375
1577.54624	13135.8375
1580.88103	12255.3375
1584.2136	10915.6375
1587.54395	10184.5375
1590.87208	10233.5375
1594.19801	10939.8375
1597.52172	11989.6375
1600.84321	12449.6375
1604.16251	11856.7375
1607.47959	10761.0375
1610.79447	9629.2375
1614.10715	8533.5375
1617.41763	7715.9375
1620.7259	7190.7375
1624.03199	6960.8375
1627.33587	6947.4375
1630.63757	7171.4375
1633.93707	7671.1375
1637.23439	8488.1375
1640.52951	9767.4375
1643.82246	11605.9375
1647.11321	13950.0375
1650.40179	15982.7375
1653.68819	15958.3375
1656.97241	13525.3375
1660.25446	10428.1375
1663.53433	8125.5375
1666.81203	6766.5375
1670.08756	6050.3375
1673.36092	5595.2375
1676.63211	5323.2375
1679.90115	5139.0375
1683.16801	5022.2375
1686.43272	4923.4375
1689.69527	4863.9375
1692.95567	4811.0375
1696.2139	4784.6375
1699.46999	4762.4375
1702.72392	4753.0375
1705.97571	4714.4375
1709.22535	4708.8375
1712.47284	4714.3375
1715.71819	4724.3375
1718.96139	4730.6375
1722.20246	4733.1375
1725.44139	4695.0375
1728.67818	4632.6375
1731.91284	4547.8375
1735.14537	4480.7375
1738.37576	4417.9375
1741.60403	4393.9375
1744.83017	4351.4375
1748.05418	4320.6375
1751.27607	4301.7375
1754.49584	4273.9375
1757.71349	4268.5375
1760.92903	4266.1375
1764.14244	4257.0375
1767.35375	4231.2375
1770.56294	4216.7375
1773.77002	4179.8375
1776.97499	4137.0375
1780.17785	4118.5375
1783.37861	4106.3375
1786.57727	4085.9375
1789.77382	4059.2375
1792.96828	4054.3375
1796.16064	4042.3375
1799.3509	4043.8375
1802.53907	4033.4375
1805.72514	4020.9375
1808.90913	3988.7375
1812.09102	3971.8375
1815.27083	3936.5375
1818.44856	3933.8375
1821.6242	3938.7375
1824.79776	3929.7375
1827.96924	3908.8375
1831.13864	3903.4375
1834.30597	3896.4375
1837.47122	3886.3375
1840.6344	3887.8375
1843.7955	3895.1375
1846.95454	3881.6375
1850.11151	3851.5375
1853.26642	3855.8375
1856.41926	3866.5375
1859.57004	3862.6375
1862.71876	3855.0375
1865.86542	3848.9375
1869.01003	3866.9375
1872.15258	3879.5375
1875.29308	3893.1375
1878.43152	3885.8375
1881.56792	3897.0375
1884.70227	3901.4375
1887.83457	3904.3375
1890.96482	3915.9375
1894.09304	3914.3375
1897.21921	3918.4375
1900.34335	3905.0375
1903.46544	3929.1375
1906.58551	3939.4375
1909.70353	3928.0375
1912.81953	3943.1375
1915.93349	3950.4375
1919.04543	3951.3375
1922.15534	3936.4375
1925.26322	3933.7375
1928.36908	3893.2375
1931.47292	3864.0375
1934.57473	3832.1375
1937.67453	3792.6375
1940.77232	3747.3375
1943.86808	3714.8375
1946.96184	3692.2375
1950.05358	3666.5375
1953.14331	3637.9375
1956.23103	3621.3375
1959.31675	3596.0375
1962.40046	3591.3375
1965.48217	3575.5375
1968.56188	3574.5375
1971.63959	3564.3375
1974.7153	3553.0375
1977.78901	3529.9375
1980.86073	3522.6375
1983.93046	3504.2375
1986.99819	3477.9375
1990.06394	3476.1375
1993.1277	3455.1375
1996.18947	3432.2375
1999.24925	3420.3375
2002.30706	3408.1375
2005.36288	3377.8375
2008.41672	3376.7375
2011.46859	3358.4375
2014.51848	3340.2375
2017.56639	3339.0375
2020.61233	3304.2375
2023.6563	3293.9375
2026.6983	3300.5375
2029.73833	3288.4375
2032.7764	3287.5375
2035.8125	3288.7375
2038.84664	3259.7375
2041.87881	3265.8375
2044.90903	3251.5375
2047.93729	3244.5375
2050.96359	3240.9375
2053.98794	3240.5375
2057.01034	3229.4375
2060.03078	3208.0375
2063.04927	3202.0375
2066.06582	3199.3375
2069.08042	3201.9375
2072.09307	3205.9375
2075.10378	3182.2375
2078.11255	3198.0375
2081.11938	3195.2375
2084.12426	3192.4375
2087.12722	3190.6375
2090.12824	3194.2375
2093.12732	3193.6375
2096.12447	3200.0375
2099.11969	3191.8375
2102.11299	3193.8375
2105.10435	3192.5375
2108.09379	3183.2375
2111.08131	3192.8375
2114.0669	3180.8375
2117.05057	3175.4375
2120.03233	3183.7375
2123.01216	3192.1375
2125.99008	3199.3375
2128.96609	3183.5375
2131.94018	3184.5375
2134.91236	3188.4375
2137.88263	3176.8375
2140.851	3184.3375
2143.81746	3179.0375
2146.78201	3168.4375
2149.74466	3154.6375
2152.7054	3156.6375
2155.66425	3148.8375
2158.6212	3163.8375
2161.57625	3152.7375
2164.52941	3133.4375
2167.48067	3139.3375
2170.43004	3145.1375
2173.37752	3130.2375
2176.32311	3130.6375
2179.26681	3147.3375
2182.20863	3142.4375
2185.14856	3144.6375
2188.08661	3141.4375
2191.02278	3126.7375
2193.95707	3120.7375
2196.88948	3104.9375
2199.82001	3104.5375
2202.74867	3102.4375
2205.67545	3113.6375
2208.60037	3097.4375
2211.52341	3086.8375
2214.44458	3086.2375
2217.36388	3088.1375
2220.28132	3067.3375
2223.1969	3045.1375
2226.11061	3047.3375
2229.02246	3038.5375
2231.93245	3036.0375
2234.84058	3019.6375
2237.74686	3021.0375
2240.65128	3012.3375
2243.55385	3000.4375
2246.45456	3002.9375
2249.35343	2997.6375
2252.25044	2987.9375
2255.14561	3002.5375
2258.03893	2994.1375
2260.93041	3012.8375
2263.82004	2999.2375
2266.70783	3008.0375
2269.59378	2998.2375
2272.4779	2980.9375
2275.36017	2975.4375
2278.24061	2966.9375
2281.11922	2964.9375
2283.996	2944.0375
2286.87094	2937.4375
2289.74405	2925.7375
2292.61534	2909.2375
2295.4848	2895.9375
2298.35243	2905.7375
2301.21824	2893.6375
2304.08223	2887.4375
2306.94439	2890.6375
2309.80474	2880.4375
2312.66327	2875.8375
2315.51999	2883.3375
2318.37489	2882.8375
2321.22797	2876.0375
2324.07925	2880.3375
2326.92871	2856.8375
2329.77637	2875.5375
2332.62222	2864.8375
2335.46626	2860.8375
2338.3085	2855.7375
2341.14893	2861.2375
2343.98756	2871.9375
2346.8244	2864.2375
2349.65943	2862.6375
2352.49267	2864.3375
2355.32411	2884.6375
2358.15376	2895.2375
2360.98161	2905.9375
2363.80768	2919.5375
2366.63195	2932.9375
2369.45444	2944.0375
2372.27514	2945.8375
2375.09405	2931.4375
2377.91118	2930.8375
2380.72652	2913.7375
2383.54009	2889.7375
2386.35187	2860.1375
2389.16188	2830.1375
2391.97011	2823.7375
2394.77657	2801.1375
2397.58125	2793.9375
2400.38416	2781.6375
2403.18529	2786.4375
2405.98466	2749.8375
2408.78226	2755.0375
2411.57809	2751.9375
2414.37216	2744.2375
2417.16446	2736.9375
2419.955	2738.6375
2422.74378	2745.8375
2425.5308	2741.0375
2428.31606	2735.6375
2431.09956	2736.6375
2433.88131	2734.4375
2436.6613	2740.3375
2439.43954	2745.3375
2442.21603	2759.5375
2444.99077	2748.8375
2447.76377	2770.6375
2450.53501	2773.5375
2453.30451	2769.4375
2456.07226	2769.8375
2458.83827	2776.9375
2461.60254	2768.1375
2464.36507	2765.0375
2467.12586	2762.4375
2469.88492	2760.3375
2472.64224	2767.4375
2475.39782	2765.7375
2478.15167	2779.3375
2480.90379	2779.4375
2483.65417	2797.7375
2486.40283	2811.3375
2489.14976	2821.0375
2491.89497	2830.8375
2494.63845	2844.3375
2497.3802	2835.7375
2500.12024	2824.4375
2502.85855	2817.2375
2505.59514	2804.4375
2508.33002	2783.0375
2511.06318	2771.9375
2513.79462	2749.3375
2516.52435	2722.3375
2519.25237	2712.4375
2521.97867	2702.7375
2524.70327	2684.8375
2527.42616	2668.2375
2530.14734	2669.9375
2532.86681	2652.4375
2535.58458	2660.1375
2538.30065	2662.8375
2541.01501	2663.5375
2543.72768	2650.9375
2546.43864	2657.4375
2549.14791	2662.6375
2551.85548	2679.0375
2554.56136	2672.2375
2557.26554	2666.6375
2559.96803	2667.5375
2562.66883	2656.0375
2565.36794	2655.9375
2568.06536	2657.5375
2570.7611	2643.4375
2573.45514	2653.7375
2576.14751	2642.1375
2578.83819	2637.2375
2581.52719	2647.0375
2584.21451	2635.8375
2586.90015	2624.9375
2589.58411	2620.7375
2592.2664	2619.8375
2594.94701	2612.1375
2597.62594	2606.0375
2600.30321	2616.8375
2602.9788	2615.9375
2605.65273	2608.4375
2608.32498	2614.0375
2610.99557	2612.8375
2613.66449	2616.6375
2616.33175	2610.8375
2618.99734	2615.6375
2621.66128	2608.7375
2624.32355	2605.8375
2626.98416	2615.5375
2629.64311	2606.6375
2632.30041	2599.9375
2634.95605	2590.1375
2637.61004	2586.1375
2640.26238	2582.6375
2642.91306	2566.3375
2645.56209	2555.9375
2648.20948	2568.5375
2650.85521	2565.1375
2653.4993	2576.3375
2656.14175	2567.1375
2658.78255	2580.1375
2661.42171	2586.5375
2664.05923	2593.9375
2666.6951	2583.3375
2669.32934	2595.4375
2671.96194	2618.1375
2674.59291	2610.6375
2677.22224	2601.0375
2679.84993	2616.5375
2682.476	2616.5375
2685.10043	2611.7375
2687.72324	2621.1375
2690.34441	2613.3375
2692.96396	2617.9375
2695.58188	2619.9375
2698.19818	2617.3375
2700.81285	2636.1375
2703.4259	2624.0375
2706.03733	2645.2375
2708.64714	2655.2375
2711.25533	2660.1375
2713.86191	2664.7375
2716.46687	2663.9375
2719.07021	2679.8375
2721.67194	2676.0375
2724.27206	2678.6375
2726.87057	2677.0375
2729.46747	2675.4375
2732.06276	2676.6375
2734.65644	2657.9375
2737.24852	2658.6375
2739.83899	2650.3375
2742.42786	2656.7375
2745.01513	2633.3375
2747.60079	2616.9375
2750.18486	2633.0375
2752.76733	2638.5375
2755.3482	2640.4375
2757.92747	2645.7375
2760.50515	2635.9375
2763.08123	2633.7375
2765.65573	2633.7375
2768.22863	2628.2375
2770.79994	2633.3375
2773.36967	2646.7375
2775.9378	2641.2375
2778.50435	2646.3375
2781.06932	2667.7375
2783.6327	2668.2375
2786.1945	2672.1375
2788.75471	2682.3375
2791.31335	2688.9375
2793.87041	2696.9375
2796.42589	2706.2375
2798.97979	2721.3375
2801.53212	2731.7375
2804.08288	2757.1375
2806.63206	2760.8375
2809.17967	2780.2375
2811.72571	2791.8375
2814.27018	2812.6375
2816.81308	2834.3375
2819.35442	2850.0375
2821.89419	2872.8375
2824.43239	2876.1375
2826.96904	2890.1375
2829.50412	2901.2375
2832.03763	2911.0375
2834.56959	2919.3375
2837.1	2927.9375
2839.62884	2963.5375
2842.15613	3020.4375
2844.68186	3107.6375
2847.20604	3188.1375
2849.72867	3256.0375
2852.24974	3296.9375
2854.76927	3299.5375
2857.28724	3299.3375
2859.80367	3277.3375
2862.31855	3263.6375
2864.83189	3219.4375
2867.34368	3224.9375
2869.85393	3207.9375
2872.36264	3222.5375
2874.8698	3210.8375
2877.37543	3192.9375
2879.87952	3197.2375
2882.38207	3179.0375
2884.88308	3182.2375
2887.38256	3169.5375
2889.88051	3154.3375
2892.37692	3152.5375
2894.8718	3156.0375
2897.36515	3152.7375
2899.85698	3158.6375
2902.34727	3168.0375
2904.83604	3176.3375
2907.32328	3165.5375
2909.809	3149.4375
2912.29319	3142.1375
2914.77587	3129.5375
2917.25702	3142.7375
2919.73665	3136.8375
2922.21476	3118.3375
2924.69136	3132.2375
2927.16644	3101.3375
2929.64	3085.2375
2932.11205	3066.3375
2934.58258	3043.1375
2937.05161	3029.9375
2939.51912	2994.7375
2941.98513	2940.1375
2944.44962	2880.2375
2946.91261	2815.7375
2949.37409	2791.4375
2951.83407	2731.6375
2954.29254	2712.2375
2956.74951	2685.4375
2959.20498	2658.7375
2961.65895	2648.9375
2964.11142	2630.5375
2966.56239	2607.3375
2969.01186	2597.1375
2971.45984	2582.8375
2973.90632	2569.2375
2976.35131	2529.4375
2978.7948	2508.2375
2981.23681	2509.2375
2983.67732	2494.2375
2986.11635	2472.4375
2988.55388	2468.3375
2990.98993	2454.0375
2993.4245	2438.9375
2995.85758	2418.3375
2998.28917	2401.8375
3000.71928	2405.4375
3003.14791	2402.7375
3005.57506	2402.4375
3008.00073	2388.7375
3010.42493	2387.6375
3012.84764	2384.8375
3015.26888	2381.1375
3017.68865	2387.7375
3020.10694	2369.6375
3022.52376	2376.2375
3024.9391	2366.2375
3027.35298	2366.5375
3029.76539	2361.5375
3032.17632	2347.9375
3034.5858	2349.6375
3036.9938	2354.3375
3039.40034	2344.2375
3041.80542	2335.6375
3044.20903	2334.9375
3046.61118	2333.5375
3049.01187	2322.6375
3051.4111	2326.1375
3053.80888	2326.2375
3056.20519	2324.4375
3058.60005	2322.7375
3060.99345	2317.1375
3063.3854	2320.7375
3065.7759	2320.2375
3068.16494	2325.6375
3070.55254	2320.7375
3072.93868	2314.3375
3075.32338	2297.3375
3077.70662	2291.1375
3080.08842	2277.4375
3082.46878	2275.0375
3084.84769	2266.2375
3087.22515	2262.8375
3089.60118	2251.3375
3091.97576	2253.2375
3094.3489	2241.6375
3096.72061	2244.3375
3099.09087	2247.7375
3101.4597	2228.9375
3103.82709	2234.8375
3106.19305	2225.9375
3108.55757	2235.4375
3110.92066	2232.2375
