Data from AgNPs_FTO_APTES_UA_2uM_CRN_200uM_R6G_10uM_NaF_0.1M_Addition_RamanShift__2__16-21-15-350.txt Node

Date: Wed Feb 02 16:21:15 GMT 2022
User: TCL
Spectrometer: QEP01345
Trigger mode: 4
Integration Time (sec): 7.000000E0
Scans to average: 10
Electric dark correction enabled: true
Nonlinearity correction enabled: false
Boxcar width: 0
XAxis mode: Raman Shifts
Number of Pixels in Spectrum: 1044
>>>>>Begin Spectral Data<<<<<
46.04893	0.7625
50.45542	1.3625
54.85868	-0.7375
59.25871	0.0625
63.6555	68.9625
68.04907	72.8625
72.43941	76.5625
76.82654	82.3625
81.21044	86.3625
85.59113	92.0625
89.96862	93.9625
94.34289	92.3625
98.71396	99.5625
103.08183	105.5625
107.4465	106.5625
111.80798	107.9625
116.16626	109.7625
120.52136	110.2625
124.87327	115.5625
129.222	122.4625
133.56755	131.6625
137.90993	134.5625
142.24913	150.8625
146.58517	167.3625
150.91804	191.1625
155.24774	230.3625
159.57429	281.4625
163.89768	362.0625
168.21792	471.3625
172.53501	647.2625
176.84895	890.8625
181.15975	1251.2625
185.46741	1735.9625
189.77193	2392.3625
194.07331	3193.4625
198.37157	4111.3625
202.6667	5081.3625
206.9587	6045.1625
211.24758	6983.4625
215.53334	7954.3625
219.81599	8937.0625
224.09553	10043.4625
228.37195	11272.0625
232.64527	12563.7625
236.91549	13926.5625
241.18261	15289.7625
245.44663	16546.5625
249.70755	17734.9625
253.96539	18709.2625
258.22014	19544.8625
262.4718	20273.7625
266.72039	20789.1625
270.96589	21066.4625
275.20832	21129.1625
279.44768	21062.7625
283.68397	20927.2625
287.91719	20830.8625
292.14735	20809.2625
296.37445	20873.5625
300.59849	21021.1625
304.81948	21178.0625
309.03742	21159.2625
313.25231	20901.9625
317.46415	20406.0625
321.67296	19761.3625
325.87872	19251.4625
330.08145	18944.9625
334.28114	18813.5625
338.47781	18836.4625
342.67145	19009.9625
346.86207	19266.5625
351.04966	19608.0625
355.23424	19918.3625
359.4158	20142.9625
363.59435	20358.3625
367.76989	20512.8625
371.94243	20555.3625
376.11196	20644.8625
380.27849	20747.0625
384.44203	20851.8625
388.60257	21058.4625
392.76012	21355.5625
396.91468	21651.3625
401.06626	21990.7625
405.21485	22213.7625
409.36047	22142.3625
413.50311	21851.4625
417.64277	21648.9625
421.77947	21622.9625
425.9132	21652.8625
430.04396	21812.8625
434.17176	21965.7625
438.2966	22111.1625
442.41849	22457.2625
446.53742	23190.8625
450.6534	23989.4625
454.76644	24557.8625
458.87653	24708.2625
462.98368	24526.1625
467.08789	24259.7625
471.18916	24008.5625
475.2875	23875.9625
479.38291	23919.5625
483.4754	23919.7625
487.56496	23578.8625
491.6516	22956.9625
495.73531	22251.7625
499.81612	21829.0625
503.89401	21729.5625
507.96899	21759.6625
512.04106	21700.0625
516.11023	21492.8625
520.1765	21179.8625
524.23987	20928.7625
528.30034	20637.6625
532.35792	20429.9625
536.41261	20176.7625
540.46441	19966.1625
544.51333	19991.5625
548.55936	20349.8625
552.60252	20942.2625
556.64279	21665.9625
560.6802	22279.7625
564.71473	22685.6625
568.7464	23256.5625
572.7752	24140.8625
576.80114	25049.7625
580.82422	25713.6625
584.84444	26538.2625
588.86181	27555.3625
592.87633	28294.4625
596.888	27912.0625
600.89682	26485.4625
604.9028	25865.8625
608.90594	27001.7625
612.90624	28471.0625
616.90371	26632.5625
620.89834	22346.5625
624.89015	20402.1625
628.87913	20198.7625
632.86528	20319.3625
636.84862	20305.1625
640.82913	19962.2625
644.80683	19489.9625
648.78172	19160.8625
652.75379	19115.7625
656.72306	19246.4625
660.68952	19478.9625
664.65319	19330.5625
668.61405	18937.7625
672.57211	18871.8625
676.52738	18970.8625
680.47986	19021.6625
684.42955	18924.5625
688.37646	18824.0625
692.32058	18905.3625
696.26192	19165.7625
700.20048	19467.5625
704.13626	19693.7625
708.06928	19739.9625
711.99952	19725.5625
715.927	19723.9625
719.85171	19796.2625
723.77365	19682.3625
727.69284	19392.5625
731.60928	19104.5625
735.52295	18980.7625
739.43388	18991.6625
743.34206	19024.3625
747.24749	19150.9625
751.15017	19382.3625
755.05012	19818.4625
758.94733	20550.5625
762.8418	21688.7625
766.73354	23271.8625
770.62254	24672.6625
774.50882	24823.7625
778.39237	23587.0625
782.27321	21777.4625
786.15132	20290.8625
790.02671	19397.0625
793.89938	18980.5625
797.76935	18826.4625
801.6366	18755.7625
805.50115	18726.8625
809.36299	18652.7625
813.22213	18512.4625
817.07857	18484.5625
820.93231	18398.2625
824.78336	18265.2625
828.63172	18157.1625
832.47738	18073.2625
836.32036	18057.9625
840.16066	18096.3625
843.99827	18081.8625
847.8332	18024.7625
851.66546	17970.3625
855.49504	17967.0625
859.32195	17931.9625
863.1462	17860.0625
866.96777	17806.3625
870.78668	17741.1625
874.60293	17738.6625
878.41652	17758.5625
882.22745	17787.3625
886.03573	17823.8625
889.84136	17847.0625
893.64433	17779.3625
897.44466	17698.5625
901.24235	17652.2625
905.0374	17589.5625
908.8298	17543.7625
912.61957	17644.3625
916.40671	17863.5625
920.19121	18243.9625
923.97308	18457.3625
927.75233	18382.0625
931.52895	18149.7625
935.30295	17829.9625
939.07433	17415.0625
942.84309	17079.4625
946.60924	16882.2625
950.37278	16842.4625
954.13371	16877.4625
957.89203	16878.0625
961.64774	16863.6625
965.40086	16909.7625
969.15137	16819.7625
972.89929	16662.0625
976.64461	16566.8625
980.38733	16469.5625
984.12747	16498.1625
987.86502	16618.2625
991.59999	16729.7625
995.33237	16903.0625
999.06217	17257.9625
1002.78939	17687.1625
1006.51404	17978.0625
1010.23611	18214.5625
1013.95561	18467.0625
1017.67255	18552.9625
1021.38692	18397.0625
1025.09872	18054.2625
1028.80796	17866.3625
1032.51465	17996.7625
1036.21877	18248.4625
1039.92035	18377.4625
1043.61937	18388.6625
1047.31584	18275.7625
1051.00976	18141.6625
1054.70114	18126.0625
1058.38998	18224.0625
1062.07627	18435.9625
1065.76003	18693.9625
1069.44126	18887.8625
1073.11995	19206.8625
1076.79611	19372.2625
1080.46974	19451.6625
1084.14085	19557.1625
1087.80943	19813.9625
1091.47549	20006.8625
1095.13903	20163.2625
1098.80005	19967.5625
1102.45857	19422.1625
1106.11456	18944.3625
1109.76805	18710.7625
1113.41903	18710.5625
1117.06751	18874.4625
1120.71348	19114.3625
1124.35696	19390.6625
1127.99793	19734.3625
1131.63641	19935.3625
1135.2724	19835.1625
1138.90589	19732.1625
1142.5369	19859.6625
1146.16542	20157.2625
1149.79145	20531.3625
1153.415	20888.7625
1157.03607	21363.2625
1160.65467	22199.6625
1164.27079	23479.5625
1167.88443	25029.0625
1171.49561	26635.2625
1175.10432	28560.3625
1178.71056	31027.5625
1182.31434	33278.2625
1185.91565	34181.0625
1189.51451	33779.6625
1193.11091	32753.6625
1196.70485	31554.4625
1200.29634	30367.4625
1203.88538	29661.0625
1207.47197	29431.3625
1211.05612	29213.4625
1214.63782	28607.6625
1218.21708	27613.3625
1221.79391	26546.3625
1225.36829	25745.2625
1228.94024	25187.5625
1232.50976	24697.6625
1236.07685	24217.7625
1239.6415	24018.6625
1243.20374	24054.4625
1246.76355	24246.3625
1250.32093	24628.1625
1253.8759	25203.0625
1257.42845	25911.9625
1260.97859	26731.3625
1264.52631	27484.7625
1268.07163	28304.7625
1271.61453	29169.3625
1275.15503	30150.0625
1278.69312	31285.4625
1282.22882	32519.9625
1285.76211	34028.3625
1289.29301	35885.0625
1292.82151	38201.6625
1296.34761	41055.3625
1299.87133	44073.5625
1303.39266	46984.2625
1306.9116	49428.2625
1310.42815	51139.6625
1313.94233	51987.9625
1317.45412	51764.5625
1320.96354	50891.6625
1324.47058	50205.9625
1327.97525	49670.9625
1331.47754	49316.6625
1334.97747	48775.5625
1338.47502	48012.8625
1341.97022	46937.2625
1345.46305	45702.3625
1348.95352	44711.9625
1352.44163	44456.1625
1355.92738	45142.4625
1359.41078	46834.3625
1362.89183	48063.9625
1366.37053	47251.6625
1369.84688	43566.4625
1373.32088	38683.9625
1376.79254	35485.0625
1380.26186	34657.4625
1383.72883	35176.8625
1387.19347	35639.4625
1390.65578	35622.5625
1394.11575	35863.6625
1397.57339	36544.2625
1401.0287	37546.5625
1404.48168	38129.9625
1407.93234	37780.4625
1411.38068	36531.9625
1414.82669	34633.5625
1418.27039	32643.8625
1421.71177	30638.7625
1425.15083	28979.6625
1428.58758	28230.9625
1432.02203	28403.4625
1435.45416	29357.5625
1438.88399	30562.6625
1442.31151	31508.5625
1445.73673	32207.5625
1449.15965	32751.7625
1452.58027	33107.4625
1455.9986	33159.9625
1459.41463	33317.6625
1462.82837	33669.0625
1466.23982	34138.6625
1469.64898	34588.5625
1473.05586	34901.1625
1476.46045	34862.4625
1479.86276	34485.2625
1483.26279	33882.4625
1486.66054	33540.3625
1490.05602	33519.4625
1493.44922	33748.6625
1496.84016	34068.1625
1500.22882	34618.5625
1503.61521	35588.5625
1506.99934	36736.4625
1510.38121	37697.2625
1513.76081	38024.7625
1517.13816	37476.2625
1520.51324	36423.2625
1523.88607	35758.5625
1527.25665	35624.2625
1530.62498	35793.9625
1533.99105	35810.4625
1537.35488	35291.4625
1540.71647	34431.1625
1544.07581	33220.0625
1547.4329	31919.2625
1550.78776	30858.1625
1554.14038	30071.7625
1557.49077	29655.3625
1560.83892	29466.0625
1564.18484	29484.0625
1567.52853	29669.7625
1570.86999	30071.7625
1574.20922	30930.5625
1577.54624	31847.5625
1580.88103	32479.7625
1584.2136	33209.2625
1587.54395	34599.5625
1590.87208	36492.2625
1594.19801	38694.0625
1597.52172	40595.3625
1600.84321	40842.1625
1604.16251	38624.3625
1607.47959	34921.0625
1610.79447	31063.3625
1614.10715	27729.4625
1617.41763	25295.0625
1620.7259	23752.0625
1624.03199	22977.3625
1627.33587	23100.6625
1630.63757	24021.7625
1633.93707	25950.5625
1637.23439	29107.3625
1640.52951	33709.1625
1643.82246	39180.2625
1647.11321	43692.7625
1650.40179	44687.1625
1653.68819	41223.6625
1656.97241	34998.4625
1660.25446	28878.7625
1663.53433	24350.3625
1666.81203	21373.0625
1670.08756	19493.4625
1673.36092	18355.5625
1676.63211	17642.8625
1679.90115	17088.1625
1683.16801	16700.1625
1686.43272	16431.1625
1689.69527	16217.2625
1692.95567	16082.7625
1696.2139	15973.5625
1699.46999	15920.7625
1702.72392	15789.5625
1705.97571	15741.5625
1709.22535	15633.5625
1712.47284	15564.2625
1715.71819	15553.6625
1718.96139	15463.1625
1722.20246	15420.1625
1725.44139	15351.2625
1728.67818	15286.6625
1731.91284	15182.6625
1735.14537	15029.3625
1738.37576	14982.2625
1741.60403	14906.1625
1744.83017	14880.3625
1748.05418	14844.3625
1751.27607	14789.4625
1754.49584	14791.2625
1757.71349	14773.1625
1760.92903	14788.9625
1764.14244	14729.8625
1767.35375	14719.0625
1770.56294	14655.3625
1773.77002	14630.1625
1776.97499	14566.6625
1780.17785	14540.2625
1783.37861	14504.2625
1786.57727	14434.7625
1789.77382	14431.4625
1792.96828	14386.4625
1796.16064	14351.2625
1799.3509	14329.4625
1802.53907	14297.6625
1805.72514	14232.1625
1808.90913	14204.1625
1812.09102	14188.5625
1815.27083	14152.2625
1818.44856	14122.7625
1821.6242	14106.1625
1824.79776	14094.5625
1827.96924	14068.6625
1831.13864	14064.0625
1834.30597	14061.4625
1837.47122	14035.1625
1840.6344	14037.3625
1843.7955	14051.2625
1846.95454	14053.1625
1850.11151	14020.1625
1853.26642	14021.2625
1856.41926	14028.8625
1859.57004	14006.9625
1862.71876	13951.3625
1865.86542	13935.4625
1869.01003	13948.5625
1872.15258	13910.7625
1875.29308	13900.6625
1878.43152	13883.1625
1881.56792	13867.6625
1884.70227	13862.3625
1887.83457	13840.9625
1890.96482	13841.9625
1894.09304	13816.3625
1897.21921	13822.3625
1900.34335	13806.3625
1903.46544	13780.1625
1906.58551	13742.9625
1909.70353	13732.5625
1912.81953	13707.3625
1915.93349	13684.0625
1919.04543	13630.2625
1922.15534	13609.7625
1925.26322	13579.6625
1928.36908	13542.4625
1931.47292	13499.3625
1934.57473	13476.3625
1937.67453	13397.7625
1940.77232	13384.4625
1943.86808	13356.6625
1946.96184	13345.6625
1950.05358	13279.1625
1953.14331	13226.1625
1956.23103	13212.4625
1959.31675	13192.0625
1962.40046	13136.5625
1965.48217	13080.3625
1968.56188	13020.0625
1971.63959	12985.9625
1974.7153	12988.1625
1977.78901	12925.9625
1980.86073	12886.4625
1983.93046	12850.9625
1986.99819	12775.8625
1990.06394	12745.3625
1993.1277	12729.9625
1996.18947	12666.5625
1999.24925	12667.3625
2002.30706	12602.8625
2005.36288	12550.0625
2008.41672	12523.7625
2011.46859	12518.6625
2014.51848	12453.7625
2017.56639	12399.4625
2020.61233	12385.0625
2023.6563	12359.9625
2026.6983	12347.6625
2029.73833	12320.6625
2032.7764	12267.7625
2035.8125	12281.9625
2038.84664	12239.3625
2041.87881	12242.9625
2044.90903	12234.6625
2047.93729	12197.9625
2050.96359	12210.2625
2053.98794	12178.3625
2057.01034	12173.0625
2060.03078	12136.1625
2063.04927	12142.7625
2066.06582	12144.5625
2069.08042	12131.2625
2072.09307	12111.7625
2075.10378	12094.4625
2078.11255	12073.6625
2081.11938	12065.9625
2084.12426	12062.4625
2087.12722	12058.5625
2090.12824	12047.5625
2093.12732	12063.0625
2096.12447	12085.4625
2099.11969	12065.6625
2102.11299	12081.4625
2105.10435	12106.4625
2108.09379	12065.7625
2111.08131	12071.8625
2114.0669	12059.5625
2117.05057	12064.9625
2120.03233	12100.6625
2123.01216	12109.0625
2125.99008	12111.9625
2128.96609	12085.9625
2131.94018	12092.7625
2134.91236	12104.1625
2137.88263	12118.9625
2140.851	12116.1625
2143.81746	12125.1625
2146.78201	12123.2625
2149.74466	12124.3625
2152.7054	12124.2625
2155.66425	12123.4625
2158.6212	12103.3625
2161.57625	12106.2625
2164.52941	12102.3625
2167.48067	12062.2625
2170.43004	12071.3625
2173.37752	12086.5625
2176.32311	12048.9625
2179.26681	12073.1625
2182.20863	12079.8625
2185.14856	12063.8625
2188.08661	12097.1625
2191.02278	12074.2625
2193.95707	12077.5625
2196.88948	12023.1625
2199.82001	12036.8625
2202.74867	12021.0625
2205.67545	12016.0625
2208.60037	11980.1625
2211.52341	11974.9625
2214.44458	11970.7625
2217.36388	11939.3625
2220.28132	11947.7625
2223.1969	11906.1625
2226.11061	11893.6625
2229.02246	11873.5625
2231.93245	11843.1625
2234.84058	11817.5625
2237.74686	11835.7625
2240.65128	11795.4625
2243.55385	11803.4625
2246.45456	11801.9625
2249.35343	11760.3625
2252.25044	11714.6625
2255.14561	11695.9625
2258.03893	11687.7625
2260.93041	11661.7625
2263.82004	11606.9625
2266.70783	11583.7625
2269.59378	11562.6625
2272.4779	11501.4625
2275.36017	11488.1625
2278.24061	11473.8625
2281.11922	11441.0625
2283.996	11435.4625
2286.87094	11442.1625
2289.74405	11368.9625
2292.61534	11401.4625
2295.4848	11372.9625
2298.35243	11373.7625
2301.21824	11355.0625
2304.08223	11355.9625
2306.94439	11362.0625
2309.80474	11365.8625
2312.66327	11342.6625
2315.51999	11352.5625
2318.37489	11350.7625
2321.22797	11343.8625
2324.07925	11292.1625
2326.92871	11301.8625
2329.77637	11301.2625
2332.62222	11295.2625
2335.46626	11276.1625
2338.3085	11263.8625
2341.14893	11243.3625
2343.98756	11256.9625
2346.8244	11245.0625
2349.65943	11278.8625
2352.49267	11248.9625
2355.32411	11243.6625
2358.15376	11270.1625
2360.98161	11235.4625
2363.80768	11242.6625
2366.63195	11212.6625
2369.45444	11207.8625
2372.27514	11212.1625
2375.09405	11188.9625
2377.91118	11141.4625
2380.72652	11153.1625
2383.54009	11130.8625
2386.35187	11110.0625
2389.16188	11077.1625
2391.97011	11082.4625
2394.77657	11048.5625
2397.58125	11024.3625
2400.38416	10980.8625
2403.18529	10985.6625
2405.98466	10976.4625
2408.78226	10947.2625
2411.57809	10943.4625
2414.37216	10941.3625
2417.16446	10916.7625
2419.955	10912.5625
2422.74378	10935.0625
2425.5308	10907.7625
2428.31606	10895.7625
2431.09956	10909.0625
2433.88131	10860.1625
2436.6613	10855.8625
2439.43954	10892.8625
2442.21603	10861.8625
2444.99077	10854.9625
2447.76377	10902.7625
2450.53501	10873.0625
2453.30451	10852.4625
2456.07226	10853.6625
2458.83827	10847.2625
2461.60254	10837.3625
2464.36507	10874.9625
2467.12586	10863.8625
2469.88492	10847.5625
2472.64224	10855.6625
2475.39782	10875.9625
2478.15167	10850.4625
2480.90379	10862.7625
2483.65417	10849.8625
2486.40283	10864.5625
2489.14976	10870.3625
2491.89497	10888.4625
2494.63845	10864.7625
2497.3802	10852.3625
2500.12024	10861.2625
2502.85855	10842.8625
2505.59514	10856.0625
2508.33002	10842.2625
2511.06318	10847.8625
2513.79462	10825.9625
2516.52435	10812.3625
2519.25237	10824.1625
2521.97867	10794.4625
2524.70327	10775.5625
2527.42616	10776.6625
2530.14734	10769.0625
2532.86681	10735.6625
2535.58458	10771.5625
2538.30065	10745.8625
2541.01501	10735.4625
2543.72768	10706.8625
2546.43864	10723.9625
2549.14791	10678.7625
2551.85548	10698.4625
2554.56136	10697.7625
2557.26554	10702.4625
2559.96803	10681.8625
2562.66883	10698.6625
2565.36794	10692.5625
2568.06536	10694.7625
2570.7611	10673.0625
2573.45514	10676.3625
2576.14751	10664.1625
2578.83819	10650.4625
2581.52719	10623.2625
2584.21451	10639.1625
2586.90015	10636.7625
2589.58411	10629.3625
2592.2664	10616.3625
2594.94701	10599.2625
2597.62594	10604.3625
2600.30321	10597.1625
2602.9788	10579.9625
2605.65273	10559.6625
2608.32498	10607.9625
2610.99557	10602.0625
2613.66449	10624.7625
2616.33175	10607.7625
2618.99734	10591.9625
2621.66128	10615.9625
2624.32355	10593.2625
2626.98416	10573.2625
2629.64311	10579.3625
2632.30041	10606.6625
2634.95605	10559.9625
2637.61004	10566.4625
2640.26238	10548.3625
2642.91306	10533.0625
2645.56209	10573.3625
2648.20948	10547.1625
2650.85521	10559.4625
2653.4993	10555.3625
2656.14175	10528.2625
2658.78255	10566.5625
2661.42171	10579.3625
2664.05923	10580.8625
2666.6951	10598.5625
2669.32934	10594.7625
2671.96194	10595.9625
2674.59291	10598.5625
2677.22224	10583.1625
2679.84993	10609.5625
2682.476	10593.4625
2685.10043	10575.4625
2687.72324	10561.5625
2690.34441	10569.2625
2692.96396	10577.2625
2695.58188	10582.7625
2698.19818	10555.5625
2700.81285	10595.5625
2703.4259	10598.1625
2706.03733	10636.0625
2708.64714	10632.1625
2711.25533	10614.2625
2713.86191	10614.8625
2716.46687	10626.1625
2719.07021	10620.9625
2721.67194	10654.7625
2724.27206	10637.7625
2726.87057	10656.5625
2729.46747	10667.8625
2732.06276	10665.7625
2734.65644	10664.7625
2737.24852	10679.3625
2739.83899	10623.9625
2742.42786	10652.8625
2745.01513	10606.6625
2747.60079	10642.3625
2750.18486	10601.7625
2752.76733	10638.1625
2755.3482	10642.5625
2757.92747	10649.0625
2760.50515	10647.2625
2763.08123	10680.9625
2765.65573	10656.4625
2768.22863	10649.2625
2770.79994	10616.8625
2773.36967	10628.9625
2775.9378	10637.6625
2778.50435	10635.5625
2781.06932	10616.0625
2783.6327	10611.6625
2786.1945	10621.0625
2788.75471	10627.7625
2791.31335	10585.2625
2793.87041	10598.5625
2796.42589	10575.4625
2798.97979	10593.0625
2801.53212	10556.0625
2804.08288	10549.0625
2806.63206	10544.2625
2809.17967	10510.4625
2811.72571	10489.3625
2814.27018	10463.9625
2816.81308	10451.4625
2819.35442	10430.4625
2821.89419	10415.2625
2824.43239	10412.0625
2826.96904	10418.5625
2829.50412	10432.3625
2832.03763	10410.0625
2834.56959	10425.5625
2837.1	10418.6625
2839.62884	10432.0625
2842.15613	10402.3625
2844.68186	10468.6625
2847.20604	10476.7625
2849.72867	10530.7625
2852.24974	10516.6625
2854.76927	10513.8625
2857.28724	10495.3625
2859.80367	10483.3625
2862.31855	10458.2625
2864.83189	10466.0625
2867.34368	10440.5625
2869.85393	10428.9625
2872.36264	10420.7625
2874.8698	10442.4625
2877.37543	10437.7625
2879.87952	10444.2625
2882.38207	10437.9625
2884.88308	10410.8625
2887.38256	10432.2625
2889.88051	10423.8625
2892.37692	10449.7625
2894.8718	10436.0625
2897.36515	10432.5625
2899.85698	10458.3625
2902.34727	10491.3625
2904.83604	10479.0625
2907.32328	10497.2625
2909.809	10501.9625
2912.29319	10477.4625
2914.77587	10475.5625
2917.25702	10507.0625
2919.73665	10464.9625
2922.21476	10469.6625
2924.69136	10480.0625
2927.16644	10512.0625
2929.64	10479.9625
2932.11205	10496.4625
2934.58258	10464.7625
2937.05161	10479.3625
2939.51912	10475.2625
2941.98513	10436.1625
2944.44962	10391.6625
2946.91261	10335.2625
2949.37409	10346.8625
2951.83407	10347.4625
2954.29254	10330.6625
2956.74951	10307.7625
2959.20498	10317.9625
2961.65895	10274.7625
2964.11142	10269.0625
2966.56239	10267.5625
2969.01186	10250.5625
2971.45984	10195.8625
2973.90632	10193.5625
2976.35131	10164.0625
2978.7948	10114.3625
2981.23681	10099.0625
2983.67732	10073.5625
2986.11635	10047.0625
2988.55388	10034.8625
2990.98993	10013.2625
2993.4245	10016.2625
2995.85758	10009.1625
2998.28917	9958.0625
3000.71928	9958.7625
3003.14791	9932.4625
3005.57506	9896.3625
3008.00073	9883.2625
3010.42493	9838.4625
3012.84764	9833.2625
3015.26888	9853.4625
3017.68865	9805.0625
3020.10694	9811.4625
3022.52376	9776.8625
3024.9391	9758.1625
