Data from AgNPs_FTO_APTES_UA_2uM_CRN_2uM_R6G_10uM_NaF_0.1M_Addition_RamanShift__15__12-16-15-064.txt Node

Date: Wed Feb 02 12:16:15 GMT 2022
User: TCL
Spectrometer: QEP01345
Trigger mode: 4
Integration Time (sec): 7.000000E0
Scans to average: 10
Electric dark correction enabled: true
Nonlinearity correction enabled: false
Boxcar width: 0
XAxis mode: Raman Shifts
Number of Pixels in Spectrum: 1044
>>>>>Begin Spectral Data<<<<<
46.04893	-0.2875
50.45542	-0.2875
54.85868	-1.1875
59.25871	-1.0875
63.6555	112.2125
68.04907	113.8125
72.43941	118.8125
76.82654	127.1125
81.21044	128.9125
85.59113	138.9125
89.96862	137.6125
94.34289	142.3125
98.71396	150.6125
103.08183	155.4125
107.4465	156.5125
111.80798	161.9125
116.16626	167.7125
120.52136	177.4125
124.87327	182.1125
129.222	193.6125
133.56755	214.3125
137.90993	229.0125
142.24913	256.9125
146.58517	288.9125
150.91804	341.6125
155.24774	413.0125
159.57429	516.0125
163.89768	670.2125
168.21792	893.8125
172.53501	1226.2125
176.84895	1718.7125
181.15975	2410.2125
185.46741	3388.9125
189.77193	4661.1125
194.07331	6254.9125
198.37157	8064.5125
202.6667	9946.0125
206.9587	11824.0125
211.24758	13665.8125
215.53334	15517.3125
219.81599	17542.1125
224.09553	19704.2125
228.37195	22103.7125
232.64527	24721.6125
236.91549	27510.7125
241.18261	30247.2125
245.44663	32810.5125
249.70755	35123.4125
253.96539	37142.1125
258.22014	38888.6125
262.4718	40321.5125
266.72039	41321.6125
270.96589	41829.2125
275.20832	41983.3125
279.44768	41770.4125
283.68397	41393.8125
287.91719	41201.0125
292.14735	41003.0125
296.37445	41022.7125
300.59849	41079.7125
304.81948	41240.4125
309.03742	41243.2125
313.25231	40843.1125
317.46415	39892.8125
321.67296	38686.4125
325.87872	37698.1125
330.08145	37132.3125
334.28114	37027.0125
338.47781	37192.2125
342.67145	37610.8125
346.86207	38244.7125
351.04966	38951.8125
355.23424	39738.0125
359.4158	40447.0125
363.59435	40906.3125
367.76989	41322.6125
371.94243	41545.7125
376.11196	41712.9125
380.27849	41815.3125
384.44203	42010.4125
388.60257	42335.4125
392.76012	42737.0125
396.91468	43329.4125
401.06626	44039.1125
405.21485	44474.2125
409.36047	44247.4125
413.50311	43598.1125
417.64277	43109.0125
421.77947	43000.2125
425.9132	43120.9125
430.04396	43230.1125
434.17176	43303.2125
438.2966	43479.0125
442.41849	44019.7125
446.53742	44891.6125
450.6534	46042.5125
454.76644	46877.9125
458.87653	47294.4125
462.98368	47308.7125
467.08789	47115.8125
471.18916	46632.3125
475.2875	46241.3125
479.38291	46121.0125
483.4754	46159.8125
487.56496	45823.8125
491.6516	45127.0125
495.73531	44473.6125
499.81612	43979.5125
503.89401	44107.6125
507.96899	44233.9125
512.04106	44217.8125
516.11023	43896.2125
520.1765	43365.4125
524.23987	42857.6125
528.30034	42356.2125
532.35792	41830.0125
536.41261	41370.0125
540.46441	40982.6125
544.51333	40999.0125
548.55936	41532.5125
552.60252	42455.2125
556.64279	43562.2125
560.6802	44393.6125
564.71473	44932.8125
568.7464	45749.3125
572.7752	47004.3125
576.80114	48222.8125
580.82422	49392.5125
584.84444	50490.0125
588.86181	51347.5125
592.87633	51727.6125
596.888	50964.6125
600.89682	49840.3125
604.9028	50591.7125
608.90594	54455.6125
612.90624	58565.4125
616.90371	55189.7125
620.89834	46625.7125
624.89015	42678.4125
628.87913	42170.2125
632.86528	42453.4125
636.84862	42459.1125
640.82913	41960.5125
644.80683	40929.9125
648.78172	40124.6125
652.75379	40038.8125
656.72306	40446.5125
660.68952	41075.3125
664.65319	40898.3125
668.61405	40176.3125
672.57211	40057.5125
676.52738	40175.0125
680.47986	40147.5125
684.42955	39862.4125
688.37646	39802.3125
692.32058	40006.9125
696.26192	40504.7125
700.20048	41115.3125
704.13626	41438.5125
708.06928	41465.8125
711.99952	41266.5125
715.927	41156.1125
719.85171	41285.1125
723.77365	41167.9125
727.69284	40544.5125
731.60928	39972.7125
735.52295	39774.5125
739.43388	39734.0125
743.34206	39798.4125
747.24749	40020.3125
751.15017	40426.6125
755.05012	41150.2125
758.94733	42370.1125
762.8418	44423.4125
766.73354	47535.6125
770.62254	50436.7125
774.50882	50896.8125
778.39237	48746.0125
782.27321	45551.4125
786.15132	42882.4125
790.02671	41146.2125
793.89938	40260.1125
797.76935	39928.2125
801.6366	39808.2125
805.50115	39692.4125
809.36299	39524.9125
813.22213	39208.4125
817.07857	39017.5125
820.93231	38951.4125
824.78336	38792.5125
828.63172	38525.7125
832.47738	38379.1125
836.32036	38386.0125
840.16066	38467.2125
843.99827	38528.2125
847.8332	38437.9125
851.66546	38383.0125
855.49504	38425.3125
859.32195	38413.0125
863.1462	38293.8125
866.96777	38166.0125
870.78668	38124.1125
874.60293	38155.4125
878.41652	38227.9125
882.22745	38320.0125
886.03573	38481.4125
889.84136	38510.3125
893.64433	38395.6125
897.44466	38294.2125
901.24235	38159.5125
905.0374	38020.6125
908.8298	38010.5125
912.61957	37979.9125
916.40671	38314.0125
920.19121	38812.9125
923.97308	39253.4125
927.75233	39313.7125
931.52895	39005.9125
935.30295	38454.3125
939.07433	37723.6125
942.84309	37146.6125
946.60924	36825.2125
950.37278	36751.3125
954.13371	36739.3125
957.89203	36681.8125
961.64774	36677.6125
965.40086	36670.0125
969.15137	36618.1125
972.89929	36437.0125
976.64461	36305.9125
980.38733	36298.6125
984.12747	36341.3125
987.86502	36537.6125
991.59999	36813.7125
995.33237	37244.2125
999.06217	37810.9125
1002.78939	38600.1125
1006.51404	39279.4125
1010.23611	39803.5125
1013.95561	40139.9125
1017.67255	40207.4125
1021.38692	39829.9125
1025.09872	39342.6125
1028.80796	39091.9125
1032.51465	39434.8125
1036.21877	40030.5125
1039.92035	40273.2125
1043.61937	40164.7125
1047.31584	39791.1125
1051.00976	39387.3125
1054.70114	39285.8125
1058.38998	39464.4125
1062.07627	39811.6125
1065.76003	40315.6125
1069.44126	40804.8125
1073.11995	41419.5125
1076.79611	42038.8125
1080.46974	42417.4125
1084.14085	42727.9125
1087.80943	43136.0125
1091.47549	43595.0125
1095.13903	43765.1125
1098.80005	43321.2125
1102.45857	42352.7125
1106.11456	41448.7125
1109.76805	40951.2125
1113.41903	40700.2125
1117.06751	40737.8125
1120.71348	41058.8125
1124.35696	41426.7125
1127.99793	41945.7125
1131.63641	42288.9125
1135.2724	42126.7125
1138.90589	41871.9125
1142.5369	41924.5125
1146.16542	42123.7125
1149.79145	42470.3125
1153.415	42878.8125
1157.03607	43576.7125
1160.65467	44764.2125
1164.27079	46638.9125
1167.88443	49170.9125
1171.49561	51962.0125
1175.10432	55401.3125
1178.71056	59795.4125
1182.31434	63988.9125
1185.91565	66346.8125
1189.51451	66564.3125
1193.11091	65327.8125
1196.70485	62915.7125
1200.29634	60258.5125
1203.88538	58454.7125
1207.47197	57305.8125
1211.05612	56594.1125
1214.63782	55630.4125
1218.21708	54284.0125
1221.79391	52741.2125
1225.36829	51527.5125
1228.94024	50566.5125
1232.50976	49869.4125
1236.07685	49332.0125
1239.6415	49046.7125
1243.20374	49027.8125
1246.76355	49429.2125
1250.32093	50156.5125
1253.8759	51194.8125
1257.42845	52632.0125
1260.97859	54280.4125
1264.52631	55871.7125
1268.07163	57481.4125
1271.61453	59123.5125
1275.15503	60713.4125
1278.69312	62498.2125
1282.22882	64068.8125
1285.76211	65929.4125
1289.29301	68099.0125
1292.82151	70934.7125
1296.34761	74392.4125
1299.87133	78487.3125
1303.39266	82912.6125
1306.9116	87152.3125
1310.42815	90456.9125
1313.94233	91962.5125
1317.45412	91722.0125
1320.96354	90752.3125
1324.47058	90127.8125
1327.97525	89763.2125
1331.47754	89550.4125
1334.97747	89401.7125
1338.47502	88900.0125
1341.97022	87984.5125
1345.46305	86708.5125
1348.95352	85212.9125
1352.44163	83748.4125
1355.92738	83673.7125
1359.41078	85392.1125
1362.89183	87551.7125
1366.37053	86470.4125
1369.84688	80605.2125
1373.32088	73037.4125
1376.79254	67456.1125
1380.26186	65347.4125
1383.72883	65222.9125
1387.19347	65415.5125
1390.65578	65038.7125
1394.11575	64909.0125
1397.57339	65299.7125
1401.0287	66316.6125
1404.48168	67099.6125
1407.93234	66952.4125
1411.38068	65455.4125
1414.82669	63245.1125
1418.27039	60555.0125
1421.71177	57847.8125
1425.15083	55783.7125
1428.58758	54790.1125
1432.02203	55110.9125
1435.45416	56484.1125
1438.88399	58178.8125
1442.31151	59611.7125
1445.73673	60564.2125
1449.15965	61348.6125
1452.58027	61836.9125
1455.9986	62041.3125
1459.41463	62487.4125
1462.82837	63221.4125
1466.23982	64108.9125
1469.64898	64800.5125
1473.05586	65166.4125
1476.46045	65025.6125
1479.86276	64441.3125
1483.26279	63829.1125
1486.66054	63501.7125
1490.05602	63799.3125
1493.44922	64567.5125
1496.84016	65667.8125
1500.22882	67195.1125
1503.61521	69394.9125
1506.99934	71932.3125
1510.38121	73999.8125
1513.76081	74510.3125
1517.13816	73161.6125
1520.51324	70783.7125
1523.88607	68664.2125
1527.25665	67593.6125
1530.62498	67215.8125
1533.99105	66819.5125
1537.35488	66065.3125
1540.71647	64777.8125
1544.07581	63018.1125
1547.4329	61225.7125
1550.78776	59783.4125
1554.14038	58892.0125
1557.49077	58535.6125
1560.83892	58327.4125
1564.18484	58372.3125
1567.52853	58626.5125
1570.86999	59152.3125
1574.20922	60195.8125
1577.54624	61278.7125
1580.88103	61834.1125
1584.2136	62499.6125
1587.54395	64161.8125
1590.87208	66979.4125
1594.19801	70279.2125
1597.52172	73306.6125
1600.84321	73533.2125
1604.16251	69996.1125
1607.47959	64587.8125
1610.79447	59297.1125
1614.10715	54327.9125
1617.41763	50293.3125
1620.7259	47403.3125
1624.03199	45892.8125
1627.33587	45859.7125
1630.63757	47158.9125
1633.93707	50110.2125
1637.23439	55012.7125
1640.52951	61911.7125
1643.82246	69891.4125
1647.11321	75986.0125
1650.40179	77257.8125
1653.68819	72391.2125
1656.97241	63418.7125
1660.25446	54354.7125
1663.53433	47289.6125
1666.81203	42577.2125
1670.08756	39604.4125
1673.36092	37755.4125
1676.63211	36594.2125
1679.90115	35661.2125
1683.16801	35027.4125
1686.43272	34589.7125
1689.69527	34244.6125
1692.95567	33976.1125
1696.2139	33794.4125
1699.46999	33644.6125
1702.72392	33506.6125
1705.97571	33392.8125
1709.22535	33260.0125
1712.47284	33251.1125
1715.71819	33178.5125
1718.96139	33034.8125
1722.20246	32971.7125
1725.44139	32771.4125
1728.67818	32617.7125
1731.91284	32415.0125
1735.14537	32266.0125
1738.37576	32082.5125
1741.60403	31995.2125
1744.83017	31856.5125
1748.05418	31785.5125
1751.27607	31732.8125
1754.49584	31651.7125
1757.71349	31649.4125
1760.92903	31600.5125
1764.14244	31596.3125
1767.35375	31534.3125
1770.56294	31433.6125
1773.77002	31408.1125
1776.97499	31365.9125
1780.17785	31292.5125
1783.37861	31208.1125
1786.57727	31207.3125
1789.77382	31133.1125
1792.96828	31050.3125
1796.16064	30996.7125
1799.3509	30858.7125
1802.53907	30812.8125
1805.72514	30719.9125
1808.90913	30619.4125
1812.09102	30600.1125
1815.27083	30584.6125
1818.44856	30573.0125
1821.6242	30516.8125
1824.79776	30530.2125
1827.96924	30504.5125
1831.13864	30521.1125
1834.30597	30516.6125
1837.47122	30510.8125
1840.6344	30474.8125
1843.7955	30504.8125
1846.95454	30445.6125
1850.11151	30475.6125
1853.26642	30439.5125
1856.41926	30402.4125
1859.57004	30424.8125
1862.71876	30353.3125
1865.86542	30326.5125
1869.01003	30294.3125
1872.15258	30221.8125
1875.29308	30223.6125
1878.43152	30147.4125
1881.56792	30107.3125
1884.70227	30090.1125
1887.83457	30066.9125
1890.96482	30072.1125
1894.09304	29968.8125
1897.21921	29918.1125
1900.34335	29885.8125
1903.46544	29825.7125
1906.58551	29757.0125
1909.70353	29707.6125
1912.81953	29580.1125
1915.93349	29510.5125
1919.04543	29475.5125
1922.15534	29428.4125
1925.26322	29319.5125
1928.36908	29212.8125
1931.47292	29215.6125
1934.57473	29060.1125
1937.67453	28981.1125
1940.77232	28909.5125
1943.86808	28811.3125
1946.96184	28752.5125
1950.05358	28733.5125
1953.14331	28564.6125
1956.23103	28488.5125
1959.31675	28429.8125
1962.40046	28327.5125
1965.48217	28238.6125
1968.56188	28143.0125
1971.63959	28062.7125
1974.7153	27959.1125
1977.78901	27936.9125
1980.86073	27796.0125
1983.93046	27684.3125
1986.99819	27622.1125
1990.06394	27544.5125
1993.1277	27440.5125
1996.18947	27356.4125
1999.24925	27324.2125
2002.30706	27197.4125
2005.36288	27136.8125
2008.41672	27037.2125
2011.46859	26983.3125
2014.51848	26937.1125
2017.56639	26826.4125
2020.61233	26772.2125
2023.6563	26741.6125
2026.6983	26705.8125
2029.73833	26630.8125
2032.7764	26572.4125
2035.8125	26515.1125
2038.84664	26451.4125
2041.87881	26420.1125
2044.90903	26416.4125
2047.93729	26300.6125
2050.96359	26300.9125
2053.98794	26238.6125
2057.01034	26213.8125
2060.03078	26202.5125
2063.04927	26165.3125
2066.06582	26149.5125
2069.08042	26111.1125
2072.09307	26060.5125
2075.10378	26047.9125
2078.11255	26083.0125
2081.11938	26056.8125
2084.12426	26038.3125
2087.12722	26025.4125
2090.12824	25998.0125
2093.12732	25967.0125
2096.12447	26021.5125
2099.11969	25959.4125
2102.11299	25997.4125
2105.10435	26021.1125
2108.09379	26028.0125
2111.08131	26044.5125
2114.0669	26025.9125
2117.05057	26083.0125
2120.03233	26074.7125
2123.01216	26159.4125
2125.99008	26088.6125
2128.96609	26090.1125
2131.94018	26133.9125
2134.91236	26139.2125
2137.88263	26105.6125
2140.851	26083.2125
2143.81746	26124.7125
2146.78201	26114.9125
2149.74466	26085.0125
2152.7054	26108.9125
2155.66425	26106.9125
2158.6212	26151.6125
2161.57625	26113.1125
2164.52941	26155.8125
2167.48067	26082.1125
2170.43004	26042.1125
2173.37752	26079.1125
2176.32311	26051.8125
2179.26681	26079.0125
2182.20863	26085.5125
2185.14856	26093.1125
2188.08661	26117.9125
2191.02278	26069.5125
2193.95707	26046.0125
2196.88948	26023.1125
2199.82001	26014.6125
2202.74867	25977.7125
2205.67545	25980.9125
2208.60037	25941.7125
2211.52341	25891.2125
2214.44458	25872.1125
2217.36388	25800.5125
2220.28132	25745.2125
2223.1969	25666.0125
2226.11061	25690.9125
2229.02246	25585.0125
2231.93245	25568.1125
2234.84058	25563.2125
2237.74686	25503.3125
2240.65128	25474.7125
2243.55385	25431.2125
2246.45456	25337.2125
2249.35343	25318.1125
2252.25044	25292.0125
2255.14561	25223.5125
2258.03893	25187.5125
2260.93041	25119.4125
2263.82004	25064.6125
2266.70783	24952.2125
2269.59378	24903.1125
2272.4779	24873.2125
2275.36017	24789.4125
2278.24061	24778.7125
2281.11922	24729.1125
2283.996	24700.9125
2286.87094	24664.9125
2289.74405	24607.9125
2292.61534	24571.8125
2295.4848	24550.2125
2298.35243	24547.5125
2301.21824	24501.4125
2304.08223	24496.0125
2306.94439	24550.8125
2309.80474	24516.1125
2312.66327	24493.2125
2315.51999	24463.4125
2318.37489	24460.3125
2321.22797	24441.8125
2324.07925	24353.0125
2326.92871	24359.1125
2329.77637	24349.5125
2332.62222	24337.6125
2335.46626	24257.1125
2338.3085	24234.5125
2341.14893	24225.2125
2343.98756	24225.8125
2346.8244	24242.5125
2349.65943	24239.8125
2352.49267	24191.8125
2355.32411	24219.1125
2358.15376	24218.1125
2360.98161	24224.2125
2363.80768	24162.0125
2366.63195	24154.3125
2369.45444	24090.2125
2372.27514	24077.5125
2375.09405	24002.1125
2377.91118	23963.1125
2380.72652	23888.5125
2383.54009	23862.0125
2386.35187	23842.0125
2389.16188	23766.1125
2391.97011	23776.6125
2394.77657	23698.6125
2397.58125	23615.9125
2400.38416	23576.6125
2403.18529	23560.1125
2405.98466	23569.9125
2408.78226	23526.6125
2411.57809	23463.5125
2414.37216	23505.4125
2417.16446	23517.8125
2419.955	23431.2125
2422.74378	23419.4125
2425.5308	23343.1125
2428.31606	23364.8125
2431.09956	23364.2125
2433.88131	23331.6125
2436.6613	23282.2125
2439.43954	23325.5125
2442.21603	23312.1125
2444.99077	23292.6125
2447.76377	23247.0125
2450.53501	23232.4125
2453.30451	23253.1125
2456.07226	23247.8125
2458.83827	23209.8125
2461.60254	23234.1125
2464.36507	23200.5125
2467.12586	23181.2125
2469.88492	23149.4125
2472.64224	23179.9125
2475.39782	23171.4125
2478.15167	23160.4125
2480.90379	23145.8125
2483.65417	23129.7125
2486.40283	23142.0125
2489.14976	23096.8125
2491.89497	23152.5125
2494.63845	23155.3125
2497.3802	23124.2125
2500.12024	23106.6125
2502.85855	23105.9125
2505.59514	23096.0125
2508.33002	23091.0125
2511.06318	23056.4125
2513.79462	23016.7125
2516.52435	23002.7125
2519.25237	22972.6125
2521.97867	22924.3125
2524.70327	22881.8125
2527.42616	22906.3125
2530.14734	22913.9125
2532.86681	22863.3125
2535.58458	22838.8125
2538.30065	22773.7125
2541.01501	22793.4125
2543.72768	22757.6125
2546.43864	22797.9125
2549.14791	22717.0125
2551.85548	22677.6125
2554.56136	22701.9125
2557.26554	22689.2125
2559.96803	22656.1125
2562.66883	22605.8125
2565.36794	22578.6125
2568.06536	22561.7125
2570.7611	22523.8125
2573.45514	22509.5125
2576.14751	22470.1125
2578.83819	22441.8125
2581.52719	22467.3125
2584.21451	22389.8125
2586.90015	22399.5125
2589.58411	22325.1125
2592.2664	22341.9125
2594.94701	22291.6125
2597.62594	22266.2125
2600.30321	22234.6125
2602.9788	22273.0125
2605.65273	22232.6125
2608.32498	22209.6125
2610.99557	22223.1125
2613.66449	22184.6125
2616.33175	22166.3125
2618.99734	22182.5125
2621.66128	22142.1125
2624.32355	22127.9125
2626.98416	22123.9125
2629.64311	22106.2125
2632.30041	22100.9125
2634.95605	22084.0125
2637.61004	22072.6125
2640.26238	22060.5125
2642.91306	22016.3125
2645.56209	22011.9125
2648.20948	22036.2125
2650.85521	22028.9125
2653.4993	21989.9125
2656.14175	21974.8125
2658.78255	21967.1125
2661.42171	21951.5125
2664.05923	22034.6125
2666.6951	22006.0125
2669.32934	22005.7125
2671.96194	22030.8125
2674.59291	22052.0125
2677.22224	21956.5125
2679.84993	22032.3125
2682.476	21991.2125
2685.10043	21967.8125
2687.72324	21985.6125
2690.34441	21973.7125
2692.96396	21997.3125
2695.58188	21991.6125
2698.19818	21965.3125
2700.81285	22003.5125
2703.4259	21967.9125
2706.03733	21992.4125
2708.64714	21963.9125
2711.25533	21952.9125
2713.86191	22009.7125
2716.46687	22035.7125
2719.07021	22018.8125
2721.67194	22050.8125
2724.27206	22037.7125
2726.87057	22031.3125
2729.46747	22043.0125
2732.06276	22071.8125
2734.65644	22045.9125
2737.24852	22061.3125
2739.83899	22058.6125
2742.42786	22049.4125
2745.01513	21994.8125
2747.60079	21992.8125
2750.18486	21939.1125
2752.76733	21928.7125
2755.3482	21913.3125
2757.92747	21906.1125
2760.50515	21880.8125
2763.08123	21904.3125
2765.65573	21883.8125
2768.22863	21842.0125
2770.79994	21763.3125
2773.36967	21844.0125
2775.9378	21814.2125
2778.50435	21809.6125
2781.06932	21799.9125
2783.6327	21793.7125
2786.1945	21704.2125
2788.75471	21691.3125
2791.31335	21642.1125
2793.87041	21632.6125
2796.42589	21566.9125
2798.97979	21600.1125
2801.53212	21567.5125
2804.08288	21569.3125
2806.63206	21442.8125
2809.17967	21399.3125
2811.72571	21348.5125
2814.27018	21311.0125
2816.81308	21257.4125
2819.35442	21239.5125
2821.89419	21211.2125
2824.43239	21215.9125
2826.96904	21177.8125
2829.50412	21191.3125
2832.03763	21174.3125
2834.56959	21195.1125
2837.1	21124.8125
2839.62884	21105.5125
2842.15613	21085.1125
2844.68186	21158.1125
2847.20604	21163.7125
2849.72867	21160.6125
2852.24974	21126.2125
2854.76927	21133.5125
2857.28724	21123.7125
2859.80367	21031.5125
2862.31855	21026.3125
2864.83189	21018.8125
2867.34368	20994.7125
2869.85393	20979.7125
2872.36264	20957.3125
2874.8698	20964.1125
2877.37543	20980.7125
2879.87952	20981.4125
2882.38207	21026.5125
2884.88308	20927.8125
2887.38256	20914.4125
2889.88051	20989.6125
2892.37692	21005.9125
2894.8718	21017.2125
2897.36515	21022.6125
2899.85698	21001.2125
2902.34727	21073.6125
2904.83604	20999.0125
2907.32328	21070.5125
2909.809	21041.0125
2912.29319	21035.0125
2914.77587	21041.6125
2917.25702	21055.9125
2919.73665	21027.3125
2922.21476	21028.1125
2924.69136	21022.8125
2927.16644	21045.4125
2929.64	20964.2125
2932.11205	20914.2125
2934.58258	20875.4125
2937.05161	20873.9125
2939.51912	20875.4125
2941.98513	20756.1125
2944.44962	20808.7125
2946.91261	20722.7125
2949.37409	20724.5125
2951.83407	20718.8125
2954.29254	20717.2125
2956.74951	20647.0125
2959.20498	20663.2125
2961.65895	20620.0125
2964.11142	20623.5125
2966.56239	20534.3125
2969.01186	20504.9125
2971.45984	20467.5125
2973.90632	20450.9125
2976.35131	20427.3125
2978.7948	20385.3125
2981.23681	20310.6125
2983.67732	20240.8125
2986.11635	20160.6125
2988.55388	20126.2125
2990.98993	20082.1125
2993.4245	20025.3125
2995.85758	20026.5125
2998.28917	19967.3125
3000.71928	19954.7125
3003.14791	19887.7125
3005.57506	19835.6125
3008.00073	19774.2125
3010.42493	19752.2125
3012.84764	19743.6125
3015.26888	19745.7125
3017.68865	19639.5125
3020.10694	19621.0125
3022.52376	19581.6125
