Data from AgNPs_FTO_APTES_UA_2uM_CRN_20uM_R6G_10uM_NaF_0.1M_Addition_RamanShift__18__14-18-45-207.txt Node

Date: Wed Feb 02 14:18:45 GMT 2022
User: TCL
Spectrometer: QEP01345
Trigger mode: 4
Integration Time (sec): 7.000000E0
Scans to average: 10
Electric dark correction enabled: true
Nonlinearity correction enabled: false
Boxcar width: 0
XAxis mode: Raman Shifts
Number of Pixels in Spectrum: 1044
>>>>>Begin Spectral Data<<<<<
46.04893	0.85
50.45542	1.25
54.85868	-1.95
59.25871	-1.55
63.6555	93.35
68.04907	96.05
72.43941	102.25
76.82654	111.75
81.21044	114.45
85.59113	119.45
89.96862	122.75
94.34289	126.55
98.71396	127.25
103.08183	134.15
107.4465	134.35
111.80798	143.85
116.16626	143.35
120.52136	149.35
124.87327	154.15
129.222	163.65
133.56755	176.35
137.90993	186.05
142.24913	207.85
146.58517	232.25
150.91804	267.65
155.24774	321.45
159.57429	391.65
163.89768	505.35
168.21792	673.85
172.53501	911.45
176.84895	1257.35
181.15975	1773.55
185.46741	2474.75
189.77193	3396.55
194.07331	4549.75
198.37157	5852.15
202.6667	7206.35
206.9587	8568.65
211.24758	9876.15
215.53334	11221.05
219.81599	12637.85
224.09553	14200.95
228.37195	15934.35
232.64527	17848.55
236.91549	19842.85
241.18261	21810.65
245.44663	23629.15
249.70755	25242.75
253.96539	26734.75
258.22014	27924.95
262.4718	29011.25
266.72039	29813.05
270.96589	30328.45
275.20832	30493.95
279.44768	30483.85
283.68397	30365.25
287.91719	30281.45
292.14735	30339.65
296.37445	30477.95
300.59849	30569.25
304.81948	30581.95
309.03742	30437.05
313.25231	29899.75
317.46415	29031.95
321.67296	27999.45
325.87872	27119.65
330.08145	26701.85
334.28114	26545.15
338.47781	26633.65
342.67145	26875.25
346.86207	27268.15
351.04966	27791.55
355.23424	28310.75
359.4158	28744.25
363.59435	29006.85
367.76989	29181.05
371.94243	29367.25
376.11196	29449.65
380.27849	29625.05
384.44203	29757.25
388.60257	30021.65
392.76012	30388.15
396.91468	30859.15
401.06626	31387.15
405.21485	31635.95
409.36047	31488.25
413.50311	30959.45
417.64277	30606.15
421.77947	30576.15
425.9132	30760.85
430.04396	30986.55
434.17176	31165.45
438.2966	31422.85
442.41849	31978.65
446.53742	32808.45
450.6534	33824.55
454.76644	34649.15
458.87653	35034.95
462.98368	34960.75
467.08789	34636.75
471.18916	34317.85
475.2875	34069.05
479.38291	34091.85
483.4754	33998.85
487.56496	33455.85
491.6516	32655.65
495.73531	31898.95
499.81612	31461.25
503.89401	31460.75
507.96899	31566.15
512.04106	31414.15
516.11023	31063.75
520.1765	30571.95
524.23987	30140.65
528.30034	29774.75
532.35792	29393.35
536.41261	29051.05
540.46441	28761.75
544.51333	28900.55
548.55936	29418.05
552.60252	30330.25
556.64279	31249.85
560.6802	31922.25
564.71473	32327.05
568.7464	32983.35
572.7752	33972.65
576.80114	34858.15
580.82422	35546.55
584.84444	36049.05
588.86181	36431.05
592.87633	36791.15
596.888	36884.55
600.89682	36738.55
604.9028	37566.45
608.90594	40223.85
612.90624	42444.55
616.90371	39264.95
620.89834	32772.45
624.89015	30084.05
628.87913	29972.15
632.86528	30140.95
636.84862	30068.15
640.82913	29477.65
644.80683	28578.65
648.78172	27813.65
652.75379	27529.55
656.72306	27769.85
660.68952	28143.55
664.65319	27946.45
668.61405	27490.95
672.57211	27336.95
676.52738	27372.25
680.47986	27432.85
684.42955	27273.65
688.37646	27198.55
692.32058	27336.15
696.26192	27553.85
700.20048	27913.05
704.13626	28168.55
708.06928	28192.75
711.99952	27958.85
715.927	27919.45
719.85171	27940.95
723.77365	27816.65
727.69284	27453.85
731.60928	27077.65
735.52295	26983.45
739.43388	26938.35
743.34206	27050.05
747.24749	27243.95
751.15017	27576.65
755.05012	28189.65
758.94733	29269.55
762.8418	31035.45
766.73354	33594.35
770.62254	35902.55
774.50882	36071.85
778.39237	33931.25
782.27321	31156.65
786.15132	29018.35
790.02671	27764.65
793.89938	27175.65
797.76935	26872.85
801.6366	26910.85
805.50115	26831.25
809.36299	26606.65
813.22213	26315.55
817.07857	26199.55
820.93231	26120.75
824.78336	25918.15
828.63172	25766.25
832.47738	25642.45
836.32036	25625.55
840.16066	25762.25
843.99827	25846.35
847.8332	25805.75
851.66546	25578.35
855.49504	25531.65
859.32195	25472.85
863.1462	25407.85
866.96777	25295.15
870.78668	25223.35
874.60293	25199.45
878.41652	25171.45
882.22745	25247.05
886.03573	25320.05
889.84136	25317.65
893.64433	25197.95
897.44466	25105.75
901.24235	25001.45
905.0374	24891.25
908.8298	24822.85
912.61957	24874.55
916.40671	25265.35
920.19121	25788.25
923.97308	26138.25
927.75233	26097.95
931.52895	25866.85
935.30295	25406.15
939.07433	24784.45
942.84309	24292.65
946.60924	24056.65
950.37278	24046.95
954.13371	23995.55
957.89203	23972.75
961.64774	23888.35
965.40086	23892.15
969.15137	23766.25
972.89929	23584.25
976.64461	23461.95
980.38733	23422.45
984.12747	23508.45
987.86502	23684.05
991.59999	24055.65
995.33237	24561.25
999.06217	25423.85
1002.78939	26420.75
1006.51404	26974.05
1010.23611	27197.35
1013.95561	27473.35
1017.67255	27501.35
1021.38692	27181.05
1025.09872	26855.75
1028.80796	26954.55
1032.51465	27671.25
1036.21877	28473.95
1039.92035	28631.95
1043.61937	28188.05
1047.31584	27551.65
1051.00976	26795.15
1054.70114	26498.65
1058.38998	26568.35
1062.07627	26820.35
1065.76003	27172.75
1069.44126	27428.95
1073.11995	27822.25
1076.79611	28161.05
1080.46974	28347.95
1084.14085	28560.45
1087.80943	28911.15
1091.47549	29258.95
1095.13903	29384.55
1098.80005	29034.35
1102.45857	28268.45
1106.11456	27568.95
1109.76805	27320.75
1113.41903	27326.05
1117.06751	27492.65
1120.71348	27805.55
1124.35696	28108.95
1127.99793	28515.45
1131.63641	28810.65
1135.2724	28734.05
1138.90589	28663.35
1142.5369	28728.65
1146.16542	28960.15
1149.79145	29331.25
1153.415	29813.95
1157.03607	30574.15
1160.65467	31680.15
1164.27079	33424.55
1167.88443	35661.75
1171.49561	38267.25
1175.10432	41603.65
1178.71056	45603.55
1182.31434	49398.15
1185.91565	51662.35
1189.51451	51982.05
1193.11091	50833.05
1196.70485	48725.05
1200.29634	46315.95
1203.88538	44354.15
1207.47197	43115.65
1211.05612	42308.25
1214.63782	41481.75
1218.21708	40509.15
1221.79391	39576.25
1225.36829	38901.25
1228.94024	38238.95
1232.50976	37398.45
1236.07685	36712.65
1239.6415	36387.55
1243.20374	36322.25
1246.76355	36580.55
1250.32093	37226.55
1253.8759	38178.55
1257.42845	39482.45
1260.97859	40848.65
1264.52631	42267.25
1268.07163	43591.65
1271.61453	45136.15
1275.15503	46842.25
1278.69312	48533.85
1282.22882	50175.75
1285.76211	51771.45
1289.29301	53598.55
1292.82151	55970.85
1296.34761	59286.45
1299.87133	63094.45
1303.39266	67365.05
1306.9116	71381.15
1310.42815	74962.55
1313.94233	77228.35
1317.45412	77643.25
1320.96354	76971.85
1324.47058	76274.65
1327.97525	75706.75
1331.47754	75222.65
1334.97747	75029.75
1338.47502	74657.35
1341.97022	74122.75
1345.46305	72709.65
1348.95352	70608.05
1352.44163	68440.65
1355.92738	67602.05
1359.41078	68515.55
1362.89183	69654.05
1366.37053	68225.25
1369.84688	63428.65
1373.32088	57408.75
1376.79254	53184.05
1380.26186	51678.45
1383.72883	51919.25
1387.19347	52462.45
1390.65578	52578.65
1394.11575	52987.45
1397.57339	53943.45
1401.0287	55294.35
1404.48168	56447.05
1407.93234	56481.35
1411.38068	55128.95
1414.82669	52783.25
1418.27039	49820.45
1421.71177	46954.45
1425.15083	44651.35
1428.58758	43372.45
1432.02203	43413.15
1435.45416	44564.95
1438.88399	46332.05
1442.31151	47920.15
1445.73673	49172.35
1449.15965	50279.95
1452.58027	51230.15
1455.9986	51787.55
1459.41463	52358.35
1462.82837	53130.25
1466.23982	54049.55
1469.64898	54756.35
1473.05586	54910.05
1476.46045	54588.35
1479.86276	53760.95
1483.26279	52696.15
1486.66054	51815.35
1490.05602	51500.45
1493.44922	51559.65
1496.84016	51781.85
1500.22882	52412.75
1503.61521	53595.85
1506.99934	55121.25
1510.38121	56546.75
1513.76081	57053.05
1517.13816	56335.95
1520.51324	54773.05
1523.88607	53512.95
1527.25665	52944.25
1530.62498	52893.95
1533.99105	52906.25
1537.35488	52717.55
1540.71647	52008.15
1544.07581	50729.55
1547.4329	49357.35
1550.78776	48148.65
1554.14038	47315.15
1557.49077	46857.85
1560.83892	46588.85
1564.18484	46432.55
1567.52853	46290.25
1570.86999	46576.15
1574.20922	47382.35
1577.54624	48367.35
1580.88103	49045.15
1584.2136	49987.85
1587.54395	51815.95
1590.87208	54641.95
1594.19801	58065.15
1597.52172	61263.15
1600.84321	61866.85
1604.16251	58772.25
1607.47959	53652.05
1610.79447	48331.65
1614.10715	43510.05
1617.41763	39446.45
1620.7259	36613.75
1624.03199	35083.95
1627.33587	34925.65
1630.63757	36236.05
1633.93707	39110.35
1637.23439	43871.95
1640.52951	50202.45
1643.82246	57142.65
1647.11321	61863.55
1650.40179	62110.65
1653.68819	57272.65
1656.97241	49267.15
1660.25446	41259.45
1663.53433	35091.45
1666.81203	30969.95
1670.08756	28285.55
1673.36092	26610.45
1676.63211	25533.55
1679.90115	24727.95
1683.16801	24143.65
1686.43272	23725.45
1689.69527	23408.45
1692.95567	23181.35
1696.2139	22981.85
1699.46999	22865.35
1702.72392	22775.45
1705.97571	22594.15
1709.22535	22535.55
1712.47284	22409.65
1715.71819	22356.65
1718.96139	22299.85
1722.20246	22148.45
1725.44139	22003.35
1728.67818	21868.15
1731.91284	21713.95
1735.14537	21560.55
1738.37576	21501.85
1741.60403	21352.75
1744.83017	21303.85
1748.05418	21226.15
1751.27607	21208.45
1754.49584	21156.65
1757.71349	21141.15
1760.92903	21088.45
1764.14244	21032.05
1767.35375	21021.15
1770.56294	20945.45
1773.77002	20890.25
1776.97499	20855.05
1780.17785	20760.65
1783.37861	20710.85
1786.57727	20708.35
1789.77382	20634.85
1792.96828	20585.85
1796.16064	20572.95
1799.3509	20548.25
1802.53907	20452.05
1805.72514	20391.35
1808.90913	20294.85
1812.09102	20282.05
1815.27083	20257.45
1818.44856	20235.75
1821.6242	20229.85
1824.79776	20186.25
1827.96924	20169.35
1831.13864	20161.95
1834.30597	20194.75
1837.47122	20177.55
1840.6344	20176.15
1843.7955	20234.35
1846.95454	20202.75
1850.11151	20227.85
1853.26642	20223.35
1856.41926	20206.35
1859.57004	20172.15
1862.71876	20202.75
1865.86542	20182.75
1869.01003	20144.75
1872.15258	20135.25
1875.29308	20123.25
1878.43152	20134.65
1881.56792	20122.35
1884.70227	20114.55
1887.83457	20099.45
1890.96482	20090.65
1894.09304	20081.85
1897.21921	20044.25
1900.34335	20037.05
1903.46544	20001.55
1906.58551	19980.25
1909.70353	19952.05
1912.81953	19916.15
1915.93349	19863.15
1919.04543	19784.35
1922.15534	19770.45
1925.26322	19683.95
1928.36908	19622.65
1931.47292	19542.25
1934.57473	19466.25
1937.67453	19418.15
1940.77232	19337.45
1943.86808	19285.05
1946.96184	19211.05
1950.05358	19127.95
1953.14331	19075.15
1956.23103	19003.65
1959.31675	18938.65
1962.40046	18872.15
1965.48217	18841.15
1968.56188	18786.35
1971.63959	18735.35
1974.7153	18689.45
1977.78901	18603.35
1980.86073	18533.05
1983.93046	18482.75
1986.99819	18412.15
1990.06394	18382.25
1993.1277	18320.95
1996.18947	18225.65
1999.24925	18183.25
2002.30706	18094.15
2005.36288	18054.55
2008.41672	18010.35
2011.46859	17979.05
2014.51848	17910.75
2017.56639	17868.15
2020.61233	17821.35
2023.6563	17845.05
2026.6983	17799.55
2029.73833	17737.55
2032.7764	17758.15
2035.8125	17689.65
2038.84664	17657.85
2041.87881	17667.35
2044.90903	17624.75
2047.93729	17557.45
2050.96359	17614.35
2053.98794	17603.45
2057.01034	17578.55
2060.03078	17531.85
2063.04927	17510.25
2066.06582	17488.45
2069.08042	17496.35
2072.09307	17459.25
2075.10378	17434.85
2078.11255	17432.15
2081.11938	17417.65
2084.12426	17391.65
2087.12722	17361.35
2090.12824	17344.95
2093.12732	17410.65
2096.12447	17407.75
2099.11969	17415.65
2102.11299	17430.65
2105.10435	17391.95
2108.09379	17370.85
2111.08131	17387.65
2114.0669	17428.95
2117.05057	17417.15
2120.03233	17443.35
2123.01216	17451.95
2125.99008	17477.25
2128.96609	17474.15
2131.94018	17471.35
2134.91236	17473.35
2137.88263	17483.45
2140.851	17507.05
2143.81746	17556.25
2146.78201	17487.35
2149.74466	17521.45
2152.7054	17513.75
2155.66425	17491.85
2158.6212	17455.05
2161.57625	17445.15
2164.52941	17472.05
2167.48067	17469.35
2170.43004	17440.05
2173.37752	17443.65
2176.32311	17437.45
2179.26681	17435.05
2182.20863	17412.15
2185.14856	17464.35
2188.08661	17474.15
2191.02278	17449.95
2193.95707	17430.35
2196.88948	17420.55
2199.82001	17411.45
2202.74867	17398.65
2205.67545	17419.45
2208.60037	17386.75
2211.52341	17382.65
2214.44458	17392.15
2217.36388	17359.35
2220.28132	17332.15
2223.1969	17262.95
2226.11061	17277.25
2229.02246	17234.55
2231.93245	17213.55
2234.84058	17152.15
2237.74686	17102.15
2240.65128	17113.95
2243.55385	17067.15
2246.45456	17055.65
2249.35343	16982.95
2252.25044	16971.65
2255.14561	16944.15
2258.03893	16919.75
2260.93041	16921.95
2263.82004	16863.25
2266.70783	16819.85
2269.59378	16727.55
2272.4779	16729.95
2275.36017	16648.65
2278.24061	16654.35
2281.11922	16624.55
2283.996	16594.45
2286.87094	16586.25
2289.74405	16542.85
2292.61534	16559.25
2295.4848	16517.95
2298.35243	16531.35
2301.21824	16558.55
2304.08223	16565.25
2306.94439	16569.65
2309.80474	16578.25
2312.66327	16571.55
2315.51999	16598.95
2318.37489	16589.05
2321.22797	16530.85
2324.07925	16530.95
2326.92871	16540.35
2329.77637	16526.35
2332.62222	16530.05
2335.46626	16501.05
2338.3085	16500.95
2341.14893	16515.75
2343.98756	16549.95
2346.8244	16542.15
2349.65943	16568.65
2352.49267	16558.55
2355.32411	16550.75
2358.15376	16557.35
2360.98161	16536.95
2363.80768	16486.75
2366.63195	16498.55
2369.45444	16454.05
2372.27514	16436.45
2375.09405	16403.55
2377.91118	16386.55
2380.72652	16335.15
2383.54009	16300.45
2386.35187	16261.55
2389.16188	16234.75
2391.97011	16218.55
2394.77657	16159.15
2397.58125	16140.25
2400.38416	16165.35
2403.18529	16129.65
2405.98466	16116.05
2408.78226	16103.15
2411.57809	16073.45
2414.37216	16033.25
2417.16446	16021.05
2419.955	16008.75
2422.74378	15984.15
2425.5308	16001.25
2428.31606	15978.05
2431.09956	15961.25
2433.88131	15927.85
2436.6613	15946.75
2439.43954	15955.65
2442.21603	15954.65
2444.99077	15924.65
2447.76377	15920.35
2450.53501	15888.55
2453.30451	15911.95
2456.07226	15913.45
2458.83827	15924.55
2461.60254	15949.15
2464.36507	15948.25
2467.12586	15938.15
2469.88492	15935.95
2472.64224	15945.05
2475.39782	15984.15
2478.15167	15980.75
2480.90379	16012.55
2483.65417	15995.15
2486.40283	16020.95
2489.14976	16056.25
2491.89497	16045.85
2494.63845	16059.05
2497.3802	16082.65
2500.12024	16062.75
2502.85855	16056.95
2505.59514	16083.45
2508.33002	16042.95
2511.06318	16045.35
2513.79462	16042.35
2516.52435	15993.55
2519.25237	16010.55
2521.97867	16013.85
2524.70327	16048.55
2527.42616	15999.55
2530.14734	16021.75
2532.86681	15987.05
2535.58458	15998.15
2538.30065	15997.15
2541.01501	15946.65
2543.72768	15948.65
2546.43864	15922.75
2549.14791	15924.85
2551.85548	15903.05
2554.56136	15918.55
2557.26554	15923.25
2559.96803	15868.15
2562.66883	15882.75
2565.36794	15894.95
2568.06536	15875.35
2570.7611	15850.45
2573.45514	15873.95
2576.14751	15876.85
2578.83819	15880.55
2581.52719	15848.45
2584.21451	15855.75
2586.90015	15856.85
2589.58411	15852.95
2592.2664	15857.75
2594.94701	15854.55
2597.62594	15868.95
2600.30321	15821.75
2602.9788	15867.25
2605.65273	15835.05
2608.32498	15851.05
2610.99557	15854.45
2613.66449	15872.25
2616.33175	15862.95
2618.99734	15902.65
2621.66128	15885.55
2624.32355	15906.85
2626.98416	15916.25
2629.64311	15949.95
2632.30041	15966.65
2634.95605	15935.05
2637.61004	15929.75
2640.26238	15900.35
2642.91306	15859.45
2645.56209	15831.05
2648.20948	15839.15
2650.85521	15864.05
2653.4993	15850.25
2656.14175	15853.05
2658.78255	15865.65
2661.42171	15892.05
2664.05923	15905.55
2666.6951	15903.55
2669.32934	15968.05
2671.96194	15924.45
2674.59291	15946.85
2677.22224	15944.55
2679.84993	15947.95
2682.476	15919.45
2685.10043	15903.25
2687.72324	15911.35
2690.34441	15901.45
2692.96396	15879.55
2695.58188	15866.85
2698.19818	15857.95
2700.81285	15855.05
2703.4259	15850.15
2706.03733	15900.85
2708.64714	15916.15
2711.25533	15933.45
2713.86191	15882.75
2716.46687	15916.05
2719.07021	15924.15
2721.67194	15939.85
2724.27206	15923.85
2726.87057	15929.35
2729.46747	15963.95
2732.06276	15979.35
2734.65644	15952.75
2737.24852	15956.05
2739.83899	15952.35
2742.42786	15939.55
2745.01513	15955.45
2747.60079	15938.85
2750.18486	15949.35
2752.76733	15983.65
2755.3482	15959.25
2757.92747	15993.75
2760.50515	15980.75
2763.08123	15992.45
2765.65573	15996.35
2768.22863	15954.15
2770.79994	15957.35
2773.36967	15984.75
2775.9378	15977.15
2778.50435	15999.35
2781.06932	15987.05
2783.6327	16005.65
2786.1945	15983.65
2788.75471	15984.35
2791.31335	15935.65
2793.87041	15931.45
2796.42589	15881.95
2798.97979	15902.55
2801.53212	15876.25
2804.08288	15872.55
2806.63206	15822.55
2809.17967	15835.25
2811.72571	15748.45
2814.27018	15773.25
2816.81308	15727.85
2819.35442	15691.15
2821.89419	15680.75
2824.43239	15677.85
2826.96904	15663.15
2829.50412	15650.35
2832.03763	15622.85
2834.56959	15616.15
2837.1	15633.25
2839.62884	15630.45
2842.15613	15612.15
2844.68186	15637.75
2847.20604	15672.75
2849.72867	15679.35
2852.24974	15655.45
2854.76927	15638.45
2857.28724	15658.25
2859.80367	15634.45
2862.31855	15603.45
2864.83189	15596.35
2867.34368	15554.55
2869.85393	15555.65
2872.36264	15528.95
2874.8698	15548.95
2877.37543	15578.35
2879.87952	15573.55
2882.38207	15582.55
2884.88308	15575.35
2887.38256	15602.75
2889.88051	15603.85
2892.37692	15617.55
2894.8718	15620.25
2897.36515	15621.85
2899.85698	15599.55
2902.34727	15713.15
2904.83604	15689.35
2907.32328	15725.65
2909.809	15703.45
2912.29319	15715.45
2914.77587	15674.05
2917.25702	15676.05
2919.73665	15656.95
2922.21476	15698.55
2924.69136	15693.25
2927.16644	15721.05
2929.64	15690.25
2932.11205	15698.75
2934.58258	15636.75
2937.05161	15634.95
2939.51912	15643.75
2941.98513	15613.15
2944.44962	15575.85
2946.91261	15536.05
2949.37409	15532.95
2951.83407	15552.25
2954.29254	15512.25
2956.74951	15480.45
2959.20498	15468.85
2961.65895	15419.85
2964.11142	15415.85
2966.56239	15360.35
2969.01186	15368.25
2971.45984	15329.85
2973.90632	15315.25
2976.35131	15254.75
2978.7948	15219.75
2981.23681	15207.85
2983.67732	15170.45
2986.11635	15080.85
2988.55388	15067.45
2990.98993	15063.35
2993.4245	15025.55
2995.85758	14968.05
2998.28917	14905.05
3000.71928	14899.45
3003.14791	14880.65
3005.57506	14875.35
3008.00073	14787.35
3010.42493	14791.65
3012.84764	14759.85
3015.26888	14748.85
3017.68865	14695.85
3020.10694	14663.95
3022.52376	14671.05
3024.9391	14630.85
3027.35298	14605.45
3029.76539	14563.05
3032.17632	14552.85
3034.5858	14533.55
3036.9938	14578.45
3039.40034	14550.15
3041.80542	14578.65
3044.20903	14519.75
3046.61118	14505.45
3049.01187	14497.75
3051.4111	14468.35
3053.80888	14461.75
3056.20519	14412.35
3058.60005	14384.75
3060.99345	14345.15
3063.3854	14321.65
3065.7759	14287.65
3068.16494	14208.75
3070.55254	14150.65
3072.93868	14100.45
3075.32338	14126.95
3077.70662	14099.65
3080.08842	14052.25
3082.46878	14040.45
3084.84769	14037.25
3087.22515	14017.65
3089.60118	14015.05
3091.97576	13990.35
3094.3489	13974.85
3096.72061	13954.05
3099.09087	13929.05
3101.4597	13951.85
3103.82709	13924.45
3106.19305	13911.15
3108.55757	13906.95
3110.92066	13854.15
3113.28232	13837.15
3115.64255	13802.95
3118.00134	13748.65
3120.35871	13761.15
3122.71466	13722.65
3125.06917	13687.95
3127.42226	13621.05
3129.77393	13648.35
3132.12417	13660.45
3134.47299	13635.85
3136.82039	13624.45
3139.16636	13637.65
3141.51092	13631.15
3143.85406	13614.65
3146.19579	13603.25
3148.53609	13581.25
3150.87499	13592.35
3153.21246	13591.25
3155.54853	13607.55
3157.88318	13606.55
3160.21642	13603.55
3162.54826	13575.65
3164.87868	13565.05
3167.2077	13587.05
3169.5353	13561.95
3171.86151	13578.85
3174.18631	13556.65
3176.5097	13547.55
3178.83169	13541.35
3181.15228	13547.95
3183.47147	13494.55
3185.78926	13523.55
3188.10565	13535.35
3190.42065	13497.95
3192.73424	13521.65
3195.04645	13520.85
3197.35725	13510.55
3199.66667	13481.35
3201.97469	13520.85
3204.28132	13498.85
3206.58656	13491.45
3208.8904	13489.75
3211.19287	13499.15
3213.49394	13508.25
3215.79363	13478.15
3218.09193	13502.15
3220.38884	13473.45
3222.68438	13495.95
3224.97853	13459.15
3227.2713	13474.85
3229.56269	13443.95
3231.8527	13457.35
3234.14133	13423.75
3236.42858	13397.45
3238.71446	13372.45
