Data from AgNPs_FTO_APTES_UA_2uM_CRN_0uM_R6G_10uM_NaF_0.1M_Addition_RamanShift__25__10-33-34-945.txt Node

Date: Wed Feb 02 10:33:34 GMT 2022
User: TCL
Spectrometer: QEP01345
Trigger mode: 4
Integration Time (sec): 7.000000E0
Scans to average: 10
Electric dark correction enabled: true
Nonlinearity correction enabled: false
Boxcar width: 0
XAxis mode: Raman Shifts
Number of Pixels in Spectrum: 1044
>>>>>Begin Spectral Data<<<<<
46.04893	1.7875
50.45542	0.6875
54.85868	-0.0125
59.25871	0.5875
63.6555	27.7875
68.04907	29.8875
72.43941	34.5875
76.82654	37.5875
81.21044	38.9875
85.59113	44.9875
89.96862	46.2875
94.34289	45.4875
98.71396	49.2875
103.08183	51.8875
107.4465	47.4875
111.80798	47.9875
116.16626	49.7875
120.52136	50.5875
124.87327	45.5875
129.222	49.9875
133.56755	48.3875
137.90993	50.8875
142.24913	50.8875
146.58517	56.2875
150.91804	58.2875
155.24774	65.4875
159.57429	75.9875
163.89768	85.7875
168.21792	104.1875
172.53501	137.9875
176.84895	181.1875
181.15975	241.2875
185.46741	320.7875
189.77193	430.2875
194.07331	568.4875
198.37157	719.9875
202.6667	879.2875
206.9587	1035.6875
211.24758	1181.0875
215.53334	1324.8875
219.81599	1475.3875
224.09553	1632.5875
228.37195	1825.7875
232.64527	2032.3875
236.91549	2252.8875
241.18261	2473.5875
245.44663	2660.1875
249.70755	2825.5875
253.96539	2960.2875
258.22014	3053.0875
262.4718	3127.3875
266.72039	3168.3875
270.96589	3152.2875
275.20832	3134.7875
279.44768	3078.2875
283.68397	3015.9875
287.91719	2948.4875
292.14735	2902.6875
296.37445	2892.3875
300.59849	2922.1875
304.81948	2974.1875
309.03742	3005.5875
313.25231	2981.8875
317.46415	2878.0875
321.67296	2731.2875
325.87872	2601.3875
330.08145	2533.6875
334.28114	2513.0875
338.47781	2547.0875
342.67145	2611.4875
346.86207	2686.0875
351.04966	2805.5875
355.23424	2947.6875
359.4158	3084.7875
363.59435	3158.5875
367.76989	3205.6875
371.94243	3217.7875
376.11196	3204.0875
380.27849	3196.9875
384.44203	3155.6875
388.60257	3110.4875
392.76012	3084.5875
396.91468	3117.4875
401.06626	3174.4875
405.21485	3222.4875
409.36047	3200.2875
413.50311	3106.7875
417.64277	3006.2875
421.77947	2970.0875
425.9132	2946.7875
430.04396	2952.3875
434.17176	2955.0875
438.2966	2996.9875
442.41849	3054.4875
446.53742	3128.8875
450.6534	3230.9875
454.76644	3273.7875
458.87653	3281.0875
462.98368	3275.3875
467.08789	3250.9875
471.18916	3174.5875
475.2875	3149.7875
479.38291	3104.5875
483.4754	3058.8875
487.56496	3048.2875
491.6516	3021.7875
495.73531	3007.5875
499.81612	2996.6875
503.89401	3006.1875
507.96899	3042.8875
512.04106	3081.3875
516.11023	3146.4875
520.1765	3194.0875
524.23987	3195.6875
528.30034	3151.0875
532.35792	3062.3875
536.41261	2978.5875
540.46441	2914.2875
544.51333	2870.9875
548.55936	2893.3875
552.60252	2910.4875
556.64279	2961.4875
560.6802	2965.7875
564.71473	2990.8875
568.7464	3055.7875
572.7752	3083.7875
576.80114	3021.2875
580.82422	2949.4875
584.84444	2898.0875
588.86181	2907.8875
592.87633	2917.2875
596.888	2950.2875
600.89682	3008.0875
604.9028	3233.2875
608.90594	3749.6875
612.90624	4548.3875
616.90371	4555.9875
620.89834	3626.9875
624.89015	3110.0875
628.87913	2990.1875
632.86528	2937.1875
636.84862	2928.1875
640.82913	2897.0875
644.80683	2841.2875
648.78172	2816.4875
652.75379	2869.6875
656.72306	3014.9875
660.68952	3145.0875
664.65319	3080.1875
668.61405	2889.7875
672.57211	2803.0875
676.52738	2787.5875
680.47986	2805.7875
684.42955	2815.6875
688.37646	2826.8875
692.32058	2886.2875
696.26192	2925.7875
700.20048	3006.6875
704.13626	3090.2875
708.06928	3083.6875
711.99952	3006.5875
715.927	2931.6875
719.85171	2891.2875
723.77365	2882.3875
727.69284	2851.2875
731.60928	2847.4875
735.52295	2839.2875
739.43388	2835.9875
743.34206	2848.2875
747.24749	2848.0875
751.15017	2856.7875
755.05012	2894.0875
758.94733	2979.9875
762.8418	3159.3875
766.73354	3446.5875
770.62254	3789.9875
774.50882	4052.4875
778.39237	4021.4875
782.27321	3655.4875
786.15132	3272.4875
790.02671	3052.9875
793.89938	2963.8875
797.76935	2950.7875
801.6366	2967.1875
805.50115	2952.3875
809.36299	2972.3875
813.22213	2961.2875
817.07857	2962.9875
820.93231	2950.6875
824.78336	2934.1875
828.63172	2923.0875
832.47738	2934.1875
836.32036	2930.6875
840.16066	2944.0875
843.99827	2931.5875
847.8332	2929.4875
851.66546	2917.3875
855.49504	2931.6875
859.32195	2906.0875
863.1462	2862.4875
866.96777	2843.1875
870.78668	2843.8875
874.60293	2839.4875
878.41652	2873.5875
882.22745	2872.6875
886.03573	2898.8875
889.84136	2897.1875
893.64433	2887.1875
897.44466	2881.4875
901.24235	2881.3875
905.0374	2876.0875
908.8298	2872.4875
912.61957	2880.5875
916.40671	2917.9875
920.19121	2946.0875
923.97308	2961.8875
927.75233	2994.8875
931.52895	3031.6875
935.30295	3006.7875
939.07433	2960.5875
942.84309	2890.7875
946.60924	2830.2875
950.37278	2791.3875
954.13371	2766.0875
957.89203	2745.0875
961.64774	2718.8875
965.40086	2700.8875
969.15137	2670.7875
972.89929	2669.6875
976.64461	2641.3875
980.38733	2636.1875
984.12747	2630.2875
987.86502	2631.7875
991.59999	2625.0875
995.33237	2635.6875
999.06217	2658.2875
1002.78939	2694.2875
1006.51404	2698.6875
1010.23611	2721.9875
1013.95561	2764.0875
1017.67255	2756.5875
1021.38692	2738.4875
1025.09872	2729.2875
1028.80796	2736.4875
1032.51465	2784.1875
1036.21877	2886.6875
1039.92035	3049.4875
1043.61937	3107.1875
1047.31584	3034.8875
1051.00976	2950.0875
1054.70114	2858.2875
1058.38998	2787.3875
1062.07627	2758.5875
1065.76003	2722.0875
1069.44126	2716.6875
1073.11995	2726.7875
1076.79611	2770.2875
1080.46974	2809.5875
1084.14085	2844.0875
1087.80943	2858.7875
1091.47549	2835.5875
1095.13903	2770.2875
1098.80005	2666.9875
1102.45857	2616.6875
1106.11456	2582.7875
1109.76805	2611.1875
1113.41903	2664.6875
1117.06751	2741.4875
1120.71348	2842.5875
1124.35696	2952.1875
1127.99793	3046.3875
1131.63641	3022.2875
1135.2724	2887.1875
1138.90589	2754.6875
1142.5369	2676.3875
1146.16542	2611.5875
1149.79145	2587.1875
1153.415	2568.5875
1157.03607	2610.6875
1160.65467	2669.6875
1164.27079	2750.4875
1167.88443	2841.0875
1171.49561	2990.5875
1175.10432	3257.5875
1178.71056	3608.8875
1182.31434	3871.8875
1185.91565	3973.0875
1189.51451	3937.6875
1193.11091	3857.5875
1196.70485	3710.6875
1200.29634	3546.2875
1203.88538	3337.9875
1207.47197	3110.9875
1211.05612	2929.5875
1214.63782	2828.0875
1218.21708	2768.7875
1221.79391	2751.1875
1225.36829	2754.1875
1228.94024	2755.2875
1232.50976	2766.6875
1236.07685	2784.3875
1239.6415	2812.0875
1243.20374	2845.9875
1246.76355	2857.2875
1250.32093	2902.6875
1253.8759	2995.1875
1257.42845	3085.0875
1260.97859	3166.1875
1264.52631	3244.6875
1268.07163	3322.7875
1271.61453	3383.9875
1275.15503	3406.7875
1278.69312	3390.6875
1282.22882	3401.3875
1285.76211	3458.0875
1289.29301	3562.0875
1292.82151	3649.2875
1296.34761	3726.6875
1299.87133	3851.9875
1303.39266	4003.9875
1306.9116	4242.9875
1310.42815	4532.8875
1313.94233	4696.0875
1317.45412	4575.6875
1320.96354	4301.6875
1324.47058	4004.6875
1327.97525	3744.8875
1331.47754	3632.5875
1334.97747	3627.1875
1338.47502	3673.2875
1341.97022	3740.0875
1345.46305	3871.2875
1348.95352	4106.2875
1352.44163	4477.8875
1355.92738	4988.9875
1359.41078	5592.3875
1362.89183	6057.6875
1366.37053	5932.5875
1369.84688	5330.3875
1373.32088	4674.9875
1376.79254	4163.4875
1380.26186	3851.0875
1383.72883	3620.3875
1387.19347	3429.9875
1390.65578	3267.2875
1394.11575	3123.3875
1397.57339	3038.9875
1401.0287	2975.7875
1404.48168	2954.9875
1407.93234	2944.1875
1411.38068	2943.5875
1414.82669	2942.4875
1418.27039	2950.5875
1421.71177	2951.5875
1425.15083	2969.2875
1428.58758	2988.2875
1432.02203	3050.0875
1435.45416	3100.5875
1438.88399	3136.0875
1442.31151	3115.4875
1445.73673	3069.9875
1449.15965	3022.0875
1452.58027	2963.0875
1455.9986	2886.5875
1459.41463	2836.4875
1462.82837	2830.5875
1466.23982	2845.7875
1469.64898	2862.8875
1473.05586	2886.7875
1476.46045	2901.0875
1479.86276	2913.5875
1483.26279	2952.4875
1486.66054	2954.2875
1490.05602	2996.4875
1493.44922	3071.8875
1496.84016	3217.4875
1500.22882	3470.6875
1503.61521	3829.2875
1506.99934	4219.0875
1510.38121	4572.8875
1513.76081	4753.0875
1517.13816	4551.0875
1520.51324	4069.8875
1523.88607	3576.2875
1527.25665	3272.5875
1530.62498	3118.6875
1533.99105	3028.5875
1537.35488	2979.3875
1540.71647	2968.2875
1544.07581	2950.3875
1547.4329	2947.5875
1550.78776	2954.5875
1554.14038	2967.6875
1557.49077	3018.2875
1560.83892	3056.5875
1564.18484	3117.9875
1567.52853	3233.1875
1570.86999	3385.8875
1574.20922	3488.6875
1577.54624	3503.2875
1580.88103	3349.9875
1584.2136	3109.5875
1587.54395	2977.7875
1590.87208	2982.0875
1594.19801	3085.4875
1597.52172	3223.2875
1600.84321	3277.0875
1604.16251	3167.9875
1607.47959	2991.3875
1610.79447	2850.6875
1614.10715	2678.6875
1617.41763	2562.8875
1620.7259	2502.1875
1624.03199	2458.9875
1627.33587	2462.5875
1630.63757	2463.6875
1633.93707	2496.4875
1637.23439	2573.8875
1640.52951	2695.2875
1643.82246	2875.7875
1647.11321	3115.5875
1650.40179	3287.0875
1653.68819	3257.5875
1656.97241	2958.0875
1660.25446	2602.7875
1663.53433	2353.4875
1666.81203	2204.2875
1670.08756	2123.1875
1673.36092	2055.0875
1676.63211	2011.3875
1679.90115	1982.3875
1683.16801	1940.9875
1686.43272	1925.7875
1689.69527	1904.5875
1692.95567	1883.3875
1696.2139	1865.6875
1699.46999	1854.5875
1702.72392	1841.3875
1705.97571	1828.7875
1709.22535	1814.9875
1712.47284	1816.0875
1715.71819	1805.7875
1718.96139	1815.9875
1722.20246	1819.1875
1725.44139	1804.1875
1728.67818	1778.1875
1731.91284	1741.5875
1735.14537	1715.7875
1738.37576	1688.0875
1741.60403	1660.4875
1744.83017	1642.4875
1748.05418	1639.9875
1751.27607	1622.9875
1754.49584	1609.0875
1757.71349	1613.4875
1760.92903	1596.3875
1764.14244	1598.0875
1767.35375	1576.8875
1770.56294	1570.1875
1773.77002	1555.5875
1776.97499	1541.8875
1780.17785	1542.7875
1783.37861	1538.1875
1786.57727	1532.8875
1789.77382	1524.0875
1792.96828	1518.8875
1796.16064	1515.2875
1799.3509	1507.7875
1802.53907	1498.0875
1805.72514	1504.7875
1808.90913	1494.0875
1812.09102	1490.7875
1815.27083	1481.4875
1818.44856	1476.7875
1821.6242	1469.1875
1824.79776	1477.9875
1827.96924	1457.4875
1831.13864	1466.9875
1834.30597	1451.5875
1837.47122	1450.7875
1840.6344	1444.6875
1843.7955	1445.5875
1846.95454	1434.9875
1850.11151	1442.0875
1853.26642	1433.6875
1856.41926	1431.4875
1859.57004	1425.0875
1862.71876	1431.1875
1865.86542	1418.0875
1869.01003	1420.7875
1872.15258	1416.7875
1875.29308	1423.1875
1878.43152	1411.3875
1881.56792	1414.3875
1884.70227	1409.8875
1887.83457	1409.9875
1890.96482	1404.8875
1894.09304	1403.3875
1897.21921	1397.6875
1900.34335	1401.1875
1903.46544	1396.9875
1906.58551	1391.2875
1909.70353	1398.1875
1912.81953	1393.0875
1915.93349	1386.1875
1919.04543	1375.0875
1922.15534	1369.2875
1925.26322	1375.6875
1928.36908	1376.5875
1931.47292	1357.3875
1934.57473	1353.7875
1937.67453	1347.9875
1940.77232	1354.9875
1943.86808	1337.4875
1946.96184	1341.4875
1950.05358	1342.5875
1953.14331	1336.7875
1956.23103	1326.0875
1959.31675	1324.3875
1962.40046	1319.0875
1965.48217	1309.9875
1968.56188	1309.8875
1971.63959	1298.9875
1974.7153	1307.0875
1977.78901	1297.9875
1980.86073	1295.3875
1983.93046	1292.6875
1986.99819	1274.8875
1990.06394	1277.1875
1993.1277	1279.1875
1996.18947	1262.0875
1999.24925	1263.3875
2002.30706	1262.3875
2005.36288	1242.6875
2008.41672	1244.8875
2011.46859	1239.1875
2014.51848	1239.0875
2017.56639	1229.8875
2020.61233	1229.3875
2023.6563	1219.1875
2026.6983	1224.5875
2029.73833	1214.4875
2032.7764	1211.7875
2035.8125	1209.7875
2038.84664	1202.3875
2041.87881	1205.7875
2044.90903	1196.7875
2047.93729	1199.0875
2050.96359	1203.7875
2053.98794	1196.4875
2057.01034	1196.5875
2060.03078	1188.8875
2063.04927	1188.0875
2066.06582	1194.9875
2069.08042	1192.7875
2072.09307	1196.0875
2075.10378	1194.1875
2078.11255	1196.0875
2081.11938	1187.6875
2084.12426	1204.7875
2087.12722	1202.5875
2090.12824	1191.3875
2093.12732	1201.7875
2096.12447	1197.0875
2099.11969	1206.6875
2102.11299	1194.4875
2105.10435	1199.0875
2108.09379	1199.7875
2111.08131	1197.5875
2114.0669	1198.5875
2117.05057	1192.0875
2120.03233	1184.0875
2123.01216	1185.7875
2125.99008	1179.7875
2128.96609	1181.3875
2131.94018	1182.5875
2134.91236	1186.3875
2137.88263	1182.7875
2140.851	1182.9875
2143.81746	1181.5875
2146.78201	1175.6875
2149.74466	1171.0875
2152.7054	1173.5875
2155.66425	1164.5875
2158.6212	1166.7875
2161.57625	1174.6875
2164.52941	1175.9875
2167.48067	1163.4875
2170.43004	1170.4875
2173.37752	1169.1875
2176.32311	1162.6875
2179.26681	1167.7875
2182.20863	1164.2875
2185.14856	1163.9875
2188.08661	1156.6875
2191.02278	1167.1875
2193.95707	1161.7875
2196.88948	1160.9875
2199.82001	1155.4875
2202.74867	1147.3875
2205.67545	1145.7875
2208.60037	1148.6875
2211.52341	1138.7875
2214.44458	1136.6875
2217.36388	1134.4875
2220.28132	1140.5875
2223.1969	1123.1875
2226.11061	1123.0875
2229.02246	1120.1875
2231.93245	1116.4875
2234.84058	1113.5875
2237.74686	1110.8875
2240.65128	1105.3875
2243.55385	1104.7875
2246.45456	1109.2875
2249.35343	1098.8875
2252.25044	1091.1875
2255.14561	1095.4875
2258.03893	1105.7875
2260.93041	1092.0875
2263.82004	1090.2875
2266.70783	1090.4875
2269.59378	1084.9875
2272.4779	1087.3875
2275.36017	1078.1875
2278.24061	1080.8875
2281.11922	1074.9875
2283.996	1065.9875
2286.87094	1065.4875
2289.74405	1067.8875
2292.61534	1062.7875
2295.4848	1054.7875
2298.35243	1057.7875
2301.21824	1049.8875
2304.08223	1052.9875
2306.94439	1051.5875
2309.80474	1055.1875
2312.66327	1051.3875
2315.51999	1039.0875
2318.37489	1045.4875
2321.22797	1040.1875
2324.07925	1045.7875
2326.92871	1047.2875
2329.77637	1043.0875
2332.62222	1040.6875
2335.46626	1037.0875
2338.3085	1029.9875
2341.14893	1029.1875
2343.98756	1029.8875
2346.8244	1025.0875
2349.65943	1026.5875
2352.49267	1022.1875
2355.32411	1028.3875
2358.15376	1028.2875
2360.98161	1026.1875
2363.80768	1029.1875
2366.63195	1029.6875
2369.45444	1032.4875
2372.27514	1029.4875
2375.09405	1025.9875
2377.91118	1027.3875
2380.72652	1019.2875
2383.54009	1017.0875
2386.35187	1015.3875
2389.16188	1015.7875
2391.97011	1010.6875
2394.77657	1008.0875
2397.58125	1000.3875
2400.38416	999.1875
2403.18529	997.1875
2405.98466	988.8875
2408.78226	985.5875
2411.57809	992.1875
2414.37216	986.8875
2417.16446	987.3875
2419.955	980.5875
2422.74378	986.0875
2425.5308	975.5875
2428.31606	981.7875
2431.09956	985.4875
2433.88131	971.3875
2436.6613	978.7875
2439.43954	989.3875
2442.21603	975.1875
2444.99077	984.0875
2447.76377	983.7875
2450.53501	978.9875
2453.30451	981.1875
2456.07226	968.3875
2458.83827	974.2875
2461.60254	974.4875
2464.36507	971.9875
2467.12586	961.4875
2469.88492	970.1875
2472.64224	969.8875
2475.39782	972.7875
2478.15167	968.5875
2480.90379	962.2875
2483.65417	968.7875
2486.40283	969.0875
2489.14976	973.6875
2491.89497	969.5875
2494.63845	978.7875
2497.3802	970.3875
2500.12024	967.2875
2502.85855	967.1875
2505.59514	969.2875
2508.33002	961.6875
2511.06318	962.5875
2513.79462	957.4875
2516.52435	962.4875
2519.25237	957.1875
2521.97867	950.5875
2524.70327	941.6875
2527.42616	952.5875
2530.14734	948.9875
2532.86681	950.4875
2535.58458	944.4875
2538.30065	952.1875
2541.01501	945.3875
2543.72768	944.0875
2546.43864	947.1875
2549.14791	950.5875
2551.85548	939.5875
2554.56136	948.2875
2557.26554	944.3875
2559.96803	948.6875
2562.66883	947.5875
2565.36794	951.6875
2568.06536	948.8875
2570.7611	948.8875
2573.45514	948.4875
2576.14751	945.3875
2578.83819	949.3875
2581.52719	947.8875
2584.21451	953.6875
2586.90015	946.6875
2589.58411	935.7875
2592.2664	945.1875
2594.94701	947.8875
2597.62594	938.9875
2600.30321	942.1875
2602.9788	936.6875
2605.65273	940.9875
2608.32498	949.2875
2610.99557	942.1875
2613.66449	936.1875
2616.33175	941.0875
2618.99734	935.7875
2621.66128	945.4875
2624.32355	949.1875
2626.98416	946.5875
2629.64311	943.8875
2632.30041	945.8875
2634.95605	943.3875
2637.61004	946.4875
2640.26238	946.4875
2642.91306	941.8875
2645.56209	944.2875
2648.20948	948.7875
2650.85521	950.6875
2653.4993	960.7875
2656.14175	955.5875
2658.78255	972.5875
2661.42171	969.0875
2664.05923	974.9875
2666.6951	975.4875
2669.32934	992.8875
2671.96194	996.8875
2674.59291	1005.5875
2677.22224	1003.5875
2679.84993	1009.3875
2682.476	1015.9875
2685.10043	1021.9875
2687.72324	1027.0875
2690.34441	1031.1875
2692.96396	1042.2875
2695.58188	1050.3875
2698.19818	1060.8875
2700.81285	1070.1875
2703.4259	1079.3875
2706.03733	1097.9875
2708.64714	1108.2875
2711.25533	1122.6875
2713.86191	1125.6875
2716.46687	1144.1875
2719.07021	1154.7875
2721.67194	1158.4875
2724.27206	1156.7875
2726.87057	1166.4875
2729.46747	1162.4875
2732.06276	1165.5875
2734.65644	1162.1875
2737.24852	1167.3875
2739.83899	1180.1875
2742.42786	1188.5875
2745.01513	1189.8875
2747.60079	1200.3875
2750.18486	1220.1875
2752.76733	1218.8875
2755.3482	1243.4875
2757.92747	1256.8875
2760.50515	1262.8875
2763.08123	1280.8875
2765.65573	1293.0875
2768.22863	1315.8875
2770.79994	1336.7875
2773.36967	1350.0875
2775.9378	1392.7875
2778.50435	1410.7875
2781.06932	1440.8875
2783.6327	1472.8875
2786.1945	1512.9875
2788.75471	1537.0875
2791.31335	1577.2875
2793.87041	1619.0875
2796.42589	1645.1875
2798.97979	1692.7875
2801.53212	1738.1875
2804.08288	1784.6875
2806.63206	1826.5875
2809.17967	1879.7875
2811.72571	1918.5875
2814.27018	1957.4875
2816.81308	1990.0875
2819.35442	1999.0875
2821.89419	2017.8875
2824.43239	2014.2875
2826.96904	2005.5875
2829.50412	1994.0875
2832.03763	1991.2875
2834.56959	1985.9875
2837.1	1996.6875
2839.62884	2022.1875
2842.15613	2072.9875
2844.68186	2146.3875
2847.20604	2236.8875
2849.72867	2298.9875
2852.24974	2329.4875
2854.76927	2330.0875
2857.28724	2303.3875
2859.80367	2273.3875
2862.31855	2240.1875
2864.83189	2196.2875
2867.34368	2165.8875
2869.85393	2144.7875
2872.36264	2118.4875
2874.8698	2099.3875
2877.37543	2070.9875
2879.87952	2069.1875
2882.38207	2048.5875
2884.88308	2034.3875
2887.38256	2029.0875
2889.88051	2007.2875
2892.37692	1998.2875
2894.8718	1998.1875
2897.36515	1984.3875
2899.85698	1977.7875
2902.34727	1975.8875
2904.83604	1961.0875
2907.32328	1966.0875
2909.809	1958.9875
2912.29319	1926.3875
2914.77587	1915.6875
2917.25702	1921.3875
2919.73665	1906.4875
2922.21476	1897.0875
2924.69136	1878.6875
2927.16644	1855.7875
2929.64	1840.1875
2932.11205	1817.4875
2934.58258	1781.5875
2937.05161	1741.7875
2939.51912	1698.4875
2941.98513	1625.4875
2944.44962	1567.9875
2946.91261	1495.0875
2949.37409	1432.9875
2951.83407	1374.9875
2954.29254	1338.9875
2956.74951	1295.4875
2959.20498	1257.3875
2961.65895	1238.9875
2964.11142	1206.1875
2966.56239	1187.1875
2969.01186	1161.7875
2971.45984	1145.8875
2973.90632	1124.5875
2976.35131	1105.4875
2978.7948	1095.0875
2981.23681	1079.8875
2983.67732	1061.3875
2986.11635	1048.6875
2988.55388	1030.1875
2990.98993	1018.0875
2993.4245	1003.5875
2995.85758	989.0875
2998.28917	981.8875
3000.71928	973.0875
3003.14791	966.6875
3005.57506	957.8875
3008.00073	951.9875
3010.42493	951.2875
3012.84764	941.5875
3015.26888	943.9875
3017.68865	944.9875
3020.10694	941.5875
3022.52376	947.5875
3024.9391	926.1875
3027.35298	935.2875
3029.76539	933.0875
3032.17632	936.7875
3034.5858	932.3875
3036.9938	932.3875
3039.40034	931.5875
3041.80542	929.2875
3044.20903	933.6875
3046.61118	935.6875
3049.01187	935.3875
3051.4111	931.5875
3053.80888	930.6875
3056.20519	941.2875
3058.60005	935.3875
3060.99345	952.0875
3063.3854	957.3875
3065.7759	951.3875
3068.16494	957.8875
3070.55254	955.2875
3072.93868	956.4875
3075.32338	956.3875
3077.70662	958.6875
3080.08842	943.1875
3082.46878	944.9875
3084.84769	945.1875
3087.22515	941.5875
3089.60118	940.5875
3091.97576	949.9875
3094.3489	943.6875
3096.72061	949.9875
3099.09087	942.7875
3101.4597	951.0875
3103.82709	958.2875
3106.19305	954.2875
3108.55757	967.1875
3110.92066	960.7875
3113.28232	961.1875
3115.64255	969.1875
3118.00134	974.7875
3120.35871	974.2875
3122.71466	984.3875
3125.06917	982.1875
3127.42226	987.2875
3129.77393	1001.9875
3132.12417	1002.2875
3134.47299	1016.9875
3136.82039	1015.2875
3139.16636	1026.5875
3141.51092	1033.3875
3143.85406	1042.7875
