Data from AgNPs_FTO_APTES_UA_2uM_CRN_500uM_R6G_10uM_NaF_0.1M_Addition_RamanShift__9__17-09-05-406.txt Node

Date: Wed Feb 02 17:09:05 GMT 2022
User: TCL
Spectrometer: QEP01345
Trigger mode: 4
Integration Time (sec): 7.000000E0
Scans to average: 10
Electric dark correction enabled: true
Nonlinearity correction enabled: false
Boxcar width: 0
XAxis mode: Raman Shifts
Number of Pixels in Spectrum: 1044
>>>>>Begin Spectral Data<<<<<
46.04893	0.1
50.45542	0.9
54.85868	-0.8
59.25871	-0.2
63.6555	63.3
68.04907	64.7
72.43941	67.2
76.82654	73.3
81.21044	75.1
85.59113	80.3
89.96862	82.8
94.34289	84.8
98.71396	89.8
103.08183	96.1
107.4465	96.1
111.80798	100.2
116.16626	99.2
120.52136	101.4
124.87327	105.6
129.222	110.5
133.56755	117.4
137.90993	120.9
142.24913	137.9
146.58517	154.3
150.91804	180.1
155.24774	213.5
159.57429	264.8
163.89768	335.9
168.21792	440.8
172.53501	607.1
176.84895	840.7
181.15975	1185.2
185.46741	1656.6
189.77193	2257.7
194.07331	3037.4
198.37157	3895.5
202.6667	4809.5
206.9587	5703.3
211.24758	6593.9
215.53334	7505.7
219.81599	8440.6
224.09553	9451.7
228.37195	10598.7
232.64527	11800
236.91549	13041
241.18261	14328.4
245.44663	15544.6
249.70755	16651
253.96539	17646.1
258.22014	18449.7
262.4718	19080.4
266.72039	19572.3
270.96589	19826.3
275.20832	19928.4
279.44768	19889.2
283.68397	19818.1
287.91719	19745.6
292.14735	19728.4
296.37445	19823.8
300.59849	19958.5
304.81948	20054
309.03742	19958.3
313.25231	19679.1
317.46415	19197.6
321.67296	18631.4
325.87872	18144.6
330.08145	17852.6
334.28114	17703.6
338.47781	17715.4
342.67145	17858.6
346.86207	18045.7
351.04966	18299.8
355.23424	18531.2
359.4158	18756
363.59435	18935.8
367.76989	19036.3
371.94243	19121.9
376.11196	19134.5
380.27849	19136.3
384.44203	19233.3
388.60257	19450.9
392.76012	19729.5
396.91468	20034.6
401.06626	20373.8
405.21485	20543.2
409.36047	20443.7
413.50311	20264.5
417.64277	20157.1
421.77947	20246.1
425.9132	20366.3
430.04396	20558
434.17176	20658.4
438.2966	20785.7
442.41849	21055.8
446.53742	21610.9
450.6534	22260.7
454.76644	22737.4
458.87653	22946.1
462.98368	22919.3
467.08789	22793.5
471.18916	22636.6
475.2875	22568
479.38291	22730.1
483.4754	22732
487.56496	22399
491.6516	21735.6
495.73531	21027.5
499.81612	20531.2
503.89401	20445.3
507.96899	20488.1
512.04106	20444.9
516.11023	20228.4
520.1765	19910.5
524.23987	19569.8
528.30034	19285.2
532.35792	19064.4
536.41261	18838.4
540.46441	18683.3
544.51333	18801.4
548.55936	19154.1
552.60252	19712.5
556.64279	20390.3
560.6802	20930.5
564.71473	21385.1
568.7464	22007.7
572.7752	23055.1
576.80114	24135.9
580.82422	25041.6
584.84444	25804.4
588.86181	26821.8
592.87633	27524.4
596.888	26889.1
600.89682	25201.1
604.9028	24216.9
608.90594	24648.8
612.90624	25216.7
616.90371	23446.1
620.89834	20281.8
624.89015	18889
628.87913	18780.7
632.86528	18983.5
636.84862	18974.3
640.82913	18664.8
644.80683	18237.5
648.78172	17906.4
652.75379	17879.2
656.72306	17953
660.68952	18101
664.65319	17971.6
668.61405	17722.6
672.57211	17707.4
676.52738	17785.5
680.47986	17823.4
684.42955	17773
688.37646	17698.5
692.32058	17778.2
696.26192	17985.3
700.20048	18214
704.13626	18410.3
708.06928	18575
711.99952	18574.6
715.927	18570.7
719.85171	18526.6
723.77365	18384.6
727.69284	18079.3
731.60928	17814.1
735.52295	17689.7
739.43388	17642.9
743.34206	17647.3
747.24749	17768.5
751.15017	18062.3
755.05012	18485.1
758.94733	19144.9
762.8418	20121.6
766.73354	21439.2
770.62254	22431.1
774.50882	22305.3
778.39237	21153.9
782.27321	19702.3
786.15132	18586.3
790.02671	17912.7
793.89938	17548.7
797.76935	17422.5
801.6366	17383.7
805.50115	17334.7
809.36299	17247.9
813.22213	17169.1
817.07857	17166.9
820.93231	17131.8
824.78336	16960.2
828.63172	16762.3
832.47738	16619.4
836.32036	16541.5
840.16066	16549.5
843.99827	16518.4
847.8332	16515.6
851.66546	16509.2
855.49504	16511.5
859.32195	16458.3
863.1462	16412
866.96777	16366
870.78668	16327.9
874.60293	16323.7
878.41652	16311.4
882.22745	16342.5
886.03573	16386.6
889.84136	16411.2
893.64433	16348.4
897.44466	16271
901.24235	16245.3
905.0374	16213
908.8298	16185.2
912.61957	16287.2
916.40671	16564
920.19121	16883.7
923.97308	17091.9
927.75233	16900.9
931.52895	16595.6
935.30295	16204.9
939.07433	15839.2
942.84309	15549.6
946.60924	15388.7
950.37278	15355.9
954.13371	15384.2
957.89203	15423
961.64774	15475.1
965.40086	15447.8
969.15137	15321.9
972.89929	15175.5
976.64461	14985.7
980.38733	14920.2
984.12747	14886
987.86502	14935.9
991.59999	14979.9
995.33237	15083.2
999.06217	15269.9
1002.78939	15516.5
1006.51404	15782.5
1010.23611	16083.2
1013.95561	16310
1017.67255	16413.1
1021.38692	16265.9
1025.09872	15995.2
1028.80796	15723.4
1032.51465	15606.3
1036.21877	15642.8
1039.92035	15737.4
1043.61937	15872
1047.31584	15936.6
1051.00976	16014.9
1054.70114	16198.2
1058.38998	16341
1062.07627	16650.4
1065.76003	16925.2
1069.44126	17178
1073.11995	17445.3
1076.79611	17636.3
1080.46974	17681.5
1084.14085	17717.6
1087.80943	17867.9
1091.47549	18075.5
1095.13903	18311.6
1098.80005	18117
1102.45857	17615.8
1106.11456	17079.5
1109.76805	16804.3
1113.41903	16727.9
1117.06751	16844.5
1120.71348	17069.4
1124.35696	17332.7
1127.99793	17616.2
1131.63641	17844
1135.2724	17829.6
1138.90589	17812.7
1142.5369	18045.3
1146.16542	18398.9
1149.79145	18813.5
1153.415	19226
1157.03607	19711.9
1160.65467	20587.7
1164.27079	21843.9
1167.88443	23277.1
1171.49561	24646.8
1175.10432	26264.3
1178.71056	28141.2
1182.31434	29854
1185.91565	30654.2
1189.51451	30484
1193.11091	29787.8
1196.70485	28964.1
1200.29634	28014.5
1203.88538	27506.4
1207.47197	27533.3
1211.05612	27635.2
1214.63782	27135.3
1218.21708	26010.9
1221.79391	24650.1
1225.36829	23609
1228.94024	22966.7
1232.50976	22550.2
1236.07685	22204.7
1239.6415	22016.2
1243.20374	22035.6
1246.76355	22234.8
1250.32093	22604.8
1253.8759	23166.3
1257.42845	23825.7
1260.97859	24549.3
1264.52631	25335.2
1268.07163	26049.1
1271.61453	26861
1275.15503	27747.6
1278.69312	28907
1282.22882	30198.2
1285.76211	31813.4
1289.29301	33782.6
1292.82151	36128.5
1296.34761	38915.6
1299.87133	41756.3
1303.39266	44225
1306.9116	45921.4
1310.42815	46837
1313.94233	47146.4
1317.45412	46961.5
1320.96354	46585.5
1324.47058	46495.3
1327.97525	46589
1331.47754	46625.8
1334.97747	46314.3
1338.47502	45631.4
1341.97022	44603.2
1345.46305	43381.7
1348.95352	42244.4
1352.44163	41467.5
1355.92738	41498.7
1359.41078	42345.3
1362.89183	42833.3
1366.37053	41998
1369.84688	39136.7
1373.32088	35391.7
1376.79254	32850.5
1380.26186	32358.5
1383.72883	33031.3
1387.19347	33616.9
1390.65578	33782.3
1394.11575	34007.6
1397.57339	34580.3
1401.0287	35300.9
1404.48168	35630.8
1407.93234	35117.1
1411.38068	33696.9
1414.82669	31774.2
1418.27039	29631.4
1421.71177	27708
1425.15083	26279.2
1428.58758	25599.8
1432.02203	25847.5
1435.45416	26749.5
1438.88399	27979.5
1442.31151	28952.1
1445.73673	29652.6
1449.15965	30226
1452.58027	30607.5
1455.9986	30806.9
1459.41463	31010
1462.82837	31305.3
1466.23982	31694.6
1469.64898	32006.1
1473.05586	32090
1476.46045	31892.7
1479.86276	31439.4
1483.26279	30825.4
1486.66054	30403.9
1490.05602	30352.2
1493.44922	30505.9
1496.84016	30815.8
1500.22882	31263.8
1503.61521	31955.1
1506.99934	32700.2
1510.38121	33325.8
1513.76081	33612.8
1517.13816	33546.2
1520.51324	33378.5
1523.88607	33526.4
1527.25665	33960.4
1530.62498	34330.8
1533.99105	34311.1
1537.35488	33742.5
1540.71647	32586.5
1544.07581	31190.7
1547.4329	29774
1550.78776	28598
1554.14038	27767.6
1557.49077	27340.3
1560.83892	27057.8
1564.18484	27025.6
1567.52853	27117.2
1570.86999	27657.1
1574.20922	28546.4
1577.54624	29665.9
1580.88103	30537.8
1584.2136	31484.4
1587.54395	32729
1590.87208	34431.2
1594.19801	36238.2
1597.52172	37620.7
1600.84321	37535.5
1604.16251	35223.4
1607.47959	31730.2
1610.79447	28289.6
1614.10715	25339.7
1617.41763	23100.2
1620.7259	21624.2
1624.03199	20949.9
1627.33587	21096.1
1630.63757	21971.8
1633.93707	23921.4
1637.23439	26984.9
1640.52951	31546.2
1643.82246	36793.4
1647.11321	40979.7
1650.40179	41518.6
1653.68819	37950.5
1656.97241	32027.6
1660.25446	26378.3
1663.53433	22057.7
1666.81203	19177.5
1670.08756	17367
1673.36092	16209.2
1676.63211	15508.4
1679.90115	14985.5
1683.16801	14610.2
1686.43272	14367.6
1689.69527	14176
1692.95567	13983.4
1696.2139	13882.9
1699.46999	13819.1
1702.72392	13691.7
1705.97571	13645
1709.22535	13534.3
1712.47284	13492
1715.71819	13422.2
1718.96139	13344.7
1722.20246	13270.5
1725.44139	13154.6
1728.67818	13066.6
1731.91284	12988.9
1735.14537	12921.4
1738.37576	12849.1
1741.60403	12742.9
1744.83017	12705.2
1748.05418	12668.9
1751.27607	12662.8
1754.49584	12669.8
1757.71349	12645.9
1760.92903	12638
1764.14244	12599.6
1767.35375	12552.9
1770.56294	12550.1
1773.77002	12480.8
1776.97499	12428.6
1780.17785	12370.7
1783.37861	12338.3
1786.57727	12299
1789.77382	12245.9
1792.96828	12205.9
1796.16064	12162.3
1799.3509	12124.1
1802.53907	12092.8
1805.72514	12072.5
1808.90913	12010
1812.09102	11991.9
1815.27083	11944.9
1818.44856	11919.4
1821.6242	11900.4
1824.79776	11871.1
1827.96924	11849.6
1831.13864	11851.8
1834.30597	11881.4
1837.47122	11885.2
1840.6344	11854.3
1843.7955	11804.7
1846.95454	11802.1
1850.11151	11815.1
1853.26642	11789.1
1856.41926	11789.4
1859.57004	11784.6
1862.71876	11747.6
1865.86542	11722.4
1869.01003	11692.2
1872.15258	11682.5
1875.29308	11671.1
1878.43152	11611.1
1881.56792	11636.2
1884.70227	11578.9
1887.83457	11568.3
1890.96482	11563.4
1894.09304	11519.7
1897.21921	11514.1
1900.34335	11489.9
1903.46544	11487.6
1906.58551	11443.1
1909.70353	11447.2
1912.81953	11411.8
1915.93349	11369.6
1919.04543	11325
1922.15534	11297.1
1925.26322	11285.8
1928.36908	11257.8
1931.47292	11199.7
1934.57473	11167.8
1937.67453	11131.2
1940.77232	11108.8
1943.86808	11031.1
1946.96184	11014.2
1950.05358	11002.1
1953.14331	10963.5
1956.23103	10927.1
1959.31675	10879.8
1962.40046	10871
1965.48217	10815.2
1968.56188	10767.7
1971.63959	10725.8
1974.7153	10698.8
1977.78901	10683.5
1980.86073	10638.4
1983.93046	10610.8
1986.99819	10549.6
1990.06394	10518.2
1993.1277	10495.6
1996.18947	10448.3
1999.24925	10409.1
2002.30706	10386.9
2005.36288	10352
2008.41672	10288.3
2011.46859	10251.1
2014.51848	10224.1
2017.56639	10187.1
2020.61233	10201.1
2023.6563	10166.7
2026.6983	10129.2
2029.73833	10133.8
2032.7764	10104.7
2035.8125	10066
2038.84664	10034.3
2041.87881	10023.6
2044.90903	9990.2
2047.93729	9969.2
2050.96359	9961.2
2053.98794	9947.8
2057.01034	9939.2
2060.03078	9899.2
2063.04927	9923.9
2066.06582	9893
2069.08042	9879.7
2072.09307	9861
2075.10378	9861.1
2078.11255	9836
2081.11938	9836.8
2084.12426	9834.3
2087.12722	9829
2090.12824	9805.9
2093.12732	9823.3
2096.12447	9807.3
2099.11969	9804.8
2102.11299	9815.4
2105.10435	9808.1
2108.09379	9809.1
2111.08131	9817.4
2114.0669	9815
2117.05057	9814.1
2120.03233	9798.8
2123.01216	9770.2
2125.99008	9822
2128.96609	9791.7
2131.94018	9764.3
2134.91236	9790.8
2137.88263	9779.3
2140.851	9775.8
2143.81746	9795.4
2146.78201	9765.8
2149.74466	9745.5
2152.7054	9729.3
2155.66425	9731.7
2158.6212	9745.7
2161.57625	9716.1
2164.52941	9707.3
2167.48067	9690.1
2170.43004	9691.6
2173.37752	9683.3
2176.32311	9690.2
2179.26681	9711.3
2182.20863	9688.9
2185.14856	9690.6
2188.08661	9656.2
2191.02278	9677.7
2193.95707	9635.5
2196.88948	9642.5
2199.82001	9603.1
2202.74867	9579.8
2205.67545	9581.4
2208.60037	9542.3
2211.52341	9530.8
2214.44458	9522.6
2217.36388	9491
2220.28132	9504.5
2223.1969	9487.9
2226.11061	9466.4
2229.02246	9423.1
2231.93245	9430.8
2234.84058	9420
2237.74686	9401.4
2240.65128	9377.8
2243.55385	9372.8
2246.45456	9356.6
2249.35343	9300.3
2252.25044	9257.8
2255.14561	9223.1
2258.03893	9205.9
2260.93041	9178.9
2263.82004	9155.3
2266.70783	9138.8
2269.59378	9112.9
2272.4779	9089.4
2275.36017	9041.3
2278.24061	9025.9
2281.11922	9033.4
2283.996	8984.3
2286.87094	8990.9
2289.74405	8951
2292.61534	8950.5
2295.4848	8939.2
2298.35243	8921.2
2301.21824	8907.4
2304.08223	8887.5
2306.94439	8894
2309.80474	8867.6
2312.66327	8873.9
2315.51999	8865
2318.37489	8833.1
2321.22797	8821.6
2324.07925	8810.1
2326.92871	8810.7
2329.77637	8790.1
2332.62222	8798.7
2335.46626	8766.9
2338.3085	8745.5
2341.14893	8759.6
2343.98756	8735.5
2346.8244	8737.5
2349.65943	8720.4
2352.49267	8718.2
2355.32411	8746.7
2358.15376	8744.2
2360.98161	8722.8
2363.80768	8711.8
2366.63195	8696
2369.45444	8698.1
2372.27514	8677.8
2375.09405	8671.8
2377.91118	8633.8
2380.72652	8622.4
2383.54009	8597.8
2386.35187	8599.1
2389.16188	8560.2
2391.97011	8545
2394.77657	8511.2
2397.58125	8513.3
2400.38416	8495
2403.18529	8474.8
2405.98466	8481.5
2408.78226	8450.2
2411.57809	8451.1
2414.37216	8438.5
2417.16446	8440.4
2419.955	8415.8
2422.74378	8411.7
2425.5308	8395.5
2428.31606	8381.1
2431.09956	8389.3
2433.88131	8376
2436.6613	8364.5
2439.43954	8345.3
2442.21603	8344.8
2444.99077	8336.9
2447.76377	8357.1
2450.53501	8341.1
2453.30451	8329
2456.07226	8351.3
2458.83827	8331.6
2461.60254	8323
2464.36507	8304.7
2467.12586	8309.1
2469.88492	8312.2
2472.64224	8308.1
2475.39782	8298.1
2478.15167	8312
2480.90379	8280.3
2483.65417	8283.2
2486.40283	8290.2
2489.14976	8296
2491.89497	8262.1
2494.63845	8284.8
2497.3802	8274.9
2500.12024	8272.4
2502.85855	8275.9
2505.59514	8283.1
2508.33002	8251.7
2511.06318	8243.1
2513.79462	8232.4
2516.52435	8229.2
2519.25237	8234.8
2521.97867	8206.3
2524.70327	8196.7
2527.42616	8194.5
2530.14734	8177.7
2532.86681	8160
2535.58458	8183.5
2538.30065	8170
2541.01501	8152
2543.72768	8143.6
2546.43864	8132.5
2549.14791	8110.9
2551.85548	8107.3
2554.56136	8105.6
2557.26554	8104.5
2559.96803	8073.7
2562.66883	8084.7
2565.36794	8074.6
2568.06536	8090.5
2570.7611	8078.5
2573.45514	8050.6
2576.14751	8058.6
2578.83819	8030.1
2581.52719	8048.9
2584.21451	8019
2586.90015	8020.6
2589.58411	8009.1
2592.2664	8011.2
2594.94701	7992.3
2597.62594	8004.9
2600.30321	8002.5
2602.9788	8024.9
2605.65273	7990.3
2608.32498	8005.2
2610.99557	7995.7
2613.66449	7998.1
2616.33175	7993
2618.99734	7992.6
2621.66128	7991.7
2624.32355	7985.7
2626.98416	7986.8
2629.64311	7966
2632.30041	7971.2
2634.95605	7959.7
2637.61004	7950.4
2640.26238	7934.9
2642.91306	7942.8
2645.56209	7934.8
2648.20948	7951.3
2650.85521	7945.9
2653.4993	7959.7
2656.14175	7934.1
2658.78255	7940.6
2661.42171	7964.7
2664.05923	7955.6
2666.6951	7947
2669.32934	7943.3
2671.96194	7971.5
2674.59291	7953.1
2677.22224	7957.7
2679.84993	7964.7
2682.476	7959.6
2685.10043	7959.4
2687.72324	7947.7
2690.34441	7972.9
2692.96396	7933.8
2695.58188	7969.7
2698.19818	7968.9
2700.81285	7950.9
2703.4259	7957.6
2706.03733	7989
2708.64714	7970.9
2711.25533	7976.1
2713.86191	7962.5
2716.46687	7967.1
2719.07021	7965.9
2721.67194	7958.6
2724.27206	7982.5
2726.87057	7982.1
2729.46747	8005.7
2732.06276	7991.1
2734.65644	7991.2
2737.24852	8000
2739.83899	7990.1
2742.42786	7999.8
2745.01513	7976.1
2747.60079	7960.3
2750.18486	7946.7
2752.76733	7960.7
2755.3482	7956
2757.92747	7973.7
2760.50515	7954.1
2763.08123	7977.1
2765.65573	7950.9
2768.22863	7956
2770.79994	7948.8
2773.36967	7917.9
2775.9378	7945.6
2778.50435	7926.3
2781.06932	7933.9
2783.6327	7955.9
2786.1945	7942.1
2788.75471	7940.9
2791.31335	7895.3
2793.87041	7908.1
2796.42589	7867.6
2798.97979	7871.2
2801.53212	7881.2
2804.08288	7873.7
2806.63206	7850.3
2809.17967	7838.2
2811.72571	7813
2814.27018	7814.5
2816.81308	7804.9
2819.35442	7759
2821.89419	7760.8
2824.43239	7756.9
2826.96904	7749.7
2829.50412	7742.7
2832.03763	7733.6
2834.56959	7727.6
2837.1	7758.3
2839.62884	7784.4
2842.15613	7780
2844.68186	7811.3
2847.20604	7837.7
2849.72867	7868.4
2852.24974	7877.3
2854.76927	7847.6
2857.28724	7843.4
2859.80367	7811.6
2862.31855	7805.1
2864.83189	7780.8
2867.34368	7756.8
2869.85393	7781.6
2872.36264	7757.6
2874.8698	7763.3
2877.37543	7743.6
2879.87952	7739.9
2882.38207	7735.7
2884.88308	7722.2
2887.38256	7720.8
2889.88051	7704.6
2892.37692	7737.2
2894.8718	7745.4
2897.36515	7743.9
2899.85698	7768.9
2902.34727	7775.7
2904.83604	7761.8
2907.32328	7777.9
2909.809	7760
2912.29319	7786.2
2914.77587	7773.5
2917.25702	7769.8
2919.73665	7752.1
2922.21476	7758.9
2924.69136	7769.1
2927.16644	7768
2929.64	7765.8
2932.11205	7749
2934.58258	7748.5
2937.05161	7744.5
2939.51912	7731.4
2941.98513	7705.4
2944.44962	7696.2
2946.91261	7633.8
2949.37409	7632.5
2951.83407	7597.9
2954.29254	7619.3
2956.74951	7566.7
2959.20498	7574
2961.65895	7531
2964.11142	7538.9
2966.56239	7515.9
2969.01186	7484.6
2971.45984	7447.7
2973.90632	7438
2976.35131	7414.2
2978.7948	7376.1
2981.23681	7363.9
2983.67732	7341.2
2986.11635	7317.6
2988.55388	7295.3
2990.98993	7246.7
2993.4245	7225.3
2995.85758	7243.1
2998.28917	7201.4
3000.71928	7191.7
3003.14791	7159.4
3005.57506	7159.8
3008.00073	7141.3
3010.42493	7134.4
3012.84764	7094.7
3015.26888	7095.6
3017.68865	7076
3020.10694	7065.2
3022.52376	7027
3024.9391	7025.2
3027.35298	7024.6
3029.76539	6992.3
3032.17632	7000.3
3034.5858	6958.8
3036.9938	6982.4
3039.40034	6970.4
3041.80542	6943.3
3044.20903	6942.4
3046.61118	6926.4
3049.01187	6925.5
3051.4111	6914.2
3053.80888	6891.2
3056.20519	6877.6
3058.60005	6871.3
3060.99345	6833.8
3063.3854	6825.1
3065.7759	6792.4
3068.16494	6788.6
3070.55254	6757.7
3072.93868	6737.5
3075.32338	6711.4
3077.70662	6676.5
3080.08842	6678.9
3082.46878	6670.5
3084.84769	6646.8
3087.22515	6640.4
3089.60118	6630.2
3091.97576	6619.1
3094.3489	6604.6
3096.72061	6614.7
3099.09087	6606.5
3101.4597	6577.5
3103.82709	6566.7
3106.19305	6562.3
3108.55757	6565.9
3110.92066	6528
3113.28232	6519
3115.64255	6515.9
3118.00134	6518
3120.35871	6479.2
3122.71466	6461.8
3125.06917	6444.8
3127.42226	6444.6
3129.77393	6431.9
3132.12417	6418.9
3134.47299	6420.2
3136.82039	6417.4
3139.16636	6433
3141.51092	6419.8
3143.85406	6423.2
3146.19579	6424
3148.53609	6421.5
3150.87499	6414.8
3153.21246	6415.9
3155.54853	6407
3157.88318	6389.6
3160.21642	6398.7
3162.54826	6404.7
3164.87868	6394
3167.2077	6375.5
3169.5353	6372.3
3171.86151	6379.5
3174.18631	6390.3
3176.5097	6371.3
3178.83169	6363.2
3181.15228	6362
3183.47147	6342.9
3185.78926	6349.5
3188.10565	6344.4
3190.42065	6332
3192.73424	6344.5
3195.04645	6315.4
3197.35725	6333.6
3199.66667	6321.6
3201.97469	6325.2
3204.28132	6307.3
3206.58656	6323.4
3208.8904	6310.7
3211.19287	6322.1
3213.49394	6298.9
3215.79363	6303.1
3218.09193	6296.4
3220.38884	6277.6
3222.68438	6297.6
3224.97853	6291.4
3227.2713	6278.2
3229.56269	6276.9
3231.8527	6260.7
3234.14133	6248.9
3236.42858	6249.5
3238.71446	6253.4
3240.99896	6234.8
3243.28209	6219.9
3245.56384	6217
3247.84423	6230.1
3250.12324	6200.4
3252.40088	6183.1
3254.67715	6165
3256.95205	6134.3
3259.22558	6150.3
3261.49775	6107.2
3263.76855	6109.4
3266.03799	6094.6
3268.30606	6062.5
3270.57277	6055.6
3272.83812	6050.2
3275.10211	6036.7
3277.36474	6029.9
3279.62601	6028.7
3281.88593	6013.9
3284.14448	6025.6
3286.40168	6007
3288.65753	6028.6
3290.91202	6011.2
3293.16516	5976
3295.41695	5972.3
3297.66738	5925.5
3299.91647	5908.1
3302.16421	5862.5
3304.4106	5868.9
3306.65564	5806.8
3308.89933	5744
3311.14169	5714.6
3313.38269	5671.1
3315.62236	5630.4
3317.86068	5574.9
3320.09766	5499.1
3322.3333	5472.8
3324.5676	5451.8
3326.80056	5362.4
3329.03219	5336.9
3331.26248	1.8
3333.49143	-0.5
3335.71905	-0.8
