Data from AgNPs_FTO_APTES_UA_2uM_CRN_2uM_R6G_10uM_NaF_0.1M_Addition_RamanShift__17__12-18-35-067.txt Node

Date: Wed Feb 02 12:18:35 GMT 2022
User: TCL
Spectrometer: QEP01345
Trigger mode: 4
Integration Time (sec): 7.000000E0
Scans to average: 10
Electric dark correction enabled: true
Nonlinearity correction enabled: false
Boxcar width: 0
XAxis mode: Raman Shifts
Number of Pixels in Spectrum: 1044
>>>>>Begin Spectral Data<<<<<
46.04893	0.975
50.45542	1.075
54.85868	-1.725
59.25871	-1.425
63.6555	95.575
68.04907	99.375
72.43941	99.475
76.82654	109.075
81.21044	111.375
85.59113	116.675
89.96862	112.575
94.34289	122.975
98.71396	126.375
103.08183	135.875
107.4465	135.375
111.80798	139.375
116.16626	143.575
120.52136	154.175
124.87327	165.675
129.222	166.975
133.56755	186.975
137.90993	203.875
142.24913	229.575
146.58517	262.175
150.91804	307.075
155.24774	375.775
159.57429	475.775
163.89768	619.375
168.21792	829.775
172.53501	1140.675
176.84895	1588.875
181.15975	2264.575
185.46741	3159.775
189.77193	4357.775
194.07331	5854.075
198.37157	7509.375
202.6667	9267.875
206.9587	10986.575
211.24758	12719.675
215.53334	14460.075
219.81599	16376.275
224.09553	18459.075
228.37195	20809.975
232.64527	23329.375
236.91549	26015.075
241.18261	28554.675
245.44663	30881.375
249.70755	32869.075
253.96539	34663.775
258.22014	36113.575
262.4718	37428.075
266.72039	38396.775
270.96589	38884.175
275.20832	38876.475
279.44768	38693.175
283.68397	38374.175
287.91719	38173.775
292.14735	38143.175
296.37445	38266.175
300.59849	38571.675
304.81948	38865.875
309.03742	38965.475
313.25231	38520.975
317.46415	37466.975
321.67296	36034.675
325.87872	34750.775
330.08145	34040.175
334.28114	33802.375
338.47781	33997.575
342.67145	34387.375
346.86207	35053.075
351.04966	35876.275
355.23424	36747.675
359.4158	37457.075
363.59435	37954.375
367.76989	38223.075
371.94243	38419.475
376.11196	38468.975
380.27849	38544.575
384.44203	38679.175
388.60257	38986.675
392.76012	39375.975
396.91468	39919.975
401.06626	40666.575
405.21485	41146.775
409.36047	40830.875
413.50311	39951.175
417.64277	39306.375
421.77947	39101.675
425.9132	39175.675
430.04396	39398.075
434.17176	39529.875
438.2966	39747.975
442.41849	40352.075
446.53742	41584.175
450.6534	42901.675
454.76644	43874.475
458.87653	44297.175
462.98368	44082.475
467.08789	43531.675
471.18916	42786.375
475.2875	42159.075
479.38291	41995.275
483.4754	41903.775
487.56496	41431.175
491.6516	40671.375
495.73531	40024.775
499.81612	39585.075
503.89401	39612.475
507.96899	39590.975
512.04106	39464.075
516.11023	39135.375
520.1765	38688.575
524.23987	38315.675
528.30034	37845.675
532.35792	37347.875
536.41261	36739.775
540.46441	36162.875
544.51333	36090.175
548.55936	36670.475
552.60252	37666.275
556.64279	38923.175
560.6802	39708.275
564.71473	40163.175
568.7464	41072.275
572.7752	42306.175
576.80114	43309.875
580.82422	44226.175
584.84444	45210.175
588.86181	45992.075
592.87633	46630.075
596.888	46715.675
600.89682	46343.675
604.9028	47690.975
608.90594	52715.475
612.90624	58001.375
616.90371	53989.675
620.89834	43308.175
624.89015	38536.775
628.87913	38038.775
632.86528	38267.075
636.84862	38104.875
640.82913	37317.575
644.80683	36033.175
648.78172	34987.775
652.75379	34698.775
656.72306	35194.975
660.68952	36011.775
664.65319	35831.375
668.61405	35013.475
672.57211	34621.275
676.52738	34660.875
680.47986	34604.475
684.42955	34334.075
688.37646	34195.975
692.32058	34418.975
696.26192	34840.375
700.20048	35420.075
704.13626	35789.575
708.06928	35683.775
711.99952	35428.075
715.927	35329.875
719.85171	35435.375
723.77365	35328.575
727.69284	34736.775
731.60928	34288.775
735.52295	34041.275
739.43388	34133.075
743.34206	34218.575
747.24749	34466.275
751.15017	34888.475
755.05012	35730.075
758.94733	37063.275
762.8418	39616.275
766.73354	43499.375
770.62254	47329.175
774.50882	48134.775
778.39237	45369.475
782.27321	41249.875
786.15132	37787.175
790.02671	35746.675
793.89938	34753.975
797.76935	34325.075
801.6366	34221.775
805.50115	34150.275
809.36299	33870.975
813.22213	33561.775
817.07857	33329.575
820.93231	33220.375
824.78336	33024.575
828.63172	32822.475
832.47738	32758.575
836.32036	32845.675
840.16066	32983.075
843.99827	33121.075
847.8332	32994.175
851.66546	32795.575
855.49504	32707.475
859.32195	32695.475
863.1462	32574.775
866.96777	32390.975
870.78668	32226.375
874.60293	32231.875
878.41652	32246.575
882.22745	32421.075
886.03573	32536.875
889.84136	32576.475
893.64433	32469.075
897.44466	32205.975
901.24235	32056.775
905.0374	31911.875
908.8298	31831.875
912.61957	31877.175
916.40671	32205.575
920.19121	32835.075
923.97308	33454.575
927.75233	33664.375
931.52895	33465.475
935.30295	32904.975
939.07433	32044.875
942.84309	31303.875
946.60924	30948.275
950.37278	30876.675
954.13371	30791.075
957.89203	30668.575
961.64774	30633.875
965.40086	30592.275
969.15137	30464.875
972.89929	30296.075
976.64461	30218.675
980.38733	30177.575
984.12747	30322.775
987.86502	30636.575
991.59999	31100.975
995.33237	31878.475
999.06217	32985.675
1002.78939	34356.375
1006.51404	35208.075
1010.23611	35740.375
1013.95561	36017.975
1017.67255	35986.275
1021.38692	35445.375
1025.09872	34840.175
1028.80796	34950.775
1032.51465	35985.675
1036.21877	37103.875
1039.92035	37415.475
1043.61937	36857.975
1047.31584	35847.975
1051.00976	34810.775
1054.70114	34238.975
1058.38998	34252.475
1062.07627	34466.875
1065.76003	34835.875
1069.44126	35216.475
1073.11995	35847.175
1076.79611	36449.375
1080.46974	36805.075
1084.14085	37198.675
1087.80943	37804.975
1091.47549	38250.775
1095.13903	38325.775
1098.80005	37705.675
1102.45857	36579.775
1106.11456	35656.775
1109.76805	35150.375
1113.41903	35151.575
1117.06751	35362.575
1120.71348	35779.275
1124.35696	36359.875
1127.99793	37025.475
1131.63641	37407.375
1135.2724	37088.975
1138.90589	36716.875
1142.5369	36585.175
1146.16542	36666.575
1149.79145	36906.675
1153.415	37260.975
1157.03607	37902.775
1160.65467	39050.575
1164.27079	41038.875
1167.88443	43766.875
1171.49561	47244.375
1175.10432	51817.375
1178.71056	57528.075
1182.31434	62838.275
1185.91565	65578.075
1189.51451	65448.575
1193.11091	63109.175
1196.70485	59715.075
1200.29634	56323.075
1203.88538	53829.975
1207.47197	52128.975
1211.05612	50948.975
1214.63782	49955.175
1218.21708	49074.475
1221.79391	48325.375
1225.36829	47878.275
1228.94024	47178.975
1232.50976	46104.775
1236.07685	45213.375
1239.6415	44656.675
1243.20374	44438.175
1246.76355	44717.275
1250.32093	45557.675
1253.8759	46758.575
1257.42845	48468.875
1260.97859	50340.275
1264.52631	52155.375
1268.07163	54033.675
1271.61453	55984.075
1275.15503	58110.175
1278.69312	60202.875
1282.22882	62085.475
1285.76211	64054.075
1289.29301	66105.475
1292.82151	68831.075
1296.34761	72337.475
1299.87133	76867.075
1303.39266	82115.675
1306.9116	87889.875
1310.42815	93539.375
1313.94233	97131.275
1317.45412	97435.475
1320.96354	95626.175
1324.47058	93427.375
1327.97525	91231.075
1331.47754	89551.375
1334.97747	88440.575
1338.47502	87472.075
1341.97022	86119.075
1345.46305	84387.575
1348.95352	82364.975
1352.44163	81109.975
1355.92738	82324.175
1359.41078	86188.175
1362.89183	90391.775
1366.37053	89595.675
1369.84688	82361.175
1373.32088	72823.975
1376.79254	65874.275
1380.26186	63001.875
1383.72883	62562.975
1387.19347	62501.975
1390.65578	61968.575
1394.11575	61935.675
1397.57339	62647.975
1401.0287	64097.275
1404.48168	65398.075
1407.93234	65478.375
1411.38068	64272.675
1414.82669	61986.575
1418.27039	59012.775
1421.71177	55986.875
1425.15083	53633.675
1428.58758	52426.175
1432.02203	52547.375
1435.45416	53944.475
1438.88399	55813.275
1442.31151	57432.675
1445.73673	58623.875
1449.15965	59689.275
1452.58027	60366.775
1455.9986	60647.675
1459.41463	61055.275
1462.82837	62170.275
1466.23982	63611.675
1469.64898	64714.675
1473.05586	65270.075
1476.46045	65174.475
1479.86276	64544.175
1483.26279	63600.875
1486.66054	63028.775
1490.05602	63100.675
1493.44922	63623.275
1496.84016	64549.775
1500.22882	65989.975
1503.61521	68490.675
1506.99934	71557.375
1510.38121	74313.475
1513.76081	75301.475
1517.13816	73493.775
1520.51324	69886.775
1523.88607	66454.075
1527.25665	64370.575
1530.62498	63394.375
1533.99105	62925.775
1537.35488	62361.075
1540.71647	61405.675
1544.07581	60073.875
1547.4329	58542.875
1550.78776	57166.175
1554.14038	56312.175
1557.49077	55868.475
1560.83892	55610.875
1564.18484	55717.575
1567.52853	55988.375
1570.86999	56541.375
1574.20922	57440.575
1577.54624	58321.275
1580.88103	58449.975
1584.2136	58786.875
1587.54395	60575.275
1590.87208	63963.375
1594.19801	68460.875
1597.52172	73024.875
1600.84321	74220.675
1604.16251	70462.275
1607.47959	63757.275
1610.79447	57017.775
1614.10715	51103.575
1617.41763	46409.075
1620.7259	43247.475
1624.03199	41694.475
1627.33587	41763.175
1630.63757	43407.075
1633.93707	46791.975
1637.23439	52322.775
1640.52951	60069.075
1643.82246	68825.175
1647.11321	75355.875
1650.40179	76472.975
1653.68819	70960.375
1656.97241	60733.575
1660.25446	50594.475
1663.53433	42823.075
1666.81203	37807.775
1670.08756	34695.075
1673.36092	32763.775
1676.63211	31538.375
1679.90115	30662.275
1683.16801	30007.775
1686.43272	29508.975
1689.69527	29207.275
1692.95567	28930.375
1696.2139	28772.875
1699.46999	28645.975
1702.72392	28518.675
1705.97571	28387.175
1709.22535	28274.075
1712.47284	28245.175
1715.71819	28182.375
1718.96139	28018.975
1722.20246	27935.975
1725.44139	27799.675
1728.67818	27609.775
1731.91284	27433.675
1735.14537	27223.875
1738.37576	27087.575
1741.60403	26999.275
1744.83017	26893.075
1748.05418	26789.675
1751.27607	26766.175
1754.49584	26733.475
1757.71349	26700.975
1760.92903	26648.575
1764.14244	26575.875
1767.35375	26576.175
1770.56294	26489.375
1773.77002	26466.075
1776.97499	26400.375
1780.17785	26299.575
1783.37861	26275.075
1786.57727	26238.075
1789.77382	26184.475
1792.96828	26121.875
1796.16064	26064.575
1799.3509	26003.775
1802.53907	25929.875
1805.72514	25852.875
1808.90913	25769.375
1812.09102	25729.275
1815.27083	25685.475
1818.44856	25671.075
1821.6242	25624.675
1824.79776	25660.475
1827.96924	25632.275
1831.13864	25650.775
1834.30597	25642.775
1837.47122	25623.475
1840.6344	25643.575
1843.7955	25651.975
1846.95454	25640.775
1850.11151	25634.075
1853.26642	25636.075
1856.41926	25610.675
1859.57004	25656.575
1862.71876	25636.575
1865.86542	25613.875
1869.01003	25615.275
1872.15258	25609.475
1875.29308	25587.775
1878.43152	25580.975
1881.56792	25611.875
1884.70227	25580.675
1887.83457	25611.475
1890.96482	25607.875
1894.09304	25563.175
1897.21921	25573.075
1900.34335	25591.475
1903.46544	25504.675
1906.58551	25480.775
1909.70353	25434.475
1912.81953	25367.875
1915.93349	25314.275
1919.04543	25235.575
1922.15534	25151.175
1925.26322	25064.075
1928.36908	24956.475
1931.47292	24869.675
1934.57473	24804.275
1937.67453	24656.075
1940.77232	24618.275
1943.86808	24484.775
1946.96184	24393.275
1950.05358	24312.675
1953.14331	24211.375
1956.23103	24137.875
1959.31675	24071.775
1962.40046	23952.775
1965.48217	23890.875
1968.56188	23864.575
1971.63959	23800.175
1974.7153	23731.175
1977.78901	23665.375
1980.86073	23543.975
1983.93046	23487.975
1986.99819	23362.975
1990.06394	23347.875
1993.1277	23270.475
1996.18947	23149.675
1999.24925	23119.475
2002.30706	23018.475
2005.36288	22975.875
2008.41672	22912.675
2011.46859	22910.075
2014.51848	22822.875
2017.56639	22745.375
2020.61233	22698.175
2023.6563	22652.275
2026.6983	22643.575
2029.73833	22621.275
2032.7764	22532.575
2035.8125	22482.575
2038.84664	22499.775
2041.87881	22498.875
2044.90903	22444.075
2047.93729	22408.375
2050.96359	22404.375
2053.98794	22352.775
2057.01034	22343.175
2060.03078	22283.475
2063.04927	22308.475
2066.06582	22248.675
2069.08042	22251.975
2072.09307	22205.175
2075.10378	22213.975
2078.11255	22223.175
2081.11938	22191.475
2084.12426	22144.975
2087.12722	22124.375
2090.12824	22115.775
2093.12732	22122.775
2096.12447	22142.475
2099.11969	22140.275
2102.11299	22156.975
2105.10435	22160.575
2108.09379	22149.275
2111.08131	22189.375
2114.0669	22114.275
2117.05057	22161.375
2120.03233	22215.575
2123.01216	22253.475
2125.99008	22215.475
2128.96609	22218.975
2131.94018	22232.975
2134.91236	22201.075
2137.88263	22222.775
2140.851	22219.775
2143.81746	22231.075
2146.78201	22288.575
2149.74466	22273.775
2152.7054	22262.175
2155.66425	22303.075
2158.6212	22285.675
2161.57625	22285.975
2164.52941	22264.875
2167.48067	22273.975
2170.43004	22275.275
2173.37752	22257.775
2176.32311	22232.275
2179.26681	22257.375
2182.20863	22301.675
2185.14856	22319.675
2188.08661	22295.575
2191.02278	22310.375
2193.95707	22265.075
2196.88948	22268.475
2199.82001	22253.175
2202.74867	22246.375
2205.67545	22269.775
2208.60037	22224.375
2211.52341	22204.975
2214.44458	22186.375
2217.36388	22182.475
2220.28132	22134.375
2223.1969	22087.975
2226.11061	22089.475
2229.02246	21995.375
2231.93245	22008.375
2234.84058	21981.675
2237.74686	21918.275
2240.65128	21889.275
2243.55385	21862.375
2246.45456	21815.875
2249.35343	21736.075
2252.25044	21743.175
2255.14561	21693.175
2258.03893	21654.275
2260.93041	21627.975
2263.82004	21542.875
2266.70783	21514.075
2269.59378	21468.975
2272.4779	21428.675
2275.36017	21368.175
2278.24061	21321.075
2281.11922	21281.075
2283.996	21269.675
2286.87094	21234.375
2289.74405	21230.775
2292.61534	21209.675
2295.4848	21209.775
2298.35243	21153.275
2301.21824	21183.175
2304.08223	21165.875
2306.94439	21237.975
2309.80474	21251.775
2312.66327	21254.775
2315.51999	21241.275
2318.37489	21244.075
2321.22797	21236.375
2324.07925	21233.575
2326.92871	21208.775
2329.77637	21174.975
2332.62222	21187.275
2335.46626	21170.475
2338.3085	21192.775
2341.14893	21169.475
2343.98756	21185.475
2346.8244	21227.175
2349.65943	21213.975
2352.49267	21253.675
2355.32411	21229.175
2358.15376	21258.575
2360.98161	21214.575
2363.80768	21220.775
2366.63195	21195.875
2369.45444	21104.375
2372.27514	21068.975
2375.09405	21033.175
2377.91118	20971.875
2380.72652	20891.875
2383.54009	20889.175
2386.35187	20859.975
2389.16188	20803.975
2391.97011	20797.975
2394.77657	20749.675
2397.58125	20730.675
2400.38416	20709.575
2403.18529	20628.275
2405.98466	20602.075
2408.78226	20566.475
2411.57809	20542.775
2414.37216	20547.075
2417.16446	20553.475
2419.955	20507.475
2422.74378	20454.875
2425.5308	20440.175
2428.31606	20458.275
2431.09956	20426.275
2433.88131	20429.275
2436.6613	20444.975
2439.43954	20453.775
2442.21603	20417.275
2444.99077	20419.875
2447.76377	20433.675
2450.53501	20417.175
2453.30451	20421.775
2456.07226	20440.275
2458.83827	20422.075
2461.60254	20399.775
2464.36507	20443.075
2467.12586	20430.675
2469.88492	20423.575
2472.64224	20462.575
2475.39782	20471.575
2478.15167	20491.475
2480.90379	20437.875
2483.65417	20513.675
2486.40283	20498.175
2489.14976	20522.775
2491.89497	20550.975
2494.63845	20575.275
2497.3802	20534.875
2500.12024	20509.275
2502.85855	20534.375
2505.59514	20524.575
2508.33002	20491.575
2511.06318	20475.775
2513.79462	20450.775
2516.52435	20424.975
2519.25237	20391.075
2521.97867	20353.675
2524.70327	20358.875
2527.42616	20360.475
2530.14734	20377.075
2532.86681	20323.575
2535.58458	20348.175
2538.30065	20338.175
2541.01501	20303.775
2543.72768	20316.975
2546.43864	20309.975
2549.14791	20275.675
2551.85548	20268.075
2554.56136	20261.575
2557.26554	20252.275
2559.96803	20220.575
2562.66883	20251.475
2565.36794	20204.075
2568.06536	20213.175
2570.7611	20174.375
2573.45514	20183.175
2576.14751	20184.175
2578.83819	20134.575
2581.52719	20158.875
2584.21451	20129.375
2586.90015	20164.075
2589.58411	20144.075
2592.2664	20162.775
2594.94701	20116.675
2597.62594	20095.175
2600.30321	20097.875
2602.9788	20084.475
2605.65273	20048.875
2608.32498	20061.475
2610.99557	20056.675
2613.66449	20108.575
2616.33175	20066.775
2618.99734	20109.475
2621.66128	20138.575
2624.32355	20070.175
2626.98416	20092.975
2629.64311	20075.075
2632.30041	20122.875
2634.95605	20099.275
2637.61004	20074.575
2640.26238	20062.075
2642.91306	20061.975
2645.56209	20004.675
2648.20948	20017.075
2650.85521	19991.775
2653.4993	20009.675
2656.14175	19980.575
2658.78255	20007.275
2661.42171	19973.475
2664.05923	20045.875
2666.6951	20083.975
2669.32934	20086.675
2671.96194	20045.875
2674.59291	20078.575
2677.22224	20055.275
2679.84993	20090.175
2682.476	20001.275
2685.10043	19991.775
2687.72324	19973.175
2690.34441	19968.375
2692.96396	19982.275
2695.58188	19949.075
2698.19818	19946.975
2700.81285	19964.075
2703.4259	19927.475
2706.03733	19994.275
2708.64714	19989.675
2711.25533	19975.175
2713.86191	20011.175
2716.46687	20038.175
2719.07021	20054.475
2721.67194	20117.075
2724.27206	20056.675
2726.87057	20050.275
2729.46747	20098.275
2732.06276	20126.975
2734.65644	20089.875
2737.24852	20125.875
2739.83899	20110.475
2742.42786	20112.075
2745.01513	20102.775
2747.60079	20047.975
2750.18486	20029.275
2752.76733	20019.175
2755.3482	20009.075
2757.92747	19991.375
2760.50515	19981.875
2763.08123	20006.075
2765.65573	20008.675
2768.22863	20002.075
2770.79994	19968.475
2773.36967	19989.075
2775.9378	20013.775
2778.50435	19976.675
2781.06932	19977.975
2783.6327	19942.775
2786.1945	19978.275
2788.75471	19923.375
2791.31335	19915.875
2793.87041	19910.875
2796.42589	19855.675
2798.97979	19856.175
2801.53212	19814.075
2804.08288	19822.475
2806.63206	19766.475
2809.17967	19717.275
2811.72571	19653.175
2814.27018	19663.675
2816.81308	19611.375
2819.35442	19602.775
2821.89419	19557.575
2824.43239	19575.175
2826.96904	19561.575
2829.50412	19545.675
2832.03763	19509.375
2834.56959	19556.975
2837.1	19515.175
2839.62884	19528.775
2842.15613	19495.475
2844.68186	19550.175
2847.20604	19563.975
2849.72867	19597.375
2852.24974	19572.275
2854.76927	19584.775
2857.28724	19568.775
2859.80367	19510.675
2862.31855	19526.275
2864.83189	19484.375
2867.34368	19507.875
2869.85393	19488.775
2872.36264	19501.575
2874.8698	19531.575
2877.37543	19554.075
2879.87952	19564.375
2882.38207	19560.775
2884.88308	19533.775
2887.38256	19513.675
2889.88051	19545.075
2892.37692	19579.375
2894.8718	19576.075
2897.36515	19620.675
2899.85698	19603.575
2902.34727	19621.575
2904.83604	19667.675
2907.32328	19715.875
2909.809	19695.475
2912.29319	19702.375
2914.77587	19699.275
2917.25702	19711.975
2919.73665	19727.775
2922.21476	19683.475
2924.69136	19696.875
2927.16644	19663.075
2929.64	19626.775
2932.11205	19587.675
2934.58258	19503.375
2937.05161	19502.375
2939.51912	19491.475
2941.98513	19440.475
2944.44962	19374.175
2946.91261	19346.275
2949.37409	19370.675
2951.83407	19354.875
2954.29254	19351.775
2956.74951	19251.975
2959.20498	19241.575
2961.65895	19207.675
2964.11142	19201.075
2966.56239	19163.775
2969.01186	19120.075
2971.45984	19057.975
2973.90632	19028.075
2976.35131	18974.575
2978.7948	18947.875
2981.23681	18872.775
2983.67732	18813.075
2986.11635	18768.775
2988.55388	18690.575
2990.98993	18660.375
2993.4245	18628.375
2995.85758	18562.875
2998.28917	18541.475
3000.71928	18538.475
3003.14791	18481.575
3005.57506	18461.375
3008.00073	18387.475
3010.42493	18387.075
3012.84764	18361.975
3015.26888	18332.075
3017.68865	18278.775
3020.10694	18283.175
3022.52376	18238.575
3024.9391	18208.575
3027.35298	18202.175
3029.76539	18167.675
3032.17632	18168.675
3034.5858	18108.575
3036.9938	18085.175
3039.40034	18085.875
3041.80542	18096.075
3044.20903	18089.475
3046.61118	18040.475
3049.01187	17981.175
3051.4111	18017.675
3053.80888	17957.575
3056.20519	17890.375
3058.60005	17862.175
3060.99345	17828.275
3063.3854	17787.175
3065.7759	17754.475
3068.16494	17710.775
3070.55254	17636.975
3072.93868	17602.675
3075.32338	17559.175
3077.70662	17544.375
3080.08842	17476.075
3082.46878	17466.575
3084.84769	17431.475
3087.22515	17403.875
3089.60118	17417.275
3091.97576	17378.275
3094.3489	17396.175
3096.72061	17373.175
3099.09087	17359.975
3101.4597	17308.075
3103.82709	17318.175
3106.19305	17238.975
3108.55757	17225.975
3110.92066	17146.375
3113.28232	17185.475
3115.64255	17160.075
3118.00134	17070.675
3120.35871	17067.675
3122.71466	17031.275
3125.06917	16986.575
3127.42226	16936.175
